##NAMES=Talc
##RRUFFID=R050087
##IDEAL CHEMISTRY=Mg_3_Si_4_O_10_(OH)_2_
##LOCALITY=St. Lawrence County, New York, USA
##OWNER=RRUFF
##SOURCE=University of Arizona Mineral Museum
##DESCRIPTION=An aggregate of colorless foliated coarse single crystals
##STATUS=The identification of this mineral has been confirmed by X-ray diffraction and chemical analysis
##URL=rruff.info/R050087
##MEASURED CHEMISTRY=(Mg_.998_Fe_.002_)_3_(Si_.997_Al_.003_)_4_O_10_(OH_.966_F_.034_)_2_
##PIN_ID=M00196
##ORIENTATION=Laser parallel to a* (1 0 0). Fiducial mark perpendicular to laser is parallel to -b [0 -1 0]
95.94800, 16453.00
97.18200, 16944.00
98.41600, 17163.00
99.64900, 17650.00
100.8830, 18184.00
102.1160, 18549.00
103.3490, 18995.77
104.5820, 19457.00
105.8150, 19784.00
107.0470, 20166.00
108.2800, 20374.29
109.5120, 20474.37
110.7440, 20617.00
111.9760, 20492.00
113.2080, 20385.00
114.4400, 20342.00
115.6710, 20034.00
116.9030, 19735.00
118.1340, 19612.00
119.3650, 19451.00
120.5960, 19231.00
121.8270, 19001.00
123.0580, 18922.00
124.2880, 18673.00
125.5190, 18832.00
126.7490, 18866.00
127.9790, 18863.00
129.2090, 19078.00
130.4390, 18999.00
131.6680, 19360.00
132.8980, 19291.00
134.1270, 19454.00
135.3560, 19442.00
136.5850, 19648.00
137.8140, 19775.00
139.0430, 19765.00
140.2710, 20039.00
141.5000, 20109.00
142.7280, 19916.00
143.9560, 20068.00
145.1840, 20218.00
146.4120, 19919.00
147.6390, 19998.00
148.8670, 19837.00
150.0940, 19768.00
151.3210, 19955.00
152.5490, 20075.00
153.7750, 20103.00
155.0020, 20142.00
156.2290, 20094.00
157.4550, 20131.00
158.6810, 20121.00
159.9080, 20122.00
161.1340, 20286.00
162.3590, 20115.00
163.5850, 20268.00
164.8110, 20508.00
166.0360, 20404.00
167.2610, 20351.00
168.4860, 20583.00
169.7110, 20410.00
170.9360, 20569.00
172.1610, 20570.00
173.3850, 20576.00
174.6100, 20740.00
175.8340, 20933.00
177.0580, 20919.00
178.2820, 20850.00
179.5050, 21220.00
180.7290, 21369.00
181.9520, 21769.00
183.1760, 22865.00
184.3990, 24560.00
185.6220, 27016.00
186.8450, 28785.00
188.0670, 28308.00
189.2900, 27673.00
190.5120, 29116.00
191.7340, 30691.00
192.9560, 31925.00
194.1780, 32393.00
195.4000, 32505.00
196.6220, 31321.00
197.8430, 28989.00
199.0640, 26663.00
200.2860, 24344.00
201.5070, 23075.00
202.7270, 22493.00
203.9480, 22081.00
205.1690, 21852.00
206.3890, 21722.00
207.6090, 21626.00
208.8290, 21753.00
210.0490, 21748.00
211.2690, 21732.00
212.4890, 21784.00
213.7080, 21630.00
214.9280, 21762.00
216.1470, 22024.00
217.3660, 21750.00
218.5850, 21837.00
219.8030, 22039.00
221.0220, 22074.00
222.2400, 22193.00
223.4590, 22247.00
224.6770, 22072.00
225.8950, 22369.00
227.1120, 22267.00
228.3300, 22399.00
229.5480, 22478.00
230.7650, 22366.00
231.9820, 22312.00
233.1990, 22530.00
234.4160, 22415.00
235.6330, 22320.00
236.8490, 22444.00
238.0660, 22400.00
239.2820, 22492.00
240.4980, 22478.00
241.7140, 22143.00
242.9300, 22395.00
244.1460, 22335.00
245.3610, 22435.00
246.5770, 22553.00
247.7920, 22522.00
249.0070, 22458.00
250.2220, 22514.00
251.4370, 22524.00
252.6510, 22619.00
253.8660, 22621.00
255.0800, 22724.00
256.2940, 22712.00
257.5080, 22762.00
258.7220, 22820.85
259.9360, 22848.54
261.1490, 22897.00
262.3630, 22955.00
263.5760, 22932.00
264.7890, 22998.00
266.0020, 22918.00
267.2150, 23085.00
268.4270, 23003.00
269.6400, 23004.00
270.8520, 23078.00
272.0640, 23116.00
273.2760, 23254.00
274.4880, 23280.00
275.7000, 23377.00
276.9120, 23329.00
278.1230, 23442.00
279.3340, 23435.00
280.5450, 23752.00
281.7560, 23846.00
282.9670, 24242.00
284.1780, 24039.00
285.3880, 24204.00
286.5980, 24389.00
287.8090, 24239.00
289.0190, 24399.00
290.2290, 24509.00
291.4380, 24475.00
292.6480, 24406.00
293.8570, 24566.00
295.0670, 24329.99
296.2760, 24225.00
297.4850, 23975.00
298.6930, 23831.00
299.9020, 23685.00
301.1110, 23954.00
302.3190, 23978.00
303.5270, 23939.00
304.7350, 23926.00
305.9430, 24006.00
307.1510, 24083.00
308.3580, 24080.00
309.5660, 24090.00
310.7730, 24029.00
311.9800, 24204.00
313.1870, 24387.00
314.3940, 24048.00
315.6010, 24349.00
316.8070, 24183.00
318.0130, 24546.00
319.2200, 24293.00
320.4260, 24318.00
321.6310, 24488.00
322.8370, 24436.00
324.0430, 24549.00
325.2480, 24516.00
326.4540, 24621.00
327.6590, 24871.00
328.8640, 24758.00
330.0680, 24827.00
331.2730, 24662.00
332.4780, 24871.00
333.6820, 24866.00
334.8860, 24991.00
336.0900, 25030.00
337.2940, 24879.00
338.4980, 25202.00
339.7010, 25000.00
340.9050, 25111.00
342.1080, 25150.00
343.3110, 25089.00
344.5140, 25249.00
345.7170, 25264.00
346.9200, 25540.00
348.1220, 25603.00
349.3240, 25910.00
350.5270, 26128.00
351.7290, 26309.00
352.9310, 26778.00
354.1320, 27143.00
355.3340, 27682.00
356.5350, 27962.00
357.7370, 28089.00
358.9380, 28418.00
360.1390, 28603.00
361.3400, 28645.00
362.5400, 28729.00
363.7410, 28626.00
364.9410, 27980.00
366.1410, 27729.00
367.3410, 27282.00
368.5410, 26911.00
369.7410, 26524.00
370.9400, 26321.00
372.1400, 26131.00
373.3390, 26187.00
374.5380, 26056.00
375.7370, 26086.00
376.9360, 25898.00
378.1350, 25935.00
379.3330, 26205.00
380.5310, 25959.00
381.7300, 26127.00
382.9280, 26211.00
384.1260, 26182.00
385.3230, 26075.00
386.5210, 26001.00
387.7180, 25976.00
388.9160, 25922.00
390.1130, 25973.47
391.3100, 26189.00
392.5060, 26137.00
393.7030, 26204.00
394.9000, 26350.00
396.0960, 26211.00
397.2920, 26292.00
398.4880, 26298.00
399.6840, 26241.00
400.8800, 26358.00
402.0750, 26633.00
403.2710, 26339.00
404.4660, 26498.00
405.6610, 26331.00
406.8560, 26430.00
408.0510, 26463.00
409.2450, 26437.00
410.4400, 26569.00
411.6340, 26623.00
412.8280, 26614.00
414.0220, 26711.00
415.2160, 26571.00
416.4100, 26970.00
417.6030, 26526.00
418.7970, 26791.00
419.9900, 26785.00
421.1830, 26730.00
422.3760, 26971.00
423.5690, 27270.00
424.7610, 27290.00
425.9540, 27538.00
427.1460, 27481.00
428.3380, 27594.00
429.5300, 27816.00
430.7220, 27726.00
431.9140, 27727.00
433.1050, 27892.00
434.2970, 27682.00
435.4880, 27993.00
436.6790, 27854.00
437.8700, 27631.00
439.0610, 27417.00
440.2510, 27482.00
441.4420, 27422.00
442.6320, 27617.00
443.8220, 27670.00
445.0120, 27477.00
446.2020, 27673.00
447.3910, 27802.00
448.5810, 27717.00
449.7700, 27565.00
450.9600, 27611.00
452.1490, 27881.00
453.3370, 28028.00
454.5260, 27905.00
455.7150, 28041.00
456.9030, 27969.00
458.0910, 27985.00
459.2800, 27913.00
460.4670, 28085.00
461.6550, 28395.00
462.8430, 28518.00
464.0300, 28461.00
465.2180, 28687.00
466.4050, 28445.00
467.5920, 28524.00
468.7790, 28663.00
469.9650, 28439.00
471.1520, 28486.00
472.3380, 28456.00
473.5250, 28266.00
474.7110, 28413.00
475.8970, 28225.00
477.0820, 28303.00
478.2680, 28208.00
479.4540, 28494.00
480.6390, 28180.00
481.8240, 28339.00
483.0090, 28422.00
484.1940, 28248.00
485.3780, 28543.00
486.5630, 28338.00
487.7470, 28517.00
488.9320, 28477.00
490.1160, 28549.00
491.3000, 28559.00
492.4830, 28567.22
493.6670, 28561.00
494.8500, 28550.00
496.0340, 28633.00
497.2170, 28531.00
498.4000, 28608.40
499.5820, 28802.00
500.7650, 28749.00
501.9480, 28838.00
503.1300, 29044.00
504.3120, 28871.00
505.4940, 28852.00
506.6760, 29017.00
507.8580, 29139.00
509.0390, 29014.00
510.2210, 29029.00
511.4020, 29012.00
512.5830, 29052.00
513.7640, 29023.00
514.9450, 29285.00
516.1250, 29269.00
517.3060, 29400.00
518.4860, 29267.00
519.6660, 29312.00
520.8460, 29471.00
522.0260, 29142.00
523.2060, 29306.00
524.3850, 29698.00
525.5650, 29381.00
526.7440, 29148.00
527.9230, 29505.00
529.1020, 29307.00
530.2810, 29678.00
531.4590, 29852.00
532.6380, 29453.00
533.8160, 29802.00
534.9940, 29717.00
536.1720, 29448.00
537.3500, 29790.00
538.5270, 29674.00
539.7050, 29886.00
540.8820, 29992.00
542.0590, 29685.00
543.2360, 29848.00
544.4130, 29916.00
545.5900, 29864.00
546.7660, 29775.00
547.9430, 29767.00
549.1190, 29614.00
550.2950, 29861.00
551.4710, 29964.00
552.6470, 29961.00
553.8220, 29934.00
554.9980, 30210.00
556.1730, 29964.00
557.3480, 30232.00
558.5230, 30118.00
559.6980, 30215.00
560.8730, 30213.00
562.0470, 30198.00
563.2220, 30142.00
564.3960, 30196.00
565.5700, 30365.00
566.7440, 30233.00
567.9170, 30293.00
569.0910, 30505.00
570.2640, 30540.00
571.4380, 30589.06
572.6110, 30727.00
573.7840, 30659.00
574.9570, 30573.00
576.1290, 30691.00
577.3020, 30571.00
578.4740, 30668.00
579.6460, 30646.99
580.8180, 30777.00
581.9900, 30677.00
583.1620, 30819.00
584.3330, 30943.00
585.5040, 30900.00
586.6760, 30891.00
587.8470, 30879.73
589.0180, 30934.00
590.1880, 30817.00
591.3590, 30828.00
592.5290, 30883.00
593.7000, 31088.00
594.8700, 30962.00
596.0400, 31392.00
597.2090, 31007.00
598.3790, 31384.00
599.5490, 31155.00
600.7180, 31317.00
601.8870, 31194.00
603.0560, 31417.00
604.2250, 31382.00
605.3940, 31477.00
606.5620, 31310.00
607.7300, 31480.00
608.8990, 31402.00
610.0670, 31423.00
611.2350, 31384.00
612.4020, 31492.00
613.5700, 31801.00
614.7370, 31531.00
615.9050, 31395.00
617.0720, 31728.00
618.2390, 31595.00
619.4060, 31682.00
620.5720, 31690.00
621.7390, 31878.00
622.9050, 31855.00
624.0710, 31765.00
625.2370, 32135.00
626.4030, 31834.00
627.5690, 32238.00
628.7340, 32179.00
629.9000, 32117.00
631.0650, 32310.00
632.2300, 32143.00
633.3950, 32394.00
634.5600, 32404.00
635.7240, 32494.00
636.8890, 32298.00
638.0530, 32471.00
639.2170, 32360.00
640.3810, 32501.00
641.5450, 32789.00
642.7080, 32535.00
643.8720, 32824.00
645.0350, 32622.00
646.1980, 32999.00
647.3610, 32785.00
648.5240, 32863.00
649.6870, 32873.00
650.8490, 33155.00
652.0120, 33028.00
653.1740, 33310.00
654.3360, 33481.00
655.4980, 33291.00
656.6600, 33514.00
657.8210, 33909.00
658.9830, 33842.00
660.1440, 34000.00
661.3050, 34503.00
662.4660, 34772.00
663.6270, 35072.00
664.7870, 35791.00
665.9480, 36186.00
667.1080, 37384.00
668.2680, 38299.00
669.4280, 39265.00
670.5880, 40753.00
671.7480, 41730.00
672.9070, 42439.00
674.0670, 43497.00
675.2260, 43807.00
676.3850, 43861.00
677.5440, 43567.00
678.7030, 42713.00
679.8610, 41703.00
681.0200, 40535.00
682.1780, 39362.00
683.3360, 38182.00
684.4940, 37557.00
685.6520, 36760.00
686.8090, 36128.00
687.9670, 35769.00
689.1240, 35397.00
690.2810, 35051.00
691.4380, 35074.00
692.5950, 34738.00
693.7520, 34530.00
694.9080, 34342.00
696.0650, 34180.00
697.2210, 34401.00
698.3770, 34287.00
699.5330, 34284.00
700.6880, 34244.00
701.8440, 34201.00
702.9990, 34190.18
704.1550, 34150.48
705.3100, 34176.00
706.4650, 34172.00
707.6190, 34224.00
708.7740, 34409.00
709.9290, 34500.00
711.0830, 34400.00
712.2370, 34349.00
713.3910, 34405.00
714.5450, 34193.00
715.6980, 33965.00
716.8520, 34349.00
718.0050, 34609.00
719.1580, 34334.00
720.3110, 34667.00
721.4640, 34364.00
722.6170, 34436.00
723.7700, 34586.00
724.9220, 34332.00
726.0740, 34577.00
727.2260, 34470.00
728.3780, 34843.00
729.5300, 34483.00
730.6810, 34841.00
731.8330, 34722.00
732.9840, 34750.00
734.1350, 34747.00
735.2860, 35086.00
736.4370, 34965.00
737.5880, 35049.00
738.7380, 34847.00
739.8880, 34970.00
741.0390, 34753.00
742.1890, 34974.00
743.3380, 35225.00
744.4880, 35068.00
745.6380, 35055.00
746.7870, 35037.00
747.9360, 35143.00
749.0850, 35343.00
750.2340, 35106.00
751.3830, 35335.00
752.5310, 35177.00
753.6800, 35468.00
754.8280, 35385.00
755.9760, 35436.00
757.1240, 35435.00
758.2720, 35366.00
759.4190, 35460.00
760.5670, 35488.00
761.7140, 35390.00
762.8610, 35553.00
764.0080, 35340.00
765.1550, 35754.00
766.3020, 35493.00
767.4480, 35399.00
768.5950, 35778.00
769.7410, 35648.00
770.8870, 35809.00
772.0330, 35578.00
773.1780, 35989.00
774.3240, 35922.00
775.4690, 36058.00
776.6140, 35894.00
777.7590, 36067.00
778.9040, 36216.00
780.0490, 36057.00
781.1940, 36415.00
782.3380, 36371.00
783.4820, 36619.00
784.6260, 36814.00
785.7700, 36565.00
786.9140, 36341.00
788.0580, 36839.00
789.2010, 36619.00
790.3450, 36559.00
791.4880, 36685.00
792.6310, 36726.00
793.7730, 36633.00
794.9160, 36640.00
796.0590, 36764.00
797.2010, 36608.00
798.3430, 36621.00
799.4850, 36506.00
800.6270, 36833.00
801.7690, 36785.00
802.9100, 36511.00
804.0520, 36851.00
805.1930, 36911.00
806.3340, 36536.00
807.4750, 37004.00
808.6160, 37044.00
809.7560, 36813.00
810.8970, 36849.00
812.0370, 36847.75
813.1770, 36974.00
814.3170, 36935.00
815.4570, 36901.00
816.5960, 36970.00
817.7360, 36932.15
818.8750, 36977.44
820.0140, 36958.00
821.1530, 37137.00
822.2920, 37214.00
823.4310, 37480.00
824.5690, 37382.00
825.7070, 37473.00
826.8460, 37410.00
827.9840, 37481.00
829.1220, 37358.00
830.2590, 37425.00
831.3970, 37554.00
832.5340, 37389.00
833.6710, 37272.00
834.8080, 37648.00
835.9450, 37601.00
837.0820, 37607.00
838.2190, 37620.00
839.3550, 37675.00
840.4910, 37909.00
841.6270, 37711.00
842.7630, 37913.00
843.8990, 37638.00
845.0350, 37977.00
846.1700, 37880.00
847.3060, 37847.00
848.4410, 37872.00
849.5760, 37942.00
850.7100, 38141.00
851.8450, 38138.00
852.9800, 38238.00
854.1140, 38189.00
855.2480, 38093.00
856.3820, 38131.00
857.5160, 38157.95
858.6500, 38126.00
859.7830, 38279.00
860.9170, 38375.00
862.0500, 38369.00
863.1830, 38421.00
864.3160, 38432.14
865.4480, 38444.68
866.5810, 38400.00
867.7130, 38440.00
868.8460, 38355.00
869.9780, 38284.00
871.1100, 38700.00
872.2410, 38611.00
873.3730, 38556.00
874.5050, 38504.00
875.6360, 38448.00
876.7670, 38660.00
877.8980, 38634.00
879.0290, 38750.00
880.1590, 38608.00
881.2900, 38654.00
882.4200, 38750.00
883.5500, 38785.00
884.6800, 38982.00
885.8100, 38891.00
886.9400, 38743.00
888.0690, 38937.00
889.1990, 39074.00
890.3280, 39094.00
891.4570, 39239.00
892.5860, 39029.00
893.7140, 39236.00
894.8430, 39183.00
895.9710, 39033.00
897.1000, 39324.00
898.2280, 39052.00
899.3560, 39335.00
900.4830, 39502.00
901.6110, 39440.00
902.7380, 39551.00
903.8660, 39478.00
904.9930, 39508.00
906.1200, 39448.00
907.2460, 39398.00
908.3730, 39470.00
909.5000, 39469.00
910.6260, 39447.00
911.7520, 39555.00
912.8780, 39617.00
914.0040, 39634.00
915.1290, 39449.00
916.2550, 39871.00
917.3800, 39734.00
918.5050, 39730.00
919.6300, 39964.00
920.7550, 39823.00
921.8800, 39825.00
923.0040, 39949.00
924.1290, 40025.00
925.2530, 39604.00
926.3770, 40116.00
927.5010, 40357.00
928.6250, 40036.00
929.7480, 40313.00
930.8720, 40222.00
931.9950, 40025.00
933.1180, 40221.00
934.2410, 40166.00
935.3640, 40173.00
936.4860, 40225.00
937.6090, 40180.00
938.7310, 40529.00
939.8530, 40109.00
940.9750, 40612.00
942.0970, 40448.00
943.2180, 40212.00
944.3400, 40427.00
945.4610, 40644.00
946.5820, 40519.00
947.7030, 40624.00
948.8240, 41040.00
949.9450, 40872.00
951.0650, 40843.00
952.1860, 40765.00
953.3060, 40744.00
954.4260, 40777.00
955.5460, 40775.00
956.6650, 40859.00
957.7850, 40834.00
958.9040, 41008.00
960.0230, 41165.00
961.1420, 40996.00
962.2610, 41344.00
963.3800, 41005.00
964.4990, 41300.00
965.6170, 41082.00
966.7350, 41315.00
967.8530, 41159.00
968.9710, 41070.00
970.0890, 41515.00
971.2070, 41206.00
972.3240, 41463.00
973.4410, 41361.00
974.5580, 41360.00
975.6750, 41404.00
976.7920, 41519.00
977.9090, 41787.00
979.0250, 41558.00
980.1410, 41410.00
981.2580, 41648.00
982.3740, 41798.00
983.4890, 41789.00
984.6050, 41738.00
985.7200, 41682.00
986.8360, 42036.00
987.9510, 41978.00
989.0660, 41920.00
990.1810, 41868.00
991.2950, 41870.00
992.4100, 41897.00
993.5240, 42110.00
994.6390, 42087.00
995.7530, 42207.00
996.8660, 42392.00
997.9800, 42295.00
999.0940, 42372.00
1000.207, 42357.00
1001.320, 42330.00
1002.433, 42332.00
1003.546, 42183.00
1004.659, 42299.00
1005.772, 41977.00
1006.884, 42320.00
1007.996, 42774.00
1009.108, 42646.00
1010.220, 42581.00
1011.332, 42712.00
1012.444, 42624.00
1013.555, 42936.00
1014.666, 42967.00
1015.777, 43084.00
1016.888, 43164.00
1017.999, 43250.00
1019.110, 43156.00
1020.220, 43171.00
1021.331, 43164.55
1022.441, 43144.00
1023.551, 43120.00
1024.661, 43074.69
1025.770, 43185.00
1026.880, 42975.00
1027.989, 42960.00
1029.098, 42933.00
1030.207, 43101.00
1031.316, 43037.00
1032.425, 43069.00
1033.533, 43101.00
1034.642, 43110.00
1035.750, 43331.00
1036.858, 43379.00
1037.966, 43266.00
1039.073, 43664.00
1040.181, 43591.00
1041.288, 43864.00
1042.396, 43748.00
1043.503, 43660.00
1044.610, 44065.00
1045.716, 44121.00
1046.823, 44460.00
1047.929, 44582.00
1049.036, 44792.00
1050.142, 45103.00
1051.248, 45196.00
1052.353, 45094.00
1053.459, 45042.00
1054.564, 44707.00
1055.670, 44618.00
1056.775, 44438.00
1057.880, 44445.00
1058.985, 44111.00
1060.089, 44315.00
1061.194, 44259.00
1062.298, 44435.00
1063.402, 44200.00
1064.506, 44230.00
1065.610, 44283.00
1066.713, 44253.00
1067.817, 44248.00
1068.920, 44264.00
1070.023, 44246.00
1071.126, 44317.79
1072.229, 44377.98
1073.332, 44443.00
1074.435, 44565.00
1075.537, 44586.00
1076.639, 44680.00
1077.741, 44418.00
1078.843, 44570.00
1079.945, 44393.00
1081.046, 44628.00
1082.148, 44394.00
1083.249, 44604.00
1084.350, 44818.00
1085.451, 44897.00
1086.551, 44943.00
1087.652, 45024.89
1088.752, 44798.00
1089.853, 45004.00
1090.953, 44905.00
1092.053, 44732.00
1093.152, 44906.00
1094.252, 44891.00
1095.351, 45062.00
1096.451, 45141.00
1097.550, 44899.00
1098.649, 45232.00
1099.748, 44955.00
1100.846, 45049.00
1101.945, 44943.00
1103.043, 45086.00
1104.141, 45205.00
1105.239, 45564.00
1106.337, 45275.00
1107.434, 45464.00
1108.532, 45339.00
1109.629, 45276.00
1110.726, 45336.00
1111.823, 45365.00
1112.920, 45300.00
1114.017, 45465.00
1115.113, 45174.00
1116.210, 45545.00
1117.306, 45580.00
1118.402, 45366.00
1119.498, 45691.00
1120.593, 45695.00
1121.689, 46003.00
1122.784, 45665.00
1123.879, 45823.00
1124.974, 45999.00
1126.069, 45876.00
1127.164, 45960.00
1128.259, 46080.00
1129.353, 46022.00
1130.447, 45847.00
1131.541, 46110.00
1132.635, 45961.00
1133.729, 46161.00
1134.822, 46016.00
1135.916, 46138.00
1137.009, 46303.00
1138.102, 46215.00
1139.195, 46301.00
1140.288, 46194.00
1141.380, 46498.00
1142.473, 46237.00
1143.565, 46503.00
1144.657, 46741.00
1145.749, 46498.00
1146.841, 46485.00
1147.932, 46327.00
1149.024, 46677.00
1150.115, 46309.00
1151.206, 46644.00
1152.297, 46843.00
1153.388, 46662.00
1154.479, 46667.00
1155.569, 47086.00
1156.659, 46705.00
1157.750, 46850.00
1158.839, 46927.00
1159.929, 46852.00
1161.019, 46788.00
1162.108, 46697.00
1163.198, 46992.00
1164.287, 46997.00
1165.376, 46770.00
1166.465, 47150.00
1167.553, 47269.00
1168.642, 47165.00
1169.730, 47161.00
1170.818, 47295.00
1171.906, 47565.00
1172.994, 47246.00
1174.082, 46985.00
1175.170, 47341.00
1176.257, 47398.00
1177.344, 47428.00
1178.431, 47307.00
1179.518, 47444.00
1180.605, 47424.00
1181.691, 47313.00
1182.778, 47426.00
1183.864, 47671.00
1184.950, 47748.00
1186.036, 47589.00
1187.122, 47517.00
1188.207, 47839.00
1189.292, 47831.00
1190.378, 47985.00
1191.463, 47762.00
1192.548, 47872.40
1193.632, 48110.00
1194.717, 47933.00
1195.801, 48000.00
1196.886, 48081.00
1197.970, 48252.00
1199.054, 48013.00
1200.137, 48066.00
1201.221, 48133.00
1202.305, 48045.00
1203.388, 48306.00
1204.471, 47951.00
1205.554, 48345.00
1206.637, 48158.00
1207.719, 48282.00
1208.802, 48113.00
1209.884, 48379.00
1210.966, 48450.00
1212.048, 48714.00
1213.130, 48415.00
1214.212, 48556.00
1215.293, 48365.00
1216.374, 48702.00
1217.456, 48368.00
1218.536, 48512.00
1219.617, 48473.00
1220.698, 48766.00
1221.778, 48820.00
1222.859, 48999.00
1223.939, 48687.00
1225.019, 49039.00
1226.099, 48998.00
1227.178, 49016.00
1228.258, 49116.00
1229.337, 49056.14
1230.417, 48948.00
1231.496, 49055.00
1232.574, 48997.00
1233.653, 49075.00
1234.732, 49172.90
1235.810, 49133.00
1236.888, 49374.00
1237.966, 49377.00
1239.044, 49415.00
1240.122, 49302.00
1241.199, 49392.00
1242.277, 49470.00
1243.354, 49215.00
1244.431, 49374.00
1245.508, 49252.00
1246.585, 49153.00
1247.661, 49478.00
1248.738, 49298.00
1249.814, 49714.00
1250.890, 49670.00
1251.966, 49597.00
1253.042, 50060.00
1254.117, 49621.00
1255.193, 49507.00
1256.268, 49892.00
1257.343, 49703.00
1258.418, 49835.00
1259.493, 49650.00
1260.567, 50004.00
1261.642, 49732.00
1262.716, 50023.00
1263.790, 49838.00
1264.864, 49914.00
1265.938, 50070.00
1267.011, 49964.00
1268.085, 50366.00
1269.158, 50064.00
1270.231, 49935.00
1271.304, 50299.00
1272.377, 50229.00
1273.450, 50204.00
