##NAMES=Talc
##RRUFFID=R050087
##IDEAL CHEMISTRY=Mg_3_Si_4_O_10_(OH)_2_
##LOCALITY=St. Lawrence County, New York, USA
##OWNER=RRUFF
##SOURCE=University of Arizona Mineral Museum
##DESCRIPTION=An aggregate of colorless foliated coarse single crystals
##STATUS=The identification of this mineral has been confirmed by X-ray diffraction and chemical analysis
##URL=rruff.info/R050087
##MEASURED CHEMISTRY=(Mg_.998_Fe_.002_)_3_(Si_.997_Al_.003_)_4_O_10_(OH_.966_F_.034_)_2_
##PIN_ID=M00271
##ORIENTATION=Laser parallel to (0 -1 -1). Fiducial mark perpendicular to laser is parallel to a [1 0 0]
100.8830, 19498.00
102.1160, 20111.00
103.3490, 21119.00
104.5820, 21711.00
105.8150, 22156.00
107.0470, 21988.00
108.2800, 22126.00
109.5120, 22209.00
110.7440, 22232.19
111.9760, 22396.00
113.2080, 22360.00
114.4400, 22216.00
115.6710, 22147.00
116.9030, 21929.00
118.1340, 21771.00
119.3650, 21492.00
120.5960, 21033.00
121.8270, 20692.00
123.0580, 20680.00
124.2880, 20697.00
125.5190, 20552.00
126.7490, 20619.00
127.9790, 20883.00
129.2090, 21131.00
130.4390, 21148.00
131.6680, 21157.00
132.8980, 21097.00
134.1270, 21044.00
135.3560, 21366.00
136.5850, 21167.00
137.8140, 21375.00
139.0430, 21473.00
140.2710, 21554.00
141.5000, 21556.00
142.7280, 21721.00
143.9560, 21899.00
145.1840, 21848.13
146.4120, 21776.00
147.6390, 21843.00
148.8670, 21753.00
150.0940, 21815.00
151.3210, 21993.00
152.5490, 21855.00
153.7750, 21951.00
155.0020, 22106.00
156.2290, 21858.00
157.4550, 22035.00
158.6810, 22196.00
159.9080, 22168.00
161.1340, 22327.00
162.3590, 22313.00
163.5850, 22440.00
164.8110, 22398.00
166.0360, 22228.00
167.2610, 22606.00
168.4860, 22480.00
169.7110, 22699.00
170.9360, 22621.00
172.1610, 22748.00
173.3850, 22714.00
174.6100, 22670.00
175.8340, 22686.00
177.0580, 22838.00
178.2820, 23002.00
179.5050, 23251.00
180.7290, 23420.00
181.9520, 23435.00
183.1760, 23923.00
184.3990, 24675.00
185.6220, 26071.00
186.8450, 26752.00
188.0670, 26644.00
189.2900, 27033.00
190.5120, 28927.00
191.7340, 31259.00
192.9560, 33970.00
194.1780, 35312.00
195.4000, 34180.00
196.6220, 31577.00
197.8430, 29143.00
199.0640, 27004.00
200.2860, 25573.00
201.5070, 24695.00
202.7270, 24281.00
203.9480, 24208.00
205.1690, 23944.00
206.3890, 24057.00
207.6090, 23644.00
208.8290, 23953.00
210.0490, 23708.00
211.2690, 23689.00
212.4890, 23741.00
213.7080, 23805.00
214.9280, 23931.00
216.1470, 24141.00
217.3660, 24008.00
218.5850, 24002.00
219.8030, 24300.00
221.0220, 24098.00
222.2400, 24125.00
223.4590, 24274.00
224.6770, 24356.00
225.8950, 24612.00
227.1120, 24345.00
228.3300, 24806.00
229.5480, 24515.00
230.7650, 24707.00
231.9820, 24604.00
233.1990, 24472.00
234.4160, 24355.00
235.6330, 24386.55
236.8490, 24335.00
238.0660, 24506.00
239.2820, 24610.00
240.4980, 24724.00
241.7140, 24627.00
242.9300, 24617.00
244.1460, 24602.00
245.3610, 24631.00
246.5770, 24649.00
247.7920, 24655.00
249.0070, 24754.00
250.2220, 24665.00
251.4370, 24832.00
252.6510, 24673.00
253.8660, 24848.00
255.0800, 24948.00
256.2940, 25132.00
257.5080, 25062.00
258.7220, 25088.00
259.9360, 25344.00
261.1490, 25146.00
262.3630, 24901.00
263.5760, 25185.00
264.7890, 25241.00
266.0020, 25363.00
267.2150, 25349.00
268.4270, 25335.00
269.6400, 25311.00
270.8520, 25387.00
272.0640, 25391.49
273.2760, 25420.19
274.4880, 25451.00
275.7000, 25525.00
276.9120, 25506.00
278.1230, 25652.00
279.3340, 25660.00
280.5450, 25895.00
281.7560, 25960.00
282.9670, 25943.00
284.1780, 26149.00
285.3880, 26348.00
286.5980, 26730.00
287.8090, 26820.00
289.0190, 27159.00
290.2290, 26933.00
291.4380, 26890.00
292.6480, 26764.00
293.8570, 26449.00
295.0670, 26363.00
296.2760, 26279.00
297.4850, 26210.00
298.6930, 26207.00
299.9020, 26141.00
301.1110, 26229.00
302.3190, 26269.00
303.5270, 26193.00
304.7350, 26210.00
305.9430, 26179.00
307.1510, 26456.00
308.3580, 26255.00
309.5660, 26103.00
310.7730, 26386.00
311.9800, 26280.00
313.1870, 26261.00
314.3940, 26372.00
315.6010, 26583.00
316.8070, 26557.00
318.0130, 26640.00
319.2200, 26519.00
320.4260, 26879.00
321.6310, 26632.00
322.8370, 26804.00
324.0430, 26908.00
325.2480, 26859.00
326.4540, 27054.00
327.6590, 26911.00
328.8640, 27251.00
330.0680, 27277.00
331.2730, 27248.00
332.4780, 27459.00
333.6820, 27305.00
334.8860, 27391.00
336.0900, 27374.00
337.2940, 27361.00
338.4980, 27460.00
339.7010, 27432.43
340.9050, 27331.00
342.1080, 27505.00
343.3110, 27490.00
344.5140, 27622.00
345.7170, 27857.00
346.9200, 27789.00
348.1220, 27997.00
349.3240, 28341.00
350.5270, 28495.00
351.7290, 28852.00
352.9310, 29288.00
354.1320, 29663.00
355.3340, 30160.00
356.5350, 30623.00
357.7370, 31438.00
358.9380, 31998.00
360.1390, 32499.00
361.3400, 32735.00
362.5400, 32610.00
363.7410, 32447.00
364.9410, 31731.00
366.1410, 30826.00
367.3410, 30059.00
368.5410, 29766.00
369.7410, 29314.00
370.9400, 28864.00
372.1400, 28884.00
373.3390, 28588.00
374.5380, 28705.00
375.7370, 28645.00
376.9360, 28661.00
378.1350, 28535.00
379.3330, 28472.00
380.5310, 28440.00
381.7300, 28383.00
382.9280, 28414.60
384.1260, 28357.00
385.3230, 28470.00
386.5210, 28465.00
387.7180, 28433.00
388.9160, 28653.00
390.1130, 28505.00
391.3100, 28594.00
392.5060, 28585.00
393.7030, 28661.00
394.9000, 28377.00
396.0960, 28550.00
397.2920, 28662.00
398.4880, 28425.00
399.6840, 28585.00
400.8800, 28554.00
402.0750, 28619.00
403.2710, 28756.00
404.4660, 28775.00
405.6610, 28597.00
406.8560, 28706.00
408.0510, 28759.00
409.2450, 28699.00
410.4400, 28930.00
411.6340, 28863.00
412.8280, 28904.00
414.0220, 28770.00
415.2160, 28873.00
416.4100, 28914.00
417.6030, 29150.00
418.7970, 29165.00
419.9900, 29243.00
421.1830, 29207.00
422.3760, 29321.00
423.5690, 29364.00
424.7610, 29496.00
425.9540, 29616.00
427.1460, 29982.00
428.3380, 29882.00
429.5300, 30315.00
430.7220, 30353.00
431.9140, 30248.00
433.1050, 30761.00
434.2970, 30354.00
435.4880, 30399.00
436.6790, 30308.00
437.8700, 30069.00
439.0610, 29904.00
440.2510, 29744.00
441.4420, 29592.00
442.6320, 29915.00
443.8220, 29897.00
445.0120, 29809.00
446.2020, 29995.03
447.3910, 29945.00
448.5810, 30131.00
449.7700, 30138.00
450.9600, 30182.00
452.1490, 30258.48
453.3370, 30320.00
454.5260, 30344.00
455.7150, 30389.00
456.9030, 30447.00
458.0910, 30482.99
459.2800, 30484.00
460.4670, 30533.00
461.6550, 30743.00
462.8430, 30689.00
464.0300, 30910.00
465.2180, 31191.00
466.4050, 31347.00
467.5920, 31351.00
468.7790, 31470.00
469.9650, 31151.00
471.1520, 31127.00
472.3380, 31136.00
473.5250, 30874.00
474.7110, 30912.00
475.8970, 30707.00
477.0820, 30633.00
478.2680, 30697.00
479.4540, 30653.00
480.6390, 30757.00
481.8240, 30714.00
483.0090, 30801.00
484.1940, 30911.00
485.3780, 30775.00
486.5630, 30859.00
487.7470, 30839.00
488.9320, 30880.00
490.1160, 30801.00
491.3000, 30745.00
492.4830, 30923.00
493.6670, 30953.00
494.8500, 31067.00
496.0340, 31187.00
497.2170, 31178.00
498.4000, 31188.00
499.5820, 31230.00
500.7650, 31109.00
501.9480, 31197.00
503.1300, 31409.00
504.3120, 31433.00
505.4940, 31345.00
506.6760, 31638.00
507.8580, 31601.00
509.0390, 31463.00
510.2210, 31489.00
511.4020, 31357.00
512.5830, 31614.00
513.7640, 31695.00
514.9450, 31728.00
516.1250, 31445.00
517.3060, 31815.00
518.4860, 31573.00
519.6660, 31596.00
520.8460, 31787.00
522.0260, 31757.00
523.2060, 31698.00
524.3850, 31966.00
525.5650, 31851.00
526.7440, 31911.00
527.9230, 31890.00
529.1020, 31908.00
530.2810, 31937.00
531.4590, 32023.00
532.6380, 32162.00
533.8160, 32162.00
534.9940, 32165.00
536.1720, 32259.00
537.3500, 32150.00
538.5270, 32291.00
539.7050, 32336.00
540.8820, 31998.00
542.0590, 32369.00
543.2360, 32178.00
544.4130, 32287.00
545.5900, 32133.00
546.7660, 32143.90
547.9430, 32225.00
549.1190, 32275.00
550.2950, 32368.00
551.4710, 32426.29
552.6470, 32405.00
553.8220, 32508.00
554.9980, 32621.00
556.1730, 32563.00
557.3480, 32650.00
558.5230, 32873.00
559.6980, 32821.00
560.8730, 32718.00
562.0470, 32865.00
563.2220, 32698.00
564.3960, 32886.00
565.5700, 33043.00
566.7440, 32877.00
567.9170, 33219.00
569.0910, 33050.00
570.2640, 33251.00
571.4380, 33136.00
572.6110, 33137.00
573.7840, 33286.00
574.9570, 33209.42
576.1290, 33137.00
577.3020, 33232.00
578.4740, 33222.00
579.6460, 33250.00
580.8180, 33440.00
581.9900, 33273.00
583.1620, 33476.00
584.3330, 33783.00
585.5040, 33559.00
586.6760, 33720.00
587.8470, 33389.00
589.0180, 33665.00
590.1880, 33783.00
591.3590, 33717.00
592.5290, 33994.00
593.7000, 33891.77
594.8700, 33468.00
596.0400, 33838.00
597.2090, 33720.00
598.3790, 33748.00
599.5490, 34103.00
600.7180, 33930.00
601.8870, 34260.00
603.0560, 33951.00
604.2250, 34095.00
605.3940, 33938.00
606.5620, 34326.00
607.7300, 34197.00
608.8990, 34013.00
610.0670, 34456.00
611.2350, 34257.00
612.4020, 34207.00
613.5700, 34317.00
614.7370, 34493.00
615.9050, 34428.00
617.0720, 34701.00
618.2390, 34765.00
619.4060, 34734.00
620.5720, 34673.00
621.7390, 34884.00
622.9050, 34856.00
624.0710, 35117.00
625.2370, 35045.00
626.4030, 35269.00
627.5690, 35296.00
628.7340, 35155.00
629.9000, 35184.00
631.0650, 35293.00
632.2300, 35047.00
633.3950, 34934.00
634.5600, 35210.00
635.7240, 35153.00
636.8890, 35324.00
638.0530, 35314.00
639.2170, 35345.00
640.3810, 35342.00
641.5450, 35427.37
642.7080, 35629.00
643.8720, 35574.00
645.0350, 35685.00
646.1980, 35674.00
647.3610, 35739.00
648.5240, 35966.00
649.6870, 35997.00
650.8490, 36064.00
652.0120, 36146.00
653.1740, 36143.00
654.3360, 36375.00
655.4980, 36310.00
656.6600, 36526.00
657.8210, 36332.00
658.9830, 36768.00
660.1440, 36818.00
661.3050, 37185.00
662.4660, 37532.00
663.6270, 37847.00
664.7870, 38622.00
665.9480, 39426.00
667.1080, 40132.00
668.2680, 41116.00
669.4280, 42038.00
670.5880, 43887.00
671.7480, 45394.00
672.9070, 46804.00
674.0670, 48193.00
675.2260, 49234.00
676.3850, 49870.00
677.5440, 49380.00
678.7030, 48019.00
679.8610, 46688.00
681.0200, 44833.00
682.1780, 43532.00
683.3360, 41890.00
684.4940, 40817.00
685.6520, 39793.00
686.8090, 39276.00
687.9670, 38804.00
689.1240, 38341.00
690.2810, 38021.04
691.4380, 37741.00
692.5950, 37504.00
693.7520, 37463.00
694.9080, 37327.00
696.0650, 37220.00
697.2210, 37115.00
698.3770, 37182.00
699.5330, 37100.00
700.6880, 37093.00
701.8440, 37170.00
702.9990, 36969.00
704.1550, 36789.00
705.3100, 36940.00
706.4650, 37085.00
707.6190, 37008.00
708.7740, 36917.00
709.9290, 36980.00
711.0830, 36899.00
712.2370, 37057.00
713.3910, 36999.00
714.5450, 37198.00
715.6980, 36955.00
716.8520, 37013.00
718.0050, 37506.00
719.1580, 37358.00
720.3110, 37559.00
721.4640, 37491.00
722.6170, 37320.00
723.7700, 37313.00
724.9220, 37349.00
726.0740, 37577.00
727.2260, 37344.00
728.3780, 37564.00
729.5300, 37430.00
730.6810, 37460.00
731.8330, 37550.00
732.9840, 37468.00
734.1350, 37653.00
735.2860, 37709.00
736.4370, 37722.00
737.5880, 37637.00
738.7380, 37655.00
739.8880, 37517.00
741.0390, 37771.00
742.1890, 37936.00
743.3380, 37813.00
744.4880, 37907.00
745.6380, 37772.00
746.7870, 37846.00
747.9360, 38199.00
749.0850, 37950.00
750.2340, 38179.00
751.3830, 38215.00
752.5310, 38267.00
753.6800, 38121.00
754.8280, 38256.00
755.9760, 38151.00
757.1240, 38292.00
758.2720, 38455.00
759.4190, 38251.00
760.5670, 38548.00
761.7140, 38287.00
762.8610, 38359.00
764.0080, 38554.00
765.1550, 38664.00
766.3020, 38651.00
767.4480, 38693.00
768.5950, 38737.00
769.7410, 38540.00
770.8870, 38714.00
772.0330, 38646.00
773.1780, 38724.00
774.3240, 38716.00
775.4690, 38814.00
776.6140, 38984.00
777.7590, 39105.00
778.9040, 39190.27
780.0490, 38976.00
781.1940, 39332.00
782.3380, 39390.00
783.4820, 39418.00
784.6260, 39756.00
785.7700, 39677.00
786.9140, 39744.00
788.0580, 39732.00
789.2010, 39865.00
790.3450, 39627.00
791.4880, 39996.00
792.6310, 39820.00
793.7730, 40112.00
794.9160, 40056.00
796.0590, 39777.00
797.2010, 39965.00
798.3430, 39658.00
799.4850, 39852.00
800.6270, 39832.00
801.7690, 40114.00
802.9100, 40010.00
804.0520, 39958.00
805.1930, 39791.00
806.3340, 39681.00
807.4750, 39873.00
808.6160, 39912.00
809.7560, 39861.00
810.8970, 39988.00
812.0370, 40135.00
813.1770, 39913.00
814.3170, 39844.00
815.4570, 39945.00
816.5960, 40042.00
817.7360, 40184.00
818.8750, 40079.00
820.0140, 40352.00
821.1530, 40296.00
822.2920, 40556.00
823.4310, 40547.00
824.5690, 40624.00
825.7070, 40602.00
826.8460, 40565.00
827.9840, 40380.00
829.1220, 40538.00
830.2590, 40546.00
831.3970, 40779.00
832.5340, 40578.00
833.6710, 40687.00
834.8080, 40679.00
835.9450, 40608.00
837.0820, 40680.00
838.2190, 40845.00
839.3550, 40987.00
840.4910, 41028.27
841.6270, 40959.00
842.7630, 41152.00
843.8990, 40907.00
845.0350, 41003.00
846.1700, 41063.00
847.3060, 41085.00
848.4410, 41337.00
849.5760, 41306.00
850.7100, 41117.00
851.8450, 41194.00
852.9800, 41456.00
854.1140, 41674.00
855.2480, 41557.00
856.3820, 41408.00
857.5160, 41573.00
858.6500, 41531.57
859.7830, 41590.94
860.9170, 41721.00
862.0500, 41794.00
863.1830, 41961.00
864.3160, 42187.00
865.4480, 41798.00
866.5810, 41903.00
867.7130, 41949.00
868.8460, 41700.00
869.9780, 42199.00
871.1100, 41892.00
872.2410, 41929.00
873.3730, 41886.00
874.5050, 41877.00
875.6360, 41852.00
876.7670, 41840.84
877.8980, 42003.00
879.0290, 41934.00
880.1590, 41895.00
881.2900, 42164.00
882.4200, 42062.00
883.5500, 42197.00
884.6800, 42557.00
885.8100, 42149.00
886.9400, 42123.00
888.0690, 42279.00
889.1990, 42299.00
890.3280, 42365.00
891.4570, 42468.00
892.5860, 42351.00
893.7140, 42511.00
894.8430, 42692.00
895.9710, 42374.00
897.1000, 42584.00
898.2280, 42587.00
899.3560, 42832.00
900.4830, 42596.00
901.6110, 42589.00
902.7380, 42742.00
903.8660, 42554.00
904.9930, 42882.00
906.1200, 42811.00
907.2460, 42914.00
908.3730, 42919.00
909.5000, 43080.00
910.6260, 42979.00
911.7520, 42856.00
912.8780, 42679.00
914.0040, 43032.00
915.1290, 43155.00
916.2550, 43079.00
917.3800, 43004.00
918.5050, 43135.00
919.6300, 43247.00
920.7550, 43336.00
921.8800, 43332.00
923.0040, 43422.00
924.1290, 43172.00
925.2530, 43276.00
926.3770, 43580.00
927.5010, 43357.00
928.6250, 43479.00
929.7480, 43826.00
930.8720, 43460.00
931.9950, 43413.00
933.1180, 43620.00
934.2410, 43735.00
935.3640, 43728.20
936.4860, 43650.00
937.6090, 43746.00
938.7310, 43548.00
939.8530, 43505.00
940.9750, 43749.00
942.0970, 43724.00
943.2180, 43831.00
944.3400, 44211.00
945.4610, 43772.00
946.5820, 44013.00
947.7030, 43924.00
948.8240, 44305.00
949.9450, 43911.00
951.0650, 44098.00
952.1860, 44089.00
953.3060, 44152.00
954.4260, 44360.00
955.5460, 44285.00
956.6650, 44233.00
957.7850, 44298.00
958.9040, 44284.00
960.0230, 44233.00
961.1420, 44495.00
962.2610, 44593.00
963.3800, 44531.00
964.4990, 44490.00
965.6170, 44295.00
966.7350, 44528.00
967.8530, 44573.00
968.9710, 44488.00
970.0890, 44702.00
971.2070, 44777.00
972.3240, 44761.00
973.4410, 44653.00
974.5580, 44655.00
975.6750, 45192.00
976.7920, 44984.00
977.9090, 45121.00
979.0250, 44851.00
980.1410, 45066.00
981.2580, 45242.00
982.3740, 45329.00
983.4890, 45089.00
984.6050, 45205.00
985.7200, 45025.00
986.8360, 45353.00
987.9510, 45491.00
989.0660, 45161.00
990.1810, 45442.00
991.2950, 45564.00
992.4100, 45173.00
993.5240, 45368.00
994.6390, 45253.00
995.7530, 45622.00
996.8660, 45694.00
997.9800, 45795.00
999.0940, 45616.00
1000.207, 46030.00
1001.320, 46017.00
1002.433, 46176.00
1003.546, 46334.00
1004.659, 46166.00
1005.772, 46235.80
1006.884, 45966.00
1007.996, 46105.00
1009.108, 46086.00
1010.220, 46011.00
1011.332, 46316.00
1012.444, 45973.00
1013.555, 46285.00
1014.666, 46320.00
1015.777, 46669.00
1016.888, 46707.79
1017.999, 46686.00
1019.110, 46860.00
1020.220, 46987.00
1021.331, 47124.00
1022.441, 47038.00
1023.551, 46784.00
1024.661, 46870.36
1025.770, 46741.00
1026.880, 46828.00
1027.989, 46737.00
1029.098, 46741.00
1030.207, 46814.00
1031.316, 46891.00
1032.425, 46741.00
1033.533, 46687.00
1034.642, 46747.00
1035.750, 46798.00
1036.858, 46785.00
1037.966, 46755.00
1039.073, 46970.00
1040.181, 47166.00
1041.288, 47138.00
1042.396, 47124.00
1043.503, 47297.00
1044.610, 47410.00
1045.716, 47541.00
1046.823, 47534.00
1047.929, 47798.00
1049.036, 48109.00
1050.142, 48150.00
1051.248, 48224.00
1052.353, 48164.00
1053.459, 48252.00
1054.564, 47828.00
1055.670, 48167.00
1056.775, 47760.00
1057.880, 47964.00
1058.985, 47744.00
1060.089, 47843.00
1061.194, 47911.00
1062.298, 47846.00
1063.402, 47773.00
1064.506, 47714.00
1065.610, 47706.00
1066.713, 48061.00
1067.817, 47850.00
1068.920, 48071.00
1070.023, 47885.00
1071.126, 47942.00
1072.229, 48186.00
1073.332, 48442.00
1074.435, 48402.84
1075.537, 48247.00
1076.639, 48362.00
1077.741, 48303.00
1078.843, 48226.00
1079.945, 48085.00
1081.046, 48294.00
1082.148, 48557.00
1083.249, 48466.00
1084.350, 48651.00
1085.451, 48793.00
1086.551, 48674.00
1087.652, 48538.00
1088.752, 48527.00
1089.853, 48518.45
1090.953, 48584.46
1092.053, 48606.00
1093.152, 48810.00
1094.252, 48848.00
1095.351, 48930.00
1096.451, 48883.00
1097.550, 48987.00
1098.649, 48847.00
1099.748, 49003.00
1100.846, 48858.00
1101.945, 48938.00
1103.043, 48792.00
1104.141, 49172.00
1105.239, 49022.00
1106.337, 48850.00
1107.434, 49322.00
1108.532, 49170.00
1109.629, 49386.00
1110.726, 48917.00
1111.823, 49531.00
1112.920, 49466.00
1114.017, 49098.00
1115.113, 49505.00
1116.210, 49339.00
1117.306, 49340.00
1118.402, 49392.00
1119.498, 49393.00
1120.593, 49546.00
1121.689, 49600.00
1122.784, 49734.00
1123.879, 49856.00
1124.974, 49811.00
1126.069, 49885.00
1127.164, 49909.00
1128.259, 49806.00
1129.353, 49701.00
1130.447, 50042.00
1131.541, 49880.00
1132.635, 49876.00
1133.729, 50105.00
1134.822, 49979.00
1135.916, 49760.00
1137.009, 50268.00
1138.102, 50035.00
1139.195, 50008.00
1140.288, 50178.00
1141.380, 50242.00
1142.473, 50328.00
1143.565, 50324.00
1144.657, 50288.00
1145.749, 50263.00
1146.841, 50405.00
1147.932, 50424.00
1149.024, 50500.00
1150.115, 50634.00
1151.206, 50461.00
1152.297, 50578.00
1153.388, 50421.00
1154.479, 50579.00
1155.569, 50684.00
1156.659, 50552.00
1157.750, 50874.00
1158.839, 50593.00
1159.929, 50950.00
1161.019, 50688.00
1162.108, 50731.00
1163.198, 50671.00
1164.287, 50865.00
1165.376, 50943.00
1166.465, 50879.00
1167.553, 50893.00
1168.642, 50976.43
1169.730, 51372.00
1170.818, 51159.00
1171.906, 51219.00
1172.994, 51341.00
1174.082, 50979.00
1175.170, 51415.00
1176.257, 51462.00
1177.344, 51419.00
1178.431, 51386.00
1179.518, 51555.00
1180.605, 51450.00
1181.691, 51589.00
1182.778, 51645.50
1183.864, 51603.00
1184.950, 51778.00
1186.036, 51690.00
1187.122, 51701.00
1188.207, 51604.00
1189.292, 52006.00
1190.378, 51632.00
1191.463, 51667.00
1192.548, 52119.00
1193.632, 52000.00
1194.717, 51716.00
1195.801, 51882.00
1196.886, 51703.00
1197.970, 52150.00
1199.054, 51802.00
1200.137, 52132.00
1201.221, 52038.00
1202.305, 52157.00
1203.388, 52461.00
1204.471, 52176.00
1205.554, 52094.00
1206.637, 52246.00
1207.719, 52388.00
1208.802, 52383.00
1209.884, 52213.00
1210.966, 52308.00
1212.048, 52318.00
1213.130, 52320.00
1214.212, 52616.00
1215.293, 52386.00
1216.374, 52435.00
1217.456, 52471.00
1218.536, 52720.00
1219.617, 52618.59
1220.698, 52774.00
1221.778, 52613.00
1222.859, 52688.00
1223.939, 52873.00
1225.019, 52898.00
1226.099, 52925.00
1227.178, 53065.00
1228.258, 53000.00
1229.337, 53130.00
1230.417, 53271.00
1231.496, 52927.00
1232.574, 52959.00
1233.653, 53192.00
1234.732, 53200.00
1235.810, 53538.00
1236.888, 53353.00
1237.966, 53420.00
1239.044, 53593.00
1240.122, 53467.00
1241.199, 53385.00
1242.277, 53472.00
1243.354, 53434.00
1244.431, 53768.00
1245.508, 53518.00
1246.585, 53534.00
1247.661, 53927.00
1248.738, 53985.00
1249.814, 53878.00
1250.890, 54114.00
1251.966, 54120.00
1253.042, 53972.00
1254.117, 53890.00
1255.193, 54067.00
1256.268, 54118.00
1257.343, 54188.00
1258.418, 54208.00
1259.493, 54267.50
1260.567, 54297.94
1261.642, 54302.00
1262.716, 54443.00
1263.790, 54345.00
1264.864, 54590.00
1265.938, 54518.00
1267.011, 54274.00
1268.085, 54569.00
1269.158, 54678.00
1270.231, 54743.00
1271.304, 54892.00
1272.377, 54845.00
1273.450, 54773.00
1274.522, 54740.00
1275.594, 54757.73
1276.666, 54892.00
1277.738, 54871.00
