##NAMES=Talc
##RRUFFID=R050087
##IDEAL CHEMISTRY=Mg_3_Si_4_O_10_(OH)_2_
##LOCALITY=St. Lawrence County, New York, USA
##OWNER=RRUFF
##SOURCE=University of Arizona Mineral Museum
##DESCRIPTION=An aggregate of colorless foliated coarse single crystals
##STATUS=The identification of this mineral has been confirmed by X-ray diffraction and chemical analysis
##URL=rruff.info/R050087
##MEASURED CHEMISTRY=(Mg_.998_Fe_.002_)_3_(Si_.997_Al_.003_)_4_O_10_(OH_.966_F_.034_)_2_
##PIN_ID=M00333
##ORIENTATION=Laser parallel to c* (0 0 1). Fiducial mark perpendicular to laser is parallel to a [1 0 0]
95.94800, 17495.00
97.18200, 18369.00
98.41600, 18917.00
99.64900, 19502.00
100.8830, 20266.00
102.1160, 21071.00
103.3490, 22217.00
104.5820, 22921.00
105.8150, 23796.00
107.0470, 24413.00
108.2800, 25177.00
109.5120, 25772.00
110.7440, 24775.00
111.9760, 24119.00
113.2080, 23874.00
114.4400, 24125.00
115.6710, 23671.00
116.9030, 23415.00
118.1340, 22935.00
119.3650, 22326.00
120.5960, 21295.00
121.8270, 20611.00
123.0580, 20032.00
124.2880, 19665.00
125.5190, 19752.00
126.7490, 19585.00
127.9790, 19471.00
129.2090, 19651.00
130.4390, 19675.00
131.6680, 19686.00
132.8980, 19680.00
134.1270, 19871.00
135.3560, 19875.00
136.5850, 19903.00
137.8140, 19896.00
139.0430, 19937.88
140.2710, 20057.00
141.5000, 20020.00
142.7280, 20139.00
143.9560, 20197.00
145.1840, 20105.00
146.4120, 20242.00
147.6390, 20235.00
148.8670, 20283.00
150.0940, 20511.00
151.3210, 20559.00
152.5490, 20597.00
153.7750, 20655.00
155.0020, 20501.00
156.2290, 20623.00
157.4550, 20571.00
158.6810, 20664.00
159.9080, 20648.00
161.1340, 20856.00
162.3590, 20738.00
163.5850, 20874.00
164.8110, 21010.00
166.0360, 21064.00
167.2610, 21111.00
168.4860, 21166.00
169.7110, 21123.00
170.9360, 21210.00
172.1610, 21211.00
173.3850, 21274.00
174.6100, 21434.00
175.8340, 21493.00
177.0580, 21619.00
178.2820, 21889.00
179.5050, 22154.00
180.7290, 22904.00
181.9520, 23837.00
183.1760, 26105.00
184.3990, 30225.00
185.6220, 36360.00
186.8450, 41508.00
188.0670, 40305.00
189.2900, 39077.00
190.5120, 44130.00
191.7340, 49911.00
192.9560, 54414.00
194.1780, 57387.00
195.4000, 60225.00
196.6220, 59140.00
197.8430, 51682.00
199.0640, 41407.00
200.2860, 32534.00
201.5070, 27213.00
202.7270, 24886.00
203.9480, 23794.00
205.1690, 23163.00
206.3890, 22711.00
207.6090, 22375.00
208.8290, 22259.00
210.0490, 22069.00
211.2690, 22107.00
212.4890, 22107.00
213.7080, 22156.00
214.9280, 21964.00
216.1470, 22173.00
217.3660, 22004.00
218.5850, 22221.00
219.8030, 22375.00
221.0220, 22383.00
222.2400, 22581.00
223.4590, 22260.00
224.6770, 22287.00
225.8950, 22436.00
227.1120, 22521.00
228.3300, 22663.00
229.5480, 22691.00
230.7650, 22785.00
231.9820, 22723.00
233.1990, 22545.00
234.4160, 22467.00
235.6330, 22313.00
236.8490, 22417.00
238.0660, 22247.00
239.2820, 22130.00
240.4980, 22551.00
241.7140, 22397.00
242.9300, 22273.00
244.1460, 22329.00
245.3610, 22172.00
246.5770, 22155.00
247.7920, 22408.00
249.0070, 22360.00
250.2220, 22184.00
251.4370, 22396.00
252.6510, 22386.00
253.8660, 22365.00
255.0800, 22344.00
256.2940, 22392.00
257.5080, 22440.00
258.7220, 22682.00
259.9360, 22856.00
261.1490, 22723.00
262.3630, 22659.00
263.5760, 22401.00
264.7890, 22513.00
266.0020, 22627.00
267.2150, 22538.00
268.4270, 22675.00
269.6400, 22650.00
270.8520, 22733.00
272.0640, 22858.00
273.2760, 22830.00
274.4880, 22938.16
275.7000, 23078.00
276.9120, 23051.00
278.1230, 23216.00
279.3340, 23251.00
280.5450, 23770.00
281.7560, 24219.00
282.9670, 24439.00
284.1780, 24465.00
285.3880, 24692.00
286.5980, 24944.00
287.8090, 24910.00
289.0190, 25458.00
290.2290, 25547.00
291.4380, 25631.00
292.6480, 25152.00
293.8570, 24833.00
295.0670, 24247.00
296.2760, 23861.00
297.4850, 23620.00
298.6930, 23484.00
299.9020, 23570.00
301.1110, 23665.00
302.3190, 23512.00
303.5270, 23681.00
304.7350, 23425.00
305.9430, 23723.00
307.1510, 23702.00
308.3580, 23495.00
309.5660, 23364.00
310.7730, 23342.00
311.9800, 23438.00
313.1870, 23550.00
314.3940, 23478.00
315.6010, 23490.00
316.8070, 23453.00
318.0130, 23465.47
319.2200, 23522.96
320.4260, 23540.00
321.6310, 23706.00
322.8370, 23819.00
324.0430, 24000.00
325.2480, 24111.55
326.4540, 24207.00
327.6590, 24307.00
328.8640, 24365.00
330.0680, 24367.00
331.2730, 24622.00
332.4780, 24501.00
333.6820, 24522.00
334.8860, 24655.00
336.0900, 24476.00
337.2940, 24451.00
338.4980, 24410.00
339.7010, 24450.00
340.9050, 24568.00
342.1080, 24518.00
343.3110, 24640.00
344.5140, 24968.00
345.7170, 25221.00
346.9200, 25340.00
348.1220, 25468.00
349.3240, 26082.00
350.5270, 26416.00
351.7290, 27342.00
352.9310, 28095.00
354.1320, 28839.00
355.3340, 29548.00
356.5350, 30467.00
357.7370, 30878.00
358.9380, 31827.00
360.1390, 32155.00
361.3400, 32572.00
362.5400, 32508.00
363.7410, 32312.00
364.9410, 31561.00
366.1410, 30150.00
367.3410, 29074.00
368.5410, 27790.00
369.7410, 27143.00
370.9400, 26461.00
372.1400, 25971.00
373.3390, 25650.00
374.5380, 25559.00
375.7370, 25572.00
376.9360, 25255.00
378.1350, 25523.00
379.3330, 25412.00
380.5310, 25365.00
381.7300, 25436.00
382.9280, 25322.00
384.1260, 25190.00
385.3230, 25026.00
386.5210, 25004.95
387.7180, 24897.92
388.9160, 24944.00
390.1130, 24825.00
391.3100, 24762.45
392.5060, 24816.00
393.7030, 24704.00
394.9000, 24993.00
396.0960, 24977.00
397.2920, 25056.00
398.4880, 24862.00
399.6840, 24995.00
400.8800, 24898.00
402.0750, 24910.00
403.2710, 24873.00
404.4660, 24931.00
405.6610, 24917.00
406.8560, 25088.00
408.0510, 25130.00
409.2450, 25002.00
410.4400, 25120.00
411.6340, 25083.00
412.8280, 25172.00
414.0220, 25210.00
415.2160, 25123.00
416.4100, 25170.00
417.6030, 25319.00
418.7970, 25392.00
419.9900, 25341.00
421.1830, 25693.00
422.3760, 25526.00
423.5690, 25939.00
424.7610, 26596.00
425.9540, 26548.00
427.1460, 26867.00
428.3380, 26966.00
429.5300, 27143.00
430.7220, 27446.00
431.9140, 27620.00
433.1050, 27479.00
434.2970, 27539.00
435.4880, 27220.00
436.6790, 26825.00
437.8700, 26611.00
439.0610, 26212.00
440.2510, 26301.00
441.4420, 26121.00
442.6320, 26191.00
443.8220, 26037.00
445.0120, 26269.00
446.2020, 26327.00
447.3910, 26560.00
448.5810, 26612.00
449.7700, 26721.00
450.9600, 26742.00
452.1490, 26691.00
453.3370, 26919.00
454.5260, 26781.00
455.7150, 26843.00
456.9030, 26886.00
458.0910, 26686.00
459.2800, 26667.00
460.4670, 26653.00
461.6550, 26869.00
462.8430, 26975.00
464.0300, 27148.00
465.2180, 27233.00
466.4050, 27292.00
467.5920, 27411.00
468.7790, 27397.00
469.9650, 27463.00
471.1520, 27162.00
472.3380, 26866.00
473.5250, 26899.00
474.7110, 26622.00
475.8970, 26383.00
477.0820, 26544.00
478.2680, 26292.00
479.4540, 26446.00
480.6390, 26327.00
481.8240, 26388.00
483.0090, 26130.00
484.1940, 26282.00
485.3780, 26347.00
486.5630, 26224.00
487.7470, 26467.00
488.9320, 26224.00
490.1160, 26599.00
491.3000, 26446.00
492.4830, 26695.00
493.6670, 26533.00
494.8500, 26335.00
496.0340, 26438.00
497.2170, 26595.00
498.4000, 26538.00
499.5820, 26747.00
500.7650, 26915.00
501.9480, 26850.00
503.1300, 26772.00
504.3120, 26860.00
505.4940, 26780.00
506.6760, 26869.00
507.8580, 27106.00
509.0390, 27206.00
510.2210, 27057.00
511.4020, 27084.00
512.5830, 26999.00
513.7640, 27129.00
514.9450, 27277.00
516.1250, 27028.00
517.3060, 27103.00
518.4860, 27233.00
519.6660, 27219.00
520.8460, 27055.00
522.0260, 27122.00
523.2060, 27227.00
524.3850, 27050.00
525.5650, 27130.00
526.7440, 27126.00
527.9230, 27075.25
529.1020, 27192.00
530.2810, 27110.00
531.4590, 27107.00
532.6380, 27254.00
533.8160, 27297.00
534.9940, 27377.00
536.1720, 27400.44
537.3500, 27290.00
538.5270, 27304.00
539.7050, 27336.00
540.8820, 27084.00
542.0590, 27482.00
543.2360, 27488.00
544.4130, 27246.00
545.5900, 27431.00
546.7660, 27595.00
547.9430, 27446.00
549.1190, 27578.00
550.2950, 27777.00
551.4710, 27509.00
552.6470, 27492.00
553.8220, 27445.00
554.9980, 27605.00
556.1730, 27642.00
557.3480, 27778.00
558.5230, 27817.96
559.6980, 27841.00
560.8730, 27848.00
562.0470, 27946.00
563.2220, 27876.50
564.3960, 27993.00
565.5700, 27660.00
566.7440, 27839.00
567.9170, 27807.00
569.0910, 27885.00
570.2640, 27902.00
571.4380, 27916.03
572.6110, 27867.00
573.7840, 27990.00
574.9570, 28003.00
576.1290, 28112.00
577.3020, 27951.00
578.4740, 28087.00
579.6460, 28151.00
580.8180, 28335.00
581.9900, 28333.97
583.1620, 28256.00
584.3330, 28307.00
585.5040, 28117.00
586.6760, 27981.00
587.8470, 28089.00
589.0180, 28266.00
590.1880, 28070.00
591.3590, 28207.00
592.5290, 28254.00
593.7000, 28027.00
594.8700, 28328.00
596.0400, 28201.00
597.2090, 28441.00
598.3790, 28291.00
599.5490, 28407.00
600.7180, 28513.00
601.8870, 28381.00
603.0560, 28505.00
604.2250, 28739.00
605.3940, 28695.00
606.5620, 28716.00
607.7300, 28725.00
608.8990, 28714.00
610.0670, 28324.00
611.2350, 28920.00
612.4020, 28942.00
613.5700, 28653.00
614.7370, 28943.00
615.9050, 28893.00
617.0720, 28823.00
618.2390, 28789.00
619.4060, 29198.00
620.5720, 29120.00
621.7390, 29153.00
622.9050, 29123.00
624.0710, 29165.00
625.2370, 29152.00
626.4030, 29124.00
627.5690, 29284.00
628.7340, 29292.00
629.9000, 29130.00
631.0650, 29192.00
632.2300, 29398.00
633.3950, 29204.00
634.5600, 29587.00
635.7240, 29735.00
636.8890, 29714.00
638.0530, 29608.00
639.2170, 29764.00
640.3810, 29750.83
641.5450, 29846.00
642.7080, 29920.00
643.8720, 29987.00
645.0350, 30146.00
646.1980, 30157.00
647.3610, 30233.00
648.5240, 30364.00
649.6870, 30487.00
650.8490, 30694.00
652.0120, 30752.00
653.1740, 31044.00
654.3360, 30995.00
655.4980, 31146.00
656.6600, 31514.00
657.8210, 32062.00
658.9830, 32170.00
660.1440, 32710.00
661.3050, 33683.00
662.4660, 34170.00
663.6270, 35226.00
664.7870, 36753.00
665.9480, 38249.00
667.1080, 40448.00
668.2680, 42676.00
669.4280, 45361.00
670.5880, 48207.00
671.7480, 50759.00
672.9070, 52955.00
674.0670, 55199.00
675.2260, 56216.00
676.3850, 56695.00
677.5440, 56043.00
678.7030, 54441.00
679.8610, 51571.00
681.0200, 48324.00
682.1780, 45362.00
683.3360, 42566.00
684.4940, 40268.00
685.6520, 38373.00
686.8090, 36911.00
687.9670, 35621.00
689.1240, 34788.00
690.2810, 33986.00
691.4380, 33821.00
692.5950, 32994.00
693.7520, 32846.00
694.9080, 32660.00
696.0650, 32233.00
697.2210, 32018.00
698.3770, 31806.00
699.5330, 31641.00
700.6880, 31609.00
701.8440, 31692.00
702.9990, 31578.00
704.1550, 31546.93
705.3100, 31635.00
706.4650, 31427.00
707.6190, 31275.00
708.7740, 31295.00
709.9290, 31186.00
711.0830, 31339.00
712.2370, 31326.00
713.3910, 31289.00
714.5450, 31150.00
715.6980, 31374.00
716.8520, 31357.00
718.0050, 31246.00
719.1580, 31395.00
720.3110, 31187.00
721.4640, 31364.00
722.6170, 31242.00
723.7700, 31137.00
724.9220, 31217.00
726.0740, 31203.48
727.2260, 31208.00
728.3780, 31322.00
729.5300, 31420.00
730.6810, 31426.00
731.8330, 31573.00
732.9840, 31307.00
734.1350, 31288.00
735.2860, 31477.00
736.4370, 31439.00
737.5880, 31574.00
738.7380, 31466.00
739.8880, 31536.00
741.0390, 31496.00
742.1890, 31752.00
743.3380, 31564.00
744.4880, 31542.00
745.6380, 31361.00
746.7870, 31634.00
747.9360, 31927.00
749.0850, 31650.00
750.2340, 31965.00
751.3830, 31733.00
752.5310, 31848.00
753.6800, 31708.00
754.8280, 31810.00
755.9760, 31944.00
757.1240, 31749.00
758.2720, 31739.00
759.4190, 31938.00
760.5670, 31918.00
761.7140, 32114.00
762.8610, 31891.00
764.0080, 31983.00
765.1550, 32207.00
766.3020, 32033.00
767.4480, 32350.00
768.5950, 32332.00
769.7410, 32188.00
770.8870, 32143.00
772.0330, 32458.00
773.1780, 32505.00
774.3240, 32472.00
775.4690, 32530.00
776.6140, 32513.00
777.7590, 32581.87
778.9040, 32704.84
780.0490, 32789.00
781.1940, 32967.00
782.3380, 33211.00
783.4820, 33280.00
784.6260, 33625.00
785.7700, 33586.00
786.9140, 33715.00
788.0580, 33761.00
789.2010, 33532.00
790.3450, 33777.00
791.4880, 33597.00
792.6310, 33483.00
793.7730, 33617.00
794.9160, 33458.00
796.0590, 33325.00
797.2010, 33253.00
798.3430, 33174.01
799.4850, 33140.00
800.6270, 33074.00
801.7690, 33057.00
802.9100, 32970.00
804.0520, 33121.00
805.1930, 32987.00
806.3340, 33101.00
807.4750, 33075.00
808.6160, 33428.00
809.7560, 33257.00
810.8970, 33291.00
812.0370, 33175.00
813.1770, 33055.00
814.3170, 33265.00
815.4570, 33311.00
816.5960, 33091.00
817.7360, 33394.00
818.8750, 33161.00
820.0140, 33394.00
821.1530, 33258.00
822.2920, 33292.00
823.4310, 33468.00
824.5690, 33492.00
825.7070, 33530.00
826.8460, 33523.00
827.9840, 33441.00
829.1220, 33636.00
830.2590, 33300.00
831.3970, 33467.00
832.5340, 33734.00
833.6710, 33641.00
834.8080, 33473.00
835.9450, 33631.00
837.0820, 33662.00
838.2190, 33741.00
839.3550, 33728.00
840.4910, 33757.00
841.6270, 33762.63
842.7630, 33829.00
843.8990, 33762.00
845.0350, 33769.00
846.1700, 33799.00
847.3060, 34130.00
848.4410, 33884.00
849.5760, 33922.00
850.7100, 34068.00
851.8450, 33758.00
852.9800, 34028.00
854.1140, 34148.00
855.2480, 34098.00
856.3820, 34289.00
857.5160, 34193.00
858.6500, 34387.00
859.7830, 34274.00
860.9170, 34188.00
862.0500, 34367.00
863.1830, 34229.00
864.3160, 34376.00
865.4480, 34333.00
866.5810, 34318.00
867.7130, 34620.00
868.8460, 34354.00
869.9780, 34593.00
871.1100, 34314.00
872.2410, 34387.00
873.3730, 34470.00
874.5050, 34542.00
875.6360, 34604.00
876.7670, 34730.00
877.8980, 34598.00
879.0290, 34618.00
880.1590, 34588.00
881.2900, 34679.00
882.4200, 34660.00
883.5500, 34821.00
884.6800, 34750.00
885.8100, 34911.00
886.9400, 34937.00
888.0690, 34766.00
889.1990, 35230.00
890.3280, 34751.00
891.4570, 34897.00
892.5860, 35125.00
893.7140, 35017.00
894.8430, 35280.00
895.9710, 34948.00
897.1000, 34917.00
898.2280, 34904.00
899.3560, 35059.00
900.4830, 35260.00
901.6110, 35148.00
902.7380, 35198.00
903.8660, 35257.00
904.9930, 35221.00
906.1200, 35308.00
907.2460, 35301.00
908.3730, 35255.00
909.5000, 35241.00
910.6260, 35387.00
911.7520, 35373.00
912.8780, 35583.00
914.0040, 35326.00
915.1290, 35490.00
916.2550, 35598.00
917.3800, 35816.00
918.5050, 36027.00
919.6300, 35928.00
920.7550, 35568.00
921.8800, 35727.00
923.0040, 35720.00
924.1290, 35338.00
925.2530, 35557.00
926.3770, 35771.00
927.5010, 35752.00
928.6250, 35795.00
929.7480, 36001.00
930.8720, 35674.00
931.9950, 35992.00
933.1180, 35689.00
934.2410, 36068.00
935.3640, 35816.00
936.4860, 36186.00
937.6090, 36058.00
938.7310, 36147.00
939.8530, 36185.00
940.9750, 36322.00
942.0970, 36266.00
943.2180, 36061.00
944.3400, 36111.00
945.4610, 36293.00
946.5820, 36251.00
947.7030, 36440.00
948.8240, 36301.00
949.9450, 36286.00
951.0650, 36425.00
952.1860, 36189.00
953.3060, 36693.00
954.4260, 36530.00
955.5460, 36741.00
956.6650, 37001.00
957.7850, 36461.00
958.9040, 36669.00
960.0230, 36850.00
961.1420, 36866.00
962.2610, 36599.00
963.3800, 36748.00
964.4990, 36566.00
965.6170, 36799.00
966.7350, 36575.00
967.8530, 36851.00
968.9710, 37054.00
970.0890, 36670.00
971.2070, 36891.00
972.3240, 36658.00
973.4410, 37047.00
974.5580, 37057.00
975.6750, 37037.00
976.7920, 36930.00
977.9090, 37259.00
979.0250, 36894.00
980.1410, 37237.00
981.2580, 37185.00
982.3740, 37392.00
983.4890, 37197.00
984.6050, 37461.00
985.7200, 37303.00
986.8360, 37300.00
987.9510, 37614.00
989.0660, 37441.00
990.1810, 37308.00
991.2950, 37513.00
992.4100, 37487.00
993.5240, 37592.00
994.6390, 37571.00
995.7530, 37705.00
996.8660, 37781.00
997.9800, 37524.00
999.0940, 37730.00
1000.207, 37606.00
1001.320, 37796.00
1002.433, 37697.00
1003.546, 38111.00
1004.659, 38095.00
1005.772, 37956.00
1006.884, 38255.00
1007.996, 38321.00
1009.108, 38220.00
1010.220, 38407.00
1011.332, 38466.00
1012.444, 38895.00
1013.555, 39159.00
1014.666, 39483.00
1015.777, 39406.00
1016.888, 39692.00
1017.999, 39309.00
1019.110, 39561.00
1020.220, 39746.00
1021.331, 39436.00
1022.441, 39069.00
1023.551, 38939.00
1024.661, 39186.00
1025.770, 38776.00
1026.880, 38946.00
1027.989, 38623.00
1029.098, 38677.00
1030.207, 38673.00
1031.316, 38713.00
1032.425, 38838.00
1033.533, 38760.00
1034.642, 39008.00
1035.750, 39073.00
1036.858, 38797.00
1037.966, 38983.00
1039.073, 39458.00
1040.181, 39284.00
1041.288, 39387.00
1042.396, 40070.00
1043.503, 40263.00
1044.610, 40687.00
1045.716, 41153.00
1046.823, 42006.00
1047.929, 42825.00
1049.036, 43407.00
1050.142, 44113.00
1051.248, 44157.00
1052.353, 44360.00
1053.459, 43961.00
1054.564, 43114.00
1055.670, 42552.00
1056.775, 41920.19
1057.880, 41208.00
1058.985, 40868.00
1060.089, 40425.85
1061.194, 40014.00
1062.298, 39978.00
1063.402, 39763.00
1064.506, 39859.00
1065.610, 39741.00
1066.713, 39790.00
1067.817, 39660.00
1068.920, 39610.00
1070.023, 39726.00
1071.126, 39648.00
1072.229, 39515.00
1073.332, 39747.00
1074.435, 39878.00
1075.537, 39940.00
1076.639, 39865.00
1077.741, 39838.00
1078.843, 39900.00
1079.945, 39730.00
1081.046, 39714.00
1082.148, 40104.00
1083.249, 39862.00
1084.350, 39938.00
1085.451, 39801.00
1086.551, 39936.00
1087.652, 40113.00
1088.752, 39739.00
1089.853, 40068.00
1090.953, 40243.00
1092.053, 40263.00
1093.152, 39864.00
1094.252, 40271.00
1095.351, 39947.00
1096.451, 40225.00
1097.550, 40464.00
1098.649, 40082.00
1099.748, 40108.00
1100.846, 40323.00
1101.945, 40269.00
1103.043, 40301.00
1104.141, 40165.00
1105.239, 40259.00
1106.337, 40438.00
1107.434, 40439.00
1108.532, 40267.00
1109.629, 40394.00
1110.726, 40403.00
1111.823, 40302.00
1112.920, 40682.00
1114.017, 40347.00
1115.113, 40635.00
1116.210, 40491.00
1117.306, 40871.00
1118.402, 40730.00
1119.498, 40741.00
1120.593, 40931.00
1121.689, 40988.00
1122.784, 41199.00
1123.879, 41082.00
1124.974, 41302.00
1126.069, 41194.37
1127.164, 41156.00
1128.259, 41056.00
1129.353, 40924.00
1130.447, 40945.00
1131.541, 40908.00
1132.635, 41108.00
1133.729, 41104.00
1134.822, 41152.04
1135.916, 41197.00
1137.009, 41218.00
1138.102, 41206.00
1139.195, 41238.00
1140.288, 41259.00
1141.380, 41098.00
1142.473, 41466.00
1143.565, 41505.00
1144.657, 41316.00
1145.749, 41141.00
1146.841, 41427.00
1147.932, 41443.00
1149.024, 41058.00
1150.115, 41720.00
1151.206, 41776.00
1152.297, 41466.00
1153.388, 41523.00
1154.479, 41653.00
1155.569, 41444.00
1156.659, 41718.00
1157.750, 41634.00
1158.839, 41520.00
1159.929, 41854.00
1161.019, 41616.00
1162.108, 41812.00
1163.198, 41605.00
1164.287, 41831.00
1165.376, 41787.00
1166.465, 41861.00
1167.553, 41873.00
1168.642, 42024.00
1169.730, 41635.00
1170.818, 42178.00
1171.906, 41938.00
1172.994, 42155.00
1174.082, 41821.00
1175.170, 41975.00
1176.257, 42186.00
1177.344, 42183.00
1178.431, 42121.00
1179.518, 42412.00
1180.605, 42175.00
1181.691, 42485.00
1182.778, 42263.00
1183.864, 42243.00
1184.950, 42718.00
1186.036, 42650.00
1187.122, 42445.00
1188.207, 42361.00
1189.292, 42437.00
1190.378, 42560.00
1191.463, 42495.00
1192.548, 42519.00
1193.632, 42792.00
1194.717, 42413.00
1195.801, 42836.00
1196.886, 42685.00
1197.970, 42496.00
1199.054, 42801.00
1200.137, 42960.00
1201.221, 42524.00
1202.305, 42873.00
1203.388, 42760.00
1204.471, 42899.00
1205.554, 42748.00
1206.637, 42943.00
1207.719, 42805.00
1208.802, 42960.00
1209.884, 42945.00
1210.966, 42867.00
1212.048, 42982.00
1213.130, 42986.00
1214.212, 43264.00
1215.293, 43189.00
1216.374, 43216.00
1217.456, 43330.00
1218.536, 43332.52
1219.617, 43378.66
1220.698, 43372.00
1221.778, 43447.00
1222.859, 43271.00
1223.939, 43326.00
1225.019, 43314.00
1226.099, 43471.00
1227.178, 43531.00
1228.258, 43729.00
1229.337, 43605.00
1230.417, 43354.00
1231.496, 43316.00
1232.574, 43585.00
1233.653, 43497.00
1234.732, 43741.00
1235.810, 43386.00
1236.888, 43527.00
1237.966, 43764.00
1239.044, 43929.00
1240.122, 43830.00
1241.199, 43716.00
1242.277, 43668.00
1243.354, 43713.00
1244.431, 43875.00
1245.508, 43876.00
1246.585, 43868.00
1247.661, 44434.00
1248.738, 43871.00
1249.814, 44254.00
1250.890, 44085.00
1251.966, 44050.00
1253.042, 44094.00
1254.117, 44148.00
1255.193, 44240.00
1256.268, 44146.00
1257.343, 44213.00
1258.418, 44348.00
1259.493, 44260.00
1260.567, 44272.00
1261.642, 44422.00
1262.716, 44468.00
1263.790, 44501.00
1264.864, 44424.00
1265.938, 44317.00
1267.011, 44563.00
1268.085, 44390.00
1269.158, 44433.00
1270.231, 44743.00
1271.304, 44605.00
1272.377, 44507.00
1273.450, 44714.00
