##NAMES=Talc
##RRUFFID=R050087
##IDEAL CHEMISTRY=Mg_3_Si_4_O_10_(OH)_2_
##LOCALITY=St. Lawrence County, New York, USA
##OWNER=RRUFF
##SOURCE=University of Arizona Mineral Museum
##DESCRIPTION=An aggregate of colorless foliated coarse single crystals
##STATUS=The identification of this mineral has been confirmed by X-ray diffraction and chemical analysis
##URL=rruff.info/R050087
##MEASURED CHEMISTRY=(Mg_.998_Fe_.002_)_3_(Si_.997_Al_.003_)_4_O_10_(OH_.966_F_.034_)_2_
##PIN_ID=M00333
##ORIENTATION=Laser parallel to c* (0 0 1). Fiducial mark perpendicular to laser is parallel to a [1 0 0]
95.94800, 19551.00
97.18200, 20476.00
98.41600, 21007.00
99.64900, 21396.00
100.8830, 21930.00
102.1160, 22791.00
103.3490, 23705.00
104.5820, 24235.00
105.8150, 24681.00
107.0470, 25320.00
108.2800, 25743.00
109.5120, 25762.00
110.7440, 25014.00
111.9760, 24428.00
113.2080, 24582.00
114.4400, 24305.00
115.6710, 24075.00
116.9030, 23726.00
118.1340, 23353.00
119.3650, 22947.00
120.5960, 22554.00
121.8270, 21791.00
123.0580, 21780.00
124.2880, 21264.00
125.5190, 21397.00
126.7490, 21325.00
127.9790, 21381.00
129.2090, 21451.00
130.4390, 21466.00
131.6680, 21730.00
132.8980, 21479.00
134.1270, 21439.00
135.3560, 21676.00
136.5850, 21586.00
137.8140, 21772.00
139.0430, 22018.00
140.2710, 21914.00
141.5000, 21982.00
142.7280, 22128.00
143.9560, 21966.00
145.1840, 21900.00
146.4120, 22007.00
147.6390, 21887.00
148.8670, 22055.00
150.0940, 22227.00
151.3210, 22381.00
152.5490, 22455.00
153.7750, 22367.00
155.0020, 22516.00
156.2290, 22465.00
157.4550, 22531.00
158.6810, 22390.00
159.9080, 22519.00
161.1340, 22504.00
162.3590, 22472.00
163.5850, 22861.00
164.8110, 22689.00
166.0360, 22890.00
167.2610, 23087.00
168.4860, 22792.00
169.7110, 23016.00
170.9360, 23059.00
172.1610, 23074.00
173.3850, 23179.00
174.6100, 23221.00
175.8340, 23187.00
177.0580, 23525.00
178.2820, 23570.00
179.5050, 23660.00
180.7290, 24271.00
181.9520, 24874.00
183.1760, 26346.00
184.3990, 29242.00
185.6220, 32909.00
186.8450, 35819.00
188.0670, 35232.00
189.2900, 34747.00
190.5120, 38087.00
191.7340, 41638.00
192.9560, 45003.00
194.1780, 47961.00
195.4000, 50084.00
196.6220, 50501.00
197.8430, 46290.00
199.0640, 38911.00
200.2860, 32199.00
201.5070, 27971.00
202.7270, 25894.00
203.9480, 25204.00
205.1690, 24556.00
206.3890, 24119.00
207.6090, 24066.00
208.8290, 24064.00
210.0490, 23906.00
211.2690, 23973.00
212.4890, 23885.00
213.7080, 24082.00
214.9280, 24080.00
216.1470, 23909.00
217.3660, 24034.00
218.5850, 23987.00
219.8030, 24187.00
221.0220, 24081.00
222.2400, 24124.00
223.4590, 24158.00
224.6770, 24147.59
225.8950, 24233.00
227.1120, 24218.00
228.3300, 24342.00
229.5480, 24411.00
230.7650, 24321.00
231.9820, 24393.00
233.1990, 24359.00
234.4160, 24430.00
235.6330, 24257.00
236.8490, 24335.00
238.0660, 24224.00
239.2820, 24213.00
240.4980, 24124.00
241.7140, 24277.00
242.9300, 24321.00
244.1460, 24426.00
245.3610, 24284.00
246.5770, 24230.00
247.7920, 24285.00
249.0070, 24328.00
250.2220, 24387.00
251.4370, 24211.00
252.6510, 24292.00
253.8660, 24321.00
255.0800, 24385.00
256.2940, 24427.00
257.5080, 24460.00
258.7220, 24497.00
259.9360, 24511.47
261.1490, 24497.88
262.3630, 24541.00
263.5760, 24445.00
264.7890, 24468.56
266.0020, 24448.74
267.2150, 24583.00
268.4270, 24524.00
269.6400, 24673.00
270.8520, 24772.00
272.0640, 24843.00
273.2760, 24928.00
274.4880, 25015.16
275.7000, 24979.00
276.9120, 25207.00
278.1230, 25228.00
279.3340, 25365.00
280.5450, 25746.00
281.7560, 26147.00
282.9670, 26236.00
284.1780, 26332.00
285.3880, 26255.00
286.5980, 26350.00
287.8090, 26834.00
289.0190, 27057.00
290.2290, 27038.00
291.4380, 27145.00
292.6480, 26924.00
293.8570, 26683.00
295.0670, 26181.00
296.2760, 25840.00
297.4850, 25576.00
298.6930, 25398.00
299.9020, 25699.00
301.1110, 25576.00
302.3190, 25520.00
303.5270, 25677.00
304.7350, 25543.00
305.9430, 25502.00
307.1510, 25607.00
308.3580, 25334.00
309.5660, 25278.00
310.7730, 25495.00
311.9800, 25663.00
313.1870, 25572.00
314.3940, 25447.00
315.6010, 25578.00
316.8070, 25536.00
318.0130, 25542.00
319.2200, 25668.00
320.4260, 25916.00
321.6310, 25941.00
322.8370, 25748.00
324.0430, 26165.00
325.2480, 25912.00
326.4540, 26426.00
327.6590, 26257.00
328.8640, 26307.00
330.0680, 26421.00
331.2730, 26422.59
332.4780, 26729.00
333.6820, 26528.00
334.8860, 26540.00
336.0900, 26417.00
337.2940, 26604.00
338.4980, 26536.00
339.7010, 26574.00
340.9050, 26598.00
342.1080, 26634.00
343.3110, 26591.00
344.5140, 26969.00
345.7170, 27218.00
346.9200, 27107.00
348.1220, 27557.00
349.3240, 28096.00
350.5270, 28527.00
351.7290, 29468.00
352.9310, 30063.00
354.1320, 30900.00
355.3340, 31893.00
356.5350, 32234.00
357.7370, 33006.00
358.9380, 33154.00
360.1390, 33762.00
361.3400, 33971.00
362.5400, 34256.00
363.7410, 33469.00
364.9410, 33144.00
366.1410, 32205.00
367.3410, 30818.00
368.5410, 29762.00
369.7410, 29187.00
370.9400, 28457.00
372.1400, 28164.00
373.3390, 28044.00
374.5380, 27943.00
375.7370, 27766.00
376.9360, 27715.00
378.1350, 27539.00
379.3330, 27372.00
380.5310, 27260.00
381.7300, 27591.00
382.9280, 27439.00
384.1260, 27406.00
385.3230, 27069.00
386.5210, 27048.00
387.7180, 26984.00
388.9160, 26946.24
390.1130, 27121.00
391.3100, 27004.00
392.5060, 27014.00
393.7030, 26951.00
394.9000, 27210.00
396.0960, 27012.00
397.2920, 27226.00
398.4880, 27059.00
399.6840, 27039.00
400.8800, 26902.00
402.0750, 27134.00
403.2710, 27154.00
404.4660, 27184.00
405.6610, 27137.00
406.8560, 27041.00
408.0510, 27208.00
409.2450, 27100.00
410.4400, 27269.00
411.6340, 27300.00
412.8280, 27318.00
414.0220, 27471.00
415.2160, 27206.00
416.4100, 27410.00
417.6030, 27466.00
418.7970, 27226.00
419.9900, 27710.00
421.1830, 27789.00
422.3760, 27879.00
423.5690, 28176.00
424.7610, 28323.00
425.9540, 28547.00
427.1460, 28951.00
428.3380, 28803.00
429.5300, 29178.00
430.7220, 29428.00
431.9140, 29476.00
433.1050, 29572.00
434.2970, 29599.00
435.4880, 29310.00
436.6790, 29242.00
437.8700, 28590.00
439.0610, 28334.00
440.2510, 28235.00
441.4420, 28093.00
442.6320, 28230.00
443.8220, 28172.00
445.0120, 28367.00
446.2020, 28356.00
447.3910, 28442.39
448.5810, 28511.00
449.7700, 28605.00
450.9600, 28607.00
452.1490, 28684.00
453.3370, 28660.00
454.5260, 28722.49
455.7150, 28644.00
456.9030, 28769.00
458.0910, 28758.00
459.2800, 28669.00
460.4670, 28706.00
461.6550, 29012.00
462.8430, 28853.00
464.0300, 28824.00
465.2180, 29495.00
466.4050, 29202.00
467.5920, 29368.00
468.7790, 29455.00
469.9650, 29482.00
471.1520, 29315.00
472.3380, 28922.00
473.5250, 28926.00
474.7110, 28510.00
475.8970, 28682.00
477.0820, 28518.00
478.2680, 28589.00
479.4540, 28555.00
480.6390, 28337.00
481.8240, 28478.00
483.0090, 28545.00
484.1940, 28524.00
485.3780, 28639.00
486.5630, 28453.00
487.7470, 28570.00
488.9320, 28680.00
490.1160, 28683.00
491.3000, 28534.00
492.4830, 28572.00
493.6670, 28604.00
494.8500, 28765.00
496.0340, 28872.00
497.2170, 28835.00
498.4000, 28886.00
499.5820, 28773.00
500.7650, 29001.00
501.9480, 28914.00
503.1300, 28970.00
504.3120, 29074.00
505.4940, 29281.00
506.6760, 29080.00
507.8580, 29095.00
509.0390, 29138.00
510.2210, 29021.00
511.4020, 29204.00
512.5830, 29111.00
513.7640, 29179.00
514.9450, 29075.00
516.1250, 29125.00
517.3060, 29083.00
518.4860, 29117.00
519.6660, 29287.00
520.8460, 29198.00
522.0260, 29255.00
523.2060, 29134.00
524.3850, 29272.00
525.5650, 29211.00
526.7440, 29082.00
527.9230, 29524.00
529.1020, 29289.00
530.2810, 29502.00
531.4590, 29397.00
532.6380, 29315.00
533.8160, 29483.00
534.9940, 29500.00
536.1720, 29456.00
537.3500, 29553.04
538.5270, 29494.00
539.7050, 29622.00
540.8820, 29569.00
542.0590, 29597.00
543.2360, 29716.00
544.4130, 29805.00
545.5900, 29662.00
546.7660, 29717.00
547.9430, 29676.00
549.1190, 29613.00
550.2950, 29654.00
551.4710, 29876.00
552.6470, 29596.00
553.8220, 29754.00
554.9980, 29865.00
556.1730, 29687.00
557.3480, 29983.00
558.5230, 29824.00
559.6980, 29593.00
560.8730, 29861.00
562.0470, 29887.00
563.2220, 29974.00
564.3960, 30160.00
565.5700, 30084.00
566.7440, 29950.00
567.9170, 30031.00
569.0910, 29975.00
570.2640, 30145.00
571.4380, 29965.00
572.6110, 30235.00
573.7840, 30146.00
574.9570, 30071.00
576.1290, 30039.00
577.3020, 30173.00
578.4740, 30336.00
579.6460, 30308.00
580.8180, 30172.00
581.9900, 30396.00
583.1620, 30393.00
584.3330, 30257.00
585.5040, 30452.00
586.6760, 30252.00
587.8470, 30303.00
589.0180, 30391.00
590.1880, 30509.00
591.3590, 30422.00
592.5290, 30471.00
593.7000, 30646.00
594.8700, 30371.00
596.0400, 30837.00
597.2090, 30427.00
598.3790, 30577.00
599.5490, 30512.00
600.7180, 30711.00
601.8870, 30618.00
603.0560, 30686.00
604.2250, 30978.00
605.3940, 30807.00
606.5620, 30879.00
607.7300, 30817.00
608.8990, 30894.00
610.0670, 31069.00
611.2350, 30983.00
612.4020, 31015.00
613.5700, 31080.69
614.7370, 31068.90
615.9050, 31156.00
617.0720, 31116.00
618.2390, 31130.00
619.4060, 31105.00
620.5720, 31088.00
621.7390, 31153.00
622.9050, 31232.60
624.0710, 31381.00
625.2370, 31396.00
626.4030, 31463.00
627.5690, 31355.00
628.7340, 31513.00
629.9000, 31636.00
631.0650, 31471.00
632.2300, 31585.00
633.3950, 31792.00
634.5600, 31685.00
635.7240, 31874.00
636.8890, 31759.00
638.0530, 31963.00
639.2170, 31915.00
640.3810, 31981.00
641.5450, 31849.00
642.7080, 32058.00
643.8720, 32035.00
645.0350, 32252.00
646.1980, 32297.00
647.3610, 32097.00
648.5240, 32476.00
649.6870, 32296.00
650.8490, 32504.00
652.0120, 32951.00
653.1740, 32964.00
654.3360, 33135.00
655.4980, 33209.00
656.6600, 33502.43
657.8210, 33823.00
658.9830, 34226.00
660.1440, 34596.00
661.3050, 35116.00
662.4660, 35719.00
663.6270, 36916.00
664.7870, 38019.00
665.9480, 39516.00
667.1080, 41145.00
668.2680, 42935.00
669.4280, 45453.00
670.5880, 48183.00
671.7480, 50064.00
672.9070, 51661.00
674.0670, 53348.00
675.2260, 54615.00
676.3850, 54531.00
677.5440, 54231.00
678.7030, 52324.00
679.8610, 50433.00
681.0200, 47910.00
682.1780, 44739.00
683.3360, 43022.00
684.4940, 40651.00
685.6520, 38990.00
686.8090, 37934.00
687.9670, 36916.00
689.1240, 36067.00
690.2810, 35665.00
691.4380, 35180.00
692.5950, 34683.00
693.7520, 34419.00
694.9080, 34276.00
696.0650, 33974.00
697.2210, 34176.00
698.3770, 34143.00
699.5330, 33880.00
700.6880, 33827.00
701.8440, 33385.00
702.9990, 33378.00
704.1550, 33517.00
705.3100, 33640.00
706.4650, 33212.00
707.6190, 33577.00
708.7740, 33087.00
709.9290, 33494.00
711.0830, 33281.00
712.2370, 33327.00
713.3910, 33333.00
714.5450, 33361.00
715.6980, 33256.00
716.8520, 33231.00
718.0050, 33198.00
719.1580, 33531.00
720.3110, 33503.00
721.4640, 33407.00
722.6170, 33638.00
723.7700, 33365.00
724.9220, 33370.00
726.0740, 33410.00
727.2260, 33528.00
728.3780, 33469.00
729.5300, 33531.00
730.6810, 33615.00
731.8330, 33688.00
732.9840, 33738.00
734.1350, 33561.00
735.2860, 33733.00
736.4370, 33720.00
737.5880, 33539.00
738.7380, 33718.00
739.8880, 33921.00
741.0390, 33532.00
742.1890, 33896.00
743.3380, 33747.00
744.4880, 33779.00
745.6380, 33845.00
746.7870, 33732.00
747.9360, 33759.00
749.0850, 33642.00
750.2340, 33787.00
751.3830, 33873.00
752.5310, 34081.00
753.6800, 34235.00
754.8280, 34090.00
755.9760, 34256.00
757.1240, 34134.00
758.2720, 34303.00
759.4190, 34102.00
760.5670, 34005.00
761.7140, 34161.00
762.8610, 34149.00
764.0080, 34341.00
765.1550, 34401.00
766.3020, 34393.00
767.4480, 34414.00
768.5950, 34363.00
769.7410, 34357.00
770.8870, 34369.00
772.0330, 34800.00
773.1780, 34529.00
774.3240, 34675.00
775.4690, 34828.00
776.6140, 34668.00
777.7590, 34786.00
778.9040, 34774.00
780.0490, 35127.00
781.1940, 35199.00
782.3380, 35410.00
783.4820, 35407.00
784.6260, 35455.00
785.7700, 35588.00
786.9140, 35679.00
788.0580, 35884.00
789.2010, 35579.00
790.3450, 35534.00
791.4880, 35447.00
792.6310, 35870.00
793.7730, 35544.00
794.9160, 35543.00
796.0590, 35536.00
797.2010, 35334.00
798.3430, 35158.00
799.4850, 35470.00
800.6270, 35441.00
801.7690, 35469.00
802.9100, 35253.00
804.0520, 35118.00
805.1930, 35383.00
806.3340, 35337.00
807.4750, 34981.00
808.6160, 35274.00
809.7560, 35275.00
810.8970, 35619.00
812.0370, 35533.00
813.1770, 35211.00
814.3170, 35438.00
815.4570, 35377.00
816.5960, 35652.00
817.7360, 35611.00
818.8750, 35653.77
820.0140, 35333.00
821.1530, 35661.00
822.2920, 35576.00
823.4310, 35551.00
824.5690, 35841.00
825.7070, 35789.00
826.8460, 35677.00
827.9840, 35750.00
829.1220, 35720.00
830.2590, 35582.00
831.3970, 35879.00
832.5340, 35863.00
833.6710, 35761.00
834.8080, 36204.00
835.9450, 35920.00
837.0820, 36001.00
838.2190, 35893.00
839.3550, 35809.00
840.4910, 35968.00
841.6270, 36088.00
842.7630, 36070.00
843.8990, 36096.00
845.0350, 36034.00
846.1700, 36094.00
847.3060, 36139.00
848.4410, 36261.00
849.5760, 36155.00
850.7100, 36079.00
851.8450, 36183.00
852.9800, 36389.00
854.1140, 36228.00
855.2480, 36092.00
856.3820, 36332.00
857.5160, 36423.00
858.6500, 36315.00
859.7830, 36346.00
860.9170, 36670.00
862.0500, 36435.00
863.1830, 36572.00
864.3160, 36511.00
865.4480, 36350.00
866.5810, 36572.00
867.7130, 36925.00
868.8460, 36595.00
869.9780, 36787.00
871.1100, 36686.00
872.2410, 36648.00
873.3730, 36664.00
874.5050, 36639.99
875.6360, 37053.00
876.7670, 36739.00
877.8980, 36803.00
879.0290, 36988.00
880.1590, 36795.00
881.2900, 36824.00
882.4200, 37047.00
883.5500, 37095.00
884.6800, 37105.00
885.8100, 37003.00
886.9400, 36965.00
888.0690, 36899.00
889.1990, 36995.00
890.3280, 37011.00
891.4570, 36980.00
892.5860, 37194.00
893.7140, 36916.00
894.8430, 37152.00
895.9710, 37122.00
897.1000, 37360.00
898.2280, 37297.00
899.3560, 37108.00
900.4830, 37320.00
901.6110, 37446.00
902.7380, 37206.00
903.8660, 37378.00
904.9930, 37442.00
906.1200, 37489.00
907.2460, 37569.00
908.3730, 37583.00
909.5000, 37505.00
910.6260, 37300.00
911.7520, 37736.00
912.8780, 37594.00
914.0040, 37724.00
915.1290, 37502.00
916.2550, 37541.00
917.3800, 37714.00
918.5050, 38083.00
919.6300, 38198.00
920.7550, 37899.00
921.8800, 37885.00
923.0040, 38209.00
924.1290, 37702.00
925.2530, 37804.00
926.3770, 37985.00
927.5010, 37875.00
928.6250, 38050.00
929.7480, 38272.00
930.8720, 38135.00
931.9950, 38191.00
933.1180, 38253.00
934.2410, 38161.00
935.3640, 38199.00
936.4860, 38052.00
937.6090, 38092.00
938.7310, 38357.00
939.8530, 38255.00
940.9750, 38398.00
942.0970, 38365.00
943.2180, 38108.00
944.3400, 38313.00
945.4610, 38412.00
946.5820, 38665.00
947.7030, 38419.00
948.8240, 38507.00
949.9450, 38402.00
951.0650, 38498.00
952.1860, 38452.00
953.3060, 38610.00
954.4260, 38598.00
955.5460, 38706.00
956.6650, 38799.00
957.7850, 38687.00
958.9040, 38885.00
960.0230, 38645.00
961.1420, 39041.00
962.2610, 38930.00
963.3800, 38933.00
964.4990, 38814.00
965.6170, 38918.00
966.7350, 38858.00
967.8530, 38807.00
968.9710, 39030.00
970.0890, 38908.00
971.2070, 39093.00
972.3240, 39048.00
973.4410, 38874.00
974.5580, 39232.00
975.6750, 39061.00
976.7920, 39147.00
977.9090, 39238.00
979.0250, 39179.00
980.1410, 39445.00
981.2580, 39308.00
982.3740, 39322.00
983.4890, 39424.00
984.6050, 39260.00
985.7200, 39486.00
986.8360, 39550.00
987.9510, 39328.00
989.0660, 39542.00
990.1810, 39733.00
991.2950, 39611.00
992.4100, 39812.00
993.5240, 39499.00
994.6390, 39861.00
995.7530, 39736.00
996.8660, 39632.00
997.9800, 39580.00
999.0940, 39693.00
1000.207, 39806.00
1001.320, 39542.00
1002.433, 39752.00
1003.546, 39792.00
1004.659, 39892.00
1005.772, 40105.00
1006.884, 40162.00
1007.996, 40284.54
1009.108, 40275.00
1010.220, 40442.00
1011.332, 40569.00
1012.444, 40598.00
1013.555, 40769.00
1014.666, 40853.00
1015.777, 41070.00
1016.888, 41364.00
1017.999, 41176.00
1019.110, 41289.00
1020.220, 41154.00
1021.331, 41140.00
1022.441, 40974.00
1023.551, 40973.00
1024.661, 40793.00
1025.770, 40715.00
1026.880, 40575.00
1027.989, 40562.29
1029.098, 40491.00
1030.207, 40639.00
1031.316, 40560.00
1032.425, 40727.00
1033.533, 40702.00
1034.642, 40813.00
1035.750, 41027.00
1036.858, 40996.00
1037.966, 41023.00
1039.073, 41367.00
1040.181, 41035.00
1041.288, 41197.00
1042.396, 41684.00
1043.503, 41836.00
1044.610, 41912.00
1045.716, 42307.00
1046.823, 42857.00
1047.929, 43251.00
1049.036, 43524.00
1050.142, 44181.00
1051.248, 44634.00
1052.353, 44611.00
1053.459, 44231.00
1054.564, 43748.00
1055.670, 43216.00
1056.775, 42719.00
1057.880, 42444.00
1058.985, 42276.00
1060.089, 41843.00
1061.194, 41722.00
1062.298, 41688.00
1063.402, 41812.00
1064.506, 41707.53
1065.610, 41577.00
1066.713, 41741.00
1067.817, 41581.00
1068.920, 41769.00
1070.023, 41533.00
1071.126, 41602.00
1072.229, 41506.00
1073.332, 41751.00
1074.435, 41552.00
1075.537, 41617.00
1076.639, 41765.00
1077.741, 41597.00
1078.843, 41575.00
1079.945, 41698.00
1081.046, 41698.00
1082.148, 41895.00
1083.249, 41672.00
1084.350, 42032.00
1085.451, 41805.00
1086.551, 42036.00
1087.652, 41874.00
1088.752, 42276.00
1089.853, 42053.00
1090.953, 42008.00
1092.053, 42140.00
1093.152, 42098.00
1094.252, 42102.00
1095.351, 42130.00
1096.451, 42269.00
1097.550, 42257.00
1098.649, 42350.00
1099.748, 42311.86
1100.846, 42192.00
1101.945, 42242.00
1103.043, 42259.00
1104.141, 42307.00
1105.239, 42342.92
1106.337, 42274.00
1107.434, 42421.00
1108.532, 42389.00
1109.629, 42423.11
1110.726, 42559.00
1111.823, 42374.00
1112.920, 42554.00
1114.017, 42447.00
1115.113, 42566.00
1116.210, 42573.00
1117.306, 42548.00
1118.402, 42611.37
1119.498, 42658.07
1120.593, 42703.00
1121.689, 42812.00
1122.784, 42970.00
1123.879, 43050.00
1124.974, 43106.00
1126.069, 43098.66
1127.164, 42966.00
1128.259, 42925.00
1129.353, 42998.00
1130.447, 42778.00
1131.541, 43047.00
1132.635, 42941.00
1133.729, 42889.00
1134.822, 42770.00
1135.916, 42906.00
1137.009, 42808.00
1138.102, 42789.00
1139.195, 43284.00
1140.288, 43176.00
1141.380, 43263.00
1142.473, 43245.00
1143.565, 43106.00
1144.657, 43098.00
1145.749, 43336.00
1146.841, 43592.00
1147.932, 43284.00
1149.024, 43225.00
1150.115, 43236.00
1151.206, 43377.00
1152.297, 43206.00
1153.388, 43223.00
1154.479, 43174.00
1155.569, 43541.00
1156.659, 43365.00
1157.750, 43483.00
1158.839, 43678.00
1159.929, 43585.00
1161.019, 43428.00
1162.108, 43536.00
1163.198, 43640.00
1164.287, 43634.00
1165.376, 43763.89
1166.465, 43637.00
1167.553, 43909.00
1168.642, 43812.00
1169.730, 43789.00
1170.818, 43636.00
1171.906, 44059.00
1172.994, 44156.00
1174.082, 43800.00
1175.170, 44122.00
1176.257, 43860.00
1177.344, 44103.00
1178.431, 43823.00
1179.518, 44001.00
1180.605, 44004.00
1181.691, 43825.00
1182.778, 44204.00
1183.864, 44249.00
1184.950, 44284.00
1186.036, 44155.00
1187.122, 44205.00
1188.207, 44396.00
1189.292, 44512.00
1190.378, 44269.00
1191.463, 44499.00
1192.548, 44377.00
1193.632, 44495.00
1194.717, 44416.00
1195.801, 44408.00
1196.886, 44612.00
1197.970, 44280.00
1199.054, 44572.00
1200.137, 44532.00
1201.221, 44412.00
1202.305, 44584.00
1203.388, 44642.00
1204.471, 44496.00
1205.554, 44733.00
1206.637, 44603.00
1207.719, 44859.00
1208.802, 44757.00
1209.884, 44825.00
1210.966, 44736.00
1212.048, 44774.00
1213.130, 44738.00
1214.212, 44993.00
1215.293, 44941.00
1216.374, 45030.00
1217.456, 44900.00
1218.536, 45175.00
1219.617, 45177.00
1220.698, 44904.00
1221.778, 45287.00
1222.859, 44949.00
1223.939, 45429.00
1225.019, 45110.00
1226.099, 45158.00
1227.178, 45173.00
1228.258, 45557.00
1229.337, 45112.00
1230.417, 45203.00
1231.496, 45365.00
1232.574, 45040.00
1233.653, 45274.00
1234.732, 45438.00
1235.810, 45185.00
1236.888, 45442.00
1237.966, 45626.00
1239.044, 45126.00
1240.122, 45458.00
1241.199, 45824.00
1242.277, 45740.00
1243.354, 45480.00
1244.431, 45756.00
1245.508, 45517.00
1246.585, 45643.00
1247.661, 45431.00
1248.738, 45913.00
1249.814, 45911.00
1250.890, 45936.00
1251.966, 45708.00
1253.042, 45842.00
1254.117, 45833.00
1255.193, 45989.00
1256.268, 45740.00
1257.343, 45964.00
1258.418, 45858.00
1259.493, 46112.00
1260.567, 46258.00
1261.642, 45875.00
1262.716, 46266.00
1263.790, 46056.00
1264.864, 46076.00
1265.938, 46410.00
1267.011, 46197.00
1268.085, 46110.00
1269.158, 46247.00
1270.231, 46301.00
1271.304, 46150.00
1272.377, 46193.00
1273.450, 46223.00
