##NAMES=Talc
##RRUFFID=R050087
##IDEAL CHEMISTRY=Mg_3_Si_4_O_10_(OH)_2_
##LOCALITY=St. Lawrence County, New York, USA
##OWNER=RRUFF
##SOURCE=University of Arizona Mineral Museum
##DESCRIPTION=An aggregate of colorless foliated coarse single crystals
##STATUS=The identification of this mineral has been confirmed by X-ray diffraction and chemical analysis
##URL=rruff.info/R050087
##MEASURED CHEMISTRY=(Mg_.998_Fe_.002_)_3_(Si_.997_Al_.003_)_4_O_10_(OH_.966_F_.034_)_2_
##PIN_ID=M00196
##ORIENTATION=Laser parallel to a* (1 0 0). Fiducial mark perpendicular to laser is parallel to -b [0 -1 0]
95.94800, 17032.00
97.18200, 17520.00
98.41600, 18019.00
99.64900, 18804.00
100.8830, 19434.00
102.1160, 20403.00
103.3490, 21285.00
104.5820, 21569.00
105.8150, 22144.00
107.0470, 22601.00
108.2800, 23295.00
109.5120, 23714.00
110.7440, 23217.00
111.9760, 22632.00
113.2080, 22630.00
114.4400, 22219.00
115.6710, 21968.00
116.9030, 21201.00
118.1340, 20714.00
119.3650, 19971.00
120.5960, 19685.00
121.8270, 19480.00
123.0580, 19323.00
124.2880, 19191.00
125.5190, 19159.00
126.7490, 19141.00
127.9790, 19160.00
129.2090, 19509.00
130.4390, 19497.00
131.6680, 19725.00
132.8980, 19860.00
134.1270, 20069.00
135.3560, 20195.90
136.5850, 20088.00
137.8140, 20398.00
139.0430, 20447.00
140.2710, 20451.00
141.5000, 20137.00
142.7280, 20020.00
143.9560, 20035.00
145.1840, 19909.00
146.4120, 20143.00
147.6390, 19994.00
148.8670, 20091.00
150.0940, 20036.00
151.3210, 19968.00
152.5490, 20109.00
153.7750, 20158.00
155.0020, 20177.00
156.2290, 20031.00
157.4550, 19963.00
158.6810, 20151.00
159.9080, 20177.00
161.1340, 20302.00
162.3590, 20223.00
163.5850, 20333.00
164.8110, 20484.00
166.0360, 20404.00
167.2610, 20584.00
168.4860, 20618.00
169.7110, 20467.00
170.9360, 20829.00
172.1610, 20795.00
173.3850, 20798.00
174.6100, 20920.00
175.8340, 20983.00
177.0580, 20978.00
178.2820, 21162.00
179.5050, 21696.00
180.7290, 22090.00
181.9520, 22857.00
183.1760, 24602.00
184.3990, 28248.00
185.6220, 32520.00
186.8450, 35194.00
188.0670, 35122.00
189.2900, 36487.00
190.5120, 42239.00
191.7340, 47062.00
192.9560, 48600.00
194.1780, 47330.00
195.4000, 44336.00
196.6220, 40805.00
197.8430, 36222.00
199.0640, 31409.00
200.2860, 27417.00
201.5070, 24824.00
202.7270, 23681.00
203.9480, 22868.00
205.1690, 22281.00
206.3890, 22269.00
207.6090, 22037.00
208.8290, 21785.00
210.0490, 22036.00
211.2690, 22096.00
212.4890, 21845.00
213.7080, 22120.00
214.9280, 21989.00
216.1470, 22144.00
217.3660, 22056.00
218.5850, 22112.00
219.8030, 22241.00
221.0220, 22229.00
222.2400, 22343.33
223.4590, 22610.00
224.6770, 22547.00
225.8950, 22697.00
227.1120, 22878.00
228.3300, 22507.00
229.5480, 22623.00
230.7650, 22804.00
231.9820, 22659.00
233.1990, 22706.00
234.4160, 22574.00
235.6330, 22507.00
236.8490, 22409.00
238.0660, 22333.00
239.2820, 22486.00
240.4980, 22561.00
241.7140, 22612.00
242.9300, 22369.00
244.1460, 22384.00
245.3610, 22486.00
246.5770, 22572.00
247.7920, 22769.00
249.0070, 22760.60
250.2220, 22591.00
251.4370, 22789.00
252.6510, 22721.00
253.8660, 22723.00
255.0800, 22730.00
256.2940, 22879.00
257.5080, 22840.00
258.7220, 22813.00
259.9360, 23074.00
261.1490, 23111.00
262.3630, 23156.00
263.5760, 23044.00
264.7890, 23125.00
266.0020, 23041.00
267.2150, 23005.00
268.4270, 23251.00
269.6400, 23397.00
270.8520, 23127.00
272.0640, 23353.00
273.2760, 23442.00
274.4880, 23245.00
275.7000, 23534.00
276.9120, 23409.00
278.1230, 23695.00
279.3340, 23976.00
280.5450, 24005.00
281.7560, 24435.00
282.9670, 24636.00
284.1780, 24570.00
285.3880, 24776.00
286.5980, 25212.00
287.8090, 25529.00
289.0190, 25433.00
290.2290, 25355.00
291.4380, 25038.00
292.6480, 24750.00
293.8570, 24858.00
295.0670, 24589.00
296.2760, 24230.00
297.4850, 24352.00
298.6930, 24256.00
299.9020, 24155.00
301.1110, 24146.00
302.3190, 24307.00
303.5270, 24375.00
304.7350, 24350.00
305.9430, 24260.00
307.1510, 24071.00
308.3580, 24218.00
309.5660, 24251.00
310.7730, 24338.00
311.9800, 24116.00
313.1870, 24390.00
314.3940, 24261.00
315.6010, 24430.00
316.8070, 24662.00
318.0130, 24683.00
319.2200, 24711.00
320.4260, 24377.00
321.6310, 24679.00
322.8370, 24670.00
324.0430, 24956.00
325.2480, 25056.00
326.4540, 24770.00
327.6590, 24993.00
328.8640, 25318.00
330.0680, 25099.00
331.2730, 25177.00
332.4780, 25358.00
333.6820, 25484.00
334.8860, 25476.00
336.0900, 25291.00
337.2940, 25487.00
338.4980, 25252.00
339.7010, 25342.00
340.9050, 25228.00
342.1080, 25679.00
343.3110, 25621.00
344.5140, 25655.00
345.7170, 25997.00
346.9200, 26115.00
348.1220, 26271.00
349.3240, 26548.00
350.5270, 27001.00
351.7290, 27640.00
352.9310, 28398.00
354.1320, 28996.00
355.3340, 29592.00
356.5350, 30484.00
357.7370, 30922.00
358.9380, 31339.00
360.1390, 31748.00
361.3400, 31682.00
362.5400, 31373.00
363.7410, 30890.00
364.9410, 29926.00
366.1410, 29288.00
367.3410, 28363.00
368.5410, 27969.00
369.7410, 27487.00
370.9400, 26989.00
372.1400, 26774.00
373.3390, 26821.00
374.5380, 26539.00
375.7370, 26514.00
376.9360, 26433.00
378.1350, 26592.00
379.3330, 26481.00
380.5310, 26646.00
381.7300, 26460.00
382.9280, 26398.00
384.1260, 26577.00
385.3230, 26418.00
386.5210, 26365.00
387.7180, 26252.00
388.9160, 26394.00
390.1130, 26383.00
391.3100, 26497.00
392.5060, 26377.00
393.7030, 26555.00
394.9000, 26516.00
396.0960, 26496.00
397.2920, 26383.00
398.4880, 26638.00
399.6840, 26722.00
400.8800, 26862.00
402.0750, 26675.00
403.2710, 26619.00
404.4660, 26555.00
405.6610, 26514.00
406.8560, 26617.00
408.0510, 26805.00
409.2450, 26557.00
410.4400, 26915.00
411.6340, 26750.00
412.8280, 27175.00
414.0220, 27144.00
415.2160, 26770.00
416.4100, 27035.00
417.6030, 27067.00
418.7970, 26991.00
419.9900, 27333.00
421.1830, 27452.00
422.3760, 27499.00
423.5690, 27727.00
424.7610, 27777.00
425.9540, 28206.00
427.1460, 28083.00
428.3380, 28389.00
429.5300, 28481.00
430.7220, 28793.00
431.9140, 28621.00
433.1050, 28804.00
434.2970, 28464.00
435.4880, 28376.00
436.6790, 28329.00
437.8700, 28134.00
439.0610, 28000.00
440.2510, 28118.00
441.4420, 27881.00
442.6320, 27973.00
443.8220, 28114.00
445.0120, 28244.00
446.2020, 28189.00
447.3910, 28351.00
448.5810, 28504.00
449.7700, 28701.00
450.9600, 28573.00
452.1490, 28748.00
453.3370, 28715.00
454.5260, 28795.00
455.7150, 28599.00
456.9030, 28532.00
458.0910, 28656.00
459.2800, 28568.00
460.4670, 28995.00
461.6550, 29208.00
462.8430, 29277.00
464.0300, 29519.00
465.2180, 29747.00
466.4050, 29841.00
467.5920, 29663.00
468.7790, 29838.00
469.9650, 29540.00
471.1520, 29336.00
472.3380, 29429.00
473.5250, 29019.00
474.7110, 28780.00
475.8970, 28555.00
477.0820, 28846.00
478.2680, 28584.00
479.4540, 28672.00
480.6390, 28670.00
481.8240, 28602.00
483.0090, 28761.00
484.1940, 28925.00
485.3780, 28617.00
486.5630, 28866.00
487.7470, 28893.00
488.9320, 28954.00
490.1160, 29022.05
491.3000, 28991.00
492.4830, 29041.00
493.6670, 28990.00
494.8500, 28984.00
496.0340, 29106.00
497.2170, 29062.00
498.4000, 29216.00
499.5820, 29233.89
500.7650, 29300.00
501.9480, 29304.00
503.1300, 29453.00
504.3120, 29460.00
505.4940, 29312.00
506.6760, 29543.00
507.8580, 29403.00
509.0390, 29559.00
510.2210, 29733.00
511.4020, 29660.00
512.5830, 29649.00
513.7640, 29759.00
514.9450, 29762.00
516.1250, 29719.00
517.3060, 30129.00
518.4860, 29597.00
519.6660, 29812.00
520.8460, 29579.00
522.0260, 29906.00
523.2060, 29814.00
524.3850, 29686.00
525.5650, 29828.00
526.7440, 29884.00
527.9230, 29875.00
529.1020, 29893.00
530.2810, 30130.00
531.4590, 30208.00
532.6380, 29890.00
533.8160, 29919.00
534.9940, 30214.00
536.1720, 29945.00
537.3500, 29963.00
538.5270, 30374.00
539.7050, 30212.00
540.8820, 30313.00
542.0590, 30165.00
543.2360, 30138.00
544.4130, 30493.00
545.5900, 30462.00
546.7660, 30402.00
547.9430, 30425.00
549.1190, 30429.00
550.2950, 30320.00
551.4710, 30471.00
552.6470, 30448.00
553.8220, 30567.00
554.9980, 30437.00
556.1730, 30743.00
557.3480, 30460.00
558.5230, 30642.00
559.6980, 30549.00
560.8730, 30427.00
562.0470, 30873.00
563.2220, 30803.00
564.3960, 30811.00
565.5700, 30678.00
566.7440, 30973.00
567.9170, 30871.00
569.0910, 30845.00
570.2640, 30940.00
571.4380, 30852.00
572.6110, 31000.00
573.7840, 31084.00
574.9570, 31089.00
576.1290, 31067.00
577.3020, 31135.00
578.4740, 31015.00
579.6460, 31228.00
580.8180, 31289.00
581.9900, 31198.00
583.1620, 31232.00
584.3330, 31433.00
585.5040, 31256.00
586.6760, 31467.00
587.8470, 31261.00
589.0180, 31378.00
590.1880, 31495.00
591.3590, 31462.00
592.5290, 31646.00
593.7000, 31578.00
594.8700, 31713.00
596.0400, 31533.00
597.2090, 31457.00
598.3790, 31773.00
599.5490, 31781.00
600.7180, 31749.00
601.8870, 31740.00
603.0560, 31779.00
604.2250, 31800.00
605.3940, 31857.00
606.5620, 31877.00
607.7300, 31832.00
608.8990, 31837.00
610.0670, 32112.00
611.2350, 31971.00
612.4020, 32162.00
613.5700, 32019.00
614.7370, 32254.00
615.9050, 32094.00
617.0720, 32407.00
618.2390, 32321.00
619.4060, 32512.00
620.5720, 32456.00
621.7390, 32538.00
622.9050, 32593.00
624.0710, 32733.00
625.2370, 32866.00
626.4030, 32887.14
627.5690, 32746.00
628.7340, 32936.00
629.9000, 32806.00
631.0650, 32785.00
632.2300, 33105.00
633.3950, 32762.00
634.5600, 33043.00
635.7240, 33192.00
636.8890, 33354.00
638.0530, 33181.00
639.2170, 33284.00
640.3810, 33208.00
641.5450, 33260.00
642.7080, 33405.00
643.8720, 33282.00
645.0350, 33446.97
646.1980, 33496.00
647.3610, 33637.00
648.5240, 33802.00
649.6870, 33884.00
650.8490, 34090.00
652.0120, 34273.00
653.1740, 34095.00
654.3360, 34356.00
655.4980, 34569.00
656.6600, 34664.00
657.8210, 35111.00
658.9830, 35254.00
660.1440, 35708.00
661.3050, 36192.00
662.4660, 36863.00
663.6270, 37636.00
664.7870, 38796.00
665.9480, 40119.00
667.1080, 41458.00
668.2680, 43473.00
669.4280, 45314.00
670.5880, 47714.00
671.7480, 49790.00
672.9070, 51588.00
674.0670, 53150.00
675.2260, 53830.00
676.3850, 53633.00
677.5440, 52836.00
678.7030, 50999.00
679.8610, 48670.00
681.0200, 47100.00
682.1780, 44606.00
683.3360, 42812.00
684.4940, 40996.00
685.6520, 39892.00
686.8090, 38888.00
687.9670, 38261.00
689.1240, 37369.00
690.2810, 36781.00
691.4380, 36526.00
692.5950, 36221.00
693.7520, 36076.00
694.9080, 35785.00
696.0650, 35477.00
697.2210, 35403.00
698.3770, 35564.00
699.5330, 35446.00
700.6880, 35614.00
701.8440, 35513.65
702.9990, 34961.00
704.1550, 35239.00
705.3100, 35145.00
706.4650, 34784.00
707.6190, 35239.00
708.7740, 35082.00
709.9290, 34835.00
711.0830, 35062.00
712.2370, 34880.00
713.3910, 35339.00
714.5450, 35030.00
715.6980, 35366.00
716.8520, 35100.00
718.0050, 35142.00
719.1580, 35113.00
720.3110, 35265.00
721.4640, 35166.00
722.6170, 35180.00
723.7700, 35170.00
724.9220, 35244.00
726.0740, 35329.00
727.2260, 35585.00
728.3780, 35444.00
729.5300, 35291.00
730.6810, 35392.00
731.8330, 35612.00
732.9840, 35595.00
734.1350, 35522.00
735.2860, 35539.00
736.4370, 35558.00
737.5880, 35461.00
738.7380, 35576.00
739.8880, 35727.00
741.0390, 35929.00
742.1890, 35862.00
743.3380, 35734.00
744.4880, 35997.00
745.6380, 35947.00
746.7870, 35812.00
747.9360, 35855.00
749.0850, 36049.00
750.2340, 36133.00
751.3830, 35929.00
752.5310, 36185.00
753.6800, 35851.00
754.8280, 36189.00
755.9760, 36191.00
757.1240, 36166.00
758.2720, 36038.00
759.4190, 36190.00
760.5670, 36240.00
761.7140, 36205.00
762.8610, 36423.00
764.0080, 36242.00
765.1550, 36155.00
766.3020, 36404.00
767.4480, 36584.00
768.5950, 36581.00
769.7410, 36483.00
770.8870, 36515.00
772.0330, 36466.00
773.1780, 36488.00
774.3240, 36667.00
775.4690, 36718.00
776.6140, 36846.00
777.7590, 37025.00
778.9040, 37061.00
780.0490, 37424.00
781.1940, 37392.34
782.3380, 37455.00
783.4820, 37496.00
784.6260, 37412.00
785.7700, 37534.00
786.9140, 37542.26
788.0580, 37585.48
789.2010, 37693.00
790.3450, 37716.00
791.4880, 37705.55
792.6310, 37719.66
793.7730, 37600.00
794.9160, 37636.00
796.0590, 37514.00
797.2010, 37403.00
798.3430, 37564.00
799.4850, 37500.00
800.6270, 37512.00
801.7690, 37574.00
802.9100, 37567.00
804.0520, 37353.00
805.1930, 37182.00
806.3340, 37587.00
807.4750, 37493.00
808.6160, 37702.00
809.7560, 37520.00
810.8970, 37733.00
812.0370, 37978.00
813.1770, 37493.00
814.3170, 37857.00
815.4570, 37717.00
816.5960, 37891.00
817.7360, 37750.00
818.8750, 38086.00
820.0140, 37856.00
821.1530, 38215.00
822.2920, 37984.00
823.4310, 38199.00
824.5690, 38111.00
825.7070, 38383.00
826.8460, 38201.00
827.9840, 38420.00
829.1220, 38324.00
830.2590, 38358.00
831.3970, 38375.00
832.5340, 38452.00
833.6710, 38494.00
834.8080, 38423.00
835.9450, 38534.00
837.0820, 38317.00
838.2190, 38394.00
839.3550, 38535.00
840.4910, 38410.00
841.6270, 38628.00
842.7630, 38695.00
843.8990, 38691.00
845.0350, 38728.00
846.1700, 38713.00
847.3060, 38753.93
848.4410, 38867.00
849.5760, 38856.00
850.7100, 38762.00
851.8450, 38867.00
852.9800, 39084.00
854.1140, 38794.00
855.2480, 39137.00
856.3820, 39024.00
857.5160, 39020.00
858.6500, 39212.00
859.7830, 39192.00
860.9170, 39217.00
862.0500, 39288.00
863.1830, 39326.00
864.3160, 39366.56
865.4480, 39379.00
866.5810, 39418.00
867.7130, 39313.00
868.8460, 39266.00
869.9780, 39306.00
871.1100, 39352.00
872.2410, 39393.80
873.3730, 39306.00
874.5050, 39612.00
875.6360, 39643.00
876.7670, 39902.00
877.8980, 39528.00
879.0290, 39785.00
880.1590, 39518.00
881.2900, 39803.00
882.4200, 39571.00
883.5500, 39585.00
884.6800, 39896.00
885.8100, 39879.00
886.9400, 39891.00
888.0690, 39977.00
889.1990, 39994.00
890.3280, 40019.61
891.4570, 39908.00
892.5860, 40068.00
893.7140, 40103.00
894.8430, 40159.00
895.9710, 40302.00
897.1000, 40123.00
898.2280, 40156.00
899.3560, 40292.00
900.4830, 40230.00
901.6110, 40104.00
902.7380, 40515.00
903.8660, 40346.00
904.9930, 40719.00
906.1200, 40237.00
907.2460, 40576.00
908.3730, 40500.00
909.5000, 40560.00
910.6260, 40311.00
911.7520, 40613.00
912.8780, 40764.00
914.0040, 40568.00
915.1290, 40697.00
916.2550, 40384.00
917.3800, 40769.00
918.5050, 40710.00
919.6300, 40548.00
920.7550, 40538.00
921.8800, 40612.00
923.0040, 40634.70
924.1290, 40966.00
925.2530, 40923.00
926.3770, 40885.00
927.5010, 41169.00
928.6250, 41077.00
929.7480, 41216.00
930.8720, 41230.00
931.9950, 41237.00
933.1180, 41135.00
934.2410, 41109.00
935.3640, 41154.94
936.4860, 41097.00
937.6090, 41316.00
938.7310, 41259.00
939.8530, 41433.00
940.9750, 41577.00
942.0970, 41527.00
943.2180, 41545.00
944.3400, 41227.00
945.4610, 41681.00
946.5820, 41592.00
947.7030, 41395.00
948.8240, 41584.00
949.9450, 41752.00
951.0650, 41721.00
952.1860, 41818.00
953.3060, 41713.00
954.4260, 41973.00
955.5460, 41847.00
956.6650, 41917.00
957.7850, 41829.00
958.9040, 42147.00
960.0230, 41971.00
961.1420, 41949.00
962.2610, 42320.00
963.3800, 41960.00
964.4990, 42178.00
965.6170, 42318.00
966.7350, 41913.00
967.8530, 42171.00
968.9710, 42724.00
970.0890, 42234.00
971.2070, 42395.00
972.3240, 42624.00
973.4410, 42365.00
974.5580, 42553.00
975.6750, 42638.00
976.7920, 42697.00
977.9090, 42638.00
979.0250, 42548.00
980.1410, 42535.00
981.2580, 42707.00
982.3740, 42623.00
983.4890, 42982.00
984.6050, 43103.00
985.7200, 43069.00
986.8360, 43075.00
987.9510, 43105.00
989.0660, 42865.00
990.1810, 43073.00
991.2950, 42964.00
992.4100, 42945.00
993.5240, 43125.00
994.6390, 43097.00
995.7530, 43056.00
996.8660, 43383.00
997.9800, 43069.00
999.0940, 43258.00
1000.207, 43538.00
1001.320, 43571.00
1002.433, 43536.00
1003.546, 43729.00
1004.659, 43836.00
1005.772, 43499.00
1006.884, 44045.00
1007.996, 43996.00
1009.108, 44165.00
1010.220, 43853.00
1011.332, 44366.00
1012.444, 44435.00
1013.555, 44613.00
1014.666, 44723.00
1015.777, 45019.00
1016.888, 44984.00
1017.999, 44874.00
1019.110, 45040.00
1020.220, 44651.00
1021.331, 44900.00
1022.441, 44789.00
1023.551, 44600.00
1024.661, 44540.00
1025.770, 44505.00
1026.880, 44294.00
1027.989, 44340.00
1029.098, 44389.00
1030.207, 44159.00
1031.316, 44526.00
1032.425, 44714.00
1033.533, 44646.00
1034.642, 44463.00
1035.750, 44607.00
1036.858, 44779.00
1037.966, 44962.00
1039.073, 44835.00
1040.181, 45241.00
1041.288, 45031.00
1042.396, 45428.00
1043.503, 45641.00
1044.610, 46010.00
1045.716, 46346.00
1046.823, 46823.00
1047.929, 47572.00
1049.036, 47789.00
1050.142, 48157.00
1051.248, 48266.00
1052.353, 48030.00
1053.459, 47980.00
1054.564, 47055.00
1055.670, 46783.00
1056.775, 46453.00
1057.880, 46169.00
1058.985, 46357.00
1060.089, 45837.00
1061.194, 46072.00
1062.298, 45960.00
1063.402, 45892.00
1064.506, 45883.15
1065.610, 45809.00
1066.713, 45693.00
1067.817, 45618.00
1068.920, 45610.82
1070.023, 45509.00
1071.126, 45651.00
1072.229, 45678.00
1073.332, 45752.27
1074.435, 45772.00
1075.537, 45890.00
1076.639, 45930.00
1077.741, 45966.00
1078.843, 46001.00
1079.945, 45910.00
1081.046, 46030.00
1082.148, 46142.00
1083.249, 46054.00
1084.350, 46175.00
1085.451, 46245.00
1086.551, 46266.00
1087.652, 46123.00
1088.752, 46080.00
1089.853, 46096.00
1090.953, 46092.00
1092.053, 46409.00
1093.152, 46446.00
1094.252, 46376.00
1095.351, 46256.00
1096.451, 46326.00
1097.550, 46258.00
1098.649, 46486.00
1099.748, 46434.00
1100.846, 46487.00
1101.945, 46661.00
1103.043, 46659.00
1104.141, 46566.00
1105.239, 46330.00
1106.337, 46606.00
1107.434, 46522.00
1108.532, 46512.00
1109.629, 46621.00
1110.726, 46783.00
1111.823, 46880.00
1112.920, 46785.00
1114.017, 46645.00
1115.113, 46907.00
1116.210, 46791.00
1117.306, 46989.00
1118.402, 47003.00
1119.498, 46681.00
1120.593, 47125.00
1121.689, 46889.00
1122.784, 47133.00
1123.879, 47101.00
1124.974, 47257.00
1126.069, 47119.00
1127.164, 47174.98
1128.259, 47388.00
1129.353, 47230.00
1130.447, 47366.00
1131.541, 47535.00
1132.635, 47421.00
1133.729, 47424.00
1134.822, 47379.00
1135.916, 47291.00
1137.009, 47614.00
1138.102, 47491.00
1139.195, 47848.00
1140.288, 47369.00
1141.380, 47631.00
1142.473, 47490.00
1143.565, 47823.00
1144.657, 47775.00
1145.749, 47889.00
1146.841, 48150.00
1147.932, 47745.00
1149.024, 48158.00
1150.115, 48142.00
1151.206, 48035.00
1152.297, 48040.00
1153.388, 48167.00
1154.479, 48322.00
1155.569, 48269.00
1156.659, 48399.00
1157.750, 48279.00
1158.839, 48321.00
1159.929, 48368.00
1161.019, 48305.00
1162.108, 48412.00
1163.198, 48393.00
1164.287, 48545.00
1165.376, 48634.00
1166.465, 48333.00
1167.553, 48747.00
1168.642, 48649.00
1169.730, 48464.00
1170.818, 48532.00
1171.906, 48476.00
1172.994, 48516.00
1174.082, 48894.00
1175.170, 48645.00
1176.257, 48642.00
1177.344, 48974.00
1178.431, 48741.00
1179.518, 48878.00
1180.605, 48801.00
1181.691, 49104.00
1182.778, 49262.00
1183.864, 49151.00
1184.950, 49166.00
1186.036, 49129.00
1187.122, 49255.00
1188.207, 49201.80
1189.292, 49093.00
1190.378, 49194.00
1191.463, 49148.00
1192.548, 49177.00
1193.632, 49273.81
1194.717, 49149.00
1195.801, 49481.00
1196.886, 49407.00
1197.970, 49539.00
1199.054, 49682.00
1200.137, 49543.00
1201.221, 49572.00
1202.305, 49711.00
1203.388, 49675.00
1204.471, 49554.00
1205.554, 49674.00
1206.637, 49649.00
1207.719, 49596.00
1208.802, 49817.00
1209.884, 49992.00
1210.966, 49570.00
1212.048, 50089.00
1213.130, 49852.00
1214.212, 49979.00
1215.293, 50004.00
1216.374, 50004.00
1217.456, 50145.00
1218.536, 50212.00
1219.617, 50299.00
1220.698, 50332.00
1221.778, 50262.00
1222.859, 50374.00
1223.939, 50449.00
1225.019, 50154.00
1226.099, 50478.00
1227.178, 50403.00
1228.258, 50184.00
1229.337, 50538.00
1230.417, 50524.00
1231.496, 50520.00
1232.574, 50469.00
1233.653, 50524.00
1234.732, 50585.39
1235.810, 50607.03
1236.888, 50670.28
1237.966, 50698.00
1239.044, 50800.00
1240.122, 50808.00
1241.199, 50929.00
1242.277, 50822.00
1243.354, 50900.00
1244.431, 50888.00
1245.508, 51010.00
1246.585, 50919.00
1247.661, 51186.00
1248.738, 51317.00
1249.814, 51313.00
1250.890, 51266.00
1251.966, 51338.00
1253.042, 51078.00
1254.117, 51872.00
1255.193, 52163.00
1256.268, 51633.00
1257.343, 51461.00
1258.418, 51380.00
1259.493, 51345.00
1260.567, 51348.00
1261.642, 51572.00
1262.716, 51460.00
1263.790, 51609.00
1264.864, 51870.00
1265.938, 51871.02
1267.011, 52072.00
1268.085, 51901.00
1269.158, 51966.00
1270.231, 52003.47
1271.304, 51962.67
1272.377, 52056.00
1273.450, 52058.00
