##NAMES=Talc
##RRUFFID=R050087
##IDEAL CHEMISTRY=Mg_3_Si_4_O_10_(OH)_2_
##LOCALITY=St. Lawrence County, New York, USA
##OWNER=RRUFF
##SOURCE=University of Arizona Mineral Museum
##DESCRIPTION=An aggregate of colorless foliated coarse single crystals
##STATUS=The identification of this mineral has been confirmed by X-ray diffraction and chemical analysis
##URL=rruff.info/R050087
##MEASURED CHEMISTRY=(Mg_.998_Fe_.002_)_3_(Si_.997_Al_.003_)_4_O_10_(OH_.966_F_.034_)_2_
##PIN_ID=M00196
##ORIENTATION=Laser parallel to a* (1 0 0). Fiducial mark perpendicular to laser is parallel to -b [0 -1 0]
95.94800, 19008.00
97.18200, 19698.00
98.41600, 20297.00
99.64900, 21053.00
100.8830, 21910.00
102.1160, 22713.00
103.3490, 23661.00
104.5820, 24365.00
105.8150, 24624.00
107.0470, 25017.00
108.2800, 25388.00
109.5120, 25661.00
110.7440, 25433.00
111.9760, 24842.00
113.2080, 24453.00
114.4400, 24132.00
115.6710, 23742.00
116.9030, 23246.00
118.1340, 22978.00
119.3650, 22503.00
120.5960, 22238.00
121.8270, 22075.00
123.0580, 21936.72
124.2880, 21904.05
125.5190, 21956.00
126.7490, 22084.00
127.9790, 22209.00
129.2090, 22577.00
130.4390, 22894.00
131.6680, 23318.00
132.8980, 23903.00
134.1270, 24389.00
135.3560, 24549.00
136.5850, 24594.00
137.8140, 24582.00
139.0430, 24377.00
140.2710, 23860.00
141.5000, 23910.00
142.7280, 23487.00
143.9560, 23451.00
145.1840, 23361.00
146.4120, 23303.00
147.6390, 23044.00
148.8670, 23039.00
150.0940, 22877.00
151.3210, 23057.00
152.5490, 22995.00
153.7750, 22919.00
155.0020, 22946.00
156.2290, 22971.00
157.4550, 23019.00
158.6810, 23056.00
159.9080, 22933.00
161.1340, 23132.00
162.3590, 23042.00
163.5850, 23190.00
164.8110, 23143.00
166.0360, 23475.00
167.2610, 23223.00
168.4860, 23375.00
169.7110, 23349.00
170.9360, 23750.00
172.1610, 23652.00
173.3850, 23742.00
174.6100, 23674.00
175.8340, 23762.00
177.0580, 23828.00
178.2820, 23931.00
179.5050, 24226.00
180.7290, 24480.00
181.9520, 25019.00
183.1760, 26151.00
184.3990, 28385.00
185.6220, 30998.00
186.8450, 32925.00
188.0670, 32604.00
189.2900, 32468.00
190.5120, 35112.00
191.7340, 37732.00
192.9560, 39420.00
194.1780, 39703.00
195.4000, 38498.00
196.6220, 36844.00
197.8430, 34038.00
199.0640, 31088.00
200.2860, 28328.00
201.5070, 26809.00
202.7270, 25768.00
203.9480, 25408.00
205.1690, 25028.00
206.3890, 24894.00
207.6090, 24798.00
208.8290, 24865.00
210.0490, 24769.00
211.2690, 24898.00
212.4890, 24824.00
213.7080, 25011.00
214.9280, 24762.00
216.1470, 25025.00
217.3660, 24872.00
218.5850, 25240.00
219.8030, 25180.00
221.0220, 25464.00
222.2400, 25377.00
223.4590, 25348.00
224.6770, 25530.00
225.8950, 25751.00
227.1120, 25663.00
228.3300, 25660.00
229.5480, 25798.00
230.7650, 25747.00
231.9820, 25492.00
233.1990, 25559.00
234.4160, 25280.00
235.6330, 25546.00
236.8490, 25349.00
238.0660, 25495.00
239.2820, 25429.00
240.4980, 25581.00
241.7140, 25660.00
242.9300, 25418.00
244.1460, 25497.00
245.3610, 25557.00
246.5770, 25312.00
247.7920, 25524.00
249.0070, 25705.00
250.2220, 25604.00
251.4370, 25789.00
252.6510, 25826.00
253.8660, 25654.00
255.0800, 25841.00
256.2940, 25889.00
257.5080, 25996.00
258.7220, 26029.00
259.9360, 26021.00
261.1490, 26427.00
262.3630, 26161.00
263.5760, 25959.00
264.7890, 26289.00
266.0020, 26260.00
267.2150, 26179.00
268.4270, 26133.00
269.6400, 26294.00
270.8520, 26322.00
272.0640, 26369.00
273.2760, 26250.00
274.4880, 26753.00
275.7000, 26582.00
276.9120, 26749.00
278.1230, 26964.00
279.3340, 27053.00
280.5450, 27334.00
281.7560, 27606.59
282.9670, 27789.22
284.1780, 28222.00
285.3880, 28320.00
286.5980, 28535.00
287.8090, 28946.00
289.0190, 29047.00
290.2290, 28806.00
291.4380, 28870.00
292.6480, 28287.00
293.8570, 27909.00
295.0670, 27653.00
296.2760, 27526.00
297.4850, 27541.00
298.6930, 27294.00
299.9020, 27479.00
301.1110, 27433.00
302.3190, 27372.00
303.5270, 27416.00
304.7350, 27361.00
305.9430, 27278.00
307.1510, 27395.00
308.3580, 27371.00
309.5660, 27165.00
310.7730, 27241.00
311.9800, 27520.00
313.1870, 27317.00
314.3940, 27662.00
315.6010, 27472.00
316.8070, 27453.00
318.0130, 27601.00
319.2200, 27625.00
320.4260, 27574.00
321.6310, 27984.00
322.8370, 27830.00
324.0430, 27954.00
325.2480, 28088.00
326.4540, 28361.00
327.6590, 28450.00
328.8640, 28683.00
330.0680, 28767.00
331.2730, 28668.00
332.4780, 28613.00
333.6820, 28551.00
334.8860, 28743.00
336.0900, 28737.00
337.2940, 28787.00
338.4980, 28613.00
339.7010, 28976.00
340.9050, 29061.00
342.1080, 29046.00
343.3110, 28850.00
344.5140, 29162.00
345.7170, 29251.00
346.9200, 29616.00
348.1220, 29892.00
349.3240, 30269.00
350.5270, 30703.00
351.7290, 31390.00
352.9310, 32358.00
354.1320, 33249.00
355.3340, 34054.00
356.5350, 34608.00
357.7370, 35263.00
358.9380, 35809.00
360.1390, 35877.00
361.3400, 35895.00
362.5400, 35659.00
363.7410, 34860.00
364.9410, 34137.00
366.1410, 33243.00
367.3410, 32359.00
368.5410, 31748.00
369.7410, 31312.00
370.9400, 30526.00
372.1400, 30349.00
373.3390, 30175.00
374.5380, 30240.00
375.7370, 30049.00
376.9360, 29968.00
378.1350, 30006.00
379.3330, 30099.00
380.5310, 29931.00
381.7300, 30068.00
382.9280, 29950.00
384.1260, 29932.00
385.3230, 29990.00
386.5210, 29958.00
387.7180, 30114.00
388.9160, 30130.00
390.1130, 29976.00
391.3100, 30060.52
392.5060, 29914.00
393.7030, 30007.00
394.9000, 29923.00
396.0960, 29846.00
397.2920, 29813.00
398.4880, 29917.00
399.6840, 30026.00
400.8800, 30018.00
402.0750, 30089.63
403.2710, 30049.00
404.4660, 30106.00
405.6610, 30144.00
406.8560, 30080.00
408.0510, 30364.00
409.2450, 30296.00
410.4400, 30330.00
411.6340, 30365.00
412.8280, 30358.00
414.0220, 30404.40
415.2160, 30421.00
416.4100, 30510.00
417.6030, 30565.00
418.7970, 30706.00
419.9900, 30806.00
421.1830, 30882.00
422.3760, 31221.00
423.5690, 31359.00
424.7610, 31866.00
425.9540, 32067.00
427.1460, 32371.00
428.3380, 32509.00
429.5300, 32672.10
430.7220, 32972.00
431.9140, 32846.00
433.1050, 32867.00
434.2970, 32812.00
435.4880, 32234.00
436.6790, 32308.00
437.8700, 31770.00
439.0610, 31768.00
440.2510, 31289.00
441.4420, 31593.00
442.6320, 31695.00
443.8220, 31383.00
445.0120, 31470.00
446.2020, 31799.00
447.3910, 31981.00
448.5810, 32085.00
449.7700, 31793.00
450.9600, 32261.00
452.1490, 31960.00
453.3370, 31985.00
454.5260, 32133.00
455.7150, 32082.00
456.9030, 32126.00
458.0910, 32194.49
459.2800, 32256.00
460.4670, 32334.00
461.6550, 32447.00
462.8430, 32596.00
464.0300, 32638.00
465.2180, 32627.00
466.4050, 32912.00
467.5920, 32842.00
468.7790, 33016.00
469.9650, 33011.00
471.1520, 32891.04
472.3380, 32675.00
473.5250, 32591.00
474.7110, 32403.00
475.8970, 32215.00
477.0820, 32154.00
478.2680, 32217.00
479.4540, 32306.00
480.6390, 32307.00
481.8240, 32349.00
483.0090, 32379.13
484.1940, 32339.00
485.3780, 32450.00
486.5630, 32482.00
487.7470, 32586.00
488.9320, 32546.00
490.1160, 32569.00
491.3000, 32506.00
492.4830, 32766.00
493.6670, 32703.00
494.8500, 32677.00
496.0340, 32865.00
497.2170, 32858.00
498.4000, 32869.00
499.5820, 32756.00
500.7650, 32903.00
501.9480, 33049.00
503.1300, 32986.00
504.3120, 33436.00
505.4940, 33335.00
506.6760, 33392.00
507.8580, 33283.00
509.0390, 33746.00
510.2210, 33183.00
511.4020, 33558.00
512.5830, 33333.00
513.7640, 33535.00
514.9450, 33586.00
516.1250, 33400.00
517.3060, 33852.00
518.4860, 33659.00
519.6660, 33540.00
520.8460, 33665.00
522.0260, 33725.00
523.2060, 33620.00
524.3850, 33585.00
525.5650, 33446.00
526.7440, 33518.00
527.9230, 33521.14
529.1020, 33447.00
530.2810, 33616.00
531.4590, 33739.00
532.6380, 33718.00
533.8160, 33817.00
534.9940, 33862.00
536.1720, 33678.00
537.3500, 33773.00
538.5270, 33737.00
539.7050, 33766.00
540.8820, 33851.00
542.0590, 33937.00
543.2360, 33848.00
544.4130, 34170.00
545.5900, 33889.00
546.7660, 33879.00
547.9430, 33932.00
549.1190, 34087.00
550.2950, 34102.00
551.4710, 34189.68
552.6470, 34263.00
553.8220, 34301.00
554.9980, 34229.00
556.1730, 34249.00
557.3480, 34180.00
558.5230, 34699.00
559.6980, 34192.00
560.8730, 34570.00
562.0470, 34289.00
563.2220, 34175.00
564.3960, 34557.00
565.5700, 34678.00
566.7440, 34560.00
567.9170, 34606.00
569.0910, 34927.00
570.2640, 34769.00
571.4380, 34856.09
572.6110, 34988.00
573.7840, 34771.00
574.9570, 34867.00
576.1290, 34773.00
577.3020, 34877.00
578.4740, 34791.00
579.6460, 34950.00
580.8180, 35216.00
581.9900, 35163.00
583.1620, 35088.00
584.3330, 34958.00
585.5040, 35022.21
586.6760, 35122.00
587.8470, 35139.00
589.0180, 35057.00
590.1880, 35122.00
591.3590, 34985.00
592.5290, 35358.00
593.7000, 35581.00
594.8700, 35628.00
596.0400, 35416.00
597.2090, 35394.00
598.3790, 35462.00
599.5490, 35466.00
600.7180, 35556.00
601.8870, 35483.00
603.0560, 35563.91
604.2250, 35573.41
605.3940, 35678.00
606.5620, 35676.00
607.7300, 35767.00
608.8990, 35947.00
610.0670, 35825.00
611.2350, 35979.00
612.4020, 35999.00
613.5700, 36040.00
614.7370, 36095.00
615.9050, 36152.00
617.0720, 36196.00
618.2390, 36269.04
619.4060, 36325.00
620.5720, 36407.00
621.7390, 36507.00
622.9050, 36570.00
624.0710, 36674.00
625.2370, 36730.50
626.4030, 36777.65
627.5690, 36838.00
628.7340, 36893.00
629.9000, 36926.00
631.0650, 37076.00
632.2300, 37008.00
633.3950, 37067.00
634.5600, 37349.00
635.7240, 37136.00
636.8890, 37304.00
638.0530, 37217.00
639.2170, 37236.00
640.3810, 37132.00
641.5450, 37345.00
642.7080, 37701.00
643.8720, 37728.00
645.0350, 37802.00
646.1980, 37854.00
647.3610, 37926.00
648.5240, 37958.27
649.6870, 37845.00
650.8490, 37975.00
652.0120, 38274.00
653.1740, 38213.00
654.3360, 38446.00
655.4980, 38785.00
656.6600, 38542.00
657.8210, 39194.00
658.9830, 39545.00
660.1440, 39930.00
661.3050, 40670.00
662.4660, 40986.00
663.6270, 42020.00
664.7870, 43099.00
665.9480, 44821.00
667.1080, 46282.00
668.2680, 48386.00
669.4280, 50934.00
670.5880, 53174.00
671.7480, 54777.00
672.9070, 56705.00
674.0670, 57664.00
675.2260, 58460.00
676.3850, 58065.00
677.5440, 57161.00
678.7030, 55377.00
679.8610, 52909.00
681.0200, 50567.00
682.1780, 48435.00
683.3360, 46548.00
684.4940, 45264.00
685.6520, 43739.00
686.8090, 42824.00
687.9670, 42065.00
689.1240, 41506.00
690.2810, 41012.00
691.4380, 40333.00
692.5950, 39917.00
693.7520, 40084.00
694.9080, 39739.00
696.0650, 39838.00
697.2210, 39732.00
698.3770, 39585.00
699.5330, 39287.00
700.6880, 39364.00
701.8440, 39334.00
702.9990, 39424.00
704.1550, 39091.00
705.3100, 39155.00
706.4650, 39314.00
707.6190, 39478.00
708.7740, 39149.00
709.9290, 39232.00
711.0830, 39260.00
712.2370, 39307.00
713.3910, 39466.00
714.5450, 39310.00
715.6980, 39576.00
716.8520, 39508.00
718.0050, 39080.00
719.1580, 39336.00
720.3110, 39604.00
721.4640, 39264.00
722.6170, 39552.00
723.7700, 39417.00
724.9220, 39495.00
726.0740, 39366.00
727.2260, 39435.00
728.3780, 39561.00
729.5300, 39359.00
730.6810, 39567.00
731.8330, 39516.00
732.9840, 39900.00
734.1350, 39581.00
735.2860, 40094.00
736.4370, 39874.00
737.5880, 39769.00
738.7380, 39853.00
739.8880, 39986.00
741.0390, 39950.00
742.1890, 39996.00
743.3380, 39958.00
744.4880, 39922.00
745.6380, 40289.00
746.7870, 40031.00
747.9360, 40081.00
749.0850, 40300.00
750.2340, 40167.00
751.3830, 40054.00
752.5310, 40339.00
753.6800, 40367.00
754.8280, 40245.00
755.9760, 40280.00
757.1240, 40311.00
758.2720, 40446.00
759.4190, 40529.00
760.5670, 40442.00
761.7140, 40890.00
762.8610, 40616.00
764.0080, 40414.00
765.1550, 40561.00
766.3020, 40938.00
767.4480, 40848.00
768.5950, 40718.00
769.7410, 40794.00
770.8870, 40804.00
772.0330, 40838.19
773.1780, 40924.00
774.3240, 40975.00
775.4690, 41273.00
776.6140, 41340.00
777.7590, 41387.00
778.9040, 41685.00
780.0490, 41619.00
781.1940, 42030.00
782.3380, 41945.00
783.4820, 42130.00
784.6260, 42161.00
785.7700, 42306.00
786.9140, 42154.00
788.0580, 42293.00
789.2010, 42407.00
790.3450, 42163.00
791.4880, 42320.00
792.6310, 42277.00
793.7730, 42207.00
794.9160, 42138.00
796.0590, 42170.00
797.2010, 41996.00
798.3430, 42023.00
799.4850, 41727.00
800.6270, 41781.00
801.7690, 41828.00
802.9100, 41861.00
804.0520, 41937.00
805.1930, 42022.00
806.3340, 42010.14
807.4750, 41986.00
808.6160, 42054.00
809.7560, 41912.00
810.8970, 42039.00
812.0370, 41963.00
813.1770, 41844.00
814.3170, 42218.00
815.4570, 42042.00
816.5960, 42134.00
817.7360, 42338.00
818.8750, 42195.00
820.0140, 42602.00
821.1530, 42266.00
822.2920, 42591.00
823.4310, 42599.00
824.5690, 42547.00
825.7070, 42732.00
826.8460, 42511.00
827.9840, 42495.00
829.1220, 42817.00
830.2590, 42845.00
831.3970, 42737.00
832.5340, 42907.00
833.6710, 42917.00
834.8080, 42790.00
835.9450, 42870.00
837.0820, 42963.00
838.2190, 42903.00
839.3550, 42980.00
840.4910, 43123.00
841.6270, 42993.00
842.7630, 43340.00
843.8990, 43439.00
845.0350, 43382.00
846.1700, 43236.00
847.3060, 43160.00
848.4410, 42982.00
849.5760, 43080.27
850.7100, 43442.00
851.8450, 43370.00
852.9800, 43362.00
854.1140, 43664.00
855.2480, 43553.00
856.3820, 43626.00
857.5160, 43697.00
858.6500, 43684.58
859.7830, 43744.39
860.9170, 43749.00
862.0500, 43821.00
863.1830, 43834.00
864.3160, 43920.00
865.4480, 43901.78
866.5810, 44015.00
867.7130, 43874.00
868.8460, 43906.00
869.9780, 43900.00
871.1100, 43943.00
872.2410, 43998.00
873.3730, 43992.89
874.5050, 44058.00
875.6360, 44037.00
876.7670, 44030.00
877.8980, 44104.00
879.0290, 43959.00
880.1590, 44423.00
881.2900, 44367.00
882.4200, 44600.00
883.5500, 43948.00
884.6800, 44257.00
885.8100, 44500.00
886.9400, 44391.00
888.0690, 44615.00
889.1990, 44340.00
890.3280, 44397.00
891.4570, 44311.00
892.5860, 44382.00
893.7140, 44422.00
894.8430, 44717.00
895.9710, 44572.00
897.1000, 44417.00
898.2280, 44776.00
899.3560, 44689.00
900.4830, 44592.00
901.6110, 44701.00
902.7380, 44796.00
903.8660, 45038.00
904.9930, 44902.00
906.1200, 45094.00
907.2460, 45064.00
908.3730, 44978.00
909.5000, 44996.00
910.6260, 45077.00
911.7520, 45027.00
912.8780, 45240.00
914.0040, 45108.00
915.1290, 45177.00
916.2550, 45154.00
917.3800, 45293.00
918.5050, 45220.00
919.6300, 45459.00
920.7550, 45122.00
921.8800, 45377.00
923.0040, 45224.00
924.1290, 45299.00
925.2530, 45544.00
926.3770, 45415.00
927.5010, 45713.00
928.6250, 45660.00
929.7480, 45830.00
930.8720, 45523.00
931.9950, 45980.00
933.1180, 45667.00
934.2410, 46009.00
935.3640, 46027.00
936.4860, 45789.00
937.6090, 46091.00
938.7310, 45984.00
939.8530, 45985.00
940.9750, 46148.00
942.0970, 46234.00
943.2180, 46180.00
944.3400, 46263.38
945.4610, 46315.00
946.5820, 46323.00
947.7030, 46263.00
948.8240, 46391.00
949.9450, 46219.00
951.0650, 46600.00
952.1860, 46645.00
953.3060, 46403.00
954.4260, 46500.00
955.5460, 46853.00
956.6650, 46470.00
957.7850, 46528.00
958.9040, 46366.00
960.0230, 46737.00
961.1420, 46801.00
962.2610, 47033.00
963.3800, 46728.00
964.4990, 47060.00
965.6170, 46888.00
966.7350, 47177.00
967.8530, 47046.00
968.9710, 46875.00
970.0890, 46894.00
971.2070, 47130.00
972.3240, 47057.00
973.4410, 47230.00
974.5580, 47248.00
975.6750, 47269.00
976.7920, 47369.00
977.9090, 47379.00
979.0250, 47297.00
980.1410, 47427.00
981.2580, 47375.00
982.3740, 47432.00
983.4890, 47643.00
984.6050, 47767.00
985.7200, 47884.00
986.8360, 47875.49
987.9510, 47887.38
989.0660, 47792.00
990.1810, 47748.00
991.2950, 47772.00
992.4100, 47740.37
993.5240, 47792.93
994.6390, 47819.00
995.7530, 47923.00
996.8660, 47946.02
997.9800, 48188.90
999.0940, 48058.00
1000.207, 48182.00
1001.320, 48302.00
1002.433, 48118.00
1003.546, 48333.00
1004.659, 48425.00
1005.772, 48289.00
1006.884, 48387.00
1007.996, 48566.00
1009.108, 48687.00
1010.220, 48738.00
1011.332, 48645.00
1012.444, 49005.00
1013.555, 49181.00
1014.666, 49418.00
1015.777, 49254.00
1016.888, 49400.00
1017.999, 49580.00
1019.110, 49720.00
1020.220, 49731.00
1021.331, 49382.00
1022.441, 49459.00
1023.551, 49358.00
1024.661, 49168.00
1025.770, 49138.00
1026.880, 48908.00
1027.989, 49038.00
1029.098, 49146.00
1030.207, 49133.27
1031.316, 49390.00
1032.425, 49333.00
1033.533, 49387.00
1034.642, 49565.00
1035.750, 49402.00
1036.858, 49542.00
1037.966, 49469.00
1039.073, 49394.00
1040.181, 49981.00
1041.288, 49781.00
1042.396, 49956.00
1043.503, 50159.00
1044.610, 50130.00
1045.716, 50358.00
1046.823, 50693.00
1047.929, 50900.00
1049.036, 51327.00
1050.142, 51327.00
1051.248, 51500.00
1052.353, 51708.00
1053.459, 51685.00
1054.564, 51139.00
1055.670, 51112.00
1056.775, 50774.00
1057.880, 50675.00
1058.985, 50571.00
1060.089, 50354.00
1061.194, 50588.00
1062.298, 50660.00
1063.402, 50626.00
1064.506, 50652.00
1065.610, 50686.56
1066.713, 50713.98
1067.817, 50687.00
1068.920, 50775.00
1070.023, 50652.00
1071.126, 50581.00
1072.229, 50945.00
1073.332, 50690.00
1074.435, 50909.00
1075.537, 50662.00
1076.639, 50825.00
1077.741, 50736.00
1078.843, 50783.00
1079.945, 51092.00
1081.046, 51397.00
1082.148, 51314.00
1083.249, 51273.00
1084.350, 51252.00
1085.451, 51256.18
1086.551, 51260.00
1087.652, 51301.00
1088.752, 51211.00
1089.853, 51185.00
1090.953, 51156.00
1092.053, 51191.00
1093.152, 51267.60
1094.252, 51174.00
1095.351, 51489.00
1096.451, 51255.00
1097.550, 51328.00
1098.649, 51106.00
1099.748, 51309.00
1100.846, 51427.00
1101.945, 51565.00
1103.043, 51372.00
1104.141, 51490.00
1105.239, 51530.00
1106.337, 51505.00
1107.434, 51522.00
1108.532, 51612.16
1109.629, 51570.00
1110.726, 51771.00
1111.823, 51702.80
1112.920, 52045.00
1114.017, 51635.00
1115.113, 51698.00
1116.210, 51636.00
1117.306, 51974.00
1118.402, 51894.00
1119.498, 52275.00
1120.593, 52043.00
1121.689, 52244.00
1122.784, 52159.00
1123.879, 52461.00
1124.974, 52538.00
1126.069, 52472.00
1127.164, 52705.00
1128.259, 52303.00
1129.353, 52427.00
1130.447, 52631.00
1131.541, 52361.00
1132.635, 52671.00
1133.729, 52517.00
1134.822, 52543.00
1135.916, 52729.00
1137.009, 52545.00
1138.102, 52497.00
1139.195, 52918.00
1140.288, 52662.00
1141.380, 53123.00
1142.473, 52893.00
1143.565, 53212.00
1144.657, 52927.00
1145.749, 53171.00
1146.841, 52892.00
1147.932, 52844.00
1149.024, 52920.00
1150.115, 53197.00
1151.206, 53158.00
1152.297, 53185.00
1153.388, 53192.00
1154.479, 53305.00
1155.569, 53118.00
1156.659, 53541.00
1157.750, 53484.00
1158.839, 53443.00
1159.929, 53267.00
1161.019, 53563.00
1162.108, 53521.00
1163.198, 53225.00
1164.287, 53462.00
1165.376, 53374.00
1166.465, 53765.00
1167.553, 53855.00
1168.642, 53610.00
1169.730, 53679.00
1170.818, 53954.00
1171.906, 53951.00
1172.994, 54015.00
1174.082, 53591.00
1175.170, 53973.00
1176.257, 53854.00
1177.344, 53838.00
1178.431, 54051.00
1179.518, 53724.00
1180.605, 54152.00
1181.691, 54161.00
1182.778, 54239.00
1183.864, 53917.00
1184.950, 54135.00
1186.036, 54265.00
1187.122, 54222.00
1188.207, 54284.00
1189.292, 54291.00
1190.378, 54422.00
1191.463, 54244.00
1192.548, 54345.00
1193.632, 54571.00
1194.717, 54283.00
1195.801, 54301.00
1196.886, 54678.00
1197.970, 54769.00
1199.054, 54673.00
1200.137, 55019.00
1201.221, 54874.00
1202.305, 54779.00
1203.388, 54858.00
1204.471, 54756.00
1205.554, 54692.00
1206.637, 54912.00
1207.719, 54789.00
1208.802, 55023.00
1209.884, 54963.00
1210.966, 54912.00
1212.048, 55085.00
1213.130, 55265.00
1214.212, 55348.00
1215.293, 55381.00
1216.374, 55237.00
1217.456, 55396.00
1218.536, 55338.00
1219.617, 55470.00
1220.698, 55660.00
1221.778, 55543.00
1222.859, 55673.00
1223.939, 55535.00
1225.019, 55636.00
1226.099, 55549.00
1227.178, 55792.00
1228.258, 55452.00
1229.337, 55778.00
1230.417, 55867.00
1231.496, 55544.00
1232.574, 56086.00
1233.653, 55717.00
1234.732, 55754.00
1235.810, 56014.00
1236.888, 55731.00
1237.966, 56164.00
1239.044, 56056.00
1240.122, 56031.00
1241.199, 56167.00
1242.277, 56184.00
1243.354, 56280.00
1244.431, 56351.77
1245.508, 56479.00
1246.585, 56481.00
1247.661, 56409.00
1248.738, 56446.00
1249.814, 56062.00
1250.890, 56580.00
1251.966, 56404.00
1253.042, 56801.00
1254.117, 56477.00
1255.193, 56468.00
1256.268, 56833.00
1257.343, 56572.00
1258.418, 56413.00
1259.493, 56903.00
1260.567, 56556.00
1261.642, 56821.00
1262.716, 56831.00
1263.790, 57121.00
1264.864, 57255.00
1265.938, 57149.00
1267.011, 57054.00
1268.085, 57090.00
1269.158, 57219.00
1270.231, 57153.00
1271.304, 57312.00
1272.377, 57279.00
1273.450, 57340.79
