##NAMES=Talc
##RRUFFID=R050087
##IDEAL CHEMISTRY=Mg_3_Si_4_O_10_(OH)_2_
##LOCALITY=St. Lawrence County, New York, USA
##OWNER=RRUFF
##SOURCE=University of Arizona Mineral Museum
##DESCRIPTION=An aggregate of colorless foliated coarse single crystals
##STATUS=The identification of this mineral has been confirmed by X-ray diffraction and chemical analysis
##URL=rruff.info/R050087
##MEASURED CHEMISTRY=(Mg_.998_Fe_.002_)_3_(Si_.997_Al_.003_)_4_O_10_(OH_.966_F_.034_)_2_
##PIN_ID=M00178
##ORIENTATION=Laser parallel to (1 1 0). Fiducial mark perpendicular to laser is parallel to c [0 0 1]
99.64900, 15408.00
100.8830, 15980.00
102.1160, 16309.00
103.3490, 17045.00
104.5820, 18064.00
105.8150, 18406.00
107.0470, 18932.00
108.2800, 19067.00
109.5120, 19095.00
110.7440, 18781.00
111.9760, 18339.00
113.2080, 18286.00
114.4400, 18168.00
115.6710, 18193.00
116.9030, 18223.00
118.1340, 18098.00
119.3650, 18116.00
120.5960, 17897.00
121.8270, 17561.00
123.0580, 17611.00
124.2880, 17270.00
125.5190, 17241.00
126.7490, 17245.00
127.9790, 17404.00
129.2090, 17370.00
130.4390, 17421.00
131.6680, 17388.00
132.8980, 17615.00
134.1270, 17514.00
135.3560, 17721.00
136.5850, 17795.00
137.8140, 17830.00
139.0430, 17958.00
140.2710, 17989.17
141.5000, 18030.00
142.7280, 18131.00
143.9560, 18118.00
145.1840, 18264.00
146.4120, 18217.00
147.6390, 18191.00
148.8670, 18328.00
150.0940, 18315.00
151.3210, 18385.00
152.5490, 18460.00
153.7750, 18342.00
155.0020, 18609.00
156.2290, 18479.00
157.4550, 18498.00
158.6810, 18636.00
159.9080, 18693.00
161.1340, 18707.00
162.3590, 18738.00
163.5850, 18877.00
164.8110, 18885.00
166.0360, 18828.00
167.2610, 19123.00
168.4860, 19009.00
169.7110, 18991.00
170.9360, 19155.00
172.1610, 19318.00
173.3850, 19227.00
174.6100, 19316.00
175.8340, 19282.00
177.0580, 19412.00
178.2820, 19229.00
179.5050, 19709.00
180.7290, 19674.00
181.9520, 19789.00
183.1760, 20100.00
184.3990, 20652.00
185.6220, 21253.00
186.8450, 21795.00
188.0670, 22023.00
189.2900, 22450.00
190.5120, 23451.00
191.7340, 24404.00
192.9560, 26175.00
194.1780, 27833.00
195.4000, 29273.00
196.6220, 29910.00
197.8430, 28025.00
199.0640, 25501.00
200.2860, 23036.00
201.5070, 21658.00
202.7270, 21064.00
203.9480, 20755.00
205.1690, 20350.00
206.3890, 20534.00
207.6090, 20405.00
208.8290, 20493.00
210.0490, 20417.00
211.2690, 20321.00
212.4890, 20437.00
213.7080, 20375.00
214.9280, 20335.00
216.1470, 20465.00
217.3660, 20555.00
218.5850, 20706.00
219.8030, 20756.00
221.0220, 20765.87
222.2400, 20912.00
223.4590, 20715.00
224.6770, 20657.00
225.8950, 20627.00
227.1120, 20806.00
228.3300, 20867.00
229.5480, 20829.00
230.7650, 20977.00
231.9820, 21064.00
233.1990, 21055.00
234.4160, 20927.00
235.6330, 21119.00
236.8490, 21283.00
238.0660, 21026.00
239.2820, 21025.00
240.4980, 21173.00
241.7140, 21329.00
242.9300, 21109.00
244.1460, 21186.00
245.3610, 21131.00
246.5770, 21246.00
247.7920, 21194.00
249.0070, 21270.00
250.2220, 21313.00
251.4370, 21324.00
252.6510, 21413.00
253.8660, 21231.00
255.0800, 21594.00
256.2940, 21504.00
257.5080, 21439.00
258.7220, 21739.00
259.9360, 21722.00
261.1490, 21696.00
262.3630, 21818.00
263.5760, 21704.00
264.7890, 21804.00
266.0020, 21789.00
267.2150, 21809.00
268.4270, 21892.00
269.6400, 21795.00
270.8520, 22080.00
272.0640, 22071.00
273.2760, 22112.00
274.4880, 22086.00
275.7000, 22202.00
276.9120, 22231.00
278.1230, 22328.00
279.3340, 22411.73
280.5450, 22281.00
281.7560, 22620.00
282.9670, 22574.00
284.1780, 22741.00
285.3880, 22668.00
286.5980, 22776.00
287.8090, 22903.00
289.0190, 23238.00
290.2290, 23495.00
291.4380, 23526.00
292.6480, 23435.00
293.8570, 23419.00
295.0670, 23304.00
296.2760, 22954.00
297.4850, 23010.00
298.6930, 22852.00
299.9020, 22806.00
301.1110, 22980.00
302.3190, 23111.00
303.5270, 23226.00
304.7350, 23082.00
305.9430, 23290.00
307.1510, 23039.00
308.3580, 23057.00
309.5660, 22920.00
310.7730, 23127.00
311.9800, 22964.00
313.1870, 23077.00
314.3940, 23029.00
315.6010, 23195.00
316.8070, 23330.00
318.0130, 23380.00
319.2200, 23300.00
320.4260, 23406.00
321.6310, 23280.00
322.8370, 23467.00
324.0430, 23507.00
325.2480, 23605.00
326.4540, 23589.00
327.6590, 23633.00
328.8640, 23638.00
330.0680, 23915.00
331.2730, 24260.00
332.4780, 24135.00
333.6820, 24357.00
334.8860, 24076.00
336.0900, 24208.00
337.2940, 24398.00
338.4980, 24257.00
339.7010, 24378.71
340.9050, 23995.00
342.1080, 24355.00
343.3110, 24367.00
344.5140, 24262.00
345.7170, 24408.00
346.9200, 24679.00
348.1220, 24898.00
349.3240, 25035.00
350.5270, 25203.00
351.7290, 25345.00
352.9310, 25997.00
354.1320, 26202.00
355.3340, 26828.00
356.5350, 26952.00
357.7370, 27761.00
358.9380, 28455.00
360.1390, 28992.00
361.3400, 29884.00
362.5400, 30384.00
363.7410, 30611.00
364.9410, 30276.00
366.1410, 29267.00
367.3410, 28440.00
368.5410, 27459.00
369.7410, 26798.00
370.9400, 26387.00
372.1400, 25936.00
373.3390, 25670.00
374.5380, 25531.00
375.7370, 25546.00
376.9360, 25494.00
378.1350, 25749.00
379.3330, 25850.00
380.5310, 25844.00
381.7300, 25750.00
382.9280, 25699.00
384.1260, 25763.00
385.3230, 25429.00
386.5210, 25482.00
387.7180, 25411.00
388.9160, 25553.00
390.1130, 25301.00
391.3100, 25257.00
392.5060, 25386.00
393.7030, 25426.00
394.9000, 25350.00
396.0960, 25497.00
397.2920, 25538.00
398.4880, 25621.00
399.6840, 25346.00
400.8800, 25432.00
402.0750, 25491.00
403.2710, 25393.00
404.4660, 25774.00
405.6610, 25718.00
406.8560, 25764.00
408.0510, 25827.00
409.2450, 25756.00
410.4400, 25735.00
411.6340, 25880.00
412.8280, 25893.00
414.0220, 25730.00
415.2160, 25794.00
416.4100, 25902.00
417.6030, 25880.21
418.7970, 26009.17
419.9900, 26017.00
421.1830, 26191.00
422.3760, 26308.00
423.5690, 26369.00
424.7610, 26520.00
425.9540, 26706.00
427.1460, 26865.44
428.3380, 26887.00
429.5300, 27248.00
430.7220, 27415.00
431.9140, 27551.00
433.1050, 28140.00
434.2970, 28137.00
435.4880, 27976.00
436.6790, 27522.00
437.8700, 27429.00
439.0610, 27261.00
440.2510, 26963.00
441.4420, 26727.00
442.6320, 26882.00
443.8220, 26693.00
445.0120, 26873.00
446.2020, 27073.00
447.3910, 27086.00
448.5810, 27188.34
449.7700, 27234.71
450.9600, 27269.00
452.1490, 27267.00
453.3370, 27360.00
454.5260, 27360.00
455.7150, 27295.00
456.9030, 27201.00
458.0910, 27139.00
459.2800, 27312.00
460.4670, 27413.00
461.6550, 27329.00
462.8430, 27573.00
464.0300, 27377.00
465.2180, 27774.00
466.4050, 27898.00
467.5920, 27714.00
468.7790, 27958.00
469.9650, 28231.00
471.1520, 27860.00
472.3380, 27959.00
473.5250, 28006.00
474.7110, 27599.00
475.8970, 27583.00
477.0820, 27830.00
478.2680, 27794.00
479.4540, 27825.00
480.6390, 27629.00
481.8240, 27723.00
483.0090, 27694.00
484.1940, 27822.00
485.3780, 27857.00
486.5630, 28009.00
487.7470, 27689.00
488.9320, 27812.00
490.1160, 27899.00
491.3000, 27952.00
492.4830, 28117.00
493.6670, 28209.00
494.8500, 28223.00
496.0340, 28259.00
497.2170, 28159.00
498.4000, 28081.00
499.5820, 28411.00
500.7650, 28583.00
501.9480, 28483.00
503.1300, 28421.00
504.3120, 28332.00
505.4940, 28335.00
506.6760, 28363.00
507.8580, 28768.00
509.0390, 28675.00
510.2210, 28794.00
511.4020, 28819.00
512.5830, 28631.00
513.7640, 28862.00
514.9450, 28815.00
516.1250, 28616.00
517.3060, 28726.00
518.4860, 28825.00
519.6660, 28895.00
520.8460, 28901.00
522.0260, 29134.00
523.2060, 28898.00
524.3850, 29132.00
525.5650, 28979.00
526.7440, 28977.00
527.9230, 29158.00
529.1020, 29039.00
530.2810, 29084.00
531.4590, 29036.00
532.6380, 29271.00
533.8160, 29100.00
534.9940, 29256.00
536.1720, 29159.00
537.3500, 29317.00
538.5270, 29325.00
539.7050, 29277.00
540.8820, 29371.00
542.0590, 29286.00
543.2360, 29397.00
544.4130, 29519.00
545.5900, 29616.00
546.7660, 29578.00
547.9430, 29671.51
549.1190, 29266.00
550.2950, 29688.00
551.4710, 29598.00
552.6470, 29482.00
553.8220, 29739.00
554.9980, 29960.00
556.1730, 29866.00
557.3480, 29864.00
558.5230, 29755.00
559.6980, 30086.00
560.8730, 29911.00
562.0470, 30124.00
563.2220, 29985.00
564.3960, 30007.00
565.5700, 30005.00
566.7440, 30124.00
567.9170, 30101.00
569.0910, 30129.12
570.2640, 30275.00
571.4380, 30163.00
572.6110, 30184.00
573.7840, 30256.00
574.9570, 30416.00
576.1290, 30301.00
577.3020, 30494.00
578.4740, 30393.00
579.6460, 30237.00
580.8180, 30645.00
581.9900, 30539.00
583.1620, 30533.00
584.3330, 30706.00
585.5040, 30802.00
586.6760, 30714.00
587.8470, 30564.00
589.0180, 30641.00
590.1880, 30611.00
591.3590, 30937.00
592.5290, 30618.00
593.7000, 31001.00
594.8700, 30973.00
596.0400, 31109.00
597.2090, 31044.00
598.3790, 31172.00
599.5490, 31146.00
600.7180, 31026.00
601.8870, 31211.00
603.0560, 31284.00
604.2250, 31240.00
605.3940, 31197.00
606.5620, 31144.00
607.7300, 31313.00
608.8990, 31460.00
610.0670, 31408.00
611.2350, 31359.00
612.4020, 31454.46
613.5700, 31498.00
614.7370, 31531.00
615.9050, 31548.00
617.0720, 31538.00
618.2390, 31757.00
619.4060, 31440.00
620.5720, 31827.00
621.7390, 31770.00
622.9050, 31621.00
624.0710, 31819.00
625.2370, 31787.00
626.4030, 31970.00
627.5690, 31938.00
628.7340, 31941.00
629.9000, 32002.00
631.0650, 32233.00
632.2300, 32098.00
633.3950, 32329.00
634.5600, 32275.00
635.7240, 32355.00
636.8890, 32143.00
638.0530, 32250.00
639.2170, 32566.00
640.3810, 32341.00
641.5450, 32750.00
642.7080, 32446.00
643.8720, 32251.00
645.0350, 32572.00
646.1980, 32583.00
647.3610, 32822.00
648.5240, 32868.00
649.6870, 32839.00
650.8490, 33101.00
652.0120, 32950.00
653.1740, 33432.00
654.3360, 33337.00
655.4980, 33440.00
656.6600, 33457.00
657.8210, 33643.00
658.9830, 33737.00
660.1440, 33930.00
661.3050, 34271.00
662.4660, 34261.00
663.6270, 34780.00
664.7870, 35216.00
665.9480, 35728.00
667.1080, 36430.00
668.2680, 37425.00
669.4280, 38196.00
670.5880, 39425.00
671.7480, 40718.00
672.9070, 41893.00
674.0670, 43753.00
675.2260, 45036.00
676.3850, 46187.00
677.5440, 46355.00
678.7030, 45448.00
679.8610, 44959.00
681.0200, 43308.00
682.1780, 41599.00
683.3360, 39910.00
684.4940, 38842.00
685.6520, 37736.00
686.8090, 36959.00
687.9670, 36086.00
689.1240, 35853.00
690.2810, 35810.00
691.4380, 35375.00
692.5950, 35015.00
693.7520, 34968.00
694.9080, 34826.00
696.0650, 34550.00
697.2210, 34407.00
698.3770, 34702.00
699.5330, 34653.00
700.6880, 34422.00
701.8440, 34665.00
702.9990, 34527.00
704.1550, 34628.00
705.3100, 34476.00
706.4650, 34576.00
707.6190, 34561.00
708.7740, 34672.00
709.9290, 34688.00
711.0830, 34556.00
712.2370, 34624.00
713.3910, 34580.00
714.5450, 34717.00
715.6980, 34501.00
716.8520, 34530.00
718.0050, 34843.00
719.1580, 34521.00
720.3110, 35109.00
721.4640, 34865.00
722.6170, 34838.00
723.7700, 34807.00
724.9220, 34716.00
726.0740, 35121.00
727.2260, 34804.00
728.3780, 35011.00
729.5300, 34926.00
730.6810, 34973.00
731.8330, 34963.00
732.9840, 34996.77
734.1350, 34859.00
735.2860, 35124.00
736.4370, 35103.00
737.5880, 35197.00
738.7380, 35438.00
739.8880, 35420.00
741.0390, 35314.00
742.1890, 35417.00
743.3380, 35305.00
744.4880, 35244.00
745.6380, 35436.00
746.7870, 35490.00
747.9360, 35498.00
749.0850, 35496.00
750.2340, 35624.00
751.3830, 35619.00
752.5310, 35611.00
753.6800, 35527.00
754.8280, 35653.00
755.9760, 35834.00
757.1240, 35870.00
758.2720, 35839.00
759.4190, 35942.00
760.5670, 35904.00
761.7140, 35897.00
762.8610, 35806.00
764.0080, 35789.00
765.1550, 35884.00
766.3020, 35848.00
767.4480, 35899.29
768.5950, 36078.00
769.7410, 36000.00
770.8870, 36086.00
772.0330, 36208.00
773.1780, 36276.00
774.3240, 36197.00
775.4690, 36303.49
776.6140, 36527.00
777.7590, 36414.00
778.9040, 36347.00
780.0490, 36463.00
781.1940, 36796.00
782.3380, 36804.00
783.4820, 36945.00
784.6260, 36806.00
785.7700, 37155.00
786.9140, 37237.00
788.0580, 37259.00
789.2010, 37069.00
790.3450, 37076.00
791.4880, 37212.00
792.6310, 37394.00
793.7730, 37490.00
794.9160, 37377.00
796.0590, 37331.00
797.2010, 37172.00
798.3430, 37177.46
799.4850, 37070.00
800.6270, 37248.00
801.7690, 37177.00
802.9100, 37390.00
804.0520, 37500.00
805.1930, 37318.00
806.3340, 37221.00
807.4750, 37342.00
808.6160, 37436.00
809.7560, 37379.00
810.8970, 37457.00
812.0370, 37797.00
813.1770, 37573.00
814.3170, 37626.00
815.4570, 37773.00
816.5960, 37551.00
817.7360, 37573.00
818.8750, 37759.00
820.0140, 37680.00
821.1530, 37656.00
822.2920, 37949.00
823.4310, 37475.00
824.5690, 37977.00
825.7070, 37606.00
826.8460, 38066.00
827.9840, 37723.00
829.1220, 37930.00
830.2590, 38262.00
831.3970, 37815.00
832.5340, 38219.00
833.6710, 37854.00
834.8080, 38363.00
835.9450, 38212.00
837.0820, 38073.00
838.2190, 38528.00
839.3550, 38267.00
840.4910, 38435.00
841.6270, 38412.00
842.7630, 38089.00
843.8990, 38212.00
845.0350, 38696.00
846.1700, 38187.00
847.3060, 38575.00
848.4410, 38587.00
849.5760, 38732.00
850.7100, 38672.00
851.8450, 38698.00
852.9800, 38462.00
854.1140, 38878.00
855.2480, 38694.00
856.3820, 38766.00
857.5160, 38874.00
858.6500, 39053.00
859.7830, 38984.00
860.9170, 38924.00
862.0500, 39093.00
863.1830, 39115.00
864.3160, 39051.00
865.4480, 38912.00
866.5810, 38994.16
867.7130, 39273.00
868.8460, 39120.00
869.9780, 39332.00
871.1100, 39489.00
872.2410, 39470.00
873.3730, 39131.00
874.5050, 39731.00
875.6360, 39572.00
876.7670, 39226.00
877.8980, 39565.00
879.0290, 39655.00
880.1590, 39688.00
881.2900, 39643.00
882.4200, 39683.00
883.5500, 39618.00
884.6800, 39648.38
885.8100, 39724.00
886.9400, 39635.00
888.0690, 39681.95
889.1990, 39837.00
890.3280, 39722.00
891.4570, 39797.00
892.5860, 39920.00
893.7140, 39986.00
894.8430, 40070.00
895.9710, 40276.00
897.1000, 40118.00
898.2280, 40036.00
899.3560, 40071.00
900.4830, 40420.00
901.6110, 40280.00
902.7380, 40278.00
903.8660, 40151.00
904.9930, 40162.00
906.1200, 40581.00
907.2460, 40464.00
908.3730, 40449.00
909.5000, 40629.00
910.6260, 40595.00
911.7520, 40541.00
912.8780, 40705.00
914.0040, 40896.00
915.1290, 40701.00
916.2550, 40772.00
917.3800, 41058.00
918.5050, 40809.00
919.6300, 40951.00
920.7550, 40860.00
921.8800, 41046.00
923.0040, 41007.00
924.1290, 41132.00
925.2530, 41084.00
926.3770, 41346.00
927.5010, 41227.00
928.6250, 41369.00
929.7480, 41112.00
930.8720, 40949.00
931.9950, 41403.00
933.1180, 41285.00
934.2410, 41428.00
935.3640, 41522.00
936.4860, 41343.00
937.6090, 41352.00
938.7310, 41464.00
939.8530, 41406.00
940.9750, 41749.00
942.0970, 41471.00
943.2180, 41629.00
944.3400, 41586.00
945.4610, 41835.00
946.5820, 41794.00
947.7030, 41861.00
948.8240, 42081.00
949.9450, 41753.00
951.0650, 41864.00
952.1860, 41874.00
953.3060, 41977.00
954.4260, 42043.61
955.5460, 42281.00
956.6650, 42137.00
957.7850, 42183.00
958.9040, 42108.00
960.0230, 42353.00
961.1420, 42403.00
962.2610, 42339.00
963.3800, 42138.00
964.4990, 42510.00
965.6170, 42290.00
966.7350, 42501.00
967.8530, 42367.00
968.9710, 42428.00
970.0890, 42621.00
971.2070, 42669.00
972.3240, 42679.00
973.4410, 42730.00
974.5580, 42847.00
975.6750, 42799.00
976.7920, 42880.00
977.9090, 42717.00
979.0250, 42789.00
980.1410, 42909.00
981.2580, 43105.00
982.3740, 42933.00
983.4890, 42869.00
984.6050, 43246.00
985.7200, 43356.00
986.8360, 43453.00
987.9510, 43182.00
989.0660, 43375.00
990.1810, 43372.00
991.2950, 43463.00
992.4100, 43475.40
993.5240, 43281.00
994.6390, 43406.00
995.7530, 43449.00
996.8660, 43340.00
997.9800, 43717.00
999.0940, 43311.00
1000.207, 43845.00
1001.320, 43521.00
1002.433, 43565.00
1003.546, 43938.00
1004.659, 43862.00
1005.772, 43913.00
1006.884, 44009.00
1007.996, 43917.00
1009.108, 43868.00
1010.220, 43714.00
1011.332, 44034.00
1012.444, 44228.00
1013.555, 44538.00
1014.666, 44268.00
1015.777, 44508.00
1016.888, 44539.00
1017.999, 44807.00
1019.110, 44453.00
1020.220, 44786.00
1021.331, 44549.00
1022.441, 44701.00
1023.551, 44563.00
1024.661, 44421.00
1025.770, 44487.00
1026.880, 44691.00
1027.989, 44833.00
1029.098, 44716.00
1030.207, 44530.00
1031.316, 44938.00
1032.425, 44723.00
1033.533, 45007.00
1034.642, 45029.00
1035.750, 44867.00
1036.858, 44899.00
1037.966, 44984.00
1039.073, 44731.00
1040.181, 45220.00
1041.288, 45218.00
1042.396, 45302.00
1043.503, 45094.00
1044.610, 45497.00
1045.716, 45457.00
1046.823, 45851.00
1047.929, 45764.00
1049.036, 46137.00
1050.142, 46105.00
1051.248, 46179.00
1052.353, 46237.56
1053.459, 46181.07
1054.564, 46212.00
1055.670, 46024.00
1056.775, 46053.00
1057.880, 45830.00
1058.985, 45866.00
1060.089, 45718.00
1061.194, 45510.00
1062.298, 45948.00
1063.402, 46033.00
1064.506, 46149.00
1065.610, 46156.00
1066.713, 45829.00
1067.817, 46176.00
1068.920, 45640.00
1070.023, 46266.00
1071.126, 46015.00
1072.229, 46276.00
1073.332, 46352.00
1074.435, 46115.00
1075.537, 46479.00
1076.639, 46232.00
1077.741, 46393.00
1078.843, 46333.00
1079.945, 46246.00
1081.046, 46487.00
1082.148, 46380.00
1083.249, 46592.00
1084.350, 46714.00
1085.451, 46638.00
1086.551, 46734.00
1087.652, 46582.00
1088.752, 46740.00
1089.853, 46810.00
1090.953, 46603.00
1092.053, 46848.00
1093.152, 46763.00
1094.252, 47045.00
1095.351, 46851.00
1096.451, 47180.00
1097.550, 46896.00
1098.649, 47050.00
1099.748, 47203.00
1100.846, 47320.00
1101.945, 47425.00
1103.043, 47295.00
1104.141, 47339.00
1105.239, 47225.00
1106.337, 47301.00
1107.434, 47307.22
1108.532, 47431.00
1109.629, 47414.00
1110.726, 47541.00
1111.823, 47663.00
1112.920, 47641.00
1114.017, 47588.00
1115.113, 47472.00
1116.210, 47542.00
1117.306, 47866.00
1118.402, 47945.00
1119.498, 47764.00
1120.593, 48060.00
1121.689, 47949.00
1122.784, 48419.00
1123.879, 48032.00
1124.974, 48240.00
1126.069, 47807.00
1127.164, 48279.00
1128.259, 48033.00
1129.353, 48076.00
1130.447, 48300.00
1131.541, 48302.00
1132.635, 48402.00
1133.729, 48350.00
1134.822, 48471.00
1135.916, 48475.57
1137.009, 48742.00
1138.102, 48462.00
1139.195, 48681.00
1140.288, 48554.00
1141.380, 48751.00
1142.473, 48594.00
1143.565, 48713.00
1144.657, 48599.00
1145.749, 48752.00
1146.841, 48765.00
1147.932, 49194.00
1149.024, 48781.00
1150.115, 49156.00
1151.206, 49183.00
1152.297, 49216.00
1153.388, 48932.00
1154.479, 49049.00
1155.569, 49018.00
1156.659, 49146.00
1157.750, 49066.00
1158.839, 49342.00
1159.929, 49293.00
1161.019, 49462.00
1162.108, 49316.00
1163.198, 49377.00
1164.287, 49404.08
1165.376, 49426.38
1166.465, 49508.00
1167.553, 49609.00
1168.642, 49802.00
1169.730, 49978.00
1170.818, 49674.00
1171.906, 49564.00
1172.994, 49901.00
1174.082, 49810.00
1175.170, 50008.00
1176.257, 49740.00
1177.344, 49952.00
1178.431, 49951.00
1179.518, 49825.00
1180.605, 50068.00
1181.691, 49991.00
1182.778, 49757.00
1183.864, 50100.00
1184.950, 50183.00
1186.036, 50404.00
1187.122, 50164.00
1188.207, 50247.00
1189.292, 50386.00
1190.378, 50315.00
1191.463, 50428.00
1192.548, 50350.00
1193.632, 50428.48
1194.717, 50487.00
1195.801, 50571.00
1196.886, 50518.00
1197.970, 50607.00
1199.054, 50847.00
1200.137, 50629.00
1201.221, 50794.00
1202.305, 50902.00
1203.388, 50799.00
1204.471, 50966.00
1205.554, 50655.00
1206.637, 50994.00
1207.719, 50828.00
1208.802, 51054.00
1209.884, 50978.00
1210.966, 51227.00
1212.048, 51367.00
1213.130, 51276.00
1214.212, 51151.00
1215.293, 51312.00
1216.374, 51418.00
1217.456, 51568.00
1218.536, 51432.00
1219.617, 51475.00
1220.698, 51354.00
1221.778, 51438.00
1222.859, 51574.00
1223.939, 51678.00
1225.019, 51761.52
1226.099, 52044.00
1227.178, 51971.00
1228.258, 51906.00
1229.337, 52094.00
1230.417, 52034.56
1231.496, 52040.00
1232.574, 52083.00
1233.653, 52014.00
1234.732, 51972.00
1235.810, 51902.00
1236.888, 51806.00
1237.966, 52015.00
1239.044, 52051.00
1240.122, 52252.00
1241.199, 52298.00
1242.277, 52348.45
1243.354, 52378.00
1244.431, 52381.00
1245.508, 52356.00
1246.585, 52313.00
1247.661, 52671.00
1248.738, 52496.00
1249.814, 52663.00
1250.890, 52590.00
1251.966, 52593.00
1253.042, 52749.00
1254.117, 52806.00
1255.193, 52654.00
1256.268, 52605.00
1257.343, 52676.74
1258.418, 52700.17
1259.493, 52835.00
1260.567, 52945.00
1261.642, 53073.00
1262.716, 53112.09
1263.790, 53065.00
1264.864, 53132.00
1265.938, 53036.00
1267.011, 52956.00
1268.085, 53033.65
1269.158, 53226.00
1270.231, 53130.00
1271.304, 53406.00
1272.377, 53460.00
1273.450, 53466.00
1274.522, 53631.00
1275.594, 53675.00
1276.666, 53622.00
