##NAMES=Thomsonite-Ca
##RRUFFID=R050103
##IDEAL CHEMISTRY=NaCa_2_(Al_5_Si_5_)O_20_&#183;6H_2_O
##LOCALITY=Seeberg, Bohemia, Czech Republic
##OWNER=RRUFF
##SOURCE=Rock Currier
##DESCRIPTION=Colorless prismatic crystals
##STATUS=The identification of this mineral has been confirmed by X-ray diffraction and chemical analysis
##URL=rruff.info/R050103
##MEASURED CHEMISTRY=Na_1.00_(Ca_0.92_Sr_0.08_)_2_(Al_5.00_Si_5.00_)O_20_Â·6H_2_O
##PIN_ID=L00246
##ORIENTATION=Laser parallel to c* (0 0 1). Fiducial mark perpendicular to laser is parallel to -a [-1 0 0]
93.48000, 23101.00
94.71400, 24177.00
95.94800, 25299.00
97.18200, 26474.00
98.41600, 27602.00
99.64900, 28711.00
100.8830, 30185.00
102.1160, 31431.00
103.3490, 33088.00
104.5820, 35109.00
105.8150, 37352.00
107.0470, 38095.00
108.2800, 38214.00
109.5120, 38250.00
110.7440, 37963.00
111.9760, 37808.00
113.2080, 37642.00
114.4400, 36680.00
115.6710, 35654.00
116.9030, 33702.00
118.1340, 32195.00
119.3650, 30833.00
120.5960, 29607.00
121.8270, 28427.00
123.0580, 27078.00
124.2880, 26038.00
125.5190, 25129.00
126.7490, 24455.00
127.9790, 23815.00
129.2090, 23264.00
130.4390, 22873.00
131.6680, 22462.00
132.8980, 22285.86
134.1270, 22401.00
135.3560, 22198.00
136.5850, 22319.00
137.8140, 22547.00
139.0430, 22672.00
140.2710, 22981.00
141.5000, 23157.00
142.7280, 23389.00
143.9560, 23562.00
145.1840, 23583.30
146.4120, 23595.55
147.6390, 23451.00
148.8670, 23335.00
150.0940, 23013.00
151.3210, 22664.00
152.5490, 22385.00
153.7750, 22329.00
155.0020, 21971.00
156.2290, 21762.00
157.4550, 22119.00
158.6810, 22364.00
159.9080, 22723.00
161.1340, 23222.00
162.3590, 23783.00
163.5850, 24549.00
164.8110, 25361.00
166.0360, 26339.00
167.2610, 27672.00
168.4860, 28811.00
169.7110, 29935.00
170.9360, 31710.00
172.1610, 33130.00
173.3850, 34433.00
174.6100, 35409.00
175.8340, 35836.00
177.0580, 36245.00
178.2820, 36013.00
179.5050, 35392.00
180.7290, 34456.00
181.9520, 32918.00
183.1760, 31082.00
184.3990, 29491.00
185.6220, 27883.00
186.8450, 26512.00
188.0670, 25279.00
189.2900, 24852.00
190.5120, 24084.00
191.7340, 23436.00
192.9560, 23120.00
194.1780, 22630.00
195.4000, 22134.00
196.6220, 21740.00
197.8430, 21311.00
199.0640, 21019.13
200.2860, 20966.00
201.5070, 20607.00
202.7270, 20422.00
203.9480, 20444.00
205.1690, 20817.00
206.3890, 21154.00
207.6090, 21823.00
208.8290, 22411.00
210.0490, 23201.00
211.2690, 24076.00
212.4890, 25072.00
213.7080, 26194.00
214.9280, 27169.00
216.1470, 28180.00
217.3660, 29011.00
218.5850, 29763.00
219.8030, 29854.00
221.0220, 30473.00
222.2400, 30805.00
223.4590, 31176.00
224.6770, 31239.00
225.8950, 30904.00
227.1120, 29745.00
228.3300, 28521.00
229.5480, 27110.00
230.7650, 26011.00
231.9820, 24450.00
233.1990, 22466.00
234.4160, 21055.00
235.6330, 19960.00
236.8490, 18768.00
238.0660, 18132.00
239.2820, 17631.00
240.4980, 17412.00
241.7140, 17237.00
242.9300, 17216.00
244.1460, 16868.00
245.3610, 17134.00
246.5770, 17098.00
247.7920, 17491.00
249.0070, 17553.00
250.2220, 17762.00
251.4370, 17976.00
252.6510, 18180.00
253.8660, 18384.00
255.0800, 18562.00
256.2940, 18788.00
257.5080, 18944.00
258.7220, 18474.00
259.9360, 17889.00
261.1490, 17832.00
262.3630, 17432.00
263.5760, 17307.00
264.7890, 17061.00
266.0020, 16912.00
267.2150, 16940.00
268.4270, 16702.00
269.6400, 16751.00
270.8520, 16658.00
272.0640, 16823.00
273.2760, 16814.00
274.4880, 16840.00
275.7000, 16908.00
276.9120, 17055.00
278.1230, 16868.00
279.3340, 17086.00
280.5450, 17074.00
281.7560, 16918.00
282.9670, 16995.00
284.1780, 16912.00
285.3880, 16797.00
286.5980, 16785.00
287.8090, 16587.00
289.0190, 16584.00
290.2290, 16577.00
291.4380, 16456.00
292.6480, 16355.00
293.8570, 16507.00
295.0670, 16555.00
296.2760, 16564.00
297.4850, 16603.71
298.6930, 16571.45
299.9020, 16584.00
301.1110, 16460.00
302.3190, 16443.00
303.5270, 16318.00
304.7350, 16377.00
305.9430, 16172.00
307.1510, 16363.00
308.3580, 16202.00
309.5660, 16397.00
310.7730, 16438.00
311.9800, 16409.00
313.1870, 16421.00
314.3940, 16340.00
315.6010, 16333.00
316.8070, 16633.00
318.0130, 16413.00
319.2200, 16662.00
320.4260, 16709.00
321.6310, 16685.00
322.8370, 16779.00
324.0430, 16992.00
325.2480, 16836.00
326.4540, 17188.00
327.6590, 17294.00
328.8640, 17372.00
330.0680, 17296.00
331.2730, 17572.00
332.4780, 17825.00
333.6820, 17955.00
334.8860, 18225.00
336.0900, 18403.00
337.2940, 18597.22
338.4980, 18893.00
339.7010, 18971.00
340.9050, 19163.00
342.1080, 19305.00
343.3110, 19279.00
344.5140, 19208.00
345.7170, 19297.00
346.9200, 19079.00
348.1220, 19096.00
349.3240, 19100.00
350.5270, 19353.00
351.7290, 19306.00
352.9310, 19249.00
354.1320, 19299.00
355.3340, 19278.00
356.5350, 19394.00
357.7370, 19492.00
358.9380, 19239.00
360.1390, 19337.00
361.3400, 19045.00
362.5400, 19017.00
363.7410, 18739.00
364.9410, 18719.00
366.1410, 18476.00
367.3410, 18387.00
368.5410, 18244.00
369.7410, 18098.00
370.9400, 18219.00
372.1400, 18258.00
373.3390, 17943.00
374.5380, 18227.00
375.7370, 18050.00
376.9360, 18115.00
378.1350, 18141.00
379.3330, 17836.00
380.5310, 17954.00
381.7300, 17769.00
382.9280, 17580.00
384.1260, 17527.00
385.3230, 17352.00
386.5210, 17325.29
387.7180, 17369.00
388.9160, 17232.00
390.1130, 17423.00
391.3100, 17294.00
392.5060, 17262.00
393.7030, 17436.00
394.9000, 17284.00
396.0960, 17271.00
397.2920, 17433.00
398.4880, 17446.00
399.6840, 17433.00
400.8800, 17442.00
402.0750, 17504.00
403.2710, 17513.00
404.4660, 17582.86
405.6610, 17554.00
406.8560, 17728.00
408.0510, 17806.00
409.2450, 17895.00
410.4400, 18157.00
411.6340, 18000.00
412.8280, 18410.00
414.0220, 18456.00
415.2160, 18643.00
416.4100, 19023.00
417.6030, 19375.00
418.7970, 19667.00
419.9900, 20041.00
421.1830, 20440.00
422.3760, 20777.00
423.5690, 21257.00
424.7610, 22027.00
425.9540, 22485.00
427.1460, 23178.00
428.3380, 23741.00
429.5300, 24679.00
430.7220, 25142.00
431.9140, 26073.00
433.1050, 26801.00
434.2970, 27586.00
435.4880, 28193.00
436.6790, 28640.00
437.8700, 28808.00
439.0610, 29145.00
440.2510, 29074.00
441.4420, 28860.00
442.6320, 28008.00
443.8220, 27363.00
445.0120, 26649.00
446.2020, 25997.00
447.3910, 25217.00
448.5810, 24915.00
449.7700, 24371.00
450.9600, 23738.00
452.1490, 23604.00
453.3370, 23574.00
454.5260, 23479.00
455.7150, 23516.00
456.9030, 23795.00
458.0910, 24089.00
459.2800, 24731.00
460.4670, 25735.00
461.6550, 26604.00
462.8430, 27585.00
464.0300, 28652.00
465.2180, 30271.00
466.4050, 31507.00
467.5920, 32411.00
468.7790, 33519.00
469.9650, 33861.00
471.1520, 33983.00
472.3380, 33875.00
473.5250, 33169.00
474.7110, 31976.00
475.8970, 30959.00
477.0820, 29456.00
478.2680, 28658.00
479.4540, 27636.00
480.6390, 27091.00
481.8240, 26650.00
483.0090, 26496.00
484.1940, 26456.00
485.3780, 26462.00
486.5630, 26628.00
487.7470, 26869.00
488.9320, 26831.00
490.1160, 27028.00
491.3000, 26962.00
492.4830, 26987.00
493.6670, 26740.00
494.8500, 26377.00
496.0340, 26092.00
497.2170, 25701.00
498.4000, 25200.00
499.5820, 25020.00
500.7650, 24454.00
501.9480, 24143.00
503.1300, 23903.00
504.3120, 23777.00
505.4940, 23657.00
506.6760, 23682.00
507.8580, 23900.00
509.0390, 23903.00
510.2210, 24051.00
511.4020, 24465.00
512.5830, 24982.00
513.7640, 25406.00
514.9450, 26031.00
516.1250, 26950.15
517.3060, 27989.79
518.4860, 29316.00
519.6660, 30989.00
520.8460, 32902.00
522.0260, 35222.05
523.2060, 37738.00
524.3850, 40830.00
525.5650, 44014.00
526.7440, 47713.00
527.9230, 51245.00
529.1020, 54666.00
530.2810, 57648.00
531.4590, 59954.00
532.6380, 61582.00
533.8160, 62172.00
534.9940, 61893.00
536.1720, 60467.00
537.3500, 58423.00
538.5270, 55428.00
539.7050, 52200.00
540.8820, 48903.00
542.0590, 45689.00
543.2360, 42670.00
544.4130, 39870.00
545.5900, 38089.00
546.7660, 36038.00
547.9430, 34070.00
549.1190, 32779.00
550.2950, 31574.00
551.4710, 30471.00
552.6470, 29641.00
553.8220, 28819.00
554.9980, 28088.00
556.1730, 27668.00
557.3480, 27206.00
558.5230, 26882.00
559.6980, 26500.00
560.8730, 26239.00
562.0470, 26141.00
563.2220, 25875.00
564.3960, 25745.00
565.5700, 25489.00
566.7440, 25359.00
567.9170, 25003.00
569.0910, 25165.00
570.2640, 25184.00
571.4380, 24829.00
572.6110, 24747.00
573.7840, 24573.00
574.9570, 24767.00
576.1290, 24642.00
577.3020, 24547.00
578.4740, 24492.00
579.6460, 24582.00
580.8180, 24701.00
581.9900, 24410.00
583.1620, 24549.00
584.3330, 24389.00
585.5040, 24658.00
586.6760, 24458.00
587.8470, 24370.00
589.0180, 24728.00
590.1880, 24686.00
591.3590, 24785.00
592.5290, 24815.00
593.7000, 24897.63
594.8700, 25119.00
596.0400, 25165.00
597.2090, 25371.00
598.3790, 25649.00
599.5490, 25843.00
600.7180, 25898.00
601.8870, 26087.87
603.0560, 26297.00
604.2250, 26300.00
605.3940, 26202.00
606.5620, 26274.00
607.7300, 26162.00
608.8990, 25968.00
610.0670, 25911.00
611.2350, 25829.00
612.4020, 25821.00
613.5700, 25557.00
614.7370, 25716.00
615.9050, 25467.00
617.0720, 25586.00
618.2390, 25668.00
619.4060, 25713.00
620.5720, 25700.00
621.7390, 25773.00
622.9050, 25729.00
624.0710, 25872.00
625.2370, 25651.00
626.4030, 25529.00
627.5690, 25725.00
628.7340, 25490.00
629.9000, 25722.00
631.0650, 25878.00
632.2300, 25771.00
633.3950, 25811.00
634.5600, 25756.00
635.7240, 25875.00
636.8890, 25904.00
638.0530, 25866.00
639.2170, 26200.00
640.3810, 26049.00
641.5450, 26188.00
642.7080, 25814.00
643.8720, 26062.00
645.0350, 25911.00
646.1980, 26144.00
647.3610, 26119.00
648.5240, 26249.00
649.6870, 26119.00
650.8490, 26299.00
652.0120, 26010.00
653.1740, 26423.00
654.3360, 26351.00
655.4980, 26270.00
656.6600, 26478.00
657.8210, 26300.00
658.9830, 26448.00
660.1440, 26406.00
661.3050, 26476.00
662.4660, 26356.00
663.6270, 26613.00
664.7870, 26534.00
665.9480, 26650.00
667.1080, 26700.00
668.2680, 26511.00
669.4280, 26669.00
670.5880, 26982.00
671.7480, 26809.00
672.9070, 26712.00
674.0670, 27074.00
675.2260, 26910.00
676.3850, 26997.00
677.5440, 27001.00
678.7030, 26831.00
679.8610, 27363.00
681.0200, 27410.00
682.1780, 27270.00
683.3360, 27486.00
684.4940, 27495.00
685.6520, 27418.00
686.8090, 27732.00
687.9670, 27801.00
689.1240, 27796.00
690.2810, 28096.00
691.4380, 28171.00
692.5950, 28058.00
693.7520, 28393.00
694.9080, 28089.00
696.0650, 28202.00
697.2210, 28265.00
698.3770, 28476.00
699.5330, 28393.00
700.6880, 28421.00
701.8440, 28488.00
702.9990, 28486.00
704.1550, 28463.00
705.3100, 28451.71
706.4650, 28438.72
707.6190, 28388.00
708.7740, 28418.00
709.9290, 28441.00
711.0830, 28451.00
712.2370, 28383.00
713.3910, 28442.00
714.5450, 28422.00
715.6980, 28516.00
716.8520, 28492.10
718.0050, 28486.00
719.1580, 28512.00
720.3110, 28325.00
721.4640, 28399.00
722.6170, 28204.00
723.7700, 28107.00
724.9220, 28181.00
726.0740, 28334.00
727.2260, 28218.00
728.3780, 28254.00
729.5300, 28135.00
730.6810, 28083.00
731.8330, 27911.00
732.9840, 28126.00
734.1350, 27930.00
735.2860, 28004.00
736.4370, 28088.00
737.5880, 27777.00
738.7380, 27770.00
739.8880, 27767.00
741.0390, 27749.00
742.1890, 27740.00
743.3380, 27688.00
744.4880, 27836.00
745.6380, 27771.00
746.7870, 27682.00
747.9360, 27748.00
749.0850, 27618.00
750.2340, 27904.00
751.3830, 27899.00
752.5310, 27409.00
753.6800, 27610.00
754.8280, 27691.00
755.9760, 27666.00
757.1240, 27844.00
758.2720, 27745.00
759.4190, 27718.00
760.5670, 27719.00
761.7140, 27840.00
762.8610, 27848.00
764.0080, 28107.00
765.1550, 27911.00
766.3020, 28036.00
767.4480, 28397.00
768.5950, 28092.00
769.7410, 28266.00
770.8870, 28167.00
772.0330, 28285.00
773.1780, 28444.00
774.3240, 28467.00
775.4690, 28277.00
776.6140, 28091.00
777.7590, 28105.00
778.9040, 28115.00
780.0490, 28177.00
781.1940, 27985.00
782.3380, 27777.00
783.4820, 28113.00
784.6260, 28238.00
785.7700, 28051.00
786.9140, 28035.00
788.0580, 28126.00
789.2010, 27934.00
790.3450, 27970.00
791.4880, 27962.00
792.6310, 28058.00
793.7730, 28123.00
794.9160, 28243.00
796.0590, 27924.00
797.2010, 28162.00
798.3430, 27839.00
799.4850, 27962.00
800.6270, 28034.00
801.7690, 27859.00
802.9100, 28075.00
804.0520, 28104.00
805.1930, 28114.00
806.3340, 28020.00
807.4750, 28010.00
808.6160, 28126.00
809.7560, 27943.00
810.8970, 28205.00
812.0370, 27812.00
813.1770, 27922.00
814.3170, 27992.00
815.4570, 27931.00
816.5960, 28060.35
817.7360, 28159.00
818.8750, 28146.00
820.0140, 28034.00
821.1530, 27923.00
822.2920, 28127.00
823.4310, 28141.00
824.5690, 28351.00
825.7070, 28149.00
826.8460, 28046.00
827.9840, 28303.00
829.1220, 28074.00
830.2590, 28199.00
831.3970, 28062.00
832.5340, 28057.00
833.6710, 28200.00
834.8080, 28130.00
835.9450, 28324.00
837.0820, 28289.00
838.2190, 28376.00
839.3550, 28336.00
840.4910, 28431.00
841.6270, 28438.00
842.7630, 28458.00
843.8990, 28297.00
845.0350, 28342.00
846.1700, 28437.00
847.3060, 28275.00
848.4410, 28517.00
849.5760, 28614.00
850.7100, 28411.00
851.8450, 28359.00
852.9800, 28593.00
854.1140, 28515.00
855.2480, 28517.00
856.3820, 28612.00
857.5160, 28548.00
858.6500, 28554.00
859.7830, 28714.00
860.9170, 28621.00
862.0500, 28484.00
863.1830, 28514.00
864.3160, 28810.00
865.4480, 28648.09
866.5810, 28954.00
867.7130, 28582.00
868.8460, 28812.00
869.9780, 28797.00
871.1100, 28637.00
872.2410, 28746.00
873.3730, 28548.00
874.5050, 28532.00
875.6360, 28711.00
876.7670, 28678.00
877.8980, 28772.00
879.0290, 28725.00
880.1590, 28913.00
881.2900, 28808.00
882.4200, 29050.00
883.5500, 28943.00
884.6800, 28992.00
885.8100, 29121.00
886.9400, 29088.00
888.0690, 29159.00
889.1990, 29180.00
890.3280, 29246.00
891.4570, 29260.00
892.5860, 29318.39
893.7140, 29268.00
894.8430, 29435.00
895.9710, 29391.00
897.1000, 29463.00
898.2280, 29607.00
899.3560, 29544.00
900.4830, 29787.00
901.6110, 29733.00
902.7380, 29842.00
903.8660, 29812.00
904.9930, 30338.00
906.1200, 30186.00
907.2460, 30827.00
908.3730, 31175.00
909.5000, 31152.00
910.6260, 31427.00
911.7520, 31801.00
912.8780, 32054.00
914.0040, 32107.00
915.1290, 32285.00
916.2550, 32517.00
917.3800, 32570.00
918.5050, 32723.00
919.6300, 32801.00
920.7550, 32942.00
921.8800, 33037.00
923.0040, 32896.00
924.1290, 33064.00
925.2530, 33222.00
926.3770, 33399.00
927.5010, 33633.74
928.6250, 33905.00
929.7480, 34072.00
930.8720, 34252.00
931.9950, 34341.00
933.1180, 34323.00
934.2410, 34373.09
935.3640, 34314.53
936.4860, 34238.00
937.6090, 34223.00
938.7310, 33973.00
939.8530, 34034.00
940.9750, 34017.00
942.0970, 33442.00
943.2180, 33514.00
944.3400, 33594.00
945.4610, 33404.00
946.5820, 33452.00
947.7030, 33245.00
948.8240, 33134.00
949.9450, 33284.00
951.0650, 33265.00
952.1860, 33423.00
953.3060, 33341.00
954.4260, 33279.00
955.5460, 33303.00
956.6650, 33261.00
957.7850, 33248.00
958.9040, 33348.00
960.0230, 33204.00
961.1420, 33259.00
962.2610, 32978.00
963.3800, 33369.00
964.4990, 32995.00
965.6170, 33023.00
966.7350, 33002.00
967.8530, 32913.00
968.9710, 33240.00
970.0890, 33200.00
971.2070, 33225.00
972.3240, 33249.00
973.4410, 33288.00
974.5580, 33630.00
975.6750, 33868.00
976.7920, 34001.00
977.9090, 34412.00
979.0250, 34466.00
980.1410, 34665.00
981.2580, 34914.00
982.3740, 34965.00
983.4890, 35218.00
984.6050, 35329.00
985.7200, 35444.00
986.8360, 35342.00
987.9510, 35247.00
989.0660, 35110.00
990.1810, 34882.57
991.2950, 34513.00
992.4100, 34341.00
993.5240, 34038.00
994.6390, 33706.00
995.7530, 33619.00
996.8660, 33376.00
997.9800, 33114.00
999.0940, 32869.00
1000.207, 32701.00
1001.320, 32470.00
1002.433, 32480.00
1003.546, 32303.00
1004.659, 32213.00
1005.772, 32237.00
1006.884, 31761.00
1007.996, 31900.00
1009.108, 32144.00
1010.220, 31655.00
1011.332, 31639.00
1012.444, 31482.00
1013.555, 31679.00
1014.666, 31755.00
1015.777, 31437.00
1016.888, 31258.00
1017.999, 31476.00
1019.110, 31465.00
1020.220, 31035.00
1021.331, 31065.00
1022.441, 30915.00
1023.551, 30728.00
1024.661, 30781.00
1025.770, 30675.00
1026.880, 30419.00
1027.989, 30553.00
1029.098, 30459.00
1030.207, 30384.00
1031.316, 30506.00
1032.425, 30576.00
1033.533, 30302.00
1034.642, 30497.00
1035.750, 30582.00
1036.858, 30457.00
1037.966, 30773.00
1039.073, 30787.00
1040.181, 30543.00
1041.288, 30478.00
1042.396, 30778.00
1043.503, 30435.00
1044.610, 30675.00
1045.716, 30822.00
1046.823, 30905.00
1047.929, 31029.00
1049.036, 31144.00
1050.142, 31244.27
1051.248, 31132.00
1052.353, 31447.00
1053.459, 31551.00
1054.564, 31625.31
1055.670, 31441.00
1056.775, 31736.00
1057.880, 31796.00
1058.985, 31713.00
1060.089, 31909.00
1061.194, 32238.00
1062.298, 32113.00
1063.402, 32188.00
1064.506, 32503.00
1065.610, 32376.00
1066.713, 32377.00
1067.817, 32556.00
1068.920, 32707.00
1070.023, 32825.00
1071.126, 32784.00
1072.229, 32721.00
1073.332, 32869.00
1074.435, 32628.00
1075.537, 32800.00
1076.639, 32903.00
1077.741, 32781.00
1078.843, 32763.00
1079.945, 32820.00
1081.046, 33077.00
1082.148, 32866.00
1083.249, 32812.00
1084.350, 32486.00
1085.451, 32595.00
1086.551, 32390.00
1087.652, 32327.00
1088.752, 32255.00
1089.853, 32201.00
1090.953, 32010.00
1092.053, 32024.00
1093.152, 31973.00
1094.252, 31749.00
1095.351, 31910.00
1096.451, 31945.00
1097.550, 31732.00
1098.649, 31622.00
1099.748, 31859.00
1100.846, 31512.00
1101.945, 31677.00
1103.043, 31671.00
1104.141, 31578.00
1105.239, 31518.00
1106.337, 31581.00
1107.434, 31436.00
1108.532, 31539.00
1109.629, 31608.00
1110.726, 31577.00
1111.823, 31525.00
1112.920, 31514.00
1114.017, 31831.00
1115.113, 31875.00
1116.210, 32231.00
1117.306, 32125.00
1118.402, 32123.00
1119.498, 32356.00
1120.593, 32330.00
1121.689, 32352.00
1122.784, 32287.00
1123.879, 32338.00
1124.974, 32046.00
1126.069, 32147.00
1127.164, 32026.00
1128.259, 32045.00
1129.353, 31849.00
1130.447, 32100.00
1131.541, 31922.00
1132.635, 32159.00
1133.729, 31957.00
1134.822, 32093.00
1135.916, 32157.00
1137.009, 32057.00
1138.102, 32110.00
1139.195, 32498.00
1140.288, 32157.00
1141.380, 32171.00
1142.473, 32230.00
1143.565, 32632.00
1144.657, 32675.00
1145.749, 32521.00
1146.841, 32494.00
1147.932, 32400.00
1149.024, 32273.00
1150.115, 32687.00
1151.206, 32614.00
1152.297, 32926.00
1153.388, 32787.00
1154.479, 32831.00
1155.569, 32855.00
1156.659, 32620.00
1157.750, 32948.00
1158.839, 33069.00
1159.929, 32881.00
1161.019, 33020.00
1162.108, 33101.00
1163.198, 32964.00
1164.287, 33250.00
1165.376, 33228.00
1166.465, 33381.00
1167.553, 33403.00
1168.642, 33351.00
1169.730, 33463.00
1170.818, 33543.00
1171.906, 33574.00
1172.994, 33363.00
1174.082, 33525.00
1175.170, 33473.00
1176.257, 33813.00
1177.344, 33848.00
1178.431, 33695.00
1179.518, 33925.00
1180.605, 33685.00
1181.691, 33635.00
1182.778, 33750.00
1183.864, 33715.00
1184.950, 34018.00
1186.036, 34360.00
1187.122, 34570.00
1188.207, 34014.00
1189.292, 34037.00
1190.378, 34258.00
1191.463, 34299.00
1192.548, 34247.00
1193.632, 34193.00
1194.717, 34407.00
1195.801, 34504.00
1196.886, 34563.00
1197.970, 34552.00
1199.054, 34787.00
1200.137, 34578.00
1201.221, 34823.00
1202.305, 34787.00
1203.388, 34593.00
1204.471, 34896.00
1205.554, 34958.00
1206.637, 34844.00
1207.719, 34988.00
1208.802, 35013.00
1209.884, 34908.00
1210.966, 35106.00
1212.048, 35406.00
1213.130, 35283.00
1214.212, 35468.00
1215.293, 35308.00
1216.374, 35506.00
1217.456, 35347.00
1218.536, 35395.00
1219.617, 35302.00
1220.698, 35422.40
1221.778, 35728.00
1222.859, 35635.00
1223.939, 35846.00
1225.019, 35786.00
1226.099, 35862.00
1227.178, 35960.00
1228.258, 35838.00
1229.337, 36183.00
1230.417, 36129.00
1231.496, 36214.00
1232.574, 36194.00
1233.653, 36368.00
1234.732, 36070.00
1235.810, 36638.00
1236.888, 36494.00
1237.966, 36355.00
1239.044, 36551.00
1240.122, 36469.00
1241.199, 36550.00
1242.277, 36724.00
1243.354, 37003.00
1244.431, 36968.00
1245.508, 36724.00
1246.585, 36984.00
1247.661, 37002.00
1248.738, 37045.00
1249.814, 37183.00
1250.890, 37159.00
1251.966, 37198.00
1253.042, 37157.00
1254.117, 37373.00
1255.193, 37203.00
1256.268, 37351.00
1257.343, 37421.00
1258.418, 37258.00
1259.493, 37676.00
1260.567, 37693.00
1261.642, 37923.00
1262.716, 37936.00
1263.790, 37878.00
1264.864, 38084.00
1265.938, 37987.00
1267.011, 37877.00
1268.085, 38248.00
1269.158, 38033.00
1270.231, 38047.00
1271.304, 38045.00
1272.377, 38360.00
1273.450, 38391.00
