##NAMES=Thomsonite-Ca
##RRUFFID=R050103
##IDEAL CHEMISTRY=NaCa_2_(Al_5_Si_5_)O_20_&#183;6H_2_O
##LOCALITY=Seeberg, Bohemia, Czech Republic
##OWNER=RRUFF
##SOURCE=Rock Currier
##DESCRIPTION=Colorless prismatic crystals
##STATUS=The identification of this mineral has been confirmed by X-ray diffraction and chemical analysis
##URL=rruff.info/R050103
##MEASURED CHEMISTRY=Na_1.00_(Ca_0.92_Sr_0.08_)_2_(Al_5.00_Si_5.00_)O_20_Â·6H_2_O
##PIN_ID=L00246
##ORIENTATION=Laser parallel to c* (0 0 1). Fiducial mark perpendicular to laser is parallel to -a [-1 0 0]
93.48000, 12216.00
94.71400, 12488.00
95.94800, 12676.00
97.18200, 13139.00
98.41600, 13408.00
99.64900, 13533.00
100.8830, 13795.00
102.1160, 14119.00
103.3490, 14313.00
104.5820, 14938.00
105.8150, 14964.18
107.0470, 15743.00
108.2800, 15280.00
109.5120, 15158.00
110.7440, 15453.00
111.9760, 15626.00
113.2080, 15803.00
114.4400, 15851.00
115.6710, 16128.00
116.9030, 16293.00
118.1340, 16281.00
119.3650, 16218.00
120.5960, 16286.00
121.8270, 16193.00
123.0580, 16120.00
124.2880, 16188.00
125.5190, 16203.00
126.7490, 16023.00
127.9790, 16155.00
129.2090, 15793.00
130.4390, 15602.00
131.6680, 15513.00
132.8980, 15407.00
134.1270, 15051.00
135.3560, 15051.00
136.5850, 14892.00
137.8140, 15042.00
139.0430, 15224.00
140.2710, 15240.00
141.5000, 15461.00
142.7280, 15484.00
143.9560, 15821.00
145.1840, 15946.00
146.4120, 15997.00
147.6390, 16455.00
148.8670, 16583.00
150.0940, 16958.00
151.3210, 16918.00
152.5490, 17486.00
153.7750, 17938.00
155.0020, 18188.00
156.2290, 18796.00
157.4550, 19351.00
158.6810, 20102.00
159.9080, 20904.00
161.1340, 21923.00
162.3590, 23032.00
163.5850, 24256.00
164.8110, 25867.00
166.0360, 27364.00
167.2610, 29040.00
168.4860, 30952.00
169.7110, 32572.00
170.9360, 34530.00
172.1610, 36506.00
173.3850, 38113.00
174.6100, 39250.00
175.8340, 40056.00
177.0580, 39703.00
178.2820, 39408.00
179.5050, 38580.00
180.7290, 36621.00
181.9520, 34679.00
183.1760, 32150.00
184.3990, 29743.00
185.6220, 27585.00
186.8450, 25689.00
188.0670, 24177.76
189.2900, 22931.00
190.5120, 21965.00
191.7340, 21235.00
192.9560, 20785.00
194.1780, 19979.00
195.4000, 19519.00
196.6220, 19143.00
197.8430, 18821.00
199.0640, 18343.00
200.2860, 18185.00
201.5070, 18179.00
202.7270, 18161.00
203.9480, 18316.00
205.1690, 18844.00
206.3890, 19160.00
207.6090, 19686.00
208.8290, 20443.00
210.0490, 21124.00
211.2690, 22275.00
212.4890, 23020.00
213.7080, 23752.00
214.9280, 24849.00
216.1470, 25133.00
217.3660, 25373.00
218.5850, 25285.00
219.8030, 24960.00
221.0220, 24398.00
222.2400, 23789.00
223.4590, 22826.00
224.6770, 21736.00
225.8950, 20841.00
227.1120, 19681.00
228.3300, 18769.00
229.5480, 18083.00
230.7650, 17493.00
231.9820, 16856.00
233.1990, 16399.00
234.4160, 16093.00
235.6330, 15864.00
236.8490, 15472.00
238.0660, 15290.00
239.2820, 15254.00
240.4980, 15099.00
241.7140, 15223.00
242.9300, 15126.00
244.1460, 15354.00
245.3610, 15414.00
246.5770, 15601.00
247.7920, 15976.00
249.0070, 16366.00
250.2220, 16631.00
251.4370, 17154.00
252.6510, 17482.00
253.8660, 17689.00
255.0800, 17968.00
256.2940, 18009.00
257.5080, 17840.74
258.7220, 17754.00
259.9360, 17224.00
261.1490, 16634.00
262.3630, 16217.00
263.5760, 15691.00
264.7890, 15511.00
266.0020, 15301.00
267.2150, 15053.00
268.4270, 14855.00
269.6400, 14777.00
270.8520, 14693.00
272.0640, 14720.00
273.2760, 14537.00
274.4880, 14751.00
275.7000, 14618.00
276.9120, 14519.00
278.1230, 14633.00
279.3340, 14858.00
280.5450, 14546.00
281.7560, 14771.00
282.9670, 14631.00
284.1780, 14487.00
285.3880, 14532.00
286.5980, 14675.00
287.8090, 14528.00
289.0190, 14590.00
290.2290, 14639.00
291.4380, 14613.00
292.6480, 14614.00
293.8570, 14737.00
295.0670, 14761.00
296.2760, 14722.00
297.4850, 14815.00
298.6930, 14855.00
299.9020, 14799.00
301.1110, 14902.00
302.3190, 14988.00
303.5270, 15059.00
304.7350, 15157.47
305.9430, 15222.00
307.1510, 15348.00
308.3580, 15382.00
309.5660, 15500.17
310.7730, 15628.84
311.9800, 15746.00
313.1870, 15888.00
314.3940, 16033.24
315.6010, 16057.00
316.8070, 16362.00
318.0130, 16538.00
319.2200, 16748.00
320.4260, 16813.00
321.6310, 16901.00
322.8370, 16992.00
324.0430, 17164.00
325.2480, 17338.00
326.4540, 17408.00
327.6590, 17520.00
328.8640, 17927.00
330.0680, 18114.00
331.2730, 18098.00
332.4780, 18525.00
333.6820, 18655.00
334.8860, 19023.00
336.0900, 19180.00
337.2940, 19384.00
338.4980, 19483.00
339.7010, 19459.00
340.9050, 19485.00
342.1080, 19386.00
343.3110, 19143.00
344.5140, 19083.00
345.7170, 18739.00
346.9200, 18660.00
348.1220, 18361.00
349.3240, 18627.00
350.5270, 18732.00
351.7290, 18636.00
352.9310, 18806.00
354.1320, 18886.00
355.3340, 19117.00
356.5350, 19233.00
357.7370, 19273.00
358.9380, 19316.27
360.1390, 19247.52
361.3400, 19185.00
362.5400, 18975.00
363.7410, 18752.00
364.9410, 18479.00
366.1410, 18193.00
367.3410, 17810.00
368.5410, 17619.00
369.7410, 17453.00
370.9400, 17244.00
372.1400, 17405.00
373.3390, 17167.00
374.5380, 17216.00
375.7370, 17215.00
376.9360, 16895.00
378.1350, 17096.00
379.3330, 16650.00
380.5310, 16640.00
381.7300, 16432.00
382.9280, 16388.00
384.1260, 16218.00
385.3230, 16087.00
386.5210, 15867.00
387.7180, 15863.12
388.9160, 15849.00
390.1130, 15862.00
391.3100, 15936.00
392.5060, 15973.00
393.7030, 15928.00
394.9000, 15769.00
396.0960, 15985.00
397.2920, 15807.00
398.4880, 16022.00
399.6840, 15755.00
400.8800, 16134.00
402.0750, 16178.00
403.2710, 16175.00
404.4660, 16028.00
405.6610, 16094.00
406.8560, 16191.00
408.0510, 16433.00
409.2450, 16455.00
410.4400, 16717.00
411.6340, 16848.00
412.8280, 16909.00
414.0220, 17107.00
415.2160, 17372.00
416.4100, 17708.00
417.6030, 17959.00
418.7970, 18173.00
419.9900, 18790.00
421.1830, 19039.00
422.3760, 19611.00
423.5690, 20099.00
424.7610, 20855.00
425.9540, 21175.00
427.1460, 22085.00
428.3380, 22629.00
429.5300, 23225.00
430.7220, 23963.00
431.9140, 24624.00
433.1050, 25556.00
434.2970, 26189.00
435.4880, 27017.00
436.6790, 27321.00
437.8700, 27939.00
439.0610, 27754.00
440.2510, 28046.00
441.4420, 27555.00
442.6320, 27325.00
443.8220, 26560.00
445.0120, 25803.00
446.2020, 25030.00
447.3910, 24247.00
448.5810, 23645.00
449.7700, 22819.00
450.9600, 22219.00
452.1490, 22065.00
453.3370, 21863.00
454.5260, 21847.00
455.7150, 21838.00
456.9030, 22236.00
458.0910, 22412.00
459.2800, 22830.00
460.4670, 23774.00
461.6550, 24781.00
462.8430, 26009.00
464.0300, 27209.00
465.2180, 28478.00
466.4050, 29582.00
467.5920, 31014.00
468.7790, 31671.00
469.9650, 32444.00
471.1520, 32437.00
472.3380, 32234.00
473.5250, 31165.00
474.7110, 29934.00
475.8970, 28624.00
477.0820, 27080.00
478.2680, 26125.00
479.4540, 25143.00
480.6390, 24410.00
481.8240, 23716.00
483.0090, 23551.00
484.1940, 23077.00
485.3780, 22761.00
486.5630, 22701.00
487.7470, 22590.00
488.9320, 22268.00
490.1160, 22226.00
491.3000, 21969.00
492.4830, 22008.00
493.6670, 21745.00
494.8500, 21715.00
496.0340, 21439.00
497.2170, 21361.00
498.4000, 21085.00
499.5820, 20813.00
500.7650, 20824.00
501.9480, 20524.00
503.1300, 20600.00
504.3120, 20599.00
505.4940, 20788.00
506.6760, 20830.00
507.8580, 21098.00
509.0390, 21298.00
510.2210, 21534.00
511.4020, 22053.00
512.5830, 22632.00
513.7640, 23269.00
514.9450, 23991.00
516.1250, 24976.68
517.3060, 26051.00
518.4860, 27461.00
519.6660, 29193.00
520.8460, 31182.00
522.0260, 33934.00
523.2060, 36863.00
524.3850, 40084.00
525.5650, 43290.00
526.7440, 47647.00
527.9230, 50644.00
529.1020, 54637.00
530.2810, 57757.00
531.4590, 60374.00
532.6380, 61781.00
533.8160, 62354.00
534.9940, 61721.00
536.1720, 59724.00
537.3500, 57508.00
538.5270, 54363.00
539.7050, 50828.00
540.8820, 47095.00
542.0590, 43686.00
543.2360, 40709.00
544.4130, 37969.00
545.5900, 35526.71
546.7660, 33565.00
547.9430, 31554.00
549.1190, 30027.00
550.2950, 28763.00
551.4710, 27672.00
552.6470, 26654.00
553.8220, 25654.00
554.9980, 25227.00
556.1730, 24218.00
557.3480, 24060.00
558.5230, 23419.00
559.6980, 22952.00
560.8730, 22757.00
562.0470, 22354.00
563.2220, 21858.00
564.3960, 21667.00
565.5700, 21551.00
566.7440, 21280.00
567.9170, 21241.00
569.0910, 20920.00
570.2640, 20680.00
571.4380, 20777.00
572.6110, 20634.00
573.7840, 20346.00
574.9570, 20342.00
576.1290, 20199.00
577.3020, 20123.00
578.4740, 19992.00
579.6460, 19878.00
580.8180, 19744.00
581.9900, 19823.00
583.1620, 19591.00
584.3330, 19785.00
585.5040, 19633.00
586.6760, 19714.00
587.8470, 19671.00
589.0180, 19663.00
590.1880, 19835.00
591.3590, 19844.00
592.5290, 20045.00
593.7000, 20041.00
594.8700, 20291.00
596.0400, 20554.00
597.2090, 20752.00
598.3790, 20825.00
599.5490, 21044.00
600.7180, 21615.00
601.8870, 21542.00
603.0560, 21581.00
604.2250, 21704.00
605.3940, 21508.00
606.5620, 21404.00
607.7300, 21368.00
608.8990, 21065.00
610.0670, 20581.00
611.2350, 20732.00
612.4020, 20387.00
613.5700, 20203.00
614.7370, 20025.00
615.9050, 20024.00
617.0720, 19801.00
618.2390, 19985.00
619.4060, 19865.00
620.5720, 19725.00
621.7390, 19862.00
622.9050, 19695.00
624.0710, 19994.00
625.2370, 19725.00
626.4030, 19735.00
627.5690, 19716.00
628.7340, 19848.00
629.9000, 19664.00
631.0650, 19638.00
632.2300, 19485.00
633.3950, 19591.00
634.5600, 19555.00
635.7240, 19652.00
636.8890, 19652.00
638.0530, 19916.00
639.2170, 19607.00
640.3810, 19708.00
641.5450, 19872.00
642.7080, 19720.00
643.8720, 19775.00
645.0350, 19860.00
646.1980, 19859.00
647.3610, 19894.82
648.5240, 19939.00
649.6870, 19860.00
650.8490, 19919.00
652.0120, 19798.00
653.1740, 19855.00
654.3360, 19756.00
655.4980, 19757.65
656.6600, 19657.00
657.8210, 19756.00
658.9830, 19780.00
660.1440, 19794.00
661.3050, 19703.00
662.4660, 19747.00
663.6270, 19764.00
664.7870, 19725.00
665.9480, 19775.00
667.1080, 19825.00
668.2680, 19828.00
669.4280, 19969.00
670.5880, 19875.00
671.7480, 19902.00
672.9070, 20033.00
674.0670, 19993.00
675.2260, 20026.55
676.3850, 20087.00
677.5440, 20034.00
678.7030, 20051.00
679.8610, 20104.34
681.0200, 20312.00
682.1780, 20363.00
683.3360, 20410.00
684.4940, 20586.00
685.6520, 20593.00
686.8090, 20491.00
687.9670, 20680.00
689.1240, 20517.00
690.2810, 20617.00
691.4380, 20796.00
692.5950, 20960.00
693.7520, 21037.00
694.9080, 20929.00
696.0650, 21063.00
697.2210, 21128.00
698.3770, 21313.00
699.5330, 21172.00
700.6880, 21231.00
701.8440, 21260.00
702.9990, 21245.00
704.1550, 21163.00
705.3100, 21182.00
706.4650, 21428.00
707.6190, 21243.00
708.7740, 21399.00
709.9290, 21181.00
711.0830, 21279.00
712.2370, 21362.00
713.3910, 21348.00
714.5450, 21431.00
715.6980, 21407.00
716.8520, 21428.00
718.0050, 21446.00
719.1580, 21544.00
720.3110, 21488.00
721.4640, 21444.00
722.6170, 21286.00
723.7700, 21522.00
724.9220, 21417.00
726.0740, 21375.00
727.2260, 21423.00
728.3780, 21278.00
729.5300, 21388.00
730.6810, 21125.00
731.8330, 21047.00
732.9840, 21131.00
734.1350, 21175.00
735.2860, 20996.00
736.4370, 20984.00
737.5880, 20935.00
738.7380, 20908.00
739.8880, 20958.00
741.0390, 20892.79
742.1890, 20868.00
743.3380, 20848.00
744.4880, 20776.00
745.6380, 20801.00
746.7870, 20818.00
747.9360, 20783.00
749.0850, 20771.00
750.2340, 20847.00
751.3830, 20666.00
752.5310, 20548.00
753.6800, 20570.00
754.8280, 20530.00
755.9760, 20594.00
757.1240, 20527.00
758.2720, 20543.00
759.4190, 20532.00
760.5670, 20497.00
761.7140, 20570.00
762.8610, 20444.00
764.0080, 20489.00
765.1550, 20438.00
766.3020, 20715.00
767.4480, 20516.00
768.5950, 20579.00
769.7410, 20486.00
770.8870, 20460.00
772.0330, 20533.00
773.1780, 20363.00
774.3240, 20687.00
775.4690, 20582.00
776.6140, 20548.00
777.7590, 20698.00
778.9040, 20747.00
780.0490, 20719.00
781.1940, 20705.00
782.3380, 20709.00
783.4820, 20750.00
784.6260, 20802.00
785.7700, 20706.00
786.9140, 20694.00
788.0580, 20830.00
789.2010, 20807.00
790.3450, 20884.00
791.4880, 20679.00
792.6310, 20904.00
793.7730, 20752.00
794.9160, 20803.00
796.0590, 21005.00
797.2010, 20879.00
798.3430, 20848.00
799.4850, 20767.00
800.6270, 21053.00
801.7690, 20792.00
802.9100, 20820.00
804.0520, 21014.00
805.1930, 20905.00
806.3340, 20857.00
807.4750, 20743.00
808.6160, 20884.00
809.7560, 20874.00
810.8970, 21015.00
812.0370, 21020.00
813.1770, 21126.00
814.3170, 21047.00
815.4570, 21005.00
816.5960, 21100.00
817.7360, 21096.00
818.8750, 21193.00
820.0140, 21121.00
821.1530, 21125.00
822.2920, 21289.00
823.4310, 21190.00
824.5690, 21255.00
825.7070, 21241.00
826.8460, 21171.00
827.9840, 21116.00
829.1220, 21256.00
830.2590, 21283.00
831.3970, 21366.00
832.5340, 21332.00
833.6710, 21248.00
834.8080, 21200.00
835.9450, 21255.00
837.0820, 21519.00
838.2190, 21470.00
839.3550, 21658.00
840.4910, 21582.00
841.6270, 21606.00
842.7630, 21456.00
843.8990, 21563.00
845.0350, 21655.00
846.1700, 21696.00
847.3060, 21792.33
848.4410, 21790.00
849.5760, 21848.00
850.7100, 21810.00
851.8450, 21635.00
852.9800, 21867.00
854.1140, 21997.00
855.2480, 21794.00
856.3820, 21813.00
857.5160, 21925.00
858.6500, 22053.00
859.7830, 21968.00
860.9170, 22052.00
862.0500, 22089.00
863.1830, 22025.00
864.3160, 21992.00
865.4480, 22014.00
866.5810, 22137.00
867.7130, 22032.00
868.8460, 22056.00
869.9780, 22094.00
871.1100, 21902.00
872.2410, 22038.00
873.3730, 22087.00
874.5050, 22247.00
875.6360, 22272.13
876.7670, 22291.00
877.8980, 22320.00
879.0290, 22283.00
880.1590, 22257.00
881.2900, 22291.00
882.4200, 22494.00
883.5500, 22307.00
884.6800, 22566.00
885.8100, 22541.00
886.9400, 22154.00
888.0690, 22475.00
889.1990, 22523.00
890.3280, 22532.00
891.4570, 22365.00
892.5860, 22548.00
893.7140, 22449.00
894.8430, 22536.00
895.9710, 22471.00
897.1000, 22695.00
898.2280, 22744.00
899.3560, 22620.00
900.4830, 22841.00
901.6110, 22666.00
902.7380, 23008.00
903.8660, 22894.00
904.9930, 22862.00
906.1200, 23199.00
907.2460, 23390.00
908.3730, 23369.00
909.5000, 23235.00
910.6260, 23461.00
911.7520, 23616.00
912.8780, 23699.00
914.0040, 23687.00
915.1290, 23660.00
916.2550, 23839.00
917.3800, 23838.00
918.5050, 23823.00
919.6300, 24149.00
920.7550, 24028.00
921.8800, 24052.00
923.0040, 24165.00
924.1290, 24327.00
925.2530, 24438.27
926.3770, 24587.00
927.5010, 24724.00
928.6250, 24879.00
929.7480, 24953.00
930.8720, 25173.00
931.9950, 25198.00
933.1180, 25486.00
934.2410, 25307.00
935.3640, 25708.00
936.4860, 25905.00
937.6090, 26206.00
938.7310, 25945.00
939.8530, 26125.00
940.9750, 26131.00
942.0970, 26397.00
943.2180, 26390.00
944.3400, 26645.00
945.4610, 26629.00
946.5820, 26562.00
947.7030, 26731.00
948.8240, 26679.00
949.9450, 26903.00
951.0650, 26654.00
952.1860, 26702.00
953.3060, 26925.00
954.4260, 26906.00
955.5460, 26971.00
956.6650, 27194.00
957.7850, 27356.00
958.9040, 27328.00
960.0230, 27527.00
961.1420, 27643.00
962.2610, 27429.00
963.3800, 27601.00
964.4990, 27780.00
965.6170, 28027.00
966.7350, 28099.08
967.8530, 27854.00
968.9710, 28253.00
970.0890, 28126.00
971.2070, 28146.00
972.3240, 28320.00
973.4410, 28510.00
974.5580, 28704.00
975.6750, 28740.00
976.7920, 28868.00
977.9090, 28853.00
979.0250, 29292.00
980.1410, 29462.00
981.2580, 29205.00
982.3740, 29681.00
983.4890, 29645.00
984.6050, 29988.00
985.7200, 29864.00
986.8360, 29988.00
987.9510, 29903.00
989.0660, 29769.00
990.1810, 29545.00
991.2950, 29304.00
992.4100, 29063.98
993.5240, 28657.00
994.6390, 28555.00
995.7530, 28258.00
996.8660, 28104.00
997.9800, 27938.46
999.0940, 27707.00
1000.207, 27577.00
1001.320, 27456.00
1002.433, 27194.00
1003.546, 27075.00
1004.659, 27016.00
1005.772, 26605.00
1006.884, 26733.00
1007.996, 26505.00
1009.108, 26368.00
1010.220, 26493.00
1011.332, 26507.00
1012.444, 26352.00
1013.555, 26374.00
1014.666, 26310.00
1015.777, 26151.00
1016.888, 26197.00
1017.999, 25845.00
1019.110, 25835.00
1020.220, 25746.00
1021.331, 25479.00
1022.441, 25490.00
1023.551, 25469.00
1024.661, 25323.00
1025.770, 25413.00
1026.880, 25198.00
1027.989, 25164.00
1029.098, 25239.00
1030.207, 24838.00
1031.316, 25059.00
1032.425, 25143.00
1033.533, 25040.00
1034.642, 25235.00
1035.750, 24973.00
1036.858, 25081.00
1037.966, 25294.00
1039.073, 25201.00
1040.181, 25352.00
1041.288, 25118.00
1042.396, 25376.00
1043.503, 25251.00
1044.610, 25300.00
1045.716, 25350.00
1046.823, 25491.00
1047.929, 25581.00
1049.036, 25417.00
1050.142, 25525.00
1051.248, 25586.00
1052.353, 25916.00
1053.459, 25870.00
1054.564, 25858.00
1055.670, 26053.00
1056.775, 26048.00
1057.880, 26248.00
1058.985, 26474.00
1060.089, 26429.00
1061.194, 26522.00
1062.298, 26608.00
1063.402, 26817.00
1064.506, 26815.00
1065.610, 26979.00
1066.713, 27018.21
1067.817, 26842.00
1068.920, 27134.00
1070.023, 26901.00
1071.126, 27032.00
1072.229, 27029.00
1073.332, 26774.00
1074.435, 26942.00
1075.537, 26849.00
1076.639, 26860.00
1077.741, 26850.00
1078.843, 26847.00
1079.945, 26840.12
1081.046, 26830.00
1082.148, 26774.00
1083.249, 26752.00
1084.350, 26623.00
1085.451, 26774.00
1086.551, 26554.00
1087.652, 26352.00
1088.752, 26476.00
1089.853, 26492.00
1090.953, 26084.00
1092.053, 26355.00
1093.152, 26169.00
1094.252, 26196.00
1095.351, 26147.00
1096.451, 26048.00
1097.550, 26104.00
1098.649, 26114.00
1099.748, 25937.00
1100.846, 25936.00
1101.945, 26050.00
1103.043, 26153.00
1104.141, 26114.00
1105.239, 26149.00
1106.337, 25924.00
1107.434, 26182.00
1108.532, 25905.00
1109.629, 26099.00
1110.726, 26099.00
1111.823, 26123.00
1112.920, 26167.00
1114.017, 26214.13
1115.113, 26098.00
1116.210, 26301.00
1117.306, 26318.00
1118.402, 26263.00
1119.498, 26496.00
1120.593, 26533.00
1121.689, 26451.00
1122.784, 26657.00
1123.879, 26597.00
1124.974, 26300.00
1126.069, 26443.00
1127.164, 26214.00
1128.259, 26256.00
1129.353, 26401.00
1130.447, 26067.00
1131.541, 26129.00
1132.635, 26147.00
1133.729, 25952.00
1134.822, 26080.53
1135.916, 26328.00
1137.009, 26138.00
1138.102, 26273.00
1139.195, 26222.00
1140.288, 26330.00
1141.380, 26435.00
1142.473, 26358.00
1143.565, 26297.00
1144.657, 26421.00
1145.749, 26433.00
1146.841, 26410.00
1147.932, 26399.00
1149.024, 26442.00
1150.115, 26415.61
1151.206, 26544.00
1152.297, 26459.00
1153.388, 26417.00
1154.479, 26547.00
1155.569, 26634.00
1156.659, 26531.00
1157.750, 26433.00
1158.839, 26353.00
1159.929, 26433.52
1161.019, 26622.00
1162.108, 26603.00
1163.198, 26722.00
1164.287, 26693.00
1165.376, 26738.76
1166.465, 26851.00
1167.553, 26722.00
1168.642, 26833.00
1169.730, 26677.00
1170.818, 26878.00
1171.906, 26840.00
1172.994, 26786.00
1174.082, 26836.00
1175.170, 26940.00
1176.257, 26960.00
1177.344, 26871.00
1178.431, 27026.00
1179.518, 27025.00
1180.605, 26854.00
1181.691, 26738.00
1182.778, 26817.16
1183.864, 27001.00
1184.950, 26913.00
1186.036, 27094.00
1187.122, 27037.00
1188.207, 27055.00
1189.292, 27199.00
1190.378, 27354.00
1191.463, 27157.00
1192.548, 27207.00
1193.632, 27023.00
1194.717, 27254.00
1195.801, 27169.00
1196.886, 27139.00
1197.970, 26968.00
1199.054, 27011.29
1200.137, 27333.00
1201.221, 27136.00
1202.305, 27259.00
1203.388, 27517.00
1204.471, 27298.00
1205.554, 27337.00
1206.637, 27135.00
1207.719, 27294.00
1208.802, 27171.00
1209.884, 27335.00
1210.966, 27634.00
1212.048, 27642.00
1213.130, 27566.00
1214.212, 27444.00
1215.293, 27426.00
1216.374, 27428.32
1217.456, 27560.00
1218.536, 27598.00
1219.617, 27442.00
1220.698, 27697.00
1221.778, 27725.00
1222.859, 27577.00
1223.939, 27679.00
1225.019, 27581.00
1226.099, 27792.00
1227.178, 27943.00
1228.258, 27770.00
1229.337, 27794.00
1230.417, 27814.00
1231.496, 27829.00
1232.574, 27935.00
1233.653, 27963.00
1234.732, 27851.00
1235.810, 27833.00
1236.888, 28037.00
1237.966, 27856.00
1239.044, 28187.00
1240.122, 28065.00
1241.199, 27909.00
1242.277, 28036.00
1243.354, 28095.00
1244.431, 28036.00
1245.508, 28284.00
1246.585, 28137.00
1247.661, 28004.00
1248.738, 28082.00
1249.814, 28285.00
1250.890, 28161.00
1251.966, 28369.00
1253.042, 28321.00
1254.117, 27905.00
1255.193, 28254.00
1256.268, 28109.00
1257.343, 28255.00
1258.418, 28260.00
1259.493, 28334.00
1260.567, 28423.00
1261.642, 28426.00
1262.716, 28423.00
1263.790, 28509.00
1264.864, 28697.00
1265.938, 28477.00
1267.011, 28484.00
1268.085, 28714.00
1269.158, 28763.00
1270.231, 28565.00
1271.304, 28705.00
1272.377, 28566.00
1273.450, 28664.00
