##NAMES=Thomsonite-Ca
##RRUFFID=R050103
##IDEAL CHEMISTRY=NaCa_2_(Al_5_Si_5_)O_20_&#183;6H_2_O
##LOCALITY=Seeberg, Bohemia, Czech Republic
##OWNER=RRUFF
##SOURCE=Rock Currier
##DESCRIPTION=Colorless prismatic crystals
##STATUS=The identification of this mineral has been confirmed by X-ray diffraction and chemical analysis
##URL=rruff.info/R050103
##MEASURED CHEMISTRY=Na_1.00_(Ca_0.92_Sr_0.08_)_2_(Al_5.00_Si_5.00_)O_20_Â·6H_2_O
##PIN_ID=L00246
##ORIENTATION=Laser parallel to c* (0 0 1). Fiducial mark perpendicular to laser is parallel to -a [-1 0 0]
93.48000, 18810.00
94.71400, 19364.00
95.94800, 20142.00
97.18200, 20764.00
98.41600, 20846.00
99.64900, 21133.00
100.8830, 21346.00
102.1160, 21469.00
103.3490, 22170.00
104.5820, 22406.00
105.8150, 22803.57
107.0470, 23688.00
108.2800, 23752.00
109.5120, 24017.00
110.7440, 24886.00
111.9760, 25656.00
113.2080, 26278.00
114.4400, 26936.00
115.6710, 26886.00
116.9030, 26267.00
118.1340, 25807.00
119.3650, 24782.00
120.5960, 23747.00
121.8270, 22324.00
123.0580, 21050.00
124.2880, 19673.00
125.5190, 18265.00
126.7490, 17118.00
127.9790, 16368.00
129.2090, 15581.00
130.4390, 15053.00
131.6680, 14505.00
132.8980, 14163.00
134.1270, 13952.00
135.3560, 13690.86
136.5850, 13588.00
137.8140, 13484.00
139.0430, 13392.00
140.2710, 13422.00
141.5000, 13354.00
142.7280, 13259.00
143.9560, 13109.00
145.1840, 13011.00
146.4120, 12830.00
147.6390, 12794.00
148.8670, 12790.44
150.0940, 12791.34
151.3210, 12897.00
152.5490, 12975.00
153.7750, 13067.00
155.0020, 13272.00
156.2290, 13336.00
157.4550, 13665.00
158.6810, 14000.00
159.9080, 14506.00
161.1340, 15058.00
162.3590, 15695.00
163.5850, 16370.00
164.8110, 17331.50
166.0360, 18375.00
167.2610, 19594.00
168.4860, 20879.00
169.7110, 22400.00
170.9360, 23892.00
172.1610, 25111.00
173.3850, 26811.00
174.6100, 28013.00
175.8340, 28964.00
177.0580, 29492.00
178.2820, 29934.00
179.5050, 29726.00
180.7290, 29256.00
181.9520, 28154.00
183.1760, 26912.00
184.3990, 25802.00
185.6220, 24429.00
186.8450, 23274.00
188.0670, 22377.00
189.2900, 21741.00
190.5120, 21216.00
191.7340, 20775.00
192.9560, 20261.00
194.1780, 19945.00
195.4000, 19417.00
196.6220, 18840.00
197.8430, 18401.00
199.0640, 17826.00
200.2860, 17300.00
201.5070, 16809.00
202.7270, 16194.00
203.9480, 15788.00
205.1690, 15820.00
206.3890, 15748.00
207.6090, 15934.00
208.8290, 15911.00
210.0490, 16382.00
211.2690, 16564.00
212.4890, 16903.00
213.7080, 17386.00
214.9280, 17755.00
216.1470, 18118.00
217.3660, 18279.00
218.5850, 18246.00
219.8030, 18367.00
221.0220, 18122.00
222.2400, 17972.00
223.4590, 17420.00
224.6770, 16941.00
225.8950, 16280.00
227.1120, 15715.00
228.3300, 15324.00
229.5480, 14653.00
230.7650, 14169.00
231.9820, 13547.00
233.1990, 13072.00
234.4160, 12691.00
235.6330, 12547.00
236.8490, 12323.00
238.0660, 12124.00
239.2820, 12010.00
240.4980, 11973.00
241.7140, 11853.26
242.9300, 11798.00
244.1460, 11745.00
245.3610, 11639.00
246.5770, 11622.00
247.7920, 11637.00
249.0070, 11760.00
250.2220, 11779.00
251.4370, 11794.00
252.6510, 11711.00
253.8660, 11896.00
255.0800, 11860.00
256.2940, 12056.00
257.5080, 12019.00
258.7220, 11872.00
259.9360, 11557.00
261.1490, 11441.00
262.3630, 11406.00
263.5760, 11284.00
264.7890, 11279.00
266.0020, 11247.71
267.2150, 11335.00
268.4270, 11233.00
269.6400, 11207.00
270.8520, 11190.00
272.0640, 11319.00
273.2760, 11268.00
274.4880, 11300.00
275.7000, 11483.00
276.9120, 11540.00
278.1230, 11711.00
279.3340, 11579.00
280.5450, 11633.00
281.7560, 11746.00
282.9670, 11844.00
284.1780, 11824.00
285.3880, 12041.00
286.5980, 12088.00
287.8090, 12179.00
289.0190, 12442.00
290.2290, 12493.00
291.4380, 12719.00
292.6480, 12869.00
293.8570, 12912.00
295.0670, 13060.00
296.2760, 13083.00
297.4850, 13081.00
298.6930, 13229.00
299.9020, 13243.00
301.1110, 13041.00
302.3190, 13114.00
303.5270, 12790.00
304.7350, 12675.00
305.9430, 12433.00
307.1510, 12172.00
308.3580, 12059.04
309.5660, 11883.87
310.7730, 11799.00
311.9800, 11744.00
313.1870, 11690.00
314.3940, 11822.00
315.6010, 11663.00
316.8070, 11644.00
318.0130, 11731.00
319.2200, 11629.00
320.4260, 11754.00
321.6310, 11867.00
322.8370, 11888.00
324.0430, 11900.00
325.2480, 11984.00
326.4540, 12040.73
327.6590, 12065.00
328.8640, 12202.00
330.0680, 12436.00
331.2730, 12506.00
332.4780, 12782.00
333.6820, 12797.00
334.8860, 12990.00
336.0900, 13303.00
337.2940, 13603.00
338.4980, 13658.00
339.7010, 13902.00
340.9050, 14086.00
342.1080, 14470.00
343.3110, 14626.00
344.5140, 14882.00
345.7170, 14876.00
346.9200, 14920.00
348.1220, 14725.00
349.3240, 14813.00
350.5270, 14355.00
351.7290, 14095.00
352.9310, 13958.00
354.1320, 13808.00
355.3340, 13476.00
356.5350, 13286.00
357.7370, 13022.00
358.9380, 12854.00
360.1390, 12860.00
361.3400, 12808.00
362.5400, 12905.00
363.7410, 12606.00
364.9410, 12694.00
366.1410, 12621.00
367.3410, 12731.00
368.5410, 12806.00
369.7410, 12762.00
370.9400, 12878.00
372.1400, 12973.00
373.3390, 13171.00
374.5380, 13238.00
375.7370, 13225.00
376.9360, 13271.00
378.1350, 13218.59
379.3330, 13037.00
380.5310, 13119.00
381.7300, 13028.00
382.9280, 13029.00
384.1260, 13058.00
385.3230, 12989.00
386.5210, 13097.00
387.7180, 13096.00
388.9160, 13091.00
390.1130, 13103.00
391.3100, 13195.62
392.5060, 13263.79
393.7030, 13416.00
394.9000, 13464.00
396.0960, 13570.00
397.2920, 13624.00
398.4880, 13623.00
399.6840, 13435.00
400.8800, 13365.00
402.0750, 13453.00
403.2710, 13561.00
404.4660, 13711.00
405.6610, 13696.00
406.8560, 13865.00
408.0510, 13738.00
409.2450, 13891.00
410.4400, 14031.00
411.6340, 14082.00
412.8280, 14436.00
414.0220, 14507.00
415.2160, 14811.00
416.4100, 14831.00
417.6030, 15210.00
418.7970, 15605.00
419.9900, 15827.00
421.1830, 16506.00
422.3760, 16800.00
423.5690, 17559.00
424.7610, 18009.00
425.9540, 18803.00
427.1460, 19658.00
428.3380, 20544.00
429.5300, 21350.00
430.7220, 22492.00
431.9140, 23609.00
433.1050, 24533.00
434.2970, 25672.00
435.4880, 26541.00
436.6790, 27184.00
437.8700, 27443.00
439.0610, 27506.00
440.2510, 27240.34
441.4420, 26367.00
442.6320, 25897.00
443.8220, 24835.00
445.0120, 23523.00
446.2020, 22356.00
447.3910, 21556.00
448.5810, 20689.00
449.7700, 20011.00
450.9600, 19477.00
452.1490, 19265.00
453.3370, 18905.00
454.5260, 18756.00
455.7150, 19029.00
456.9030, 19363.00
458.0910, 19997.00
459.2800, 20644.00
460.4670, 21799.00
461.6550, 23166.00
462.8430, 24515.00
464.0300, 26412.00
465.2180, 27869.00
466.4050, 29765.00
467.5920, 31177.00
468.7790, 32234.00
469.9650, 32837.00
471.1520, 32995.00
472.3380, 32217.00
473.5250, 31432.00
474.7110, 29797.00
475.8970, 28231.00
477.0820, 25994.00
478.2680, 24809.00
479.4540, 23603.00
480.6390, 22977.00
481.8240, 22493.00
483.0090, 22406.00
484.1940, 22474.00
485.3780, 22556.00
486.5630, 22692.00
487.7470, 22948.00
488.9320, 23097.00
490.1160, 23355.00
491.3000, 23370.00
492.4830, 23172.00
493.6670, 22871.00
494.8500, 22392.00
496.0340, 21727.00
497.2170, 21381.00
498.4000, 20426.00
499.5820, 19952.00
500.7650, 19178.00
501.9480, 18749.00
503.1300, 18390.00
504.3120, 18009.00
505.4940, 17801.00
506.6760, 17777.00
507.8580, 17806.00
509.0390, 18002.00
510.2210, 18366.00
511.4020, 18632.00
512.5830, 18972.00
513.7640, 19555.00
514.9450, 20625.00
516.1250, 21612.00
517.3060, 22975.00
518.4860, 24396.00
519.6660, 26115.00
520.8460, 28763.00
522.0260, 31294.00
523.2060, 34766.00
524.3850, 38485.00
525.5650, 42600.00
526.7440, 46835.00
527.9230, 51367.00
529.1020, 55486.00
530.2810, 58946.00
531.4590, 62144.00
532.6380, 64287.00
533.8160, 64654.00
534.9940, 64510.00
536.1720, 62708.00
537.3500, 60173.00
538.5270, 56492.00
539.7050, 52407.00
540.8820, 48035.00
542.0590, 43952.00
543.2360, 40252.00
544.4130, 36827.00
545.5900, 33780.00
546.7660, 31205.00
547.9430, 29139.00
549.1190, 27140.00
550.2950, 25689.00
551.4710, 24345.00
552.6470, 23384.00
553.8220, 22426.00
554.9980, 21549.00
556.1730, 21111.00
557.3480, 20101.00
558.5230, 19906.00
559.6980, 19432.00
560.8730, 18824.00
562.0470, 18848.00
563.2220, 18448.00
564.3960, 17892.00
565.5700, 18065.00
566.7440, 17929.00
567.9170, 17850.00
569.0910, 17393.00
570.2640, 17277.00
571.4380, 17193.00
572.6110, 17131.00
573.7840, 16933.00
574.9570, 16697.00
576.1290, 16650.00
577.3020, 16520.00
578.4740, 16556.00
579.6460, 16351.00
580.8180, 16312.00
581.9900, 16110.00
583.1620, 16166.00
584.3330, 16053.00
585.5040, 15997.00
586.6760, 15958.00
587.8470, 15932.56
589.0180, 15925.52
590.1880, 15976.00
591.3590, 15959.00
592.5290, 16056.00
593.7000, 16119.00
594.8700, 15964.00
596.0400, 16235.00
597.2090, 16158.00
598.3790, 16213.00
599.5490, 16303.00
600.7180, 16405.00
601.8870, 16339.00
603.0560, 16413.00
604.2250, 16154.00
605.3940, 16064.00
606.5620, 16036.00
607.7300, 15764.00
608.8990, 15539.00
610.0670, 15449.00
611.2350, 15462.00
612.4020, 15146.00
613.5700, 15321.00
614.7370, 15207.00
615.9050, 15087.00
617.0720, 15128.00
618.2390, 14963.00
619.4060, 15060.00
620.5720, 14998.00
621.7390, 14933.00
622.9050, 15106.00
624.0710, 14994.00
625.2370, 14996.00
626.4030, 14814.00
627.5690, 14830.00
628.7340, 14792.00
629.9000, 14918.00
631.0650, 14710.00
632.2300, 14690.00
633.3950, 14850.00
634.5600, 14796.00
635.7240, 14621.00
636.8890, 14667.00
638.0530, 14777.00
639.2170, 14765.00
640.3810, 14820.00
641.5450, 14868.00
642.7080, 14769.00
643.8720, 14878.00
645.0350, 14794.00
646.1980, 14979.00
647.3610, 14948.00
648.5240, 14918.00
649.6870, 15040.00
650.8490, 14972.00
652.0120, 15025.00
653.1740, 15044.00
654.3360, 15088.00
655.4980, 15101.00
656.6600, 15060.00
657.8210, 15245.00
658.9830, 15339.00
660.1440, 15390.00
661.3050, 15232.00
662.4660, 15307.00
663.6270, 15441.00
664.7870, 15496.00
665.9480, 15590.00
667.1080, 15580.00
668.2680, 15732.00
669.4280, 15810.00
670.5880, 15816.00
671.7480, 15810.00
672.9070, 15952.00
674.0670, 15727.00
675.2260, 15801.00
676.3850, 15876.00
677.5440, 16047.00
678.7030, 16189.00
679.8610, 16258.00
681.0200, 16447.00
682.1780, 16453.00
683.3360, 16520.00
684.4940, 16708.00
685.6520, 16922.00
686.8090, 16820.00
687.9670, 17013.00
689.1240, 17255.00
690.2810, 17352.00
691.4380, 17356.00
692.5950, 17460.00
693.7520, 17574.00
694.9080, 17532.00
696.0650, 17792.00
697.2210, 17915.00
698.3770, 17813.00
699.5330, 17801.00
700.6880, 17670.00
701.8440, 17771.00
702.9990, 17754.00
704.1550, 17737.00
705.3100, 17582.00
706.4650, 17594.00
707.6190, 17579.00
708.7740, 17452.00
709.9290, 17436.00
711.0830, 17415.00
712.2370, 17174.00
713.3910, 17216.00
714.5450, 17301.00
715.6980, 17159.00
716.8520, 17065.00
718.0050, 17154.00
719.1580, 17009.00
720.3110, 16983.00
721.4640, 16885.00
722.6170, 16743.00
723.7700, 16808.00
724.9220, 16640.00
726.0740, 16601.00
727.2260, 16548.00
728.3780, 16391.00
729.5300, 16248.00
730.6810, 16251.00
731.8330, 16121.00
732.9840, 16045.00
734.1350, 15979.00
735.2860, 15952.00
736.4370, 16050.00
737.5880, 15879.00
738.7380, 15978.00
739.8880, 15778.00
741.0390, 15799.00
742.1890, 15789.00
743.3380, 15619.00
744.4880, 15856.00
745.6380, 15582.00
746.7870, 15628.00
747.9360, 15738.00
749.0850, 15698.00
750.2340, 15696.00
751.3830, 15625.00
752.5310, 15540.00
753.6800, 15697.00
754.8280, 15651.00
755.9760, 15856.00
757.1240, 15898.00
758.2720, 15945.00
759.4190, 16043.14
760.5670, 16112.00
761.7140, 16150.00
762.8610, 16342.00
764.0080, 16410.00
765.1550, 16594.00
766.3020, 16845.00
767.4480, 16776.00
768.5950, 16959.00
769.7410, 17019.00
770.8870, 17028.00
772.0330, 17121.00
773.1780, 17011.00
774.3240, 16981.00
775.4690, 16881.00
776.6140, 16631.00
777.7590, 16652.00
778.9040, 16470.00
780.0490, 16661.00
781.1940, 16480.00
782.3380, 16321.00
783.4820, 16355.00
784.6260, 16273.00
785.7700, 16142.00
786.9140, 16266.00
788.0580, 16149.00
789.2010, 16188.00
790.3450, 15961.00
791.4880, 15941.00
792.6310, 16067.00
793.7730, 16137.00
794.9160, 16056.00
796.0590, 15973.00
797.2010, 15981.00
798.3430, 15920.00
799.4850, 15958.00
800.6270, 15949.00
801.7690, 15901.00
802.9100, 15885.00
804.0520, 15900.27
805.1930, 15960.00
806.3340, 15936.00
807.4750, 15998.00
808.6160, 16001.00
809.7560, 16000.00
810.8970, 15992.00
812.0370, 15943.00
813.1770, 15972.62
814.3170, 15916.00
815.4570, 16040.00
816.5960, 15990.00
817.7360, 16090.00
818.8750, 16009.00
820.0140, 16060.00
821.1530, 15917.00
822.2920, 15946.00
823.4310, 16053.00
824.5690, 16236.00
825.7070, 16047.00
826.8460, 16133.00
827.9840, 15942.00
829.1220, 16043.00
830.2590, 16064.00
831.3970, 16260.00
832.5340, 16132.00
833.6710, 16085.00
834.8080, 16217.00
835.9450, 16171.00
837.0820, 16226.00
838.2190, 16085.00
839.3550, 16095.00
840.4910, 16286.00
841.6270, 16302.00
842.7630, 16396.00
843.8990, 16353.00
845.0350, 16469.00
846.1700, 16348.00
847.3060, 16356.00
848.4410, 16542.00
849.5760, 16476.00
850.7100, 16427.00
851.8450, 16531.00
852.9800, 16486.00
854.1140, 16583.00
855.2480, 16746.00
856.3820, 16657.00
857.5160, 16527.00
858.6500, 16693.00
859.7830, 16562.00
860.9170, 16835.00
862.0500, 16647.00
863.1830, 16718.00
864.3160, 16587.00
865.4480, 16758.00
866.5810, 16612.00
867.7130, 16694.00
868.8460, 16789.00
869.9780, 16553.00
871.1100, 16722.00
872.2410, 16844.00
873.3730, 16731.00
874.5050, 16848.00
875.6360, 16690.00
876.7670, 16767.00
877.8980, 17020.00
879.0290, 16846.00
880.1590, 17008.00
881.2900, 16931.00
882.4200, 16952.00
883.5500, 17022.00
884.6800, 17116.00
885.8100, 17120.00
886.9400, 17172.00
888.0690, 17201.00
889.1990, 17286.00
890.3280, 17028.00
891.4570, 17362.00
892.5860, 17248.00
893.7140, 17278.00
894.8430, 17449.00
895.9710, 17534.00
897.1000, 17660.00
898.2280, 17761.13
899.3560, 17818.00
900.4830, 17925.00
901.6110, 17947.00
902.7380, 17990.00
903.8660, 18208.00
904.9930, 18257.00
906.1200, 18534.00
907.2460, 18583.00
908.3730, 18931.00
909.5000, 19101.00
910.6260, 19254.00
911.7520, 19452.00
912.8780, 19567.00
914.0040, 19915.00
915.1290, 20189.00
916.2550, 20237.00
917.3800, 20717.00
918.5050, 20982.00
919.6300, 21238.00
920.7550, 21419.00
921.8800, 21859.00
923.0040, 22039.00
924.1290, 22609.00
925.2530, 22630.00
926.3770, 22963.00
927.5010, 23226.00
928.6250, 23303.00
929.7480, 23588.00
930.8720, 23579.00
931.9950, 23479.00
933.1180, 23317.00
934.2410, 23138.00
935.3640, 23253.00
936.4860, 22844.00
937.6090, 22764.00
938.7310, 22455.00
939.8530, 22217.00
940.9750, 22043.00
942.0970, 21714.00
943.2180, 21407.00
944.3400, 21448.00
945.4610, 21155.00
946.5820, 20998.00
947.7030, 20985.00
948.8240, 20879.00
949.9450, 20656.00
951.0650, 20707.00
952.1860, 20503.00
953.3060, 20401.00
954.4260, 20416.00
955.5460, 20493.00
956.6650, 20550.00
957.7850, 20365.00
958.9040, 20362.00
960.0230, 20269.00
961.1420, 20240.81
962.2610, 20426.00
963.3800, 20262.00
964.4990, 20304.00
965.6170, 20381.00
966.7350, 20235.00
967.8530, 20309.00
968.9710, 20625.00
970.0890, 20570.00
971.2070, 20786.00
972.3240, 20987.00
973.4410, 21040.00
974.5580, 21428.00
975.6750, 21623.00
976.7920, 22211.00
977.9090, 22504.00
979.0250, 22536.00
980.1410, 22639.00
981.2580, 23138.00
982.3740, 23286.00
983.4890, 23558.00
984.6050, 23637.00
985.7200, 23630.00
986.8360, 23687.33
987.9510, 23505.00
989.0660, 23555.00
990.1810, 23271.00
991.2950, 23079.00
992.4100, 22872.00
993.5240, 22370.00
994.6390, 22195.00
995.7530, 21920.00
996.8660, 21770.00
997.9800, 21764.00
999.0940, 21305.00
1000.207, 21461.00
1001.320, 21249.00
1002.433, 20949.00
1003.546, 20881.00
1004.659, 20564.00
1005.772, 20538.00
1006.884, 20542.00
1007.996, 20407.00
1009.108, 20503.00
1010.220, 20527.00
1011.332, 20366.00
1012.444, 20472.00
1013.555, 20461.00
1014.666, 20444.00
1015.777, 20533.00
1016.888, 20451.00
1017.999, 20321.00
1019.110, 20146.00
1020.220, 20046.00
1021.331, 20044.00
1022.441, 19851.00
1023.551, 19837.00
1024.661, 19658.00
1025.770, 19474.00
1026.880, 19452.00
1027.989, 19446.00
1029.098, 19300.00
1030.207, 19332.00
1031.316, 19191.00
1032.425, 19070.00
1033.533, 19073.00
1034.642, 18962.00
1035.750, 19060.00
1036.858, 18988.00
1037.966, 19080.00
1039.073, 19205.00
1040.181, 19122.00
1041.288, 19353.00
1042.396, 19253.00
1043.503, 19307.00
1044.610, 19110.00
1045.716, 19465.00
1046.823, 19429.00
1047.929, 19512.00
1049.036, 19500.00
1050.142, 19550.00
1051.248, 19566.00
1052.353, 19542.00
1053.459, 19701.00
1054.564, 19684.00
1055.670, 19831.00
1056.775, 19715.00
1057.880, 19887.00
1058.985, 19986.00
1060.089, 20130.00
1061.194, 20138.00
1062.298, 20063.00
1063.402, 20394.00
1064.506, 20381.00
1065.610, 20362.00
1066.713, 20502.00
1067.817, 20469.00
1068.920, 20590.00
1070.023, 20771.00
1071.126, 20579.00
1072.229, 20859.00
1073.332, 21083.00
1074.435, 21101.00
1075.537, 21360.00
1076.639, 21282.00
1077.741, 21415.00
1078.843, 21470.00
1079.945, 21619.00
1081.046, 21603.00
1082.148, 21562.83
1083.249, 21446.00
1084.350, 21359.00
1085.451, 21177.00
1086.551, 21033.00
1087.652, 21047.00
1088.752, 20777.00
1089.853, 20921.00
1090.953, 20761.00
1092.053, 20494.00
1093.152, 20521.00
1094.252, 20174.00
1095.351, 19998.00
1096.451, 20078.00
1097.550, 19975.00
1098.649, 19941.00
1099.748, 19867.00
1100.846, 19632.00
1101.945, 19643.00
1103.043, 19713.00
1104.141, 19492.00
1105.239, 19289.00
1106.337, 19366.00
1107.434, 19443.00
1108.532, 19470.00
1109.629, 19556.00
1110.726, 19413.00
1111.823, 19391.00
1112.920, 19482.00
1114.017, 19521.00
1115.113, 19550.51
1116.210, 19563.00
1117.306, 19641.00
1118.402, 19610.00
1119.498, 19671.00
1120.593, 19783.00
1121.689, 19780.00
1122.784, 19754.00
1123.879, 19758.00
1124.974, 19619.00
1126.069, 19537.00
1127.164, 19458.00
1128.259, 19497.00
1129.353, 19330.00
1130.447, 19507.00
1131.541, 19288.00
1132.635, 19342.00
1133.729, 19502.00
1134.822, 19375.00
1135.916, 19482.00
1137.009, 19292.00
1138.102, 19500.00
1139.195, 19420.00
1140.288, 19435.00
1141.380, 19308.00
1142.473, 19332.00
1143.565, 19460.00
1144.657, 19638.00
1145.749, 19523.00
1146.841, 19319.00
1147.932, 19462.00
1149.024, 19414.00
1150.115, 19612.00
1151.206, 19537.00
1152.297, 19506.00
1153.388, 19555.00
1154.479, 19578.00
1155.569, 19568.00
1156.659, 19622.22
1157.750, 19643.00
1158.839, 19638.00
1159.929, 19570.00
1161.019, 19443.00
1162.108, 19502.00
1163.198, 19657.00
1164.287, 19665.00
1165.376, 19892.00
1166.465, 19664.00
1167.553, 19674.00
1168.642, 19759.00
1169.730, 19817.00
1170.818, 19689.00
1171.906, 19696.00
1172.994, 19710.00
1174.082, 19785.00
1175.170, 19829.00
1176.257, 19661.00
1177.344, 19779.00
1178.431, 19955.00
1179.518, 19755.00
1180.605, 19888.00
1181.691, 19861.00
1182.778, 19660.00
1183.864, 19934.00
1184.950, 19970.00
1186.036, 20077.00
1187.122, 20012.00
1188.207, 19885.00
1189.292, 19809.00
1190.378, 19878.00
1191.463, 20082.00
1192.548, 19797.00
1193.632, 19998.00
1194.717, 20080.00
1195.801, 20022.00
1196.886, 19824.00
1197.970, 20071.00
1199.054, 20016.00
1200.137, 20096.00
1201.221, 20010.00
1202.305, 20018.00
1203.388, 20052.00
1204.471, 20075.00
1205.554, 20039.00
1206.637, 20032.00
1207.719, 20147.00
1208.802, 20095.00
1209.884, 19875.00
1210.966, 20187.00
1212.048, 20079.00
1213.130, 20203.00
1214.212, 20373.00
1215.293, 20148.00
1216.374, 20352.00
1217.456, 20267.00
1218.536, 20209.00
1219.617, 20082.00
1220.698, 20308.00
1221.778, 20155.00
1222.859, 20538.00
1223.939, 20481.00
1225.019, 20361.00
1226.099, 20425.00
1227.178, 20472.00
1228.258, 20253.00
1229.337, 20474.00
1230.417, 20386.00
1231.496, 20388.00
1232.574, 20269.00
1233.653, 20179.00
1234.732, 20481.00
1235.810, 20287.00
1236.888, 20520.00
1237.966, 20429.00
1239.044, 20419.00
1240.122, 20496.00
1241.199, 20536.00
1242.277, 20578.00
1243.354, 20547.00
1244.431, 20513.00
1245.508, 20534.00
1246.585, 20497.00
1247.661, 20541.59
1248.738, 20489.00
1249.814, 20599.00
1250.890, 20676.00
1251.966, 20640.00
1253.042, 20775.00
1254.117, 20834.00
1255.193, 20804.26
1256.268, 20641.00
1257.343, 20766.00
1258.418, 20781.00
1259.493, 20776.00
1260.567, 20890.00
1261.642, 20852.00
1262.716, 21008.00
1263.790, 20830.00
1264.864, 20874.00
1265.938, 20935.00
1267.011, 20834.00
1268.085, 20840.00
1269.158, 20958.00
1270.231, 21010.00
1271.304, 21069.00
1272.377, 21058.00
1273.450, 21078.07
