##NAMES=Thomsonite-Ca
##RRUFFID=R050103
##IDEAL CHEMISTRY=NaCa_2_(Al_5_Si_5_)O_20_&#183;6H_2_O
##LOCALITY=Seeberg, Bohemia, Czech Republic
##OWNER=RRUFF
##SOURCE=Rock Currier
##DESCRIPTION=Colorless prismatic crystals
##STATUS=The identification of this mineral has been confirmed by X-ray diffraction and chemical analysis
##URL=rruff.info/R050103
##MEASURED CHEMISTRY=Na_1.00_(Ca_0.92_Sr_0.08_)_2_(Al_5.00_Si_5.00_)O_20_Â·6H_2_O
##PIN_ID=M00072
##ORIENTATION=Laser parallel to a* (1 0 0). Fiducial mark perpendicular to laser is parallel to b [0 1 0]
93.48000, 17897.00
94.71400, 18429.00
95.94800, 18872.03
97.18200, 19280.00
98.41600, 19541.00
99.64900, 19840.00
100.8830, 19944.00
102.1160, 20223.00
103.3490, 20464.00
104.5820, 20983.00
105.8150, 21856.00
107.0470, 22397.00
108.2800, 22446.00
109.5120, 22649.00
110.7440, 23254.00
111.9760, 24000.00
113.2080, 25237.00
114.4400, 25823.00
115.6710, 26574.00
116.9030, 27177.00
118.1340, 26812.00
119.3650, 26178.00
120.5960, 24391.00
121.8270, 22744.00
123.0580, 21901.00
124.2880, 21208.00
125.5190, 20779.00
126.7490, 20361.00
127.9790, 19958.00
129.2090, 19682.75
130.4390, 19469.00
131.6680, 19278.00
132.8980, 19139.00
134.1270, 19141.00
135.3560, 19114.08
136.5850, 19272.00
137.8140, 19289.00
139.0430, 19478.04
140.2710, 19708.00
141.5000, 19867.00
142.7280, 20023.00
143.9560, 20293.00
145.1840, 20666.00
146.4120, 21040.00
147.6390, 21336.00
148.8670, 21713.00
150.0940, 22079.00
151.3210, 22577.00
152.5490, 22797.00
153.7750, 23129.00
155.0020, 23343.00
156.2290, 23718.00
157.4550, 23583.00
158.6810, 23882.00
159.9080, 24003.00
161.1340, 24277.00
162.3590, 24063.00
163.5850, 24075.00
164.8110, 24122.00
166.0360, 24204.00
167.2610, 24155.00
168.4860, 24618.00
169.7110, 24629.00
170.9360, 25384.00
172.1610, 25725.00
173.3850, 26155.00
174.6100, 26829.00
175.8340, 26892.00
177.0580, 27267.00
178.2820, 27145.00
179.5050, 26723.00
180.7290, 26161.00
181.9520, 25307.00
183.1760, 24868.00
184.3990, 23941.00
185.6220, 23202.00
186.8450, 22720.00
188.0670, 22443.00
189.2900, 21995.00
190.5120, 22044.00
191.7340, 21898.00
192.9560, 21833.00
194.1780, 21646.00
195.4000, 21497.00
196.6220, 21602.00
197.8430, 21401.00
199.0640, 21229.00
200.2860, 20953.00
201.5070, 20844.00
202.7270, 20552.00
203.9480, 20359.00
205.1690, 20271.00
206.3890, 20107.00
207.6090, 20135.00
208.8290, 19982.00
210.0490, 20063.00
211.2690, 19932.00
212.4890, 20107.00
213.7080, 20301.00
214.9280, 20156.00
216.1470, 20368.00
217.3660, 20537.00
218.5850, 20455.00
219.8030, 20589.00
221.0220, 20371.00
222.2400, 20410.00
223.4590, 20054.00
224.6770, 19927.00
225.8950, 19586.00
227.1120, 19413.00
228.3300, 19052.00
229.5480, 18791.00
230.7650, 18548.00
231.9820, 18576.00
233.1990, 18519.00
234.4160, 18523.00
235.6330, 18522.00
236.8490, 18468.00
238.0660, 18435.00
239.2820, 18537.00
240.4980, 18519.00
241.7140, 18571.00
242.9300, 18388.00
244.1460, 18370.00
245.3610, 18379.00
246.5770, 18299.00
247.7920, 18379.00
249.0070, 18204.00
250.2220, 18291.00
251.4370, 18354.00
252.6510, 18202.00
253.8660, 18295.00
255.0800, 18388.00
256.2940, 18620.00
257.5080, 18563.43
258.7220, 18506.00
259.9360, 18495.00
261.1490, 18325.00
262.3630, 18235.00
263.5760, 18158.00
264.7890, 18146.19
266.0020, 18302.00
267.2150, 18267.00
268.4270, 18220.00
269.6400, 18406.00
270.8520, 18398.00
272.0640, 18637.00
273.2760, 18505.00
274.4880, 18533.00
275.7000, 18730.00
276.9120, 18704.00
278.1230, 18815.00
279.3340, 19124.00
280.5450, 18997.00
281.7560, 19154.00
282.9670, 19514.00
284.1780, 19559.00
285.3880, 19711.00
286.5980, 19909.00
287.8090, 19967.00
289.0190, 20171.76
290.2290, 20337.00
291.4380, 20500.00
292.6480, 20698.00
293.8570, 20843.00
295.0670, 20801.00
296.2760, 21009.00
297.4850, 21195.00
298.6930, 21510.00
299.9020, 21307.00
301.1110, 21337.00
302.3190, 21535.00
303.5270, 21377.00
304.7350, 21340.00
305.9430, 21104.00
307.1510, 21123.00
308.3580, 20960.00
309.5660, 20742.00
310.7730, 20715.00
311.9800, 20500.00
313.1870, 20512.00
314.3940, 20466.00
315.6010, 20509.00
316.8070, 20518.00
318.0130, 20481.00
319.2200, 20778.00
320.4260, 20805.00
321.6310, 20955.00
322.8370, 20775.00
324.0430, 21052.00
325.2480, 20969.00
326.4540, 21084.00
327.6590, 21225.00
328.8640, 21226.00
330.0680, 21410.00
331.2730, 21505.00
332.4780, 21617.00
333.6820, 21805.00
334.8860, 21912.00
336.0900, 22281.00
337.2940, 22397.00
338.4980, 22545.00
339.7010, 22527.00
340.9050, 22634.00
342.1080, 22670.00
343.3110, 22764.00
344.5140, 22633.00
345.7170, 22551.00
346.9200, 22430.00
348.1220, 22140.00
349.3240, 21966.00
350.5270, 21642.00
351.7290, 21580.00
352.9310, 21181.00
354.1320, 21216.00
355.3340, 20822.00
356.5350, 20745.00
357.7370, 20420.00
358.9380, 20270.00
360.1390, 20361.00
361.3400, 20259.00
362.5400, 20200.00
363.7410, 20234.00
364.9410, 20222.00
366.1410, 20162.00
367.3410, 20087.00
368.5410, 20170.00
369.7410, 20243.00
370.9400, 20242.00
372.1400, 20400.00
373.3390, 20487.00
374.5380, 20439.00
375.7370, 20673.00
376.9360, 20678.00
378.1350, 20525.00
379.3330, 20739.00
380.5310, 20579.00
381.7300, 20677.00
382.9280, 20707.00
384.1260, 20774.00
385.3230, 20914.00
386.5210, 21130.00
387.7180, 21215.00
388.9160, 21296.00
390.1130, 21306.00
391.3100, 21379.00
392.5060, 21342.00
393.7030, 21613.00
394.9000, 21432.00
396.0960, 21562.00
397.2920, 21421.00
398.4880, 21314.00
399.6840, 21424.00
400.8800, 21203.00
402.0750, 20982.00
403.2710, 21105.00
404.4660, 21174.00
405.6610, 21237.00
406.8560, 21124.00
408.0510, 21346.00
409.2450, 21213.00
410.4400, 21408.00
411.6340, 21485.00
412.8280, 21419.00
414.0220, 21862.00
415.2160, 21854.00
416.4100, 22061.00
417.6030, 22062.00
418.7970, 22250.00
419.9900, 22518.00
421.1830, 22620.00
422.3760, 22955.00
423.5690, 23187.00
424.7610, 23532.00
425.9540, 23854.00
427.1460, 24153.00
428.3380, 24642.24
429.5300, 24999.00
430.7220, 25620.00
431.9140, 26293.00
433.1050, 26774.00
434.2970, 27560.00
435.4880, 28062.00
436.6790, 28581.00
437.8700, 28937.00
439.0610, 29136.00
440.2510, 29029.00
441.4420, 28770.00
442.6320, 28398.00
443.8220, 27811.00
445.0120, 27304.00
446.2020, 26874.00
447.3910, 26212.00
448.5810, 25727.00
449.7700, 25207.00
450.9600, 24730.00
452.1490, 24614.00
453.3370, 24607.00
454.5260, 24334.00
455.7150, 24357.00
456.9030, 24343.00
458.0910, 24437.00
459.2800, 24708.00
460.4670, 24877.00
461.6550, 25298.00
462.8430, 25762.00
464.0300, 26303.00
465.2180, 26934.00
466.4050, 27484.00
467.5920, 28246.00
468.7790, 28758.00
469.9650, 28914.00
471.1520, 29075.00
472.3380, 28962.00
473.5250, 28742.00
474.7110, 28348.00
475.8970, 27541.00
477.0820, 27044.00
478.2680, 26616.00
479.4540, 26274.00
480.6390, 26063.00
481.8240, 25936.76
483.0090, 25970.00
484.1940, 25952.00
485.3780, 26149.00
486.5630, 26301.00
487.7470, 26490.00
488.9320, 26482.00
490.1160, 26902.00
491.3000, 26737.00
492.4830, 26996.00
493.6670, 26713.00
494.8500, 26807.00
496.0340, 26545.00
497.2170, 26344.00
498.4000, 26082.00
499.5820, 25939.00
500.7650, 25729.00
501.9480, 25667.00
503.1300, 25608.00
504.3120, 25445.00
505.4940, 25309.00
506.6760, 25539.00
507.8580, 25688.00
509.0390, 25856.00
510.2210, 25857.00
511.4020, 26263.00
512.5830, 26541.00
513.7640, 27142.00
514.9450, 27724.00
516.1250, 28532.00
517.3060, 29034.00
518.4860, 29953.00
519.6660, 30890.00
520.8460, 32439.00
522.0260, 34240.00
523.2060, 36463.00
524.3850, 38235.00
525.5650, 41033.00
526.7440, 43900.00
527.9230, 46875.00
529.1020, 49618.00
530.2810, 52449.00
531.4590, 54603.00
532.6380, 56528.00
533.8160, 57197.00
534.9940, 56716.00
536.1720, 55849.00
537.3500, 53939.00
538.5270, 51374.00
539.7050, 48434.00
540.8820, 46009.00
542.0590, 43060.00
543.2360, 40406.00
544.4130, 38504.00
545.5900, 36649.00
546.7660, 35099.00
547.9430, 33714.00
549.1190, 32588.00
550.2950, 31722.00
551.4710, 31033.00
552.6470, 30254.00
553.8220, 29724.00
554.9980, 29031.00
556.1730, 28748.00
557.3480, 28361.00
558.5230, 28161.00
559.6980, 28030.00
560.8730, 27538.00
562.0470, 27688.00
563.2220, 27479.00
564.3960, 27327.00
565.5700, 27344.00
566.7440, 27012.00
567.9170, 26988.00
569.0910, 27005.00
570.2640, 26869.00
571.4380, 26895.00
572.6110, 26866.00
573.7840, 26740.00
574.9570, 26591.00
576.1290, 26701.00
577.3020, 26513.00
578.4740, 26572.00
579.6460, 26668.00
580.8180, 26384.00
581.9900, 26317.00
583.1620, 26309.00
584.3330, 26442.00
585.5040, 26565.00
586.6760, 26385.00
587.8470, 26505.00
589.0180, 26442.00
590.1880, 26491.00
591.3590, 26470.00
592.5290, 26327.00
593.7000, 26313.00
594.8700, 26621.00
596.0400, 26560.00
597.2090, 26852.00
598.3790, 26730.00
599.5490, 26657.00
600.7180, 26812.00
601.8870, 26846.00
603.0560, 26745.00
604.2250, 26974.00
605.3940, 26702.00
606.5620, 26949.00
607.7300, 26841.00
608.8990, 27012.00
610.0670, 26761.00
611.2350, 26909.00
612.4020, 26681.00
613.5700, 26926.00
614.7370, 26895.00
615.9050, 26997.00
617.0720, 26958.00
618.2390, 27067.00
619.4060, 27068.00
620.5720, 27271.00
621.7390, 27136.00
622.9050, 27111.00
624.0710, 27398.00
625.2370, 27220.00
626.4030, 27481.00
627.5690, 27377.00
628.7340, 27113.00
629.9000, 27305.00
631.0650, 27195.00
632.2300, 27185.00
633.3950, 27159.00
634.5600, 27190.00
635.7240, 27184.00
636.8890, 27226.82
638.0530, 27293.00
639.2170, 27383.00
640.3810, 27362.00
641.5450, 27556.00
642.7080, 27522.00
643.8720, 27790.00
645.0350, 27761.00
646.1980, 27653.00
647.3610, 27733.00
648.5240, 27568.00
649.6870, 27651.00
650.8490, 27626.00
652.0120, 27905.00
653.1740, 27773.00
654.3360, 27859.00
655.4980, 27697.00
656.6600, 27818.00
657.8210, 27812.00
658.9830, 27747.00
660.1440, 27821.00
661.3050, 27744.00
662.4660, 27810.00
663.6270, 27713.00
664.7870, 28023.00
665.9480, 27857.00
667.1080, 28042.00
668.2680, 27832.00
669.4280, 28035.00
670.5880, 28025.00
671.7480, 28122.00
672.9070, 28182.29
674.0670, 28137.00
675.2260, 28243.00
676.3850, 28322.00
677.5440, 28324.00
678.7030, 28284.00
679.8610, 28347.00
681.0200, 28283.00
682.1780, 28327.00
683.3360, 28502.00
684.4940, 28577.00
685.6520, 28589.00
686.8090, 28625.00
687.9670, 28851.00
689.1240, 28839.00
690.2810, 28860.00
691.4380, 29193.00
692.5950, 29005.00
693.7520, 28765.00
694.9080, 29086.00
696.0650, 29205.00
697.2210, 29316.00
698.3770, 29304.00
699.5330, 29112.00
700.6880, 29333.00
701.8440, 29268.00
702.9990, 29308.00
704.1550, 29632.00
705.3100, 29485.00
706.4650, 29484.00
707.6190, 29712.00
708.7740, 29478.00
709.9290, 29363.00
711.0830, 29557.00
712.2370, 29596.00
713.3910, 29672.00
714.5450, 29729.00
715.6980, 29748.50
716.8520, 29675.00
718.0050, 29726.00
719.1580, 29567.00
720.3110, 29417.00
721.4640, 29470.00
722.6170, 29656.00
723.7700, 29447.00
724.9220, 29475.00
726.0740, 29466.00
727.2260, 29435.00
728.3780, 29632.00
729.5300, 29633.00
730.6810, 29344.00
731.8330, 29515.00
732.9840, 29676.00
734.1350, 29474.00
735.2860, 29199.00
736.4370, 29503.00
737.5880, 29572.00
738.7380, 29759.00
739.8880, 29398.00
741.0390, 29608.00
742.1890, 29535.00
743.3380, 29360.00
744.4880, 29507.00
745.6380, 29391.00
746.7870, 29505.00
747.9360, 29465.00
749.0850, 29475.00
750.2340, 29630.00
751.3830, 29535.00
752.5310, 29395.00
753.6800, 29442.00
754.8280, 29492.00
755.9760, 29488.65
757.1240, 29643.00
758.2720, 29669.00
759.4190, 29744.00
760.5670, 29992.00
761.7140, 29946.00
762.8610, 29872.00
764.0080, 30168.00
765.1550, 30160.00
766.3020, 30335.00
767.4480, 30281.00
768.5950, 30383.00
769.7410, 30424.00
770.8870, 30478.00
772.0330, 30427.00
773.1780, 30321.00
774.3240, 30532.00
775.4690, 30367.00
776.6140, 30114.00
777.7590, 30314.00
778.9040, 30256.00
780.0490, 30319.00
781.1940, 30316.00
782.3380, 30128.00
783.4820, 30452.00
784.6260, 30127.00
785.7700, 30185.00
786.9140, 30372.00
788.0580, 30165.00
789.2010, 30280.00
790.3450, 30405.00
791.4880, 30304.00
792.6310, 30355.00
793.7730, 30231.00
794.9160, 30484.00
796.0590, 30314.00
797.2010, 30530.00
798.3430, 30555.00
799.4850, 30531.00
800.6270, 30352.00
801.7690, 30512.00
802.9100, 30453.00
804.0520, 30595.00
805.1930, 30730.00
806.3340, 30607.00
807.4750, 30641.00
808.6160, 30528.00
809.7560, 30515.52
810.8970, 30462.00
812.0370, 30589.00
813.1770, 30610.00
814.3170, 30633.86
815.4570, 30667.06
816.5960, 30720.00
817.7360, 30675.00
818.8750, 30760.00
820.0140, 30786.00
821.1530, 30757.00
822.2920, 30701.00
823.4310, 30763.00
824.5690, 30795.00
825.7070, 31052.00
826.8460, 30904.00
827.9840, 31013.00
829.1220, 30909.00
830.2590, 30932.00
831.3970, 30992.00
832.5340, 31007.00
833.6710, 31002.00
834.8080, 31021.00
835.9450, 31074.00
837.0820, 31198.00
838.2190, 31183.00
839.3550, 31011.00
840.4910, 31243.00
841.6270, 31347.00
842.7630, 31433.00
843.8990, 31121.00
845.0350, 31318.00
846.1700, 31285.00
847.3060, 31457.00
848.4410, 31346.00
849.5760, 31569.00
850.7100, 31481.00
851.8450, 31517.00
852.9800, 31674.00
854.1140, 31719.00
855.2480, 31552.00
856.3820, 31730.00
857.5160, 31548.00
858.6500, 31712.00
859.7830, 31928.00
860.9170, 31911.00
862.0500, 31727.00
863.1830, 31836.00
864.3160, 31956.00
865.4480, 31811.00
866.5810, 31851.00
867.7130, 31852.00
868.8460, 31669.00
869.9780, 31899.00
871.1100, 31699.00
872.2410, 31782.00
873.3730, 31963.00
874.5050, 32094.00
875.6360, 31859.00
876.7670, 31904.00
877.8980, 31866.00
879.0290, 32050.00
880.1590, 32269.00
881.2900, 31999.00
882.4200, 32338.00
883.5500, 32173.00
884.6800, 32169.00
885.8100, 32127.00
886.9400, 32190.00
888.0690, 32258.00
889.1990, 32315.00
890.3280, 32374.00
891.4570, 32430.95
892.5860, 32518.00
893.7140, 32487.00
894.8430, 32533.01
895.9710, 32449.00
897.1000, 32508.00
898.2280, 32650.00
899.3560, 32474.00
900.4830, 32627.00
901.6110, 32678.00
902.7380, 32716.00
903.8660, 32873.00
904.9930, 32715.00
906.1200, 32731.00
907.2460, 32955.00
908.3730, 33401.00
909.5000, 33100.00
910.6260, 33360.00
911.7520, 33272.00
912.8780, 33602.00
914.0040, 33306.00
915.1290, 33497.00
916.2550, 33756.00
917.3800, 34084.00
918.5050, 33951.00
919.6300, 34267.00
920.7550, 34291.00
921.8800, 34399.00
923.0040, 34551.00
924.1290, 34719.00
925.2530, 34612.00
926.3770, 34659.00
927.5010, 35053.00
928.6250, 34984.00
929.7480, 35138.00
930.8720, 35390.00
931.9950, 35542.00
933.1180, 35395.00
934.2410, 35320.00
935.3640, 35338.00
936.4860, 35242.00
937.6090, 35243.00
938.7310, 35285.00
939.8530, 34926.00
940.9750, 35081.00
942.0970, 34857.00
943.2180, 35164.00
944.3400, 35105.00
945.4610, 35072.00
946.5820, 35004.00
947.7030, 35185.00
948.8240, 35047.00
949.9450, 35133.00
951.0650, 34943.00
952.1860, 35126.00
953.3060, 35091.00
954.4260, 35315.00
955.5460, 35323.00
956.6650, 35240.00
957.7850, 35373.00
958.9040, 35181.00
960.0230, 35511.00
961.1420, 35475.00
962.2610, 35429.00
963.3800, 35867.00
964.4990, 35933.00
965.6170, 35888.00
966.7350, 35705.00
967.8530, 35679.00
968.9710, 35817.00
970.0890, 35960.00
971.2070, 36133.00
972.3240, 36167.00
973.4410, 36419.00
974.5580, 36518.02
975.6750, 36670.00
976.7920, 36881.00
977.9090, 36995.00
979.0250, 37345.00
980.1410, 37501.00
981.2580, 38047.00
982.3740, 38089.00
983.4890, 38357.00
984.6050, 38878.00
985.7200, 38588.00
986.8360, 38735.00
987.9510, 38996.00
989.0660, 38848.00
990.1810, 38842.00
991.2950, 38397.00
992.4100, 38172.00
993.5240, 38309.00
994.6390, 37982.00
995.7530, 37895.00
996.8660, 37777.00
997.9800, 37538.00
999.0940, 37690.00
1000.207, 37416.00
1001.320, 37303.00
1002.433, 37301.00
1003.546, 36907.00
1004.659, 36842.00
1005.772, 36856.00
1006.884, 37011.00
1007.996, 36927.00
1009.108, 36742.00
1010.220, 36701.00
1011.332, 36633.00
1012.444, 36637.00
1013.555, 36804.00
1014.666, 36771.00
1015.777, 36713.00
1016.888, 36612.00
1017.999, 36800.00
1019.110, 36880.00
1020.220, 36912.00
1021.331, 36563.00
1022.441, 36878.00
1023.551, 36666.00
1024.661, 36640.00
1025.770, 36678.00
1026.880, 36525.00
1027.989, 36682.00
1029.098, 36358.00
1030.207, 36515.00
1031.316, 36507.00
1032.425, 36468.00
1033.533, 36246.00
1034.642, 36416.00
1035.750, 36562.00
1036.858, 36451.00
1037.966, 36116.00
1039.073, 36712.00
1040.181, 36437.00
1041.288, 36575.00
1042.396, 36665.00
1043.503, 36798.00
1044.610, 36745.00
1045.716, 36955.00
1046.823, 36747.00
1047.929, 37085.00
1049.036, 37484.00
1050.142, 37339.00
1051.248, 37343.00
1052.353, 37346.00
1053.459, 37856.00
1054.564, 37945.00
1055.670, 38036.00
1056.775, 38097.00
1057.880, 37951.00
1058.985, 38376.00
1060.089, 38249.00
1061.194, 38399.00
1062.298, 38600.00
1063.402, 38855.00
1064.506, 39041.00
1065.610, 38884.00
1066.713, 39131.00
1067.817, 39066.00
1068.920, 38997.00
1070.023, 38985.00
1071.126, 39246.00
1072.229, 38944.00
1073.332, 39344.00
1074.435, 39442.00
1075.537, 39070.00
1076.639, 39173.00
1077.741, 39423.00
1078.843, 39392.00
1079.945, 39267.00
1081.046, 38986.00
1082.148, 39351.00
1083.249, 38906.00
1084.350, 39125.00
1085.451, 39063.00
1086.551, 38775.00
1087.652, 38646.00
1088.752, 38787.00
1089.853, 38473.00
1090.953, 38536.00
1092.053, 38501.00
1093.152, 38163.00
1094.252, 38528.00
1095.351, 38188.00
1096.451, 38285.00
1097.550, 38259.00
1098.649, 37999.00
1099.748, 38027.00
1100.846, 38185.00
1101.945, 38308.00
1103.043, 38364.00
1104.141, 38318.00
1105.239, 38154.00
1106.337, 38040.00
1107.434, 38219.00
1108.532, 38410.00
1109.629, 38179.00
1110.726, 38205.00
1111.823, 38077.00
1112.920, 38488.00
1114.017, 38353.00
1115.113, 38537.00
1116.210, 38370.00
1117.306, 38419.00
1118.402, 38576.00
1119.498, 38635.00
1120.593, 38630.00
1121.689, 38618.00
1122.784, 38613.00
1123.879, 38626.39
1124.974, 38657.00
1126.069, 38632.00
1127.164, 38489.00
1128.259, 38418.00
1129.353, 38625.00
1130.447, 38525.00
1131.541, 38784.00
1132.635, 38616.00
1133.729, 38920.00
1134.822, 39023.00
1135.916, 38857.00
1137.009, 38819.00
1138.102, 38879.00
1139.195, 38753.00
1140.288, 38944.00
1141.380, 39040.00
1142.473, 38950.00
1143.565, 39081.47
1144.657, 39082.00
1145.749, 39171.00
1146.841, 39153.00
1147.932, 39233.00
1149.024, 39082.00
1150.115, 39497.00
1151.206, 39175.00
1152.297, 39562.00
1153.388, 39349.00
1154.479, 39469.00
1155.569, 39424.00
1156.659, 39471.00
1157.750, 39573.73
1158.839, 39339.00
1159.929, 39697.00
1161.019, 39629.00
1162.108, 39510.00
1163.198, 39905.00
1164.287, 39864.00
1165.376, 39764.00
1166.465, 39875.00
1167.553, 39923.00
1168.642, 39902.00
1169.730, 40066.00
1170.818, 39853.00
1171.906, 40121.00
1172.994, 39941.00
1174.082, 39956.00
1175.170, 40308.00
1176.257, 40550.00
1177.344, 40145.00
1178.431, 40269.00
1179.518, 40389.00
1180.605, 40313.00
1181.691, 40398.00
1182.778, 40233.00
1183.864, 40570.00
1184.950, 40433.00
1186.036, 40494.00
1187.122, 40588.00
1188.207, 40645.00
1189.292, 40681.00
1190.378, 40767.21
1191.463, 40785.01
1192.548, 40813.12
1193.632, 40838.00
1194.717, 40830.00
1195.801, 40851.00
1196.886, 40844.00
1197.970, 41029.00
1199.054, 41138.00
1200.137, 41263.00
1201.221, 41109.00
1202.305, 40901.00
1203.388, 41187.00
1204.471, 41298.00
1205.554, 41337.00
1206.637, 41118.00
1207.719, 41143.00
1208.802, 41286.00
1209.884, 41348.00
1210.966, 41696.00
1212.048, 41450.00
1213.130, 41260.00
1214.212, 41430.00
1215.293, 41781.00
1216.374, 41650.00
1217.456, 41746.00
1218.536, 41772.00
1219.617, 41618.00
1220.698, 41727.00
1221.778, 41698.00
1222.859, 41852.00
1223.939, 41805.00
1225.019, 41947.00
1226.099, 42128.00
1227.178, 42234.00
1228.258, 42312.00
1229.337, 42100.00
1230.417, 42421.00
1231.496, 41954.00
1232.574, 42374.00
1233.653, 42462.00
1234.732, 42169.00
1235.810, 42416.00
1236.888, 42441.00
1237.966, 42465.00
1239.044, 42564.00
1240.122, 42498.00
1241.199, 42675.00
1242.277, 42785.00
1243.354, 42607.00
1244.431, 42621.00
1245.508, 42682.00
1246.585, 42831.00
1247.661, 43031.00
1248.738, 42744.00
1249.814, 42584.00
1250.890, 43069.00
1251.966, 43200.00
1253.042, 42977.00
1254.117, 43091.00
1255.193, 42709.00
1256.268, 43015.00
1257.343, 43137.00
1258.418, 43010.00
1259.493, 43263.00
1260.567, 43243.00
1261.642, 43150.00
1262.716, 43362.00
1263.790, 43194.00
1264.864, 43376.00
1265.938, 43581.00
1267.011, 43626.00
1268.085, 43512.00
1269.158, 43672.00
1270.231, 43532.00
1271.304, 43716.00
1272.377, 43657.00
1273.450, 43489.00
