##NAMES=Thomsonite-Ca
##RRUFFID=R050103
##IDEAL CHEMISTRY=NaCa_2_(Al_5_Si_5_)O_20_&#183;6H_2_O
##LOCALITY=Seeberg, Bohemia, Czech Republic
##OWNER=RRUFF
##SOURCE=Rock Currier
##DESCRIPTION=Colorless prismatic crystals
##STATUS=The identification of this mineral has been confirmed by X-ray diffraction and chemical analysis
##URL=rruff.info/R050103
##MEASURED CHEMISTRY=Na_1.00_(Ca_0.92_Sr_0.08_)_2_(Al_5.00_Si_5.00_)O_20_Â·6H_2_O
##PIN_ID=M00072
##ORIENTATION=Laser parallel to a* (1 0 0). Fiducial mark perpendicular to laser is parallel to b [0 1 0]
93.48000, 19481.79
94.71400, 19998.00
95.94800, 20654.00
97.18200, 21094.00
98.41600, 21676.00
99.64900, 21991.00
100.8830, 21839.00
102.1160, 21867.00
103.3490, 22040.00
104.5820, 22565.00
105.8150, 23176.00
107.0470, 24063.00
108.2800, 24084.00
109.5120, 24383.00
110.7440, 25271.00
111.9760, 27160.00
113.2080, 29078.00
114.4400, 29517.00
115.6710, 30198.00
116.9030, 30606.00
118.1340, 32002.00
119.3650, 29835.12
120.5960, 30927.00
121.8270, 25684.00
123.0580, 23630.00
124.2880, 22179.00
125.5190, 21015.00
126.7490, 20092.00
127.9790, 19414.00
129.2090, 18787.00
130.4390, 18050.00
131.6680, 17894.00
132.8980, 17553.00
134.1270, 17206.00
135.3560, 17217.00
136.5850, 17258.00
137.8140, 17092.00
139.0430, 17209.00
140.2710, 16978.00
141.5000, 16939.00
142.7280, 16848.00
143.9560, 16879.00
145.1840, 16913.00
146.4120, 16780.00
147.6390, 16771.00
148.8670, 16939.00
150.0940, 17029.00
151.3210, 17154.00
152.5490, 17192.00
153.7750, 17328.00
155.0020, 17488.00
156.2290, 17817.00
157.4550, 18190.00
158.6810, 18279.00
159.9080, 18662.00
161.1340, 18979.00
162.3590, 19527.00
163.5850, 19942.00
164.8110, 20474.00
166.0360, 21199.00
167.2610, 22082.00
168.4860, 23127.00
169.7110, 24309.00
170.9360, 25375.00
172.1610, 26639.00
173.3850, 27993.00
174.6100, 29397.00
175.8340, 30524.00
177.0580, 31283.00
178.2820, 31543.00
179.5050, 31718.00
180.7290, 31181.00
181.9520, 30065.00
183.1760, 29117.00
184.3990, 28075.00
185.6220, 27051.00
186.8450, 25826.00
188.0670, 25234.00
189.2900, 24625.00
190.5120, 24042.00
191.7340, 24032.00
192.9560, 23556.00
194.1780, 23214.00
195.4000, 22849.00
196.6220, 22390.00
197.8430, 21961.00
199.0640, 21606.00
200.2860, 20942.00
201.5070, 20381.00
202.7270, 20141.00
203.9480, 19863.00
205.1690, 19602.00
206.3890, 19394.00
207.6090, 19479.00
208.8290, 19696.00
210.0490, 19951.00
211.2690, 19973.00
212.4890, 20356.00
213.7080, 20503.00
214.9280, 21004.00
216.1470, 21236.00
217.3660, 21532.00
218.5850, 21535.00
219.8030, 21774.00
221.0220, 21646.00
222.2400, 21403.00
223.4590, 21035.00
224.6770, 20788.00
225.8950, 20181.00
227.1120, 19653.00
228.3300, 19229.00
229.5480, 18641.00
230.7650, 18402.00
231.9820, 17959.00
233.1990, 17441.00
234.4160, 17493.00
235.6330, 17113.00
236.8490, 17076.00
238.0660, 16972.00
239.2820, 16766.00
240.4980, 16681.00
241.7140, 16532.00
242.9300, 16436.00
244.1460, 16480.00
245.3610, 16544.00
246.5770, 16394.00
247.7920, 16516.00
249.0070, 16582.00
250.2220, 16592.00
251.4370, 16571.00
252.6510, 16564.00
253.8660, 16618.00
255.0800, 16681.00
256.2940, 16820.00
257.5080, 16759.80
258.7220, 16795.00
259.9360, 16627.00
261.1490, 16612.00
262.3630, 16455.00
263.5760, 16425.00
264.7890, 16311.00
266.0020, 16385.00
267.2150, 16437.00
268.4270, 16328.00
269.6400, 16446.00
270.8520, 16372.00
272.0640, 16368.00
273.2760, 16612.00
274.4880, 17882.00
275.7000, 17866.00
276.9120, 17728.00
278.1230, 16995.00
279.3340, 16803.00
280.5450, 16853.00
281.7560, 16797.00
282.9670, 16923.00
284.1780, 17034.00
285.3880, 17075.00
286.5980, 17198.00
287.8090, 17393.00
289.0190, 17534.00
290.2290, 17469.00
291.4380, 17617.00
292.6480, 17810.00
293.8570, 18088.00
295.0670, 18267.00
296.2760, 18304.00
297.4850, 18258.00
298.6930, 18390.00
299.9020, 18446.00
301.1110, 18219.00
302.3190, 18321.00
303.5270, 17915.00
304.7350, 18047.00
305.9430, 17883.00
307.1510, 17666.00
308.3580, 17593.00
309.5660, 17578.00
310.7730, 17271.00
311.9800, 17227.00
313.1870, 17342.00
314.3940, 17237.00
315.6010, 17073.00
316.8070, 17142.00
318.0130, 17170.00
319.2200, 17225.00
320.4260, 17210.00
321.6310, 17298.00
322.8370, 17374.00
324.0430, 17262.00
325.2480, 17475.00
326.4540, 17669.00
327.6590, 17631.00
328.8640, 17737.00
330.0680, 17794.00
331.2730, 17980.00
332.4780, 18099.57
333.6820, 18272.08
334.8860, 18416.00
336.0900, 18643.00
337.2940, 18804.00
338.4980, 18971.00
339.7010, 19245.00
340.9050, 19522.00
342.1080, 19635.00
343.3110, 19817.00
344.5140, 19971.49
345.7170, 20134.00
346.9200, 20210.00
348.1220, 20191.00
349.3240, 20249.00
350.5270, 20041.00
351.7290, 19713.00
352.9310, 19559.00
354.1320, 19370.00
355.3340, 19177.00
356.5350, 18934.00
357.7370, 18844.00
358.9380, 18602.00
360.1390, 18568.00
361.3400, 18463.00
362.5400, 18586.00
363.7410, 18275.00
364.9410, 18228.00
366.1410, 18396.00
367.3410, 18407.00
368.5410, 18419.00
369.7410, 18703.00
370.9400, 18788.00
372.1400, 18655.00
373.3390, 18986.00
374.5380, 19101.00
375.7370, 19152.00
376.9360, 18893.00
378.1350, 19013.00
379.3330, 18988.00
380.5310, 19051.00
381.7300, 18948.00
382.9280, 18961.00
384.1260, 18973.00
385.3230, 18900.00
386.5210, 18968.00
387.7180, 19073.00
388.9160, 19130.00
390.1130, 19270.00
391.3100, 19444.00
392.5060, 19446.00
393.7030, 19567.00
394.9000, 19644.00
396.0960, 19559.00
397.2920, 19701.00
398.4880, 19632.00
399.6840, 19540.00
400.8800, 19546.00
402.0750, 19529.99
403.2710, 19436.00
404.4660, 19623.00
405.6610, 19580.00
406.8560, 19725.00
408.0510, 19756.00
409.2450, 19853.00
410.4400, 19993.24
411.6340, 20071.29
412.8280, 20267.00
414.0220, 20332.00
415.2160, 20447.00
416.4100, 20649.00
417.6030, 20987.00
418.7970, 21023.00
419.9900, 21472.00
421.1830, 21710.00
422.3760, 22299.00
423.5690, 22663.00
424.7610, 23067.00
425.9540, 23819.00
427.1460, 24327.00
428.3380, 25190.00
429.5300, 25830.00
430.7220, 26707.00
431.9140, 27496.00
433.1050, 28755.00
434.2970, 29650.00
435.4880, 30312.00
436.6790, 31129.00
437.8700, 31404.00
439.0610, 31855.00
440.2510, 31603.00
441.4420, 31532.00
442.6320, 30828.00
443.8220, 29866.00
445.0120, 28963.00
446.2020, 28074.00
447.3910, 27277.00
448.5810, 26490.00
449.7700, 25777.00
450.9600, 25326.00
452.1490, 24878.00
453.3370, 24507.00
454.5260, 24547.00
455.7150, 24572.00
456.9030, 24537.00
458.0910, 25219.00
459.2800, 25597.00
460.4670, 26193.00
461.6550, 27159.00
462.8430, 28408.00
464.0300, 29930.00
465.2180, 31301.00
466.4050, 32883.00
467.5920, 34269.00
468.7790, 35715.00
469.9650, 36598.00
471.1520, 37083.00
472.3380, 36902.00
473.5250, 36075.00
474.7110, 34611.00
475.8970, 33219.00
477.0820, 31465.00
478.2680, 30210.00
479.4540, 28967.00
480.6390, 28223.00
481.8240, 27839.00
483.0090, 27747.00
484.1940, 27756.00
485.3780, 27507.00
486.5630, 27709.00
487.7470, 28281.00
488.9320, 28332.00
490.1160, 28334.00
491.3000, 28747.00
492.4830, 28690.00
493.6670, 28296.00
494.8500, 28207.00
496.0340, 27686.00
497.2170, 27214.00
498.4000, 26645.00
499.5820, 25977.00
500.7650, 25536.00
501.9480, 24919.00
503.1300, 24560.00
504.3120, 24399.00
505.4940, 24082.00
506.6760, 24030.00
507.8580, 24088.00
509.0390, 24141.00
510.2210, 24285.00
511.4020, 24590.00
512.5830, 24887.00
513.7640, 25609.00
514.9450, 26103.00
516.1250, 26697.00
517.3060, 27728.00
518.4860, 28733.00
519.6660, 30038.00
520.8460, 31677.00
522.0260, 34110.00
523.2060, 36522.00
524.3850, 39376.00
525.5650, 42561.00
526.7440, 46035.00
527.9230, 50036.00
529.1020, 54156.00
530.2810, 57737.00
531.4590, 60998.00
532.6380, 63328.00
533.8160, 64635.00
534.9940, 64719.00
536.1720, 63978.00
537.3500, 61965.00
538.5270, 59308.00
539.7050, 55935.00
540.8820, 52427.00
542.0590, 48654.00
543.2360, 44964.00
544.4130, 42142.00
545.5900, 39455.00
546.7660, 37088.00
547.9430, 35180.00
549.1190, 33198.00
550.2950, 31952.00
551.4710, 30741.00
552.6470, 29698.00
553.8220, 28945.00
554.9980, 28422.00
556.1730, 27661.00
557.3480, 27156.00
558.5230, 26760.00
559.6980, 26388.00
560.8730, 26124.00
562.0470, 25987.00
563.2220, 25670.11
564.3960, 25431.00
565.5700, 25182.00
566.7440, 25166.00
567.9170, 24926.00
569.0910, 24877.00
570.2640, 24931.00
571.4380, 24521.00
572.6110, 24493.00
573.7840, 24486.00
574.9570, 24185.00
576.1290, 24191.00
577.3020, 23993.00
578.4740, 24107.00
579.6460, 24012.00
580.8180, 23952.00
581.9900, 23974.00
583.1620, 23903.58
584.3330, 23885.83
585.5040, 23859.00
586.6760, 23764.00
587.8470, 23768.00
589.0180, 23576.00
590.1880, 23635.00
591.3590, 23468.00
592.5290, 23707.00
593.7000, 23622.00
594.8700, 24074.00
596.0400, 23832.00
597.2090, 23917.00
598.3790, 24304.00
599.5490, 24254.00
600.7180, 24190.00
601.8870, 24204.00
603.0560, 24415.00
604.2250, 24293.00
605.3940, 24362.00
606.5620, 24042.00
607.7300, 23897.00
608.8990, 23620.00
610.0670, 23639.00
611.2350, 23686.00
612.4020, 23501.00
613.5700, 23633.00
614.7370, 23481.00
615.9050, 23386.00
617.0720, 23307.00
618.2390, 23354.00
619.4060, 23285.00
620.5720, 23382.00
621.7390, 23343.00
622.9050, 23596.00
624.0710, 23732.00
625.2370, 23765.00
626.4030, 23609.00
627.5690, 23552.00
628.7340, 23441.00
629.9000, 23455.00
631.0650, 23247.00
632.2300, 23141.00
633.3950, 23239.00
634.5600, 23221.00
635.7240, 23326.00
636.8890, 23357.00
638.0530, 23488.00
639.2170, 23336.00
640.3810, 23499.00
641.5450, 23602.00
642.7080, 23534.00
643.8720, 23634.00
645.0350, 23528.00
646.1980, 23674.00
647.3610, 23819.00
648.5240, 23754.00
649.6870, 23687.00
650.8490, 23845.00
652.0120, 23822.00
653.1740, 23943.00
654.3360, 23902.00
655.4980, 24038.00
656.6600, 23933.00
657.8210, 23982.00
658.9830, 24008.75
660.1440, 24027.00
661.3050, 24025.00
662.4660, 24153.00
663.6270, 24119.00
664.7870, 23937.00
665.9480, 24208.00
667.1080, 24248.00
668.2680, 24135.00
669.4280, 24277.00
670.5880, 24378.00
671.7480, 24464.00
672.9070, 24622.00
674.0670, 24518.00
675.2260, 24726.00
676.3850, 24763.00
677.5440, 24791.00
678.7030, 24885.97
679.8610, 24730.00
681.0200, 24955.00
682.1780, 25050.00
683.3360, 25057.00
684.4940, 25271.00
685.6520, 25445.00
686.8090, 25326.00
687.9670, 25457.00
689.1240, 25671.00
690.2810, 26143.00
691.4380, 26032.00
692.5950, 26165.00
693.7520, 26179.00
694.9080, 26229.00
696.0650, 26268.00
697.2210, 26371.00
698.3770, 26388.18
699.5330, 26462.00
700.6880, 26454.00
701.8440, 26354.00
702.9990, 26369.00
704.1550, 26424.00
705.3100, 26574.00
706.4650, 26426.00
707.6190, 26351.00
708.7740, 26150.00
709.9290, 26218.00
711.0830, 26255.00
712.2370, 26414.00
713.3910, 26025.00
714.5450, 26093.00
715.6980, 26165.00
716.8520, 26269.00
718.0050, 26094.00
719.1580, 26122.00
720.3110, 26025.00
721.4640, 26135.00
722.6170, 25985.00
723.7700, 25766.00
724.9220, 26083.00
726.0740, 25913.00
727.2260, 25812.00
728.3780, 25690.00
729.5300, 25690.00
730.6810, 25602.00
731.8330, 25534.37
732.9840, 25475.00
734.1350, 25452.00
735.2860, 25491.00
736.4370, 25574.00
737.5880, 25164.00
738.7380, 25487.00
739.8880, 25239.00
741.0390, 25380.00
742.1890, 25278.00
743.3380, 25136.00
744.4880, 25182.00
745.6380, 25081.00
746.7870, 25146.00
747.9360, 25174.80
749.0850, 25264.00
750.2340, 25275.00
751.3830, 25372.00
752.5310, 25393.00
753.6800, 25408.64
754.8280, 25409.00
755.9760, 25473.00
757.1240, 25553.00
758.2720, 25704.00
759.4190, 25749.00
760.5670, 25494.00
761.7140, 25744.00
762.8610, 25919.00
764.0080, 26049.00
765.1550, 26326.00
766.3020, 26311.00
767.4480, 26423.00
768.5950, 26671.00
769.7410, 26595.00
770.8870, 27080.00
772.0330, 26816.00
773.1780, 26861.00
774.3240, 26783.00
775.4690, 26603.00
776.6140, 26869.00
777.7590, 26731.00
778.9040, 26555.00
780.0490, 26298.00
781.1940, 26375.00
782.3380, 26020.00
783.4820, 26297.00
784.6260, 26230.00
785.7700, 26289.00
786.9140, 26284.00
788.0580, 26138.00
789.2010, 26263.00
790.3450, 26127.00
791.4880, 26214.00
792.6310, 26164.00
793.7730, 26093.00
794.9160, 26096.10
796.0590, 26077.00
797.2010, 26065.00
798.3430, 25979.00
799.4850, 26080.00
800.6270, 26054.00
801.7690, 26129.00
802.9100, 26352.00
804.0520, 26120.00
805.1930, 26307.00
806.3340, 26214.00
807.4750, 26269.00
808.6160, 26357.00
809.7560, 26479.00
810.8970, 26273.00
812.0370, 26424.00
813.1770, 26302.00
814.3170, 26476.00
815.4570, 26275.00
816.5960, 26442.00
817.7360, 26570.00
818.8750, 26553.00
820.0140, 26691.00
821.1530, 26454.00
822.2920, 26506.00
823.4310, 26604.00
824.5690, 26600.00
825.7070, 26711.00
826.8460, 26738.62
827.9840, 26739.00
829.1220, 26826.00
830.2590, 26787.00
831.3970, 26839.00
832.5340, 26886.57
833.6710, 26983.00
834.8080, 26960.00
835.9450, 26964.00
837.0820, 26939.00
838.2190, 26885.00
839.3550, 27275.00
840.4910, 27087.00
841.6270, 27224.00
842.7630, 26959.00
843.8990, 27274.00
845.0350, 27114.00
846.1700, 27148.00
847.3060, 27297.00
848.4410, 27081.00
849.5760, 27273.00
850.7100, 27339.00
851.8450, 27407.00
852.9800, 27567.00
854.1140, 27770.00
855.2480, 27487.00
856.3820, 27752.00
857.5160, 27743.00
858.6500, 27587.00
859.7830, 27928.00
860.9170, 27896.00
862.0500, 27945.00
863.1830, 27696.00
864.3160, 27869.00
865.4480, 28117.00
866.5810, 27802.00
867.7130, 27757.00
868.8460, 27670.00
869.9780, 27980.00
871.1100, 27814.00
872.2410, 27866.00
873.3730, 27999.00
874.5050, 27936.00
875.6360, 27859.00
876.7670, 27914.00
877.8980, 27902.86
879.0290, 27963.98
880.1590, 28027.00
881.2900, 28096.00
882.4200, 28249.00
883.5500, 28255.00
884.6800, 28291.00
885.8100, 28303.00
886.9400, 28238.00
888.0690, 28301.00
889.1990, 28349.00
890.3280, 28206.00
891.4570, 28522.00
892.5860, 28668.00
893.7140, 28703.00
894.8430, 28594.00
895.9710, 28655.00
897.1000, 28702.00
898.2280, 28940.00
899.3560, 28852.00
900.4830, 28987.00
901.6110, 29124.00
902.7380, 28923.00
903.8660, 29460.00
904.9930, 29416.00
906.1200, 29624.00
907.2460, 29554.00
908.3730, 29847.00
909.5000, 29943.00
910.6260, 30040.00
911.7520, 30306.00
912.8780, 30318.00
914.0040, 30543.00
915.1290, 30898.00
916.2550, 31037.00
917.3800, 31269.00
918.5050, 31457.00
919.6300, 31648.00
920.7550, 31860.00
921.8800, 32039.00
923.0040, 32451.00
924.1290, 32703.00
925.2530, 32992.00
926.3770, 33217.00
927.5010, 33278.00
928.6250, 33333.00
929.7480, 33615.00
930.8720, 33478.00
931.9950, 33736.00
933.1180, 33705.00
934.2410, 33694.00
935.3640, 33478.00
936.4860, 33278.00
937.6090, 33249.00
938.7310, 33079.00
939.8530, 32976.00
940.9750, 32735.00
942.0970, 32401.00
943.2180, 32396.00
944.3400, 32264.00
945.4610, 31983.00
946.5820, 32175.00
947.7030, 31962.00
948.8240, 32005.00
949.9450, 32001.00
951.0650, 31842.85
952.1860, 31780.00
953.3060, 31657.00
954.4260, 31667.00
955.5460, 31682.00
956.6650, 31774.00
957.7850, 31749.00
958.9040, 31592.00
960.0230, 31763.00
961.1420, 31836.00
962.2610, 31654.00
963.3800, 31818.00
964.4990, 31749.00
965.6170, 31673.00
966.7350, 31746.00
967.8530, 31827.00
968.9710, 32033.00
970.0890, 32218.00
971.2070, 32128.00
972.3240, 32372.00
973.4410, 32442.00
974.5580, 32399.00
975.6750, 33049.00
976.7920, 33128.00
977.9090, 33464.00
979.0250, 33884.00
980.1410, 34166.00
981.2580, 34355.00
982.3740, 34431.00
983.4890, 34745.00
984.6050, 34850.00
985.7200, 34958.00
986.8360, 35135.00
987.9510, 34946.00
989.0660, 34894.00
990.1810, 34921.00
991.2950, 34680.00
992.4100, 34521.00
993.5240, 34280.00
994.6390, 34105.00
995.7530, 33977.00
996.8660, 33771.00
997.9800, 33392.00
999.0940, 33496.00
1000.207, 33713.00
1001.320, 33566.00
1002.433, 33192.00
1003.546, 33200.00
1004.659, 32874.00
1005.772, 32873.00
1006.884, 32587.00
1007.996, 32605.00
1009.108, 32572.00
1010.220, 32659.00
1011.332, 32568.00
1012.444, 32574.00
1013.555, 32728.00
1014.666, 32424.00
1015.777, 32537.00
1016.888, 32601.00
1017.999, 32588.00
1019.110, 32561.92
1020.220, 32553.00
1021.331, 32367.00
1022.441, 32349.00
1023.551, 32192.00
1024.661, 32200.00
1025.770, 32166.00
1026.880, 32053.06
1027.989, 32082.00
1029.098, 31912.00
1030.207, 31804.00
1031.316, 31810.00
1032.425, 31823.00
1033.533, 31696.00
1034.642, 31789.00
1035.750, 31782.00
1036.858, 31699.00
1037.966, 31991.00
1039.073, 31965.00
1040.181, 31862.00
1041.288, 31927.00
1042.396, 31862.89
1043.503, 31745.00
1044.610, 31877.00
1045.716, 31874.00
1046.823, 32010.00
1047.929, 32099.00
1049.036, 32071.00
1050.142, 32141.00
1051.248, 32404.00
1052.353, 32301.00
1053.459, 32574.00
1054.564, 32401.00
1055.670, 32463.00
1056.775, 32599.00
1057.880, 32605.00
1058.985, 32534.00
1060.089, 32716.00
1061.194, 32902.00
1062.298, 32726.00
1063.402, 32836.00
1064.506, 33089.00
1065.610, 33045.00
1066.713, 33048.00
1067.817, 33401.00
1068.920, 33520.00
1070.023, 33425.00
1071.126, 33231.00
1072.229, 33705.00
1073.332, 33986.00
1074.435, 33926.00
1075.537, 33971.00
1076.639, 33957.00
1077.741, 34370.00
1078.843, 34243.00
1079.945, 34334.00
1081.046, 34440.00
1082.148, 34243.00
1083.249, 34227.00
1084.350, 34413.00
1085.451, 34382.00
1086.551, 34255.00
1087.652, 34005.00
1088.752, 34003.00
1089.853, 33951.00
1090.953, 33854.00
1092.053, 33730.50
1093.152, 33489.00
1094.252, 33407.00
1095.351, 33409.00
1096.451, 33279.00
1097.550, 33263.00
1098.649, 33124.00
1099.748, 33189.00
1100.846, 33259.00
1101.945, 33031.00
1103.043, 33102.00
1104.141, 33032.00
1105.239, 32840.00
1106.337, 33068.00
1107.434, 32974.00
1108.532, 33189.00
1109.629, 33037.00
1110.726, 33106.00
1111.823, 32922.00
1112.920, 33353.00
1114.017, 33150.00
1115.113, 33202.00
1116.210, 33327.00
1117.306, 33144.00
1118.402, 33023.00
1119.498, 33067.00
1120.593, 33400.00
1121.689, 33306.00
1122.784, 33419.00
1123.879, 33421.00
1124.974, 33193.00
1126.069, 33395.00
1127.164, 33184.00
1128.259, 33015.00
1129.353, 33207.00
1130.447, 33269.00
1131.541, 33264.00
1132.635, 33233.00
1133.729, 33130.00
1134.822, 33159.29
1135.916, 33146.60
1137.009, 33190.00
1138.102, 33225.00
1139.195, 33302.00
1140.288, 33412.00
1141.380, 33461.00
1142.473, 33514.00
1143.565, 33314.00
1144.657, 33525.00
1145.749, 33297.00
1146.841, 33355.00
1147.932, 33529.00
1149.024, 33550.00
1150.115, 33602.00
1151.206, 33745.00
1152.297, 33690.43
1153.388, 33528.00
1154.479, 33665.00
1155.569, 33656.00
1156.659, 33693.00
1157.750, 33723.02
1158.839, 33784.00
1159.929, 33728.00
1161.019, 33709.00
1162.108, 33706.00
1163.198, 33862.00
1164.287, 33923.00
1165.376, 33944.00
1166.465, 33945.00
1167.553, 33836.00
1168.642, 33895.82
1169.730, 33897.00
1170.818, 33911.00
1171.906, 33921.00
1172.994, 33875.00
1174.082, 34026.00
1175.170, 33977.21
1176.257, 34167.00
1177.344, 33992.00
1178.431, 33995.00
1179.518, 34012.00
1180.605, 34227.00
1181.691, 34140.00
1182.778, 34389.00
1183.864, 34162.00
1184.950, 34311.00
1186.036, 34362.00
1187.122, 34258.00
1188.207, 34384.00
1189.292, 34291.00
1190.378, 34488.00
1191.463, 34490.00
1192.548, 34507.00
1193.632, 34347.00
1194.717, 34581.00
1195.801, 34289.00
1196.886, 34751.00
1197.970, 34540.00
1199.054, 34717.00
1200.137, 34708.00
1201.221, 34853.00
1202.305, 34920.13
1203.388, 34923.99
1204.471, 34957.00
1205.554, 34922.00
1206.637, 34703.00
1207.719, 34642.00
1208.802, 34836.00
1209.884, 34983.00
1210.966, 34993.00
1212.048, 35094.58
1213.130, 35128.00
1214.212, 35183.00
1215.293, 35203.00
1216.374, 35008.00
1217.456, 35205.00
1218.536, 34973.00
1219.617, 34943.00
1220.698, 35236.00
1221.778, 35064.00
1222.859, 35018.00
1223.939, 35095.00
1225.019, 35316.00
1226.099, 35348.00
1227.178, 35056.00
1228.258, 35408.00
1229.337, 35129.00
1230.417, 35094.00
1231.496, 35502.00
1232.574, 35423.00
1233.653, 35321.00
1234.732, 35446.00
1235.810, 35571.00
1236.888, 35498.00
1237.966, 35632.00
1239.044, 35711.00
1240.122, 35813.00
1241.199, 35826.97
1242.277, 35588.00
1243.354, 35743.00
1244.431, 35779.00
1245.508, 35578.00
1246.585, 35667.00
1247.661, 35851.00
1248.738, 35691.00
1249.814, 35793.00
1250.890, 35840.00
1251.966, 35965.00
1253.042, 35953.00
1254.117, 35941.00
1255.193, 35850.00
1256.268, 35957.00
1257.343, 36027.00
1258.418, 36024.50
1259.493, 36103.32
1260.567, 36072.00
1261.642, 36138.00
1262.716, 36112.00
1263.790, 36023.23
1264.864, 36194.00
1265.938, 36009.00
1267.011, 36059.00
1268.085, 36202.00
1269.158, 36416.00
1270.231, 36239.00
1271.304, 36444.00
1272.377, 36411.00
1273.450, 36328.00
