##NAMES=Thomsonite-Ca
##RRUFFID=R050103
##IDEAL CHEMISTRY=NaCa_2_(Al_5_Si_5_)O_20_&#183;6H_2_O
##LOCALITY=Seeberg, Bohemia, Czech Republic
##OWNER=RRUFF
##SOURCE=Rock Currier
##DESCRIPTION=Colorless prismatic crystals
##STATUS=The identification of this mineral has been confirmed by X-ray diffraction and chemical analysis
##URL=rruff.info/R050103
##MEASURED CHEMISTRY=Na_1.00_(Ca_0.92_Sr_0.08_)_2_(Al_5.00_Si_5.00_)O_20_Â·6H_2_O
##PIN_ID=M00072
##ORIENTATION=Laser parallel to a* (1 0 0). Fiducial mark perpendicular to laser is parallel to b [0 1 0]
93.48000, 11058.00
94.71400, 11449.00
95.94800, 11847.00
97.18200, 12233.00
98.41600, 12452.00
99.64900, 12720.00
100.8830, 12855.00
102.1160, 13165.00
103.3490, 13587.00
104.5820, 14018.00
105.8150, 14370.08
107.0470, 14659.72
108.2800, 15066.00
109.5120, 15272.00
110.7440, 15451.00
111.9760, 16011.00
113.2080, 16977.00
114.4400, 17839.00
115.6710, 19272.00
116.9030, 20263.00
118.1340, 19374.00
119.3650, 17222.00
120.5960, 16319.00
121.8270, 15914.00
123.0580, 15491.00
124.2880, 14980.00
125.5190, 14926.00
126.7490, 14674.00
127.9790, 14373.00
129.2090, 14235.00
130.4390, 13935.00
131.6680, 13759.00
132.8980, 13749.00
134.1270, 13525.00
135.3560, 13428.00
136.5850, 13389.00
137.8140, 13502.00
139.0430, 13673.00
140.2710, 13565.00
141.5000, 13691.00
142.7280, 13695.00
143.9560, 13748.00
145.1840, 14030.00
146.4120, 13893.00
147.6390, 13981.00
148.8670, 14250.00
150.0940, 14311.00
151.3210, 14342.00
152.5490, 14739.00
153.7750, 14739.00
155.0020, 14892.00
156.2290, 15092.00
157.4550, 15166.00
158.6810, 15264.00
159.9080, 15519.00
161.1340, 15567.00
162.3590, 15898.00
163.5850, 16054.00
164.8110, 16107.00
166.0360, 16336.00
167.2610, 16889.00
168.4860, 17359.00
169.7110, 17652.00
170.9360, 18381.00
172.1610, 18874.00
173.3850, 19425.00
174.6100, 20234.00
175.8340, 20335.00
177.0580, 20598.00
178.2820, 20558.00
179.5050, 20113.00
180.7290, 19651.00
181.9520, 19092.00
183.1760, 18310.00
184.3990, 17635.00
185.6220, 17302.00
186.8450, 16425.00
188.0670, 16054.00
189.2900, 15766.00
190.5120, 15380.00
191.7340, 15241.00
192.9560, 15150.00
194.1780, 15051.00
195.4000, 14789.00
196.6220, 14804.00
197.8430, 14791.00
199.0640, 14537.00
200.2860, 14512.00
201.5070, 14483.00
202.7270, 14206.00
203.9480, 14206.00
205.1690, 14134.00
206.3890, 14063.00
207.6090, 14242.00
208.8290, 14160.00
210.0490, 14226.00
211.2690, 14311.00
212.4890, 14286.00
213.7080, 14404.00
214.9280, 14424.00
216.1470, 14505.95
217.3660, 14623.00
218.5850, 14728.00
219.8030, 14790.00
221.0220, 14757.20
222.2400, 14529.00
223.4590, 14600.00
224.6770, 14361.00
225.8950, 14232.00
227.1120, 14146.00
228.3300, 13971.00
229.5480, 13773.00
230.7650, 13755.00
231.9820, 13426.00
233.1990, 13664.00
234.4160, 13310.00
235.6330, 13547.00
236.8490, 13437.00
238.0660, 13346.00
239.2820, 13474.00
240.4980, 13486.00
241.7140, 13344.00
242.9300, 13430.00
244.1460, 13300.00
245.3610, 13433.00
246.5770, 13490.00
247.7920, 13456.00
249.0070, 13666.00
250.2220, 13609.00
251.4370, 13657.00
252.6510, 13717.00
253.8660, 13643.00
255.0800, 13767.00
256.2940, 13873.00
257.5080, 14006.00
258.7220, 13953.00
259.9360, 13844.00
261.1490, 13667.00
262.3630, 13790.00
263.5760, 13727.00
264.7890, 13823.00
266.0020, 13827.00
267.2150, 13825.00
268.4270, 13836.00
269.6400, 13890.00
270.8520, 13894.70
272.0640, 13930.00
273.2760, 13945.00
274.4880, 13964.00
275.7000, 13993.00
276.9120, 13940.00
278.1230, 14092.00
279.3340, 14032.00
280.5450, 14305.00
281.7560, 14445.00
282.9670, 14359.00
284.1780, 14535.00
285.3880, 14566.00
286.5980, 14691.00
287.8090, 14927.00
289.0190, 15167.00
290.2290, 15367.00
291.4380, 15605.00
292.6480, 15813.00
293.8570, 16014.00
295.0670, 16379.00
296.2760, 16681.00
297.4850, 17119.00
298.6930, 17407.00
299.9020, 17664.00
301.1110, 18042.00
302.3190, 18077.00
303.5270, 18462.00
304.7350, 18673.00
305.9430, 18836.00
307.1510, 18791.00
308.3580, 18619.00
309.5660, 18650.00
310.7730, 18402.00
311.9800, 18231.00
313.1870, 17980.00
314.3940, 17958.00
315.6010, 17780.00
316.8070, 17846.00
318.0130, 17883.00
319.2200, 17820.00
320.4260, 18061.00
321.6310, 18203.00
322.8370, 18149.00
324.0430, 18237.00
325.2480, 18196.00
326.4540, 18361.00
327.6590, 18516.00
328.8640, 18502.00
330.0680, 18868.00
331.2730, 18992.00
332.4780, 19071.00
333.6820, 19224.00
334.8860, 19395.00
336.0900, 19780.00
337.2940, 19824.00
338.4980, 19767.00
339.7010, 19822.00
340.9050, 19659.00
342.1080, 19394.00
343.3110, 19290.00
344.5140, 18864.00
345.7170, 18577.00
346.9200, 18246.00
348.1220, 17874.00
349.3240, 17476.00
350.5270, 17171.00
351.7290, 16845.00
352.9310, 16472.00
354.1320, 16319.00
355.3340, 16059.31
356.5350, 16033.00
357.7370, 15682.00
358.9380, 15650.00
360.1390, 15435.00
361.3400, 15297.00
362.5400, 15179.00
363.7410, 15092.00
364.9410, 15042.00
366.1410, 14986.00
367.3410, 14964.00
368.5410, 14794.00
369.7410, 14747.00
370.9400, 14783.00
372.1400, 14826.00
373.3390, 14783.00
374.5380, 14872.00
375.7370, 14797.00
376.9360, 14903.00
378.1350, 14785.00
379.3330, 14930.00
380.5310, 14911.00
381.7300, 14915.00
382.9280, 14905.00
384.1260, 14923.00
385.3230, 14951.00
386.5210, 15087.00
387.7180, 15058.00
388.9160, 15173.00
390.1130, 15237.69
391.3100, 15200.00
392.5060, 15396.00
393.7030, 15369.00
394.9000, 15458.00
396.0960, 15361.00
397.2920, 15320.00
398.4880, 15451.00
399.6840, 15406.00
400.8800, 15386.00
402.0750, 15477.00
403.2710, 15301.00
404.4660, 15335.00
405.6610, 15305.00
406.8560, 15464.00
408.0510, 15571.00
409.2450, 15376.00
410.4400, 15556.00
411.6340, 15546.00
412.8280, 15661.00
414.0220, 15774.00
415.2160, 15712.00
416.4100, 15786.00
417.6030, 15940.75
418.7970, 16015.12
419.9900, 16300.00
421.1830, 16368.00
422.3760, 16562.00
423.5690, 16857.00
424.7610, 17290.00
425.9540, 17398.00
427.1460, 17913.00
428.3380, 18144.00
429.5300, 18695.00
430.7220, 19359.00
431.9140, 19933.00
433.1050, 20760.00
434.2970, 21271.00
435.4880, 22048.00
436.6790, 22639.00
437.8700, 23058.00
439.0610, 23291.64
440.2510, 23357.09
441.4420, 23234.00
442.6320, 22942.00
443.8220, 22491.00
445.0120, 22071.99
446.2020, 21435.00
447.3910, 20923.00
448.5810, 20343.00
449.7700, 19662.00
450.9600, 19140.00
452.1490, 18899.00
453.3370, 18610.00
454.5260, 18131.00
455.7150, 18147.00
456.9030, 17925.00
458.0910, 17717.00
459.2800, 17881.00
460.4670, 17699.00
461.6550, 17483.00
462.8430, 17693.00
464.0300, 17641.00
465.2180, 17576.00
466.4050, 17763.00
467.5920, 17832.00
468.7790, 17977.00
469.9650, 18069.00
471.1520, 18154.00
472.3380, 18239.00
473.5250, 18329.00
474.7110, 18086.00
475.8970, 18260.00
477.0820, 17950.00
478.2680, 18100.00
479.4540, 18099.00
480.6390, 18130.00
481.8240, 18165.00
483.0090, 18270.52
484.1940, 18401.00
485.3780, 18549.00
486.5630, 18662.00
487.7470, 18852.00
488.9320, 18958.46
490.1160, 19027.00
491.3000, 19187.00
492.4830, 19154.00
493.6670, 19220.00
494.8500, 19183.00
496.0340, 19199.00
497.2170, 18998.00
498.4000, 18992.33
499.5820, 18861.00
500.7650, 18861.00
501.9480, 18857.00
503.1300, 18820.00
504.3120, 18819.00
505.4940, 18920.00
506.6760, 19210.00
507.8580, 19369.00
509.0390, 19694.00
510.2210, 19864.00
511.4020, 20351.00
512.5830, 20569.00
513.7640, 21261.00
514.9450, 21960.00
516.1250, 22812.00
517.3060, 23658.00
518.4860, 24810.00
519.6660, 26045.00
520.8460, 27688.00
522.0260, 29710.00
523.2060, 32223.00
524.3850, 34843.00
525.5650, 38179.79
526.7440, 42027.00
527.9230, 45395.00
529.1020, 48704.00
530.2810, 52126.00
531.4590, 55440.00
532.6380, 57185.00
533.8160, 58289.00
534.9940, 58409.00
536.1720, 56983.00
537.3500, 54733.00
538.5270, 51669.00
539.7050, 47902.00
540.8820, 44087.00
542.0590, 40770.00
543.2360, 37376.00
544.4130, 34669.00
545.5900, 32174.00
546.7660, 30278.00
547.9430, 28459.00
549.1190, 27165.00
550.2950, 25758.00
551.4710, 24821.00
552.6470, 24009.00
553.8220, 23089.00
554.9980, 22564.00
556.1730, 22054.00
557.3480, 21675.00
558.5230, 21331.00
559.6980, 21004.00
560.8730, 20745.00
562.0470, 20304.00
563.2220, 20143.00
564.3960, 20097.00
565.5700, 19758.00
566.7440, 19674.00
567.9170, 19613.00
569.0910, 19518.00
570.2640, 19358.00
571.4380, 19308.17
572.6110, 19202.55
573.7840, 19172.00
574.9570, 19024.00
576.1290, 18999.00
577.3020, 18873.00
578.4740, 18872.00
579.6460, 18765.00
580.8180, 18794.00
581.9900, 18672.00
583.1620, 18632.00
584.3330, 18497.00
585.5040, 18570.00
586.6760, 18569.00
587.8470, 18620.00
589.0180, 18473.00
590.1880, 18554.00
591.3590, 18634.00
592.5290, 18431.00
593.7000, 18422.00
594.8700, 18468.00
596.0400, 18466.00
597.2090, 18453.00
598.3790, 18556.00
599.5490, 18536.00
600.7180, 18456.00
601.8870, 18534.00
603.0560, 18345.00
604.2250, 18540.00
605.3940, 18328.00
606.5620, 18432.00
607.7300, 18305.00
608.8990, 18344.00
610.0670, 18501.00
611.2350, 18546.00
612.4020, 18470.00
613.5700, 18488.00
614.7370, 18511.33
615.9050, 18519.00
617.0720, 18592.00
618.2390, 18586.00
619.4060, 18666.00
620.5720, 18796.00
621.7390, 18763.00
622.9050, 18838.00
624.0710, 18904.00
625.2370, 18845.00
626.4030, 18931.00
627.5690, 19023.00
628.7340, 18800.00
629.9000, 18878.00
631.0650, 18947.00
632.2300, 18806.00
633.3950, 18691.00
634.5600, 18862.00
635.7240, 18895.00
636.8890, 18785.00
638.0530, 18847.00
639.2170, 18909.00
640.3810, 18803.00
641.5450, 18989.00
642.7080, 19002.00
643.8720, 18971.00
645.0350, 19068.00
646.1980, 18994.00
647.3610, 19077.00
648.5240, 19020.00
649.6870, 19134.00
650.8490, 19153.00
652.0120, 19283.00
653.1740, 19185.00
654.3360, 19107.00
655.4980, 19020.00
656.6600, 18883.00
657.8210, 19092.00
658.9830, 19120.00
660.1440, 18987.00
661.3050, 19083.00
662.4660, 18874.00
663.6270, 19004.00
664.7870, 19077.00
665.9480, 18943.00
667.1080, 19090.00
668.2680, 19265.00
669.4280, 19109.00
670.5880, 19144.00
671.7480, 19317.00
672.9070, 19118.00
674.0670, 19429.00
675.2260, 19330.00
676.3850, 19341.00
677.5440, 19255.00
678.7030, 19358.00
679.8610, 19271.00
681.0200, 19462.00
682.1780, 19469.00
683.3360, 19443.00
684.4940, 19527.00
685.6520, 19492.00
686.8090, 19609.00
687.9670, 19615.00
689.1240, 19652.19
690.2810, 19550.00
691.4380, 19761.00
692.5950, 19711.00
693.7520, 19834.00
694.9080, 20081.00
696.0650, 20087.00
697.2210, 20089.00
698.3770, 20113.00
699.5330, 20248.00
700.6880, 20190.00
701.8440, 20289.00
702.9990, 20286.00
704.1550, 20249.00
705.3100, 20315.00
706.4650, 20353.00
707.6190, 20381.00
708.7740, 20490.00
709.9290, 20460.00
711.0830, 20568.00
712.2370, 20650.00
713.3910, 20635.00
714.5450, 20660.00
715.6980, 20634.00
716.8520, 20656.00
718.0050, 20710.09
719.1580, 20624.00
720.3110, 20849.00
721.4640, 20730.00
722.6170, 20803.00
723.7700, 20730.00
724.9220, 20823.00
726.0740, 20680.00
727.2260, 20837.00
728.3780, 20692.00
729.5300, 20705.00
730.6810, 20771.00
731.8330, 20865.00
732.9840, 20816.00
734.1350, 20812.00
735.2860, 20691.00
736.4370, 20553.00
737.5880, 20823.00
738.7380, 20358.00
739.8880, 20699.00
741.0390, 20635.00
742.1890, 20675.00
743.3380, 20577.00
744.4880, 20462.00
745.6380, 20683.00
746.7870, 20619.00
747.9360, 20566.00
749.0850, 20541.00
750.2340, 20691.00
751.3830, 20641.00
752.5310, 20592.00
753.6800, 20816.00
754.8280, 20731.00
755.9760, 20823.00
757.1240, 20620.00
758.2720, 20552.00
759.4190, 20387.00
760.5670, 20590.00
761.7140, 20776.00
762.8610, 20587.00
764.0080, 20714.00
765.1550, 20646.00
766.3020, 20732.00
767.4480, 20737.00
768.5950, 20868.00
769.7410, 20863.00
770.8870, 20759.00
772.0330, 20999.00
773.1780, 20737.00
774.3240, 20938.00
775.4690, 20995.00
776.6140, 20903.00
777.7590, 21155.00
778.9040, 21128.00
780.0490, 20988.00
781.1940, 20915.00
782.3380, 20985.00
783.4820, 21180.00
784.6260, 20988.00
785.7700, 21249.00
786.9140, 20967.00
788.0580, 21044.00
789.2010, 21283.00
790.3450, 21020.00
791.4880, 20885.00
792.6310, 21107.00
793.7730, 21016.00
794.9160, 21163.00
796.0590, 21362.00
797.2010, 21312.00
798.3430, 21108.00
799.4850, 21076.00
800.6270, 21164.00
801.7690, 21272.00
802.9100, 21294.00
804.0520, 21259.00
805.1930, 21272.00
806.3340, 21179.00
807.4750, 21196.00
808.6160, 21210.00
809.7560, 21147.00
810.8970, 21292.00
812.0370, 21321.00
813.1770, 21317.00
814.3170, 21401.43
815.4570, 21317.00
816.5960, 21386.00
817.7360, 21409.00
818.8750, 21193.00
820.0140, 21255.00
821.1530, 21627.00
822.2920, 21536.00
823.4310, 21413.00
824.5690, 21586.00
825.7070, 21524.00
826.8460, 21486.00
827.9840, 21528.00
829.1220, 21606.00
830.2590, 21582.85
831.3970, 21768.00
832.5340, 21602.00
833.6710, 21673.00
834.8080, 21692.00
835.9450, 21843.00
837.0820, 21675.00
838.2190, 21694.00
839.3550, 21687.00
840.4910, 21814.00
841.6270, 21791.00
842.7630, 21887.00
843.8990, 21844.00
845.0350, 21900.00
846.1700, 21848.00
847.3060, 22046.00
848.4410, 22104.00
849.5760, 22032.00
850.7100, 21760.00
851.8450, 21920.00
852.9800, 21940.00
854.1140, 22024.00
855.2480, 21973.00
856.3820, 22103.73
857.5160, 22351.00
858.6500, 22359.00
859.7830, 22342.00
860.9170, 22543.00
862.0500, 22227.00
863.1830, 22267.00
864.3160, 22417.00
865.4480, 22324.00
866.5810, 22222.00
867.7130, 22170.00
868.8460, 22387.00
869.9780, 22336.00
871.1100, 22373.00
872.2410, 22351.00
873.3730, 22444.00
874.5050, 22555.00
875.6360, 22347.00
876.7670, 22423.00
877.8980, 22452.00
879.0290, 22315.00
880.1590, 22451.00
881.2900, 22477.00
882.4200, 22364.00
883.5500, 22558.00
884.6800, 22684.00
885.8100, 22572.00
886.9400, 22457.00
888.0690, 22526.00
889.1990, 22526.00
890.3280, 22460.00
891.4570, 22561.00
892.5860, 22722.00
893.7140, 22843.00
894.8430, 22729.00
895.9710, 22527.00
897.1000, 22792.00
898.2280, 22630.00
899.3560, 22761.00
900.4830, 22907.00
901.6110, 23025.00
902.7380, 22766.00
903.8660, 22824.00
904.9930, 22903.00
906.1200, 22990.00
907.2460, 22962.00
908.3730, 22923.00
909.5000, 23288.00
910.6260, 23039.00
911.7520, 23159.00
912.8780, 23217.00
914.0040, 23086.00
915.1290, 23299.00
916.2550, 23246.00
917.3800, 23372.00
918.5050, 23254.00
919.6300, 23463.00
920.7550, 23229.00
921.8800, 23661.00
923.0040, 23711.00
924.1290, 23922.00
925.2530, 23780.00
926.3770, 24186.00
927.5010, 24015.00
928.6250, 24052.00
929.7480, 24112.00
930.8720, 24252.00
931.9950, 24380.00
933.1180, 24426.00
934.2410, 24339.00
935.3640, 24614.00
936.4860, 24550.00
937.6090, 24531.00
938.7310, 24670.00
939.8530, 24765.00
940.9750, 24660.00
942.0970, 24838.00
943.2180, 24601.00
944.3400, 24691.00
945.4610, 24973.00
946.5820, 24911.00
947.7030, 25011.00
948.8240, 25045.00
949.9450, 24970.00
951.0650, 25230.00
952.1860, 25132.00
953.3060, 25319.00
954.4260, 25569.00
955.5460, 25506.00
956.6650, 25678.00
957.7850, 25620.00
958.9040, 26108.00
960.0230, 25903.00
961.1420, 26133.00
962.2610, 26171.00
963.3800, 26319.00
964.4990, 26485.00
965.6170, 26376.00
966.7350, 26476.00
967.8530, 26544.00
968.9710, 26720.00
970.0890, 26664.00
971.2070, 26573.00
972.3240, 26870.00
973.4410, 26814.00
974.5580, 26895.00
975.6750, 27225.00
976.7920, 27227.00
977.9090, 27699.00
979.0250, 27703.00
980.1410, 28177.00
981.2580, 28504.00
982.3740, 28901.00
983.4890, 29149.00
984.6050, 29347.74
985.7200, 29745.00
986.8360, 29656.00
987.9510, 29837.00
989.0660, 30047.00
990.1810, 29873.00
991.2950, 29821.00
992.4100, 29366.00
993.5240, 29381.00
994.6390, 28949.00
995.7530, 28831.00
996.8660, 28602.00
997.9800, 28385.00
999.0940, 28415.00
1000.207, 28169.00
1001.320, 27960.00
1002.433, 27627.00
1003.546, 27535.00
1004.659, 27242.00
1005.772, 27014.00
1006.884, 26954.00
1007.996, 26970.00
1009.108, 26803.00
1010.220, 26933.00
1011.332, 26949.00
1012.444, 26601.00
1013.555, 26755.00
1014.666, 26750.00
1015.777, 26605.00
1016.888, 27066.00
1017.999, 26990.00
1019.110, 26897.00
1020.220, 26760.00
1021.331, 26880.00
1022.441, 26801.00
1023.551, 26902.00
1024.661, 26627.00
1025.770, 26482.00
1026.880, 26761.00
1027.989, 26332.00
1029.098, 26425.00
1030.207, 26451.00
1031.316, 26287.00
1032.425, 26476.00
1033.533, 26421.00
1034.642, 26264.00
1035.750, 26365.00
1036.858, 26278.00
1037.966, 26249.00
1039.073, 26542.00
1040.181, 26409.00
1041.288, 26594.00
1042.396, 26609.00
1043.503, 26670.00
1044.610, 26585.00
1045.716, 26809.00
1046.823, 26891.00
1047.929, 27238.00
1049.036, 27203.00
1050.142, 27374.00
1051.248, 27489.00
1052.353, 27576.23
1053.459, 27800.00
1054.564, 27893.00
1055.670, 28040.00
1056.775, 28345.00
1057.880, 28510.66
1058.985, 28737.70
1060.089, 29002.00
1061.194, 29179.00
1062.298, 29424.00
1063.402, 29657.00
1064.506, 29774.00
1065.610, 29862.00
1066.713, 29893.88
1067.817, 29787.00
1068.920, 29831.00
1070.023, 29684.00
1071.126, 29629.00
1072.229, 29465.00
1073.332, 29382.00
1074.435, 29165.00
1075.537, 29132.00
1076.639, 29158.00
1077.741, 28902.00
1078.843, 28769.00
1079.945, 28919.00
1081.046, 28485.00
1082.148, 28487.00
1083.249, 28189.00
1084.350, 28190.00
1085.451, 27959.00
1086.551, 27636.00
1087.652, 27658.00
1088.752, 27587.00
1089.853, 27593.00
1090.953, 27225.00
1092.053, 27119.00
1093.152, 26957.00
1094.252, 26946.00
1095.351, 27006.00
1096.451, 26894.00
1097.550, 26756.00
1098.649, 26788.00
1099.748, 26666.00
1100.846, 26691.00
1101.945, 27038.00
1103.043, 26727.00
1104.141, 26922.00
1105.239, 26740.00
1106.337, 26609.00
1107.434, 26800.00
1108.532, 26648.00
1109.629, 26586.00
1110.726, 26596.00
1111.823, 26658.00
1112.920, 26517.00
1114.017, 26545.17
1115.113, 26748.00
1116.210, 26531.00
1117.306, 26702.00
1118.402, 26827.00
1119.498, 26961.00
1120.593, 26896.00
1121.689, 27071.00
1122.784, 26630.00
1123.879, 26756.00
1124.974, 26769.00
1126.069, 26935.00
1127.164, 26787.00
1128.259, 26791.00
1129.353, 26709.00
1130.447, 26617.00
1131.541, 26785.00
1132.635, 26685.00
1133.729, 26700.00
1134.822, 26975.00
1135.916, 26894.00
1137.009, 26866.00
1138.102, 26768.00
1139.195, 26650.00
1140.288, 26706.00
1141.380, 26687.00
1142.473, 26617.00
1143.565, 26961.00
1144.657, 26918.00
1145.749, 26910.00
1146.841, 26984.00
1147.932, 26835.00
1149.024, 26814.00
1150.115, 26895.00
1151.206, 26833.00
1152.297, 26856.00
1153.388, 26906.00
1154.479, 26985.00
1155.569, 26920.00
1156.659, 27185.00
1157.750, 26838.00
1158.839, 26866.00
1159.929, 27182.00
1161.019, 26945.00
1162.108, 26844.00
1163.198, 27139.00
1164.287, 26919.00
1165.376, 27019.00
1166.465, 27122.00
1167.553, 27381.00
1168.642, 27131.00
1169.730, 27150.00
1170.818, 27219.00
1171.906, 27364.00
1172.994, 27196.00
1174.082, 27407.00
1175.170, 27270.00
1176.257, 27246.00
1177.344, 27432.00
1178.431, 27308.00
1179.518, 27197.00
1180.605, 27232.00
1181.691, 27304.00
1182.778, 27405.00
1183.864, 27301.00
1184.950, 27306.00
1186.036, 27333.84
1187.122, 27243.00
1188.207, 27353.00
1189.292, 27586.00
1190.378, 27584.00
1191.463, 27687.51
1192.548, 27702.04
1193.632, 27749.00
1194.717, 27611.00
1195.801, 27582.00
1196.886, 27438.00
1197.970, 27455.49
1199.054, 27824.00
1200.137, 27532.00
1201.221, 27708.00
1202.305, 27850.00
1203.388, 27691.00
1204.471, 27744.00
1205.554, 27777.00
1206.637, 27903.00
1207.719, 27706.00
1208.802, 28028.00
1209.884, 27950.00
1210.966, 27732.00
1212.048, 27835.00
1213.130, 27826.00
1214.212, 27965.00
1215.293, 28010.00
1216.374, 27935.00
1217.456, 27973.00
1218.536, 28086.00
1219.617, 27875.00
1220.698, 28290.00
1221.778, 28085.00
1222.859, 28199.00
1223.939, 27996.00
1225.019, 28067.00
1226.099, 28057.00
1227.178, 28014.00
1228.258, 28111.00
1229.337, 28388.00
1230.417, 28210.00
1231.496, 28388.00
1232.574, 28350.00
1233.653, 28118.00
1234.732, 28501.00
1235.810, 28441.00
1236.888, 28465.00
1237.966, 28557.00
1239.044, 28407.00
1240.122, 28440.00
1241.199, 28590.00
1242.277, 28412.00
1243.354, 28589.00
1244.431, 28660.00
1245.508, 28458.00
1246.585, 28473.00
1247.661, 28613.00
1248.738, 28330.00
1249.814, 28587.00
1250.890, 28756.00
1251.966, 28605.00
1253.042, 28566.00
1254.117, 28572.00
1255.193, 28817.00
1256.268, 28517.00
1257.343, 28661.00
1258.418, 28923.00
1259.493, 28801.00
1260.567, 28652.00
1261.642, 28883.00
1262.716, 28943.00
1263.790, 28851.00
1264.864, 28947.00
1265.938, 28916.00
1267.011, 28914.00
1268.085, 29018.00
1269.158, 29072.00
1270.231, 29106.18
1271.304, 29138.53
1272.377, 29159.00
1273.450, 29144.00
