##NAMES=Thomsonite-Ca
##RRUFFID=R050103
##IDEAL CHEMISTRY=NaCa_2_(Al_5_Si_5_)O_20_&#183;6H_2_O
##LOCALITY=Seeberg, Bohemia, Czech Republic
##OWNER=RRUFF
##SOURCE=Rock Currier
##DESCRIPTION=Colorless prismatic crystals
##STATUS=The identification of this mineral has been confirmed by X-ray diffraction and chemical analysis
##URL=rruff.info/R050103
##MEASURED CHEMISTRY=Na_1.00_(Ca_0.92_Sr_0.08_)_2_(Al_5.00_Si_5.00_)O_20_Â·6H_2_O
##PIN_ID=L00246
##ORIENTATION=Laser parallel to c* (0 0 1). Fiducial mark perpendicular to laser is parallel to -a [-1 0 0]
93.48000, 15801.00
94.71400, 16323.00
95.94800, 17026.00
97.18200, 17691.00
98.41600, 18531.00
99.64900, 19135.00
100.8830, 19884.00
102.1160, 20429.00
103.3490, 20953.00
104.5820, 21743.00
105.8150, 22216.66
107.0470, 22661.01
108.2800, 23366.00
109.5120, 23724.00
110.7440, 24350.00
111.9760, 25585.00
113.2080, 26814.00
114.4400, 27386.00
115.6710, 27505.00
116.9030, 27390.00
118.1340, 26439.00
119.3650, 25922.00
120.5960, 24909.00
121.8270, 23978.00
123.0580, 22764.00
124.2880, 21690.00
125.5190, 20917.04
126.7490, 20001.41
127.9790, 19356.00
129.2090, 18642.00
130.4390, 17776.00
131.6680, 17333.00
132.8980, 16797.00
134.1270, 16504.00
135.3560, 16314.00
136.5850, 16103.00
137.8140, 16134.00
139.0430, 16098.00
140.2710, 16114.00
141.5000, 16275.00
142.7280, 16356.00
143.9560, 16568.00
145.1840, 16642.00
146.4120, 16793.00
147.6390, 16891.00
148.8670, 17113.00
150.0940, 16891.00
151.3210, 16921.00
152.5490, 16754.00
153.7750, 16471.00
155.0020, 16558.00
156.2290, 16442.00
157.4550, 16484.00
158.6810, 16571.00
159.9080, 16898.00
161.1340, 16994.00
162.3590, 17546.00
163.5850, 17853.00
164.8110, 18290.00
166.0360, 18985.00
167.2610, 19736.00
168.4860, 20503.00
169.7110, 21315.00
170.9360, 22851.00
172.1610, 24135.00
173.3850, 25852.00
174.6100, 27660.00
175.8340, 30100.00
177.0580, 32691.00
178.2820, 34484.00
179.5050, 35653.00
180.7290, 35638.00
181.9520, 33983.00
183.1760, 32021.00
184.3990, 29799.00
185.6220, 27223.00
186.8450, 25464.00
188.0670, 23901.00
189.2900, 22663.00
190.5120, 21712.00
191.7340, 20883.00
192.9560, 20589.00
194.1780, 20315.00
195.4000, 20057.00
196.6220, 19729.00
197.8430, 19305.00
199.0640, 18991.00
200.2860, 18423.64
201.5070, 17887.16
202.7270, 17253.00
203.9480, 16888.00
205.1690, 16620.82
206.3890, 16468.11
207.6090, 16454.00
208.8290, 16661.00
210.0490, 16909.00
211.2690, 17439.00
212.4890, 17779.00
213.7080, 18568.00
214.9280, 19443.00
216.1470, 20318.00
217.3660, 21449.00
218.5850, 22352.00
219.8030, 23309.00
221.0220, 23561.00
222.2400, 23511.00
223.4590, 22966.00
224.6770, 22574.00
225.8950, 22146.00
227.1120, 21805.00
228.3300, 21963.00
229.5480, 22004.00
230.7650, 21476.00
231.9820, 20417.00
233.1990, 19112.00
234.4160, 17637.00
235.6330, 16459.00
236.8490, 15721.00
238.0660, 14971.00
239.2820, 14572.00
240.4980, 14188.00
241.7140, 13831.00
242.9300, 13789.00
244.1460, 13696.00
245.3610, 13555.00
246.5770, 13684.00
247.7920, 13612.00
249.0070, 13740.00
250.2220, 13674.00
251.4370, 13841.00
252.6510, 14143.00
253.8660, 14527.00
255.0800, 14936.00
256.2940, 15858.00
257.5080, 16315.00
258.7220, 15925.00
259.9360, 15304.00
261.1490, 15037.00
262.3630, 14580.00
263.5760, 14271.00
264.7890, 13908.00
266.0020, 13700.00
267.2150, 13846.00
268.4270, 13551.00
269.6400, 13621.00
270.8520, 13402.00
272.0640, 13386.00
273.2760, 13328.00
274.4880, 13475.00
275.7000, 13345.00
276.9120, 13395.00
278.1230, 13478.00
279.3340, 13430.00
280.5450, 13601.00
281.7560, 13628.00
282.9670, 13588.00
284.1780, 13655.00
285.3880, 13732.00
286.5980, 13701.00
287.8090, 13723.00
289.0190, 13632.00
290.2290, 13524.00
291.4380, 13594.00
292.6480, 13575.00
293.8570, 13654.00
295.0670, 13590.00
296.2760, 13734.00
297.4850, 13938.00
298.6930, 13985.00
299.9020, 14028.00
301.1110, 13963.00
302.3190, 13989.00
303.5270, 14007.00
304.7350, 13945.00
305.9430, 13910.00
307.1510, 13932.00
308.3580, 13731.00
309.5660, 13761.00
310.7730, 13792.00
311.9800, 13482.00
313.1870, 13732.00
314.3940, 13627.00
315.6010, 13661.00
316.8070, 13616.00
318.0130, 13653.00
319.2200, 13858.00
320.4260, 13804.00
321.6310, 14037.00
322.8370, 13972.00
324.0430, 14120.00
325.2480, 14307.00
326.4540, 14299.00
327.6590, 14426.00
328.8640, 14380.00
330.0680, 14452.00
331.2730, 14636.00
332.4780, 14705.00
333.6820, 14922.00
334.8860, 15038.00
336.0900, 15317.00
337.2940, 15476.00
338.4980, 15900.00
339.7010, 15886.00
340.9050, 16230.00
342.1080, 16459.00
343.3110, 16369.00
344.5140, 16451.00
345.7170, 16298.00
346.9200, 16447.00
348.1220, 16573.00
349.3240, 16497.00
350.5270, 16379.00
351.7290, 16299.00
352.9310, 16155.00
354.1320, 16043.00
355.3340, 16125.00
356.5350, 16210.00
357.7370, 16112.00
358.9380, 15925.00
360.1390, 16366.00
361.3400, 16364.00
362.5400, 16342.00
363.7410, 16131.00
364.9410, 15849.00
366.1410, 15878.00
367.3410, 15407.00
368.5410, 15179.00
369.7410, 15098.00
370.9400, 15102.00
372.1400, 15154.00
373.3390, 14966.00
374.5380, 15189.00
375.7370, 15412.00
376.9360, 15488.00
378.1350, 15393.00
379.3330, 15281.00
380.5310, 15130.00
381.7300, 15026.64
382.9280, 14951.00
384.1260, 14811.00
385.3230, 14731.74
386.5210, 14579.53
387.7180, 14551.00
388.9160, 14535.00
390.1130, 14468.00
391.3100, 14496.00
392.5060, 14590.00
393.7030, 14728.00
394.9000, 14618.00
396.0960, 14676.00
397.2920, 14621.00
398.4880, 14699.00
399.6840, 14574.00
400.8800, 14667.00
402.0750, 14700.00
403.2710, 14622.00
404.4660, 14638.00
405.6610, 14758.00
406.8560, 14677.00
408.0510, 14821.00
409.2450, 14666.00
410.4400, 14969.00
411.6340, 14952.00
412.8280, 14966.00
414.0220, 15289.00
415.2160, 15391.00
416.4100, 15534.00
417.6030, 15627.00
418.7970, 15735.00
419.9900, 16007.39
421.1830, 16456.00
422.3760, 16654.00
423.5690, 17001.00
424.7610, 17498.00
425.9540, 17868.00
427.1460, 18443.00
428.3380, 19123.00
429.5300, 19493.00
430.7220, 20219.00
431.9140, 20847.00
433.1050, 21436.00
434.2970, 22221.00
435.4880, 23319.00
436.6790, 24345.00
437.8700, 25371.00
439.0610, 26162.00
440.2510, 26694.00
441.4420, 26967.00
442.6320, 26624.00
443.8220, 26246.00
445.0120, 25323.00
446.2020, 24511.00
447.3910, 23307.00
448.5810, 22544.00
449.7700, 21404.00
450.9600, 20903.00
452.1490, 20373.00
453.3370, 20006.00
454.5260, 19741.00
455.7150, 19449.00
456.9030, 19566.00
458.0910, 19294.00
459.2800, 19543.00
460.4670, 19771.00
461.6550, 20374.00
462.8430, 20857.00
464.0300, 21894.00
465.2180, 22844.00
466.4050, 24199.00
467.5920, 25815.00
468.7790, 27479.00
469.9650, 29756.00
471.1520, 31326.00
472.3380, 32569.00
473.5250, 32865.00
474.7110, 31508.00
475.8970, 29879.00
477.0820, 27841.00
478.2680, 26017.00
479.4540, 24616.00
480.6390, 23539.00
481.8240, 22743.00
483.0090, 22538.00
484.1940, 22258.00
485.3780, 22042.00
486.5630, 21980.00
487.7470, 21807.00
488.9320, 22021.00
490.1160, 22340.00
491.3000, 22421.00
492.4830, 22419.00
493.6670, 22837.00
494.8500, 22870.00
496.0340, 22465.00
497.2170, 22069.00
498.4000, 21657.00
499.5820, 21206.00
500.7650, 20672.00
501.9480, 20300.00
503.1300, 19890.00
504.3120, 19475.00
505.4940, 19354.00
506.6760, 19354.00
507.8580, 19109.00
509.0390, 19164.00
510.2210, 19257.00
511.4020, 19391.00
512.5830, 19623.00
513.7640, 19852.00
514.9450, 20280.10
516.1250, 20648.00
517.3060, 21334.00
518.4860, 22022.00
519.6660, 22748.00
520.8460, 23668.00
522.0260, 24953.00
523.2060, 26601.00
524.3850, 28571.00
525.5650, 30959.00
526.7440, 33789.00
527.9230, 37447.00
529.1020, 41396.00
530.2810, 45756.00
531.4590, 50324.00
532.6380, 55205.00
533.8160, 58634.00
534.9940, 60907.00
536.1720, 61465.00
537.3500, 60790.00
538.5270, 57707.00
539.7050, 54458.00
540.8820, 50882.00
542.0590, 46688.00
543.2360, 42863.00
544.4130, 39725.00
545.5900, 36464.00
546.7660, 34116.00
547.9430, 32069.00
549.1190, 30048.00
550.2950, 28524.00
551.4710, 27113.00
552.6470, 25880.00
553.8220, 24982.00
554.9980, 24088.00
556.1730, 23294.00
557.3480, 22852.00
558.5230, 22387.00
559.6980, 21776.00
560.8730, 21456.00
562.0470, 21433.00
563.2220, 20992.00
564.3960, 20888.00
565.5700, 20504.00
566.7440, 20338.00
567.9170, 19932.00
569.0910, 20017.00
570.2640, 19790.00
571.4380, 19775.00
572.6110, 19549.00
573.7840, 19582.00
574.9570, 19597.00
576.1290, 19136.00
577.3020, 19378.00
578.4740, 19163.00
579.6460, 19142.00
580.8180, 18902.00
581.9900, 18780.00
583.1620, 18870.00
584.3330, 18985.00
585.5040, 18641.00
586.6760, 18694.00
587.8470, 18722.00
589.0180, 18746.00
590.1880, 18676.00
591.3590, 18862.00
592.5290, 18714.00
593.7000, 18827.00
594.8700, 18888.00
596.0400, 18873.00
597.2090, 19123.00
598.3790, 19261.00
599.5490, 19205.00
600.7180, 19651.00
601.8870, 19678.00
603.0560, 20067.00
604.2250, 20020.00
605.3940, 20053.00
606.5620, 19963.00
607.7300, 19972.00
608.8990, 19773.00
610.0670, 19744.00
611.2350, 19475.00
612.4020, 19123.00
613.5700, 19299.00
614.7370, 19079.00
615.9050, 18884.00
617.0720, 19020.00
618.2390, 18824.00
619.4060, 18854.00
620.5720, 18783.00
621.7390, 18966.00
622.9050, 19012.00
624.0710, 18724.00
625.2370, 19067.00
626.4030, 18739.00
627.5690, 18819.00
628.7340, 18689.00
629.9000, 18753.00
631.0650, 18835.00
632.2300, 18752.00
633.3950, 18719.00
634.5600, 18855.00
635.7240, 18946.00
636.8890, 18836.00
638.0530, 18801.00
639.2170, 18713.00
640.3810, 18753.00
641.5450, 18953.00
642.7080, 19141.00
643.8720, 18903.00
645.0350, 18891.00
646.1980, 18920.00
647.3610, 18826.00
648.5240, 19090.00
649.6870, 19000.00
650.8490, 18853.00
652.0120, 19040.00
653.1740, 19237.00
654.3360, 18988.00
655.4980, 19014.00
656.6600, 19129.00
657.8210, 18809.00
658.9830, 19102.00
660.1440, 19079.00
661.3050, 19236.00
662.4660, 19171.00
663.6270, 19137.00
664.7870, 18975.00
665.9480, 19230.00
667.1080, 19269.00
668.2680, 19330.00
669.4280, 19636.00
670.5880, 19372.00
671.7480, 19328.00
672.9070, 19537.00
674.0670, 19582.00
675.2260, 19425.00
676.3850, 19444.00
677.5440, 19586.00
678.7030, 19559.00
679.8610, 19781.00
681.0200, 19682.00
682.1780, 19686.00
683.3360, 19846.00
684.4940, 19996.00
685.6520, 19903.00
686.8090, 19973.00
687.9670, 20125.00
689.1240, 20245.00
690.2810, 20293.00
691.4380, 20489.00
692.5950, 20442.00
693.7520, 20639.00
694.9080, 20781.00
696.0650, 20708.00
697.2210, 20880.00
698.3770, 20865.00
699.5330, 20831.00
700.6880, 21026.00
701.8440, 20955.00
702.9990, 20833.00
704.1550, 20771.00
705.3100, 20800.00
706.4650, 20707.00
707.6190, 20823.00
708.7740, 21000.00
709.9290, 20753.00
711.0830, 20864.00
712.2370, 20872.00
713.3910, 20781.00
714.5450, 20804.00
715.6980, 20856.00
716.8520, 20884.00
718.0050, 20882.89
719.1580, 20877.33
720.3110, 20852.00
721.4640, 20791.00
722.6170, 20735.00
723.7700, 20627.00
724.9220, 20606.00
726.0740, 20465.00
727.2260, 20412.00
728.3780, 20676.00
729.5300, 20481.00
730.6810, 20548.00
731.8330, 20407.00
732.9840, 20338.00
734.1350, 20303.00
735.2860, 20190.38
736.4370, 20070.00
737.5880, 20053.00
738.7380, 20121.00
739.8880, 20120.00
741.0390, 20025.00
742.1890, 19909.00
743.3380, 20029.00
744.4880, 20031.00
745.6380, 20114.00
746.7870, 19993.00
747.9360, 19889.00
749.0850, 19871.00
750.2340, 20026.00
751.3830, 19996.00
752.5310, 19901.00
753.6800, 19760.00
754.8280, 19933.00
755.9760, 20047.00
757.1240, 19932.00
758.2720, 19757.00
759.4190, 20047.00
760.5670, 20058.00
761.7140, 20101.00
762.8610, 20231.00
764.0080, 20256.00
765.1550, 20206.00
766.3020, 20083.00
767.4480, 20231.00
768.5950, 20478.00
769.7410, 20435.00
770.8870, 20301.00
772.0330, 20632.00
773.1780, 20679.00
774.3240, 20675.00
775.4690, 20464.00
776.6140, 20271.00
777.7590, 20400.00
778.9040, 20519.00
780.0490, 20305.00
781.1940, 20320.00
782.3380, 20075.00
783.4820, 20150.00
784.6260, 20361.00
785.7700, 20166.00
786.9140, 20223.00
788.0580, 20069.00
789.2010, 19943.00
790.3450, 20046.00
791.4880, 20273.00
792.6310, 20134.00
793.7730, 20274.00
794.9160, 20086.00
796.0590, 20192.00
797.2010, 20186.00
798.3430, 20219.00
799.4850, 20256.24
800.6270, 20149.00
801.7690, 20273.00
802.9100, 20205.00
804.0520, 20157.00
805.1930, 20171.00
806.3340, 20238.00
807.4750, 20176.65
808.6160, 20078.00
809.7560, 20176.00
810.8970, 20153.00
812.0370, 20283.00
813.1770, 20078.00
814.3170, 20261.00
815.4570, 20154.00
816.5960, 20043.00
817.7360, 20286.00
818.8750, 20420.00
820.0140, 20165.00
821.1530, 20126.00
822.2920, 20116.00
823.4310, 20233.00
824.5690, 20303.00
825.7070, 20291.00
826.8460, 20459.00
827.9840, 20265.00
829.1220, 20421.00
830.2590, 20273.00
831.3970, 20319.00
832.5340, 20432.00
833.6710, 20453.00
834.8080, 20461.00
835.9450, 20283.00
837.0820, 20230.00
838.2190, 20459.00
839.3550, 20437.00
840.4910, 20687.00
841.6270, 20494.00
842.7630, 20577.00
843.8990, 20374.00
845.0350, 20712.00
846.1700, 20499.00
847.3060, 20574.00
848.4410, 20456.00
849.5760, 20504.00
850.7100, 20495.00
851.8450, 20683.00
852.9800, 20758.00
854.1140, 20829.00
855.2480, 20886.00
856.3820, 20872.00
857.5160, 20873.00
858.6500, 20869.00
859.7830, 20916.00
860.9170, 20863.00
862.0500, 20809.00
863.1830, 20973.00
864.3160, 20821.00
865.4480, 20995.00
866.5810, 21003.00
867.7130, 20690.00
868.8460, 20890.00
869.9780, 20728.00
871.1100, 20952.00
872.2410, 21056.00
873.3730, 20857.00
874.5050, 21010.00
875.6360, 20878.00
876.7670, 20933.00
877.8980, 20846.00
879.0290, 20934.00
880.1590, 20920.00
881.2900, 20956.00
882.4200, 21217.00
883.5500, 21083.00
884.6800, 21227.00
885.8100, 21198.00
886.9400, 21406.00
888.0690, 21038.00
889.1990, 21418.00
890.3280, 21218.00
891.4570, 21370.00
892.5860, 21406.00
893.7140, 21395.00
894.8430, 21558.00
895.9710, 21452.00
897.1000, 21562.00
898.2280, 21601.00
899.3560, 21677.00
900.4830, 21769.54
901.6110, 21845.65
902.7380, 21937.00
903.8660, 22007.00
904.9930, 22065.00
906.1200, 22083.00
907.2460, 22305.00
908.3730, 22528.00
909.5000, 22650.00
910.6260, 22691.00
911.7520, 22974.00
912.8780, 22994.00
914.0040, 23496.00
915.1290, 23352.00
916.2550, 23433.00
917.3800, 23769.00
918.5050, 23835.00
919.6300, 23936.00
920.7550, 23837.00
921.8800, 24282.00
923.0040, 24329.00
924.1290, 24413.00
925.2530, 24571.00
926.3770, 24745.00
927.5010, 24917.00
928.6250, 25193.00
929.7480, 25332.17
930.8720, 25487.40
931.9950, 25632.00
933.1180, 25702.00
934.2410, 25745.00
935.3640, 25774.00
936.4860, 25820.00
937.6090, 25883.00
938.7310, 25697.00
939.8530, 25654.00
940.9750, 25616.00
942.0970, 25345.00
943.2180, 25309.00
944.3400, 25178.00
945.4610, 25237.00
946.5820, 25069.00
947.7030, 25079.00
948.8240, 25125.00
949.9450, 25124.00
951.0650, 25129.00
952.1860, 25084.00
953.3060, 24910.00
954.4260, 24896.00
955.5460, 24984.00
956.6650, 24929.00
957.7850, 25041.00
958.9040, 25009.00
960.0230, 24899.00
961.1420, 25096.00
962.2610, 25036.00
963.3800, 25205.00
964.4990, 25032.00
965.6170, 24991.00
966.7350, 25027.00
967.8530, 25148.00
968.9710, 25104.00
970.0890, 25200.74
971.2070, 25299.00
972.3240, 25330.00
973.4410, 25470.00
974.5580, 25557.00
975.6750, 25613.00
976.7920, 25769.00
977.9090, 25999.00
979.0250, 26270.00
980.1410, 26470.00
981.2580, 26488.00
982.3740, 27096.00
983.4890, 27211.00
984.6050, 27483.00
985.7200, 27284.00
986.8360, 27482.00
987.9510, 27285.00
989.0660, 27516.00
990.1810, 27432.00
991.2950, 27258.00
992.4100, 27083.00
993.5240, 26893.00
994.6390, 26579.00
995.7530, 26432.00
996.8660, 26066.00
997.9800, 25931.00
999.0940, 25775.00
1000.207, 25652.00
1001.320, 25439.00
1002.433, 25219.00
1003.546, 25099.00
1004.659, 24897.00
1005.772, 24844.00
1006.884, 24720.00
1007.996, 24645.00
1009.108, 24580.00
1010.220, 24534.16
1011.332, 24475.00
1012.444, 24505.00
1013.555, 24487.00
1014.666, 24505.00
1015.777, 24410.00
1016.888, 24372.00
1017.999, 24243.00
1019.110, 24223.00
1020.220, 24146.00
1021.331, 24073.00
1022.441, 23888.00
1023.551, 23935.00
1024.661, 23837.33
1025.770, 23515.00
1026.880, 23718.00
1027.989, 23479.00
1029.098, 23310.00
1030.207, 23320.00
1031.316, 23267.00
1032.425, 23251.00
1033.533, 23351.00
1034.642, 23407.00
1035.750, 23242.00
1036.858, 23156.00
1037.966, 23252.00
1039.073, 23205.00
1040.181, 23245.00
1041.288, 23347.00
1042.396, 23450.00
1043.503, 23378.00
1044.610, 23520.00
1045.716, 23410.00
1046.823, 23629.00
1047.929, 23662.00
1049.036, 23680.00
1050.142, 23698.00
1051.248, 23896.00
1052.353, 23654.00
1053.459, 24049.00
1054.564, 23845.00
1055.670, 23959.00
1056.775, 24168.00
1057.880, 24007.00
1058.985, 24123.00
1060.089, 24398.00
1061.194, 24471.00
1062.298, 24551.00
1063.402, 24578.00
1064.506, 24670.70
1065.610, 24726.00
1066.713, 24763.00
1067.817, 24794.00
1068.920, 24704.00
1070.023, 24907.00
1071.126, 24766.00
1072.229, 24790.00
1073.332, 24981.00
1074.435, 24944.00
1075.537, 24994.00
1076.639, 24895.00
1077.741, 24967.00
1078.843, 25156.00
1079.945, 25153.00
1081.046, 25194.00
1082.148, 25181.00
1083.249, 24937.00
1084.350, 24824.00
1085.451, 24921.00
1086.551, 24786.06
1087.652, 24983.00
1088.752, 24774.00
1089.853, 24721.00
1090.953, 24756.00
1092.053, 24500.00
1093.152, 24305.00
1094.252, 24336.00
1095.351, 24419.00
1096.451, 24350.00
1097.550, 24231.00
1098.649, 24166.00
1099.748, 23932.00
1100.846, 23933.00
1101.945, 24020.00
1103.043, 24081.00
1104.141, 23900.00
1105.239, 23838.00
1106.337, 23953.00
1107.434, 23820.00
1108.532, 23838.00
1109.629, 23757.00
1110.726, 23866.00
1111.823, 23970.00
1112.920, 24018.02
1114.017, 24125.80
1115.113, 24245.00
1116.210, 24293.00
1117.306, 24452.00
1118.402, 24532.00
1119.498, 24710.00
1120.593, 24455.00
1121.689, 24785.00
1122.784, 24700.00
1123.879, 24805.00
1124.974, 24435.00
1126.069, 24268.00
1127.164, 24295.00
1128.259, 24138.00
1129.353, 23919.00
1130.447, 23974.00
1131.541, 24004.00
1132.635, 24128.00
1133.729, 24114.00
1134.822, 24078.00
1135.916, 23938.00
1137.009, 24150.00
1138.102, 23980.00
1139.195, 24154.00
1140.288, 23948.00
1141.380, 24164.00
1142.473, 24203.00
1143.565, 24237.00
1144.657, 24196.00
1145.749, 24129.00
1146.841, 24254.00
1147.932, 24169.00
1149.024, 24359.00
1150.115, 24410.00
1151.206, 24143.00
1152.297, 24141.00
1153.388, 24187.00
1154.479, 24320.00
1155.569, 24435.00
1156.659, 24372.00
1157.750, 24279.00
1158.839, 24409.00
1159.929, 24416.00
1161.019, 24411.08
1162.108, 24245.00
1163.198, 24422.00
1164.287, 24422.00
1165.376, 24421.00
1166.465, 24829.00
1167.553, 24521.00
1168.642, 24423.00
1169.730, 24737.00
1170.818, 24500.00
1171.906, 24519.00
1172.994, 24607.00
1174.082, 24617.00
1175.170, 24628.00
1176.257, 24693.00
1177.344, 24870.00
1178.431, 24939.00
1179.518, 24745.00
1180.605, 24684.00
1181.691, 24856.00
1182.778, 24518.00
1183.864, 24817.00
1184.950, 24967.00
1186.036, 25038.00
1187.122, 25025.00
1188.207, 24907.00
1189.292, 24841.00
1190.378, 25017.00
1191.463, 24943.00
1192.548, 25027.00
1193.632, 24994.00
1194.717, 24960.00
1195.801, 25023.00
1196.886, 25102.00
1197.970, 25015.00
1199.054, 24930.00
1200.137, 25298.00
1201.221, 25102.00
1202.305, 25241.00
1203.388, 25348.00
1204.471, 25195.00
1205.554, 25133.00
1206.637, 25259.00
1207.719, 25409.00
1208.802, 25286.00
1209.884, 25339.00
1210.966, 25402.00
1212.048, 25330.00
1213.130, 25568.00
1214.212, 25443.00
1215.293, 25370.00
1216.374, 25743.00
1217.456, 25522.00
1218.536, 25655.00
1219.617, 25700.00
1220.698, 25582.00
1221.778, 25684.00
1222.859, 25656.00
1223.939, 25802.00
1225.019, 25794.00
1226.099, 25786.00
1227.178, 25841.00
1228.258, 25798.00
1229.337, 25977.00
1230.417, 25851.00
1231.496, 26136.00
1232.574, 26017.00
1233.653, 26054.00
1234.732, 25904.00
1235.810, 25878.00
1236.888, 26073.00
1237.966, 26148.00
1239.044, 26125.00
1240.122, 26262.00
1241.199, 26162.00
1242.277, 26226.00
1243.354, 26051.00
1244.431, 26165.00
1245.508, 26235.00
1246.585, 26282.00
1247.661, 26332.00
1248.738, 26336.00
1249.814, 26413.00
1250.890, 26413.00
1251.966, 26238.00
1253.042, 26382.00
1254.117, 26484.00
1255.193, 26406.00
1256.268, 26737.00
1257.343, 26477.00
1258.418, 26501.00
1259.493, 26507.00
1260.567, 26675.00
1261.642, 26510.00
1262.716, 26678.00
1263.790, 26695.00
1264.864, 26777.00
1265.938, 26803.00
1267.011, 26700.00
1268.085, 26708.00
1269.158, 26791.00
1270.231, 26754.00
1271.304, 26895.00
1272.377, 26920.00
1273.450, 26729.00
