##NAMES=Thomsonite-Ca
##RRUFFID=R050103
##IDEAL CHEMISTRY=NaCa_2_(Al_5_Si_5_)O_20_&#183;6H_2_O
##LOCALITY=Seeberg, Bohemia, Czech Republic
##OWNER=RRUFF
##SOURCE=Rock Currier
##DESCRIPTION=Colorless prismatic crystals
##STATUS=The identification of this mineral has been confirmed by X-ray diffraction and chemical analysis
##URL=rruff.info/R050103
##MEASURED CHEMISTRY=Na_1.00_(Ca_0.92_Sr_0.08_)_2_(Al_5.00_Si_5.00_)O_20_Â·6H_2_O
##PIN_ID=M00072
##ORIENTATION=Laser parallel to a* (1 0 0). Fiducial mark perpendicular to laser is parallel to b [0 1 0]
93.48000, 18110.00
94.71400, 18811.00
95.94800, 19325.00
97.18200, 19846.00
98.41600, 20504.00
99.64900, 20785.00
100.8830, 20973.00
102.1160, 21471.00
103.3490, 21957.00
104.5820, 22418.00
105.8150, 23612.00
107.0470, 23898.33
108.2800, 25160.00
109.5120, 25150.00
110.7440, 25873.00
111.9760, 26938.00
113.2080, 28312.00
114.4400, 29750.00
115.6710, 30885.00
116.9030, 31091.00
118.1340, 29354.00
119.3650, 27907.00
120.5960, 26152.00
121.8270, 24864.00
123.0580, 24249.00
124.2880, 23019.00
125.5190, 22369.00
126.7490, 21616.00
127.9790, 21066.00
129.2090, 20860.00
130.4390, 20590.00
131.6680, 20459.00
132.8980, 20515.00
134.1270, 20710.00
135.3560, 20719.00
136.5850, 21053.00
137.8140, 21358.00
139.0430, 21875.00
140.2710, 22365.00
141.5000, 22811.00
142.7280, 23428.00
143.9560, 24206.00
145.1840, 24912.00
146.4120, 25809.00
147.6390, 26908.00
148.8670, 27871.00
150.0940, 28762.00
151.3210, 29733.00
152.5490, 30572.00
153.7750, 31532.00
155.0020, 32210.00
156.2290, 32625.00
157.4550, 33049.00
158.6810, 33207.00
159.9080, 32903.00
161.1340, 32797.00
162.3590, 32148.00
163.5850, 31685.00
164.8110, 31030.00
166.0360, 30129.00
167.2610, 29511.00
168.4860, 29041.00
169.7110, 28739.00
170.9360, 28706.00
172.1610, 28567.00
173.3850, 28436.00
174.6100, 28859.00
175.8340, 28930.00
177.0580, 28841.00
178.2820, 28606.16
179.5050, 27905.00
180.7290, 27445.00
181.9520, 26527.00
183.1760, 25348.00
184.3990, 24620.00
185.6220, 23729.00
186.8450, 23160.00
188.0670, 22570.00
189.2900, 22282.00
190.5120, 22202.00
191.7340, 21942.00
192.9560, 22157.00
194.1780, 22342.00
195.4000, 22132.00
196.6220, 22339.00
197.8430, 22295.00
199.0640, 22420.00
200.2860, 22185.00
201.5070, 21944.00
202.7270, 21540.00
203.9480, 21327.00
205.1690, 20924.00
206.3890, 20586.00
207.6090, 20236.00
208.8290, 19988.00
210.0490, 19736.00
211.2690, 19683.00
212.4890, 19565.00
213.7080, 19514.00
214.9280, 19563.00
216.1470, 19393.00
217.3660, 19388.00
218.5850, 19315.00
219.8030, 19210.00
221.0220, 19051.00
222.2400, 18930.00
223.4590, 18744.00
224.6770, 18381.00
225.8950, 18166.00
227.1120, 17838.00
228.3300, 17468.00
229.5480, 17353.00
230.7650, 17157.00
231.9820, 16965.00
233.1990, 16924.00
234.4160, 16876.00
235.6330, 16885.00
236.8490, 16937.00
238.0660, 17235.00
239.2820, 17423.00
240.4980, 17611.00
241.7140, 17647.00
242.9300, 17631.76
244.1460, 17417.00
245.3610, 17425.00
246.5770, 17207.00
247.7920, 17067.00
249.0070, 16884.00
250.2220, 16738.00
251.4370, 16687.00
252.6510, 16757.00
253.8660, 16662.00
255.0800, 16860.00
256.2940, 16844.00
257.5080, 16679.41
258.7220, 16769.00
259.9360, 16350.00
261.1490, 16357.00
262.3630, 16326.00
263.5760, 16432.00
264.7890, 16513.00
266.0020, 16565.00
267.2150, 16413.00
268.4270, 16258.00
269.6400, 16595.00
270.8520, 16517.00
272.0640, 16711.00
273.2760, 16701.00
274.4880, 17181.00
275.7000, 17167.00
276.9120, 17501.00
278.1230, 17571.00
279.3340, 17906.00
280.5450, 18238.00
281.7560, 18191.00
282.9670, 18791.00
284.1780, 19110.00
285.3880, 19322.00
286.5980, 19893.00
287.8090, 19831.00
289.0190, 20117.00
290.2290, 20379.00
291.4380, 20532.00
292.6480, 20503.00
293.8570, 20539.00
295.0670, 20549.00
296.2760, 20459.00
297.4850, 20425.00
298.6930, 20351.53
299.9020, 20378.00
301.1110, 20214.00
302.3190, 20196.00
303.5270, 20198.00
304.7350, 20008.00
305.9430, 19654.00
307.1510, 19714.00
308.3580, 19198.00
309.5660, 19097.00
310.7730, 18951.00
311.9800, 18708.00
313.1870, 18581.00
314.3940, 18472.00
315.6010, 18516.00
316.8070, 18496.61
318.0130, 18488.00
319.2200, 18647.00
320.4260, 18684.00
321.6310, 18846.00
322.8370, 19016.00
324.0430, 19015.00
325.2480, 19057.00
326.4540, 19197.00
327.6590, 19478.00
328.8640, 19568.00
330.0680, 19526.00
331.2730, 19940.00
332.4780, 20050.00
333.6820, 20145.00
334.8860, 20454.00
336.0900, 20623.00
337.2940, 20934.00
338.4980, 21151.00
339.7010, 21161.00
340.9050, 21504.00
342.1080, 21280.00
343.3110, 21501.00
344.5140, 21213.00
345.7170, 21190.00
346.9200, 20985.00
348.1220, 20595.00
349.3240, 20212.00
350.5270, 20071.00
351.7290, 19595.00
352.9310, 19110.00
354.1320, 19007.00
355.3340, 18611.00
356.5350, 18269.00
357.7370, 18019.00
358.9380, 17897.00
360.1390, 17762.00
361.3400, 17542.00
362.5400, 17563.00
363.7410, 17386.00
364.9410, 17364.00
366.1410, 17408.00
367.3410, 17344.00
368.5410, 17437.00
369.7410, 17612.00
370.9400, 17591.00
372.1400, 17687.00
373.3390, 17778.00
374.5380, 17803.25
375.7370, 17952.00
376.9360, 17952.00
378.1350, 18053.00
379.3330, 18221.00
380.5310, 18197.00
381.7300, 18459.00
382.9280, 18402.00
384.1260, 18297.00
385.3230, 18748.00
386.5210, 19101.00
387.7180, 19208.00
388.9160, 19468.00
390.1130, 19638.00
391.3100, 19746.00
392.5060, 19778.15
393.7030, 19758.55
394.9000, 19599.00
396.0960, 19507.00
397.2920, 19193.00
398.4880, 18871.00
399.6840, 18699.00
400.8800, 18528.00
402.0750, 18384.00
403.2710, 18254.01
404.4660, 18172.03
405.6610, 18129.76
406.8560, 18087.00
408.0510, 18156.00
409.2450, 18199.00
410.4400, 18309.99
411.6340, 18418.14
412.8280, 18598.00
414.0220, 18722.00
415.2160, 18921.00
416.4100, 19160.00
417.6030, 19320.34
418.7970, 19490.17
419.9900, 19689.00
421.1830, 19771.00
422.3760, 19899.00
423.5690, 20017.00
424.7610, 20402.00
425.9540, 20544.00
427.1460, 20750.00
428.3380, 21462.00
429.5300, 21520.00
430.7220, 22221.00
431.9140, 22788.00
433.1050, 23407.00
434.2970, 23968.64
435.4880, 25169.00
436.6790, 24994.00
437.8700, 25426.00
439.0610, 25832.00
440.2510, 25650.71
441.4420, 25526.43
442.6320, 25338.00
443.8220, 24626.00
445.0120, 24029.00
446.2020, 23423.00
447.3910, 22864.00
448.5810, 22347.00
449.7700, 21734.00
450.9600, 21599.00
452.1490, 21050.00
453.3370, 20806.00
454.5260, 20739.00
455.7150, 20514.00
456.9030, 20472.00
458.0910, 20591.00
459.2800, 20695.00
460.4670, 21054.00
461.6550, 21341.00
462.8430, 21827.00
464.0300, 22446.00
465.2180, 23133.00
466.4050, 23602.00
467.5920, 24486.00
468.7790, 24790.00
469.9650, 25379.00
471.1520, 25508.00
472.3380, 25521.00
473.5250, 25199.00
474.7110, 24647.00
475.8970, 24152.00
477.0820, 23442.00
478.2680, 22935.00
479.4540, 22635.00
480.6390, 22444.00
481.8240, 22106.00
483.0090, 22156.00
484.1940, 22077.00
485.3780, 22254.00
486.5630, 22338.00
487.7470, 22343.00
488.9320, 22730.00
490.1160, 22833.00
491.3000, 23085.00
492.4830, 22926.00
493.6670, 23013.00
494.8500, 22988.00
496.0340, 22639.00
497.2170, 22315.00
498.4000, 22195.00
499.5820, 22101.00
500.7650, 21677.00
501.9480, 21644.00
503.1300, 21338.00
504.3120, 21536.00
505.4940, 21539.00
506.6760, 21517.00
507.8580, 21607.00
509.0390, 21928.00
510.2210, 21923.00
511.4020, 22245.00
512.5830, 22537.00
513.7640, 23195.00
514.9450, 23729.00
516.1250, 24512.00
517.3060, 25181.00
518.4860, 26326.00
519.6660, 27613.00
520.8460, 28792.00
522.0260, 30527.00
523.2060, 32699.00
524.3850, 34985.00
525.5650, 37805.00
526.7440, 40587.00
527.9230, 43926.00
529.1020, 47021.00
530.2810, 50407.00
531.4590, 53003.00
532.6380, 55250.00
533.8160, 56404.00
534.9940, 56307.00
536.1720, 55768.00
537.3500, 53693.00
538.5270, 51015.00
539.7050, 48055.00
540.8820, 44555.00
542.0590, 42130.00
543.2360, 39213.00
544.4130, 36909.00
545.5900, 34448.00
546.7660, 32847.00
547.9430, 31009.00
549.1190, 29817.00
550.2950, 28494.00
551.4710, 27757.00
552.6470, 26959.00
553.8220, 26467.00
554.9980, 25680.00
556.1730, 25395.00
557.3480, 25053.00
558.5230, 24427.00
559.6980, 24440.00
560.8730, 23990.00
562.0470, 23902.00
563.2220, 23748.00
564.3960, 23733.00
565.5700, 23428.00
566.7440, 23589.00
567.9170, 23361.00
569.0910, 23366.00
570.2640, 23213.00
571.4380, 22951.00
572.6110, 23062.00
573.7840, 23058.00
574.9570, 22811.00
576.1290, 22763.00
577.3020, 22762.00
578.4740, 22899.00
579.6460, 22812.00
580.8180, 22687.00
581.9900, 22805.00
583.1620, 22723.00
584.3330, 22783.00
585.5040, 22852.00
586.6760, 22852.00
587.8470, 22607.00
589.0180, 22844.00
590.1880, 22750.00
591.3590, 22671.00
592.5290, 22951.00
593.7000, 22826.00
594.8700, 22811.00
596.0400, 22594.00
597.2090, 22766.00
598.3790, 23121.00
599.5490, 23024.00
600.7180, 23115.00
601.8870, 23139.00
603.0560, 23177.00
604.2250, 23160.00
605.3940, 23208.00
606.5620, 23216.12
607.7300, 23097.00
608.8990, 23173.00
610.0670, 23212.00
611.2350, 23027.00
612.4020, 23248.00
613.5700, 23152.00
614.7370, 23182.00
615.9050, 23260.00
617.0720, 23265.38
618.2390, 23446.00
619.4060, 23382.00
620.5720, 23499.00
621.7390, 23546.00
622.9050, 23876.00
624.0710, 23615.00
625.2370, 23838.00
626.4030, 23751.00
627.5690, 23721.00
628.7340, 23860.00
629.9000, 23724.00
631.0650, 23853.00
632.2300, 23663.00
633.3950, 23650.00
634.5600, 23674.00
635.7240, 23649.90
636.8890, 23734.74
638.0530, 23752.00
639.2170, 23899.00
640.3810, 23975.00
641.5450, 24035.00
642.7080, 24107.07
643.8720, 24131.00
645.0350, 24148.00
646.1980, 24140.00
647.3610, 24144.85
648.5240, 24148.81
649.6870, 24145.00
650.8490, 24164.00
652.0120, 24202.00
653.1740, 24237.00
654.3360, 24199.92
655.4980, 23965.00
656.6600, 24093.00
657.8210, 24020.00
658.9830, 23912.00
660.1440, 24071.00
661.3050, 23955.00
662.4660, 23882.00
663.6270, 23983.00
664.7870, 23834.00
665.9480, 23870.00
667.1080, 23942.00
668.2680, 24031.00
669.4280, 23840.00
670.5880, 23985.00
671.7480, 23988.00
672.9070, 24119.00
674.0670, 24109.00
675.2260, 24250.00
676.3850, 24182.00
677.5440, 24281.00
678.7030, 24058.00
679.8610, 24307.00
681.0200, 24089.00
682.1780, 24496.00
683.3360, 24319.00
684.4940, 24474.00
685.6520, 24513.00
686.8090, 24486.00
687.9670, 24552.00
689.1240, 24478.00
690.2810, 24674.00
691.4380, 24653.00
692.5950, 24597.00
693.7520, 24934.00
694.9080, 25019.00
696.0650, 25069.00
697.2210, 25175.00
698.3770, 25113.00
699.5330, 25111.00
700.6880, 25206.00
701.8440, 25155.00
702.9990, 25192.00
704.1550, 25320.00
705.3100, 25342.00
706.4650, 25466.00
707.6190, 25463.36
708.7740, 25197.00
709.9290, 25409.00
711.0830, 25350.00
712.2370, 25216.00
713.3910, 25338.00
714.5450, 25289.00
715.6980, 25472.00
716.8520, 25440.00
718.0050, 25341.00
719.1580, 25490.00
720.3110, 25594.00
721.4640, 25506.00
722.6170, 25535.00
723.7700, 25359.00
724.9220, 25409.00
726.0740, 25510.00
727.2260, 25439.00
728.3780, 25582.00
729.5300, 25458.00
730.6810, 25542.00
731.8330, 25335.00
732.9840, 25541.00
734.1350, 25326.00
735.2860, 25261.00
736.4370, 25630.00
737.5880, 25525.00
738.7380, 25220.00
739.8880, 25167.00
741.0390, 25348.00
742.1890, 25397.00
743.3380, 25376.00
744.4880, 25414.00
745.6380, 25326.00
746.7870, 25625.00
747.9360, 25536.00
749.0850, 25275.00
750.2340, 25577.00
751.3830, 25583.00
752.5310, 25451.00
753.6800, 25401.00
754.8280, 25410.00
755.9760, 25655.00
757.1240, 25440.00
758.2720, 25735.00
759.4190, 25582.00
760.5670, 25797.00
761.7140, 25692.00
762.8610, 25957.00
764.0080, 25821.00
765.1550, 26026.00
766.3020, 26122.00
767.4480, 26084.00
768.5950, 26289.00
769.7410, 26210.00
770.8870, 26311.00
772.0330, 26332.00
773.1780, 26515.00
774.3240, 26409.00
775.4690, 26304.00
776.6140, 26417.00
777.7590, 26165.00
778.9040, 26385.00
780.0490, 26113.00
781.1940, 26241.00
782.3380, 26211.00
783.4820, 26117.00
784.6260, 26177.00
785.7700, 26213.00
786.9140, 26130.00
788.0580, 26188.00
789.2010, 26115.00
790.3450, 26347.00
791.4880, 26161.00
792.6310, 26317.00
793.7730, 26294.00
794.9160, 26439.00
796.0590, 26341.00
797.2010, 26171.00
798.3430, 26281.00
799.4850, 26316.00
800.6270, 26351.00
801.7690, 26124.00
802.9100, 26388.00
804.0520, 26228.00
805.1930, 26235.00
806.3340, 26381.00
807.4750, 26446.00
808.6160, 26384.00
809.7560, 26502.00
810.8970, 26385.00
812.0370, 26458.00
813.1770, 26480.00
814.3170, 26498.00
815.4570, 26305.00
816.5960, 26367.00
817.7360, 26401.72
818.8750, 26509.00
820.0140, 26510.00
821.1530, 26717.00
822.2920, 26638.00
823.4310, 26732.00
824.5690, 26703.00
825.7070, 26678.00
826.8460, 26846.00
827.9840, 26745.00
829.1220, 26845.00
830.2590, 26832.00
831.3970, 26816.10
832.5340, 26791.00
833.6710, 26789.00
834.8080, 26814.00
835.9450, 26768.00
837.0820, 26954.00
838.2190, 26983.00
839.3550, 26914.00
840.4910, 27003.00
841.6270, 27285.00
842.7630, 27038.00
843.8990, 27107.00
845.0350, 27214.00
846.1700, 27089.00
847.3060, 27159.00
848.4410, 27370.00
849.5760, 27305.00
850.7100, 27394.00
851.8450, 27211.00
852.9800, 27269.00
854.1140, 27410.00
855.2480, 27414.00
856.3820, 27410.00
857.5160, 27576.00
858.6500, 27702.00
859.7830, 27627.00
860.9170, 27823.00
862.0500, 27733.00
863.1830, 27604.00
864.3160, 27809.00
865.4480, 27653.00
866.5810, 27503.00
867.7130, 27682.00
868.8460, 27575.00
869.9780, 27622.00
871.1100, 27663.00
872.2410, 27577.00
873.3730, 27601.00
874.5050, 27709.00
875.6360, 27817.00
876.7670, 27823.99
877.8980, 27724.00
879.0290, 27826.00
880.1590, 27787.00
881.2900, 27692.00
882.4200, 27670.00
883.5500, 27549.00
884.6800, 27784.00
885.8100, 27928.00
886.9400, 27919.00
888.0690, 27748.00
889.1990, 28041.00
890.3280, 27944.00
891.4570, 28127.00
892.5860, 28236.00
893.7140, 28097.00
894.8430, 28247.00
895.9710, 28331.00
897.1000, 28204.00
898.2280, 28269.00
899.3560, 28422.00
900.4830, 28159.00
901.6110, 28207.00
902.7380, 28368.00
903.8660, 28558.00
904.9930, 28561.65
906.1200, 28653.00
907.2460, 28668.00
908.3730, 28697.00
909.5000, 28840.00
910.6260, 28902.52
911.7520, 29095.00
912.8780, 29143.00
914.0040, 29220.47
915.1290, 29366.00
916.2550, 29324.00
917.3800, 29371.00
918.5050, 29546.00
919.6300, 29685.00
920.7550, 29601.00
921.8800, 30170.00
923.0040, 30333.00
924.1290, 30369.00
925.2530, 30569.00
926.3770, 30515.00
927.5010, 30727.00
928.6250, 30965.00
929.7480, 30958.00
930.8720, 30967.00
931.9950, 30889.00
933.1180, 31090.00
934.2410, 31156.00
935.3640, 31039.00
936.4860, 31056.08
937.6090, 31023.00
938.7310, 30782.00
939.8530, 31058.00
940.9750, 30802.00
942.0970, 30761.00
943.2180, 30843.00
944.3400, 30799.00
945.4610, 30854.00
946.5820, 30743.00
947.7030, 30705.00
948.8240, 30688.00
949.9450, 30764.00
951.0650, 30782.00
952.1860, 30760.00
953.3060, 30898.00
954.4260, 30754.00
955.5460, 30943.00
956.6650, 30919.00
957.7850, 30975.00
958.9040, 31315.00
960.0230, 31323.00
961.1420, 31333.00
962.2610, 31404.00
963.3800, 31267.00
964.4990, 31397.00
965.6170, 31522.00
966.7350, 31887.00
967.8530, 31518.00
968.9710, 31832.00
970.0890, 31775.00
971.2070, 32030.00
972.3240, 31967.00
973.4410, 32113.00
974.5580, 32343.00
975.6750, 32574.00
976.7920, 32824.00
977.9090, 32823.00
979.0250, 33379.00
980.1410, 33664.00
981.2580, 34117.00
982.3740, 34077.00
983.4890, 34719.00
984.6050, 34432.00
985.7200, 34665.00
986.8360, 35117.00
987.9510, 34985.00
989.0660, 35156.00
990.1810, 35082.00
991.2950, 34885.00
992.4100, 34491.00
993.5240, 34364.00
994.6390, 34213.00
995.7530, 33952.00
996.8660, 33756.00
997.9800, 33645.00
999.0940, 33316.00
1000.207, 33372.00
1001.320, 33469.00
1002.433, 32999.00
1003.546, 32817.00
1004.659, 32247.00
1005.772, 32417.00
1006.884, 32226.00
1007.996, 32072.00
1009.108, 31924.00
1010.220, 32115.00
1011.332, 32215.00
1012.444, 31991.00
1013.555, 32253.00
1014.666, 32057.00
1015.777, 32053.00
1016.888, 32171.00
1017.999, 32045.00
1019.110, 31852.00
1020.220, 31992.00
1021.331, 32035.00
1022.441, 31847.00
1023.551, 31673.00
1024.661, 31678.00
1025.770, 31772.00
1026.880, 31762.00
1027.989, 31316.00
1029.098, 31537.00
1030.207, 31276.00
1031.316, 31479.00
1032.425, 31417.00
1033.533, 31422.00
1034.642, 31196.00
1035.750, 31157.00
1036.858, 31270.00
1037.966, 31223.00
1039.073, 31492.00
1040.181, 31369.00
1041.288, 31310.00
1042.396, 31580.00
1043.503, 31707.00
1044.610, 31539.00
1045.716, 31964.00
1046.823, 31821.00
1047.929, 31979.00
1049.036, 32132.00
1050.142, 32179.00
1051.248, 32462.00
1052.353, 32590.00
1053.459, 32737.00
1054.564, 32968.00
1055.670, 33022.00
1056.775, 33118.00
1057.880, 33338.00
1058.985, 33380.00
1060.089, 33540.00
1061.194, 33492.00
1062.298, 33692.00
1063.402, 33834.00
1064.506, 33998.00
1065.610, 34058.00
1066.713, 34020.00
1067.817, 34286.00
1068.920, 34034.00
1070.023, 34272.00
1071.126, 34259.00
1072.229, 34231.00
1073.332, 34221.00
1074.435, 33929.00
1075.537, 33880.00
1076.639, 34123.00
1077.741, 33919.00
1078.843, 34096.00
1079.945, 34153.00
1081.046, 33985.00
1082.148, 33827.00
1083.249, 33978.00
1084.350, 33531.00
1085.451, 33631.00
1086.551, 33355.00
1087.652, 33103.00
1088.752, 33300.00
1089.853, 33102.00
1090.953, 32868.00
1092.053, 32783.00
1093.152, 32918.00
1094.252, 32947.00
1095.351, 32850.68
1096.451, 32823.00
1097.550, 32678.00
1098.649, 32591.00
1099.748, 32527.00
1100.846, 32657.00
1101.945, 32555.00
1103.043, 32425.00
1104.141, 32208.00
1105.239, 32270.00
1106.337, 32443.00
1107.434, 32400.00
1108.532, 32356.00
1109.629, 32172.00
1110.726, 32498.00
1111.823, 32581.00
1112.920, 32480.00
1114.017, 32269.00
1115.113, 32607.00
1116.210, 32477.00
1117.306, 32885.00
1118.402, 32738.00
1119.498, 32767.00
1120.593, 32949.00
1121.689, 32740.00
1122.784, 32905.00
1123.879, 32823.00
1124.974, 32938.00
1126.069, 32726.00
1127.164, 32819.00
1128.259, 32778.00
1129.353, 32548.00
1130.447, 32665.00
1131.541, 32700.00
1132.635, 32896.00
1133.729, 32688.00
1134.822, 32811.00
1135.916, 32758.00
1137.009, 32683.00
1138.102, 32615.00
1139.195, 32642.37
1140.288, 32755.00
1141.380, 32725.00
1142.473, 32905.00
1143.565, 32983.00
1144.657, 32975.00
1145.749, 32947.00
1146.841, 33054.00
1147.932, 33213.00
1149.024, 33132.00
1150.115, 33160.00
1151.206, 33075.00
1152.297, 33251.00
1153.388, 33361.00
1154.479, 33203.00
1155.569, 33093.00
1156.659, 33342.00
1157.750, 33547.00
1158.839, 33281.00
1159.929, 33448.00
1161.019, 33333.00
1162.108, 33481.00
1163.198, 33524.00
1164.287, 33440.00
1165.376, 33539.00
1166.465, 33779.00
1167.553, 33548.00
1168.642, 33714.00
1169.730, 33981.00
1170.818, 33585.00
1171.906, 33808.00
1172.994, 33904.00
1174.082, 33777.00
1175.170, 33740.00
1176.257, 33977.00
1177.344, 34038.00
1178.431, 33902.00
1179.518, 34039.00
1180.605, 34245.00
1181.691, 33973.00
1182.778, 34015.00
1183.864, 34093.00
1184.950, 34377.00
1186.036, 34412.00
1187.122, 34216.00
1188.207, 34282.00
1189.292, 34327.00
1190.378, 34229.00
1191.463, 34478.00
1192.548, 34744.00
1193.632, 34516.00
1194.717, 34428.00
1195.801, 34619.00
1196.886, 34536.00
1197.970, 34510.00
1199.054, 34689.00
1200.137, 34653.00
1201.221, 34530.00
1202.305, 34925.00
1203.388, 34625.00
1204.471, 34791.00
1205.554, 34928.00
1206.637, 34891.00
1207.719, 34946.00
1208.802, 35054.61
1209.884, 35191.00
1210.966, 35252.00
1212.048, 35168.00
1213.130, 35232.00
1214.212, 35239.00
1215.293, 35169.00
1216.374, 35229.00
1217.456, 35367.00
1218.536, 35332.89
1219.617, 35119.00
1220.698, 35321.00
1221.778, 35401.00
1222.859, 35262.00
1223.939, 35407.00
1225.019, 35621.00
1226.099, 35656.00
1227.178, 35581.00
1228.258, 35743.00
1229.337, 35705.00
1230.417, 35522.00
1231.496, 35830.00
1232.574, 35770.00
1233.653, 36002.00
1234.732, 35884.00
1235.810, 36048.00
1236.888, 36060.00
1237.966, 36031.00
1239.044, 36167.00
1240.122, 36129.00
1241.199, 36292.00
1242.277, 36320.33
1243.354, 36110.00
1244.431, 36523.00
1245.508, 36424.00
1246.585, 36719.00
1247.661, 36371.00
1248.738, 36484.00
1249.814, 36541.00
1250.890, 36588.00
1251.966, 36619.00
1253.042, 36614.00
1254.117, 36710.00
1255.193, 36411.00
1256.268, 36685.00
1257.343, 36953.00
1258.418, 36530.00
1259.493, 36565.00
1260.567, 36961.00
1261.642, 37224.00
1262.716, 36998.00
1263.790, 37116.00
1264.864, 36985.00
1265.938, 36955.00
1267.011, 37235.00
1268.085, 37327.00
1269.158, 37223.00
1270.231, 37424.00
1271.304, 37514.00
1272.377, 37547.00
1273.450, 37600.78
