##NAMES=Tilleyite
##RRUFFID=R050227
##IDEAL CHEMISTRY=Ca_5_Si_2_O_7_(CO_3_)_2_
##LOCALITY=Crestmore Quarry, Riverside County, California, USA
##OWNER=RRUFF
##SOURCE=Marcus Origlieri
##DESCRIPTION=Aggregate of colorless subhedral crystals
##STATUS=The identification of this mineral has been confirmed by X-ray diffraction.
##URL=rruff.info/R050227
##PIN_ID=L00528
##ORIENTATION=Laser parallel to b* (0 1 0). Fiducial mark perpendicular to laser is parallel to -c [0 0 -1]
127.9790, 12749.00
129.2090, 12859.00
130.4390, 12817.00
131.6680, 12728.00
132.8980, 12684.00
134.1270, 12781.00
135.3560, 12809.00
136.5850, 13023.00
137.8140, 12905.00
139.0430, 13219.00
140.2710, 13438.00
141.5000, 13615.00
142.7280, 13621.00
143.9560, 13923.00
145.1840, 14063.00
146.4120, 14359.00
147.6390, 14332.00
148.8670, 14748.00
150.0940, 15002.00
151.3210, 15359.00
152.5490, 15437.00
153.7750, 15731.00
155.0020, 15862.00
156.2290, 15822.00
157.4550, 15624.00
158.6810, 15471.00
159.9080, 14966.00
161.1340, 14651.00
162.3590, 14205.00
163.5850, 13734.00
164.8110, 13546.00
166.0360, 13123.00
167.2610, 12991.00
168.4860, 13013.00
169.7110, 13075.00
170.9360, 13209.00
172.1610, 13352.00
173.3850, 13437.09
174.6100, 13604.31
175.8340, 13667.00
177.0580, 13876.00
178.2820, 14037.00
179.5050, 14105.00
180.7290, 14041.00
181.9520, 14090.00
183.1760, 14080.00
184.3990, 13927.00
185.6220, 13980.00
186.8450, 13948.00
188.0670, 13861.00
189.2900, 13950.00
190.5120, 14087.00
191.7340, 14116.00
192.9560, 14362.00
194.1780, 14377.00
195.4000, 14594.00
196.6220, 14487.00
197.8430, 14714.00
199.0640, 14518.00
200.2860, 14555.00
201.5070, 14558.00
202.7270, 14511.00
203.9480, 14349.00
205.1690, 14081.00
206.3890, 13954.00
207.6090, 13842.00
208.8290, 13657.00
210.0490, 13719.00
211.2690, 13736.00
212.4890, 13472.00
213.7080, 13541.00
214.9280, 13484.00
216.1470, 13388.00
217.3660, 13446.00
218.5850, 13433.60
219.8030, 13401.00
221.0220, 13536.00
222.2400, 13639.00
223.4590, 13734.00
224.6770, 13874.00
225.8950, 13811.00
227.1120, 13916.00
228.3300, 14018.00
229.5480, 14213.00
230.7650, 14272.00
231.9820, 14313.40
233.1990, 14240.00
234.4160, 14354.00
235.6330, 14393.00
236.8490, 14492.00
238.0660, 14607.00
239.2820, 14461.00
240.4980, 14469.00
241.7140, 14463.00
242.9300, 14532.00
244.1460, 14637.00
245.3610, 14628.00
246.5770, 14740.92
247.7920, 14767.00
249.0070, 14929.00
250.2220, 15047.00
251.4370, 15188.00
252.6510, 15422.00
253.8660, 15541.00
255.0800, 15677.00
256.2940, 15729.00
257.5080, 16097.00
258.7220, 16370.00
259.9360, 16639.00
261.1490, 16530.00
262.3630, 16604.00
263.5760, 16713.00
264.7890, 16829.00
266.0020, 16784.00
267.2150, 16892.00
268.4270, 17278.00
269.6400, 17680.00
270.8520, 18139.00
272.0640, 18838.00
273.2760, 19207.00
274.4880, 19845.00
275.7000, 20701.00
276.9120, 21278.00
278.1230, 21902.00
279.3340, 22049.00
280.5450, 22314.00
281.7560, 22195.00
282.9670, 22058.00
284.1780, 21974.00
285.3880, 21611.00
286.5980, 21205.00
287.8090, 20944.00
289.0190, 20756.00
290.2290, 20411.00
291.4380, 20019.00
292.6480, 20076.00
293.8570, 19709.00
295.0670, 19705.00
296.2760, 19749.00
297.4850, 19690.00
298.6930, 19928.00
299.9020, 19829.00
301.1110, 19810.00
302.3190, 19218.00
303.5270, 19099.00
304.7350, 18553.00
305.9430, 18346.00
307.1510, 17701.00
308.3580, 17188.00
309.5660, 16869.00
310.7730, 16709.00
311.9800, 16506.00
313.1870, 16303.00
314.3940, 16248.00
315.6010, 16258.00
316.8070, 16006.00
318.0130, 15874.00
319.2200, 15892.00
320.4260, 16022.00
321.6310, 15805.00
322.8370, 15876.00
324.0430, 15660.00
325.2480, 15585.00
326.4540, 15558.00
327.6590, 15531.00
328.8640, 15532.00
330.0680, 15441.00
331.2730, 15466.00
332.4780, 15560.00
333.6820, 15559.00
334.8860, 15327.00
336.0900, 15322.00
337.2940, 15400.00
338.4980, 15508.00
339.7010, 15531.42
340.9050, 15661.00
342.1080, 15637.00
343.3110, 15810.00
344.5140, 15862.00
345.7170, 16007.00
346.9200, 16307.00
348.1220, 16387.00
349.3240, 16473.00
350.5270, 16890.00
351.7290, 17028.00
352.9310, 17304.00
354.1320, 17335.00
355.3340, 17460.00
356.5350, 17303.00
357.7370, 17337.00
358.9380, 17259.00
360.1390, 17131.00
361.3400, 17047.00
362.5400, 17063.00
363.7410, 16752.00
364.9410, 16500.00
366.1410, 16460.00
367.3410, 16317.00
368.5410, 16285.00
369.7410, 16160.00
370.9400, 16070.00
372.1400, 16051.00
373.3390, 15932.00
374.5380, 15818.00
375.7370, 15614.00
376.9360, 15715.00
378.1350, 15585.00
379.3330, 15690.00
380.5310, 15659.00
381.7300, 15630.00
382.9280, 15663.59
384.1260, 15655.09
385.3230, 15663.00
386.5210, 15690.00
387.7180, 15703.00
388.9160, 15718.00
390.1130, 15828.00
391.3100, 15977.00
392.5060, 15954.00
393.7030, 16072.00
394.9000, 16049.00
396.0960, 16102.00
397.2920, 16289.00
398.4880, 16402.00
399.6840, 16271.00
400.8800, 16373.00
402.0750, 16192.00
403.2710, 16207.00
404.4660, 16262.00
405.6610, 16158.00
406.8560, 15996.00
408.0510, 16005.00
409.2450, 16162.00
410.4400, 16153.00
411.6340, 16301.00
412.8280, 16190.00
414.0220, 16404.00
415.2160, 16254.00
416.4100, 16309.00
417.6030, 16238.00
418.7970, 16393.00
419.9900, 16626.00
421.1830, 16649.00
422.3760, 16645.00
423.5690, 16599.00
424.7610, 16744.00
425.9540, 16708.00
427.1460, 16743.00
428.3380, 16664.00
429.5300, 16623.65
430.7220, 16549.00
431.9140, 16473.00
433.1050, 16428.00
434.2970, 16325.00
435.4880, 16344.00
436.6790, 16299.34
437.8700, 16354.00
439.0610, 16269.00
440.2510, 16247.00
441.4420, 16215.00
442.6320, 16272.00
443.8220, 16213.00
445.0120, 16274.00
446.2020, 16244.00
447.3910, 16196.00
448.5810, 16159.00
449.7700, 16152.43
450.9600, 16172.33
452.1490, 16186.00
453.3370, 16235.00
454.5260, 16235.63
455.7150, 16333.00
456.9030, 16274.00
458.0910, 16289.00
459.2800, 16348.00
460.4670, 16494.00
461.6550, 16329.00
462.8430, 16304.00
464.0300, 16359.00
465.2180, 16544.00
466.4050, 16660.00
467.5920, 16496.00
468.7790, 16455.00
469.9650, 16530.00
471.1520, 16560.00
472.3380, 16584.61
473.5250, 16553.00
474.7110, 16708.00
475.8970, 16754.00
477.0820, 16908.00
478.2680, 16798.00
479.4540, 16954.00
480.6390, 17000.00
481.8240, 17251.00
483.0090, 17047.00
484.1940, 17178.00
485.3780, 17241.00
486.5630, 17258.00
487.7470, 17088.00
488.9320, 17101.00
490.1160, 17051.00
491.3000, 16877.00
492.4830, 16990.00
493.6670, 17112.00
494.8500, 16834.00
496.0340, 17162.00
497.2170, 17242.00
498.4000, 17244.00
499.5820, 17107.00
500.7650, 17198.00
501.9480, 17328.00
503.1300, 17589.00
504.3120, 17565.00
505.4940, 17771.00
506.6760, 17593.00
507.8580, 17545.00
509.0390, 17637.00
510.2210, 17553.00
511.4020, 17459.00
512.5830, 17482.00
513.7640, 17456.13
514.9450, 17463.00
516.1250, 17548.00
517.3060, 17673.00
518.4860, 17827.00
519.6660, 17957.97
520.8460, 18144.00
522.0260, 18317.00
523.2060, 18353.00
524.3850, 18624.00
525.5650, 18635.00
526.7440, 18732.00
527.9230, 18747.00
529.1020, 18650.00
530.2810, 18605.00
531.4590, 18545.53
532.6380, 18512.00
533.8160, 18404.00
534.9940, 18367.00
536.1720, 18308.00
537.3500, 18638.00
538.5270, 18616.00
539.7050, 18755.00
540.8820, 19011.00
542.0590, 18995.00
543.2360, 19227.00
544.4130, 19713.00
545.5900, 19560.00
546.7660, 19479.00
547.9430, 19535.00
549.1190, 19283.00
550.2950, 19149.00
551.4710, 18905.00
552.6470, 18605.00
553.8220, 18628.00
554.9980, 18405.00
556.1730, 18460.00
557.3480, 18278.00
558.5230, 18290.00
559.6980, 18189.00
560.8730, 18402.00
562.0470, 18214.00
563.2220, 18354.00
564.3960, 18252.00
565.5700, 18179.00
566.7440, 18129.00
567.9170, 18237.00
569.0910, 18232.00
570.2640, 18107.00
571.4380, 18197.00
572.6110, 18117.00
573.7840, 18189.00
574.9570, 18186.00
576.1290, 18265.00
577.3020, 18312.00
578.4740, 18340.41
579.6460, 18397.16
580.8180, 18434.00
581.9900, 18453.00
583.1620, 18538.00
584.3330, 18516.00
585.5040, 18543.00
586.6760, 18505.00
587.8470, 18401.00
589.0180, 18353.00
590.1880, 18524.00
591.3590, 18625.00
592.5290, 18552.00
593.7000, 18571.00
594.8700, 18710.00
596.0400, 18619.00
597.2090, 18719.00
598.3790, 18721.00
599.5490, 18550.00
600.7180, 18898.00
601.8870, 18806.00
603.0560, 18680.00
604.2250, 18935.00
605.3940, 18682.00
606.5620, 18845.00
607.7300, 19009.00
608.8990, 19018.00
610.0670, 19057.00
611.2350, 18883.00
612.4020, 19072.00
613.5700, 18938.00
614.7370, 19182.00
615.9050, 19184.00
617.0720, 19139.00
618.2390, 19270.00
619.4060, 19237.00
620.5720, 19125.00
621.7390, 19261.00
622.9050, 19425.00
624.0710, 19397.00
625.2370, 19435.00
626.4030, 19605.00
627.5690, 19685.00
628.7340, 19728.00
629.9000, 19966.90
631.0650, 20029.00
632.2300, 20361.00
633.3950, 20520.00
634.5600, 20634.00
635.7240, 20990.00
636.8890, 21353.00
638.0530, 22043.00
639.2170, 22543.00
640.3810, 23228.00
641.5450, 23803.00
642.7080, 24545.00
643.8720, 25017.00
645.0350, 25285.00
646.1980, 25517.00
647.3610, 25379.00
648.5240, 24693.00
649.6870, 24419.00
650.8490, 23742.00
652.0120, 23226.00
653.1740, 22521.00
654.3360, 22161.00
655.4980, 21865.00
656.6600, 21586.00
657.8210, 21249.00
658.9830, 21255.00
660.1440, 21024.00
661.3050, 21140.00
662.4660, 20916.00
663.6270, 20746.00
664.7870, 20952.00
665.9480, 20774.00
667.1080, 20618.00
668.2680, 20557.00
669.4280, 20517.00
670.5880, 20532.00
671.7480, 20630.00
672.9070, 20511.00
674.0670, 20490.00
675.2260, 20570.00
676.3850, 20374.00
677.5440, 20457.00
678.7030, 20495.00
679.8610, 20497.00
681.0200, 20429.00
682.1780, 20487.00
683.3360, 20475.93
684.4940, 20532.00
685.6520, 20529.00
686.8090, 20585.00
687.9670, 20645.00
689.1240, 20668.00
690.2810, 20784.00
691.4380, 21131.00
692.5950, 21110.00
693.7520, 21370.00
694.9080, 21625.00
696.0650, 21722.00
697.2210, 21821.00
698.3770, 21761.00
699.5330, 21807.00
700.6880, 21711.00
701.8440, 21665.00
702.9990, 21588.00
704.1550, 21593.00
705.3100, 21694.00
706.4650, 21612.00
707.6190, 21966.00
708.7740, 22127.00
709.9290, 22419.00
711.0830, 22845.00
712.2370, 23079.00
713.3910, 23393.00
714.5450, 23612.00
715.6980, 23279.00
716.8520, 23394.00
718.0050, 23064.00
719.1580, 22933.00
720.3110, 22598.00
721.4640, 22426.00
722.6170, 22104.00
723.7700, 21963.00
724.9220, 21544.00
726.0740, 21457.00
727.2260, 21320.00
728.3780, 21458.00
729.5300, 21064.00
730.6810, 21105.00
731.8330, 21092.00
732.9840, 21032.00
734.1350, 21157.00
735.2860, 21157.00
736.4370, 21293.00
737.5880, 21125.00
738.7380, 21166.00
739.8880, 21270.00
741.0390, 21383.00
742.1890, 21317.00
743.3380, 21199.00
744.4880, 21416.00
745.6380, 21277.00
746.7870, 21390.00
747.9360, 21322.00
749.0850, 21310.00
750.2340, 21587.00
751.3830, 21499.00
752.5310, 21641.00
753.6800, 21484.00
754.8280, 21596.00
755.9760, 21525.00
757.1240, 21574.00
758.2720, 21460.00
759.4190, 21618.00
760.5670, 21743.00
761.7140, 21607.00
762.8610, 21698.00
764.0080, 21835.00
765.1550, 21779.00
766.3020, 21660.00
767.4480, 21547.00
768.5950, 21619.00
769.7410, 21568.45
770.8870, 21843.00
772.0330, 21630.00
773.1780, 21783.00
774.3240, 21837.00
775.4690, 21822.00
776.6140, 21952.00
777.7590, 21962.00
778.9040, 21979.00
780.0490, 22010.00
781.1940, 22067.00
782.3380, 22009.00
783.4820, 22114.00
784.6260, 22199.00
785.7700, 22080.00
786.9140, 22070.00
788.0580, 22157.00
789.2010, 22157.00
790.3450, 22225.00
791.4880, 22307.00
792.6310, 22358.00
793.7730, 22206.00
794.9160, 22257.00
796.0590, 22558.00
797.2010, 22469.00
798.3430, 22288.00
799.4850, 22442.00
800.6270, 22245.00
801.7690, 22410.00
802.9100, 22519.00
804.0520, 22411.00
805.1930, 22585.00
806.3340, 22610.00
807.4750, 22527.00
808.6160, 22449.00
809.7560, 22728.00
810.8970, 22719.00
812.0370, 22607.00
813.1770, 22801.00
814.3170, 22734.00
815.4570, 22657.00
816.5960, 22763.00
817.7360, 22852.00
818.8750, 22898.00
820.0140, 22678.00
821.1530, 22882.00
822.2920, 22941.00
823.4310, 22728.00
824.5690, 23009.00
825.7070, 23065.00
826.8460, 23270.00
827.9840, 23142.00
829.1220, 23166.00
830.2590, 23065.00
831.3970, 23182.00
832.5340, 23514.00
833.6710, 23303.00
834.8080, 23613.00
835.9450, 23577.00
837.0820, 23791.00
838.2190, 23852.00
839.3550, 23504.00
840.4910, 23760.00
841.6270, 23633.00
842.7630, 23509.00
843.8990, 23532.00
845.0350, 23495.00
846.1700, 23498.94
847.3060, 23439.00
848.4410, 23572.00
849.5760, 23557.00
850.7100, 23625.00
851.8450, 23551.00
852.9800, 23541.00
854.1140, 23665.00
855.2480, 23788.00
856.3820, 23830.00
857.5160, 23859.00
858.6500, 23723.00
859.7830, 23720.00
860.9170, 23820.00
862.0500, 23799.00
863.1830, 23942.00
864.3160, 24043.00
865.4480, 24162.00
866.5810, 24269.00
867.7130, 24303.00
868.8460, 24224.00
869.9780, 24237.00
871.1100, 24283.00
872.2410, 24301.00
873.3730, 24265.00
874.5050, 24127.00
875.6360, 24008.00
876.7670, 24245.00
877.8980, 24036.00
879.0290, 24229.00
880.1590, 24343.00
881.2900, 24324.00
882.4200, 24328.00
883.5500, 24407.00
884.6800, 24687.00
885.8100, 24686.00
886.9400, 24974.00
888.0690, 24868.00
889.1990, 25064.00
890.3280, 25153.00
891.4570, 25657.00
892.5860, 25836.00
893.7140, 26361.00
894.8430, 26733.00
895.9710, 27526.00
897.1000, 28687.00
898.2280, 30171.00
899.3560, 32177.00
900.4830, 34864.00
901.6110, 37886.00
902.7380, 40172.00
903.8660, 42780.00
904.9930, 44573.00
906.1200, 45694.00
907.2460, 44703.00
908.3730, 42274.00
909.5000, 39095.00
910.6260, 35960.00
911.7520, 32741.00
912.8780, 30475.00
914.0040, 28773.00
915.1290, 27750.00
916.2550, 27040.00
917.3800, 26536.00
918.5050, 26393.00
919.6300, 26246.00
920.7550, 26208.00
921.8800, 25828.00
923.0040, 25897.00
924.1290, 26164.00
925.2530, 26127.00
926.3770, 26459.00
927.5010, 26357.00
928.6250, 26125.00
929.7480, 26347.00
930.8720, 26216.00
931.9950, 26291.00
933.1180, 26219.00
934.2410, 26185.00
935.3640, 26303.00
936.4860, 26201.00
937.6090, 26125.00
938.7310, 26006.00
939.8530, 26157.00
940.9750, 25808.00
942.0970, 26194.00
943.2180, 26134.00
944.3400, 25856.00
945.4610, 26068.00
946.5820, 26140.00
947.7030, 26252.00
948.8240, 26244.00
949.9450, 26275.00
951.0650, 26453.00
952.1860, 26606.00
953.3060, 26492.00
954.4260, 26503.00
955.5460, 26185.00
956.6650, 26218.00
957.7850, 26156.00
958.9040, 26162.00
960.0230, 26192.00
961.1420, 26138.00
962.2610, 26299.00
963.3800, 26315.00
964.4990, 26143.00
965.6170, 26352.00
966.7350, 26597.00
967.8530, 26515.00
968.9710, 26725.79
970.0890, 26763.03
971.2070, 26877.00
972.3240, 26809.00
973.4410, 26777.00
974.5580, 26670.00
975.6750, 26748.00
976.7920, 27011.00
977.9090, 27079.00
979.0250, 27080.00
980.1410, 27431.00
981.2580, 27460.00
982.3740, 27664.00
983.4890, 27764.00
984.6050, 27741.00
985.7200, 27756.00
986.8360, 27734.04
987.9510, 27722.49
989.0660, 27632.00
990.1810, 27651.00
991.2950, 27596.00
992.4100, 27472.00
993.5240, 27367.00
994.6390, 27315.00
995.7530, 27273.98
996.8660, 27265.23
997.9800, 27288.00
999.0940, 27307.00
1000.207, 27376.02
1001.320, 27411.59
1002.433, 27648.00
1003.546, 27768.00
1004.659, 28034.00
1005.772, 28176.05
1006.884, 28456.00
1007.996, 28411.00
1009.108, 28452.00
1010.220, 28377.00
1011.332, 28314.34
1012.444, 28280.61
1013.555, 28124.00
1014.666, 28131.00
1015.777, 28022.00
1016.888, 27891.00
1017.999, 28040.00
1019.110, 27545.00
1020.220, 27715.00
1021.331, 27610.00
1022.441, 27688.00
1023.551, 27609.00
1024.661, 27578.00
1025.770, 27705.00
1026.880, 27661.00
1027.989, 27739.00
1029.098, 27843.00
1030.207, 27957.00
1031.316, 27984.38
1032.425, 27919.00
1033.533, 27959.00
1034.642, 28010.00
1035.750, 27816.00
1036.858, 27775.00
1037.966, 28051.00
1039.073, 27870.00
1040.181, 27744.00
1041.288, 27750.00
1042.396, 27985.00
1043.503, 28106.00
1044.610, 27975.00
1045.716, 27984.00
1046.823, 27855.00
1047.929, 28020.00
1049.036, 27857.00
1050.142, 28099.00
1051.248, 28129.00
1052.353, 28130.00
1053.459, 28213.00
1054.564, 28303.00
1055.670, 27979.00
1056.775, 28207.00
1057.880, 28227.00
1058.985, 28523.00
1060.089, 28424.00
1061.194, 28757.00
1062.298, 28667.00
1063.402, 28680.00
1064.506, 28726.00
1065.610, 28682.12
1066.713, 28919.00
1067.817, 28754.00
1068.920, 29091.00
1070.023, 29329.00
1071.126, 29490.00
1072.229, 29841.00
1073.332, 30671.00
1074.435, 31632.00
1075.537, 34024.00
1076.639, 36581.00
1077.741, 40826.00
1078.843, 44146.23
1079.945, 47554.79
1081.046, 52025.00
1082.148, 54622.00
1083.249, 57762.00
1084.350, 61308.00
1085.451, 62483.00
1086.551, 61692.00
1087.652, 58356.00
1088.752, 54430.00
1089.853, 51061.00
1090.953, 50714.00
1092.053, 53943.00
1093.152, 53903.00
1094.252, 49675.00
1095.351, 45108.00
1096.451, 40264.00
1097.550, 36069.00
1098.649, 33001.00
1099.748, 31299.00
1100.846, 30291.00
1101.945, 29826.00
1103.043, 29642.00
1104.141, 29682.00
1105.239, 29508.00
1106.337, 29295.00
1107.434, 29309.00
1108.532, 29445.00
1109.629, 29416.00
1110.726, 29325.00
1111.823, 29152.00
1112.920, 29318.00
1114.017, 29392.00
1115.113, 29270.00
1116.210, 29213.00
1117.306, 29625.00
1118.402, 29329.00
1119.498, 29579.00
1120.593, 29499.00
1121.689, 29717.00
1122.784, 29528.00
1123.879, 29876.00
1124.974, 29407.00
1126.069, 29633.00
1127.164, 29439.00
1128.259, 29605.00
1129.353, 29421.00
1130.447, 29475.00
1131.541, 29560.00
1132.635, 29495.00
1133.729, 29634.00
1134.822, 29574.00
1135.916, 29654.00
1137.009, 29852.00
1138.102, 29726.00
1139.195, 29790.00
1140.288, 29829.00
1141.380, 29707.00
1142.473, 29795.00
1143.565, 29770.00
1144.657, 29790.00
1145.749, 29814.00
1146.841, 29826.05
1147.932, 29838.67
1149.024, 29846.00
1150.115, 29841.00
1151.206, 29773.00
1152.297, 29738.00
1153.388, 29892.00
1154.479, 30146.00
1155.569, 29723.00
1156.659, 30315.00
1157.750, 30159.00
1158.839, 30320.00
1159.929, 30127.00
1161.019, 30226.00
1162.108, 30017.00
1163.198, 30104.00
1164.287, 30277.00
1165.376, 30159.00
1166.465, 30285.00
1167.553, 30246.00
1168.642, 30381.00
1169.730, 30433.00
1170.818, 30494.00
1171.906, 30416.00
1172.994, 30400.00
1174.082, 30506.00
1175.170, 30623.00
1176.257, 30675.00
1177.344, 30321.00
1178.431, 30598.00
1179.518, 30437.00
1180.605, 30644.00
1181.691, 30498.00
1182.778, 30635.00
1183.864, 30503.00
1184.950, 30878.00
1186.036, 30652.00
1187.122, 30698.00
1188.207, 30850.00
1189.292, 30797.00
1190.378, 30793.00
1191.463, 31048.00
1192.548, 30886.00
1193.632, 30947.00
1194.717, 30841.00
1195.801, 30976.00
1196.886, 30916.00
1197.970, 31198.00
1199.054, 30973.00
1200.137, 31269.00
1201.221, 31190.00
1202.305, 31012.00
1203.388, 31146.00
1204.471, 31026.00
1205.554, 31395.00
1206.637, 31096.00
1207.719, 31413.00
1208.802, 31205.00
1209.884, 31418.00
1210.966, 31002.00
1212.048, 31104.00
1213.130, 31307.00
1214.212, 31334.00
1215.293, 31282.00
1216.374, 31493.00
1217.456, 31320.00
1218.536, 31374.00
1219.617, 31224.00
1220.698, 31408.00
1221.778, 31609.00
1222.859, 31619.00
1223.939, 31653.00
1225.019, 31729.00
1226.099, 31558.00
1227.178, 31461.00
1228.258, 31519.32
1229.337, 31719.00
1230.417, 31602.00
1231.496, 31663.00
1232.574, 31745.00
1233.653, 31647.00
1234.732, 31889.00
1235.810, 31744.00
1236.888, 32033.00
1237.966, 32013.00
1239.044, 31939.00
1240.122, 32247.00
1241.199, 31914.00
1242.277, 31993.00
1243.354, 32055.00
1244.431, 31979.00
1245.508, 31966.00
1246.585, 32065.00
1247.661, 32166.00
1248.738, 32194.00
1249.814, 32016.00
1250.890, 32010.00
1251.966, 32134.00
1253.042, 32004.00
1254.117, 32216.00
1255.193, 32265.00
1256.268, 32142.00
1257.343, 32241.00
1258.418, 32257.00
1259.493, 32392.00
1260.567, 32187.00
1261.642, 32406.00
1262.716, 32695.00
1263.790, 32558.00
1264.864, 32626.00
1265.938, 32571.00
1267.011, 32449.00
1268.085, 32607.00
1269.158, 32544.00
1270.231, 32683.00
1271.304, 32668.00
1272.377, 32796.00
1273.450, 32863.00
1274.522, 32684.00
1275.594, 32644.00
1276.666, 33003.00
1277.738, 32924.00
1278.810, 33154.00
1279.882, 33014.00
1280.953, 32768.00
1282.025, 32852.00
1283.096, 33071.00
1284.167, 32946.00
1285.238, 32697.00
1286.308, 33009.00
1287.379, 32900.00
1288.449, 33161.00
1289.519, 33317.00
1290.589, 33018.00
1291.659, 33417.00
1292.729, 32961.00
1293.798, 33081.00
1294.868, 33118.00
1295.937, 33294.00
1297.006, 33373.00
1298.075, 33226.00
1299.143, 33290.00
1300.212, 33374.00
1301.280, 33404.00
1302.348, 33418.00
1303.416, 33553.00
1304.484, 33522.00
1305.552, 33667.00
1306.620, 33364.00
1307.687, 33546.00
