##NAMES=Tilleyite
##RRUFFID=R050227
##IDEAL CHEMISTRY=Ca_5_Si_2_O_7_(CO_3_)_2_
##LOCALITY=Crestmore Quarry, Riverside County, California, USA
##OWNER=RRUFF
##SOURCE=Marcus Origlieri
##DESCRIPTION=Aggregate of colorless subhedral crystals
##STATUS=The identification of this mineral has been confirmed by X-ray diffraction.
##URL=rruff.info/R050227
##PIN_ID=L00359
##ORIENTATION=Laser parallel to (1 0 1). Fiducial mark perpendicular to laser is parallel to b [0 1 0]
95.94800, 9542.000
97.18200, 9609.000
98.41600, 9573.000
99.64900, 9641.000
100.8830, 9787.000
102.1160, 9774.000
103.3490, 10104.00
104.5820, 10518.00
105.8150, 11230.00
107.0470, 12160.00
108.2800, 13130.00
109.5120, 13785.00
110.7440, 13496.00
111.9760, 13273.00
113.2080, 12836.00
114.4400, 12601.00
115.6710, 12208.00
116.9030, 11910.00
118.1340, 12010.00
119.3650, 12227.00
120.5960, 12408.00
121.8270, 12784.00
123.0580, 12954.00
124.2880, 12663.00
125.5190, 12306.00
126.7490, 11972.00
127.9790, 11784.00
129.2090, 11542.00
130.4390, 11266.00
131.6680, 11288.00
132.8980, 11212.00
134.1270, 11357.00
135.3560, 11212.00
136.5850, 11329.00
137.8140, 11359.00
139.0430, 11689.00
140.2710, 11890.00
141.5000, 11665.00
142.7280, 11754.00
143.9560, 11560.00
145.1840, 11747.00
146.4120, 11782.00
147.6390, 11858.00
148.8670, 11974.00
150.0940, 12233.87
151.3210, 12512.46
152.5490, 12961.00
153.7750, 13367.00
155.0020, 13961.00
156.2290, 14671.00
157.4550, 15402.00
158.6810, 15569.00
159.9080, 15160.00
161.1340, 14629.00
162.3590, 14099.00
163.5850, 13591.00
164.8110, 13005.00
166.0360, 12612.00
167.2610, 12205.00
168.4860, 12072.00
169.7110, 11946.00
170.9360, 11875.00
172.1610, 11857.00
173.3850, 11889.00
174.6100, 11885.00
175.8340, 11928.00
177.0580, 12003.00
178.2820, 12015.00
179.5050, 12234.00
180.7290, 12330.00
181.9520, 12258.00
183.1760, 12220.00
184.3990, 12203.00
185.6220, 12229.00
186.8450, 12321.74
188.0670, 12666.00
189.2900, 12609.00
190.5120, 12917.00
191.7340, 13136.00
192.9560, 13320.00
194.1780, 13686.00
195.4000, 13794.00
196.6220, 13711.00
197.8430, 13906.00
199.0640, 13696.00
200.2860, 13653.00
201.5070, 13667.00
202.7270, 13721.00
203.9480, 13460.00
205.1690, 13319.00
206.3890, 12971.00
207.6090, 12951.00
208.8290, 12852.00
210.0490, 12701.00
211.2690, 12754.00
212.4890, 12595.00
213.7080, 12737.00
214.9280, 12824.00
216.1470, 12798.00
217.3660, 12873.00
218.5850, 12947.00
219.8030, 13022.00
221.0220, 13269.00
222.2400, 13304.00
223.4590, 13611.00
224.6770, 13891.00
225.8950, 14129.00
227.1120, 14254.10
228.3300, 14454.00
229.5480, 14323.00
230.7650, 14401.00
231.9820, 14236.00
233.1990, 14230.00
234.4160, 14134.00
235.6330, 13802.00
236.8490, 13741.00
238.0660, 13589.00
239.2820, 13691.00
240.4980, 13635.00
241.7140, 13540.00
242.9300, 13605.00
244.1460, 13726.00
245.3610, 13724.00
246.5770, 13866.00
247.7920, 14236.00
249.0070, 14335.00
250.2220, 14549.00
251.4370, 14694.00
252.6510, 15296.00
253.8660, 15694.00
255.0800, 16276.00
256.2940, 16926.00
257.5080, 17780.00
258.7220, 18354.00
259.9360, 18879.00
261.1490, 19026.00
262.3630, 18632.00
263.5760, 18385.00
264.7890, 17971.00
266.0020, 17385.00
267.2150, 16951.00
268.4270, 16737.00
269.6400, 16466.00
270.8520, 16557.00
272.0640, 16576.00
273.2760, 16747.00
274.4880, 16840.00
275.7000, 17159.00
276.9120, 17677.00
278.1230, 17713.00
279.3340, 17957.00
280.5450, 18133.00
281.7560, 18177.00
282.9670, 18323.00
284.1780, 18598.00
285.3880, 18732.00
286.5980, 18836.00
287.8090, 18947.00
289.0190, 19046.00
290.2290, 18923.00
291.4380, 19020.00
292.6480, 18899.00
293.8570, 19001.00
295.0670, 19079.00
296.2760, 19868.00
297.4850, 20602.00
298.6930, 21534.00
299.9020, 22573.00
301.1110, 23336.00
302.3190, 23909.00
303.5270, 23107.00
304.7350, 22357.00
305.9430, 21331.00
307.1510, 20570.00
308.3580, 19740.00
309.5660, 18993.00
310.7730, 18661.00
311.9800, 18419.00
313.1870, 18256.00
314.3940, 17845.00
315.6010, 17910.00
316.8070, 17621.00
318.0130, 17383.00
319.2200, 17261.00
320.4260, 17190.00
321.6310, 16882.00
322.8370, 16656.00
324.0430, 16622.00
325.2480, 16203.00
326.4540, 16110.00
327.6590, 15979.00
328.8640, 15812.00
330.0680, 15663.00
331.2730, 15553.00
332.4780, 15522.36
333.6820, 15511.86
334.8860, 15584.00
336.0900, 15656.00
337.2940, 15804.00
338.4980, 16003.00
339.7010, 16158.00
340.9050, 16429.00
342.1080, 16428.00
343.3110, 16896.00
344.5140, 17116.00
345.7170, 17522.00
346.9200, 18042.00
348.1220, 18411.00
349.3240, 18969.00
350.5270, 19528.00
351.7290, 19967.00
352.9310, 20495.00
354.1320, 21031.00
355.3340, 20930.00
356.5350, 20758.00
357.7370, 20274.00
358.9380, 19764.00
360.1390, 19248.00
361.3400, 18744.00
362.5400, 18180.00
363.7410, 17761.00
364.9410, 17308.00
366.1410, 16931.00
367.3410, 16737.00
368.5410, 16489.00
369.7410, 16198.00
370.9400, 16185.00
372.1400, 16089.00
373.3390, 15930.00
374.5380, 15972.00
375.7370, 15862.00
376.9360, 15600.00
378.1350, 15547.00
379.3330, 15564.00
380.5310, 15544.00
381.7300, 15516.00
382.9280, 15688.00
384.1260, 15619.00
385.3230, 15472.00
386.5210, 15387.00
387.7180, 15576.00
388.9160, 15576.00
390.1130, 15730.00
391.3100, 15560.00
392.5060, 15658.00
393.7030, 15676.00
394.9000, 15706.00
396.0960, 15675.00
397.2920, 15766.00
398.4880, 15684.00
399.6840, 15695.00
400.8800, 15790.00
402.0750, 15936.00
403.2710, 15953.00
404.4660, 16015.00
405.6610, 15902.00
406.8560, 15869.00
408.0510, 15936.00
409.2450, 16006.00
410.4400, 15892.00
411.6340, 16003.00
412.8280, 16070.00
414.0220, 15890.00
415.2160, 15981.00
416.4100, 15878.00
417.6030, 15941.00
418.7970, 16201.00
419.9900, 16053.00
421.1830, 16168.00
422.3760, 16233.00
423.5690, 16197.00
424.7610, 16235.00
425.9540, 16166.00
427.1460, 16103.00
428.3380, 16235.00
429.5300, 16161.51
430.7220, 16237.00
431.9140, 16188.00
433.1050, 16178.00
434.2970, 16250.00
435.4880, 16131.00
436.6790, 16266.00
437.8700, 16287.00
439.0610, 16155.00
440.2510, 16303.00
441.4420, 16243.00
442.6320, 16170.00
443.8220, 16380.00
445.0120, 16258.00
446.2020, 16498.00
447.3910, 16509.00
448.5810, 16555.00
449.7700, 16426.00
450.9600, 16498.00
452.1490, 16617.00
453.3370, 16493.00
454.5260, 16552.00
455.7150, 16530.00
456.9030, 16564.00
458.0910, 16596.00
459.2800, 16644.00
460.4670, 16567.00
461.6550, 16626.00
462.8430, 16723.00
464.0300, 16669.00
465.2180, 16769.00
466.4050, 16669.00
467.5920, 17013.00
468.7790, 16908.00
469.9650, 16918.00
471.1520, 17041.00
472.3380, 16993.00
473.5250, 17119.00
474.7110, 17149.00
475.8970, 17026.00
477.0820, 17187.00
478.2680, 17174.00
479.4540, 17218.00
480.6390, 17212.00
481.8240, 17320.00
483.0090, 17240.00
484.1940, 17371.00
485.3780, 17397.00
486.5630, 17277.00
487.7470, 17523.00
488.9320, 17550.00
490.1160, 17474.00
491.3000, 17354.00
492.4830, 17439.00
493.6670, 17439.00
494.8500, 17397.90
496.0340, 17426.00
497.2170, 17394.00
498.4000, 17515.00
499.5820, 17603.00
500.7650, 17779.00
501.9480, 17857.90
503.1300, 17912.16
504.3120, 17964.00
505.4940, 17970.00
506.6760, 17817.00
507.8580, 17816.00
509.0390, 17832.00
510.2210, 17957.00
511.4020, 18005.00
512.5830, 17942.00
513.7640, 17884.00
514.9450, 17976.00
516.1250, 18090.00
517.3060, 18046.00
518.4860, 18231.00
519.6660, 18222.00
520.8460, 18476.00
522.0260, 18584.00
523.2060, 18896.00
524.3850, 19023.00
525.5650, 19156.00
526.7440, 19241.00
527.9230, 19266.70
529.1020, 19242.42
530.2810, 19257.00
531.4590, 19100.00
532.6380, 19077.00
533.8160, 19031.00
534.9940, 18939.00
536.1720, 18901.66
537.3500, 18853.00
538.5270, 18784.00
539.7050, 18733.00
540.8820, 18684.00
542.0590, 18681.00
543.2360, 18755.00
544.4130, 18715.00
545.5900, 18941.00
546.7660, 18776.00
547.9430, 18936.00
549.1190, 18691.00
550.2950, 19075.00
551.4710, 18907.00
552.6470, 18900.00
553.8220, 18898.00
554.9980, 18825.00
556.1730, 18837.00
557.3480, 18850.14
558.5230, 18933.00
559.6980, 18927.00
560.8730, 18987.00
562.0470, 19056.00
563.2220, 18976.00
564.3960, 18926.00
565.5700, 18789.00
566.7440, 18758.00
567.9170, 19154.00
569.0910, 18993.00
570.2640, 19189.00
571.4380, 19208.00
572.6110, 19166.00
573.7840, 19082.00
574.9570, 19226.00
576.1290, 19297.00
577.3020, 19218.00
578.4740, 19108.00
579.6460, 19434.00
580.8180, 19383.00
581.9900, 19480.00
583.1620, 19355.00
584.3330, 19279.00
585.5040, 19408.00
586.6760, 19471.00
587.8470, 19489.00
589.0180, 19460.00
590.1880, 19514.66
591.3590, 19584.00
592.5290, 19549.00
593.7000, 19606.00
594.8700, 19584.00
596.0400, 19745.00
597.2090, 19772.00
598.3790, 19804.00
599.5490, 19826.00
600.7180, 19800.00
601.8870, 19793.00
603.0560, 19928.00
604.2250, 19776.00
605.3940, 20116.00
606.5620, 19967.00
607.7300, 20029.00
608.8990, 20210.00
610.0670, 20049.00
611.2350, 20208.00
612.4020, 20214.00
613.5700, 20310.00
614.7370, 20332.48
615.9050, 20352.00
617.0720, 20389.00
618.2390, 20339.00
619.4060, 20454.00
620.5720, 20479.00
621.7390, 20411.00
622.9050, 20577.00
624.0710, 20589.00
625.2370, 20616.98
626.4030, 20810.00
627.5690, 20688.00
628.7340, 20832.00
629.9000, 20894.00
631.0650, 21061.00
632.2300, 21133.00
633.3950, 21239.00
634.5600, 21638.00
635.7240, 21667.00
636.8890, 22085.00
638.0530, 22297.00
639.2170, 22873.00
640.3810, 23401.00
641.5450, 24094.00
642.7080, 24947.00
643.8720, 25839.00
645.0350, 27085.00
646.1980, 27859.00
647.3610, 28069.00
648.5240, 27894.00
649.6870, 27136.00
650.8490, 26323.00
652.0120, 25251.00
653.1740, 24355.00
654.3360, 23614.00
655.4980, 23114.00
656.6600, 22924.00
657.8210, 22230.00
658.9830, 22245.00
660.1440, 22014.00
661.3050, 22045.00
662.4660, 21912.00
663.6270, 21687.00
664.7870, 21845.00
665.9480, 21737.00
667.1080, 21852.00
668.2680, 21821.00
669.4280, 21733.00
670.5880, 21705.00
671.7480, 21860.00
672.9070, 21893.00
674.0670, 21801.00
675.2260, 21933.00
676.3850, 21784.00
677.5440, 21955.00
678.7030, 21855.00
679.8610, 21799.00
681.0200, 21737.00
682.1780, 21907.00
683.3360, 21871.00
684.4940, 22074.00
685.6520, 21943.00
686.8090, 21978.00
687.9670, 22131.00
689.1240, 21967.00
690.2810, 22121.00
691.4380, 22238.00
692.5950, 22172.00
693.7520, 22369.00
694.9080, 22512.00
696.0650, 22539.72
697.2210, 22725.00
698.3770, 22728.00
699.5330, 22809.00
700.6880, 22990.00
701.8440, 23088.00
702.9990, 22922.00
704.1550, 22803.00
705.3100, 22819.00
706.4650, 22707.00
707.6190, 22843.00
708.7740, 22722.00
709.9290, 22627.00
711.0830, 22781.00
712.2370, 22937.00
713.3910, 23127.00
714.5450, 23114.00
715.6980, 23231.00
716.8520, 23316.00
718.0050, 23244.00
719.1580, 23303.76
720.3110, 23167.00
721.4640, 23290.00
722.6170, 23090.00
723.7700, 23090.00
724.9220, 23071.00
726.0740, 22871.00
727.2260, 23174.00
728.3780, 23091.00
729.5300, 23121.00
730.6810, 23048.00
731.8330, 23067.00
732.9840, 23188.00
734.1350, 23193.00
735.2860, 23312.00
736.4370, 23237.00
737.5880, 23289.00
738.7380, 23132.00
739.8880, 23346.00
741.0390, 23277.00
742.1890, 23254.00
743.3380, 23439.00
744.4880, 23389.00
745.6380, 23330.00
746.7870, 23655.00
747.9360, 23413.00
749.0850, 23522.00
750.2340, 23532.00
751.3830, 23568.00
752.5310, 23538.00
753.6800, 23594.32
754.8280, 23785.00
755.9760, 23759.00
757.1240, 23788.00
758.2720, 24037.00
759.4190, 23742.00
760.5670, 23772.00
761.7140, 23892.00
762.8610, 23872.00
764.0080, 23879.00
765.1550, 23998.00
766.3020, 24015.28
767.4480, 24160.00
768.5950, 24151.00
769.7410, 24092.00
770.8870, 24144.00
772.0330, 24001.00
773.1780, 24066.66
774.3240, 24316.00
775.4690, 24164.00
776.6140, 24160.00
777.7590, 24276.00
778.9040, 24543.00
780.0490, 24226.00
781.1940, 24355.00
782.3380, 24631.00
783.4820, 24446.00
784.6260, 24529.00
785.7700, 24543.00
786.9140, 24417.00
788.0580, 24564.00
789.2010, 24679.00
790.3450, 24790.00
791.4880, 24561.00
792.6310, 24843.00
793.7730, 24622.00
794.9160, 24669.00
796.0590, 24938.00
797.2010, 24776.00
798.3430, 24891.00
799.4850, 24979.00
800.6270, 25058.00
801.7690, 25176.00
802.9100, 25055.00
804.0520, 24988.00
805.1930, 25165.00
806.3340, 24963.00
807.4750, 25099.00
808.6160, 25173.00
809.7560, 25021.00
810.8970, 25320.00
812.0370, 25310.00
813.1770, 25342.00
814.3170, 25339.00
815.4570, 25465.00
816.5960, 25527.00
817.7360, 25412.00
818.8750, 25563.00
820.0140, 25479.00
821.1530, 25472.00
822.2920, 25418.00
823.4310, 25462.77
824.5690, 25636.00
825.7070, 25629.00
826.8460, 25691.00
827.9840, 25875.00
829.1220, 25894.00
830.2590, 25685.00
831.3970, 25964.00
832.5340, 25836.00
833.6710, 25928.00
834.8080, 25910.00
835.9450, 26112.00
837.0820, 26091.00
838.2190, 26244.00
839.3550, 26043.00
840.4910, 26174.00
841.6270, 26306.00
842.7630, 26436.00
843.8990, 26330.00
845.0350, 26378.00
846.1700, 26312.00
847.3060, 26409.00
848.4410, 26398.82
849.5760, 26553.00
850.7100, 26463.00
851.8450, 26432.00
852.9800, 26515.00
854.1140, 26622.00
855.2480, 26540.00
856.3820, 26701.00
857.5160, 26710.61
858.6500, 26747.00
859.7830, 26792.00
860.9170, 26759.00
862.0500, 26761.00
863.1830, 26895.00
864.3160, 27141.00
865.4480, 27191.00
866.5810, 27340.00
867.7130, 27587.00
868.8460, 27250.00
869.9780, 27259.00
871.1100, 27099.00
872.2410, 27336.00
873.3730, 27229.00
874.5050, 27279.00
875.6360, 27278.00
876.7670, 27152.00
877.8980, 27500.00
879.0290, 27399.00
880.1590, 27193.00
881.2900, 27601.00
882.4200, 27395.00
883.5500, 27547.00
884.6800, 27681.00
885.8100, 27633.00
886.9400, 27952.00
888.0690, 27957.74
889.1990, 27921.00
890.3280, 28127.00
891.4570, 28375.00
892.5860, 28460.00
893.7140, 28850.00
894.8430, 28963.00
895.9710, 29103.00
897.1000, 29478.00
898.2280, 30043.00
899.3560, 30823.00
900.4830, 31817.00
901.6110, 33392.00
902.7380, 35451.00
903.8660, 38608.00
904.9930, 42156.00
906.1200, 46229.00
907.2460, 49057.00
908.3730, 47474.00
909.5000, 44410.00
910.6260, 40493.00
911.7520, 37153.00
912.8780, 34795.00
914.0040, 32623.00
915.1290, 31312.00
916.2550, 30701.00
917.3800, 30302.00
918.5050, 29779.00
919.6300, 29563.00
920.7550, 29623.00
921.8800, 29496.00
923.0040, 29712.00
924.1290, 29540.00
925.2530, 29657.00
926.3770, 29970.00
927.5010, 30025.00
928.6250, 29957.00
929.7480, 29952.00
930.8720, 29757.00
931.9950, 29774.00
933.1180, 29616.00
934.2410, 29406.00
935.3640, 29597.00
936.4860, 29389.00
937.6090, 29332.00
938.7310, 29317.00
939.8530, 29349.00
940.9750, 29272.00
942.0970, 29336.00
943.2180, 29428.70
944.3400, 29588.00
945.4610, 29748.00
946.5820, 29991.00
947.7030, 30287.00
948.8240, 30446.00
949.9450, 30843.00
951.0650, 31285.00
952.1860, 31427.00
953.3060, 31436.00
954.4260, 31355.00
955.5460, 31094.00
956.6650, 30648.00
957.7850, 30142.00
958.9040, 30445.00
960.0230, 30319.00
961.1420, 30057.00
962.2610, 30175.00
963.3800, 29782.00
964.4990, 30203.00
965.6170, 29979.00
966.7350, 30011.00
967.8530, 30164.00
968.9710, 29976.00
970.0890, 30222.00
971.2070, 30078.00
972.3240, 30161.00
973.4410, 30430.00
974.5580, 30492.00
975.6750, 30626.00
976.7920, 30592.00
977.9090, 30910.00
979.0250, 30864.00
980.1410, 30966.00
981.2580, 31003.00
982.3740, 31296.00
983.4890, 31402.00
984.6050, 31168.00
985.7200, 31008.00
986.8360, 30795.00
987.9510, 30690.00
989.0660, 30597.55
990.1810, 30538.46
991.2950, 30576.00
992.4100, 30615.00
993.5240, 30801.00
994.6390, 31074.00
995.7530, 30823.00
996.8660, 30660.00
997.9800, 30890.00
999.0940, 31048.00
1000.207, 31131.00
1001.320, 31130.00
1002.433, 31455.00
1003.546, 31239.00
1004.659, 31385.00
1005.772, 31521.00
1006.884, 31474.00
1007.996, 31925.00
1009.108, 31839.00
1010.220, 31750.00
1011.332, 32259.00
1012.444, 32550.00
1013.555, 32614.00
1014.666, 32116.00
1015.777, 31898.00
1016.888, 32083.00
1017.999, 31729.00
1019.110, 31808.00
1020.220, 31731.00
1021.331, 31720.00
1022.441, 31803.00
1023.551, 31908.00
1024.661, 31628.00
1025.770, 31748.00
1026.880, 31665.00
1027.989, 31637.00
1029.098, 31689.00
1030.207, 31884.00
1031.316, 31745.00
1032.425, 31648.00
1033.533, 31825.00
1034.642, 31746.00
1035.750, 31892.00
1036.858, 31804.00
1037.966, 31768.00
1039.073, 31832.00
1040.181, 31858.19
1041.288, 31946.00
1042.396, 31994.00
1043.503, 32141.00
1044.610, 32126.00
1045.716, 32158.00
1046.823, 32330.00
1047.929, 32383.00
1049.036, 32091.00
1050.142, 32212.00
1051.248, 32187.00
1052.353, 32141.81
1053.459, 32190.00
1054.564, 32230.00
1055.670, 32339.00
1056.775, 32505.00
1057.880, 32556.70
1058.985, 32747.00
1060.089, 32669.00
1061.194, 32694.00
1062.298, 32606.00
1063.402, 32815.00
1064.506, 32747.00
1065.610, 32666.00
1066.713, 33053.00
1067.817, 32927.00
1068.920, 32899.00
1070.023, 33097.00
1071.126, 33410.00
1072.229, 33486.00
1073.332, 34097.00
1074.435, 34673.00
1075.537, 35935.00
1076.639, 37512.00
1077.741, 40866.00
1078.843, 46637.00
1079.945, 46752.68
1081.046, 46941.64
1082.148, 47757.00
1083.249, 43103.00
1084.350, 40155.00
1085.451, 37648.00
1086.551, 37007.00
1087.652, 36546.00
1088.752, 37678.00
1089.853, 39513.00
1090.953, 42791.00
1092.053, 49305.00
1093.152, 58466.00
1094.252, 58297.00
1095.351, 50298.00
1096.451, 44304.00
1097.550, 40568.00
1098.649, 37273.00
1099.748, 35466.00
1100.846, 34478.00
1101.945, 34308.00
1103.043, 34006.00
1104.141, 34100.00
1105.239, 33912.00
1106.337, 33965.00
1107.434, 33880.00
1108.532, 33685.00
1109.629, 33920.00
1110.726, 33820.00
1111.823, 33816.00
1112.920, 33947.00
1114.017, 33908.00
1115.113, 33965.00
1116.210, 33912.00
1117.306, 34029.00
1118.402, 34227.00
1119.498, 34481.00
1120.593, 34432.01
1121.689, 34359.00
1122.784, 34367.00
1123.879, 34482.00
1124.974, 34462.00
1126.069, 34651.00
1127.164, 34275.00
1128.259, 34236.00
1129.353, 34086.00
1130.447, 34198.00
1131.541, 34116.00
1132.635, 34348.00
1133.729, 34098.00
1134.822, 34350.00
1135.916, 34410.00
1137.009, 34300.00
1138.102, 34524.00
1139.195, 34603.00
1140.288, 34281.00
1141.380, 34342.00
1142.473, 34252.00
1143.565, 34263.77
1144.657, 34371.26
1145.749, 34442.00
1146.841, 34561.00
1147.932, 34704.00
1149.024, 34694.00
1150.115, 34573.00
1151.206, 34625.00
1152.297, 34639.00
1153.388, 34755.00
1154.479, 34885.00
1155.569, 34811.00
1156.659, 34901.00
1157.750, 35029.00
1158.839, 34729.00
1159.929, 35031.00
1161.019, 35131.00
1162.108, 35021.00
1163.198, 34814.00
1164.287, 35012.00
1165.376, 35197.00
1166.465, 34952.00
1167.553, 35278.00
1168.642, 35013.00
1169.730, 35071.00
1170.818, 35194.00
1171.906, 35180.00
1172.994, 35031.00
1174.082, 35231.00
1175.170, 35078.00
1176.257, 35445.00
1177.344, 35276.00
1178.431, 35145.00
1179.518, 35370.00
1180.605, 35332.00
1181.691, 35406.00
1182.778, 35523.00
1183.864, 35558.00
1184.950, 35599.05
1186.036, 35556.00
1187.122, 35640.00
1188.207, 35738.00
1189.292, 35787.00
1190.378, 35693.00
1191.463, 35795.00
1192.548, 35543.00
1193.632, 35975.00
1194.717, 35827.00
1195.801, 35900.00
1196.886, 35680.00
1197.970, 35899.00
1199.054, 35784.00
1200.137, 35820.00
1201.221, 35938.00
1202.305, 35843.00
1203.388, 36013.00
1204.471, 35951.00
1205.554, 36115.00
1206.637, 36114.00
1207.719, 36082.00
1208.802, 36246.00
1209.884, 36020.00
1210.966, 36101.00
1212.048, 35897.00
1213.130, 36193.00
1214.212, 36379.00
1215.293, 36111.00
1216.374, 36396.00
1217.456, 36231.00
1218.536, 36496.00
1219.617, 36377.00
1220.698, 36528.00
1221.778, 36327.00
1222.859, 36452.00
1223.939, 36583.00
1225.019, 36269.00
1226.099, 36466.00
1227.178, 36709.00
1228.258, 36631.00
1229.337, 36597.00
1230.417, 36732.00
1231.496, 36394.00
1232.574, 36684.00
1233.653, 36683.00
1234.732, 36721.00
1235.810, 36879.00
1236.888, 36546.00
1237.966, 36822.00
1239.044, 37187.00
1240.122, 36911.00
1241.199, 36858.00
1242.277, 36945.00
1243.354, 37195.00
1244.431, 36865.00
1245.508, 37117.00
1246.585, 36924.00
1247.661, 37211.00
1248.738, 37084.00
1249.814, 37043.00
1250.890, 37132.00
1251.966, 37107.00
1253.042, 37238.00
1254.117, 36933.00
1255.193, 36839.00
1256.268, 37285.00
1257.343, 36828.00
1258.418, 36964.00
1259.493, 36892.00
1260.567, 37152.00
1261.642, 37219.00
1262.716, 37274.00
1263.790, 37138.00
1264.864, 37433.00
1265.938, 37521.00
1267.011, 37355.00
1268.085, 37363.00
1269.158, 37403.00
1270.231, 37410.00
1271.304, 37458.00
1272.377, 37584.00
1273.450, 37487.00
1274.522, 37548.00
1275.594, 37585.00
1276.666, 37439.00
1277.738, 37601.00
1278.810, 37839.00
1279.882, 37859.00
1280.953, 37860.00
