##NAMES=Tilleyite
##RRUFFID=R050227
##IDEAL CHEMISTRY=Ca_5_Si_2_O_7_(CO_3_)_2_
##LOCALITY=Crestmore Quarry, Riverside County, California, USA
##OWNER=RRUFF
##SOURCE=Marcus Origlieri
##DESCRIPTION=Aggregate of colorless subhedral crystals
##STATUS=The identification of this mineral has been confirmed by X-ray diffraction.
##URL=rruff.info/R050227
##PIN_ID=L00359
##ORIENTATION=Laser parallel to (1 0 1). Fiducial mark perpendicular to laser is parallel to b [0 1 0]
95.94800, 8430.000
97.18200, 8458.000
98.41600, 8296.000
99.64900, 8277.000
100.8830, 8142.000
102.1160, 8220.026
103.3490, 8091.000
104.5820, 8498.000
105.8150, 8852.000
107.0470, 9201.000
108.2800, 10084.00
109.5120, 10400.00
110.7440, 10241.00
111.9760, 10094.00
113.2080, 9929.000
114.4400, 9769.000
115.6710, 9670.000
116.9030, 9789.000
118.1340, 10038.00
119.3650, 10304.00
120.5960, 10958.00
121.8270, 11387.00
123.0580, 11512.00
124.2880, 11197.00
125.5190, 10653.00
126.7490, 10087.00
127.9790, 9751.000
129.2090, 9618.000
130.4390, 9523.000
131.6680, 9381.000
132.8980, 9400.000
134.1270, 9431.000
135.3560, 9411.000
136.5850, 9540.000
137.8140, 9875.000
139.0430, 10114.00
140.2710, 10356.00
141.5000, 10579.04
142.7280, 10933.00
143.9560, 10976.00
145.1840, 11175.00
146.4120, 11410.00
147.6390, 11109.00
148.8670, 11109.00
150.0940, 10767.00
151.3210, 10752.00
152.5490, 10726.00
153.7750, 10953.00
155.0020, 11406.00
156.2290, 11692.00
157.4550, 11944.00
158.6810, 12231.00
159.9080, 12058.00
161.1340, 11394.00
162.3590, 10709.00
163.5850, 10319.00
164.8110, 10066.00
166.0360, 9739.000
167.2610, 9731.000
168.4860, 9486.000
169.7110, 9701.000
170.9360, 9534.000
172.1610, 9509.000
173.3850, 9638.000
174.6100, 9686.000
175.8340, 9714.000
177.0580, 9842.000
178.2820, 10145.00
179.5050, 10128.00
180.7290, 10203.00
181.9520, 10327.00
183.1760, 10268.00
184.3990, 10106.00
185.6220, 10107.00
186.8450, 10056.00
188.0670, 9955.000
189.2900, 10125.00
190.5120, 10151.00
191.7340, 10353.00
192.9560, 10481.00
194.1780, 10736.00
195.4000, 11005.00
196.6220, 11181.00
197.8430, 11190.00
199.0640, 11232.00
200.2860, 11013.00
201.5070, 10895.00
202.7270, 10827.00
203.9480, 10607.00
205.1690, 10508.00
206.3890, 10317.00
207.6090, 10399.00
208.8290, 10056.00
210.0490, 10122.00
211.2690, 10196.00
212.4890, 9991.000
213.7080, 10156.00
214.9280, 9963.000
216.1470, 10233.00
217.3660, 10195.00
218.5850, 10214.00
219.8030, 10199.00
221.0220, 10212.00
222.2400, 10253.00
223.4590, 10489.00
224.6770, 10529.00
225.8950, 10621.00
227.1120, 10865.00
228.3300, 10860.00
229.5480, 10956.00
230.7650, 10967.00
231.9820, 10882.00
233.1990, 11047.00
234.4160, 11084.00
235.6330, 10925.00
236.8490, 10862.00
238.0660, 10962.00
239.2820, 10915.00
240.4980, 10852.00
241.7140, 10898.00
242.9300, 10909.00
244.1460, 10927.00
245.3610, 10923.00
246.5770, 11049.00
247.7920, 11124.00
249.0070, 11229.00
250.2220, 11250.00
251.4370, 11406.00
252.6510, 11547.00
253.8660, 11607.00
255.0800, 11940.00
256.2940, 12140.00
257.5080, 12301.00
258.7220, 12534.00
259.9360, 12704.00
261.1490, 12585.00
262.3630, 12608.00
263.5760, 12437.00
264.7890, 12397.00
266.0020, 12336.00
267.2150, 12131.00
268.4270, 11991.00
269.6400, 12177.00
270.8520, 12060.00
272.0640, 12313.00
273.2760, 12527.00
274.4880, 12657.00
275.7000, 12767.00
276.9120, 12958.00
278.1230, 13183.00
279.3340, 13230.19
280.5450, 13462.00
281.7560, 13365.00
282.9670, 13654.00
284.1780, 13735.00
285.3880, 13792.00
286.5980, 13919.00
287.8090, 14266.00
289.0190, 14364.00
290.2290, 14169.00
291.4380, 14172.00
292.6480, 13935.00
293.8570, 14020.00
295.0670, 13877.00
296.2760, 14068.00
297.4850, 14525.00
298.6930, 14886.00
299.9020, 15564.00
301.1110, 15739.00
302.3190, 16081.00
303.5270, 15782.00
304.7350, 15468.00
305.9430, 14877.00
307.1510, 14340.00
308.3580, 14002.00
309.5660, 13635.00
310.7730, 13492.00
311.9800, 13345.00
313.1870, 13270.00
314.3940, 13363.00
315.6010, 13129.00
316.8070, 13093.00
318.0130, 12945.00
319.2200, 12867.00
320.4260, 12790.00
321.6310, 12750.00
322.8370, 12811.00
324.0430, 12575.00
325.2480, 12628.00
326.4540, 12469.00
327.6590, 12214.00
328.8640, 12209.00
330.0680, 12142.00
331.2730, 12135.00
332.4780, 12046.00
333.6820, 12148.00
334.8860, 12121.00
336.0900, 12156.30
337.2940, 12219.78
338.4980, 12252.00
339.7010, 12336.00
340.9050, 12409.00
342.1080, 12482.00
343.3110, 12393.00
344.5140, 12584.00
345.7170, 12669.00
346.9200, 12965.00
348.1220, 13129.00
349.3240, 13220.00
350.5270, 13482.00
351.7290, 13836.00
352.9310, 13986.00
354.1320, 14212.00
355.3340, 14377.00
356.5350, 14249.00
357.7370, 13993.00
358.9380, 13851.00
360.1390, 13730.00
361.3400, 13590.00
362.5400, 13501.36
363.7410, 13360.00
364.9410, 13342.00
366.1410, 13148.00
367.3410, 13080.00
368.5410, 13246.00
369.7410, 13046.00
370.9400, 13014.00
372.1400, 12861.00
373.3390, 12793.00
374.5380, 12725.00
375.7370, 12687.00
376.9360, 12498.00
378.1350, 12436.00
379.3330, 12445.00
380.5310, 12330.00
381.7300, 12436.00
382.9280, 12465.00
384.1260, 12372.00
385.3230, 12349.00
386.5210, 12534.00
387.7180, 12490.00
388.9160, 12492.00
390.1130, 12511.00
391.3100, 12506.00
392.5060, 12655.00
393.7030, 12725.00
394.9000, 12837.00
396.0960, 12875.00
397.2920, 12902.18
398.4880, 12909.00
399.6840, 12898.00
400.8800, 12856.00
402.0750, 12828.00
403.2710, 12735.00
404.4660, 12688.00
405.6610, 12658.00
406.8560, 12579.00
408.0510, 12642.00
409.2450, 12684.00
410.4400, 12669.00
411.6340, 12686.00
412.8280, 12718.08
414.0220, 12701.00
415.2160, 12776.00
416.4100, 12633.00
417.6030, 12639.00
418.7970, 12677.00
419.9900, 12677.00
421.1830, 12707.00
422.3760, 12771.00
423.5690, 12730.00
424.7610, 12835.00
425.9540, 12879.00
427.1460, 12881.00
428.3380, 12901.78
429.5300, 12930.00
430.7220, 12830.00
431.9140, 12876.00
433.1050, 12769.00
434.2970, 12733.00
435.4880, 12830.00
436.6790, 12803.00
437.8700, 12857.00
439.0610, 12765.00
440.2510, 12933.00
441.4420, 12734.00
442.6320, 12946.00
443.8220, 12888.00
445.0120, 12847.00
446.2020, 12898.00
447.3910, 12920.00
448.5810, 12892.00
449.7700, 13001.00
450.9600, 12944.00
452.1490, 12990.00
453.3370, 13133.00
454.5260, 13014.00
455.7150, 13282.00
456.9030, 13172.00
458.0910, 13080.00
459.2800, 13116.00
460.4670, 13232.00
461.6550, 13103.00
462.8430, 13349.00
464.0300, 13212.00
465.2180, 13215.00
466.4050, 13208.00
467.5920, 13244.00
468.7790, 13277.00
469.9650, 13286.00
471.1520, 13305.15
472.3380, 13363.20
473.5250, 13347.00
474.7110, 13457.00
475.8970, 13544.00
477.0820, 13537.00
478.2680, 13518.00
479.4540, 13731.00
480.6390, 13734.00
481.8240, 13834.00
483.0090, 13836.00
484.1940, 13685.00
485.3780, 13705.00
486.5630, 13752.00
487.7470, 13712.00
488.9320, 13776.00
490.1160, 13729.00
491.3000, 13705.00
492.4830, 13882.00
493.6670, 13779.00
494.8500, 13947.00
496.0340, 13828.00
497.2170, 13765.00
498.4000, 13789.00
499.5820, 13878.00
500.7650, 14033.00
501.9480, 14152.00
503.1300, 14067.00
504.3120, 14256.00
505.4940, 14144.00
506.6760, 14398.00
507.8580, 14416.00
509.0390, 14257.00
510.2210, 14258.00
511.4020, 14141.00
512.5830, 14130.00
513.7640, 14130.00
514.9450, 14123.71
516.1250, 14143.08
517.3060, 14172.00
518.4860, 14239.00
519.6660, 14225.00
520.8460, 14376.00
522.0260, 14488.00
523.2060, 14494.00
524.3850, 14571.00
525.5650, 14783.00
526.7440, 14872.00
527.9230, 14864.00
529.1020, 14714.00
530.2810, 14870.00
531.4590, 14894.00
532.6380, 14779.00
533.8160, 14802.00
534.9940, 14654.00
536.1720, 14804.00
537.3500, 14709.00
538.5270, 14874.00
539.7050, 14908.00
540.8820, 14970.00
542.0590, 15035.00
543.2360, 15225.00
544.4130, 15280.00
545.5900, 15444.00
546.7660, 15453.79
547.9430, 15521.00
549.1190, 15424.00
550.2950, 15319.00
551.4710, 15234.00
552.6470, 15160.38
553.8220, 15186.00
554.9980, 15070.00
556.1730, 15097.00
557.3480, 15144.00
558.5230, 15117.00
559.6980, 15175.00
560.8730, 15078.00
562.0470, 14979.00
563.2220, 15065.00
564.3960, 14953.00
565.5700, 14936.00
566.7440, 15032.00
567.9170, 15047.00
569.0910, 15152.00
570.2640, 15049.00
571.4380, 15227.00
572.6110, 15089.00
573.7840, 15178.00
574.9570, 15099.00
576.1290, 15243.00
577.3020, 15225.00
578.4740, 15149.00
579.6460, 15183.00
580.8180, 15172.00
581.9900, 15226.00
583.1620, 15199.00
584.3330, 15277.00
585.5040, 15299.00
586.6760, 15395.00
587.8470, 15419.00
589.0180, 15439.54
590.1880, 15473.91
591.3590, 15467.00
592.5290, 15453.00
593.7000, 15485.00
594.8700, 15387.00
596.0400, 15351.00
597.2090, 15655.00
598.3790, 15541.00
599.5490, 15532.00
600.7180, 15693.00
601.8870, 15591.00
603.0560, 15612.00
604.2250, 15637.00
605.3940, 15636.74
606.5620, 15759.00
607.7300, 15686.00
608.8990, 15740.00
610.0670, 15702.00
611.2350, 15846.00
612.4020, 15909.00
613.5700, 15976.00
614.7370, 15857.00
615.9050, 15985.00
617.0720, 15954.00
618.2390, 16025.00
619.4060, 16081.00
620.5720, 16072.18
621.7390, 16058.00
622.9050, 16087.00
624.0710, 16235.00
625.2370, 16245.00
626.4030, 16132.00
627.5690, 16360.00
628.7340, 16269.00
629.9000, 16517.00
631.0650, 16499.00
632.2300, 16502.00
633.3950, 16578.00
634.5600, 16716.33
635.7240, 16933.00
636.8890, 17130.00
638.0530, 17341.00
639.2170, 17624.00
640.3810, 17883.00
641.5450, 18472.00
642.7080, 19206.00
643.8720, 19666.00
645.0350, 20596.00
646.1980, 21167.00
647.3610, 21593.00
648.5240, 21516.00
649.6870, 20921.00
650.8490, 20054.00
652.0120, 19349.00
653.1740, 18800.00
654.3360, 18251.00
655.4980, 17943.00
656.6600, 17708.00
657.8210, 17428.00
658.9830, 17367.00
660.1440, 17186.00
661.3050, 17211.00
662.4660, 17168.00
663.6270, 17199.00
664.7870, 17089.00
665.9480, 16978.00
667.1080, 17104.00
668.2680, 17018.00
669.4280, 17008.00
670.5880, 17097.00
671.7480, 16973.00
672.9070, 16932.00
674.0670, 17109.00
675.2260, 17156.00
676.3850, 17093.00
677.5440, 17016.00
678.7030, 17217.00
679.8610, 17163.00
681.0200, 17199.00
682.1780, 17216.00
683.3360, 17196.00
684.4940, 17151.00
685.6520, 17294.00
686.8090, 17305.00
687.9670, 17495.00
689.1240, 17544.00
690.2810, 17364.00
691.4380, 17419.00
692.5950, 17557.00
693.7520, 17784.00
694.9080, 18153.00
696.0650, 18558.00
697.2210, 18555.00
698.3770, 18547.00
699.5330, 18474.00
700.6880, 18485.00
701.8440, 18431.51
702.9990, 18561.00
704.1550, 18259.00
705.3100, 18188.00
706.4650, 17908.00
707.6190, 18043.00
708.7740, 17921.00
709.9290, 17910.00
711.0830, 18036.00
712.2370, 18003.00
713.3910, 18195.00
714.5450, 18414.00
715.6980, 18536.00
716.8520, 18626.00
718.0050, 18505.00
719.1580, 18513.00
720.3110, 18577.00
721.4640, 18603.00
722.6170, 18641.00
723.7700, 18481.00
724.9220, 18266.00
726.0740, 18270.00
727.2260, 18244.00
728.3780, 18224.00
729.5300, 18110.00
730.6810, 18024.00
731.8330, 18076.00
732.9840, 18370.00
734.1350, 18265.00
735.2860, 18287.00
736.4370, 18385.00
737.5880, 18334.00
738.7380, 18376.00
739.8880, 18266.00
741.0390, 18257.00
742.1890, 18199.00
743.3380, 18346.00
744.4880, 18359.00
745.6380, 18375.00
746.7870, 18375.00
747.9360, 18456.00
749.0850, 18533.00
750.2340, 18527.00
751.3830, 18515.00
752.5310, 18639.00
753.6800, 18389.00
754.8280, 18597.00
755.9760, 18541.00
757.1240, 18632.00
758.2720, 18753.00
759.4190, 18689.00
760.5670, 18634.00
761.7140, 18804.00
762.8610, 18877.00
764.0080, 18701.00
765.1550, 18884.00
766.3020, 18883.00
767.4480, 18750.00
768.5950, 18908.00
769.7410, 19020.00
770.8870, 18843.00
772.0330, 18951.00
773.1780, 18753.00
774.3240, 18976.00
775.4690, 18956.00
776.6140, 18990.00
777.7590, 19122.00
778.9040, 19029.00
780.0490, 19085.00
781.1940, 19218.00
782.3380, 19216.00
783.4820, 19092.00
784.6260, 19175.00
785.7700, 19135.00
786.9140, 19233.00
788.0580, 19255.00
789.2010, 19365.00
790.3450, 19439.00
791.4880, 19282.00
792.6310, 19077.00
793.7730, 19404.00
794.9160, 19408.00
796.0590, 19643.00
797.2010, 19524.00
798.3430, 19508.00
799.4850, 19485.00
800.6270, 19490.00
801.7690, 19538.00
802.9100, 19723.00
804.0520, 19735.00
805.1930, 19811.00
806.3340, 19749.00
807.4750, 19681.00
808.6160, 19769.00
809.7560, 19713.00
810.8970, 19928.00
812.0370, 19903.00
813.1770, 20044.00
814.3170, 19864.00
815.4570, 20112.00
816.5960, 19951.00
817.7360, 20093.00
818.8750, 20137.00
820.0140, 20031.00
821.1530, 20254.00
822.2920, 20019.00
823.4310, 20050.00
824.5690, 20124.00
825.7070, 20169.00
826.8460, 20176.00
827.9840, 20081.00
829.1220, 20391.00
830.2590, 20343.00
831.3970, 20342.00
832.5340, 20513.00
833.6710, 20514.00
834.8080, 20888.00
835.9450, 20815.00
837.0820, 20928.00
838.2190, 20748.00
839.3550, 20938.00
840.4910, 21014.00
841.6270, 20961.00
842.7630, 20731.00
843.8990, 20753.00
845.0350, 20696.00
846.1700, 20812.00
847.3060, 20682.00
848.4410, 20778.00
849.5760, 20594.00
850.7100, 20667.00
851.8450, 20805.00
852.9800, 20779.00
854.1140, 20882.00
855.2480, 20769.00
856.3820, 20729.00
857.5160, 20869.00
858.6500, 21017.00
859.7830, 20835.00
860.9170, 21092.00
862.0500, 21000.00
863.1830, 21211.00
864.3160, 21195.00
865.4480, 21446.00
866.5810, 21267.00
867.7130, 21646.00
868.8460, 21384.00
869.9780, 21461.00
871.1100, 21278.00
872.2410, 21354.00
873.3730, 21234.00
874.5050, 21586.00
875.6360, 21377.00
876.7670, 21554.00
877.8980, 21530.00
879.0290, 21511.00
880.1590, 21602.00
881.2900, 21555.00
882.4200, 21658.00
883.5500, 21725.00
884.6800, 21901.00
885.8100, 21765.00
886.9400, 21836.00
888.0690, 21933.00
889.1990, 21949.00
890.3280, 22032.00
891.4570, 22175.00
892.5860, 22219.00
893.7140, 22464.24
894.8430, 22633.00
895.9710, 22950.00
897.1000, 23363.00
898.2280, 23626.00
899.3560, 24246.00
900.4830, 25493.00
901.6110, 26749.00
902.7380, 28170.00
903.8660, 30673.00
904.9930, 33996.00
906.1200, 37979.00
907.2460, 41312.00
908.3730, 41038.00
909.5000, 37820.00
910.6260, 33587.00
911.7520, 30288.00
912.8780, 27567.00
914.0040, 25923.00
915.1290, 24705.00
916.2550, 24271.00
917.3800, 23800.00
918.5050, 23384.00
919.6300, 23333.00
920.7550, 23121.00
921.8800, 23154.00
923.0040, 22906.00
924.1290, 23221.00
925.2530, 23168.00
926.3770, 23186.00
927.5010, 23333.00
928.6250, 23258.09
929.7480, 23410.00
930.8720, 23236.00
931.9950, 23185.00
933.1180, 23189.00
934.2410, 23366.00
935.3640, 23075.00
936.4860, 23191.00
937.6090, 23076.00
938.7310, 23258.00
939.8530, 22977.00
940.9750, 22983.00
942.0970, 23271.00
943.2180, 23010.00
944.3400, 23302.00
945.4610, 23288.00
946.5820, 23365.00
947.7030, 23665.00
948.8240, 23598.00
949.9450, 23693.00
951.0650, 23993.00
952.1860, 24094.00
953.3060, 24377.00
954.4260, 23837.00
955.5460, 24128.00
956.6650, 23887.00
957.7850, 23694.00
958.9040, 23475.00
960.0230, 23406.00
961.1420, 23424.00
962.2610, 23524.00
963.3800, 23488.00
964.4990, 23412.00
965.6170, 23429.58
966.7350, 23449.00
967.8530, 23374.00
968.9710, 23393.00
970.0890, 23404.00
971.2070, 23674.00
972.3240, 23606.00
973.4410, 23580.00
974.5580, 23954.00
975.6750, 24115.00
976.7920, 24046.00
977.9090, 24020.00
979.0250, 24213.00
980.1410, 24145.00
981.2580, 24311.00
982.3740, 24561.00
983.4890, 24356.00
984.6050, 24402.00
985.7200, 24538.00
986.8360, 24255.00
987.9510, 24350.00
989.0660, 24189.00
990.1810, 24160.00
991.2950, 24025.00
992.4100, 24318.00
993.5240, 24115.00
994.6390, 24198.00
995.7530, 24262.00
996.8660, 24222.00
997.9800, 24222.00
999.0940, 24544.00
1000.207, 24511.00
1001.320, 24447.00
1002.433, 24410.00
1003.546, 24793.00
1004.659, 24908.00
1005.772, 24949.00
1006.884, 25305.00
1007.996, 25326.00
1009.108, 25535.00
1010.220, 25811.00
1011.332, 25724.00
1012.444, 25988.00
1013.555, 25966.00
1014.666, 25643.00
1015.777, 25368.00
1016.888, 25345.00
1017.999, 25026.00
1019.110, 25147.00
1020.220, 24887.00
1021.331, 25008.00
1022.441, 24922.00
1023.551, 24700.00
1024.661, 24929.00
1025.770, 25087.00
1026.880, 25058.00
1027.989, 24930.00
1029.098, 25023.00
1030.207, 25021.00
1031.316, 25239.00
1032.425, 25150.00
1033.533, 25182.00
1034.642, 25282.00
1035.750, 25164.00
1036.858, 25145.00
1037.966, 25080.00
1039.073, 25205.00
1040.181, 25173.00
1041.288, 25165.00
1042.396, 24994.00
1043.503, 25251.00
1044.610, 25336.00
1045.716, 24964.00
1046.823, 25339.00
1047.929, 25186.00
1049.036, 25302.00
1050.142, 25525.00
1051.248, 25054.00
1052.353, 25303.00
1053.459, 25429.00
1054.564, 25452.00
1055.670, 25380.00
1056.775, 25451.00
1057.880, 25610.00
1058.985, 25506.00
1060.089, 25695.00
1061.194, 25654.00
1062.298, 25609.00
1063.402, 25923.00
1064.506, 25800.00
1065.610, 25759.00
1066.713, 25829.00
1067.817, 25768.00
1068.920, 25999.00
1070.023, 26192.00
1071.126, 26182.00
1072.229, 26699.00
1073.332, 26627.00
1074.435, 27459.00
1075.537, 28508.00
1076.639, 30154.00
1077.741, 32722.00
1078.843, 38659.00
1079.945, 47767.00
1081.046, 50564.00
1082.148, 43991.00
1083.249, 36536.00
1084.350, 32314.00
1085.451, 30684.00
1086.551, 29959.00
1087.652, 29878.00
1088.752, 30607.00
1089.853, 32221.00
1090.953, 35283.00
1092.053, 42376.00
1093.152, 52927.00
1094.252, 56176.00
1095.351, 47571.00
1096.451, 38675.00
1097.550, 32874.00
1098.649, 29682.00
1099.748, 28324.00
1100.846, 27338.00
1101.945, 27214.00
1103.043, 26941.00
1104.141, 26774.00
1105.239, 26887.00
1106.337, 26948.00
1107.434, 26633.00
1108.532, 26915.00
1109.629, 26508.00
1110.726, 26549.00
1111.823, 26553.00
1112.920, 26618.00
1114.017, 26668.00
1115.113, 26714.00
1116.210, 26882.00
1117.306, 26674.00
1118.402, 27120.00
1119.498, 26913.00
1120.593, 27077.00
1121.689, 27137.00
1122.784, 27021.00
1123.879, 27009.00
1124.974, 27078.00
1126.069, 27255.00
1127.164, 27125.00
1128.259, 26915.00
1129.353, 27035.00
1130.447, 26827.00
1131.541, 26968.00
1132.635, 26808.00
1133.729, 26895.00
1134.822, 27029.00
1135.916, 27001.00
1137.009, 27004.00
1138.102, 27036.00
1139.195, 27075.00
1140.288, 26999.00
1141.380, 27096.00
1142.473, 27037.00
1143.565, 27291.00
1144.657, 27218.00
1145.749, 27158.00
1146.841, 27310.00
1147.932, 27275.00
1149.024, 27364.00
1150.115, 27128.00
1151.206, 27379.00
1152.297, 27150.00
1153.388, 27448.00
1154.479, 27415.00
1155.569, 27342.00
1156.659, 27492.00
1157.750, 27391.00
1158.839, 27466.11
1159.929, 27526.00
1161.019, 27527.00
1162.108, 27478.00
1163.198, 27429.00
1164.287, 27431.85
1165.376, 27535.00
1166.465, 27460.00
1167.553, 27638.00
1168.642, 27759.00
1169.730, 27606.00
1170.818, 27719.00
1171.906, 27721.00
1172.994, 27621.00
1174.082, 27641.00
1175.170, 27647.00
1176.257, 27837.00
1177.344, 27749.00
1178.431, 27678.00
1179.518, 27971.00
1180.605, 28082.00
1181.691, 27954.00
1182.778, 28103.00
1183.864, 28155.00
1184.950, 28019.00
1186.036, 28138.00
1187.122, 28027.00
1188.207, 27960.00
1189.292, 28071.00
1190.378, 28102.00
1191.463, 28209.00
1192.548, 28229.00
1193.632, 28305.00
1194.717, 28275.00
1195.801, 28084.00
1196.886, 28302.00
1197.970, 28106.00
1199.054, 28253.00
1200.137, 28335.00
1201.221, 28276.00
1202.305, 28249.00
1203.388, 28457.00
1204.471, 28430.00
1205.554, 28491.00
1206.637, 28526.00
1207.719, 28567.00
1208.802, 28570.00
1209.884, 28596.00
1210.966, 28711.00
1212.048, 28454.00
1213.130, 28481.00
1214.212, 28563.00
1215.293, 28583.00
1216.374, 28660.00
1217.456, 28565.00
1218.536, 28740.00
1219.617, 28720.00
1220.698, 28885.00
1221.778, 28949.00
1222.859, 28886.00
1223.939, 28913.00
1225.019, 28691.00
1226.099, 28882.00
1227.178, 28872.00
1228.258, 28837.00
1229.337, 28976.00
1230.417, 28690.00
1231.496, 28963.00
1232.574, 29169.00
1233.653, 28991.00
1234.732, 29025.00
1235.810, 29057.00
1236.888, 28930.00
1237.966, 29140.00
1239.044, 28999.00
1240.122, 29170.00
1241.199, 29267.00
1242.277, 29244.00
1243.354, 29298.14
1244.431, 29216.00
1245.508, 29236.00
1246.585, 29168.00
1247.661, 29087.00
1248.738, 29309.00
1249.814, 29318.00
1250.890, 29079.00
1251.966, 29415.00
1253.042, 29304.00
1254.117, 29286.00
1255.193, 29162.00
1256.268, 29283.00
1257.343, 29433.00
1258.418, 29249.00
1259.493, 29310.00
1260.567, 29271.00
1261.642, 29290.00
1262.716, 29350.00
1263.790, 29318.00
1264.864, 29449.00
1265.938, 29447.40
1267.011, 29496.80
1268.085, 29529.00
1269.158, 29574.00
1270.231, 29654.00
1271.304, 29671.00
1272.377, 29733.00
1273.450, 29672.00
1274.522, 29664.00
1275.594, 29760.00
1276.666, 29641.00
1277.738, 29675.00
1278.810, 29898.00
1279.882, 29880.00
1280.953, 29998.00
