##NAMES=Tilleyite
##RRUFFID=R050227
##IDEAL CHEMISTRY=Ca_5_Si_2_O_7_(CO_3_)_2_
##LOCALITY=Crestmore Quarry, Riverside County, California, USA
##OWNER=RRUFF
##SOURCE=Marcus Origlieri
##DESCRIPTION=Aggregate of colorless subhedral crystals
##STATUS=The identification of this mineral has been confirmed by X-ray diffraction.
##URL=rruff.info/R050227
##PIN_ID=L00359
##ORIENTATION=Laser parallel to (1 0 1). Fiducial mark perpendicular to laser is parallel to b [0 1 0]
95.94800, 12587.00
97.18200, 12603.00
98.41600, 12640.00
99.64900, 12632.00
100.8830, 12947.00
102.1160, 12839.00
103.3490, 13098.00
104.5820, 13397.00
105.8150, 13877.00
107.0470, 14459.00
108.2800, 15206.00
109.5120, 15880.00
110.7440, 15541.00
111.9760, 15420.00
113.2080, 15105.00
114.4400, 14945.00
115.6710, 15004.00
116.9030, 14808.00
118.1340, 14964.00
119.3650, 15125.00
120.5960, 15385.00
121.8270, 15812.00
123.0580, 15764.00
124.2880, 15625.00
125.5190, 15372.00
126.7490, 14923.00
127.9790, 14831.00
129.2090, 14800.00
130.4390, 14601.00
131.6680, 14765.00
132.8980, 14573.00
134.1270, 14668.00
135.3560, 14803.00
136.5850, 14842.00
137.8140, 15234.00
139.0430, 15400.00
140.2710, 15538.00
141.5000, 15897.00
142.7280, 16035.00
143.9560, 16201.00
145.1840, 16146.00
146.4120, 16193.00
147.6390, 16122.00
148.8670, 15886.00
150.0940, 15841.00
151.3210, 15832.00
152.5490, 15807.00
153.7750, 16007.00
155.0020, 16088.00
156.2290, 16429.00
157.4550, 16784.00
158.6810, 16672.00
159.9080, 16434.00
161.1340, 16040.00
162.3590, 15596.00
163.5850, 15353.00
164.8110, 14899.00
166.0360, 14802.00
167.2610, 14438.00
168.4860, 14501.00
169.7110, 14239.00
170.9360, 14467.00
172.1610, 14368.00
173.3850, 14292.00
174.6100, 14481.00
175.8340, 14513.00
177.0580, 14557.00
178.2820, 14582.00
179.5050, 14858.00
180.7290, 14642.00
181.9520, 14762.00
183.1760, 14594.00
184.3990, 14681.00
185.6220, 14594.00
186.8450, 14691.00
188.0670, 14619.00
189.2900, 14867.00
190.5120, 14838.00
191.7340, 15102.00
192.9560, 15204.00
194.1780, 15471.00
195.4000, 15662.00
196.6220, 15770.00
197.8430, 15768.00
199.0640, 15777.00
200.2860, 15709.70
201.5070, 15577.92
202.7270, 15463.00
203.9480, 15218.00
205.1690, 15018.00
206.3890, 14811.00
207.6090, 14592.00
208.8290, 14647.00
210.0490, 14643.00
211.2690, 14563.00
212.4890, 14619.00
213.7080, 14519.00
214.9280, 14747.00
216.1470, 14683.00
217.3660, 14660.00
218.5850, 14608.00
219.8030, 14667.00
221.0220, 14835.00
222.2400, 14957.00
223.4590, 14981.00
224.6770, 15087.00
225.8950, 15080.00
227.1120, 15316.00
228.3300, 15211.00
229.5480, 15429.00
230.7650, 15212.00
231.9820, 15342.00
233.1990, 15264.00
234.4160, 15176.00
235.6330, 15295.00
236.8490, 15254.00
238.0660, 15397.00
239.2820, 15279.00
240.4980, 15296.00
241.7140, 15125.00
242.9300, 15294.00
244.1460, 15312.00
245.3610, 15367.00
246.5770, 15478.00
247.7920, 15554.53
249.0070, 15705.00
250.2220, 15784.00
251.4370, 15978.00
252.6510, 16110.00
253.8660, 16145.00
255.0800, 16399.00
256.2940, 16503.00
257.5080, 16620.00
258.7220, 17250.00
259.9360, 17308.00
261.1490, 17223.00
262.3630, 17221.00
263.5760, 16928.00
264.7890, 16886.00
266.0020, 16652.00
267.2150, 16728.00
268.4270, 16436.00
269.6400, 16689.00
270.8520, 16703.00
272.0640, 16799.00
273.2760, 16926.00
274.4880, 16954.51
275.7000, 17153.00
276.9120, 17156.00
278.1230, 17304.00
279.3340, 17592.00
280.5450, 17621.00
281.7560, 17873.00
282.9670, 17815.00
284.1780, 17796.00
285.3880, 18106.00
286.5980, 18258.00
287.8090, 18225.00
289.0190, 18315.00
290.2290, 18225.00
291.4380, 18245.00
292.6480, 17954.00
293.8570, 18189.00
295.0670, 18188.00
296.2760, 18380.00
297.4850, 18885.00
298.6930, 19069.00
299.9020, 19785.00
301.1110, 20020.00
302.3190, 20203.00
303.5270, 20112.00
304.7350, 19977.00
305.9430, 19558.00
307.1510, 18683.00
308.3580, 18238.00
309.5660, 17857.00
310.7730, 17722.00
311.9800, 17758.00
313.1870, 17767.00
314.3940, 17642.00
315.6010, 17465.00
316.8070, 17239.00
318.0130, 17259.00
319.2200, 17183.00
320.4260, 17256.00
321.6310, 17019.00
322.8370, 17067.00
324.0430, 16924.00
325.2480, 16769.00
326.4540, 16628.00
327.6590, 16546.00
328.8640, 16494.00
330.0680, 16465.66
331.2730, 16428.00
332.4780, 16493.00
333.6820, 16423.00
334.8860, 16449.00
336.0900, 16523.00
337.2940, 16518.00
338.4980, 16554.47
339.7010, 16676.00
340.9050, 16572.00
342.1080, 16752.00
343.3110, 16732.71
344.5140, 16986.00
345.7170, 16957.00
346.9200, 17336.00
348.1220, 17549.00
349.3240, 17724.00
350.5270, 18039.00
351.7290, 18188.00
352.9310, 18253.00
354.1320, 18561.00
355.3340, 18577.00
356.5350, 18443.00
357.7370, 18443.00
358.9380, 18057.00
360.1390, 18191.00
361.3400, 18185.00
362.5400, 17887.00
363.7410, 17440.00
364.9410, 17340.00
366.1410, 17447.00
367.3410, 17482.00
368.5410, 17333.00
369.7410, 17348.00
370.9400, 17106.00
372.1400, 17158.00
373.3390, 17105.00
374.5380, 16892.00
375.7370, 16917.00
376.9360, 16618.00
378.1350, 16812.00
379.3330, 16629.00
380.5310, 16644.00
381.7300, 16758.00
382.9280, 16703.00
384.1260, 16751.00
385.3230, 16725.00
386.5210, 16650.00
387.7180, 16711.00
388.9160, 16878.00
390.1130, 16759.00
391.3100, 17046.00
392.5060, 17163.00
393.7030, 17077.00
394.9000, 17042.00
396.0960, 17314.00
397.2920, 17182.00
398.4880, 17418.00
399.6840, 17230.00
400.8800, 17269.00
402.0750, 17225.00
403.2710, 17083.00
404.4660, 17104.00
405.6610, 17124.00
406.8560, 17052.00
408.0510, 17001.00
409.2450, 16954.00
410.4400, 17068.00
411.6340, 17097.00
412.8280, 17029.00
414.0220, 17069.00
415.2160, 17001.00
416.4100, 17084.00
417.6030, 17147.00
418.7970, 17271.00
419.9900, 17379.00
421.1830, 17352.00
422.3760, 17222.00
423.5690, 17312.00
424.7610, 17142.00
425.9540, 17294.00
427.1460, 17373.00
428.3380, 17304.00
429.5300, 17234.00
430.7220, 17294.00
431.9140, 17209.00
433.1050, 17345.00
434.2970, 17376.00
435.4880, 17253.00
436.6790, 17300.00
437.8700, 17318.00
439.0610, 17126.00
440.2510, 17227.00
441.4420, 17277.00
442.6320, 17316.00
443.8220, 17375.45
445.0120, 17278.00
446.2020, 17434.00
447.3910, 17377.00
448.5810, 17354.00
449.7700, 17490.97
450.9600, 17457.43
452.1490, 17593.00
453.3370, 17579.00
454.5260, 17397.00
455.7150, 17547.00
456.9030, 17536.00
458.0910, 17415.00
459.2800, 17732.00
460.4670, 17563.00
461.6550, 17643.00
462.8430, 17621.00
464.0300, 17637.00
465.2180, 17618.00
466.4050, 17681.00
467.5920, 17762.00
468.7790, 17672.00
469.9650, 17844.00
471.1520, 17810.00
472.3380, 17935.00
473.5250, 17868.00
474.7110, 17961.00
475.8970, 17988.00
477.0820, 18049.00
478.2680, 18169.00
479.4540, 18154.12
480.6390, 18103.00
481.8240, 18185.00
483.0090, 18237.00
484.1940, 18285.00
485.3780, 18237.00
486.5630, 18186.00
487.7470, 18337.00
488.9320, 18139.00
490.1160, 18319.00
491.3000, 18263.00
492.4830, 18338.00
493.6670, 18350.00
494.8500, 18424.00
496.0340, 18447.88
497.2170, 18541.00
498.4000, 18504.00
499.5820, 18494.00
500.7650, 18522.00
501.9480, 18474.00
503.1300, 18625.00
504.3120, 18761.00
505.4940, 18750.00
506.6760, 18944.00
507.8580, 18871.00
509.0390, 18710.00
510.2210, 18982.00
511.4020, 18864.00
512.5830, 18904.00
513.7640, 18845.00
514.9450, 19032.00
516.1250, 18929.00
517.3060, 19073.00
518.4860, 19185.00
519.6660, 19022.00
520.8460, 19100.00
522.0260, 19116.00
523.2060, 19395.00
524.3850, 19381.00
525.5650, 19369.00
526.7440, 19393.00
527.9230, 19478.00
529.1020, 19426.00
530.2810, 19519.00
531.4590, 19271.00
532.6380, 19452.00
533.8160, 19324.00
534.9940, 19440.00
536.1720, 19377.00
537.3500, 19397.00
538.5270, 19377.00
539.7050, 19559.00
540.8820, 19558.80
542.0590, 19612.50
543.2360, 19724.00
544.4130, 19629.00
545.5900, 19779.00
546.7660, 19672.00
547.9430, 19733.00
549.1190, 19854.00
550.2950, 19741.00
551.4710, 19646.00
552.6470, 19893.00
553.8220, 19561.00
554.9980, 19773.00
556.1730, 19687.00
557.3480, 19703.00
558.5230, 19720.00
559.6980, 19665.00
560.8730, 19689.17
562.0470, 19681.00
563.2220, 19632.00
564.3960, 19581.00
565.5700, 19431.00
566.7440, 19543.00
567.9170, 19797.00
569.0910, 19558.00
570.2640, 19823.00
571.4380, 19749.00
572.6110, 19676.00
573.7840, 19631.00
574.9570, 19594.17
576.1290, 19615.87
577.3020, 19611.00
578.4740, 19711.00
579.6460, 19716.08
580.8180, 19936.00
581.9900, 19763.00
583.1620, 19817.00
584.3330, 19787.00
585.5040, 20101.00
586.6760, 19936.00
587.8470, 20097.00
589.0180, 19900.00
590.1880, 19876.00
591.3590, 19926.00
592.5290, 19850.00
593.7000, 20133.00
594.8700, 20069.00
596.0400, 20194.00
597.2090, 19988.00
598.3790, 20110.00
599.5490, 20096.00
600.7180, 20150.00
601.8870, 20348.00
603.0560, 20248.00
604.2250, 20330.00
605.3940, 20250.00
606.5620, 20403.00
607.7300, 20421.00
608.8990, 20282.00
610.0670, 20430.00
611.2350, 20376.00
612.4020, 20389.00
613.5700, 20341.00
614.7370, 20274.00
615.9050, 20513.00
617.0720, 20607.00
618.2390, 20657.00
619.4060, 20714.00
620.5720, 20552.00
621.7390, 20813.00
622.9050, 20786.00
624.0710, 20605.00
625.2370, 20899.00
626.4030, 20943.00
627.5690, 20962.00
628.7340, 20918.00
629.9000, 21006.79
631.0650, 20928.00
632.2300, 21169.00
633.3950, 21213.00
634.5600, 21357.00
635.7240, 21718.00
636.8890, 21797.00
638.0530, 22136.00
639.2170, 22503.00
640.3810, 22892.00
641.5450, 23255.00
642.7080, 24112.00
643.8720, 24450.00
645.0350, 25498.00
646.1980, 25969.00
647.3610, 26126.00
648.5240, 25911.00
649.6870, 25269.00
650.8490, 24624.00
652.0120, 24055.00
653.1740, 23344.00
654.3360, 23026.00
655.4980, 22439.00
656.6600, 22158.00
657.8210, 22210.00
658.9830, 21998.00
660.1440, 21876.00
661.3050, 22004.00
662.4660, 21800.00
663.6270, 21856.00
664.7870, 21957.00
665.9480, 21673.00
667.1080, 21817.00
668.2680, 21778.00
669.4280, 21871.00
670.5880, 21745.00
671.7480, 21796.72
672.9070, 21763.00
674.0670, 21792.00
675.2260, 21873.00
676.3850, 21826.00
677.5440, 21755.00
678.7030, 21948.00
679.8610, 21838.00
681.0200, 21987.00
682.1780, 21841.00
683.3360, 21700.00
684.4940, 21889.00
685.6520, 21834.00
686.8090, 22028.00
687.9670, 21897.00
689.1240, 21964.00
690.2810, 22046.00
691.4380, 22109.82
692.5950, 22348.00
693.7520, 22443.00
694.9080, 22697.00
696.0650, 23009.00
697.2210, 22802.00
698.3770, 22724.00
699.5330, 22899.00
700.6880, 22819.00
701.8440, 22864.00
702.9990, 22793.68
704.1550, 22756.00
705.3100, 22620.00
706.4650, 22535.00
707.6190, 22540.00
708.7740, 22708.00
709.9290, 22789.00
711.0830, 22762.00
712.2370, 22735.00
713.3910, 23001.00
714.5450, 22969.00
715.6980, 23243.00
716.8520, 23259.00
718.0050, 23181.00
719.1580, 23087.00
720.3110, 23009.00
721.4640, 23079.00
722.6170, 22960.00
723.7700, 22938.00
724.9220, 22839.00
726.0740, 22898.00
727.2260, 22802.00
728.3780, 22833.00
729.5300, 22803.00
730.6810, 22901.00
731.8330, 22814.00
732.9840, 22873.00
734.1350, 22872.00
735.2860, 22858.00
736.4370, 22947.00
737.5880, 22975.00
738.7380, 23070.00
739.8880, 23138.00
741.0390, 23153.08
742.1890, 23072.00
743.3380, 23195.00
744.4880, 23087.00
745.6380, 23113.00
746.7870, 23262.00
747.9360, 23370.00
749.0850, 23446.00
750.2340, 23262.00
751.3830, 23239.00
752.5310, 23239.00
753.6800, 23424.00
754.8280, 23213.00
755.9760, 23478.00
757.1240, 23348.00
758.2720, 23481.00
759.4190, 23438.00
760.5670, 23479.00
761.7140, 23504.00
762.8610, 23471.00
764.0080, 23365.00
765.1550, 23377.00
766.3020, 23554.00
767.4480, 23533.00
768.5950, 23733.00
769.7410, 23655.00
770.8870, 23655.00
772.0330, 23592.00
773.1780, 23534.00
774.3240, 23622.00
775.4690, 23599.50
776.6140, 23667.00
777.7590, 23667.00
778.9040, 23718.00
780.0490, 23736.00
781.1940, 23839.00
782.3380, 23754.00
783.4820, 23830.00
784.6260, 23902.00
785.7700, 23852.00
786.9140, 23997.00
788.0580, 23989.00
789.2010, 23984.00
790.3450, 23931.00
791.4880, 23967.36
792.6310, 24005.00
793.7730, 24010.00
794.9160, 24044.00
796.0590, 24108.54
797.2010, 24112.00
798.3430, 24260.00
799.4850, 24356.00
800.6270, 24450.00
801.7690, 24487.38
802.9100, 24468.00
804.0520, 24444.00
805.1930, 24415.00
806.3340, 24246.00
807.4750, 24407.00
808.6160, 24314.00
809.7560, 24530.00
810.8970, 24557.00
812.0370, 24607.00
813.1770, 24701.00
814.3170, 24572.00
815.4570, 24742.00
816.5960, 24701.00
817.7360, 24901.00
818.8750, 24761.00
820.0140, 24832.00
821.1530, 24807.00
822.2920, 24991.00
823.4310, 24928.00
824.5690, 24962.00
825.7070, 25200.00
826.8460, 25252.00
827.9840, 25156.00
829.1220, 25221.00
830.2590, 25050.00
831.3970, 25403.00
832.5340, 25572.00
833.6710, 25518.00
834.8080, 25405.00
835.9450, 25611.00
837.0820, 25843.00
838.2190, 25768.00
839.3550, 25698.00
840.4910, 25856.00
841.6270, 25593.00
842.7630, 25638.00
843.8990, 25746.00
845.0350, 25639.00
846.1700, 25651.00
847.3060, 25691.00
848.4410, 25774.00
849.5760, 25636.00
850.7100, 25660.00
851.8450, 25746.00
852.9800, 25933.00
854.1140, 26040.00
855.2480, 25877.00
856.3820, 25877.00
857.5160, 25836.00
858.6500, 25962.00
859.7830, 26036.00
860.9170, 25917.00
862.0500, 25843.00
863.1830, 26010.00
864.3160, 26011.00
865.4480, 26151.00
866.5810, 26296.00
867.7130, 26294.00
868.8460, 26450.00
869.9780, 26393.00
871.1100, 26390.00
872.2410, 26176.00
873.3730, 26339.00
874.5050, 26297.00
875.6360, 26511.00
876.7670, 26099.00
877.8980, 26344.00
879.0290, 26303.00
880.1590, 26496.00
881.2900, 26434.00
882.4200, 26257.00
883.5500, 26631.00
884.6800, 26725.00
885.8100, 26511.00
886.9400, 26560.00
888.0690, 26914.00
889.1990, 26639.00
890.3280, 26980.00
891.4570, 27341.00
892.5860, 27298.00
893.7140, 27480.00
894.8430, 27777.00
895.9710, 28156.00
897.1000, 28432.00
898.2280, 28855.00
899.3560, 29639.00
900.4830, 30666.00
901.6110, 32024.00
902.7380, 33937.00
903.8660, 35885.00
904.9930, 39130.00
906.1200, 42408.00
907.2460, 44738.00
908.3730, 44382.00
909.5000, 41434.00
910.6260, 37618.00
911.7520, 34736.00
912.8780, 32334.00
914.0040, 30700.00
915.1290, 29855.00
916.2550, 28969.00
917.3800, 28718.00
918.5050, 28319.00
919.6300, 28308.00
920.7550, 27968.00
921.8800, 28250.00
923.0040, 28044.00
924.1290, 28261.00
925.2530, 28045.00
926.3770, 28196.00
927.5010, 28238.00
928.6250, 28456.00
929.7480, 28427.00
930.8720, 28603.00
931.9950, 28509.00
933.1180, 28285.00
934.2410, 28127.00
935.3640, 28281.00
936.4860, 28295.00
937.6090, 28077.00
938.7310, 28219.00
939.8530, 28053.00
940.9750, 28123.00
942.0970, 28107.00
943.2180, 28364.00
944.3400, 28145.00
945.4610, 28170.00
946.5820, 28509.00
947.7030, 28665.00
948.8240, 28825.00
949.9450, 28922.00
951.0650, 28940.00
952.1860, 29013.00
953.3060, 29043.00
954.4260, 28989.56
955.5460, 28883.00
956.6650, 28814.00
957.7850, 28708.00
958.9040, 28528.00
960.0230, 28481.00
961.1420, 28815.00
962.2610, 28563.00
963.3800, 28749.00
964.4990, 28628.00
965.6170, 28701.00
966.7350, 28632.00
967.8530, 28792.00
968.9710, 28766.00
970.0890, 28880.00
971.2070, 28724.00
972.3240, 28862.00
973.4410, 28914.00
974.5580, 29029.00
975.6750, 28939.00
976.7920, 29044.00
977.9090, 29096.00
979.0250, 29213.00
980.1410, 29440.00
981.2580, 29302.00
982.3740, 29382.00
983.4890, 29273.00
984.6050, 29543.00
985.7200, 29312.00
986.8360, 29566.00
987.9510, 29229.00
989.0660, 29220.00
990.1810, 29149.00
991.2950, 29263.00
992.4100, 29373.00
993.5240, 29508.00
994.6390, 29422.00
995.7530, 29593.00
996.8660, 29074.00
997.9800, 29428.00
999.0940, 29553.00
1000.207, 29740.00
1001.320, 30041.00
1002.433, 30310.00
1003.546, 30220.00
1004.659, 30475.00
1005.772, 30295.00
1006.884, 30488.00
1007.996, 30558.00
1009.108, 30610.00
1010.220, 30790.00
1011.332, 30898.00
1012.444, 31089.00
1013.555, 30897.00
1014.666, 30833.00
1015.777, 30623.00
1016.888, 30415.00
1017.999, 30307.00
1019.110, 30243.00
1020.220, 29950.00
1021.331, 30281.00
1022.441, 30283.00
1023.551, 30200.00
1024.661, 30020.00
1025.770, 30056.00
1026.880, 30446.00
1027.989, 30218.00
1029.098, 30305.00
1030.207, 30289.00
1031.316, 30141.00
1032.425, 30555.00
1033.533, 30568.00
1034.642, 30637.00
1035.750, 30493.00
1036.858, 30522.00
1037.966, 30384.00
1039.073, 30332.00
1040.181, 30613.00
1041.288, 30570.00
1042.396, 30558.00
1043.503, 30694.00
1044.610, 30722.00
1045.716, 30391.00
1046.823, 30442.00
1047.929, 30571.00
1049.036, 30455.00
1050.142, 30541.00
1051.248, 30528.00
1052.353, 30513.00
1053.459, 30805.00
1054.564, 30803.00
1055.670, 30649.00
1056.775, 30977.00
1057.880, 30975.00
1058.985, 31047.00
1060.089, 30914.00
1061.194, 30957.00
1062.298, 31068.00
1063.402, 31239.00
1064.506, 31104.00
1065.610, 31272.00
1066.713, 31177.00
1067.817, 31330.00
1068.920, 31382.00
1070.023, 31460.00
1071.126, 31601.00
1072.229, 31961.00
1073.332, 32606.00
1074.435, 33090.00
1075.537, 34850.00
1076.639, 36712.00
1077.741, 39029.00
1078.843, 43536.00
1079.945, 51067.00
1081.046, 53448.00
1082.148, 46751.00
1083.249, 41098.00
1084.350, 37606.00
1085.451, 36026.00
1086.551, 35262.00
1087.652, 35319.00
1088.752, 36247.00
1089.853, 38234.00
1090.953, 41003.00
1092.053, 46753.00
1093.152, 55373.00
1094.252, 57978.00
1095.351, 49988.00
1096.451, 42610.00
1097.550, 38263.00
1098.649, 35057.00
1099.748, 33526.00
1100.846, 32995.00
1101.945, 32388.00
1103.043, 32278.00
1104.141, 32037.00
1105.239, 31915.45
1106.337, 32257.00
1107.434, 31978.00
1108.532, 32137.00
1109.629, 32341.00
1110.726, 32021.00
1111.823, 31962.00
1112.920, 32376.00
1114.017, 32274.00
1115.113, 32432.00
1116.210, 32314.00
1117.306, 32414.00
1118.402, 32675.00
1119.498, 32815.00
1120.593, 32605.00
1121.689, 32959.00
1122.784, 33150.00
1123.879, 33219.00
1124.974, 32717.00
1126.069, 32753.00
1127.164, 32860.00
1128.259, 32687.00
1129.353, 32628.00
1130.447, 32558.00
1131.541, 32530.00
1132.635, 32501.00
1133.729, 32432.00
1134.822, 32586.00
1135.916, 32451.00
1137.009, 32480.00
1138.102, 32604.00
1139.195, 32618.00
1140.288, 32549.00
1141.380, 32762.00
1142.473, 32586.00
1143.565, 32809.00
1144.657, 32571.00
1145.749, 32745.00
1146.841, 32763.00
1147.932, 32657.00
1149.024, 32676.00
1150.115, 32857.00
1151.206, 33052.00
1152.297, 32868.00
1153.388, 33015.00
1154.479, 33087.00
1155.569, 33251.00
1156.659, 32902.00
1157.750, 33183.00
1158.839, 33272.00
1159.929, 33055.00
1161.019, 33313.00
1162.108, 33167.00
1163.198, 33200.00
1164.287, 32883.00
1165.376, 33433.00
1166.465, 33390.00
1167.553, 33207.00
1168.642, 33290.00
1169.730, 33243.00
1170.818, 33570.00
1171.906, 33568.00
1172.994, 33546.00
1174.082, 33539.00
1175.170, 33574.68
1176.257, 33666.00
1177.344, 33628.00
1178.431, 33558.00
1179.518, 33510.00
1180.605, 33735.00
1181.691, 33604.00
1182.778, 33885.00
1183.864, 33841.46
1184.950, 33744.00
1186.036, 33775.00
1187.122, 33827.00
1188.207, 33650.00
1189.292, 33916.00
1190.378, 33815.00
1191.463, 33970.00
1192.548, 33846.00
1193.632, 34055.00
1194.717, 33966.00
1195.801, 34157.00
1196.886, 34142.00
1197.970, 34251.00
1199.054, 34144.00
1200.137, 34146.00
1201.221, 34293.00
1202.305, 34261.11
1203.388, 34384.00
1204.471, 34381.00
1205.554, 34433.00
1206.637, 34519.00
1207.719, 34344.00
1208.802, 34638.00
1209.884, 34534.00
1210.966, 34310.00
1212.048, 34427.00
1213.130, 34565.00
1214.212, 34655.00
1215.293, 34857.00
1216.374, 34848.29
1217.456, 34543.00
1218.536, 34863.00
1219.617, 34777.00
1220.698, 34790.00
1221.778, 34986.00
1222.859, 34903.00
1223.939, 34963.00
1225.019, 35025.00
1226.099, 34991.00
1227.178, 35087.00
1228.258, 35002.00
1229.337, 34946.00
1230.417, 35476.00
1231.496, 35180.00
1232.574, 35406.00
1233.653, 35024.00
1234.732, 35087.00
1235.810, 35445.00
1236.888, 35419.00
1237.966, 35610.00
1239.044, 35633.64
1240.122, 35204.00
1241.199, 35505.00
1242.277, 35401.00
1243.354, 35130.00
1244.431, 35390.00
1245.508, 35711.00
1246.585, 35713.00
1247.661, 35496.00
1248.738, 35747.00
1249.814, 35762.00
1250.890, 35600.00
1251.966, 35807.00
1253.042, 35533.00
1254.117, 35778.00
1255.193, 35707.00
1256.268, 35964.00
1257.343, 35647.00
1258.418, 35619.00
1259.493, 35840.00
1260.567, 35994.00
1261.642, 35982.00
1262.716, 36083.00
1263.790, 35888.00
1264.864, 36186.00
1265.938, 36231.00
1267.011, 36082.00
1268.085, 36243.00
1269.158, 36463.00
1270.231, 36264.00
1271.304, 36103.00
1272.377, 36352.00
1273.450, 36114.00
1274.522, 36194.00
1275.594, 36278.00
1276.666, 36461.00
1277.738, 36381.00
1278.810, 36501.00
1279.882, 36424.00
1280.953, 36424.00
