##NAMES=Trilithionite
##RRUFFID=R040105
##IDEAL CHEMISTRY=KLi_1.5_Al_1.5_(Si_3_Al)O_10_F_2_
##LOCALITY=Brown Derby mine, Ohio City, Gunnison County, Colorado, USA
##OWNER=RRUFF
##SOURCE=University of Arizona Mineral Museum
##DESCRIPTION=Purple hexagonal tablet
##STATUS=The identification of this mineral has been confirmed by X-ray diffraction and chemical analysis
##URL=rruff.info/R040105
##MEASURED CHEMISTRY=(K_0.82_Li_0.14_Na_0.04_)(Li_0.53_Al_0.42_Mn_0.05_)_3_(Si_0.84_Al_0.17_)_4_O_10_((OH)_0.59_F_0.41_)_2_
##PIN_ID=L01598
##ORIENTATION=Laser parallel to c* (0 0 1). Fiducial mark perpendicular to laser is parallel to -a [-1 0 0]
151.3210, 19439.00
152.5490, 19268.00
153.7750, 19605.00
155.0020, 19495.00
156.2290, 19334.00
157.4550, 19443.00
158.6810, 19379.00
159.9080, 19377.00
161.1340, 19342.00
162.3590, 19477.00
163.5850, 19701.00
164.8110, 19852.00
166.0360, 19731.00
167.2610, 19912.00
168.4860, 19941.00
169.7110, 20123.00
170.9360, 20346.00
172.1610, 20635.00
173.3850, 20782.00
174.6100, 20952.00
175.8340, 20911.00
177.0580, 21109.00
178.2820, 21185.00
179.5050, 21340.00
180.7290, 21102.00
181.9520, 21485.00
183.1760, 21226.00
184.3990, 21115.00
185.6220, 21117.00
186.8450, 20741.00
188.0670, 20772.00
189.2900, 20821.00
190.5120, 20413.00
191.7340, 20477.00
192.9560, 20485.00
194.1780, 20331.00
195.4000, 20338.00
196.6220, 20393.00
197.8430, 20389.00
199.0640, 20214.00
200.2860, 20474.00
201.5070, 20425.00
202.7270, 20650.00
203.9480, 20436.00
205.1690, 20161.00
206.3890, 20104.00
207.6090, 19881.00
208.8290, 19753.00
210.0490, 19788.00
211.2690, 19838.00
212.4890, 19895.00
213.7080, 19903.18
214.9280, 20173.00
216.1470, 19909.00
217.3660, 20104.00
218.5850, 20090.00
219.8030, 19984.00
221.0220, 20128.00
222.2400, 20244.00
223.4590, 20233.00
224.6770, 20368.54
225.8950, 20229.00
227.1120, 20492.00
228.3300, 20500.00
229.5480, 20470.00
230.7650, 20864.00
231.9820, 20987.00
233.1990, 21069.00
234.4160, 21199.00
235.6330, 21484.00
236.8490, 21639.00
238.0660, 21827.00
239.2820, 21967.00
240.4980, 22127.00
241.7140, 22359.00
242.9300, 22746.00
244.1460, 22781.00
245.3610, 23018.00
246.5770, 23477.00
247.7920, 23621.00
249.0070, 23774.00
250.2220, 24164.00
251.4370, 24535.00
252.6510, 24828.00
253.8660, 25219.00
255.0800, 25492.00
256.2940, 25696.00
257.5080, 26341.00
258.7220, 26760.00
259.9360, 26820.00
261.1490, 27440.00
262.3630, 26956.00
263.5760, 26649.00
264.7890, 26568.00
266.0020, 25838.00
267.2150, 25457.00
268.4270, 24726.00
269.6400, 24208.00
270.8520, 23990.00
272.0640, 23516.00
273.2760, 23055.00
274.4880, 22650.00
275.7000, 22555.00
276.9120, 22197.00
278.1230, 22194.00
279.3340, 21969.00
280.5450, 21817.00
281.7560, 21606.00
282.9670, 21490.69
284.1780, 21468.00
285.3880, 21240.00
286.5980, 21191.00
287.8090, 20997.00
289.0190, 20953.00
290.2290, 21210.00
291.4380, 21054.00
292.6480, 21018.00
293.8570, 21083.00
295.0670, 20818.00
296.2760, 21057.00
297.4850, 21030.00
298.6930, 20971.00
299.9020, 21017.00
301.1110, 20984.00
302.3190, 20900.00
303.5270, 20853.00
304.7350, 20868.35
305.9430, 20848.52
307.1510, 20906.00
308.3580, 20872.00
309.5660, 20861.00
310.7730, 20839.00
311.9800, 20724.00
313.1870, 20886.00
314.3940, 20713.00
315.6010, 20791.00
316.8070, 20683.00
318.0130, 20697.00
319.2200, 20615.00
320.4260, 20631.54
321.6310, 20716.00
322.8370, 20676.00
324.0430, 20684.00
325.2480, 20706.00
326.4540, 20730.00
327.6590, 20698.19
328.8640, 20697.30
330.0680, 20582.00
331.2730, 20652.00
332.4780, 20496.00
333.6820, 20468.00
334.8860, 20436.00
336.0900, 20346.00
337.2940, 20380.45
338.4980, 20385.47
339.7010, 20405.00
340.9050, 20486.00
342.1080, 20470.00
343.3110, 20543.00
344.5140, 20535.00
345.7170, 20462.00
346.9200, 20439.00
348.1220, 20352.00
349.3240, 20524.00
350.5270, 20471.37
351.7290, 20794.00
352.9310, 20592.00
354.1320, 20710.00
355.3340, 20924.00
356.5350, 20852.00
357.7370, 20828.00
358.9380, 21039.00
360.1390, 20956.00
361.3400, 20875.00
362.5400, 20793.00
363.7410, 20881.00
364.9410, 21272.00
366.1410, 21094.00
367.3410, 21126.00
368.5410, 21404.00
369.7410, 21169.00
370.9400, 21390.00
372.1400, 21560.00
373.3390, 21431.00
374.5380, 21612.00
375.7370, 21700.00
376.9360, 21759.00
378.1350, 21728.00
379.3330, 21862.00
380.5310, 22093.00
381.7300, 21901.00
382.9280, 21955.00
384.1260, 22205.00
385.3230, 22190.00
386.5210, 22275.00
387.7180, 22494.00
388.9160, 22433.00
390.1130, 22715.00
391.3100, 22776.00
392.5060, 22997.00
393.7030, 23151.00
394.9000, 23118.00
396.0960, 23356.00
397.2920, 23446.00
398.4880, 23697.00
399.6840, 23813.38
400.8800, 23990.00
402.0750, 24047.00
403.2710, 24173.00
404.4660, 24233.10
405.6610, 24067.00
406.8560, 24178.00
408.0510, 23918.00
409.2450, 23829.00
410.4400, 23702.00
411.6340, 23651.00
412.8280, 23564.00
414.0220, 23498.00
415.2160, 23211.00
416.4100, 23206.00
417.6030, 23150.00
418.7970, 22883.00
419.9900, 22949.00
421.1830, 22834.00
422.3760, 22812.00
423.5690, 22890.00
424.7610, 22839.00
425.9540, 22919.00
427.1460, 22756.00
428.3380, 22927.00
429.5300, 22850.00
430.7220, 22998.00
431.9140, 22912.00
433.1050, 23040.00
434.2970, 23134.00
435.4880, 22948.00
436.6790, 23149.00
437.8700, 23296.00
439.0610, 23213.00
440.2510, 23392.00
441.4420, 23479.00
442.6320, 23289.00
443.8220, 23450.00
445.0120, 23334.00
446.2020, 23629.00
447.3910, 23453.00
448.5810, 23513.00
449.7700, 23468.00
450.9600, 23405.00
452.1490, 23680.00
453.3370, 23465.00
454.5260, 23444.00
455.7150, 23507.00
456.9030, 23181.00
458.0910, 23517.00
459.2800, 23415.00
460.4670, 23249.00
461.6550, 23336.00
462.8430, 23143.00
464.0300, 23444.00
465.2180, 23588.00
466.4050, 23308.00
467.5920, 23572.00
468.7790, 23524.00
469.9650, 23652.00
471.1520, 23608.00
472.3380, 23890.00
473.5250, 23644.00
474.7110, 23747.00
475.8970, 23998.00
477.0820, 23608.00
478.2680, 23647.00
479.4540, 23921.00
480.6390, 23531.00
481.8240, 23542.00
483.0090, 23301.00
484.1940, 23323.00
485.3780, 23005.00
486.5630, 23137.00
487.7470, 23260.00
488.9320, 23086.00
490.1160, 23018.00
491.3000, 22936.00
492.4830, 23111.00
493.6670, 23046.00
494.8500, 23046.00
496.0340, 22887.00
497.2170, 22985.00
498.4000, 22973.00
499.5820, 22662.00
500.7650, 22858.00
501.9480, 22779.00
503.1300, 22810.00
504.3120, 22749.00
505.4940, 22835.00
506.6760, 22733.00
507.8580, 22717.00
509.0390, 22970.00
510.2210, 23008.00
511.4020, 23147.00
512.5830, 23021.00
513.7640, 23023.00
514.9450, 23103.00
516.1250, 23131.00
517.3060, 23220.00
518.4860, 23175.00
519.6660, 23291.00
520.8460, 23471.00
522.0260, 23421.00
523.2060, 23471.00
524.3850, 23425.00
525.5650, 23649.00
526.7440, 23670.00
527.9230, 23769.00
529.1020, 23705.00
530.2810, 23941.00
531.4590, 23941.00
532.6380, 23932.00
533.8160, 24224.00
534.9940, 24174.00
536.1720, 24230.00
537.3500, 24369.00
538.5270, 24298.00
539.7050, 24430.00
540.8820, 24573.00
542.0590, 24608.00
543.2360, 24838.00
544.4130, 24924.00
545.5900, 25000.00
546.7660, 25248.00
547.9430, 25231.00
549.1190, 25371.00
550.2950, 25400.00
551.4710, 25715.00
552.6470, 25877.00
553.8220, 25907.00
554.9980, 26099.52
556.1730, 26038.00
557.3480, 26214.00
558.5230, 26312.00
559.6980, 26201.00
560.8730, 26398.00
562.0470, 26484.00
563.2220, 26360.00
564.3960, 26452.00
565.5700, 26333.23
566.7440, 26326.00
567.9170, 26138.00
569.0910, 25988.00
570.2640, 25932.00
571.4380, 25641.00
572.6110, 25639.00
573.7840, 25497.00
574.9570, 25464.00
576.1290, 25314.00
577.3020, 25355.00
578.4740, 25136.00
579.6460, 25009.00
580.8180, 24956.00
581.9900, 25023.00
583.1620, 24830.00
584.3330, 24656.00
585.5040, 24579.00
586.6760, 24795.00
587.8470, 24643.00
589.0180, 24826.00
590.1880, 24769.00
591.3590, 24908.00
592.5290, 24778.00
593.7000, 24923.00
594.8700, 24926.00
596.0400, 24850.00
597.2090, 24803.00
598.3790, 24805.24
599.5490, 24988.00
600.7180, 24851.00
601.8870, 25030.00
603.0560, 25181.00
604.2250, 25043.00
605.3940, 25075.00
606.5620, 25133.00
607.7300, 25054.00
608.8990, 25314.00
610.0670, 25249.00
611.2350, 25323.00
612.4020, 25624.00
613.5700, 25420.00
614.7370, 25609.00
615.9050, 25500.00
617.0720, 25389.00
618.2390, 25582.00
619.4060, 25376.00
620.5720, 25510.00
621.7390, 25523.00
622.9050, 25348.00
624.0710, 25590.00
625.2370, 25410.00
626.4030, 25368.00
627.5690, 25442.00
628.7340, 25477.00
629.9000, 25383.00
631.0650, 25331.00
632.2300, 25097.00
633.3950, 25147.00
634.5600, 25348.00
635.7240, 25121.00
636.8890, 25130.00
638.0530, 25482.00
639.2170, 25237.00
640.3810, 25042.00
641.5450, 25305.00
642.7080, 25278.00
643.8720, 25217.00
645.0350, 25239.00
646.1980, 25287.00
647.3610, 25349.00
648.5240, 25438.00
649.6870, 25494.00
650.8490, 25572.00
652.0120, 25590.00
653.1740, 25596.00
654.3360, 25708.00
655.4980, 25808.00
656.6600, 25889.00
657.8210, 25913.71
658.9830, 25906.00
660.1440, 25846.00
661.3050, 25953.00
662.4660, 25963.87
663.6270, 26013.00
664.7870, 26127.00
665.9480, 26145.00
667.1080, 26297.00
668.2680, 26159.00
669.4280, 26471.00
670.5880, 26397.00
671.7480, 26668.00
672.9070, 26674.00
674.0670, 26911.00
675.2260, 27278.00
676.3850, 27141.00
677.5440, 27280.00
678.7030, 27531.00
679.8610, 27835.00
681.0200, 28043.00
682.1780, 28169.00
683.3360, 28708.00
684.4940, 29088.00
685.6520, 29291.00
686.8090, 29790.00
687.9670, 30393.00
689.1240, 30816.00
690.2810, 31353.00
691.4380, 32351.00
692.5950, 33039.00
693.7520, 33870.00
694.9080, 34886.00
696.0650, 36078.00
697.2210, 37685.00
698.3770, 39402.00
699.5330, 40880.00
700.6880, 42864.00
701.8440, 44870.00
702.9990, 47382.00
704.1550, 49358.00
705.3100, 51332.00
706.4650, 52856.00
707.6190, 53993.00
708.7740, 53370.00
709.9290, 52979.00
711.0830, 50991.00
712.2370, 48375.00
713.3910, 45553.00
714.5450, 42943.00
715.6980, 40605.00
716.8520, 38528.00
718.0050, 36592.00
719.1580, 35183.00
720.3110, 33709.00
721.4640, 32837.00
722.6170, 31863.00
723.7700, 31105.00
724.9220, 30429.00
726.0740, 30101.00
727.2260, 29722.00
728.3780, 29061.00
729.5300, 29173.00
730.6810, 28870.00
731.8330, 28562.00
732.9840, 28448.00
734.1350, 28112.00
735.2860, 27952.00
736.4370, 27967.00
737.5880, 27854.00
738.7380, 28029.00
739.8880, 27990.00
741.0390, 27832.00
742.1890, 27938.00
743.3380, 27824.00
744.4880, 27870.00
745.6380, 28014.00
746.7870, 28223.00
747.9360, 28066.00
749.0850, 28076.00
750.2340, 27856.00
751.3830, 28039.00
752.5310, 28109.00
753.6800, 27945.00
754.8280, 27969.00
755.9760, 27939.00
757.1240, 27725.00
758.2720, 27764.00
759.4190, 27960.00
760.5670, 27771.00
761.7140, 27629.00
762.8610, 27963.00
764.0080, 27455.00
765.1550, 27655.00
766.3020, 27440.00
767.4480, 27341.00
768.5950, 27593.00
769.7410, 27421.00
770.8870, 27235.00
772.0330, 27488.00
773.1780, 27465.00
774.3240, 27175.00
775.4690, 27318.00
776.6140, 27338.00
777.7590, 27563.00
778.9040, 27511.00
780.0490, 27440.00
781.1940, 27569.00
782.3380, 27482.37
783.4820, 27539.00
784.6260, 27480.00
785.7700, 27585.00
786.9140, 27679.00
788.0580, 27458.00
789.2010, 27629.00
790.3450, 27698.00
791.4880, 27453.00
792.6310, 27650.00
793.7730, 27573.00
794.9160, 27616.00
796.0590, 27641.00
797.2010, 27362.00
798.3430, 27178.00
799.4850, 27341.00
800.6270, 27336.00
801.7690, 27372.00
802.9100, 27471.00
804.0520, 27471.00
805.1930, 27463.84
806.3340, 27202.00
807.4750, 27345.00
808.6160, 27401.00
809.7560, 27250.00
810.8970, 27407.00
812.0370, 27302.00
813.1770, 27391.00
814.3170, 27259.00
815.4570, 27402.00
816.5960, 27575.00
817.7360, 27539.00
818.8750, 27390.00
820.0140, 27464.00
821.1530, 27562.00
822.2920, 27528.00
823.4310, 27677.00
824.5690, 27590.00
825.7070, 27648.00
826.8460, 27913.00
827.9840, 27861.00
829.1220, 27780.00
830.2590, 28055.00
831.3970, 27881.00
832.5340, 27962.00
833.6710, 28162.00
834.8080, 28098.00
835.9450, 28059.00
837.0820, 27968.00
838.2190, 28212.00
839.3550, 28265.00
840.4910, 28274.00
841.6270, 28307.00
842.7630, 28355.00
843.8990, 28412.16
845.0350, 28458.07
846.1700, 28548.00
847.3060, 28541.00
848.4410, 28577.00
849.5760, 28563.00
850.7100, 28654.00
851.8450, 28604.00
852.9800, 28677.00
854.1140, 28782.00
855.2480, 28654.37
856.3820, 28887.00
857.5160, 28779.00
858.6500, 28949.00
859.7830, 29027.06
860.9170, 29330.00
862.0500, 29125.00
863.1830, 29083.00
864.3160, 28941.00
865.4480, 29045.00
866.5810, 29018.69
867.7130, 29107.00
868.8460, 29145.00
869.9780, 29103.00
871.1100, 29232.00
872.2410, 29202.00
873.3730, 29099.00
874.5050, 29236.00
875.6360, 29168.00
876.7670, 28859.00
877.8980, 29165.00
879.0290, 29039.00
880.1590, 29282.00
881.2900, 29154.00
882.4200, 29302.00
883.5500, 29291.00
884.6800, 29338.00
885.8100, 29323.00
886.9400, 29260.00
888.0690, 29364.00
889.1990, 29495.00
890.3280, 29436.00
891.4570, 29459.00
892.5860, 29649.00
893.7140, 29492.00
894.8430, 29512.00
895.9710, 29535.00
897.1000, 29691.00
898.2280, 29703.00
899.3560, 29471.00
900.4830, 29828.00
901.6110, 29712.00
902.7380, 29750.00
903.8660, 30030.00
904.9930, 29831.00
906.1200, 29823.00
907.2460, 29889.00
908.3730, 30208.00
909.5000, 30041.00
910.6260, 30153.51
911.7520, 30141.00
912.8780, 30116.00
914.0040, 30048.00
915.1290, 29983.00
916.2550, 30251.00
917.3800, 30059.00
918.5050, 30257.00
919.6300, 30409.00
920.7550, 30380.00
921.8800, 30366.00
923.0040, 30304.00
924.1290, 30316.00
925.2530, 30349.00
926.3770, 30388.98
927.5010, 30365.03
928.6250, 30505.00
929.7480, 30379.00
930.8720, 30343.00
931.9950, 30471.00
933.1180, 30547.00
934.2410, 30589.00
935.3640, 30262.00
936.4860, 30494.00
937.6090, 30278.00
938.7310, 30227.00
939.8530, 30637.00
940.9750, 30324.00
942.0970, 30426.00
943.2180, 30318.00
944.3400, 30584.00
945.4610, 30492.00
946.5820, 30396.00
947.7030, 30592.00
948.8240, 30507.00
949.9450, 30419.00
951.0650, 30398.00
952.1860, 30660.00
953.3060, 30628.00
954.4260, 30855.00
955.5460, 30645.00
956.6650, 30799.00
957.7850, 30586.00
958.9040, 30711.00
960.0230, 30674.00
961.1420, 30636.00
962.2610, 30658.00
963.3800, 30439.00
964.4990, 30655.00
965.6170, 30577.00
966.7350, 30364.00
967.8530, 30538.00
968.9710, 30373.00
970.0890, 30511.00
971.2070, 30786.00
972.3240, 30639.00
973.4410, 30739.00
974.5580, 30547.00
975.6750, 30718.00
976.7920, 30592.00
977.9090, 30398.00
979.0250, 30710.00
980.1410, 30795.00
981.2580, 30765.00
982.3740, 30825.00
983.4890, 30839.00
984.6050, 30692.00
985.7200, 30775.00
986.8360, 30741.19
987.9510, 30734.00
989.0660, 30719.00
990.1810, 31014.00
991.2950, 30928.00
992.4100, 31004.00
993.5240, 31210.00
994.6390, 31197.00
995.7530, 31188.00
996.8660, 31374.00
997.9800, 31408.00
999.0940, 31443.00
1000.207, 31787.00
1001.320, 32044.00
1002.433, 32145.00
1003.546, 32229.00
1004.659, 31943.00
1005.772, 31685.00
1006.884, 31715.00
1007.996, 31608.00
1009.108, 31619.00
1010.220, 31986.00
1011.332, 31759.00
1012.444, 31741.00
1013.555, 32007.00
1014.666, 31749.00
1015.777, 31700.00
1016.888, 31738.00
1017.999, 31894.00
1019.110, 31793.00
1020.220, 31838.00
1021.331, 31862.00
1022.441, 31942.00
1023.551, 31975.73
1024.661, 32303.00
1025.770, 32014.00
1026.880, 32199.00
1027.989, 32103.00
1029.098, 32409.00
1030.207, 32311.00
1031.316, 32271.39
1032.425, 32148.00
1033.533, 32111.00
1034.642, 32052.00
1035.750, 32055.00
1036.858, 32050.00
1037.966, 31954.00
1039.073, 32209.00
1040.181, 32145.00
1041.288, 32229.00
1042.396, 32399.00
1043.503, 32129.00
1044.610, 32184.00
1045.716, 32505.00
1046.823, 32248.00
1047.929, 32445.00
1049.036, 32519.00
1050.142, 32511.00
1051.248, 32779.00
1052.353, 32543.00
1053.459, 32870.00
1054.564, 32694.00
1055.670, 33073.00
1056.775, 32940.00
1057.880, 33310.00
1058.985, 33466.00
1060.089, 33125.00
1061.194, 33526.00
1062.298, 33620.00
1063.402, 33658.00
1064.506, 33909.00
1065.610, 33920.58
1066.713, 34058.00
1067.817, 34046.00
1068.920, 34146.00
1070.023, 34187.00
1071.126, 34256.00
1072.229, 34423.00
1073.332, 34445.00
1074.435, 34571.97
1075.537, 34765.00
1076.639, 34750.00
1077.741, 35005.00
1078.843, 35056.00
1079.945, 35152.00
1081.046, 35286.00
1082.148, 35303.00
1083.249, 35388.00
1084.350, 35204.00
1085.451, 35524.00
1086.551, 35035.00
1087.652, 35137.00
1088.752, 35351.00
1089.853, 35367.00
1090.953, 35221.00
1092.053, 35322.00
1093.152, 35120.00
1094.252, 35041.00
1095.351, 35166.00
1096.451, 34982.00
1097.550, 35138.00
1098.649, 34921.00
1099.748, 34684.00
1100.846, 35233.00
1101.945, 34830.00
1103.043, 34890.00
1104.141, 35027.00
1105.239, 34863.00
1106.337, 34799.00
1107.434, 34891.00
1108.532, 34793.12
1109.629, 34826.57
1110.726, 34798.00
1111.823, 34854.00
1112.920, 34920.00
1114.017, 34964.00
1115.113, 34793.00
1116.210, 35085.00
1117.306, 35153.00
1118.402, 34912.00
1119.498, 34783.00
1120.593, 35081.00
1121.689, 34785.00
1122.784, 34811.00
1123.879, 34847.00
1124.974, 34678.69
1126.069, 34785.00
1127.164, 34551.00
1128.259, 34549.00
1129.353, 34569.00
1130.447, 34431.00
1131.541, 34338.00
1132.635, 34267.00
1133.729, 34267.00
1134.822, 34213.00
1135.916, 34027.00
1137.009, 33998.00
1138.102, 33737.00
1139.195, 34067.00
1140.288, 33846.00
1141.380, 33710.00
1142.473, 34019.00
1143.565, 33945.00
1144.657, 33571.00
1145.749, 33775.00
1146.841, 33663.00
1147.932, 33698.00
1149.024, 33437.00
1150.115, 33529.00
1151.206, 33708.00
1152.297, 33583.00
1153.388, 33760.00
1154.479, 33503.00
1155.569, 33339.00
1156.659, 33523.00
1157.750, 33573.00
1158.839, 33660.00
1159.929, 33630.00
1161.019, 33751.00
1162.108, 33854.00
1163.198, 33655.00
1164.287, 33927.00
1165.376, 33710.00
1166.465, 33678.00
1167.553, 33740.00
1168.642, 33804.00
1169.730, 33836.00
1170.818, 33918.00
1171.906, 33941.00
1172.994, 34076.00
1174.082, 33987.00
1175.170, 33809.00
1176.257, 33829.00
1177.344, 33883.00
1178.431, 33959.00
1179.518, 33975.00
1180.605, 34117.00
1181.691, 33871.00
1182.778, 34025.00
1183.864, 33835.00
1184.950, 33986.00
1186.036, 34119.00
1187.122, 33972.00
1188.207, 34093.00
1189.292, 33912.00
1190.378, 34155.00
1191.463, 34344.00
1192.548, 34070.00
1193.632, 34104.00
1194.717, 34312.00
1195.801, 34126.00
1196.886, 34086.00
1197.970, 33978.00
1199.054, 34271.00
1200.137, 34295.00
1201.221, 34447.00
1202.305, 34280.00
1203.388, 34385.00
1204.471, 34521.00
1205.554, 34453.00
1206.637, 34594.00
1207.719, 34575.00
1208.802, 34458.00
1209.884, 34708.00
1210.966, 34719.00
1212.048, 34619.00
1213.130, 34599.00
1214.212, 34514.00
1215.293, 34707.00
1216.374, 34694.00
1217.456, 34645.00
1218.536, 34559.00
1219.617, 34368.00
1220.698, 34621.00
1221.778, 34522.00
1222.859, 34901.00
1223.939, 34819.00
1225.019, 34756.00
1226.099, 34999.00
1227.178, 34994.00
1228.258, 35045.00
1229.337, 34706.00
1230.417, 35030.00
1231.496, 34949.00
1232.574, 35019.00
1233.653, 35183.00
1234.732, 35117.00
1235.810, 35110.00
1236.888, 34990.00
1237.966, 35239.00
1239.044, 35332.00
1240.122, 35286.00
1241.199, 35282.00
1242.277, 35331.00
1243.354, 35319.78
1244.431, 35289.00
1245.508, 35415.00
1246.585, 35431.00
1247.661, 35590.00
1248.738, 35332.00
1249.814, 35561.00
1250.890, 35431.00
1251.966, 35700.00
1253.042, 35432.00
1254.117, 35634.00
1255.193, 35622.00
1256.268, 35688.00
1257.343, 35721.00
1258.418, 35872.00
1259.493, 35474.00
1260.567, 35755.00
1261.642, 35668.00
1262.716, 35950.00
1263.790, 36042.00
1264.864, 35900.00
1265.938, 36020.00
1267.011, 35869.00
1268.085, 36231.00
1269.158, 36214.00
1270.231, 36118.00
1271.304, 36129.00
1272.377, 36186.00
1273.450, 36203.64
1274.522, 36221.00
1275.594, 36337.00
1276.666, 36463.00
1277.738, 36515.00
1278.810, 36535.00
1279.882, 36380.00
1280.953, 36198.00
1282.025, 36441.00
1283.096, 36751.00
1284.167, 36580.00
1285.238, 36646.00
1286.308, 36609.00
1287.379, 36858.00
1288.449, 36817.00
1289.519, 36860.00
1290.589, 36874.00
1291.659, 37150.00
1292.729, 37090.00
1293.798, 37456.00
1294.868, 37578.00
1295.937, 38309.00
1297.006, 38120.48
1298.075, 38556.00
1299.143, 37941.00
1300.212, 38263.00
1301.280, 38182.00
1302.348, 38515.00
1303.416, 38278.00
1304.484, 38307.00
1305.552, 38244.00
1306.620, 38654.00
1307.687, 38282.00
1308.754, 38074.00
1309.821, 38429.00
1310.888, 38096.00
1311.955, 38281.00
1313.021, 37982.00
1314.088, 37936.00
1315.154, 38094.00
1316.220, 37712.00
1317.286, 37326.00
1318.352, 37688.00
