##NAMES=Trilithionite
##RRUFFID=R040101
##IDEAL CHEMISTRY=KLi_1.5_Al_1.5_(Si_3_Al)O_10_F_2_
##LOCALITY=Zambezi Region, Mozambique
##OWNER=RRUFF
##SOURCE=University of Arizona Mineral Museum
##DESCRIPTION=Aggregate of purple hexagonal plates, polytype is 2M1
##STATUS=The identification of this mineral has been confirmed by X-ray diffraction and chemical analysis
##URL=rruff.info/R040101
##MEASURED CHEMISTRY=(K_0.84_Li_0.13_Na_0.02_)(Li_0.54_Al_0.44_Mn_0.02_)_3_(Si_0.82_Al_0.18_)_4_O_10_F_2.00_
##PIN_ID=L00071
##ORIENTATION=Laser parallel to c* (0 0 1). Fiducial mark perpendicular to laser is parallel to a [1 0 0]
64.81800, 1587.000
66.05300, 1614.000
67.28900, 1634.000
68.52400, 1634.000
69.76000, 1706.000
70.99500, 1667.000
72.23000, 1684.000
73.46500, 1845.000
74.70000, 1887.000
75.93400, 1906.000
77.16900, 2062.000
78.40300, 2250.000
79.63700, 2455.000
80.87100, 2698.000
82.10500, 3007.000
83.33900, 3470.000
84.57300, 4141.000
85.80600, 4904.000
87.04000, 6027.000
88.27300, 7331.000
89.50600, 8957.000
90.73900, 11007.00
91.97200, 13470.00
93.20400, 16658.00
94.43700, 20019.00
95.66900, 24108.00
96.90100, 29016.00
98.13300, 34707.00
99.36500, 40741.00
100.5970, 47199.00
101.8290, 53192.00
103.0600, 58120.00
104.2920, 62454.00
105.5230, 65263.00
106.7540, 67514.00
107.9850, 67581.00
109.2160, 67033.00
110.4460, 66579.00
111.6770, 66131.00
112.9070, 65858.00
114.1370, 65751.00
115.3670, 67002.00
116.5970, 68313.00
117.8270, 69284.00
119.0570, 69126.00
120.2860, 69455.00
121.5150, 69814.00
122.7450, 70313.00
123.9740, 70808.00
125.2030, 70244.80
126.4310, 69511.00
127.6600, 69005.00
128.8890, 69000.00
130.1170, 68574.00
131.3450, 69057.00
132.5730, 68926.00
133.8010, 68477.00
135.0290, 68531.00
136.2560, 68221.00
137.4840, 68308.00
138.7110, 68727.00
139.9380, 68656.00
141.1650, 69043.00
142.3920, 68874.00
143.6190, 69092.00
144.8460, 69005.00
146.0720, 69358.00
147.2980, 69395.00
148.5250, 69696.00
149.7510, 70093.00
150.9770, 70385.00
152.2020, 70489.00
153.4280, 70504.00
154.6530, 71401.00
155.8790, 71419.00
157.1040, 71972.00
158.3290, 72152.00
159.5540, 72521.00
160.7780, 72777.00
162.0030, 72961.00
163.2270, 73801.00
164.4520, 74080.00
165.6760, 74884.00
166.9000, 74949.00
168.1240, 75475.00
169.3470, 76345.00
170.5710, 77336.00
171.7940, 77572.00
173.0180, 78980.00
174.2410, 79574.00
175.4640, 80601.00
176.6870, 81364.00
177.9090, 81877.00
179.1320, 83099.00
180.3540, 83936.00
181.5760, 84718.00
182.7990, 84662.00
184.0210, 85671.00
185.2420, 85898.00
186.4640, 86204.00
187.6860, 87218.00
188.9070, 87644.00
190.1280, 89010.00
191.3490, 90073.00
192.5700, 92087.00
193.7910, 93429.00
195.0120, 95994.00
196.2320, 98403.00
197.4520, 100561.0
198.6730, 101681.0
199.8930, 102152.0
201.1130, 102467.0
202.3320, 101706.0
203.5520, 100688.0
204.7720, 99137.00
205.9910, 98133.00
207.2100, 96316.00
208.4290, 94921.00
209.6480, 93606.00
210.8670, 92937.00
212.0850, 92256.00
213.3040, 92286.00
214.5220, 92240.00
215.7400, 91562.00
216.9580, 91372.00
218.1760, 90397.00
219.3940, 89554.00
220.6110, 88135.00
221.8290, 86802.00
223.0460, 85315.00
224.2630, 84502.00
225.4800, 83003.00
226.6970, 82334.00
227.9140, 81897.00
229.1300, 81370.00
230.3470, 80884.00
231.5630, 81064.00
232.7790, 81378.00
233.9950, 81314.00
235.2110, 82186.00
236.4260, 81689.00
237.6420, 82122.00
238.8570, 82740.00
240.0730, 83431.00
241.2880, 84239.00
242.5030, 85216.00
243.7170, 85974.00
244.9320, 87410.00
246.1460, 89130.00
247.3610, 90713.00
248.5750, 93337.00
249.7890, 96285.00
251.0030, 99278.00
252.2170, 103695.0
253.4300, 108086.0
254.6440, 114276.0
255.8570, 121331.0
257.0700, 130137.0
258.2830, 139924.0
259.4960, 149885.0
260.7090, 160039.0
261.9210, 168893.0
263.1330, 176951.0
264.3460, 181629.0
265.5580, 183715.0
266.7700, 181921.0
267.9820, 175401.0
269.1930, 166718.0
270.4050, 156133.0
271.6160, 147060.0
272.8270, 136526.0
274.0380, 128241.0
275.2490, 121102.0
276.4600, 115047.0
277.6710, 109671.0
278.8810, 104773.0
280.0920, 101996.0
281.3020, 99575.00
282.5120, 97020.00
283.7220, 95395.00
284.9310, 93785.00
286.1410, 92611.00
287.3500, 91715.00
288.5600, 90575.00
289.7690, 90439.00
290.9780, 89350.00
292.1870, 89308.00
293.3950, 88615.00
294.6040, 87962.00
295.8120, 88351.00
297.0200, 88229.00
298.2280, 87931.00
299.4360, 88003.00
300.6440, 88043.00
301.8520, 87926.00
303.0590, 88418.00
304.2670, 88105.00
305.4740, 87850.00
306.6810, 88014.00
307.8880, 88319.00
309.0950, 88156.00
310.3010, 88047.00
311.5080, 88010.00
312.7140, 87651.00
313.9200, 88024.00
315.1260, 87606.00
316.3320, 88534.00
317.5380, 88204.37
318.7430, 87858.00
319.9480, 88101.00
321.1540, 87879.00
322.3590, 87954.00
323.5640, 88288.00
324.7680, 87860.00
325.9730, 88399.00
327.1780, 88355.00
328.3820, 88043.00
329.5860, 88021.00
330.7900, 88097.00
331.9940, 88021.00
333.1980, 87785.00
334.4010, 87668.00
335.6050, 87613.00
336.8080, 87599.00
338.0110, 87333.00
339.2140, 87448.00
340.4170, 87427.00
341.6200, 87156.00
342.8220, 87592.00
344.0250, 87310.00
345.2270, 88041.00
346.4290, 88076.00
347.6310, 88048.00
348.8330, 87982.00
350.0340, 88230.00
351.2360, 88233.94
352.4370, 88854.00
353.6380, 88746.00
354.8390, 89713.00
356.0400, 90639.00
357.2410, 90410.00
358.4410, 90729.00
359.6420, 91028.00
360.8420, 91778.00
362.0420, 92592.00
363.2420, 92804.00
364.4420, 93260.00
365.6420, 93721.00
366.8410, 94647.00
368.0410, 95091.00
369.2400, 96206.00
370.4390, 97216.00
371.6380, 97667.00
372.8360, 98701.00
374.0350, 100230.0
375.2330, 100960.0
376.4320, 101912.0
377.6300, 102908.0
378.8280, 103721.0
380.0260, 104710.0
381.2230, 105490.0
382.4210, 105826.0
383.6180, 106897.0
384.8160, 107429.0
386.0130, 107716.0
387.2100, 108714.0
388.4060, 109063.0
389.6030, 110229.0
390.7990, 110898.0
391.9960, 112051.0
393.1920, 112831.0
394.3880, 114073.0
395.5840, 115638.0
396.7790, 116921.0
397.9750, 118442.0
399.1700, 120321.0
400.3660, 121289.0
401.5610, 122424.0
402.7560, 123709.0
403.9510, 124434.0
405.1450, 124732.6
406.3400, 124827.0
407.5340, 124397.0
408.7280, 123939.0
409.9220, 122941.7
411.1160, 121973.0
412.3100, 120541.0
413.5030, 119117.0
414.6970, 117415.0
415.8900, 115851.0
417.0830, 113708.0
418.2760, 112684.0
419.4690, 110276.0
420.6620, 109296.0
421.8540, 107811.0
423.0460, 106613.0
424.2390, 105200.0
425.4310, 104392.0
426.6230, 103237.0
427.8140, 102875.0
429.0060, 102571.0
430.1970, 101339.0
431.3890, 101174.0
432.5800, 100243.0
433.7710, 100128.0
434.9610, 99312.00
436.1520, 98885.00
437.3430, 98463.00
438.5330, 97950.00
439.7230, 97618.00
440.9130, 97208.88
442.1030, 97076.00
443.2930, 96599.00
444.4820, 96289.00
445.6720, 96221.00
446.8610, 95817.44
448.0500, 96231.00
449.2390, 95500.00
450.4280, 95106.00
451.6170, 95414.00
452.8050, 95309.00
453.9940, 94708.00
455.1820, 94838.00
456.3700, 94726.00
457.5580, 94488.00
458.7450, 94305.00
459.9330, 94393.00
461.1200, 94296.51
462.3080, 94560.00
463.4950, 94515.00
464.6820, 94509.00
465.8690, 94941.00
467.0550, 94656.00
468.2420, 94748.00
469.4280, 95099.00
470.6140, 95373.00
471.8000, 95556.00
472.9860, 95816.68
474.1720, 95948.00
475.3570, 96141.00
476.5430, 96336.00
477.7280, 96337.00
478.9130, 96228.00
480.0980, 96247.00
481.2830, 96235.29
482.4680, 96585.00
483.6520, 96415.00
484.8360, 96153.00
486.0210, 96556.00
487.2050, 96214.00
488.3890, 96695.00
489.5720, 96208.00
490.7560, 96080.00
491.9390, 96256.00
493.1220, 96079.00
494.3060, 95978.00
495.4880, 95374.88
496.6710, 95914.39
497.8540, 96196.52
499.0360, 96235.13
500.2190, 95300.68
501.4010, 95622.73
502.5830, 95441.24
503.7650, 95239.11
504.9460, 95738.04
506.1280, 94945.14
507.3090, 95432.95
508.4910, 95483.00
509.6720, 95682.00
510.8530, 95676.00
512.0330, 96088.00
513.2140, 96033.00
514.3940, 96205.00
515.5750, 96209.00
516.7550, 96269.00
517.9350, 96162.00
519.1150, 96942.00
520.2940, 96607.00
521.4740, 97138.00
522.6530, 97581.00
523.8320, 97260.00
525.0110, 97648.00
526.1900, 97734.00
527.3690, 97469.00
528.5480, 98538.00
529.7260, 98347.00
530.9040, 98384.00
532.0820, 98244.00
533.2600, 98802.00
534.4380, 98779.00
535.6160, 99248.00
536.7930, 99097.00
537.9700, 98897.00
539.1480, 99411.00
540.3250, 99208.00
541.5020, 99669.00
542.6780, 99229.00
543.8550, 99696.00
545.0310, 100031.0
546.2070, 100054.0
547.3830, 100300.0
548.5590, 100440.0
549.7350, 100698.0
550.9110, 100874.1
552.0860, 101108.9
553.2610, 101265.0
554.4370, 101636.0
555.6120, 101874.0
556.7860, 102234.0
557.9610, 102219.0
559.1360, 102176.0
560.3100, 102369.1
561.4840, 102331.9
562.6580, 102592.0
563.8320, 102430.0
565.0060, 102638.0
566.1790, 102733.0
567.3530, 102565.5
568.5260, 102722.0
569.6990, 102783.7
570.8720, 102755.6
572.0450, 102369.0
573.2170, 102445.4
574.3900, 102336.2
575.5620, 102219.5
576.7340, 102361.1
577.9060, 102026.7
579.0780, 102164.1
580.2500, 102113.2
581.4210, 102148.6
582.5930, 101844.9
583.7640, 102066.9
584.9350, 102210.5
586.1060, 102280.9
587.2760, 102009.2
588.4470, 102216.9
589.6170, 102255.5
590.7880, 102303.1
591.9580, 102625.3
593.1280, 102488.0
594.2970, 102838.9
595.4670, 103018.0
596.6360, 103299.6
597.8060, 103411.2
598.9750, 103596.7
600.1440, 103985.3
601.3130, 104286.9
602.4810, 104150.0
603.6500, 104456.0
604.8180, 104588.0
605.9860, 104875.9
607.1540, 105325.0
608.3220, 105531.0
609.4900, 105742.0
610.6580, 106189.0
611.8250, 106547.6
612.9920, 106933.0
614.1590, 107606.0
615.3260, 108079.0
616.4930, 108878.0
617.6600, 109579.0
618.8260, 110566.0
619.9920, 110936.0
621.1590, 112051.0
622.3250, 112652.0
623.4900, 113264.0
624.6560, 113870.0
625.8220, 114573.7
626.9870, 115552.0
628.1520, 116116.0
629.3170, 116918.8
630.4820, 117930.0
631.6470, 118318.0
632.8110, 118263.3
633.9760, 118798.7
635.1400, 119131.2
636.3040, 119266.3
637.4680, 118935.2
638.6310, 118959.5
639.7950, 118690.5
640.9590, 118306.3
642.1220, 118073.0
643.2850, 117581.0
644.4480, 117462.0
645.6110, 116423.0
646.7730, 115962.0
647.9360, 115224.0
649.0980, 115111.0
650.2600, 114414.0
651.4220, 113983.0
652.5840, 113405.0
653.7460, 113309.0
654.9070, 113105.0
656.0690, 112742.0
657.2300, 112863.0
658.3910, 112684.0
659.5520, 112716.0
660.7120, 112394.0
661.8730, 112230.0
663.0330, 112542.0
664.1940, 112508.0
665.3540, 112532.0
666.5140, 112431.0
667.6730, 112738.0
668.8330, 113156.0
669.9920, 113429.0
671.1520, 113873.6
672.3110, 114262.7
673.4700, 114722.0
674.6290, 115065.0
675.7870, 115451.0
676.9460, 115773.0
678.1040, 116359.0
679.2620, 116961.5
680.4200, 117698.9
681.5780, 118534.0
682.7360, 119570.0
683.8930, 120691.0
685.0510, 122012.7
686.2080, 123657.1
687.3650, 125543.0
688.5220, 127536.0
689.6780, 129797.0
690.8350, 132314.0
691.9910, 134831.5
693.1480, 137417.0
694.3040, 140627.0
695.4600, 143552.0
696.6150, 147167.0
697.7710, 150467.0
698.9260, 153518.0
700.0820, 157175.0
701.2370, 160186.0
702.3920, 162827.0
703.5460, 164822.0
704.7010, 165923.0
705.8550, 166320.0
707.0100, 166630.0
708.1640, 165591.0
709.3180, 164173.0
710.4720, 162392.0
711.6250, 160731.0
712.7790, 158049.0
713.9320, 154561.0
715.0850, 151495.0
716.2380, 147301.0
717.3910, 143248.0
718.5440, 138933.0
719.6960, 135240.0
720.8490, 131533.0
722.0010, 128616.0
723.1530, 126316.0
724.3050, 125004.0
725.4570, 122898.0
726.6080, 121908.0
727.7600, 121082.0
728.9110, 120553.0
730.0620, 119503.0
731.2130, 119209.0
732.3640, 119058.0
733.5140, 119403.0
734.6650, 119435.0
735.8150, 119149.0
736.9650, 119525.0
738.1150, 120103.0
739.2650, 120314.0
740.4140, 120922.0
741.5640, 122211.0
742.7130, 122586.0
743.8620, 124283.0
745.0110, 125417.0
746.1600, 126493.0
747.3090, 127653.0
748.4570, 128242.0
749.6060, 129196.0
750.7540, 130319.0
751.9020, 130355.0
753.0500, 130419.0
754.1970, 130763.0
755.3450, 130268.0
756.4920, 130354.0
757.6390, 129586.0
758.7860, 129312.0
759.9330, 128363.0
761.0800, 128056.0
762.2260, 127316.0
763.3730, 127022.0
764.5190, 125855.0
765.6650, 125128.0
766.8110, 124070.0
767.9570, 123383.0
769.1020, 122402.0
770.2480, 121605.0
771.3930, 121375.0
772.5380, 121259.0
773.6830, 120218.0
774.8280, 119921.0
775.9720, 120146.0
777.1170, 119366.0
778.2610, 118972.2
779.4050, 118479.9
780.5490, 117882.0
781.6930, 117243.0
782.8360, 117235.0
783.9800, 116797.0
785.1230, 116662.0
786.2660, 116610.0
787.4090, 116395.0
788.5520, 116335.0
789.6950, 116293.0
790.8370, 116560.0
791.9790, 116470.0
793.1220, 116573.0
794.2640, 116696.8
795.4050, 116077.0
796.5470, 116699.0
797.6890, 116469.0
798.8300, 116004.0
799.9710, 116342.0
801.1120, 116423.0
802.2530, 116524.0
803.3940, 116188.0
804.5340, 116588.0
805.6750, 116457.0
806.8150, 116691.0
807.9550, 116253.0
809.0950, 116826.0
810.2340, 116241.0
811.3740, 116458.0
812.5130, 116482.0
813.6520, 116291.0
814.7910, 116524.0
815.9300, 116457.2
817.0690, 116305.0
818.2080, 116448.0
819.3460, 116566.0
820.4840, 116402.0
821.6220, 116002.0
822.7600, 116762.0
823.8980, 116399.0
825.0350, 116063.0
826.1730, 116455.0
827.3100, 116640.0
828.4470, 117011.0
829.5840, 116513.0
830.7210, 117058.0
831.8570, 116544.0
832.9940, 116896.0
834.1300, 116723.0
835.2660, 116908.0
836.4020, 117006.0
837.5380, 117064.0
838.6740, 117257.5
839.8090, 117516.0
840.9440, 117564.0
842.0790, 117693.0
843.2140, 117807.0
844.3490, 117611.0
845.4840, 117828.0
846.6180, 117852.6
847.7520, 118237.0
848.8870, 118032.0
850.0210, 118236.0
851.1540, 118281.0
852.2880, 118338.0
853.4210, 118496.0
854.5550, 118639.0
855.6880, 118839.0
856.8210, 119058.0
857.9540, 118810.0
859.0860, 119380.0
860.2190, 119236.0
861.3510, 119520.0
862.4830, 119197.0
863.6150, 119405.0
864.7470, 119832.0
865.8790, 119601.0
867.0100, 120176.0
868.1410, 119411.0
869.2730, 119672.0
870.4040, 119888.0
871.5340, 120018.0
872.6650, 119930.0
873.7960, 120145.0
874.9260, 120306.0
876.0560, 120148.0
877.1860, 120483.0
878.3160, 120717.0
879.4460, 120849.0
880.5750, 120932.0
881.7040, 121095.0
882.8340, 121480.0
883.9630, 121360.0
885.0920, 121626.0
886.2200, 121593.0
887.3490, 121589.0
888.4770, 122044.0
889.6050, 122592.0
890.7330, 122678.0
891.8610, 122942.0
892.9890, 123290.0
894.1160, 123299.0
895.2440, 123144.0
896.3710, 124425.0
897.4980, 123985.0
898.6250, 124638.0
899.7510, 124865.0
900.8780, 125676.0
902.0040, 125648.0
903.1310, 126958.0
904.2570, 126727.0
905.3820, 127390.0
906.5080, 128118.0
907.6340, 128448.0
908.7590, 128594.0
909.8840, 129290.0
911.0090, 129502.0
912.1340, 129928.0
913.2590, 129853.0
914.3830, 130124.0
915.5080, 129988.0
916.6320, 130209.0
917.7560, 130502.0
918.8800, 129690.0
920.0040, 130031.0
921.1270, 130250.0
922.2510, 129617.0
923.3740, 129386.0
924.4970, 129091.0
925.6200, 128843.0
926.7420, 128742.0
927.8650, 128469.6
928.9870, 128358.0
930.1100, 128258.0
931.2320, 128048.0
932.3540, 128087.4
933.4750, 128031.0
934.5970, 128135.0
935.7180, 128143.0
936.8390, 128181.0
937.9600, 128604.0
939.0810, 128660.0
940.2020, 128795.0
941.3230, 128966.0
942.4430, 128831.0
943.5630, 129047.0
944.6830, 129045.0
945.8030, 129870.0
946.9230, 129444.0
948.0420, 130479.0
949.1620, 130549.0
950.2810, 130618.0
951.4000, 130579.0
952.5190, 131334.0
953.6380, 131646.0
954.7560, 131656.0
955.8750, 132171.0
956.9930, 132149.0
958.1110, 132201.0
959.2290, 132673.0
960.3460, 132386.0
961.4640, 132631.0
962.5810, 131850.0
963.6990, 132135.0
964.8160, 131498.0
965.9320, 131862.0
967.0490, 131615.0
968.1660, 131069.0
969.2820, 131581.0
970.3980, 131250.0
971.5140, 131013.0
972.6300, 131154.0
973.7460, 131360.0
974.8610, 131203.0
975.9770, 131045.0
977.0920, 131493.0
978.2070, 131308.0
979.3220, 131604.0
980.4370, 131877.0
981.5510, 132083.0
982.6660, 132590.0
983.7800, 132094.0
984.8940, 132278.0
986.0080, 132880.0
987.1210, 131985.0
988.2350, 132848.0
989.3480, 132686.0
990.4610, 133339.0
991.5750, 133415.8
992.6870, 133178.0
993.8000, 133334.0
994.9130, 133394.0
996.0250, 132890.0
997.1370, 133277.0
998.2490, 134289.0
999.3610, 133874.0
1000.473, 134181.0
1001.584, 133897.0
1002.696, 134531.0
1003.807, 134398.0
1004.918, 134324.0
1006.029, 135137.0
1007.139, 134334.0
1008.250, 134396.0
1009.360, 134886.0
1010.470, 134628.0
1011.580, 135194.0
1012.690, 135202.0
1013.800, 135014.0
1014.909, 135436.0
1016.019, 135094.0
1017.128, 135864.0
1018.237, 135926.0
1019.346, 136902.0
1020.454, 137025.0
1021.563, 136989.0
1022.671, 137050.0
1023.779, 136622.0
1024.887, 136546.0
1025.995, 136722.0
1027.103, 136887.0
1028.210, 137035.0
1029.318, 137113.0
1030.425, 136783.0
1031.532, 136687.0
1032.638, 136644.0
1033.745, 136951.0
1034.852, 137031.0
1035.958, 136324.0
1037.064, 136489.0
1038.170, 136909.0
1039.276, 136424.0
1040.381, 137008.0
1041.487, 137531.0
1042.592, 136945.0
1043.697, 137525.0
1044.802, 137827.0
1045.907, 138577.0
1047.012, 138233.0
1048.116, 138232.0
1049.220, 138265.0
1050.324, 139351.0
1051.428, 139430.0
1052.532, 139786.0
1053.636, 140266.0
1054.739, 140160.0
1055.842, 140769.0
1056.946, 140555.0
1058.048, 140927.0
1059.151, 141178.0
1060.254, 141072.0
1061.356, 141308.0
1062.459, 141214.0
1063.561, 140829.0
1064.662, 140688.0
1065.764, 140910.0
1066.866, 140686.0
1067.967, 140742.0
1069.068, 140585.0
1070.169, 140100.0
1071.270, 141002.0
1072.371, 140615.0
1073.472, 140692.0
1074.572, 141221.0
1075.672, 140553.0
1076.772, 140691.0
1077.872, 141165.0
1078.972, 141041.0
1080.071, 141652.0
1081.171, 141422.0
1082.270, 141827.0
1083.369, 141787.0
1084.468, 142411.0
1085.567, 142340.0
1086.665, 142129.0
1087.763, 142805.0
1088.862, 142604.0
1089.960, 142576.0
1091.057, 142527.0
1092.155, 143070.0
1093.253, 142985.0
1094.350, 143541.0
1095.447, 143337.0
1096.544, 143752.0
1097.641, 144214.0
1098.738, 144638.0
1099.834, 143945.0
1100.930, 144895.0
1102.027, 145054.0
1103.123, 145665.0
1104.218, 146083.0
1105.314, 145730.0
1106.409, 146220.0
1107.505, 146511.0
1108.600, 147150.0
1109.695, 147082.0
1110.790, 147723.0
1111.884, 147638.0
1112.979, 147122.0
1114.073, 147630.0
1115.167, 147644.0
1116.261, 147689.0
1117.355, 148211.0
1118.448, 147928.0
1119.542, 148044.0
1120.635, 147791.0
1121.728, 148222.0
1122.821, 147594.0
1123.914, 147632.0
1125.006, 146691.0
1126.099, 146700.0
1127.191, 146711.0
1128.283, 146016.0
1129.375, 146663.0
1130.466, 145947.0
1131.558, 146306.0
1132.649, 146212.0
1133.741, 145566.0
1134.832, 145776.0
1135.922, 145046.0
1137.013, 145630.0
1138.104, 145108.0
1139.194, 145056.0
1140.284, 145521.0
1141.374, 144290.0
1142.464, 145131.0
1143.554, 144605.0
1144.643, 145375.0
1145.733, 144877.0
1146.822, 144621.0
1147.911, 144741.0
1148.999, 144179.0
1150.088, 144678.0
1151.177, 144399.0
1152.265, 144548.0
1153.353, 145030.0
1154.441, 144219.0
1155.529, 144156.0
1156.616, 144445.0
1157.704, 144324.0
1158.791, 144561.0
1159.878, 143934.0
1160.965, 144429.5
1162.052, 145337.0
1163.138, 144741.0
1164.225, 145134.0
1165.311, 144558.0
1166.397, 145606.0
1167.483, 145242.0
1168.569, 145450.0
1169.654, 145517.0
1170.740, 145482.0
1171.825, 145963.0
1172.910, 145987.0
1173.995, 145611.0
1175.080, 146035.0
1176.164, 145919.0
1177.248, 146185.0
1178.333, 145348.0
1179.417, 145952.0
1180.501, 145737.0
1181.584, 146158.0
1182.668, 146375.0
1183.751, 146554.0
1184.834, 146782.7
1185.917, 146639.0
1187.000, 147022.0
1188.083, 147049.0
1189.165, 147036.0
1190.247, 147474.0
1191.329, 146664.0
1192.411, 147584.0
1193.493, 147060.0
1194.575, 147336.0
1195.656, 147552.0
1196.738, 147786.0
1197.819, 148008.2
1198.900, 147949.0
1199.980, 148125.0
1201.061, 148599.0
1202.141, 148032.0
1203.222, 148682.0
1204.302, 147925.0
1205.381, 148258.0
1206.461, 148178.0
1207.541, 149140.0
1208.620, 149000.0
1209.699, 148622.0
1210.778, 148997.0
1211.857, 148908.0
1212.936, 148713.0
1214.014, 149161.0
1215.093, 149138.0
1216.171, 149088.0
1217.249, 149059.8
1218.327, 149757.3
1219.404, 150197.3
1220.482, 150393.8
1221.559, 149617.2
1222.636, 150097.0
1223.713, 150073.3
1224.790, 150029.0
1225.867, 150685.7
1226.943, 150050.5
1228.019, 150696.0
1229.095, 150830.3
1230.171, 151198.5
1231.247, 151060.1
1232.323, 151078.2
1233.398, 151602.9
1234.473, 151847.1
1235.548, 151650.3
1236.623, 152033.3
1237.698, 151380.3
1238.773, 151636.4
1239.847, 152284.6
1240.921, 152113.2
1241.995, 152505.3
1243.069, 152682.8
1244.143, 151884.8
