##NAMES=Trilithionite
##RRUFFID=R040105
##IDEAL CHEMISTRY=KLi_1.5_Al_1.5_(Si_3_Al)O_10_F_2_
##LOCALITY=Brown Derby mine, Ohio City, Gunnison County, Colorado, USA
##OWNER=RRUFF
##SOURCE=University of Arizona Mineral Museum
##DESCRIPTION=Purple hexagonal tablet
##STATUS=The identification of this mineral has been confirmed by X-ray diffraction and chemical analysis
##URL=rruff.info/R040105
##MEASURED CHEMISTRY=(K_0.82_Li_0.14_Na_0.04_)(Li_0.53_Al_0.42_Mn_0.05_)_3_(Si_0.84_Al_0.17_)_4_O_10_((OH)_0.59_F_0.41_)_2_
##PIN_ID=L00700
##ORIENTATION=Laser parallel to (1 0 1). Fiducial mark perpendicular to laser is parallel to b [0 1 0]
62.17000, 22443.00
63.41600, 23983.00
64.66100, 20473.00
65.90700, 20014.00
67.15200, 19808.00
68.39700, 19839.00
69.64100, 19354.00
70.88600, 19652.00
72.13000, 19665.00
73.37400, 19450.00
74.61800, 19552.00
75.86200, 18956.00
77.10600, 18839.00
78.34900, 19622.00
79.59300, 19862.00
80.83600, 19286.00
82.07900, 18411.00
83.32100, 16845.00
84.56400, 15977.00
85.80600, 15484.00
87.04800, 14724.00
88.29000, 13801.00
89.53200, 12964.00
90.77400, 11925.00
92.01500, 10885.00
93.25700, 9951.000
94.49800, 9763.000
95.73900, 9222.000
96.98000, 8869.000
98.22000, 8643.000
99.46100, 8576.000
100.7010, 8590.847
101.9410, 8721.742
103.1810, 9011.000
104.4210, 9355.000
105.6600, 9854.000
106.9000, 10524.00
108.1390, 11060.00
109.3780, 11999.00
110.6170, 12934.00
111.8550, 13918.00
113.0940, 15145.00
114.3320, 16512.00
115.5700, 18469.00
116.8080, 20178.00
118.0460, 21933.00
119.2830, 23635.33
120.5210, 25238.00
121.7580, 26948.00
122.9950, 28621.00
124.2320, 30368.17
125.4690, 32089.00
126.7050, 33353.00
127.9410, 34705.00
129.1780, 35760.00
130.4140, 36664.00
131.6490, 37208.00
132.8850, 37912.00
134.1200, 38914.00
135.3560, 38794.00
136.5910, 39372.00
137.8260, 40114.00
139.0610, 40205.00
140.2950, 40153.00
141.5290, 40263.00
142.7640, 40409.00
143.9980, 40535.00
145.2320, 40624.00
146.4650, 40990.00
147.6990, 40951.00
148.9320, 41003.00
150.1650, 40987.00
151.3980, 40897.00
152.6310, 41415.00
153.8640, 41404.00
155.0960, 41744.00
156.3280, 42106.00
157.5600, 42513.00
158.7920, 42714.00
160.0240, 43064.00
161.2560, 43625.00
162.4870, 44531.00
163.7180, 45434.66
164.9490, 46556.65
166.1800, 47861.00
167.4110, 49244.00
168.6410, 50769.00
169.8720, 52478.18
171.1020, 54586.00
172.3320, 56502.00
173.5620, 58576.00
174.7910, 61089.00
176.0210, 62755.00
177.2500, 64337.00
178.4790, 65786.00
179.7080, 66542.00
180.9370, 67122.00
182.1650, 67309.00
183.3940, 66856.00
184.6220, 65844.00
185.8500, 65763.00
187.0780, 63534.00
188.3050, 62433.00
189.5330, 61024.00
190.7600, 59102.00
191.9870, 57538.00
193.2140, 56676.00
194.4410, 55510.00
195.6680, 54633.00
196.8940, 53728.00
198.1200, 52839.00
199.3470, 52423.00
200.5720, 51827.00
201.7980, 51405.00
203.0240, 51221.00
204.2490, 50435.00
205.4740, 50244.00
206.6990, 50056.00
207.9240, 50255.00
209.1490, 49687.00
210.3740, 50079.00
211.5980, 49808.00
212.8220, 50215.00
214.0460, 50236.00
215.2700, 50552.00
216.4930, 50858.00
217.7170, 50979.00
218.9400, 51639.00
220.1630, 51882.00
221.3860, 52220.00
222.6090, 52644.64
223.8320, 53308.00
225.0540, 53438.00
226.2760, 54124.00
227.4980, 54776.00
228.7200, 55788.00
229.9420, 56363.00
231.1630, 57291.00
232.3850, 57968.00
233.6060, 59045.00
234.8270, 59771.00
236.0480, 60882.00
237.2690, 61533.00
238.4890, 62334.00
239.7090, 62951.00
240.9290, 63837.00
242.1490, 64550.00
243.3690, 64736.00
244.5890, 65242.00
245.8080, 65396.00
247.0270, 65776.00
248.2470, 66142.00
249.4650, 66226.00
250.6840, 66063.00
251.9030, 66538.00
253.1210, 66581.00
254.3390, 67498.00
255.5570, 67629.00
256.7750, 67346.00
257.9930, 67846.00
259.2100, 67848.00
260.4280, 67683.00
261.6450, 67234.00
262.8620, 66617.00
264.0790, 66345.00
265.2950, 64844.00
266.5120, 63346.00
267.7280, 61479.00
268.9440, 60451.00
270.1600, 58852.00
271.3760, 56703.00
272.5920, 55295.00
273.8070, 53627.00
275.0220, 52141.00
276.2370, 50801.00
277.4520, 50078.00
278.6670, 49453.00
279.8820, 48084.00
281.0960, 47313.00
282.3100, 46289.00
283.5240, 45931.00
284.7380, 45274.00
285.9520, 45028.00
287.1650, 44385.00
288.3780, 44184.00
289.5920, 43983.00
290.8050, 43711.00
292.0170, 43249.00
293.2300, 43012.00
294.4430, 43190.00
295.6550, 42817.00
296.8670, 42885.00
298.0790, 42488.00
299.2910, 42574.00
300.5020, 42467.00
301.7140, 42179.00
302.9250, 42278.00
304.1360, 42082.00
305.3470, 42048.00
306.5580, 41871.00
307.7680, 41594.00
308.9780, 41509.00
310.1890, 41497.00
311.3990, 41134.00
312.6090, 41290.00
313.8180, 41154.00
315.0280, 41100.00
316.2370, 41040.30
317.4460, 40884.72
318.6550, 40800.00
319.8640, 40607.00
321.0730, 40467.00
322.2810, 40347.00
323.4890, 40366.00
324.6980, 40171.00
325.9060, 40125.00
327.1130, 39905.00
328.3210, 39904.00
329.5280, 39754.00
330.7360, 39585.00
331.9430, 39572.00
333.1500, 39311.00
334.3560, 39367.00
335.5630, 39396.00
336.7690, 38942.00
337.9760, 38808.22
339.1820, 38965.77
340.3870, 39040.25
341.5930, 39036.08
342.7990, 38717.77
344.0040, 38805.12
345.2090, 38729.92
346.4140, 38648.05
347.6190, 38792.50
348.8240, 38519.91
350.0280, 38660.80
351.2330, 38636.62
352.4370, 38688.00
353.6410, 38813.00
354.8440, 38670.00
356.0480, 38832.32
357.2520, 39025.00
358.4550, 38950.00
359.6580, 39028.00
360.8610, 38978.00
362.0640, 39066.00
363.2660, 39344.00
364.4690, 39526.00
365.6710, 39366.00
366.8730, 39691.00
368.0750, 39598.00
369.2770, 39919.00
370.4780, 40266.00
371.6800, 40233.00
372.8810, 40544.00
374.0820, 40775.00
375.2830, 40615.00
376.4830, 41127.00
377.6840, 41297.00
378.8840, 41534.00
380.0840, 41822.02
381.2840, 42042.98
382.4840, 42259.00
383.6840, 42595.00
384.8830, 42844.00
386.0830, 43187.00
387.2820, 43550.00
388.4810, 43683.00
389.6800, 44133.00
390.8780, 44694.00
392.0770, 44635.00
393.2750, 44974.00
394.4730, 45514.00
395.6710, 45719.12
396.8690, 46172.47
398.0660, 46227.00
399.2640, 46933.00
400.4610, 46608.00
401.6580, 46906.00
402.8550, 47467.00
404.0520, 48253.00
405.2490, 48078.00
406.4450, 47566.00
407.6410, 47475.00
408.8370, 46988.00
410.0330, 46996.00
411.2290, 46368.00
412.4240, 46094.00
413.6200, 45380.00
414.8150, 44889.00
416.0100, 44409.00
417.2050, 44170.00
418.4000, 43708.00
419.5940, 43211.00
420.7880, 42688.00
421.9830, 42825.00
423.1770, 42507.00
424.3700, 42303.00
425.5640, 42430.00
426.7580, 42336.00
427.9510, 42393.93
429.1440, 42555.00
430.3370, 42611.00
431.5300, 42543.00
432.7220, 42771.00
433.9150, 42614.00
435.1070, 43227.00
436.2990, 43423.00
437.4910, 43655.00
438.6830, 43682.00
439.8750, 43854.67
441.0660, 44270.00
442.2570, 44048.00
443.4480, 44105.00
444.6390, 44178.00
445.8300, 44556.00
447.0210, 44045.00
448.2110, 44484.00
449.4010, 44256.00
450.5910, 44302.00
451.7810, 44244.00
452.9710, 44121.00
454.1610, 44236.00
455.3500, 44307.00
456.5390, 44424.00
457.7280, 44257.00
458.9170, 44051.00
460.1060, 44010.00
461.2940, 44201.00
462.4830, 43974.00
463.6710, 44047.00
464.8590, 43934.00
466.0470, 43993.00
467.2350, 44155.00
468.4220, 43978.00
469.6090, 44323.00
470.7970, 44181.00
471.9840, 44108.00
473.1700, 44275.00
474.3570, 44819.00
475.5440, 44670.00
476.7300, 44520.00
477.9160, 44297.00
479.1020, 44093.51
480.2880, 43867.31
481.4740, 43585.00
482.6590, 43369.45
483.8440, 43045.65
485.0300, 42767.48
486.2140, 42483.67
487.3990, 42207.00
488.5840, 41993.00
489.7680, 41461.00
490.9530, 41617.00
492.1370, 41076.00
493.3210, 41436.00
494.5040, 41021.00
495.6880, 40991.00
496.8720, 40848.00
498.0550, 41107.00
499.2380, 40822.00
500.4210, 40856.00
501.6040, 41033.00
502.7860, 40716.00
503.9690, 40911.00
505.1510, 41026.00
506.3330, 40817.00
507.5150, 41105.00
508.6970, 41224.00
509.8780, 41153.00
511.0600, 41404.51
512.2410, 41495.28
513.4220, 41564.00
514.6030, 41912.00
515.7840, 41744.00
516.9640, 42100.00
518.1440, 42074.00
519.3250, 42524.00
520.5050, 42442.00
521.6850, 42582.00
522.8640, 42807.00
524.0440, 42628.00
525.2230, 42892.00
526.4020, 43038.00
527.5820, 43040.00
528.7600, 43087.00
529.9390, 43344.00
531.1180, 43382.00
532.2960, 43482.00
533.4740, 43796.00
534.6520, 43853.68
535.8300, 43995.00
537.0080, 44144.00
538.1850, 44142.00
539.3630, 44244.00
540.5400, 44567.00
541.7170, 44990.00
542.8940, 45560.00
544.0700, 45917.00
545.2470, 46084.00
546.4230, 46207.00
547.5990, 46824.00
548.7750, 47583.00
549.9510, 47698.00
551.1270, 48784.00
552.3020, 49236.00
553.4780, 50163.00
554.6530, 50478.00
555.8280, 51186.00
557.0030, 51889.00
558.1770, 52375.00
559.3520, 52667.00
560.5260, 53204.00
561.7000, 53253.80
562.8740, 53368.00
564.0480, 53257.00
565.2220, 53041.00
566.3950, 52834.00
567.5680, 52491.00
568.7420, 51641.00
569.9150, 51201.00
571.0870, 50558.00
572.2600, 49865.00
573.4320, 49355.00
574.6050, 48349.00
575.7770, 47871.00
576.9490, 47615.00
578.1210, 46900.00
579.2920, 46821.00
580.4640, 46707.00
581.6350, 46198.00
582.8060, 45824.00
583.9770, 45698.00
585.1480, 45505.00
586.3190, 45436.00
587.4890, 45613.00
588.6590, 45738.00
589.8290, 45289.00
590.9990, 45167.00
592.1690, 45035.00
593.3390, 44939.18
594.5080, 45004.00
595.6770, 45066.00
596.8470, 45007.00
598.0160, 45281.00
599.1840, 45407.00
600.3530, 45565.00
601.5210, 45739.00
602.6900, 45742.71
603.8580, 45610.00
605.0260, 45756.00
606.1930, 45914.00
607.3610, 45959.00
608.5280, 46118.18
609.6960, 46241.00
610.8630, 46399.00
612.0300, 46435.00
613.1970, 46649.00
614.3630, 46793.00
615.5300, 47300.00
616.6960, 47324.00
617.8620, 47819.00
619.0280, 47978.00
620.1940, 48248.00
621.3590, 48661.00
622.5250, 49388.00
623.6900, 49958.00
624.8550, 50368.00
626.0200, 50752.00
627.1850, 50677.00
628.3490, 50874.00
629.5140, 49758.00
630.6780, 49751.00
631.8420, 48694.00
633.0060, 48250.00
634.1700, 47779.00
635.3330, 47355.00
636.4970, 47333.00
637.6600, 47221.00
638.8230, 47345.00
639.9860, 47535.00
641.1490, 47937.00
642.3110, 48256.00
643.4740, 48533.00
644.6360, 48944.00
645.7980, 49483.00
646.9600, 49825.00
648.1220, 50030.00
649.2840, 49933.00
650.4450, 50176.00
651.6060, 50009.00
652.7670, 50293.00
653.9280, 50257.82
655.0890, 50205.00
656.2500, 50144.00
657.4100, 49883.00
658.5700, 49509.00
659.7300, 49135.00
660.8900, 48838.00
662.0500, 48798.00
663.2100, 48683.00
664.3690, 48555.00
665.5280, 48412.00
666.6880, 48769.00
667.8460, 48884.00
669.0050, 49137.00
670.1640, 49162.00
671.3220, 49523.00
672.4810, 49806.00
673.6390, 50254.00
674.7970, 50789.00
675.9540, 51551.00
677.1120, 51239.00
678.2690, 51710.00
679.4270, 52653.00
680.5840, 53550.00
681.7410, 53905.00
682.8980, 55073.00
684.0540, 56003.00
685.2110, 57793.00
686.3670, 58483.00
687.5230, 60292.00
688.6790, 62291.00
689.8350, 64110.00
690.9900, 66690.00
692.1460, 68804.00
693.3010, 71891.00
694.4560, 75594.00
695.6110, 79812.34
696.7660, 84099.00
697.9210, 90299.00
699.0750, 96393.00
700.2290, 103147.0
701.3840, 111324.0
702.5370, 118652.0
703.6910, 127223.0
704.8450, 135091.0
705.9980, 142186.0
707.1520, 146754.0
708.3050, 149611.0
709.4580, 149570.0
710.6110, 146089.0
711.7630, 140178.0
712.9160, 131385.0
714.0680, 122512.0
715.2200, 112116.0
716.3720, 102227.0
717.5240, 94235.00
718.6760, 86637.00
719.8270, 80410.00
720.9780, 74740.00
722.1300, 70614.00
723.2810, 66778.00
724.4310, 63822.00
725.5820, 61471.00
726.7330, 59347.00
727.8830, 57748.00
729.0330, 56526.00
730.1830, 54938.00
731.3330, 54069.00
732.4830, 53596.00
733.6320, 52554.00
734.7810, 52029.00
735.9310, 52025.00
737.0800, 51025.00
738.2290, 50932.00
739.3770, 50456.00
740.5260, 50062.00
741.6740, 50128.00
742.8220, 49849.00
743.9700, 49665.00
745.1180, 49783.00
746.2660, 49799.00
747.4130, 50129.00
748.5610, 50201.00
749.7080, 49691.00
750.8550, 50031.00
752.0020, 49963.00
753.1490, 50281.00
754.2950, 50255.00
755.4420, 50215.00
756.5880, 50191.98
757.7340, 50007.42
758.8800, 49781.61
760.0250, 49530.00
761.1710, 49047.00
762.3160, 48624.00
763.4620, 48348.00
764.6070, 48858.00
765.7520, 48179.00
766.8960, 48062.00
768.0410, 47438.00
769.1850, 47509.00
770.3300, 47497.00
771.4740, 47372.00
772.6180, 47537.00
773.7610, 47724.00
774.9050, 47598.00
776.0480, 47320.00
777.1920, 48062.00
778.3350, 48079.00
779.4780, 48418.00
780.6200, 48982.00
781.7630, 48724.00
782.9060, 49030.00
784.0480, 48733.00
785.1900, 48395.00
786.3320, 48623.00
787.4740, 48521.00
788.6150, 47916.00
789.7570, 47832.00
790.8980, 47939.00
792.0390, 47585.00
793.1800, 47297.00
794.3210, 47501.00
795.4620, 47020.00
796.6020, 46937.00
797.7420, 47411.00
798.8830, 47071.20
800.0230, 46690.00
801.1620, 46643.00
802.3020, 46415.16
803.4420, 46233.00
804.5810, 46058.00
805.7200, 46201.00
806.8590, 45700.00
807.9980, 46027.00
809.1370, 45991.00
810.2750, 46010.00
811.4140, 45685.00
812.5520, 45612.00
813.6900, 45886.00
814.8280, 46152.00
815.9650, 46004.00
817.1030, 46361.00
818.2400, 46431.00
819.3780, 46501.00
820.5150, 46472.00
821.6520, 46589.00
822.7880, 46664.98
823.9250, 46695.94
825.0610, 46882.00
826.1980, 47002.41
827.3340, 47104.00
828.4700, 47221.00
829.6050, 47281.00
830.7410, 47270.00
831.8760, 47834.00
833.0120, 47906.00
834.1470, 48056.00
835.2820, 48053.00
836.4160, 48037.00
837.5510, 48468.00
838.6860, 48571.00
839.8200, 48862.24
840.9540, 49383.00
842.0880, 49261.00
843.2220, 49926.00
844.3550, 49720.00
845.4890, 50034.00
846.6220, 50303.00
847.7550, 50184.00
848.8880, 50456.00
850.0210, 50133.00
851.1540, 50285.00
852.2860, 50695.00
853.4190, 51134.00
854.5510, 51305.35
855.6830, 51700.76
856.8150, 51822.00
857.9460, 52252.00
859.0780, 52614.00
860.2090, 52788.00
861.3410, 53342.00
862.4720, 53137.00
863.6020, 52931.00
864.7330, 52362.00
865.8640, 52002.00
866.9940, 51528.00
868.1240, 51208.00
869.2540, 50899.00
870.3840, 50557.00
871.5140, 50454.00
872.6440, 50492.00
873.7730, 50429.00
874.9020, 50206.00
876.0320, 50124.00
877.1600, 50160.00
878.2890, 49988.00
879.4180, 50191.00
880.5460, 50015.00
881.6750, 50241.00
882.8030, 49781.00
883.9310, 50052.00
885.0590, 50411.00
886.1860, 50023.00
887.3140, 50281.00
888.4410, 50019.00
889.5680, 50190.00
890.6950, 50288.00
891.8220, 50165.00
892.9490, 50347.60
894.0750, 50554.00
895.2020, 50745.00
896.3280, 50768.88
897.4540, 51031.00
898.5800, 50841.00
899.7050, 50851.00
900.8310, 51029.00
901.9560, 50631.00
903.0820, 50645.00
904.2070, 50891.00
905.3320, 50659.00
906.4560, 50896.00
907.5810, 50834.00
908.7050, 51062.00
909.8300, 50638.00
910.9540, 51085.00
912.0780, 51061.00
913.2010, 50823.00
914.3250, 50938.00
915.4480, 50798.00
916.5720, 50722.00
917.6950, 50343.00
918.8180, 50746.00
919.9410, 50294.00
921.0630, 50462.00
922.1860, 50435.00
923.3080, 50390.00
924.4300, 50698.00
925.5520, 50067.00
926.6740, 50676.00
927.7960, 50250.00
928.9170, 50683.00
930.0390, 50981.00
931.1600, 51072.00
932.2810, 50811.00
933.4020, 50976.00
934.5230, 50964.00
935.6430, 50773.00
936.7640, 50945.00
937.8840, 50846.00
939.0040, 50982.00
940.1240, 50822.00
941.2440, 50915.00
942.3630, 50798.00
943.4830, 50981.00
944.6020, 51000.00
945.7210, 51446.00
946.8400, 51001.00
947.9590, 51182.00
949.0770, 50988.00
950.1960, 51423.00
951.3140, 51428.00
952.4320, 51952.00
953.5500, 52149.00
954.6680, 52126.62
955.7860, 52667.00
956.9030, 52113.00
958.0210, 52059.00
959.1380, 52191.00
960.2550, 51761.00
961.3720, 51954.00
962.4890, 51936.00
963.6050, 52082.00
964.7220, 52556.00
965.8380, 52802.00
966.9540, 52573.00
968.0700, 52818.00
969.1860, 52667.00
970.3010, 52929.00
971.4170, 52836.00
972.5320, 52932.00
973.6470, 52893.00
974.7620, 53034.00
975.8770, 53263.00
976.9910, 52682.00
978.1060, 53161.00
979.2200, 53029.00
980.3340, 53037.00
981.4480, 53251.00
982.5620, 53283.00
983.6760, 53729.00
984.7890, 53799.00
985.9030, 53985.00
987.0160, 54573.00
988.1290, 54809.00
989.2420, 55064.00
990.3550, 55379.00
991.4670, 55450.00
992.5800, 55906.00
993.6920, 56469.00
994.8040, 57500.00
995.9160, 58369.00
997.0280, 59622.00
998.1390, 60926.00
999.2510, 62863.00
1000.362, 64994.00
1001.473, 66781.00
1002.584, 69310.00
1003.695, 68791.00
1004.805, 67434.00
1005.916, 64422.00
1007.026, 61183.00
1008.136, 59287.00
1009.246, 58215.00
1010.356, 57502.00
1011.466, 56545.00
1012.576, 56217.00
1013.685, 56095.00
1014.794, 55736.00
1015.903, 56342.00
1017.012, 56587.00
1018.121, 56563.00
1019.229, 56858.00
1020.338, 57031.00
1021.446, 57617.00
1022.554, 57750.00
1023.662, 57678.00
1024.770, 57955.00
1025.878, 57536.00
1026.985, 57950.00
1028.092, 57726.00
1029.200, 57823.00
1030.307, 57396.00
1031.413, 57196.00
1032.520, 57406.00
1033.627, 57225.00
1034.733, 56881.00
1035.839, 56594.00
1036.945, 56671.00
1038.051, 56149.00
1039.157, 56349.00
1040.262, 56346.00
1041.368, 56044.00
1042.473, 55972.00
1043.578, 56386.00
1044.683, 56272.00
1045.788, 56420.00
1046.893, 56564.00
1047.997, 57048.00
1049.101, 56928.00
1050.205, 57406.00
1051.309, 57124.00
1052.413, 57097.00
1053.517, 57328.00
1054.621, 57610.00
1055.724, 58085.00
1056.827, 57609.00
1057.930, 58045.00
1059.033, 57976.00
1060.136, 58230.00
1061.238, 58518.00
1062.341, 58673.00
1063.443, 59001.57
1064.545, 59218.00
1065.647, 59616.00
1066.749, 59818.00
1067.850, 60166.00
1068.952, 60426.00
1070.053, 60578.00
1071.154, 61520.00
1072.255, 61697.00
1073.356, 62400.00
1074.457, 62342.00
1075.557, 63088.00
1076.658, 63132.00
1077.758, 63516.00
1078.858, 64260.00
1079.958, 64423.00
1081.057, 65067.00
1082.157, 65302.00
1083.256, 65879.00
1084.356, 66053.00
1085.455, 65936.00
1086.554, 66083.00
1087.653, 65900.00
1088.751, 65633.00
1089.850, 65428.00
1090.948, 65155.00
1092.046, 64880.00
1093.144, 64809.00
1094.242, 64738.00
1095.340, 65213.00
1096.437, 64734.00
1097.534, 64782.00
1098.632, 64487.00
1099.729, 64989.00
1100.826, 64731.00
1101.922, 65069.00
1103.019, 65241.00
1104.115, 65052.00
1105.212, 65544.00
1106.308, 65509.00
1107.404, 65592.00
1108.499, 66229.00
1109.595, 66154.00
1110.691, 66715.00
1111.786, 67017.00
1112.881, 66696.00
1113.976, 67003.00
1115.071, 66926.00
1116.166, 67202.00
1117.260, 67107.00
1118.355, 67256.52
1119.449, 67508.00
1120.543, 67433.00
1121.637, 67769.00
1122.731, 67766.00
1123.824, 68569.00
1124.918, 68150.00
1126.011, 68624.00
1127.104, 68461.00
1128.197, 68768.00
1129.290, 68695.08
1130.382, 68090.00
1131.475, 68418.00
1132.567, 67856.00
1133.659, 67513.00
1134.751, 66749.00
1135.843, 65613.00
1136.935, 65096.00
1138.027, 63834.00
1139.118, 63280.00
1140.209, 62022.00
1141.300, 61175.00
1142.391, 60230.00
1143.482, 59182.00
1144.573, 59181.00
1145.663, 58399.00
1146.754, 57763.00
1147.844, 58032.00
1148.934, 57502.00
1150.024, 57483.00
1151.113, 56908.00
1152.203, 57372.00
1153.292, 57297.00
1154.381, 57388.00
1155.470, 57604.00
1156.559, 57300.00
1157.648, 57615.00
1158.737, 57467.00
1159.825, 57577.00
1160.913, 57668.00
1162.001, 57536.00
1163.089, 57485.00
1164.177, 57260.00
1165.265, 57333.61
1166.352, 57352.80
1167.440, 57541.00
1168.527, 57581.00
1169.614, 57905.00
1170.701, 58087.00
1171.788, 57998.00
1172.874, 58104.00
1173.961, 58106.00
1175.047, 58219.00
1176.133, 58677.00
1177.219, 58203.00
1178.305, 58620.00
1179.390, 58287.00
1180.476, 58121.00
1181.561, 58556.00
1182.646, 58385.00
1183.731, 58974.00
1184.816, 58845.77
1185.901, 58823.48
1186.985, 58825.00
1188.070, 58726.00
1189.154, 58853.00
1190.238, 58799.46
1191.322, 58795.00
1192.406, 58859.00
1193.489, 58741.00
1194.573, 58878.00
1195.656, 58536.00
1196.739, 58456.00
1197.822, 58618.00
1198.905, 58541.00
1199.988, 58887.00
1201.070, 59001.00
1202.153, 58875.00
1203.235, 58809.00
1204.317, 58883.00
1205.399, 58617.00
1206.481, 58672.00
1207.562, 58272.00
1208.644, 58062.00
1209.725, 58471.00
1210.806, 58506.00
1211.887, 58633.00
1212.968, 59111.00
1214.049, 58816.00
1215.129, 59291.00
1216.209, 59018.00
1217.290, 59474.00
1218.370, 59445.00
1219.450, 58988.00
1220.529, 59346.00
1221.609, 59228.00
1222.688, 59358.00
1223.768, 59002.00
1224.847, 59340.00
1225.926, 59673.00
1227.005, 59386.00
1228.083, 60219.00
1229.162, 59910.00
1230.240, 60078.00
1231.318, 60609.00
1232.396, 60331.00
1233.474, 60841.00
1234.552, 60661.00
1235.629, 60827.00
1236.707, 61285.00
1237.784, 60886.00
1238.861, 61174.00
1239.938, 61272.00
1241.015, 61611.00
1242.092, 61584.00
