##NAMES=Trilithionite
##RRUFFID=R040105
##IDEAL CHEMISTRY=KLi_1.5_Al_1.5_(Si_3_Al)O_10_F_2_
##LOCALITY=Brown Derby mine, Ohio City, Gunnison County, Colorado, USA
##OWNER=RRUFF
##SOURCE=University of Arizona Mineral Museum
##DESCRIPTION=Purple hexagonal tablet
##STATUS=The identification of this mineral has been confirmed by X-ray diffraction and chemical analysis
##URL=rruff.info/R040105
##MEASURED CHEMISTRY=(K_0.82_Li_0.14_Na_0.04_)(Li_0.53_Al_0.42_Mn_0.05_)_3_(Si_0.84_Al_0.17_)_4_O_10_((OH)_0.59_F_0.41_)_2_
##PIN_ID=L01598
##ORIENTATION=Laser parallel to c* (0 0 1). Fiducial mark perpendicular to laser is parallel to -a [-1 0 0]
151.3210, 17136.00
152.5490, 17384.00
153.7750, 17364.00
155.0020, 17219.00
156.2290, 17289.00
157.4550, 17237.00
158.6810, 17246.00
159.9080, 17188.00
161.1340, 17464.00
162.3590, 17626.00
163.5850, 17643.00
164.8110, 17702.00
166.0360, 17964.00
167.2610, 18093.00
168.4860, 18177.00
169.7110, 18456.00
170.9360, 18805.00
172.1610, 19039.00
173.3850, 19186.00
174.6100, 19484.00
175.8340, 19540.00
177.0580, 19849.00
178.2820, 19969.00
179.5050, 20064.00
180.7290, 19916.00
181.9520, 19910.00
183.1760, 19800.00
184.3990, 19559.00
185.6220, 19461.00
186.8450, 19277.00
188.0670, 19164.00
189.2900, 18903.00
190.5120, 18605.00
191.7340, 18486.00
192.9560, 18459.00
194.1780, 18483.00
195.4000, 18521.00
196.6220, 18329.00
197.8430, 18060.00
199.0640, 18276.00
200.2860, 18201.00
201.5070, 18203.00
202.7270, 18247.00
203.9480, 18212.00
205.1690, 17974.00
206.3890, 17605.00
207.6090, 17440.00
208.8290, 17268.00
210.0490, 17358.00
211.2690, 17377.00
212.4890, 17333.00
213.7080, 17523.00
214.9280, 17605.00
216.1470, 17469.00
217.3660, 17481.00
218.5850, 17430.00
219.8030, 17468.00
221.0220, 17369.00
222.2400, 17442.00
223.4590, 17513.00
224.6770, 17534.00
225.8950, 17741.00
227.1120, 17617.00
228.3300, 17745.00
229.5480, 17798.00
230.7650, 18127.00
231.9820, 18288.00
233.1990, 18325.00
234.4160, 18631.00
235.6330, 18800.00
236.8490, 18902.00
238.0660, 19260.00
239.2820, 19228.00
240.4980, 19592.00
241.7140, 19572.00
242.9300, 19835.00
244.1460, 20106.00
245.3610, 20240.00
246.5770, 20511.00
247.7920, 20843.00
249.0070, 20770.00
250.2220, 21059.00
251.4370, 21384.00
252.6510, 21611.00
253.8660, 21992.00
255.0800, 22333.00
256.2940, 22835.00
257.5080, 23184.00
258.7220, 23461.00
259.9360, 23837.00
261.1490, 23836.36
262.3630, 24117.00
263.5760, 23618.00
264.7890, 23188.00
266.0020, 22676.00
267.2150, 22344.00
268.4270, 21676.00
269.6400, 21318.00
270.8520, 20705.00
272.0640, 20537.00
273.2760, 19993.00
274.4880, 19687.00
275.7000, 19376.00
276.9120, 19262.00
278.1230, 19084.00
279.3340, 18922.00
280.5450, 18777.15
281.7560, 18379.00
282.9670, 18540.00
284.1780, 18361.00
285.3880, 18401.00
286.5980, 18010.00
287.8090, 18021.00
289.0190, 18105.00
290.2290, 17984.00
291.4380, 18071.00
292.6480, 17861.00
293.8570, 17977.00
295.0670, 17926.00
296.2760, 17875.00
297.4850, 17828.00
298.6930, 17888.00
299.9020, 17900.00
301.1110, 17873.59
302.3190, 17960.00
303.5270, 17827.00
304.7350, 17841.00
305.9430, 17804.00
307.1510, 17618.00
308.3580, 17770.00
309.5660, 17484.00
310.7730, 17392.00
311.9800, 17458.00
313.1870, 17390.00
314.3940, 17367.00
315.6010, 17358.00
316.8070, 17267.83
318.0130, 17359.00
319.2200, 17131.00
320.4260, 17246.00
321.6310, 17237.00
322.8370, 17206.00
324.0430, 17234.00
325.2480, 17158.00
326.4540, 17153.00
327.6590, 17099.00
328.8640, 16899.00
330.0680, 17025.00
331.2730, 16871.00
332.4780, 16964.00
333.6820, 16920.00
334.8860, 16954.00
336.0900, 16768.00
337.2940, 17026.00
338.4980, 16858.00
339.7010, 16870.00
340.9050, 16954.00
342.1080, 16899.00
343.3110, 16902.00
344.5140, 16796.00
345.7170, 17039.00
346.9200, 17077.00
348.1220, 17025.00
349.3240, 16900.00
350.5270, 16990.00
351.7290, 17080.00
352.9310, 17118.00
354.1320, 16945.00
355.3340, 17100.00
356.5350, 16981.00
357.7370, 17154.00
358.9380, 17273.00
360.1390, 17302.00
361.3400, 17335.00
362.5400, 17327.00
363.7410, 17411.00
364.9410, 17503.00
366.1410, 17577.00
367.3410, 17634.25
368.5410, 17662.33
369.7410, 17747.00
370.9400, 17695.00
372.1400, 17775.00
373.3390, 17824.00
374.5380, 17904.00
375.7370, 18070.00
376.9360, 18088.00
378.1350, 18199.40
379.3330, 18298.00
380.5310, 18334.00
381.7300, 18356.00
382.9280, 18371.00
384.1260, 18640.00
385.3230, 18669.00
386.5210, 18703.00
387.7180, 19006.00
388.9160, 18973.00
390.1130, 19128.00
391.3100, 19313.00
392.5060, 19563.00
393.7030, 19697.00
394.9000, 19810.00
396.0960, 20049.00
397.2920, 20163.00
398.4880, 20275.53
399.6840, 20425.00
400.8800, 20479.00
402.0750, 20604.00
403.2710, 20749.00
404.4660, 20818.00
405.6610, 20916.00
406.8560, 20821.00
408.0510, 20847.00
409.2450, 20722.00
410.4400, 20381.00
411.6340, 20407.00
412.8280, 20272.00
414.0220, 20368.00
415.2160, 19993.00
416.4100, 19578.00
417.6030, 19822.00
418.7970, 19582.00
419.9900, 19648.00
421.1830, 19544.00
422.3760, 19346.00
423.5690, 19501.00
424.7610, 19437.00
425.9540, 19404.00
427.1460, 19392.00
428.3380, 19459.84
429.5300, 19622.00
430.7220, 19671.00
431.9140, 19782.90
433.1050, 19919.00
434.2970, 19922.00
435.4880, 19986.00
436.6790, 20052.00
437.8700, 20114.00
439.0610, 20105.00
440.2510, 20265.00
441.4420, 20240.00
442.6320, 20401.00
443.8220, 20409.00
445.0120, 20287.00
446.2020, 20449.00
447.3910, 20393.00
448.5810, 20548.00
449.7700, 20573.00
450.9600, 20456.00
452.1490, 20379.00
453.3370, 20414.00
454.5260, 20397.00
455.7150, 20229.00
456.9030, 20207.00
458.0910, 20123.00
459.2800, 20182.00
460.4670, 19913.00
461.6550, 20079.00
462.8430, 20070.00
464.0300, 19971.00
465.2180, 20059.00
466.4050, 19939.00
467.5920, 19878.00
468.7790, 20104.00
469.9650, 20100.00
471.1520, 19991.00
472.3380, 20141.00
473.5250, 20108.00
474.7110, 20090.00
475.8970, 20079.38
477.0820, 19958.00
478.2680, 19878.00
479.4540, 19828.00
480.6390, 19568.00
481.8240, 19410.00
483.0090, 19425.00
484.1940, 19357.00
485.3780, 19213.00
486.5630, 19256.00
487.7470, 19063.00
488.9320, 19151.00
490.1160, 18858.00
491.3000, 18944.00
492.4830, 18957.00
493.6670, 18812.00
494.8500, 18710.00
496.0340, 18757.00
497.2170, 18715.75
498.4000, 18923.00
499.5820, 18851.00
500.7650, 18728.00
501.9480, 18918.00
503.1300, 18784.00
504.3120, 19067.00
505.4940, 18881.00
506.6760, 18774.00
507.8580, 18885.00
509.0390, 19071.00
510.2210, 18911.00
511.4020, 18941.00
512.5830, 19091.00
513.7640, 19032.00
514.9450, 19238.00
516.1250, 19269.88
517.3060, 19187.00
518.4860, 19372.00
519.6660, 19428.00
520.8460, 19389.00
522.0260, 19538.00
523.2060, 19483.00
524.3850, 19626.00
525.5650, 19678.00
526.7440, 19756.00
527.9230, 19674.00
529.1020, 19847.00
530.2810, 20000.00
531.4590, 20228.00
532.6380, 20031.00
533.8160, 20233.74
534.9940, 20310.00
536.1720, 20322.00
537.3500, 20567.00
538.5270, 20527.00
539.7050, 20728.00
540.8820, 20705.00
542.0590, 20919.00
543.2360, 21257.00
544.4130, 21311.00
545.5900, 21262.00
546.7660, 21301.00
547.9430, 21540.00
549.1190, 21602.00
550.2950, 21758.00
551.4710, 22077.00
552.6470, 22257.00
553.8220, 22354.00
554.9980, 22463.00
556.1730, 23008.00
557.3480, 22893.00
558.5230, 23158.00
559.6980, 23045.00
560.8730, 23336.00
562.0470, 23240.00
563.2220, 23188.00
564.3960, 23257.00
565.5700, 23077.00
566.7440, 22944.07
567.9170, 22735.00
569.0910, 22478.00
570.2640, 22238.00
571.4380, 22058.62
572.6110, 22110.00
573.7840, 21730.00
574.9570, 21544.00
576.1290, 21443.00
577.3020, 21062.00
578.4740, 21091.00
579.6460, 20946.00
580.8180, 20933.00
581.9900, 20649.00
583.1620, 20576.00
584.3330, 20552.00
585.5040, 20557.00
586.6760, 20736.00
587.8470, 20458.00
589.0180, 20407.00
590.1880, 20481.00
591.3590, 20678.00
592.5290, 20472.00
593.7000, 20528.00
594.8700, 20409.00
596.0400, 20374.00
597.2090, 20507.00
598.3790, 20513.00
599.5490, 20501.00
600.7180, 20589.00
601.8870, 20726.00
603.0560, 20743.00
604.2250, 20758.00
605.3940, 20937.00
606.5620, 20761.00
607.7300, 20690.00
608.8990, 20831.00
610.0670, 20927.00
611.2350, 21092.00
612.4020, 20899.00
613.5700, 21072.00
614.7370, 21040.00
615.9050, 21129.00
617.0720, 21106.00
618.2390, 21000.00
619.4060, 21103.00
620.5720, 20936.00
621.7390, 21102.00
622.9050, 21154.00
624.0710, 21208.00
625.2370, 21159.00
626.4030, 21155.00
627.5690, 21105.00
628.7340, 20987.00
629.9000, 20871.00
631.0650, 20907.00
632.2300, 20575.00
633.3950, 20689.00
634.5600, 20426.00
635.7240, 20450.00
636.8890, 20432.00
638.0530, 20400.00
639.2170, 20510.00
640.3810, 20293.00
641.5450, 20491.00
642.7080, 20387.00
643.8720, 20569.00
645.0350, 20564.00
646.1980, 20748.00
647.3610, 20663.00
648.5240, 20737.00
649.6870, 20782.00
650.8490, 20713.00
652.0120, 20708.00
653.1740, 20834.00
654.3360, 20732.00
655.4980, 20847.00
656.6600, 20836.00
657.8210, 20809.00
658.9830, 20775.00
660.1440, 20886.00
661.3050, 20898.00
662.4660, 20861.00
663.6270, 21035.00
664.7870, 20992.00
665.9480, 21176.00
667.1080, 21287.00
668.2680, 21249.00
669.4280, 21384.00
670.5880, 21473.00
671.7480, 21627.00
672.9070, 21688.00
674.0670, 21872.35
675.2260, 22023.00
676.3850, 22190.00
677.5440, 22358.00
678.7030, 22596.57
679.8610, 22844.00
681.0200, 23100.00
682.1780, 23433.00
683.3360, 23684.00
684.4940, 24110.12
685.6520, 24467.00
686.8090, 25031.00
687.9670, 25548.00
689.1240, 26132.00
690.2810, 26808.00
691.4380, 27625.00
692.5950, 28827.00
693.7520, 29844.00
694.9080, 30541.00
696.0650, 32163.00
697.2210, 33571.00
698.3770, 35572.00
699.5330, 37714.00
700.6880, 39782.00
701.8440, 41840.00
702.9990, 44816.00
704.1550, 47035.00
705.3100, 49275.00
706.4650, 51093.00
707.6190, 52281.00
708.7740, 52189.00
709.9290, 51050.00
711.0830, 48883.00
712.2370, 46260.00
713.3910, 42929.00
714.5450, 39942.00
715.6980, 37361.00
716.8520, 34943.00
718.0050, 32837.05
719.1580, 30929.00
720.3110, 29373.00
721.4640, 28223.00
722.6170, 27056.00
723.7700, 26429.00
724.9220, 25756.00
726.0740, 25033.00
727.2260, 24659.00
728.3780, 24254.00
729.5300, 23826.00
730.6810, 23562.00
731.8330, 23265.00
732.9840, 23067.00
734.1350, 22791.00
735.2860, 22752.00
736.4370, 22838.00
737.5880, 22681.00
738.7380, 22718.63
739.8880, 22648.00
741.0390, 22694.00
742.1890, 22658.00
743.3380, 22663.00
744.4880, 22569.00
745.6380, 22717.00
746.7870, 22733.00
747.9360, 22512.00
749.0850, 22697.00
750.2340, 22880.00
751.3830, 22744.00
752.5310, 22798.00
753.6800, 22676.00
754.8280, 22820.00
755.9760, 22954.00
757.1240, 22783.00
758.2720, 22470.00
759.4190, 22432.00
760.5670, 22326.00
761.7140, 22214.00
762.8610, 22088.00
764.0080, 22128.00
765.1550, 22150.00
766.3020, 22085.00
767.4480, 21997.00
768.5950, 21932.62
769.7410, 21912.16
770.8870, 21755.00
772.0330, 21869.00
773.1780, 21854.00
774.3240, 21786.00
775.4690, 22097.00
776.6140, 22129.00
777.7590, 22014.00
778.9040, 21957.00
780.0490, 21894.00
781.1940, 22195.00
782.3380, 22059.00
783.4820, 22173.00
784.6260, 22330.00
785.7700, 22161.00
786.9140, 22093.00
788.0580, 22096.00
789.2010, 22258.00
790.3450, 22273.00
791.4880, 22213.00
792.6310, 22115.00
793.7730, 21935.00
794.9160, 21926.00
796.0590, 21736.00
797.2010, 21706.00
798.3430, 21812.00
799.4850, 21651.00
800.6270, 21567.00
801.7690, 21635.00
802.9100, 21607.00
804.0520, 21531.00
805.1930, 21563.36
806.3340, 21351.00
807.4750, 21498.00
808.6160, 21463.00
809.7560, 21330.00
810.8970, 21422.00
812.0370, 21401.00
813.1770, 21540.00
814.3170, 21564.00
815.4570, 21513.60
816.5960, 21590.23
817.7360, 21355.00
818.8750, 21607.00
820.0140, 21487.00
821.1530, 21445.00
822.2920, 21556.00
823.4310, 21638.00
824.5690, 21577.00
825.7070, 21876.00
826.8460, 21645.00
827.9840, 21674.00
829.1220, 21675.00
830.2590, 21887.00
831.3970, 21836.00
832.5340, 21851.00
833.6710, 22005.00
834.8080, 22017.00
835.9450, 22046.00
837.0820, 22109.00
838.2190, 22165.00
839.3550, 22209.73
840.4910, 22271.15
841.6270, 22294.00
842.7630, 22352.00
843.8990, 22356.00
845.0350, 22327.00
846.1700, 22463.00
847.3060, 22529.00
848.4410, 22498.00
849.5760, 22598.00
850.7100, 22480.00
851.8450, 22677.00
852.9800, 22692.00
854.1140, 22490.00
855.2480, 22712.00
856.3820, 22728.00
857.5160, 22795.00
858.6500, 22916.00
859.7830, 22950.00
860.9170, 22982.00
862.0500, 23005.00
863.1830, 23006.39
864.3160, 22998.00
865.4480, 22960.00
866.5810, 23011.00
867.7130, 22921.00
868.8460, 23041.00
869.9780, 23001.00
871.1100, 22787.00
872.2410, 22899.00
873.3730, 23080.00
874.5050, 22793.00
875.6360, 22836.00
876.7670, 22785.00
877.8980, 22765.00
879.0290, 22828.37
880.1590, 22906.94
881.2900, 22907.00
882.4200, 23080.00
883.5500, 23049.00
884.6800, 22926.00
885.8100, 23131.00
886.9400, 22912.00
888.0690, 23114.00
889.1990, 23198.00
890.3280, 23155.00
891.4570, 23124.00
892.5860, 23384.00
893.7140, 23065.00
894.8430, 23189.00
895.9710, 23305.00
897.1000, 23085.00
898.2280, 23205.00
899.3560, 23168.00
900.4830, 23291.00
901.6110, 23437.00
902.7380, 23386.00
903.8660, 23327.00
904.9930, 23379.00
906.1200, 23557.00
907.2460, 23660.00
908.3730, 23528.00
909.5000, 23675.00
910.6260, 23546.00
911.7520, 23910.00
912.8780, 23515.00
914.0040, 23610.00
915.1290, 23826.00
916.2550, 23748.00
917.3800, 23857.00
918.5050, 23558.00
919.6300, 23803.00
920.7550, 23757.00
921.8800, 23603.00
923.0040, 23734.00
924.1290, 23689.00
925.2530, 23844.00
926.3770, 23691.00
927.5010, 23875.00
928.6250, 23730.00
929.7480, 23771.00
930.8720, 23821.00
931.9950, 23924.00
933.1180, 23905.34
934.2410, 23908.21
935.3640, 23881.00
936.4860, 23829.00
937.6090, 23781.00
938.7310, 23730.00
939.8530, 23820.00
940.9750, 23885.00
942.0970, 23839.00
943.2180, 23896.00
944.3400, 23777.00
945.4610, 23843.00
946.5820, 23924.00
947.7030, 24018.00
948.8240, 24005.00
949.9450, 23882.00
951.0650, 24077.00
952.1860, 23923.00
953.3060, 24163.00
954.4260, 24100.00
955.5460, 23990.00
956.6650, 24081.00
957.7850, 23921.00
958.9040, 23870.00
960.0230, 23994.00
961.1420, 23961.00
962.2610, 24013.00
963.3800, 24023.00
964.4990, 23888.00
965.6170, 23836.00
966.7350, 23683.00
967.8530, 23718.00
968.9710, 23776.00
970.0890, 23920.00
971.2070, 24140.00
972.3240, 23742.00
973.4410, 24035.00
974.5580, 24033.00
975.6750, 23827.00
976.7920, 23997.00
977.9090, 23733.00
979.0250, 23859.00
980.1410, 23994.00
981.2580, 23889.00
982.3740, 23929.00
983.4890, 24102.00
984.6050, 23992.00
985.7200, 23927.00
986.8360, 23856.00
987.9510, 24237.00
989.0660, 24115.00
990.1810, 24213.00
991.2950, 24160.00
992.4100, 24190.00
993.5240, 24083.00
994.6390, 24246.00
995.7530, 24208.00
996.8660, 24270.00
997.9800, 24427.00
999.0940, 24740.00
1000.207, 24902.00
1001.320, 25156.00
1002.433, 25194.29
1003.546, 25441.00
1004.659, 25173.00
1005.772, 24853.00
1006.884, 24742.00
1007.996, 24762.00
1009.108, 24737.00
1010.220, 24666.00
1011.332, 24655.00
1012.444, 24611.00
1013.555, 24916.00
1014.666, 24805.00
1015.777, 24905.00
1016.888, 24867.00
1017.999, 24948.00
1019.110, 25021.00
1020.220, 25226.00
1021.331, 25286.00
1022.441, 25268.00
1023.551, 25229.00
1024.661, 25227.00
1025.770, 25132.00
1026.880, 25118.00
1027.989, 25190.00
1029.098, 25051.00
1030.207, 25068.00
1031.316, 25047.25
1032.425, 25196.00
1033.533, 24912.00
1034.642, 25054.00
1035.750, 24789.00
1036.858, 24899.00
1037.966, 25056.00
1039.073, 24988.00
1040.181, 25099.00
1041.288, 25070.00
1042.396, 25063.00
1043.503, 24991.00
1044.610, 25027.00
1045.716, 25177.00
1046.823, 25169.00
1047.929, 25218.00
1049.036, 25251.00
1050.142, 25551.00
1051.248, 25278.00
1052.353, 25671.00
1053.459, 25545.00
1054.564, 25659.00
1055.670, 25879.00
1056.775, 25877.00
1057.880, 25986.00
1058.985, 26202.00
1060.089, 26062.00
1061.194, 26384.00
1062.298, 26470.00
1063.402, 26615.00
1064.506, 26736.00
1065.610, 27024.00
1066.713, 26891.00
1067.817, 26890.00
1068.920, 27121.00
1070.023, 27120.00
1071.126, 27267.00
1072.229, 27321.00
1073.332, 27332.00
1074.435, 27635.00
1075.537, 27747.00
1076.639, 27772.00
1077.741, 27982.00
1078.843, 28080.00
1079.945, 28124.00
1081.046, 28141.00
1082.148, 28218.76
1083.249, 28242.00
1084.350, 28333.00
1085.451, 28325.00
1086.551, 28390.00
1087.652, 28152.00
1088.752, 28338.00
1089.853, 28042.00
1090.953, 28182.00
1092.053, 27932.00
1093.152, 27862.00
1094.252, 28129.00
1095.351, 27844.00
1096.451, 27628.00
1097.550, 27849.00
1098.649, 27497.00
1099.748, 27807.00
1100.846, 27636.00
1101.945, 27688.00
1103.043, 27434.00
1104.141, 27612.00
1105.239, 27535.00
1106.337, 27405.00
1107.434, 27561.00
1108.532, 27491.00
1109.629, 27423.00
1110.726, 27384.00
1111.823, 27470.00
1112.920, 27439.00
1114.017, 27460.07
1115.113, 27504.00
1116.210, 27455.00
1117.306, 27425.00
1118.402, 27360.00
1119.498, 27436.00
1120.593, 27485.00
1121.689, 27456.00
1122.784, 27323.00
1123.879, 27286.00
1124.974, 27133.00
1126.069, 27036.00
1127.164, 27102.00
1128.259, 26881.00
1129.353, 26749.00
1130.447, 26732.00
1131.541, 26544.00
1132.635, 26624.00
1133.729, 26580.00
1134.822, 26598.00
1135.916, 26484.14
1137.009, 26377.97
1138.102, 26229.00
1139.195, 26120.00
1140.288, 26053.00
1141.380, 26021.00
1142.473, 25854.00
1143.565, 25887.00
1144.657, 25897.00
1145.749, 26056.00
1146.841, 25754.00
1147.932, 25742.00
1149.024, 25595.00
1150.115, 25726.00
1151.206, 25695.00
1152.297, 25697.69
1153.388, 25553.00
1154.479, 25688.00
1155.569, 25787.00
1156.659, 25686.00
1157.750, 25802.00
1158.839, 25769.60
1159.929, 25765.00
1161.019, 25785.00
1162.108, 25771.38
1163.198, 25789.20
1164.287, 25793.00
1165.376, 25814.00
1166.465, 25857.00
1167.553, 25868.00
1168.642, 25859.76
1169.730, 25951.00
1170.818, 25798.00
1171.906, 25871.00
1172.994, 25798.00
1174.082, 25999.00
1175.170, 25867.00
1176.257, 26046.00
1177.344, 25858.00
1178.431, 25833.00
1179.518, 25702.00
1180.605, 25958.00
1181.691, 25965.00
1182.778, 25946.00
1183.864, 25766.00
1184.950, 26048.00
1186.036, 25951.00
1187.122, 25867.00
1188.207, 26017.00
1189.292, 26084.00
1190.378, 25977.00
1191.463, 26184.00
1192.548, 25977.00
1193.632, 26029.00
1194.717, 26079.00
1195.801, 26106.00
1196.886, 26153.00
1197.970, 26315.00
1199.054, 25965.00
1200.137, 25977.00
1201.221, 26078.00
1202.305, 26191.00
1203.388, 26041.00
1204.471, 25986.00
1205.554, 26353.00
1206.637, 26234.00
1207.719, 26181.00
1208.802, 26246.00
1209.884, 26199.00
1210.966, 26240.00
1212.048, 26052.00
1213.130, 26241.00
1214.212, 26368.00
1215.293, 26272.00
1216.374, 26486.00
1217.456, 26221.00
1218.536, 26253.00
1219.617, 26527.00
1220.698, 26295.00
1221.778, 26529.00
1222.859, 26491.00
1223.939, 26117.00
1225.019, 26440.00
1226.099, 26499.00
1227.178, 26447.00
1228.258, 26588.00
1229.337, 26470.00
1230.417, 26684.00
1231.496, 26643.00
1232.574, 26682.00
1233.653, 26595.00
1234.732, 26614.00
1235.810, 26888.00
1236.888, 26985.00
1237.966, 26886.00
1239.044, 26781.00
1240.122, 26924.00
1241.199, 27104.00
1242.277, 26801.00
1243.354, 27147.00
1244.431, 26859.00
1245.508, 27003.00
1246.585, 27295.00
1247.661, 27088.00
1248.738, 27083.00
1249.814, 27145.00
1250.890, 27128.00
1251.966, 27296.00
1253.042, 27077.00
1254.117, 27174.00
1255.193, 27311.00
1256.268, 27204.00
1257.343, 27433.00
1258.418, 27375.00
1259.493, 27389.00
1260.567, 27173.00
1261.642, 27349.00
1262.716, 27438.00
1263.790, 27293.00
1264.864, 27499.00
1265.938, 27681.00
1267.011, 27435.00
1268.085, 27508.00
1269.158, 27753.00
1270.231, 27676.00
1271.304, 27708.00
1272.377, 27714.00
1273.450, 27798.00
1274.522, 27830.00
1275.594, 27882.00
1276.666, 27900.54
1277.738, 27907.00
1278.810, 27930.00
1279.882, 27935.00
1280.953, 27983.00
1282.025, 27851.00
1283.096, 27990.00
1284.167, 28132.00
1285.238, 28028.00
1286.308, 28170.00
1287.379, 28359.00
1288.449, 28243.00
1289.519, 28302.00
1290.589, 28653.00
1291.659, 28755.00
1292.729, 28870.00
1293.798, 28988.00
1294.868, 29102.92
1295.937, 29348.00
1297.006, 29363.00
1298.075, 29478.00
1299.143, 29649.00
1300.212, 29627.00
1301.280, 29773.00
1302.348, 29712.00
1303.416, 30058.00
1304.484, 29806.00
1305.552, 29820.00
1306.620, 30014.00
1307.687, 29725.00
1308.754, 29855.00
1309.821, 29727.00
1310.888, 29594.00
1311.955, 29452.00
1313.021, 29488.00
1314.088, 29314.00
1315.154, 29277.00
1316.220, 29065.00
1317.286, 29127.00
1318.352, 28977.00
