##NAMES=Trilithionite
##RRUFFID=R040105
##IDEAL CHEMISTRY=KLi_1.5_Al_1.5_(Si_3_Al)O_10_F_2_
##LOCALITY=Brown Derby mine, Ohio City, Gunnison County, Colorado, USA
##OWNER=RRUFF
##SOURCE=University of Arizona Mineral Museum
##DESCRIPTION=Purple hexagonal tablet
##STATUS=The identification of this mineral has been confirmed by X-ray diffraction and chemical analysis
##URL=rruff.info/R040105
##MEASURED CHEMISTRY=(K_0.82_Li_0.14_Na_0.04_)(Li_0.53_Al_0.42_Mn_0.05_)_3_(Si_0.84_Al_0.17_)_4_O_10_((OH)_0.59_F_0.41_)_2_
##PIN_ID=L00110
##ORIENTATION=Laser parallel to a* (1 0 0). Fiducial mark perpendicular to laser is parallel to b [0 1 0]
139.0430, 18611.00
140.2710, 18763.00
141.5000, 18697.00
142.7280, 18863.00
143.9560, 18766.00
145.1840, 18834.00
146.4120, 18927.00
147.6390, 18849.00
148.8670, 19065.00
150.0940, 19011.00
151.3210, 19086.00
152.5490, 19284.00
153.7750, 19267.00
155.0020, 19322.00
156.2290, 19406.00
157.4550, 19464.00
158.6810, 19560.15
159.9080, 19590.00
161.1340, 19742.00
162.3590, 19843.00
163.5850, 19905.00
164.8110, 20078.00
166.0360, 20280.00
167.2610, 20489.00
168.4860, 20452.00
169.7110, 20655.00
170.9360, 20785.00
172.1610, 21105.00
173.3850, 21326.00
174.6100, 21791.00
175.8340, 21814.00
177.0580, 22020.03
178.2820, 22079.00
179.5050, 22129.00
180.7290, 22197.00
181.9520, 22093.00
183.1760, 22379.00
184.3990, 22078.00
185.6220, 22163.00
186.8450, 21704.00
188.0670, 21833.00
189.2900, 21947.00
190.5120, 21850.00
191.7340, 21938.00
192.9560, 21686.00
194.1780, 21624.00
195.4000, 21698.00
196.6220, 21684.00
197.8430, 21506.00
199.0640, 21607.00
200.2860, 21606.00
201.5070, 21536.00
202.7270, 21610.00
203.9480, 21625.00
205.1690, 21483.00
206.3890, 21609.00
207.6090, 21398.00
208.8290, 21542.00
210.0490, 21404.00
211.2690, 21604.00
212.4890, 21690.00
213.7080, 21430.00
214.9280, 21660.00
216.1470, 21715.00
217.3660, 22005.00
218.5850, 21897.00
219.8030, 21863.00
221.0220, 21989.00
222.2400, 21983.00
223.4590, 22151.00
224.6770, 22192.00
225.8950, 22160.00
227.1120, 22340.00
228.3300, 22256.00
229.5480, 22624.00
230.7650, 22519.00
231.9820, 22758.00
233.1990, 22743.00
234.4160, 22833.00
235.6330, 22744.00
236.8490, 23053.00
238.0660, 23198.00
239.2820, 23137.00
240.4980, 23234.00
241.7140, 23427.00
242.9300, 23317.00
244.1460, 23541.00
245.3610, 23553.00
246.5770, 23533.00
247.7920, 23837.00
249.0070, 23721.00
250.2220, 24091.00
251.4370, 23929.00
252.6510, 24174.00
253.8660, 24153.00
255.0800, 24283.00
256.2940, 24433.00
257.5080, 24375.00
258.7220, 24429.00
259.9360, 24454.00
261.1490, 24580.00
262.3630, 24509.00
263.5760, 24382.00
264.7890, 24148.00
266.0020, 24242.00
267.2150, 24119.00
268.4270, 23902.00
269.6400, 23805.00
270.8520, 23557.00
272.0640, 23520.00
273.2760, 23495.00
274.4880, 23284.00
275.7000, 23263.00
276.9120, 23248.00
278.1230, 23189.00
279.3340, 23218.00
280.5450, 23026.00
281.7560, 23158.00
282.9670, 22963.00
284.1780, 22978.00
285.3880, 23076.00
286.5980, 22826.00
287.8090, 23050.00
289.0190, 23020.00
290.2290, 23022.00
291.4380, 22967.00
292.6480, 22969.00
293.8570, 22977.86
295.0670, 22976.41
296.2760, 23010.00
297.4850, 22990.00
298.6930, 22990.00
299.9020, 22940.00
301.1110, 22971.00
302.3190, 23001.00
303.5270, 23240.00
304.7350, 23299.00
305.9430, 23182.00
307.1510, 23436.00
308.3580, 23339.00
309.5660, 23089.00
310.7730, 23209.00
311.9800, 23087.00
313.1870, 23284.00
314.3940, 23337.00
315.6010, 23358.00
316.8070, 23383.00
318.0130, 23188.00
319.2200, 23308.00
320.4260, 23262.00
321.6310, 23442.00
322.8370, 23363.00
324.0430, 23610.00
325.2480, 23366.00
326.4540, 23570.00
327.6590, 23576.00
328.8640, 23471.00
330.0680, 23579.00
331.2730, 23713.00
332.4780, 23860.00
333.6820, 23638.00
334.8860, 23526.00
336.0900, 23787.00
337.2940, 23967.00
338.4980, 23797.00
339.7010, 23587.00
340.9050, 23802.00
342.1080, 23855.00
343.3110, 23769.00
344.5140, 23806.00
345.7170, 24089.00
346.9200, 23973.00
348.1220, 23965.00
349.3240, 23958.00
350.5270, 23823.00
351.7290, 23812.00
352.9310, 23995.00
354.1320, 23985.00
355.3340, 24001.00
356.5350, 24092.00
357.7370, 24177.00
358.9380, 24274.00
360.1390, 24348.00
361.3400, 24245.00
362.5400, 24316.00
363.7410, 24368.71
364.9410, 24319.00
366.1410, 24452.00
367.3410, 24462.00
368.5410, 24343.00
369.7410, 24534.00
370.9400, 24446.00
372.1400, 24404.00
373.3390, 24558.00
374.5380, 24579.00
375.7370, 24706.00
376.9360, 24877.00
378.1350, 24863.00
379.3330, 24856.00
380.5310, 24946.00
381.7300, 24833.00
382.9280, 24980.00
384.1260, 24894.00
385.3230, 25116.00
386.5210, 25023.00
387.7180, 25097.00
388.9160, 25272.00
390.1130, 25272.00
391.3100, 25292.00
392.5060, 25173.00
393.7030, 25256.00
394.9000, 25257.00
396.0960, 25459.00
397.2920, 25244.00
398.4880, 25546.00
399.6840, 25571.00
400.8800, 25447.00
402.0750, 25422.00
403.2710, 25758.00
404.4660, 25568.00
405.6610, 25896.00
406.8560, 25640.00
408.0510, 25679.00
409.2450, 25930.00
410.4400, 25786.00
411.6340, 25881.00
412.8280, 25770.00
414.0220, 25693.00
415.2160, 25790.00
416.4100, 25707.00
417.6030, 25650.00
418.7970, 25892.00
419.9900, 25759.00
421.1830, 25714.00
422.3760, 25763.00
423.5690, 26003.00
424.7610, 25927.00
425.9540, 25893.00
427.1460, 25737.00
428.3380, 25835.00
429.5300, 25825.00
430.7220, 26182.00
431.9140, 25887.00
433.1050, 26158.00
434.2970, 25886.00
435.4880, 25964.00
436.6790, 26036.00
437.8700, 26100.00
439.0610, 26154.08
440.2510, 26270.00
441.4420, 26255.00
442.6320, 26256.00
443.8220, 26318.00
445.0120, 26167.00
446.2020, 26135.00
447.3910, 26577.00
448.5810, 26456.00
449.7700, 26598.00
450.9600, 26354.00
452.1490, 26669.00
453.3370, 26426.00
454.5260, 26409.00
455.7150, 26687.00
456.9030, 26726.00
458.0910, 26642.00
459.2800, 26861.00
460.4670, 26801.00
461.6550, 26788.00
462.8430, 26848.00
464.0300, 26691.00
465.2180, 26967.00
466.4050, 27005.00
467.5920, 26989.00
468.7790, 27004.00
469.9650, 26910.00
471.1520, 26895.00
472.3380, 27099.00
473.5250, 27161.00
474.7110, 27335.00
475.8970, 27189.00
477.0820, 27155.00
478.2680, 27251.00
479.4540, 27312.00
480.6390, 27306.00
481.8240, 27331.39
483.0090, 27346.87
484.1940, 27341.78
485.3780, 27351.00
486.5630, 27325.00
487.7470, 27301.00
488.9320, 27264.00
490.1160, 27408.00
491.3000, 27142.00
492.4830, 27440.00
493.6670, 27397.00
494.8500, 27737.00
496.0340, 27516.00
497.2170, 27466.00
498.4000, 27490.00
499.5820, 27449.60
500.7650, 27610.00
501.9480, 27550.00
503.1300, 27612.00
504.3120, 27685.00
505.4940, 27560.00
506.6760, 27866.00
507.8580, 27796.00
509.0390, 27951.00
510.2210, 27871.00
511.4020, 27696.00
512.5830, 27995.00
513.7640, 28006.00
514.9450, 27960.00
516.1250, 28082.00
517.3060, 27984.00
518.4860, 28257.00
519.6660, 28236.00
520.8460, 28239.00
522.0260, 28083.00
523.2060, 28304.00
524.3850, 28041.00
525.5650, 28248.00
526.7440, 28344.00
527.9230, 28150.00
529.1020, 28313.00
530.2810, 28526.00
531.4590, 28422.00
532.6380, 28467.00
533.8160, 28560.00
534.9940, 28666.00
536.1720, 28584.00
537.3500, 28955.00
538.5270, 28577.00
539.7050, 28963.00
540.8820, 29144.00
542.0590, 28950.00
543.2360, 28969.00
544.4130, 29002.00
545.5900, 28968.00
546.7660, 29030.00
547.9430, 29112.00
549.1190, 29325.00
550.2950, 29321.55
551.4710, 29456.00
552.6470, 29401.00
553.8220, 29410.00
554.9980, 29442.00
556.1730, 29476.00
557.3480, 29512.00
558.5230, 29598.00
559.6980, 29724.00
560.8730, 29666.00
562.0470, 29813.00
563.2220, 29820.00
564.3960, 29686.00
565.5700, 29718.00
566.7440, 29870.00
567.9170, 29803.00
569.0910, 29858.00
570.2640, 29693.00
571.4380, 29742.00
572.6110, 29840.00
573.7840, 29889.00
574.9570, 29997.00
576.1290, 30003.23
577.3020, 30004.38
578.4740, 30047.00
579.6460, 29858.00
580.8180, 29930.00
581.9900, 29682.00
583.1620, 29796.00
584.3330, 29941.00
585.5040, 29793.00
586.6760, 29824.00
587.8470, 29873.00
589.0180, 29894.00
590.1880, 30071.00
591.3590, 30074.73
592.5290, 30305.00
593.7000, 30163.00
594.8700, 30092.00
596.0400, 30101.00
597.2090, 30220.00
598.3790, 30130.00
599.5490, 30215.00
600.7180, 30155.00
601.8870, 30165.25
603.0560, 30242.00
604.2250, 30246.00
605.3940, 30277.00
606.5620, 30469.00
607.7300, 30693.00
608.8990, 30680.00
610.0670, 30644.00
611.2350, 30592.00
612.4020, 30613.00
613.5700, 30584.86
614.7370, 30508.00
615.9050, 30624.00
617.0720, 30596.00
618.2390, 30712.00
619.4060, 30884.00
620.5720, 30671.00
621.7390, 30777.00
622.9050, 30837.00
624.0710, 31003.00
625.2370, 30694.00
626.4030, 30865.00
627.5690, 30803.00
628.7340, 31093.00
629.9000, 31069.00
631.0650, 30822.00
632.2300, 31249.00
633.3950, 31049.00
634.5600, 31230.00
635.7240, 31117.00
636.8890, 31060.00
638.0530, 31344.00
639.2170, 31348.00
640.3810, 31188.00
641.5450, 31487.00
642.7080, 31322.00
643.8720, 31615.00
645.0350, 31432.00
646.1980, 31309.00
647.3610, 31518.00
648.5240, 31631.00
649.6870, 31828.00
650.8490, 31793.00
652.0120, 31630.00
653.1740, 31740.00
654.3360, 31619.00
655.4980, 31624.25
656.6600, 31706.70
657.8210, 31699.00
658.9830, 31838.00
660.1440, 32058.00
661.3050, 32083.00
662.4660, 32175.00
663.6270, 32076.00
664.7870, 32169.00
665.9480, 32091.00
667.1080, 32172.00
668.2680, 32143.00
669.4280, 31934.00
670.5880, 32620.00
671.7480, 32458.00
672.9070, 32724.00
674.0670, 32645.00
675.2260, 32661.00
676.3850, 32625.00
677.5440, 32823.00
678.7030, 32721.00
679.8610, 32862.00
681.0200, 32979.00
682.1780, 32968.00
683.3360, 33131.00
684.4940, 33227.69
685.6520, 33266.00
686.8090, 33527.00
687.9670, 33647.00
689.1240, 33871.00
690.2810, 34027.52
691.4380, 34207.00
692.5950, 34346.00
693.7520, 34569.00
694.9080, 34762.44
696.0650, 35075.50
697.2210, 35414.00
698.3770, 35844.00
699.5330, 36397.00
700.6880, 36982.00
701.8440, 37346.00
702.9990, 37919.12
704.1550, 38459.00
705.3100, 38888.00
706.4650, 39216.00
707.6190, 39617.00
708.7740, 39586.00
709.9290, 39480.00
711.0830, 39313.00
712.2370, 38782.00
713.3910, 38208.00
714.5450, 37505.00
715.6980, 37368.00
716.8520, 36459.00
718.0050, 36192.00
719.1580, 35460.00
720.3110, 35330.00
721.4640, 35096.00
722.6170, 34846.00
723.7700, 34823.00
724.9220, 34748.00
726.0740, 34504.00
727.2260, 34493.71
728.3780, 34205.00
729.5300, 34314.00
730.6810, 34264.00
731.8330, 34143.00
732.9840, 34071.00
734.1350, 34171.00
735.2860, 34156.00
736.4370, 34439.00
737.5880, 34235.00
738.7380, 34281.00
739.8880, 33956.00
741.0390, 34017.00
742.1890, 34394.00
743.3380, 34352.00
744.4880, 34406.00
745.6380, 34157.00
746.7870, 34285.00
747.9360, 34495.00
749.0850, 34738.00
750.2340, 34486.00
751.3830, 34526.00
752.5310, 34283.00
753.6800, 34589.00
754.8280, 34356.00
755.9760, 34390.00
757.1240, 34339.00
758.2720, 34545.00
759.4190, 34463.00
760.5670, 34661.00
761.7140, 34591.00
762.8610, 34545.00
764.0080, 34644.00
765.1550, 34642.00
766.3020, 34654.00
767.4480, 34807.00
768.5950, 34662.00
769.7410, 34620.00
770.8870, 34856.00
772.0330, 35006.00
773.1780, 34766.00
774.3240, 34924.00
775.4690, 34814.00
776.6140, 34934.00
777.7590, 35037.00
778.9040, 34892.00
780.0490, 35039.59
781.1940, 35147.00
782.3380, 35172.00
783.4820, 35089.00
784.6260, 35188.00
785.7700, 35150.00
786.9140, 35172.00
788.0580, 35233.00
789.2010, 35372.00
790.3450, 35485.00
791.4880, 35217.00
792.6310, 35342.38
793.7730, 35285.00
794.9160, 35294.00
796.0590, 35326.00
797.2010, 35300.00
798.3430, 35396.00
799.4850, 35479.00
800.6270, 35444.00
801.7690, 35699.00
802.9100, 35557.00
804.0520, 35498.00
805.1930, 35724.00
806.3340, 35813.00
807.4750, 35843.00
808.6160, 35588.00
809.7560, 35541.00
810.8970, 35667.00
812.0370, 35913.00
813.1770, 35890.00
814.3170, 35968.00
815.4570, 35794.00
816.5960, 36137.00
817.7360, 35943.00
818.8750, 36013.00
820.0140, 36025.00
821.1530, 35852.00
822.2920, 35821.00
823.4310, 35980.00
824.5690, 36188.00
825.7070, 36256.00
826.8460, 36220.00
827.9840, 36065.00
829.1220, 36371.00
830.2590, 36443.00
831.3970, 36322.00
832.5340, 36410.00
833.6710, 36356.00
834.8080, 36327.00
835.9450, 36287.00
837.0820, 36501.00
838.2190, 36474.00
839.3550, 36569.00
840.4910, 36572.00
841.6270, 36420.00
842.7630, 36804.00
843.8990, 36791.00
845.0350, 36816.00
846.1700, 36651.00
847.3060, 36825.00
848.4410, 36881.00
849.5760, 37049.00
850.7100, 36990.00
851.8450, 36877.00
852.9800, 36758.00
854.1140, 37012.00
855.2480, 37168.00
856.3820, 37270.00
857.5160, 37071.00
858.6500, 37348.00
859.7830, 37108.00
860.9170, 37256.00
862.0500, 37290.00
863.1830, 37258.00
864.3160, 37253.00
865.4480, 37390.00
866.5810, 37393.00
867.7130, 37491.00
868.8460, 37390.00
869.9780, 37487.00
871.1100, 37340.00
872.2410, 37843.00
873.3730, 37516.00
874.5050, 37852.00
875.6360, 37808.00
876.7670, 37624.00
877.8980, 37568.00
879.0290, 37726.00
880.1590, 37549.00
881.2900, 37794.00
882.4200, 37796.00
883.5500, 37927.00
884.6800, 38003.00
885.8100, 37860.00
886.9400, 37828.00
888.0690, 37892.00
889.1990, 37803.00
890.3280, 37949.35
891.4570, 38151.00
892.5860, 38210.00
893.7140, 38290.00
894.8430, 38408.00
895.9710, 38556.00
897.1000, 38109.00
898.2280, 38375.00
899.3560, 38130.00
900.4830, 38288.00
901.6110, 38491.00
902.7380, 38500.00
903.8660, 38709.00
904.9930, 38468.00
906.1200, 38823.00
907.2460, 38682.00
908.3730, 38618.00
909.5000, 38632.00
910.6260, 38685.00
911.7520, 38736.00
912.8780, 38724.00
914.0040, 38751.00
915.1290, 38795.04
916.2550, 38930.00
917.3800, 38883.00
918.5050, 38923.00
919.6300, 38964.00
920.7550, 38930.67
921.8800, 39159.00
923.0040, 38963.00
924.1290, 39139.00
925.2530, 39297.00
926.3770, 39347.00
927.5010, 39071.00
928.6250, 39104.00
929.7480, 39299.00
930.8720, 39144.00
931.9950, 39220.00
933.1180, 39387.00
934.2410, 39596.00
935.3640, 39722.00
936.4860, 39450.00
937.6090, 39603.00
938.7310, 39726.00
939.8530, 39692.00
940.9750, 39779.00
942.0970, 39877.00
943.2180, 39733.00
944.3400, 39976.00
945.4610, 39649.00
946.5820, 39941.00
947.7030, 39786.00
948.8240, 40026.00
949.9450, 40027.00
951.0650, 39764.00
952.1860, 40173.00
953.3060, 40322.00
954.4260, 40029.00
955.5460, 40150.00
956.6650, 40187.00
957.7850, 40467.00
958.9040, 40234.00
960.0230, 40149.00
961.1420, 40265.00
962.2610, 40660.00
963.3800, 40411.00
964.4990, 40475.00
965.6170, 40590.00
966.7350, 40512.00
967.8530, 40307.00
968.9710, 40510.00
970.0890, 40418.00
971.2070, 40529.00
972.3240, 40737.00
973.4410, 40792.00
974.5580, 40972.00
975.6750, 40663.00
976.7920, 40761.00
977.9090, 40874.00
979.0250, 40916.00
980.1410, 41177.00
981.2580, 41419.00
982.3740, 41103.00
983.4890, 41264.00
984.6050, 41034.00
985.7200, 41274.00
986.8360, 41183.00
987.9510, 41229.00
989.0660, 41216.00
990.1810, 41237.00
991.2950, 41332.00
992.4100, 41417.00
993.5240, 41544.00
994.6390, 41505.00
995.7530, 41674.00
996.8660, 41563.00
997.9800, 41600.00
999.0940, 41564.00
1000.207, 41588.00
1001.320, 41661.28
1002.433, 41752.00
1003.546, 41828.00
1004.659, 41850.00
1005.772, 41921.00
1006.884, 41784.00
1007.996, 41850.00
1009.108, 42060.00
1010.220, 42001.00
1011.332, 42327.00
1012.444, 41901.00
1013.555, 42309.00
1014.666, 42096.00
1015.777, 42183.00
1016.888, 42174.00
1017.999, 42215.00
1019.110, 42545.00
1020.220, 42271.00
1021.331, 42183.00
1022.441, 42770.00
1023.551, 42760.00
1024.661, 42563.00
1025.770, 42840.00
1026.880, 42453.00
1027.989, 42827.00
1029.098, 42860.00
1030.207, 42753.00
1031.316, 42657.00
1032.425, 42627.00
1033.533, 42696.67
1034.642, 42800.00
1035.750, 42904.00
1036.858, 42868.00
1037.966, 42894.00
1039.073, 42957.00
1040.181, 42976.93
1041.288, 43019.00
1042.396, 43045.00
1043.503, 43057.00
1044.610, 43004.00
1045.716, 43253.00
1046.823, 43277.00
1047.929, 43482.00
1049.036, 43396.00
1050.142, 43574.00
1051.248, 43603.00
1052.353, 43767.00
1053.459, 43670.00
1054.564, 43713.00
1055.670, 43689.00
1056.775, 43772.00
1057.880, 44019.00
1058.985, 43947.00
1060.089, 43837.00
1061.194, 44131.00
1062.298, 43999.00
1063.402, 43930.00
1064.506, 44125.00
1065.610, 43853.00
1066.713, 44078.00
1067.817, 44297.00
1068.920, 44343.00
1070.023, 44346.00
1071.126, 44216.00
1072.229, 44305.00
1073.332, 44406.00
1074.435, 44390.00
1075.537, 44487.00
1076.639, 44491.00
1077.741, 44650.00
1078.843, 44927.00
1079.945, 44701.00
1081.046, 44696.00
1082.148, 44942.00
1083.249, 44737.00
1084.350, 45226.00
1085.451, 44834.00
1086.551, 44646.00
1087.652, 45029.00
1088.752, 45237.00
1089.853, 45206.00
1090.953, 45222.00
1092.053, 45323.01
1093.152, 45137.00
1094.252, 45396.00
1095.351, 45425.00
1096.451, 45378.00
1097.550, 45302.00
1098.649, 45450.00
1099.748, 45371.00
1100.846, 45504.00
1101.945, 45495.00
1103.043, 45669.00
1104.141, 45186.00
1105.239, 45676.00
1106.337, 45434.00
1107.434, 45926.00
1108.532, 46041.00
1109.629, 45842.00
1110.726, 45952.00
1111.823, 45994.00
1112.920, 46098.00
1114.017, 46071.00
1115.113, 46324.00
1116.210, 46159.00
1117.306, 46444.00
1118.402, 46238.00
1119.498, 46313.00
1120.593, 46425.00
1121.689, 46482.00
1122.784, 46519.00
1123.879, 46572.00
1124.974, 46605.00
1126.069, 46615.00
1127.164, 46614.00
1128.259, 46659.00
1129.353, 46733.00
1130.447, 46534.00
1131.541, 47067.00
1132.635, 47173.00
1133.729, 46689.00
1134.822, 47048.00
1135.916, 46842.00
1137.009, 46519.00
1138.102, 46745.00
1139.195, 46740.00
1140.288, 46444.00
1141.380, 46281.00
1142.473, 46530.00
1143.565, 46482.00
1144.657, 46577.00
1145.749, 46550.00
1146.841, 46794.00
1147.932, 46455.00
1149.024, 46454.00
1150.115, 46697.00
1151.206, 46287.00
1152.297, 46597.00
1153.388, 46564.00
1154.479, 46567.00
1155.569, 46539.00
1156.659, 46506.81
1157.750, 46538.63
1158.839, 46495.00
1159.929, 46561.00
1161.019, 46693.00
1162.108, 46643.00
1163.198, 47064.00
1164.287, 46940.00
1165.376, 47014.00
1166.465, 46816.00
1167.553, 46940.00
1168.642, 46832.00
1169.730, 47187.00
1170.818, 47041.00
1171.906, 47215.00
1172.994, 47210.00
1174.082, 47449.00
1175.170, 47230.00
1176.257, 47392.00
1177.344, 47406.00
1178.431, 47323.00
1179.518, 47367.58
1180.605, 47424.00
1181.691, 47351.00
1182.778, 47390.00
1183.864, 47510.00
1184.950, 47433.00
1186.036, 47714.00
1187.122, 47318.00
1188.207, 47642.00
1189.292, 47317.00
1190.378, 47754.00
1191.463, 47627.00
1192.548, 47823.00
1193.632, 47820.00
1194.717, 47914.00
1195.801, 48043.00
1196.886, 47942.00
1197.970, 48282.00
1199.054, 47662.00
1200.137, 47822.00
1201.221, 48083.00
1202.305, 48210.00
1203.388, 48314.00
1204.471, 48172.00
1205.554, 48223.00
1206.637, 48072.00
1207.719, 48240.00
1208.802, 48459.00
1209.884, 48463.00
1210.966, 48374.00
1212.048, 48622.00
1213.130, 48577.00
1214.212, 48491.00
1215.293, 48554.00
1216.374, 48536.76
1217.456, 48642.00
1218.536, 48644.00
1219.617, 48806.00
1220.698, 48959.00
1221.778, 48940.27
1222.859, 48849.00
1223.939, 48979.00
1225.019, 49142.00
1226.099, 49221.27
1227.178, 49030.00
1228.258, 49320.00
1229.337, 48981.00
1230.417, 49041.00
1231.496, 49144.00
1232.574, 49383.00
1233.653, 49343.56
1234.732, 49543.00
1235.810, 49301.00
1236.888, 49395.00
1237.966, 49259.00
1239.044, 49329.00
1240.122, 49363.00
1241.199, 49317.00
1242.277, 49191.00
1243.354, 49471.00
1244.431, 49536.00
1245.508, 49530.00
1246.585, 49790.00
1247.661, 49903.00
1248.738, 49492.00
1249.814, 49761.00
1250.890, 49498.00
1251.966, 49771.00
1253.042, 49886.00
1254.117, 49733.00
1255.193, 49576.00
1256.268, 49939.00
1257.343, 49802.00
1258.418, 49789.00
1259.493, 49818.00
1260.567, 49848.37
1261.642, 50061.00
1262.716, 50005.00
1263.790, 50294.00
1264.864, 50327.00
1265.938, 50156.00
1267.011, 50302.00
1268.085, 50331.00
1269.158, 50234.00
1270.231, 50341.00
1271.304, 50408.00
1272.377, 50275.00
1273.450, 50382.00
1274.522, 50194.00
1275.594, 50487.00
1276.666, 50460.00
1277.738, 50453.00
1278.810, 50863.00
1279.882, 50517.00
1280.953, 50725.00
1282.025, 50490.00
1283.096, 50629.00
1284.167, 50593.00
1285.238, 50901.00
1286.308, 50836.00
1287.379, 50895.00
1288.449, 50790.00
1289.519, 50768.00
1290.589, 50620.00
1291.659, 50861.00
1292.729, 51227.00
1293.798, 51082.00
1294.868, 51209.00
1295.937, 51195.00
1297.006, 51333.00
1298.075, 51350.00
1299.143, 51290.00
1300.212, 51398.00
1301.280, 51356.00
1302.348, 51473.00
1303.416, 51290.00
1304.484, 51410.00
1305.552, 51726.00
1306.620, 51520.00
1307.687, 51647.00
1308.754, 51731.00
