##NAMES=Trilithionite
##RRUFFID=R040105
##IDEAL CHEMISTRY=KLi_1.5_Al_1.5_(Si_3_Al)O_10_F_2_
##LOCALITY=Brown Derby mine, Ohio City, Gunnison County, Colorado, USA
##OWNER=RRUFF
##SOURCE=University of Arizona Mineral Museum
##DESCRIPTION=Purple hexagonal tablet
##STATUS=The identification of this mineral has been confirmed by X-ray diffraction and chemical analysis
##URL=rruff.info/R040105
##MEASURED CHEMISTRY=(K_0.82_Li_0.14_Na_0.04_)(Li_0.53_Al_0.42_Mn_0.05_)_3_(Si_0.84_Al_0.17_)_4_O_10_((OH)_0.59_F_0.41_)_2_
##PIN_ID=L01598
##ORIENTATION=Laser parallel to c* (0 0 1). Fiducial mark perpendicular to laser is parallel to -a [-1 0 0]
151.3210, 14439.00
152.5490, 14423.00
153.7750, 14390.00
155.0020, 14330.00
156.2290, 14345.00
157.4550, 14336.91
158.6810, 14357.00
159.9080, 14405.00
161.1340, 14398.00
162.3590, 14502.00
163.5850, 14479.00
164.8110, 14560.00
166.0360, 14718.00
167.2610, 14863.00
168.4860, 15007.59
169.7110, 15045.00
170.9360, 15346.00
172.1610, 15539.00
173.3850, 15734.00
174.6100, 15792.00
175.8340, 15963.00
177.0580, 16109.00
178.2820, 16481.00
179.5050, 16208.00
180.7290, 16412.00
181.9520, 16383.00
183.1760, 16277.00
184.3990, 16136.00
185.6220, 15982.00
186.8450, 15957.00
188.0670, 16457.00
189.2900, 16710.00
190.5120, 15597.00
191.7340, 16634.00
192.9560, 15839.28
194.1780, 15283.00
195.4000, 15132.00
196.6220, 15197.00
197.8430, 15143.00
199.0640, 15155.00
200.2860, 15199.00
201.5070, 15015.00
202.7270, 15168.00
203.9480, 15183.00
205.1690, 14925.00
206.3890, 14812.00
207.6090, 14585.00
208.8290, 14684.00
210.0490, 14658.00
211.2690, 14664.00
212.4890, 14786.00
213.7080, 14715.00
214.9280, 14964.00
216.1470, 14858.00
217.3660, 14814.00
218.5850, 14841.00
219.8030, 14964.00
221.0220, 15046.00
222.2400, 15163.00
223.4590, 15020.00
224.6770, 15175.00
225.8950, 15262.00
227.1120, 15223.00
228.3300, 15407.00
229.5480, 15643.00
230.7650, 15594.00
231.9820, 15871.00
233.1990, 16142.00
234.4160, 16352.00
235.6330, 16567.00
236.8490, 16710.00
238.0660, 16874.00
239.2820, 17013.00
240.4980, 17514.00
241.7140, 17810.00
242.9300, 17926.00
244.1460, 18311.00
245.3610, 18583.00
246.5770, 18909.00
247.7920, 19198.00
249.0070, 19729.00
250.2220, 19829.00
251.4370, 20346.00
252.6510, 20725.00
253.8660, 21008.00
255.0800, 21731.00
256.2940, 21963.00
257.5080, 22404.00
258.7220, 22941.00
259.9360, 23298.00
261.1490, 23496.00
262.3630, 23338.00
263.5760, 22799.00
264.7890, 22421.00
266.0020, 21765.00
267.2150, 21158.00
268.4270, 20422.00
269.6400, 19990.00
270.8520, 19285.00
272.0640, 18781.00
273.2760, 18173.00
274.4880, 17853.00
275.7000, 17462.00
276.9120, 17188.00
278.1230, 17042.00
279.3340, 16673.00
280.5450, 16503.00
281.7560, 16230.00
282.9670, 16138.00
284.1780, 16065.00
285.3880, 15732.00
286.5980, 15758.00
287.8090, 15704.00
289.0190, 15612.00
290.2290, 15439.00
291.4380, 15544.00
292.6480, 15367.00
293.8570, 15417.00
295.0670, 15370.00
296.2760, 15304.00
297.4850, 15174.00
298.6930, 15332.00
299.9020, 15512.00
301.1110, 15329.00
302.3190, 15193.00
303.5270, 15284.00
304.7350, 15478.00
305.9430, 15210.00
307.1510, 15123.00
308.3580, 15109.00
309.5660, 14915.00
310.7730, 14938.00
311.9800, 14877.00
313.1870, 14941.00
314.3940, 14956.00
315.6010, 15001.00
316.8070, 14890.00
318.0130, 14854.00
319.2200, 14732.00
320.4260, 14690.00
321.6310, 14649.00
322.8370, 14743.00
324.0430, 14688.00
325.2480, 14563.00
326.4540, 14498.00
327.6590, 14650.00
328.8640, 14411.00
330.0680, 14685.00
331.2730, 14457.00
332.4780, 14314.00
333.6820, 14271.00
334.8860, 14380.00
336.0900, 14410.00
337.2940, 14433.00
338.4980, 14148.00
339.7010, 14176.00
340.9050, 14241.00
342.1080, 14105.00
343.3110, 14151.00
344.5140, 14113.00
345.7170, 14282.00
346.9200, 14126.00
348.1220, 14234.00
349.3240, 14421.00
350.5270, 14149.00
351.7290, 14241.00
352.9310, 14320.00
354.1320, 14352.00
355.3340, 14433.00
356.5350, 14496.51
357.7370, 14450.00
358.9380, 14596.00
360.1390, 14653.00
361.3400, 14615.00
362.5400, 14731.00
363.7410, 14671.00
364.9410, 14747.00
366.1410, 14788.00
367.3410, 14823.00
368.5410, 14933.00
369.7410, 14915.00
370.9400, 15100.00
372.1400, 15181.00
373.3390, 15371.00
374.5380, 15448.00
375.7370, 15444.00
376.9360, 15443.00
378.1350, 15404.00
379.3330, 15467.14
380.5310, 15509.99
381.7300, 15581.00
382.9280, 15764.00
384.1260, 15826.00
385.3230, 16160.00
386.5210, 16014.00
387.7180, 16348.00
388.9160, 16495.00
390.1130, 16443.00
391.3100, 16657.00
392.5060, 16777.00
393.7030, 17113.00
394.9000, 16960.00
396.0960, 17336.00
397.2920, 17315.00
398.4880, 17490.00
399.6840, 17552.00
400.8800, 17660.00
402.0750, 17763.00
403.2710, 17805.00
404.4660, 17950.00
405.6610, 17684.00
406.8560, 17903.00
408.0510, 17731.00
409.2450, 17614.00
410.4400, 17658.00
411.6340, 17394.00
412.8280, 17183.00
414.0220, 17114.00
415.2160, 16880.00
416.4100, 16699.00
417.6030, 16563.00
418.7970, 16551.00
419.9900, 16413.00
421.1830, 16201.00
422.3760, 16367.00
423.5690, 16124.00
424.7610, 16085.00
425.9540, 16120.00
427.1460, 15976.00
428.3380, 16003.00
429.5300, 16073.00
430.7220, 16116.00
431.9140, 16149.61
433.1050, 16101.00
434.2970, 16172.00
435.4880, 16320.00
436.6790, 16246.00
437.8700, 16103.00
439.0610, 16278.00
440.2510, 16101.00
441.4420, 16278.00
442.6320, 16136.00
443.8220, 16023.00
445.0120, 15921.00
446.2020, 16149.00
447.3910, 16118.00
448.5810, 16006.00
449.7700, 16248.00
450.9600, 16028.00
452.1490, 16077.00
453.3370, 16095.00
454.5260, 16071.00
455.7150, 16125.00
456.9030, 16044.00
458.0910, 16165.00
459.2800, 16275.00
460.4670, 16111.00
461.6550, 16155.00
462.8430, 16282.00
464.0300, 16127.00
465.2180, 16168.00
466.4050, 16367.00
467.5920, 16291.00
468.7790, 16504.00
469.9650, 16501.00
471.1520, 16635.00
472.3380, 16573.00
473.5250, 16685.00
474.7110, 16739.00
475.8970, 16799.00
477.0820, 16752.00
478.2680, 16628.00
479.4540, 16612.81
480.6390, 16549.00
481.8240, 16428.00
483.0090, 16372.00
484.1940, 16208.00
485.3780, 16153.00
486.5630, 15980.00
487.7470, 15960.00
488.9320, 16003.00
490.1160, 15781.00
491.3000, 15745.00
492.4830, 15671.00
493.6670, 15477.00
494.8500, 15446.00
496.0340, 15395.10
497.2170, 15327.07
498.4000, 15424.00
499.5820, 15320.00
500.7650, 15442.00
501.9480, 15546.00
503.1300, 15411.00
504.3120, 15419.00
505.4940, 15483.00
506.6760, 15343.00
507.8580, 15583.00
509.0390, 15501.00
510.2210, 15517.00
511.4020, 15600.00
512.5830, 15453.00
513.7640, 15650.00
514.9450, 15505.00
516.1250, 15581.00
517.3060, 15665.00
518.4860, 15620.00
519.6660, 15567.00
520.8460, 15896.00
522.0260, 15866.00
523.2060, 15963.00
524.3850, 15862.00
525.5650, 15817.00
526.7440, 16053.00
527.9230, 16298.00
529.1020, 15933.00
530.2810, 16341.00
531.4590, 16190.00
532.6380, 16261.00
533.8160, 16427.00
534.9940, 16408.00
536.1720, 16641.00
537.3500, 16703.00
538.5270, 16770.00
539.7050, 16679.00
540.8820, 16934.00
542.0590, 17057.00
543.2360, 17040.00
544.4130, 17290.00
545.5900, 17382.00
546.7660, 17406.00
547.9430, 17463.00
549.1190, 17588.65
550.2950, 17710.10
551.4710, 17877.00
552.6470, 18039.00
553.8220, 18255.00
554.9980, 18417.00
556.1730, 18485.00
557.3480, 18480.00
558.5230, 18746.00
559.6980, 18904.00
560.8730, 18816.00
562.0470, 18975.00
563.2220, 18900.00
564.3960, 19044.00
565.5700, 18831.00
566.7440, 18911.00
567.9170, 18610.00
569.0910, 18389.00
570.2640, 18329.00
571.4380, 18033.00
572.6110, 17910.00
573.7840, 17685.00
574.9570, 17542.00
576.1290, 17447.00
577.3020, 17372.00
578.4740, 17168.00
579.6460, 17108.00
580.8180, 16908.00
581.9900, 16874.00
583.1620, 16923.00
584.3330, 16892.00
585.5040, 16783.00
586.6760, 16727.00
587.8470, 16732.00
589.0180, 16634.00
590.1880, 16794.00
591.3590, 16783.00
592.5290, 16761.00
593.7000, 16808.00
594.8700, 16797.87
596.0400, 16880.00
597.2090, 16841.00
598.3790, 16914.68
599.5490, 16977.00
600.7180, 16982.00
601.8870, 17018.00
603.0560, 17045.00
604.2250, 17088.00
605.3940, 17326.00
606.5620, 17173.00
607.7300, 17228.00
608.8990, 17428.00
610.0670, 17341.00
611.2350, 17381.00
612.4020, 17188.00
613.5700, 17292.00
614.7370, 17498.00
615.9050, 17467.00
617.0720, 17543.95
618.2390, 17383.00
619.4060, 17565.00
620.5720, 17442.00
621.7390, 17457.00
622.9050, 17458.00
624.0710, 17552.00
625.2370, 17445.00
626.4030, 17470.00
627.5690, 17402.00
628.7340, 17523.00
629.9000, 17104.00
631.0650, 17231.00
632.2300, 17074.00
633.3950, 17214.00
634.5600, 17002.00
635.7240, 16994.00
636.8890, 16873.00
638.0530, 16746.00
639.2170, 16976.00
640.3810, 16915.00
641.5450, 17108.00
642.7080, 17022.00
643.8720, 17040.00
645.0350, 17064.00
646.1980, 17266.00
647.3610, 17111.00
648.5240, 17218.00
649.6870, 17249.00
650.8490, 17173.00
652.0120, 17238.92
653.1740, 17248.00
654.3360, 17304.00
655.4980, 17301.00
656.6600, 17449.00
657.8210, 17436.00
658.9830, 17468.00
660.1440, 17476.00
661.3050, 17512.00
662.4660, 17512.47
663.6270, 17562.29
664.7870, 17572.00
665.9480, 17679.00
667.1080, 17837.00
668.2680, 17950.00
669.4280, 18033.21
670.5880, 17912.00
671.7480, 18249.00
672.9070, 18316.00
674.0670, 18568.00
675.2260, 18841.00
676.3850, 18804.00
677.5440, 19100.00
678.7030, 19259.00
679.8610, 19419.00
681.0200, 19632.00
682.1780, 20054.00
683.3360, 20570.00
684.4940, 21032.00
685.6520, 21446.00
686.8090, 21928.00
687.9670, 22462.00
689.1240, 23220.00
690.2810, 23956.00
691.4380, 24796.99
692.5950, 25426.00
693.7520, 26774.00
694.9080, 28079.00
696.0650, 29402.00
697.2210, 31200.00
698.3770, 32903.00
699.5330, 35128.00
700.6880, 37576.00
701.8440, 40013.00
702.9990, 42574.00
704.1550, 45314.00
705.3100, 47419.00
706.4650, 49589.00
707.6190, 50283.00
708.7740, 50114.00
709.9290, 49073.00
711.0830, 46685.00
712.2370, 43464.00
713.3910, 40384.00
714.5450, 37257.00
715.6980, 34090.00
716.8520, 31640.00
718.0050, 29606.00
719.1580, 27562.00
720.3110, 25995.00
721.4640, 24951.00
722.6170, 23840.00
723.7700, 22953.00
724.9220, 22059.00
726.0740, 21524.00
727.2260, 21035.00
728.3780, 20703.00
729.5300, 20375.00
730.6810, 20083.00
731.8330, 19598.00
732.9840, 19517.00
734.1350, 19144.00
735.2860, 19076.00
736.4370, 19047.00
737.5880, 18812.00
738.7380, 18707.00
739.8880, 18769.00
741.0390, 18731.00
742.1890, 18866.00
743.3380, 18701.00
744.4880, 18737.00
745.6380, 18685.00
746.7870, 18809.00
747.9360, 18760.00
749.0850, 18610.00
750.2340, 18823.00
751.3830, 18763.00
752.5310, 18675.00
753.6800, 18637.00
754.8280, 18412.00
755.9760, 18622.00
757.1240, 18199.00
758.2720, 18265.00
759.4190, 18239.00
760.5670, 18081.00
761.7140, 18098.00
762.8610, 18028.00
764.0080, 17869.00
765.1550, 17961.00
766.3020, 17702.00
767.4480, 17573.00
768.5950, 17770.00
769.7410, 17674.00
770.8870, 17507.00
772.0330, 17617.00
773.1780, 17739.00
774.3240, 17668.00
775.4690, 17635.00
776.6140, 17597.00
777.7590, 17728.00
778.9040, 17586.00
780.0490, 17879.00
781.1940, 17772.00
782.3380, 17786.00
783.4820, 17560.00
784.6260, 17938.00
785.7700, 17513.00
786.9140, 17733.00
788.0580, 17515.00
789.2010, 17700.00
790.3450, 17645.00
791.4880, 17754.00
792.6310, 17466.00
793.7730, 17583.00
794.9160, 17445.00
796.0590, 17567.00
797.2010, 17433.00
798.3430, 17386.00
799.4850, 17492.00
800.6270, 17420.00
801.7690, 17446.00
802.9100, 17192.00
804.0520, 17478.00
805.1930, 17171.00
806.3340, 17414.00
807.4750, 17182.00
808.6160, 17478.00
809.7560, 17253.00
810.8970, 17205.00
812.0370, 17384.00
813.1770, 17186.00
814.3170, 17331.00
815.4570, 17311.00
816.5960, 17249.00
817.7360, 17404.00
818.8750, 17336.00
820.0140, 17477.00
821.1530, 17409.00
822.2920, 17538.00
823.4310, 17554.00
824.5690, 17711.00
825.7070, 17441.00
826.8460, 17437.00
827.9840, 17604.00
829.1220, 17734.00
830.2590, 17509.00
831.3970, 17727.00
832.5340, 17695.00
833.6710, 17796.00
834.8080, 17803.00
835.9450, 17863.00
837.0820, 17819.00
838.2190, 17888.62
839.3550, 18034.00
840.4910, 17973.00
841.6270, 18110.00
842.7630, 18126.00
843.8990, 18186.00
845.0350, 18192.00
846.1700, 18316.00
847.3060, 18198.00
848.4410, 18212.00
849.5760, 18458.00
850.7100, 18304.00
851.8450, 18224.00
852.9800, 18348.00
854.1140, 18272.00
855.2480, 18210.00
856.3820, 18315.00
857.5160, 18434.00
858.6500, 18264.00
859.7830, 18749.00
860.9170, 18677.00
862.0500, 18676.00
863.1830, 18698.00
864.3160, 18577.00
865.4480, 18542.00
866.5810, 18478.00
867.7130, 18570.00
868.8460, 18509.00
869.9780, 18600.00
871.1100, 18593.00
872.2410, 18394.00
873.3730, 18369.00
874.5050, 18357.00
875.6360, 18593.00
876.7670, 18346.00
877.8980, 18569.00
879.0290, 18708.00
880.1590, 18408.00
881.2900, 18311.00
882.4200, 18594.00
883.5500, 18380.00
884.6800, 18537.00
885.8100, 18443.00
886.9400, 18522.00
888.0690, 18665.00
889.1990, 18464.00
890.3280, 18728.00
891.4570, 18810.00
892.5860, 18714.00
893.7140, 18768.00
894.8430, 18757.91
895.9710, 18605.00
897.1000, 18786.00
898.2280, 18745.00
899.3560, 18829.00
900.4830, 18742.00
901.6110, 18824.00
902.7380, 18767.00
903.8660, 18789.00
904.9930, 18754.00
906.1200, 18933.00
907.2460, 18942.00
908.3730, 18829.00
909.5000, 18896.00
910.6260, 18805.00
911.7520, 18958.00
912.8780, 19030.00
914.0040, 18861.00
915.1290, 18984.00
916.2550, 18919.00
917.3800, 18909.00
918.5050, 18924.00
919.6300, 18803.00
920.7550, 19097.00
921.8800, 18963.00
923.0040, 19076.00
924.1290, 18745.00
925.2530, 18873.00
926.3770, 18838.00
927.5010, 18958.00
928.6250, 19017.00
929.7480, 18853.00
930.8720, 19101.00
931.9950, 19157.00
933.1180, 18919.00
934.2410, 18961.00
935.3640, 18810.00
936.4860, 19002.00
937.6090, 18711.00
938.7310, 19008.00
939.8530, 18719.00
940.9750, 18818.00
942.0970, 19012.00
943.2180, 18822.00
944.3400, 18915.00
945.4610, 18823.00
946.5820, 18960.00
947.7030, 18926.00
948.8240, 18696.00
949.9450, 18790.00
951.0650, 18919.00
952.1860, 18967.00
953.3060, 19045.00
954.4260, 19016.00
955.5460, 19218.00
956.6650, 18988.00
957.7850, 19003.00
958.9040, 18781.00
960.0230, 18918.00
961.1420, 18951.00
962.2610, 18981.00
963.3800, 18633.00
964.4990, 18803.00
965.6170, 18674.00
966.7350, 18793.00
967.8530, 18662.00
968.9710, 18882.00
970.0890, 18795.00
971.2070, 18825.00
972.3240, 18823.00
973.4410, 18786.24
974.5580, 18741.00
975.6750, 18752.00
976.7920, 18843.00
977.9090, 18839.00
979.0250, 18839.00
980.1410, 18785.00
981.2580, 18881.00
982.3740, 18896.00
983.4890, 19008.00
984.6050, 19040.20
985.7200, 18939.00
986.8360, 19150.00
987.9510, 18996.00
989.0660, 19084.00
990.1810, 19018.00
991.2950, 19188.00
992.4100, 19022.00
993.5240, 18966.00
994.6390, 19004.00
995.7530, 19173.00
996.8660, 19220.00
997.9800, 19347.00
999.0940, 19352.00
1000.207, 19468.00
1001.320, 19903.00
1002.433, 20233.00
1003.546, 20396.00
1004.659, 20031.00
1005.772, 19561.00
1006.884, 19408.00
1007.996, 19435.00
1009.108, 19448.00
1010.220, 19393.00
1011.332, 19570.00
1012.444, 19525.63
1013.555, 19439.00
1014.666, 19558.00
1015.777, 19730.00
1016.888, 19741.95
1017.999, 19614.00
1019.110, 19762.00
1020.220, 19629.00
1021.331, 19691.00
1022.441, 19716.00
1023.551, 19820.00
1024.661, 19908.00
1025.770, 19904.88
1026.880, 19849.00
1027.989, 19891.00
1029.098, 19832.00
1030.207, 19774.00
1031.316, 19793.00
1032.425, 19507.00
1033.533, 19745.00
1034.642, 19496.00
1035.750, 19816.00
1036.858, 19650.00
1037.966, 19682.00
1039.073, 19701.00
1040.181, 19801.00
1041.288, 19799.38
1042.396, 19843.00
1043.503, 19878.00
1044.610, 19782.00
1045.716, 19888.00
1046.823, 19803.00
1047.929, 19931.00
1049.036, 19906.00
1050.142, 19888.00
1051.248, 20064.00
1052.353, 20253.00
1053.459, 20190.00
1054.564, 20330.87
1055.670, 20351.00
1056.775, 20439.00
1057.880, 20578.00
1058.985, 20675.00
1060.089, 20621.00
1061.194, 20537.00
1062.298, 21097.00
1063.402, 20990.00
1064.506, 21142.00
1065.610, 21022.00
1066.713, 21061.00
1067.817, 21145.00
1068.920, 21202.00
1070.023, 21205.00
1071.126, 21296.00
1072.229, 21393.00
1073.332, 21458.00
1074.435, 21577.00
1075.537, 21759.00
1076.639, 21988.00
1077.741, 21826.00
1078.843, 21871.00
1079.945, 22076.00
1081.046, 22304.00
1082.148, 22201.00
1083.249, 22355.00
1084.350, 22371.00
1085.451, 22361.00
1086.551, 22187.00
1087.652, 22137.00
1088.752, 22288.00
1089.853, 22276.00
1090.953, 22295.00
1092.053, 22292.00
1093.152, 22098.00
1094.252, 22057.00
1095.351, 22145.00
1096.451, 21718.00
1097.550, 21689.00
1098.649, 21802.00
1099.748, 21878.00
1100.846, 21850.00
1101.945, 21890.11
1103.043, 21730.00
1104.141, 21856.00
1105.239, 21803.00
1106.337, 21775.00
1107.434, 21819.00
1108.532, 21871.00
1109.629, 21671.00
1110.726, 21849.00
1111.823, 21927.00
1112.920, 21824.00
1114.017, 21706.00
1115.113, 21888.00
1116.210, 21716.00
1117.306, 21864.00
1118.402, 21792.00
1119.498, 21616.00
1120.593, 21838.00
1121.689, 21628.00
1122.784, 21822.00
1123.879, 21575.00
1124.974, 21550.00
1126.069, 21600.00
1127.164, 21429.00
1128.259, 21468.00
1129.353, 21222.00
1130.447, 21040.00
1131.541, 21127.00
1132.635, 20874.00
1133.729, 20828.00
1134.822, 20793.00
1135.916, 20908.00
1137.009, 20700.00
1138.102, 20635.00
1139.195, 20608.00
1140.288, 20369.00
1141.380, 20421.00
1142.473, 20230.00
1143.565, 20406.00
1144.657, 20285.00
1145.749, 20228.00
1146.841, 20362.00
1147.932, 20194.00
1149.024, 20230.76
1150.115, 19936.00
1151.206, 20231.00
1152.297, 20067.00
1153.388, 20157.00
1154.479, 20185.00
1155.569, 20060.00
1156.659, 20162.00
1157.750, 19960.00
1158.839, 20033.00
1159.929, 20041.00
1161.019, 20122.00
1162.108, 20158.13
1163.198, 20012.00
1164.287, 20206.00
1165.376, 20115.00
1166.465, 20037.00
1167.553, 20074.00
1168.642, 20043.00
1169.730, 20007.00
1170.818, 20066.00
1171.906, 20089.00
1172.994, 20140.00
1174.082, 20108.00
1175.170, 20159.18
1176.257, 20147.00
1177.344, 20172.00
1178.431, 20224.00
1179.518, 20132.00
1180.605, 20217.00
1181.691, 20229.00
1182.778, 20265.00
1183.864, 20134.00
1184.950, 20165.00
1186.036, 20316.00
1187.122, 20130.00
1188.207, 20081.00
1189.292, 20360.00
1190.378, 20311.00
1191.463, 20116.00
1192.548, 20104.00
1193.632, 20238.00
1194.717, 20155.00
1195.801, 20216.00
1196.886, 20422.00
1197.970, 20299.00
1199.054, 20425.00
1200.137, 20272.00
1201.221, 20211.00
1202.305, 20487.00
1203.388, 20229.00
1204.471, 20296.00
1205.554, 20375.00
1206.637, 20398.00
1207.719, 20429.00
1208.802, 20439.00
1209.884, 20411.00
1210.966, 20359.00
1212.048, 20297.00
1213.130, 20305.00
1214.212, 20348.00
1215.293, 20582.00
1216.374, 20561.00
1217.456, 20559.00
1218.536, 20421.00
1219.617, 20619.00
1220.698, 20589.00
1221.778, 20623.00
1222.859, 20744.00
1223.939, 20385.00
1225.019, 20357.00
1226.099, 20447.00
1227.178, 20507.00
1228.258, 20635.00
1229.337, 20566.00
1230.417, 20509.00
1231.496, 20758.00
1232.574, 20597.00
1233.653, 20892.00
1234.732, 20802.00
1235.810, 20801.00
1236.888, 20756.00
1237.966, 20777.00
1239.044, 20667.00
1240.122, 20862.00
1241.199, 20784.00
1242.277, 20747.00
1243.354, 20670.00
1244.431, 20928.00
1245.508, 21012.00
1246.585, 20949.00
1247.661, 21054.96
1248.738, 21123.00
1249.814, 21041.00
1250.890, 20993.00
1251.966, 20968.00
1253.042, 21180.00
1254.117, 20944.00
1255.193, 21081.00
1256.268, 20932.00
1257.343, 20954.00
1258.418, 21173.00
1259.493, 20933.00
1260.567, 21253.00
1261.642, 21117.00
1262.716, 21307.00
1263.790, 21337.00
1264.864, 21231.00
1265.938, 21243.00
1267.011, 21426.00
1268.085, 21350.00
1269.158, 21362.00
1270.231, 21315.00
1271.304, 21369.00
1272.377, 21467.00
1273.450, 21466.00
1274.522, 21391.00
1275.594, 21600.00
1276.666, 21421.00
1277.738, 21656.00
1278.810, 21458.00
1279.882, 21426.00
1280.953, 21656.00
1282.025, 21521.00
1283.096, 21860.00
1284.167, 21613.00
1285.238, 21624.00
1286.308, 21811.00
1287.379, 21543.00
1288.449, 21956.00
1289.519, 21922.00
1290.589, 21842.00
1291.659, 21957.00
1292.729, 22113.00
1293.798, 22190.00
1294.868, 22309.00
1295.937, 22395.18
1297.006, 22500.00
1298.075, 22605.00
1299.143, 22630.00
1300.212, 22852.00
1301.280, 22750.00
1302.348, 22813.00
1303.416, 23088.00
1304.484, 22969.00
1305.552, 22777.00
1306.620, 22785.00
1307.687, 22700.00
1308.754, 22802.00
1309.821, 22878.00
1310.888, 22627.00
1311.955, 22599.00
1313.021, 22682.00
1314.088, 22505.00
1315.154, 22313.00
1316.220, 22263.00
1317.286, 22204.45
1318.352, 22320.00
