##NAMES=Trilithionite
##RRUFFID=R040101
##IDEAL CHEMISTRY=KLi_1.5_Al_1.5_(Si_3_Al)O_10_F_2_
##LOCALITY=Zambezi Region, Mozambique
##OWNER=RRUFF
##SOURCE=University of Arizona Mineral Museum
##DESCRIPTION=Aggregate of purple hexagonal plates, polytype is 2M1
##STATUS=The identification of this mineral has been confirmed by X-ray diffraction and chemical analysis
##URL=rruff.info/R040101
##MEASURED CHEMISTRY=(K_0.84_Li_0.13_Na_0.02_)(Li_0.54_Al_0.44_Mn_0.02_)_3_(Si_0.82_Al_0.18_)_4_O_10_F_2.00_
##PIN_ID=L00071
##ORIENTATION=Laser parallel to c* (0 0 1). Fiducial mark perpendicular to laser is parallel to a [1 0 0]
142.3920, 53326.00
143.6190, 53835.00
144.8460, 53506.00
146.0720, 54217.00
147.2980, 53992.00
148.5250, 54627.00
149.7510, 54668.00
150.9770, 54620.00
152.2020, 54688.00
153.4280, 55126.00
154.6530, 55493.00
155.8790, 55800.00
157.1040, 55737.00
158.3290, 56227.00
159.5540, 56377.00
160.7780, 56830.00
162.0030, 56767.00
163.2270, 57186.00
164.4520, 57482.82
165.6760, 58092.00
166.9000, 58362.00
168.1240, 58940.00
169.3470, 59788.00
170.5710, 60545.00
171.7940, 61195.00
173.0180, 61706.00
174.2410, 62583.00
175.4640, 63287.00
176.6870, 64546.00
177.9090, 64761.00
179.1320, 65462.00
180.3540, 65712.00
181.5760, 66784.00
182.7990, 66662.00
184.0210, 67302.00
185.2420, 67282.00
186.4640, 67135.00
187.6860, 68054.00
188.9070, 68393.00
190.1280, 68926.00
191.3490, 69631.00
192.5700, 71210.00
193.7910, 71864.00
195.0120, 73386.00
196.2320, 74933.00
197.4520, 75825.00
198.6730, 77025.00
199.8930, 77697.00
201.1130, 77460.00
202.3320, 76966.00
203.5520, 76606.00
204.7720, 75295.00
205.9910, 74464.00
207.2100, 73584.00
208.4290, 73032.95
209.6480, 72598.00
210.8670, 72605.00
212.0850, 72644.00
213.3040, 73149.00
214.5220, 73212.00
215.7400, 72799.00
216.9580, 72769.00
218.1760, 71842.00
219.3940, 70263.00
220.6110, 69385.00
221.8290, 68026.00
223.0460, 66499.00
224.2630, 65828.00
225.4800, 64608.00
226.6970, 64338.00
227.9140, 63711.00
229.1300, 63597.00
230.3470, 63042.00
231.5630, 62850.00
232.7790, 62885.00
233.9950, 62908.00
235.2110, 62804.00
236.4260, 63232.00
237.6420, 63730.00
238.8570, 63990.00
240.0730, 64757.00
241.2880, 65489.00
242.5030, 66126.00
243.7170, 67294.00
244.9320, 68404.00
246.1460, 69890.00
247.3610, 71345.00
248.5750, 73105.00
249.7890, 75452.00
251.0030, 78680.00
252.2170, 82092.00
253.4300, 86636.00
254.6440, 91749.00
255.8570, 97521.00
257.0700, 104470.0
258.2830, 112021.0
259.4960, 119452.0
260.7090, 127192.0
261.9210, 133244.0
263.1330, 138297.0
264.3460, 141501.0
265.5580, 141337.0
266.7700, 137363.0
267.9820, 132185.0
269.1930, 125097.0
270.4050, 117250.0
271.6160, 109532.0
272.8270, 102273.0
274.0380, 96465.00
275.2490, 91168.00
276.4600, 86963.00
277.6710, 83508.00
278.8810, 80302.00
280.0920, 78079.00
281.3020, 76225.00
282.5120, 74632.00
283.7220, 73117.00
284.9310, 72111.00
286.1410, 71631.00
287.3500, 70862.00
288.5600, 70383.00
289.7690, 69704.00
290.9780, 69257.00
292.1870, 68656.00
293.3950, 68427.00
294.6040, 68703.00
295.8120, 68424.00
297.0200, 68327.00
298.2280, 68195.00
299.4360, 67931.00
300.6440, 68033.00
301.8520, 68007.00
303.0590, 68335.00
304.2670, 68392.00
305.4740, 68642.00
306.6810, 68234.00
307.8880, 68247.00
309.0950, 67985.00
310.3010, 68068.00
311.5080, 68174.00
312.7140, 68427.00
313.9200, 68424.00
315.1260, 68173.00
316.3320, 68251.00
317.5380, 68520.00
318.7430, 68294.00
319.9480, 68756.00
321.1540, 68534.00
322.3590, 68990.00
323.5640, 68596.00
324.7680, 68665.00
325.9730, 68816.00
327.1780, 68649.00
328.3820, 68594.00
329.5860, 68332.00
330.7900, 68737.00
331.9940, 68305.75
333.1980, 68712.00
334.4010, 67872.00
335.6050, 68032.00
336.8080, 68100.00
338.0110, 67771.00
339.2140, 67891.00
340.4170, 67473.00
341.6200, 67777.00
342.8220, 67840.00
344.0250, 67741.00
345.2270, 67992.00
346.4290, 67758.00
347.6310, 67818.00
348.8330, 68088.00
350.0340, 68473.00
351.2360, 68349.00
352.4370, 68533.00
353.6380, 68790.00
354.8390, 69363.00
356.0400, 69442.00
357.2410, 70071.00
358.4410, 70454.00
359.6420, 70598.00
360.8420, 71339.00
362.0420, 71454.00
363.2420, 72079.00
364.4420, 72433.00
365.6420, 72915.00
366.8410, 73642.00
368.0410, 74398.00
369.2400, 74869.00
370.4390, 75618.00
371.6380, 76844.00
372.8360, 77735.00
374.0350, 78912.00
375.2330, 79165.00
376.4320, 80233.00
377.6300, 80913.00
378.8280, 81769.00
380.0260, 82403.00
381.2230, 82908.52
382.4210, 83200.00
383.6180, 83837.00
384.8160, 84134.00
386.0130, 84700.00
387.2100, 84966.00
388.4060, 85287.00
389.6030, 86153.00
390.7990, 86563.00
391.9960, 87757.00
393.1920, 88741.00
394.3880, 89579.00
395.5840, 90524.00
396.7790, 91466.00
397.9750, 92423.00
399.1700, 93827.00
400.3660, 94847.00
401.5610, 95498.00
402.7560, 96359.00
403.9510, 96903.00
405.1450, 97466.00
406.3400, 97776.00
407.5340, 96727.00
408.7280, 96753.00
409.9220, 95752.00
411.1160, 95188.00
412.3100, 94459.00
413.5030, 92640.00
414.6970, 91682.00
415.8900, 89928.00
417.0830, 88911.00
418.2760, 87968.00
419.4690, 87289.00
420.6620, 85327.00
421.8540, 84259.00
423.0460, 83275.00
424.2390, 82892.00
425.4310, 81942.00
426.6230, 81160.00
427.8140, 81152.00
429.0060, 79821.00
430.1970, 78973.00
431.3890, 78597.00
432.5800, 78130.00
433.7710, 77397.00
434.9610, 77117.00
436.1520, 76370.00
437.3430, 76324.00
438.5330, 75708.00
439.7230, 75118.00
440.9130, 75060.00
442.1030, 74737.00
443.2930, 74495.00
444.4820, 74228.00
445.6720, 74132.00
446.8610, 73988.00
448.0500, 73616.00
449.2390, 73193.00
450.4280, 73068.00
451.6170, 73047.00
452.8050, 72867.00
453.9940, 72752.00
455.1820, 72829.00
456.3700, 72553.00
457.5580, 72509.00
458.7450, 72314.00
459.9330, 72418.00
461.1200, 72731.00
462.3080, 72540.00
463.4950, 72324.00
464.6820, 72997.00
465.8690, 72585.00
467.0550, 73425.00
468.2420, 73689.00
469.4280, 73280.00
470.6140, 73254.00
471.8000, 73467.00
472.9860, 73319.43
474.1720, 73794.00
475.3570, 73487.00
476.5430, 73957.00
477.7280, 74207.00
478.9130, 74150.73
480.0980, 74331.00
481.2830, 74101.00
482.4680, 74320.00
483.6520, 73968.00
484.8360, 73942.00
486.0210, 74330.00
487.2050, 73823.00
488.3890, 73847.00
489.5720, 73676.00
490.7560, 73645.00
491.9390, 73832.00
493.1220, 73566.00
494.3060, 73710.00
495.4880, 73350.00
496.6710, 73135.00
497.8540, 73505.00
499.0360, 73357.00
500.2190, 73085.00
501.4010, 72915.00
502.5830, 73249.00
503.7650, 73078.00
504.9460, 72734.00
506.1280, 73299.00
507.3090, 72931.00
508.4910, 73452.00
509.6720, 73193.00
510.8530, 73336.00
512.0330, 73219.00
513.2140, 73447.00
514.3940, 73363.00
515.5750, 73240.00
516.7550, 73555.00
517.9350, 73923.00
519.1150, 73938.00
520.2940, 73877.00
521.4740, 73651.00
522.6530, 73991.87
523.8320, 74410.50
525.0110, 74690.35
526.1900, 74838.87
527.3690, 74462.70
528.5480, 74764.05
529.7260, 74793.80
530.9040, 74812.42
532.0820, 75209.05
533.2600, 74909.11
534.4380, 75299.74
535.6160, 75414.72
536.7930, 75655.77
537.9700, 75623.61
539.1480, 75675.93
540.3250, 75864.00
541.5020, 75904.00
542.6780, 76075.00
543.8550, 76345.00
545.0310, 76484.00
546.2070, 76374.00
547.3830, 76716.00
548.5590, 76944.00
549.7350, 77295.00
550.9110, 77198.00
552.0860, 77752.00
553.2610, 77634.80
554.4370, 78096.84
555.6120, 78419.95
556.7860, 78611.62
557.9610, 78278.72
559.1360, 78623.34
560.3100, 78696.33
561.4840, 78848.00
562.6580, 78852.00
563.8320, 78636.00
565.0060, 78848.00
566.1790, 78586.00
567.3530, 78477.00
568.5260, 78350.00
569.6990, 78523.00
570.8720, 78052.00
572.0450, 78383.00
573.2170, 78046.00
574.3900, 78031.00
575.5620, 78262.00
576.7340, 78351.00
577.9060, 78009.00
579.0780, 77996.00
580.2500, 77932.00
581.4210, 77814.00
582.5930, 78239.00
583.7640, 77976.00
584.9350, 77847.00
586.1060, 78150.00
587.2760, 77832.00
588.4470, 77799.00
589.6170, 77901.00
590.7880, 77935.92
591.9580, 78079.30
593.1280, 78295.00
594.2970, 78352.00
595.4670, 78482.00
596.6360, 78476.00
597.8060, 78548.00
598.9750, 78870.00
600.1440, 79027.00
601.3130, 79218.00
602.4810, 79373.00
603.6500, 79377.00
604.8180, 79515.00
605.9860, 80236.00
607.1540, 80105.00
608.3220, 80550.77
609.4900, 81009.00
610.6580, 81174.00
611.8250, 81580.73
612.9920, 81887.59
614.1590, 82170.00
615.3260, 82582.00
616.4930, 82881.00
617.6600, 83358.00
618.8260, 84019.00
619.9920, 84299.00
621.1590, 85085.00
622.3250, 85573.00
623.4900, 86033.00
624.6560, 86779.00
625.8220, 87496.00
626.9870, 88140.00
628.1520, 88322.00
629.3170, 88763.00
630.4820, 89686.00
631.6470, 89745.00
632.8110, 90156.00
633.9760, 89891.00
635.1400, 90376.00
636.3040, 90748.00
637.4680, 90850.00
638.6310, 90617.00
639.7950, 89861.00
640.9590, 89914.00
642.1220, 89155.00
643.2850, 88754.00
644.4480, 88716.00
645.6110, 87978.00
646.7730, 88080.00
647.9360, 87461.00
649.0980, 87214.00
650.2600, 86607.00
651.4220, 86360.17
652.5840, 86534.00
653.7460, 85880.00
654.9070, 85470.00
656.0690, 85285.00
657.2300, 85561.00
658.3910, 86014.00
659.5520, 85307.00
660.7120, 85112.00
661.8730, 85445.00
663.0330, 85095.00
664.1940, 85743.00
665.3540, 85882.00
666.5140, 85646.00
667.6730, 86023.00
668.8330, 86043.00
669.9920, 86509.00
671.1520, 86404.00
672.3110, 86982.00
673.4700, 87086.00
674.6290, 88179.00
675.7870, 88015.00
676.9460, 88691.00
678.1040, 89249.00
679.2620, 89668.00
680.4200, 90721.00
681.5780, 90998.00
682.7360, 92210.00
683.8930, 93276.00
685.0510, 94219.00
686.2080, 95713.00
687.3650, 96846.00
688.5220, 98787.00
689.6780, 100806.0
690.8350, 102435.0
691.9910, 104572.0
693.1480, 106986.0
694.3040, 109657.0
695.4600, 112296.0
696.6150, 114910.0
697.7710, 118174.0
698.9260, 121493.0
700.0820, 123444.0
701.2370, 125901.0
702.3920, 128353.0
703.5460, 130176.0
704.7010, 131008.0
705.8550, 131345.0
707.0100, 131473.0
708.1640, 130909.0
709.3180, 129777.0
710.4720, 128523.0
711.6250, 126995.0
712.7790, 124256.0
713.9320, 121556.0
715.0850, 117982.0
716.2380, 114575.0
717.3910, 110625.0
718.5440, 107046.0
719.6960, 104115.0
720.8490, 101304.0
722.0010, 99005.00
723.1530, 96962.00
724.3050, 95506.00
725.4570, 94178.00
726.6080, 93586.00
727.7600, 92521.00
728.9110, 91882.00
730.0620, 91739.00
731.2130, 91056.00
732.3640, 91184.00
733.5140, 91019.16
734.6650, 90980.80
735.8150, 91234.00
736.9650, 91302.00
738.1150, 91784.00
739.2650, 92225.00
740.4140, 93037.00
741.5640, 93507.00
742.7130, 94308.00
743.8620, 95080.00
745.0110, 95893.00
746.1600, 96688.00
747.3090, 97481.00
748.4570, 98419.00
749.6060, 98655.00
750.7540, 99228.00
751.9020, 99248.00
753.0500, 99539.00
754.1970, 99568.00
755.3450, 99372.00
756.4920, 99200.68
757.6390, 98903.91
758.7860, 98292.00
759.9330, 98072.00
761.0800, 97257.00
762.2260, 96630.00
763.3730, 96161.00
764.5190, 95607.00
765.6650, 94808.00
766.8110, 94169.00
767.9570, 93818.00
769.1020, 92544.00
770.2480, 91919.00
771.3930, 91322.00
772.5380, 91483.00
773.6830, 90784.00
774.8280, 90469.00
775.9720, 89695.00
777.1170, 89631.00
778.2610, 89271.00
779.4050, 89360.00
780.5490, 89503.00
781.6930, 88479.00
782.8360, 88936.00
783.9800, 88728.00
785.1230, 88981.00
786.2660, 88856.00
787.4090, 88544.00
788.5520, 88861.00
789.6950, 88614.00
790.8370, 88206.00
791.9790, 88144.00
793.1220, 87828.00
794.2640, 88204.00
795.4050, 88172.00
796.5470, 88481.00
797.6890, 87900.00
798.8300, 88248.00
799.9710, 88307.00
801.1120, 88118.00
802.2530, 88206.00
803.3940, 88101.00
804.5340, 88242.00
805.6750, 88012.00
806.8150, 88282.00
807.9550, 87671.00
809.0950, 87969.00
810.2340, 88184.00
811.3740, 87975.00
812.5130, 88187.00
813.6520, 87831.00
814.7910, 87753.00
815.9300, 88158.00
817.0690, 87650.00
818.2080, 87747.00
819.3460, 88005.00
820.4840, 88111.00
821.6220, 87742.48
822.7600, 88238.08
823.8980, 88537.33
825.0350, 88650.85
826.1730, 88016.80
827.3100, 88352.52
828.4470, 88302.30
829.5840, 88238.09
830.7210, 88715.83
831.8570, 88200.35
832.9940, 88673.38
834.1300, 88754.48
835.2660, 89017.75
836.4020, 88892.66
837.5380, 88890.04
838.6740, 89279.75
839.8090, 89455.15
840.9440, 89292.77
842.0790, 89578.97
843.2140, 89069.05
844.3490, 89261.35
845.4840, 89757.72
846.6180, 89624.50
847.7520, 89927.38
848.8870, 90066.90
850.0210, 89456.77
851.1540, 90155.38
852.2880, 90290.81
853.4210, 89847.73
854.5550, 90507.41
855.6880, 90148.17
856.8210, 90073.91
857.9540, 90276.88
859.0860, 90433.04
860.2190, 90545.06
861.3510, 90480.34
862.4830, 90643.73
863.6150, 90715.71
864.7470, 90783.94
865.8790, 90979.45
867.0100, 90940.33
868.1410, 91133.73
869.2730, 91234.40
870.4040, 91377.46
871.5340, 91428.46
872.6650, 91507.95
873.7960, 91679.46
874.9260, 91799.93
876.0560, 91840.34
877.1860, 91986.02
878.3160, 91943.60
879.4460, 92066.25
880.5750, 92260.02
881.7040, 92304.97
882.8340, 92452.33
883.9630, 92560.64
885.0920, 92491.82
886.2200, 92730.95
887.3490, 92836.95
888.4770, 92806.09
889.6050, 92906.00
890.7330, 93069.00
891.8610, 93528.00
892.9890, 94195.00
894.1160, 94251.00
895.2440, 94715.00
896.3710, 94956.00
897.4980, 95143.00
898.6250, 95763.00
899.7510, 96094.00
900.8780, 96656.00
902.0040, 96851.00
903.1310, 97409.29
904.2570, 98101.00
905.3820, 98422.00
906.5080, 99222.00
907.6340, 99785.00
908.7590, 99818.00
909.8840, 100219.0
911.0090, 100630.0
912.1340, 101353.0
913.2590, 101647.0
914.3830, 101500.0
915.5080, 101867.0
916.6320, 101765.0
917.7560, 101655.0
918.8800, 101568.4
920.0040, 100966.3
921.1270, 100897.1
922.2510, 100696.3
923.3740, 99971.12
924.4970, 99923.43
925.6200, 99604.23
926.7420, 99274.10
927.8650, 99321.77
928.9870, 99123.39
930.1100, 98987.00
931.2320, 99002.00
932.3540, 99084.00
933.4750, 98969.13
934.5970, 98974.00
935.7180, 98791.00
936.8390, 98566.00
937.9600, 98425.00
939.0810, 98582.00
940.2020, 98848.00
941.3230, 99192.00
942.4430, 99092.00
943.5630, 99919.00
944.6830, 99910.00
945.8030, 99787.00
946.9230, 100418.0
948.0420, 99988.00
949.1620, 100641.0
950.2810, 101260.0
951.4000, 101395.0
952.5190, 102070.0
953.6380, 102341.0
954.7560, 101998.0
955.8750, 102579.0
956.9930, 102667.0
958.1110, 102874.0
959.2290, 102676.0
960.3460, 102649.0
961.4640, 102256.0
962.5810, 101912.0
963.6990, 102133.0
964.8160, 101313.0
965.9320, 101519.0
967.0490, 101157.0
968.1660, 100939.0
969.2820, 100989.0
970.3980, 100246.0
971.5140, 100607.0
972.6300, 100336.0
973.7460, 100234.0
974.8610, 100686.0
975.9770, 100334.0
977.0920, 100378.0
978.2070, 99861.00
979.3220, 100584.0
980.4370, 100669.0
981.5510, 100266.0
982.6660, 100608.0
983.7800, 100596.0
984.8940, 100374.0
986.0080, 100298.0
987.1210, 100338.2
988.2350, 100488.0
989.3480, 100557.0
990.4610, 100557.0
991.5750, 100884.0
992.6870, 101443.0
993.8000, 100774.0
994.9130, 101101.0
996.0250, 101249.0
997.1370, 100444.0
998.2490, 101501.0
999.3610, 101116.0
1000.473, 101581.0
1001.584, 101407.0
1002.696, 102102.0
1003.807, 102025.0
1004.918, 101938.0
1006.029, 101728.0
1007.139, 101874.0
1008.250, 101629.0
1009.360, 102194.0
1010.470, 102488.0
1011.580, 102373.0
1012.690, 102349.0
1013.800, 102642.0
1014.909, 102075.0
1016.019, 102970.0
1017.128, 102705.0
1018.237, 103214.0
1019.346, 103326.0
1020.454, 103327.0
1021.563, 103303.0
1022.671, 103333.0
1023.779, 103565.7
1024.887, 103699.2
1025.995, 103738.9
1027.103, 103403.9
1028.210, 103552.8
1029.318, 103507.7
1030.425, 103454.7
1031.532, 103671.7
1032.638, 103391.1
1033.745, 103580.0
1034.852, 103633.5
1035.958, 103579.0
1037.064, 103683.0
1038.170, 103772.0
1039.276, 103696.0
1040.381, 103866.0
1041.487, 104011.0
1042.592, 104048.0
1043.697, 104253.0
1044.802, 104423.0
1045.907, 104559.0
1047.012, 104828.1
1048.116, 105124.0
1049.220, 105357.0
1050.324, 105592.7
1051.428, 105885.0
1052.532, 106249.1
1053.636, 106617.4
1054.739, 106886.5
1055.842, 107061.7
1056.946, 106862.3
1058.048, 107146.6
1059.151, 107237.1
1060.254, 107296.3
1061.356, 107403.1
1062.459, 107463.2
1063.561, 107479.1
1064.662, 107318.3
1065.764, 107385.7
1066.866, 107071.0
1067.967, 107148.4
1069.068, 106934.0
1070.169, 107082.0
1071.270, 107218.0
1072.371, 106960.0
1073.472, 107464.0
1074.572, 107611.0
1075.672, 107340.0
1076.772, 107730.0
1077.872, 107595.0
1078.972, 107996.0
1080.071, 107834.0
1081.171, 107955.0
1082.270, 108393.0
1083.369, 108400.0
1084.468, 108494.0
1085.567, 108532.3
1086.665, 108927.3
1087.763, 109223.3
1088.862, 109425.6
1089.960, 109252.9
1091.057, 109564.1
1092.155, 109681.5
1093.253, 109790.9
1094.350, 110170.2
1095.447, 110051.9
1096.544, 110426.9
1097.641, 110605.0
1098.738, 110873.2
1099.834, 110946.1
1100.930, 110995.0
1102.027, 111234.0
1103.123, 111654.0
1104.218, 111769.0
1105.314, 112281.0
1106.409, 112169.0
1107.505, 112322.0
1108.600, 112988.0
1109.695, 112867.0
1110.790, 112781.1
1111.884, 113183.7
1112.979, 113448.0
1114.073, 113579.1
1115.167, 113296.2
1116.261, 113458.0
1117.355, 113386.6
1118.448, 113268.2
1119.542, 113380.4
1120.635, 112956.1
1121.728, 112985.8
1122.821, 112779.5
1123.914, 112624.1
1125.006, 112295.0
1126.099, 112048.0
1127.191, 112162.0
1128.283, 112037.0
1129.375, 111824.0
1130.466, 111486.0
1131.558, 111523.0
1132.649, 111358.0
1133.741, 111188.0
1134.832, 111012.0
1135.922, 110606.0
1137.013, 110198.0
1138.104, 110078.0
1139.194, 109953.3
1140.284, 110283.0
1141.374, 109918.0
1142.464, 110045.0
1143.554, 109888.0
1144.643, 110126.0
1145.733, 109145.6
1146.822, 109737.0
1147.911, 110050.8
1148.999, 110101.9
1150.088, 109103.6
1151.177, 109460.4
1152.265, 109274.1
1153.353, 109065.6
1154.441, 109613.2
1155.529, 108767.6
1156.616, 109547.0
1157.704, 109359.0
1158.791, 109397.0
1159.878, 109339.0
1160.965, 109571.0
1162.052, 109393.0
1163.138, 109987.0
1164.225, 109422.0
1165.311, 109955.0
1166.397, 110113.0
1167.483, 109788.0
1168.569, 110296.0
1169.654, 110202.6
1170.740, 110724.0
1171.825, 110358.0
1172.910, 110012.0
1173.995, 110029.7
1175.080, 109992.1
1176.164, 110326.0
1177.248, 110483.0
1178.333, 111014.0
1179.417, 111056.3
1180.501, 110641.0
1181.584, 111244.0
1182.668, 110813.0
1183.751, 110804.0
1184.834, 111185.0
1185.917, 110742.0
1187.000, 111250.0
1188.083, 111332.0
1189.165, 111331.0
1190.247, 111598.0
1191.329, 111424.0
1192.411, 111419.0
1193.493, 111498.0
1194.575, 111482.7
1195.656, 111309.1
1196.738, 112010.4
1197.819, 112434.1
1198.900, 112595.1
1199.980, 111706.7
1201.061, 112173.4
1202.141, 112097.0
1203.222, 111998.4
1204.302, 112655.8
1205.381, 111919.9
1206.461, 112565.3
1207.541, 112659.3
1208.620, 113005.6
1209.699, 112805.5
1210.778, 112774.2
1211.857, 113289.4
1212.936, 113502.0
1214.014, 113239.0
1215.093, 113601.3
1216.171, 112846.3
1217.249, 113071.7
1218.327, 113720.2
1219.404, 113484.5
1220.482, 113856.8
1221.559, 113997.5
1222.636, 113086.1
1223.713, 114004.4
1224.790, 114131.4
1225.867, 113446.0
1226.943, 114301.5
1228.019, 113728.0
1229.095, 113664.6
1230.171, 113985.1
1231.247, 113905.3
1232.323, 113959.0
1233.398, 114465.0
1234.473, 114771.0
1235.548, 114200.0
1236.623, 114234.0
1237.698, 114675.0
1238.773, 115113.0
1239.847, 114758.0
1240.921, 114882.0
1241.995, 115623.0
1243.069, 115215.0
1244.143, 115139.6
1245.216, 115850.1
1246.290, 116283.2
1247.363, 116453.6
1248.436, 115574.6
1249.509, 116050.6
1250.581, 115983.5
1251.654, 115894.2
1252.726, 116560.9
1253.798, 115834.5
1254.870, 116489.1
1255.942, 116592.5
1257.013, 116948.1
1258.085, 116757.4
1259.156, 116735.4
1260.227, 117260.0
1261.298, 117481.9
1262.369, 117228.2
1263.439, 117599.8
1264.510, 116819.0
1265.580, 117131.0
1266.650, 116995.0
1267.720, 117683.0
1268.790, 117101.0
1269.859, 117558.0
1270.929, 117518.0
1271.998, 117090.0
1273.067, 117657.0
1274.136, 117432.0
1275.204, 117929.0
1276.273, 117832.0
1277.341, 117928.0
1278.409, 117838.0
1279.477, 117960.0
1280.545, 117632.0
1281.613, 117970.0
1282.680, 117949.3
1283.747, 118394.0
1284.814, 118209.0
1285.881, 118679.0
1286.948, 118904.0
1288.015, 118474.0
1289.081, 118492.0
1290.147, 118423.0
1291.213, 118250.0
1292.279, 118709.0
1293.345, 118857.0
1294.410, 119033.0
1295.476, 119192.0
1296.541, 119392.0
1297.606, 119339.0
1298.671, 119349.0
1299.736, 119500.0
1300.800, 119527.0
1301.864, 119468.0
1302.928, 119377.0
1303.992, 119689.0
1305.056, 119895.0
1306.120, 119941.0
1307.183, 120472.0
1308.247, 120371.0
1309.310, 120573.0
1310.373, 120763.0
1311.435, 120424.0
