##NAMES=Trilithionite
##RRUFFID=R040105
##IDEAL CHEMISTRY=KLi_1.5_Al_1.5_(Si_3_Al)O_10_F_2_
##LOCALITY=Brown Derby mine, Ohio City, Gunnison County, Colorado, USA
##OWNER=RRUFF
##SOURCE=University of Arizona Mineral Museum
##DESCRIPTION=Purple hexagonal tablet
##STATUS=The identification of this mineral has been confirmed by X-ray diffraction and chemical analysis
##URL=rruff.info/R040105
##MEASURED CHEMISTRY=(K_0.82_Li_0.14_Na_0.04_)(Li_0.53_Al_0.42_Mn_0.05_)_3_(Si_0.84_Al_0.17_)_4_O_10_((OH)_0.59_F_0.41_)_2_
##PIN_ID=L00700
##ORIENTATION=Laser parallel to (1 0 1). Fiducial mark perpendicular to laser is parallel to b [0 1 0]
62.17000, 10412.00
63.41600, 9822.000
64.66100, 9464.000
65.90700, 9409.000
67.15200, 9652.000
68.39700, 9919.000
69.64100, 10072.00
70.88600, 10024.00
72.13000, 9663.000
73.37400, 9154.000
74.61800, 9120.000
75.86200, 9208.000
77.10600, 9584.000
78.34900, 9347.455
79.59300, 9531.000
80.83600, 9036.000
82.07900, 8838.000
83.32100, 8568.000
84.56400, 8239.000
85.80600, 7927.000
87.04800, 7441.000
88.29000, 7127.000
89.53200, 6718.000
90.77400, 6382.000
92.01500, 6542.000
93.25700, 5923.000
94.49800, 5895.908
95.73900, 5484.000
96.98000, 5581.000
98.22000, 5536.000
99.46100, 5459.000
100.7010, 5574.000
101.9410, 6111.000
103.1810, 6342.000
104.4210, 6913.000
105.6600, 7531.000
106.9000, 8158.000
108.1390, 8837.000
109.3780, 9894.000
110.6170, 10963.00
111.8550, 12032.00
113.0940, 13341.00
114.3320, 14850.00
115.5700, 16306.00
116.8080, 17737.00
118.0460, 19367.00
119.2830, 20712.00
120.5210, 22876.00
121.7580, 24378.00
122.9950, 26037.00
124.2320, 27103.00
125.4690, 28268.00
126.7050, 29471.00
127.9410, 30626.00
129.1780, 31206.00
130.4140, 31998.00
131.6490, 32362.00
132.8850, 32709.00
134.1200, 33245.00
135.3560, 33405.00
136.5910, 33926.00
137.8260, 34395.00
139.0610, 34204.00
140.2950, 34199.00
141.5290, 34429.00
142.7640, 34318.00
143.9980, 34346.00
145.2320, 34411.00
146.4650, 34361.00
147.6990, 34043.00
148.9320, 34251.00
150.1650, 33959.00
151.3980, 34044.00
152.6310, 34091.00
153.8640, 34309.00
155.0960, 34223.00
156.3280, 34285.00
157.5600, 34316.00
158.7920, 34531.00
160.0240, 34950.00
161.2560, 35362.00
162.4870, 35968.00
163.7180, 36021.00
164.9490, 36809.00
166.1800, 37614.00
167.4110, 38274.00
168.6410, 39338.00
169.8720, 40464.00
171.1020, 41592.00
172.3320, 42749.00
173.5620, 43768.00
174.7910, 45322.00
176.0210, 46319.00
177.2500, 46952.00
178.4790, 47265.00
179.7080, 48280.00
180.9370, 48334.00
182.1650, 48373.00
183.3940, 47599.00
184.6220, 47299.00
185.8500, 46258.00
187.0780, 45591.00
188.3050, 44847.00
189.5330, 43793.00
190.7600, 43058.00
191.9870, 42285.00
193.2140, 41630.00
194.4410, 41122.00
195.6680, 40714.00
196.8940, 40232.17
198.1200, 39672.00
199.3470, 39473.00
200.5720, 39191.00
201.7980, 38876.00
203.0240, 38371.00
204.2490, 38159.00
205.4740, 38097.00
206.6990, 38063.00
207.9240, 37961.00
209.1490, 37963.00
210.3740, 37859.00
211.5980, 38139.00
212.8220, 38017.00
214.0460, 38184.00
215.2700, 38335.00
216.4930, 38412.00
217.7170, 38700.00
218.9400, 38686.00
220.1630, 38898.00
221.3860, 39312.00
222.6090, 39463.00
223.8320, 39812.00
225.0540, 40238.00
226.2760, 40606.00
227.4980, 41151.00
228.7200, 41639.00
229.9420, 41931.00
231.1630, 42839.00
232.3850, 43026.00
233.6060, 43595.00
234.8270, 44165.00
236.0480, 45002.00
237.2690, 45445.00
238.4890, 45818.00
239.7090, 46400.00
240.9290, 46906.00
242.1490, 47325.00
243.3690, 47780.00
244.5890, 48091.86
245.8080, 48385.34
247.0270, 48628.00
248.2470, 48847.00
249.4650, 49047.23
250.6840, 49270.00
251.9030, 49522.00
253.1210, 49597.00
254.3390, 50289.00
255.5570, 50500.90
256.7750, 50555.00
257.9930, 51230.00
259.2100, 51204.00
260.4280, 51387.00
261.6450, 50852.00
262.8620, 50439.00
264.0790, 49934.00
265.2950, 48871.00
266.5120, 48109.00
267.7280, 47014.00
268.9440, 46092.00
270.1600, 44729.00
271.3760, 43753.00
272.5920, 42815.67
273.8070, 41764.93
275.0220, 41010.00
276.2370, 39965.00
277.4520, 38982.00
278.6670, 38149.00
279.8820, 37496.17
281.0960, 37050.35
282.3100, 36572.00
283.5240, 36410.00
284.7380, 36291.00
285.9520, 35813.00
287.1650, 35786.00
288.3780, 35243.00
289.5920, 35012.00
290.8050, 35098.00
292.0170, 34985.00
293.2300, 34779.00
294.4430, 34838.00
295.6550, 34830.00
296.8670, 34631.00
298.0790, 34740.00
299.2910, 34537.00
300.5020, 34720.00
301.7140, 34608.00
302.9250, 34481.00
304.1360, 34508.00
305.3470, 34334.00
306.5580, 34326.00
307.7680, 34398.00
308.9780, 34336.00
310.1890, 34305.00
311.3990, 34275.00
312.6090, 34254.38
313.8180, 34216.29
315.0280, 34236.00
316.2370, 34222.00
317.4460, 34209.80
318.6550, 34269.00
319.8640, 34151.00
321.0730, 34121.41
322.2810, 34084.00
323.4890, 33963.00
324.6980, 33942.55
325.9060, 33667.58
327.1130, 33705.48
328.3210, 33654.83
329.5280, 33250.72
330.7360, 33303.04
331.9430, 33172.49
333.1500, 33034.43
334.3560, 33151.14
335.5630, 32798.45
336.7690, 32911.11
337.9760, 32837.98
339.1820, 32685.14
340.3870, 32833.93
341.5930, 32889.14
342.7990, 32855.87
344.0040, 32469.13
345.2090, 32538.89
346.4140, 32425.71
347.6190, 32305.03
348.8240, 32439.04
350.0280, 32103.78
351.2330, 32233.75
352.4370, 32148.00
353.6410, 32386.00
354.8440, 32228.00
356.0480, 32308.00
357.2520, 32593.00
358.4550, 32592.00
359.6580, 32644.00
360.8610, 32509.00
362.0640, 33000.00
363.2660, 32900.90
364.4690, 32982.00
365.6710, 33043.00
366.8730, 33069.00
368.0750, 33120.00
369.2770, 33457.00
370.4780, 33583.00
371.6800, 33723.00
372.8810, 34111.00
374.0820, 34011.00
375.2830, 34232.00
376.4830, 34486.00
377.6840, 34701.00
378.8840, 34541.00
380.0840, 35055.00
381.2840, 34957.00
382.4840, 35226.00
383.6840, 35719.00
384.8830, 35780.13
386.0830, 35653.00
387.2820, 36123.00
388.4810, 36274.00
389.6800, 36144.00
390.8780, 36872.00
392.0770, 36849.00
393.2750, 36984.00
394.4730, 37070.00
395.6710, 37286.00
396.8690, 37593.00
398.0660, 37847.00
399.2640, 38082.00
400.4610, 37915.00
401.6580, 38104.00
402.8550, 38288.00
404.0520, 38599.00
405.2490, 38602.00
406.4450, 38569.60
407.6410, 38655.00
408.8370, 38225.00
410.0330, 37598.00
411.2290, 37279.00
412.4240, 36862.91
413.6200, 36661.00
414.8150, 36233.00
416.0100, 35573.00
417.2050, 35343.00
418.4000, 35038.00
419.5940, 34855.00
420.7880, 34561.00
421.9830, 34560.00
423.1770, 34184.00
424.3700, 34243.00
425.5640, 33946.00
426.7580, 34140.00
427.9510, 34044.00
429.1440, 34191.00
430.3370, 34364.00
431.5300, 34238.00
432.7220, 34505.48
433.9150, 34591.80
435.1070, 34903.00
436.2990, 34821.00
437.4910, 35089.00
438.6830, 35022.00
439.8750, 35268.00
441.0660, 35308.82
442.2570, 35806.00
443.4480, 35496.00
444.6390, 35753.00
445.8300, 36013.00
447.0210, 35473.00
448.2110, 35814.00
449.4010, 35821.00
450.5910, 35707.00
451.7810, 35716.00
452.9710, 35674.00
454.1610, 35381.00
455.3500, 35795.00
456.5390, 35763.00
457.7280, 35318.00
458.9170, 35146.00
460.1060, 35507.00
461.2940, 35545.00
462.4830, 35434.68
463.6710, 35433.00
464.8590, 35468.21
466.0470, 35585.00
467.2350, 35555.00
468.4220, 35635.00
469.6090, 35677.00
470.7970, 35645.00
471.9840, 35930.00
473.1700, 35809.00
474.3570, 36048.00
475.5440, 35984.00
476.7300, 35936.00
477.9160, 36045.00
479.1020, 35461.00
480.2880, 35664.00
481.4740, 35047.00
482.6590, 34904.00
483.8440, 34604.00
485.0300, 34467.00
486.2140, 34289.00
487.3990, 34085.41
488.5840, 33658.00
489.7680, 33661.00
490.9530, 33426.00
492.1370, 33040.00
493.3210, 33292.00
494.5040, 32805.00
495.6880, 32743.00
496.8720, 32994.00
498.0550, 33170.70
499.2380, 33401.00
500.4210, 33812.00
501.6040, 33874.00
502.7860, 33545.00
503.9690, 33468.00
505.1510, 33998.00
506.3330, 33692.00
507.5150, 33752.00
508.6970, 33797.00
509.8780, 33758.41
511.0600, 33894.00
512.2410, 33845.00
513.4220, 34152.00
514.6030, 34121.00
515.7840, 34763.00
516.9640, 34945.00
518.1440, 34896.00
519.3250, 34876.00
520.5050, 35096.00
521.6850, 34811.00
522.8640, 34481.00
524.0440, 34470.83
525.2230, 34382.69
526.4020, 34189.00
527.5820, 34546.00
528.7600, 34532.00
529.9390, 34762.00
531.1180, 34663.00
532.2960, 34855.00
533.4740, 35084.00
534.6520, 35178.00
535.8300, 35198.00
537.0080, 35333.00
538.1850, 35396.00
539.3630, 35520.00
540.5400, 35821.00
541.7170, 35985.00
542.8940, 36282.00
544.0700, 36392.00
545.2470, 36880.00
546.4230, 37167.00
547.5990, 37628.00
548.7750, 37661.00
549.9510, 37938.00
551.1270, 38661.00
552.3020, 39286.00
553.4780, 39598.00
554.6530, 39971.00
555.8280, 40481.00
557.0030, 40794.00
558.1770, 41126.00
559.3520, 41675.00
560.5260, 41599.00
561.7000, 41880.00
562.8740, 41789.00
564.0480, 41893.00
565.2220, 41554.00
566.3950, 41204.00
567.5680, 40684.00
568.7420, 40260.00
569.9150, 39808.83
571.0870, 39750.00
572.2600, 38994.00
573.4320, 38493.00
574.6050, 38323.00
575.7770, 37616.00
576.9490, 37141.00
578.1210, 37094.00
579.2920, 36910.00
580.4640, 36554.00
581.6350, 36537.00
582.8060, 36559.00
583.9770, 36492.00
585.1480, 36196.00
586.3190, 36528.00
587.4890, 36188.00
588.6590, 36341.00
589.8290, 36174.00
590.9990, 36289.00
592.1690, 35823.00
593.3390, 36179.00
594.5080, 36117.00
595.6770, 35876.00
596.8470, 36183.00
598.0160, 35876.00
599.1840, 36181.00
600.3530, 35935.00
601.5210, 36002.00
602.6900, 36465.00
603.8580, 36256.00
605.0260, 36684.00
606.1930, 36266.00
607.3610, 36330.00
608.5280, 36804.00
609.6960, 37005.00
610.8630, 36938.00
612.0300, 37011.00
613.1970, 37292.00
614.3630, 37518.00
615.5300, 37750.25
616.6960, 38070.00
617.8620, 38297.00
619.0280, 38536.00
620.1940, 38799.00
621.3590, 39407.00
622.5250, 39467.00
623.6900, 40178.00
624.8550, 40567.00
626.0200, 40523.00
627.1850, 40842.00
628.3490, 40378.00
629.5140, 39705.00
630.6780, 39186.00
631.8420, 38881.00
633.0060, 38037.00
634.1700, 38039.00
635.3330, 38214.00
636.4970, 37402.00
637.6600, 37433.00
638.8230, 37525.00
639.9860, 37813.00
641.1490, 37837.00
642.3110, 38597.00
643.4740, 38685.00
644.6360, 39329.00
645.7980, 39529.00
646.9600, 39903.00
648.1220, 40124.62
649.2840, 40107.00
650.4450, 40407.00
651.6060, 40583.00
652.7670, 40729.00
653.9280, 40592.00
655.0890, 40166.25
656.2500, 39840.56
657.4100, 39016.00
658.5700, 38921.00
659.7300, 38551.00
660.8900, 38496.00
662.0500, 38127.00
663.2100, 38087.00
664.3690, 38081.00
665.5280, 38242.00
666.6880, 38207.00
667.8460, 38253.00
669.0050, 38485.00
670.1640, 38687.00
671.3220, 38829.00
672.4810, 39237.00
673.6390, 39428.00
674.7970, 39729.00
675.9540, 40079.00
677.1120, 40483.08
678.2690, 41087.00
679.4270, 41495.00
680.5840, 41912.00
681.7410, 42559.00
682.8980, 43585.00
684.0540, 44578.00
685.2110, 45287.00
686.3670, 46494.00
687.5230, 47436.00
688.6790, 48925.00
689.8350, 50479.00
690.9900, 52278.00
692.1460, 54690.00
693.3010, 57265.00
694.4560, 60054.00
695.6110, 63585.00
696.7660, 67186.00
697.9210, 71910.00
699.0750, 76798.00
700.2290, 82358.00
701.3840, 88337.00
702.5370, 95762.00
703.6910, 101603.0
704.8450, 108923.0
705.9980, 112257.0
707.1520, 114385.0
708.3050, 115352.0
709.4580, 114145.0
710.6110, 111081.0
711.7630, 105488.0
712.9160, 98860.00
714.0680, 91634.00
715.2200, 83775.00
716.3720, 77241.00
717.5240, 70560.00
718.6760, 65768.00
719.8270, 60948.00
720.9780, 57174.00
722.1300, 54466.00
723.2810, 51975.00
724.4310, 49778.00
725.5820, 48016.00
726.7330, 46633.00
727.8830, 45514.00
729.0330, 44596.00
730.1830, 43705.00
731.3330, 43227.00
732.4830, 42792.00
733.6320, 42202.00
734.7810, 41797.01
735.9310, 41059.00
737.0800, 40933.00
738.2290, 40581.00
739.3770, 40209.00
740.5260, 40127.00
741.6740, 39992.00
742.8220, 40157.00
743.9700, 39987.00
745.1180, 39969.00
746.2660, 39806.00
747.4130, 40155.00
748.5610, 40000.00
749.7080, 40384.00
750.8550, 40119.00
752.0020, 40032.00
753.1490, 40175.00
754.2950, 40001.00
755.4420, 39755.00
756.5880, 39976.00
757.7340, 39414.00
758.8800, 39366.00
760.0250, 39273.00
761.1710, 39192.00
762.3160, 38838.00
763.4620, 38580.00
764.6070, 38598.00
765.7520, 38403.00
766.8960, 38572.00
768.0410, 38127.00
769.1850, 38283.00
770.3300, 37929.00
771.4740, 38299.00
772.6180, 38276.00
773.7610, 38494.00
774.9050, 38247.00
776.0480, 38188.00
777.1920, 38589.00
778.3350, 38656.59
779.4780, 38833.64
780.6200, 39243.00
781.7630, 39081.00
782.9060, 39234.00
784.0480, 39120.00
785.1900, 39048.00
786.3320, 39015.00
787.4740, 38763.00
788.6150, 38801.00
789.7570, 38548.00
790.8980, 38541.00
792.0390, 38409.00
793.1800, 38082.00
794.3210, 38162.00
795.4620, 38263.00
796.6020, 38219.00
797.7420, 37875.00
798.8830, 37926.00
800.0230, 37636.00
801.1620, 37618.00
802.3020, 37727.00
803.4420, 37623.00
804.5810, 37102.00
805.7200, 37192.00
806.8590, 37095.00
807.9980, 37315.00
809.1370, 37370.00
810.2750, 37324.70
811.4140, 37368.01
812.5520, 37258.00
813.6900, 37277.00
814.8280, 37252.00
815.9650, 37229.00
817.1030, 37387.00
818.2400, 37545.00
819.3780, 37826.00
820.5150, 37647.00
821.6520, 37779.00
822.7880, 37759.00
823.9250, 38127.00
825.0610, 38052.00
826.1980, 38224.00
827.3340, 38324.00
828.4700, 38423.00
829.6050, 38609.00
830.7410, 38739.00
831.8760, 38734.00
833.0120, 38902.00
834.1470, 39217.00
835.2820, 39136.00
836.4160, 39272.00
837.5510, 39743.00
838.6860, 39828.00
839.8200, 40164.00
840.9540, 40505.00
842.0880, 40709.00
843.2220, 40797.88
844.3550, 41048.00
845.4890, 41093.04
846.6220, 41195.00
847.7550, 41235.00
848.8880, 41183.00
850.0210, 41288.00
851.1540, 41505.00
852.2860, 41638.00
853.4190, 41946.00
854.5510, 41944.00
855.6830, 42695.00
856.8150, 42714.00
857.9460, 43207.00
859.0780, 43660.00
860.2090, 44447.00
861.3410, 44136.00
862.4720, 44036.00
863.6020, 43940.00
864.7330, 43223.00
865.8640, 42913.00
866.9940, 42180.00
868.1240, 41724.00
869.2540, 41367.47
870.3840, 41538.61
871.5140, 41616.23
872.6440, 41605.37
873.7730, 41241.02
874.9020, 41333.18
876.0320, 41242.35
877.1600, 41144.10
878.2890, 41300.51
879.4180, 40987.59
880.5460, 41139.99
881.6750, 41078.00
882.8030, 40866.00
883.9310, 41184.00
885.0590, 41044.00
886.1860, 41037.00
887.3140, 41182.00
888.4410, 40972.00
889.5680, 41117.00
890.6950, 40947.00
891.8220, 41273.00
892.9490, 41443.00
894.0750, 41487.00
895.2020, 41496.00
896.3280, 41685.00
897.4540, 41738.00
898.5800, 41812.00
899.7050, 41964.00
900.8310, 41758.00
901.9560, 42061.00
903.0820, 41999.00
904.2070, 42334.00
905.3320, 42597.00
906.4560, 42004.00
907.5810, 42015.00
908.7050, 42130.00
909.8300, 42264.00
910.9540, 42308.00
912.0780, 42103.00
913.2010, 42303.00
914.3250, 42170.00
915.4480, 42089.00
916.5720, 42082.00
917.6950, 41980.00
918.8180, 41899.00
919.9410, 41670.00
921.0630, 41757.00
922.1860, 41756.74
923.3080, 41722.77
924.4300, 41883.00
925.5520, 41849.00
926.6740, 41759.00
927.7960, 41981.00
928.9170, 42177.00
930.0390, 41940.00
931.1600, 42047.00
932.2810, 42163.00
933.4020, 42167.00
934.5230, 42294.00
935.6430, 42175.00
936.7640, 42566.00
937.8840, 41937.00
939.0040, 42101.00
940.1240, 42472.00
941.2440, 42276.00
942.3630, 42485.00
943.4830, 42380.00
944.6020, 42427.00
945.7210, 42551.21
946.8400, 42443.00
947.9590, 42684.00
949.0770, 42850.00
950.1960, 42757.00
951.3140, 42837.00
952.4320, 42940.00
953.5500, 43170.00
954.6680, 43133.00
955.7860, 43075.00
956.9030, 43006.00
958.0210, 43151.73
959.1380, 43108.00
960.2550, 43207.28
961.3720, 43315.00
962.4890, 43406.00
963.6050, 43482.00
964.7220, 43599.00
965.8380, 43733.63
966.9540, 43685.00
968.0700, 43938.00
969.1860, 44057.00
970.3010, 43942.00
971.4170, 43859.00
972.5320, 43988.00
973.6470, 43951.32
974.7620, 44126.77
975.8770, 44234.11
976.9910, 44278.34
978.1060, 43994.46
979.2200, 44192.39
980.3340, 44232.75
981.4480, 44290.96
982.5620, 44629.21
983.6760, 44523.50
984.7890, 44908.23
985.9030, 45238.56
987.0160, 45541.00
988.1290, 45809.00
989.2420, 46111.00
990.3550, 46019.00
991.4670, 46187.00
992.5800, 46852.00
993.6920, 47231.00
994.8040, 48276.00
995.9160, 49192.00
997.0280, 50154.00
998.1390, 51466.00
999.2510, 53027.00
1000.362, 54711.00
1001.473, 56522.00
1002.584, 57607.00
1003.695, 56964.00
1004.805, 54988.00
1005.916, 52011.00
1007.026, 50029.00
1008.136, 48491.00
1009.246, 47973.00
1010.356, 47236.00
1011.466, 46887.00
1012.576, 46688.00
1013.685, 46450.00
1014.794, 46532.00
1015.903, 46695.00
1017.012, 46832.00
1018.121, 47012.90
1019.229, 47544.04
1020.338, 47921.51
1021.446, 48149.88
1022.554, 47964.37
1023.662, 48175.00
1024.770, 48142.34
1025.878, 48041.80
1026.985, 48135.75
1028.092, 47700.10
1029.200, 47669.29
1030.307, 47392.63
1031.413, 47572.00
1032.520, 46807.00
1033.627, 46853.00
1034.733, 46841.00
1035.839, 46249.00
1036.945, 46373.00
1038.051, 46501.00
1039.157, 46275.00
1040.262, 45794.00
1041.368, 46601.00
1042.473, 45983.00
1043.578, 46400.00
1044.683, 46345.00
1045.788, 46698.00
1046.893, 46447.00
1047.997, 46475.00
1049.101, 47069.00
1050.205, 46911.00
1051.309, 46869.00
1052.413, 47038.00
1053.517, 47112.00
1054.621, 47189.00
1055.724, 47466.00
1056.827, 47655.00
1057.930, 47576.00
1059.033, 48019.00
1060.136, 47662.00
1061.238, 48147.00
1062.341, 48180.12
1063.443, 48844.00
1064.545, 48448.00
1065.647, 49028.00
1066.749, 49228.00
1067.850, 49302.00
1068.952, 49359.00
1070.053, 50115.00
1071.154, 50248.00
1072.255, 50768.00
1073.356, 51175.00
1074.457, 51373.00
1075.557, 51502.00
1076.658, 51985.00
1077.758, 52549.00
1078.858, 53101.00
1079.958, 53602.00
1081.057, 54275.00
1082.157, 54247.00
1083.256, 54607.00
1084.356, 54453.00
1085.455, 54732.00
1086.554, 54514.00
1087.653, 54474.00
1088.751, 54303.86
1089.850, 54083.29
1090.948, 53742.00
1092.046, 53633.00
1093.144, 53292.00
1094.242, 53088.00
1095.340, 52965.00
1096.437, 52574.00
1097.534, 53181.00
1098.632, 52994.00
1099.729, 53037.00
1100.826, 52741.00
1101.922, 53029.00
1103.019, 53284.00
1104.115, 53058.00
1105.212, 53288.00
1106.308, 53643.00
1107.404, 54082.00
1108.499, 53857.00
1109.595, 54045.00
1110.691, 54242.00
1111.786, 54414.00
1112.881, 54241.00
1113.976, 54229.00
1115.071, 54113.00
1116.166, 54183.00
1117.260, 54482.00
1118.355, 54411.00
1119.449, 54434.00
1120.543, 54745.00
1121.637, 54722.00
1122.731, 54951.00
1123.824, 54943.00
1124.918, 55005.00
1126.011, 54739.00
1127.104, 54814.00
1128.197, 54794.00
1129.290, 54679.00
1130.382, 54780.00
1131.475, 54327.00
1132.567, 54260.00
1133.659, 54092.00
1134.751, 53162.00
1135.843, 52839.00
1136.935, 52177.36
1138.027, 51262.00
1139.118, 50849.00
1140.209, 50000.00
1141.300, 49289.00
1142.391, 48802.00
1143.482, 48514.00
1144.573, 48247.00
1145.663, 47773.00
1146.754, 47809.00
1147.844, 47235.55
1148.934, 47439.35
1150.024, 47549.64
1151.113, 47571.45
1152.203, 47239.73
1153.292, 47364.52
1154.381, 47306.37
1155.470, 47240.71
1156.559, 47429.75
1157.648, 47149.46
1158.737, 47334.46
1159.825, 47900.00
1160.913, 47813.00
1162.001, 47827.00
1163.089, 48091.00
1164.177, 47690.00
1165.265, 47969.00
1166.352, 47514.00
1167.440, 48151.00
1168.527, 47852.00
1169.614, 48289.00
1170.701, 48219.00
1171.788, 48282.00
1172.874, 48750.00
1173.961, 48562.00
1175.047, 48599.00
1176.133, 48809.00
1177.219, 48557.00
1178.305, 48736.00
1179.390, 48661.00
1180.476, 48797.00
1181.561, 48681.77
1182.646, 48934.00
1183.731, 48952.95
1184.816, 48851.00
1185.901, 49062.00
1186.985, 49216.00
1188.070, 49132.00
1189.154, 49147.00
1190.238, 49097.00
1191.322, 49246.00
1192.406, 48857.00
1193.489, 48918.00
1194.573, 48738.00
1195.656, 48885.00
1196.739, 48814.00
1197.822, 48793.00
1198.905, 48920.07
1199.988, 48907.38
1201.070, 49141.00
1202.153, 48933.00
1203.235, 49071.00
1204.317, 48889.00
1205.399, 48742.00
1206.481, 48442.00
1207.562, 48804.00
1208.644, 48631.00
1209.725, 48827.00
1210.806, 48746.00
1211.887, 49090.00
1212.968, 49050.00
1214.049, 49352.00
1215.129, 49782.00
1216.209, 49390.00
1217.290, 49563.00
1218.370, 49354.00
1219.450, 49487.00
1220.529, 49366.00
1221.609, 49351.00
1222.688, 49638.00
1223.768, 49432.00
1224.847, 49939.00
1225.926, 49840.00
1227.005, 50043.00
1228.083, 50231.00
1229.162, 50323.00
1230.240, 50579.00
1231.318, 50658.00
1232.396, 50567.00
1233.474, 50889.00
1234.552, 51104.00
1235.629, 51331.00
1236.707, 51765.00
1237.784, 51688.00
1238.861, 51806.00
1239.938, 51601.00
1241.015, 51656.00
1242.092, 51458.00
