##NAMES=Trilithionite
##RRUFFID=R040105
##IDEAL CHEMISTRY=KLi_1.5_Al_1.5_(Si_3_Al)O_10_F_2_
##LOCALITY=Brown Derby mine, Ohio City, Gunnison County, Colorado, USA
##OWNER=RRUFF
##SOURCE=University of Arizona Mineral Museum
##DESCRIPTION=Purple hexagonal tablet
##STATUS=The identification of this mineral has been confirmed by X-ray diffraction and chemical analysis
##URL=rruff.info/R040105
##MEASURED CHEMISTRY=(K_0.82_Li_0.14_Na_0.04_)(Li_0.53_Al_0.42_Mn_0.05_)_3_(Si_0.84_Al_0.17_)_4_O_10_((OH)_0.59_F_0.41_)_2_
##PIN_ID=L00110
##ORIENTATION=Laser parallel to a* (1 0 0). Fiducial mark perpendicular to laser is parallel to b [0 1 0]
139.0430, 17284.00
140.2710, 17237.00
141.5000, 17389.00
142.7280, 17397.00
143.9560, 17445.00
145.1840, 17402.00
146.4120, 17396.00
147.6390, 17365.00
148.8670, 17521.00
150.0940, 17576.00
151.3210, 17624.62
152.5490, 17725.00
153.7750, 17696.00
155.0020, 17796.00
156.2290, 17731.00
157.4550, 17732.00
158.6810, 17810.00
159.9080, 17924.00
161.1340, 18152.00
162.3590, 18265.00
163.5850, 18399.00
164.8110, 18611.00
166.0360, 18667.00
167.2610, 18801.00
168.4860, 19040.00
169.7110, 19157.00
170.9360, 19371.00
172.1610, 19448.00
173.3850, 19853.00
174.6100, 19737.00
175.8340, 20083.00
177.0580, 19992.00
178.2820, 20328.00
179.5050, 20497.00
180.7290, 20636.00
181.9520, 20651.00
183.1760, 20691.00
184.3990, 20705.00
185.6220, 20625.00
186.8450, 20663.39
188.0670, 20426.00
189.2900, 20587.00
190.5120, 20483.00
191.7340, 20281.00
192.9560, 20298.00
194.1780, 19898.00
195.4000, 19943.00
196.6220, 19987.00
197.8430, 20077.00
199.0640, 19908.00
200.2860, 20166.00
201.5070, 20105.00
202.7270, 19886.00
203.9480, 19946.00
205.1690, 20098.00
206.3890, 19903.00
207.6090, 19700.00
208.8290, 19898.00
210.0490, 19760.00
211.2690, 19866.00
212.4890, 19815.00
213.7080, 20033.00
214.9280, 19956.00
216.1470, 19870.00
217.3660, 20076.00
218.5850, 20146.00
219.8030, 20010.00
221.0220, 20209.00
222.2400, 20125.00
223.4590, 20240.00
224.6770, 20276.00
225.8950, 20332.00
227.1120, 20420.00
228.3300, 20468.00
229.5480, 20666.00
230.7650, 20687.00
231.9820, 20807.21
233.1990, 21016.00
234.4160, 20988.00
235.6330, 21152.00
236.8490, 21229.00
238.0660, 21404.00
239.2820, 21570.00
240.4980, 21520.00
241.7140, 21740.00
242.9300, 21691.00
244.1460, 21774.00
245.3610, 21865.00
246.5770, 21959.00
247.7920, 22117.00
249.0070, 22231.25
250.2220, 22377.00
251.4370, 22522.00
252.6510, 22664.00
253.8660, 22826.00
255.0800, 22912.00
256.2940, 22751.00
257.5080, 22990.00
258.7220, 22953.00
259.9360, 23195.00
261.1490, 23286.00
262.3630, 23154.00
263.5760, 22944.00
264.7890, 23055.00
266.0020, 22866.00
267.2150, 22655.00
268.4270, 22572.00
269.6400, 22218.00
270.8520, 22148.00
272.0640, 22028.00
273.2760, 21905.00
274.4880, 21824.00
275.7000, 21784.00
276.9120, 21694.48
278.1230, 21467.00
279.3340, 21520.00
280.5450, 21397.00
281.7560, 21194.00
282.9670, 21315.00
284.1780, 21287.00
285.3880, 21047.00
286.5980, 21310.00
287.8090, 21391.00
289.0190, 21200.00
290.2290, 21170.00
291.4380, 21211.00
292.6480, 21261.00
293.8570, 21274.43
295.0670, 21277.31
296.2760, 21337.00
297.4850, 21267.00
298.6930, 21265.00
299.9020, 21297.00
301.1110, 21541.00
302.3190, 21415.00
303.5270, 21538.00
304.7350, 21431.00
305.9430, 21342.00
307.1510, 21424.00
308.3580, 21369.00
309.5660, 21495.00
310.7730, 21434.00
311.9800, 21571.00
313.1870, 21621.00
314.3940, 21574.00
315.6010, 21546.00
316.8070, 21655.00
318.0130, 21667.00
319.2200, 21572.00
320.4260, 21698.00
321.6310, 21574.00
322.8370, 21756.00
324.0430, 21692.00
325.2480, 21887.00
326.4540, 21815.00
327.6590, 21846.00
328.8640, 21656.00
330.0680, 21833.00
331.2730, 21774.00
332.4780, 21913.00
333.6820, 21900.00
334.8860, 21877.00
336.0900, 21787.00
337.2940, 22052.00
338.4980, 22043.00
339.7010, 22043.00
340.9050, 21811.00
342.1080, 22083.00
343.3110, 21860.00
344.5140, 22099.00
345.7170, 22007.00
346.9200, 22326.00
348.1220, 22015.00
349.3240, 22226.00
350.5270, 22158.00
351.7290, 22060.00
352.9310, 22181.00
354.1320, 22146.00
355.3340, 22140.00
356.5350, 22251.00
357.7370, 22248.80
358.9380, 22329.00
360.1390, 22378.00
361.3400, 22420.00
362.5400, 22541.00
363.7410, 22526.00
364.9410, 22472.00
366.1410, 22477.00
367.3410, 22567.00
368.5410, 22384.00
369.7410, 22621.00
370.9400, 22617.00
372.1400, 22747.00
373.3390, 22683.00
374.5380, 22704.00
375.7370, 22957.00
376.9360, 23098.00
378.1350, 23019.00
379.3330, 23043.00
380.5310, 23031.00
381.7300, 23083.00
382.9280, 23091.00
384.1260, 23203.00
385.3230, 23273.00
386.5210, 23309.46
387.7180, 23372.39
388.9160, 23402.00
390.1130, 23397.00
391.3100, 23440.00
392.5060, 23353.00
393.7030, 23621.00
394.9000, 23450.00
396.0960, 23565.00
397.2920, 23704.00
398.4880, 23728.00
399.6840, 23755.00
400.8800, 23805.00
402.0750, 23825.00
403.2710, 23910.00
404.4660, 23904.00
405.6610, 23770.00
406.8560, 23972.00
408.0510, 24024.00
409.2450, 23833.00
410.4400, 23854.00
411.6340, 23897.00
412.8280, 23760.00
414.0220, 23910.00
415.2160, 24008.00
416.4100, 23814.00
417.6030, 23856.00
418.7970, 24012.00
419.9900, 23983.00
421.1830, 23928.00
422.3760, 23823.00
423.5690, 23916.00
424.7610, 23754.00
425.9540, 23719.00
427.1460, 23875.00
428.3380, 24089.00
429.5300, 23957.00
430.7220, 24125.00
431.9140, 24235.00
433.1050, 24088.00
434.2970, 24234.00
435.4880, 24416.00
436.6790, 24351.00
437.8700, 24298.00
439.0610, 24418.00
440.2510, 24275.00
441.4420, 24412.00
442.6320, 24558.00
443.8220, 24378.00
445.0120, 24726.00
446.2020, 24574.00
447.3910, 24573.00
448.5810, 24531.00
449.7700, 24669.00
450.9600, 24540.00
452.1490, 24421.00
453.3370, 24839.00
454.5260, 24845.00
455.7150, 24940.00
456.9030, 24727.00
458.0910, 24754.00
459.2800, 24790.75
460.4670, 24918.00
461.6550, 24880.00
462.8430, 24908.00
464.0300, 24908.00
465.2180, 24972.53
466.4050, 25214.00
467.5920, 25124.00
468.7790, 25169.00
469.9650, 25220.00
471.1520, 25169.00
472.3380, 25318.00
473.5250, 25438.00
474.7110, 25363.00
475.8970, 25516.00
477.0820, 25442.00
478.2680, 25473.00
479.4540, 25531.00
480.6390, 25445.00
481.8240, 25483.00
483.0090, 25510.00
484.1940, 25448.00
485.3780, 25371.00
486.5630, 25399.00
487.7470, 25494.00
488.9320, 25534.00
490.1160, 25553.00
491.3000, 25509.00
492.4830, 25595.21
493.6670, 25465.00
494.8500, 25675.00
496.0340, 25753.00
497.2170, 25689.00
498.4000, 25674.00
499.5820, 25604.00
500.7650, 25793.00
501.9480, 25609.00
503.1300, 25838.00
504.3120, 25943.00
505.4940, 25822.00
506.6760, 25696.00
507.8580, 26091.00
509.0390, 25843.00
510.2210, 25923.00
511.4020, 26088.00
512.5830, 25880.00
513.7640, 26040.00
514.9450, 26072.00
516.1250, 26057.00
517.3060, 26147.00
518.4860, 26084.00
519.6660, 26162.37
520.8460, 26113.00
522.0260, 26270.00
523.2060, 26284.00
524.3850, 26328.00
525.5650, 26374.00
526.7440, 26538.00
527.9230, 26436.00
529.1020, 26441.00
530.2810, 26289.00
531.4590, 26647.00
532.6380, 26676.00
533.8160, 26818.00
534.9940, 26640.00
536.1720, 26808.00
537.3500, 26705.00
538.5270, 26743.00
539.7050, 26794.00
540.8820, 26737.00
542.0590, 26934.00
543.2360, 27147.00
544.4130, 27119.00
545.5900, 27118.00
546.7660, 27056.00
547.9430, 27127.00
549.1190, 27341.00
550.2950, 27502.00
551.4710, 27682.00
552.6470, 27578.00
553.8220, 27626.00
554.9980, 27541.00
556.1730, 27799.00
557.3480, 27791.00
558.5230, 27821.00
559.6980, 28031.00
560.8730, 28004.00
562.0470, 27901.00
563.2220, 28054.00
564.3960, 28166.00
565.5700, 28232.00
566.7440, 28066.00
567.9170, 28087.00
569.0910, 28039.00
570.2640, 28243.00
571.4380, 27930.00
572.6110, 28133.00
573.7840, 28196.00
574.9570, 27765.00
576.1290, 28107.00
577.3020, 27866.00
578.4740, 27919.00
579.6460, 27767.00
580.8180, 27821.00
581.9900, 28069.00
583.1620, 27842.00
584.3330, 28001.00
585.5040, 27977.00
586.6760, 27862.00
587.8470, 27870.00
589.0180, 28201.00
590.1880, 28205.00
591.3590, 28164.00
592.5290, 28071.00
593.7000, 28197.00
594.8700, 28004.00
596.0400, 28135.00
597.2090, 28200.00
598.3790, 28374.00
599.5490, 28344.00
600.7180, 28432.00
601.8870, 28446.00
603.0560, 28381.00
604.2250, 28573.00
605.3940, 28699.00
606.5620, 28587.00
607.7300, 28511.00
608.8990, 28550.00
610.0670, 28712.00
611.2350, 28535.00
612.4020, 28441.00
613.5700, 28733.00
614.7370, 29018.00
615.9050, 28983.00
617.0720, 28901.00
618.2390, 28995.67
619.4060, 28760.00
620.5720, 28937.00
621.7390, 28882.00
622.9050, 28779.00
624.0710, 29098.00
625.2370, 28972.00
626.4030, 28965.00
627.5690, 28993.00
628.7340, 29106.00
629.9000, 29073.00
631.0650, 29113.95
632.2300, 29208.00
633.3950, 29099.00
634.5600, 29210.00
635.7240, 29153.00
636.8890, 29124.00
638.0530, 29320.00
639.2170, 29406.00
640.3810, 29332.00
641.5450, 29486.00
642.7080, 29668.00
643.8720, 29533.00
645.0350, 29631.00
646.1980, 29632.00
647.3610, 29733.00
648.5240, 29746.42
649.6870, 29873.00
650.8490, 29772.00
652.0120, 29800.00
653.1740, 29784.00
654.3360, 29739.00
655.4980, 29914.00
656.6600, 30068.00
657.8210, 30082.00
658.9830, 30127.00
660.1440, 30144.00
661.3050, 30180.23
662.4660, 30169.00
663.6270, 30222.00
664.7870, 30210.00
665.9480, 30166.00
667.1080, 30387.00
668.2680, 30454.00
669.4280, 30490.00
670.5880, 30428.00
671.7480, 30725.00
672.9070, 30614.00
674.0670, 30717.00
675.2260, 30712.00
676.3850, 30952.00
677.5440, 31199.00
678.7030, 30926.00
679.8610, 31158.00
681.0200, 31199.00
682.1780, 31426.00
683.3360, 31677.00
684.4940, 31554.00
685.6520, 31777.00
686.8090, 31942.00
687.9670, 32234.00
689.1240, 32309.00
690.2810, 32566.00
691.4380, 32904.00
692.5950, 33140.00
693.7520, 33605.00
694.9080, 34084.00
696.0650, 34134.00
697.2210, 34950.00
698.3770, 35241.00
699.5330, 35646.00
700.6880, 36467.00
701.8440, 37058.00
702.9990, 37886.00
704.1550, 38234.00
705.3100, 39132.00
706.4650, 39702.00
707.6190, 40255.00
708.7740, 40332.00
709.9290, 39926.00
711.0830, 39939.00
712.2370, 39268.00
713.3910, 38308.00
714.5450, 37771.00
715.6980, 36922.00
716.8520, 36256.00
718.0050, 35293.00
719.1580, 35038.00
720.3110, 34448.00
721.4640, 34150.00
722.6170, 33788.00
723.7700, 33505.00
724.9220, 33301.00
726.0740, 33049.00
727.2260, 32903.00
728.3780, 32753.00
729.5300, 32877.00
730.6810, 32586.00
731.8330, 32611.00
732.9840, 32347.00
734.1350, 32689.00
735.2860, 32583.00
736.4370, 32785.00
737.5880, 32643.00
738.7380, 32488.00
739.8880, 32349.00
741.0390, 32367.23
742.1890, 32755.00
743.3380, 32482.00
744.4880, 32710.00
745.6380, 32850.00
746.7870, 32772.00
747.9360, 32692.00
749.0850, 32905.00
750.2340, 32854.00
751.3830, 32852.00
752.5310, 32834.00
753.6800, 32996.00
754.8280, 32984.00
755.9760, 33044.00
757.1240, 32963.00
758.2720, 32959.00
759.4190, 32907.00
760.5670, 32937.54
761.7140, 33102.00
762.8610, 33005.00
764.0080, 33051.00
765.1550, 33046.00
766.3020, 32770.00
767.4480, 33124.00
768.5950, 32935.00
769.7410, 33008.00
770.8870, 33303.00
772.0330, 33116.00
773.1780, 33082.00
774.3240, 33149.00
775.4690, 33049.00
776.6140, 33573.00
777.7590, 33431.00
778.9040, 33498.00
780.0490, 33436.00
781.1940, 33405.00
782.3380, 33538.00
783.4820, 33416.00
784.6260, 33566.00
785.7700, 33463.00
786.9140, 33550.00
788.0580, 33670.00
789.2010, 33678.00
790.3450, 33718.00
791.4880, 33591.00
792.6310, 33774.00
793.7730, 33946.00
794.9160, 33582.00
796.0590, 33720.00
797.2010, 33778.00
798.3430, 33588.00
799.4850, 33854.00
800.6270, 33841.00
801.7690, 34001.00
802.9100, 33839.00
804.0520, 33847.00
805.1930, 33838.00
806.3340, 33705.00
807.4750, 33828.50
808.6160, 33918.00
809.7560, 34058.00
810.8970, 34026.00
812.0370, 34242.00
813.1770, 34130.00
814.3170, 34055.00
815.4570, 34002.00
816.5960, 34196.00
817.7360, 34194.00
818.8750, 34363.00
820.0140, 34399.00
821.1530, 34444.00
822.2920, 34355.00
823.4310, 34388.00
824.5690, 34388.00
825.7070, 34390.00
826.8460, 34428.70
827.9840, 34516.00
829.1220, 34572.00
830.2590, 34598.00
831.3970, 34833.00
832.5340, 34560.00
833.6710, 34871.00
834.8080, 34685.00
835.9450, 34627.00
837.0820, 34483.00
838.2190, 34922.00
839.3550, 34912.00
840.4910, 35119.00
841.6270, 35098.00
842.7630, 35175.00
843.8990, 35124.00
845.0350, 34907.00
846.1700, 35298.00
847.3060, 35423.00
848.4410, 35381.00
849.5760, 35103.00
850.7100, 35302.00
851.8450, 35168.00
852.9800, 35485.00
854.1140, 35357.00
855.2480, 35314.00
856.3820, 35387.00
857.5160, 35316.00
858.6500, 35565.00
859.7830, 35725.00
860.9170, 35719.00
862.0500, 35502.00
863.1830, 35775.00
864.3160, 35703.00
865.4480, 35875.00
866.5810, 35926.00
867.7130, 36042.00
868.8460, 36068.00
869.9780, 35870.00
871.1100, 36013.00
872.2410, 36129.00
873.3730, 35846.00
874.5050, 36046.00
875.6360, 36139.00
876.7670, 36145.00
877.8980, 36181.00
879.0290, 36132.00
880.1590, 36430.00
881.2900, 36390.00
882.4200, 36320.00
883.5500, 36222.00
884.6800, 36435.00
885.8100, 36569.00
886.9400, 36456.00
888.0690, 36631.00
889.1990, 36742.00
890.3280, 36555.00
891.4570, 36626.00
892.5860, 36563.00
893.7140, 36501.00
894.8430, 36861.00
895.9710, 36743.00
897.1000, 36797.00
898.2280, 36977.00
899.3560, 36745.00
900.4830, 37034.00
901.6110, 36914.00
902.7380, 37040.00
903.8660, 37068.00
904.9930, 37063.00
906.1200, 37019.00
907.2460, 37163.00
908.3730, 37131.00
909.5000, 37228.00
910.6260, 37516.00
911.7520, 37250.00
912.8780, 37193.00
914.0040, 37423.00
915.1290, 37439.00
916.2550, 37522.00
917.3800, 37606.00
918.5050, 37562.00
919.6300, 37551.00
920.7550, 37608.64
921.8800, 37577.00
923.0040, 37685.00
924.1290, 37760.00
925.2530, 37793.00
926.3770, 37824.00
927.5010, 37934.00
928.6250, 37795.00
929.7480, 38093.00
930.8720, 38054.00
931.9950, 37914.00
933.1180, 38035.00
934.2410, 38192.00
935.3640, 38265.00
936.4860, 38175.00
937.6090, 38309.00
938.7310, 38276.00
939.8530, 38299.00
940.9750, 38402.00
942.0970, 38400.00
943.2180, 38311.00
944.3400, 38427.00
945.4610, 38547.00
946.5820, 38446.00
947.7030, 38674.00
948.8240, 38646.38
949.9450, 38747.00
951.0650, 38680.00
952.1860, 38694.00
953.3060, 38654.00
954.4260, 38646.00
955.5460, 38890.00
956.6650, 38872.00
957.7850, 39077.00
958.9040, 39223.00
960.0230, 39047.00
961.1420, 39005.00
962.2610, 39436.00
963.3800, 39273.00
964.4990, 39150.00
965.6170, 39269.00
966.7350, 38993.00
967.8530, 39392.00
968.9710, 39309.00
970.0890, 39298.00
971.2070, 39347.00
972.3240, 39672.00
973.4410, 39595.00
974.5580, 39723.00
975.6750, 39671.00
976.7920, 39573.00
977.9090, 39527.00
979.0250, 39733.00
980.1410, 40011.00
981.2580, 39741.00
982.3740, 40079.00
983.4890, 40043.00
984.6050, 40017.00
985.7200, 40456.00
986.8360, 39998.00
987.9510, 40019.00
989.0660, 39964.00
990.1810, 40059.00
991.2950, 40243.00
992.4100, 40431.00
993.5240, 40512.00
994.6390, 40273.00
995.7530, 40443.00
996.8660, 40473.00
997.9800, 40411.00
999.0940, 40580.00
1000.207, 40630.00
1001.320, 40501.00
1002.433, 40776.00
1003.546, 40994.00
1004.659, 40720.00
1005.772, 40852.00
1006.884, 40932.00
1007.996, 41156.00
1009.108, 41051.00
1010.220, 40717.00
1011.332, 40879.00
1012.444, 41168.00
1013.555, 41179.00
1014.666, 41421.00
1015.777, 41363.00
1016.888, 41228.00
1017.999, 40961.00
1019.110, 41383.00
1020.220, 41547.00
1021.331, 41543.00
1022.441, 41356.00
1023.551, 41570.00
1024.661, 41249.00
1025.770, 41639.00
1026.880, 41588.00
1027.989, 41682.00
1029.098, 41641.00
1030.207, 41751.00
1031.316, 41529.00
1032.425, 41778.00
1033.533, 41708.00
1034.642, 41943.00
1035.750, 42031.00
1036.858, 41867.00
1037.966, 41979.00
1039.073, 41929.00
1040.181, 42120.00
1041.288, 42082.00
1042.396, 42231.00
1043.503, 42195.00
1044.610, 42029.00
1045.716, 42392.00
1046.823, 42114.00
1047.929, 42205.00
1049.036, 41977.00
1050.142, 42249.00
1051.248, 42365.00
1052.353, 42544.00
1053.459, 42503.00
1054.564, 42641.00
1055.670, 42726.26
1056.775, 43016.00
1057.880, 42828.00
1058.985, 42964.00
1060.089, 42833.00
1061.194, 42695.00
1062.298, 42987.00
1063.402, 43157.00
1064.506, 43445.00
1065.610, 43593.00
1066.713, 43535.00
1067.817, 43301.00
1068.920, 43434.00
1070.023, 43510.00
1071.126, 43416.00
1072.229, 43758.00
1073.332, 43650.00
1074.435, 43604.00
1075.537, 43862.00
1076.639, 43423.00
1077.741, 44015.00
1078.843, 43953.00
1079.945, 43995.00
1081.046, 43924.00
1082.148, 44015.00
1083.249, 44205.00
1084.350, 44050.00
1085.451, 44290.00
1086.551, 44166.00
1087.652, 44019.00
1088.752, 44279.00
1089.853, 44205.00
1090.953, 44482.00
1092.053, 44481.00
1093.152, 44258.00
1094.252, 44571.00
1095.351, 44524.00
1096.451, 44870.00
1097.550, 44548.00
1098.649, 44563.00
1099.748, 44428.00
1100.846, 44788.00
1101.945, 44846.00
1103.043, 44916.00
1104.141, 44979.00
1105.239, 45036.55
1106.337, 45099.96
1107.434, 45173.00
1108.532, 45183.00
1109.629, 45293.54
1110.726, 45264.00
1111.823, 45440.00
1112.920, 45311.00
1114.017, 45388.00
1115.113, 45344.00
1116.210, 45296.00
1117.306, 45408.00
1118.402, 45545.00
1119.498, 45452.00
1120.593, 45736.00
1121.689, 45726.00
1122.784, 45854.00
1123.879, 45790.00
1124.974, 45955.00
1126.069, 46190.00
1127.164, 45801.00
1128.259, 46201.00
1129.353, 46103.00
1130.447, 46104.00
1131.541, 46360.00
1132.635, 46073.00
1133.729, 46289.00
1134.822, 46040.00
1135.916, 46149.00
1137.009, 45864.00
1138.102, 46019.00
1139.195, 45741.00
1140.288, 46091.00
1141.380, 45838.00
1142.473, 45633.00
1143.565, 45648.00
1144.657, 45955.00
1145.749, 45845.00
1146.841, 45557.00
1147.932, 45873.00
1149.024, 45583.00
1150.115, 45796.00
1151.206, 45610.00
1152.297, 45853.00
1153.388, 45562.00
1154.479, 45933.00
1155.569, 45816.00
1156.659, 45923.00
1157.750, 46050.00
1158.839, 45907.00
1159.929, 46132.00
1161.019, 45997.00
1162.108, 45941.00
1163.198, 46106.00
1164.287, 46098.00
1165.376, 46230.00
1166.465, 46185.00
1167.553, 46094.00
1168.642, 46459.00
1169.730, 46363.00
1170.818, 46212.00
1171.906, 46554.00
1172.994, 46517.00
1174.082, 46414.00
1175.170, 46512.00
1176.257, 46716.00
1177.344, 46472.00
1178.431, 46646.00
1179.518, 46770.00
1180.605, 46639.00
1181.691, 46636.00
1182.778, 46627.00
1183.864, 46725.00
1184.950, 46988.00
1186.036, 46923.00
1187.122, 47003.88
1188.207, 47408.00
1189.292, 46931.00
1190.378, 46946.00
1191.463, 46792.00
1192.548, 47130.00
1193.632, 47117.00
1194.717, 47030.00
1195.801, 46979.00
1196.886, 47400.00
1197.970, 47444.00
1199.054, 47296.00
1200.137, 47247.00
1201.221, 47142.00
1202.305, 47351.00
1203.388, 47363.00
1204.471, 47332.00
1205.554, 47593.00
1206.637, 47698.00
1207.719, 47463.00
1208.802, 47706.00
1209.884, 47734.00
1210.966, 47657.00
1212.048, 47989.00
1213.130, 48033.00
1214.212, 47927.00
1215.293, 48087.00
1216.374, 47714.00
1217.456, 48128.00
1218.536, 47873.00
1219.617, 48023.00
1220.698, 47980.00
1221.778, 48078.00
1222.859, 48058.00
1223.939, 48193.00
1225.019, 48228.35
1226.099, 48435.00
1227.178, 48305.00
1228.258, 48546.00
1229.337, 48505.00
1230.417, 48340.00
1231.496, 48432.00
1232.574, 48471.00
1233.653, 48566.00
1234.732, 48579.00
1235.810, 48494.00
1236.888, 48442.00
1237.966, 48501.93
1239.044, 48567.23
1240.122, 48570.00
1241.199, 48852.00
1242.277, 48803.00
1243.354, 48972.00
1244.431, 48865.00
1245.508, 48934.00
1246.585, 49397.00
1247.661, 49363.00
1248.738, 48855.00
1249.814, 49285.00
1250.890, 49100.00
1251.966, 49135.00
1253.042, 49310.00
1254.117, 49202.00
1255.193, 49163.00
1256.268, 49132.00
1257.343, 49045.00
1258.418, 49234.00
1259.493, 49061.00
1260.567, 49197.00
1261.642, 49293.00
1262.716, 49208.00
1263.790, 49395.00
1264.864, 49433.00
1265.938, 49719.00
1267.011, 49605.00
1268.085, 49814.00
1269.158, 49653.00
1270.231, 49798.00
1271.304, 49590.00
1272.377, 49493.00
1273.450, 49617.00
1274.522, 49887.00
1275.594, 49871.00
1276.666, 49999.00
1277.738, 50045.00
1278.810, 49886.00
1279.882, 50156.00
1280.953, 50291.00
1282.025, 49995.00
1283.096, 50287.00
1284.167, 50305.00
1285.238, 50396.00
1286.308, 50405.00
1287.379, 50375.00
1288.449, 50282.00
1289.519, 50319.00
1290.589, 50599.00
1291.659, 50496.00
1292.729, 50598.00
1293.798, 50534.00
1294.868, 50620.00
1295.937, 50647.00
1297.006, 50688.75
1298.075, 50973.00
1299.143, 50871.00
1300.212, 50902.00
1301.280, 51105.00
1302.348, 51001.00
1303.416, 51036.00
1304.484, 51150.00
1305.552, 50876.00
1306.620, 51051.00
1307.687, 51251.00
1308.754, 51030.00
