##NAMES=Trilithionite
##RRUFFID=R040105
##IDEAL CHEMISTRY=KLi_1.5_Al_1.5_(Si_3_Al)O_10_F_2_
##LOCALITY=Brown Derby mine, Ohio City, Gunnison County, Colorado, USA
##OWNER=RRUFF
##SOURCE=University of Arizona Mineral Museum
##DESCRIPTION=Purple hexagonal tablet
##STATUS=The identification of this mineral has been confirmed by X-ray diffraction and chemical analysis
##URL=rruff.info/R040105
##MEASURED CHEMISTRY=(K_0.82_Li_0.14_Na_0.04_)(Li_0.53_Al_0.42_Mn_0.05_)_3_(Si_0.84_Al_0.17_)_4_O_10_((OH)_0.59_F_0.41_)_2_
##PIN_ID=L00700
##ORIENTATION=Laser parallel to (1 0 1). Fiducial mark perpendicular to laser is parallel to b [0 1 0]
62.17000, 17402.00
63.41600, 17090.00
64.66100, 16891.00
65.90700, 16696.00
67.15200, 16586.00
68.39700, 16520.00
69.64100, 16245.00
70.88600, 16431.00
72.13000, 16615.00
73.37400, 16354.00
74.61800, 16391.00
75.86200, 16696.00
77.10600, 16450.00
78.34900, 16752.00
79.59300, 16840.00
80.83600, 16802.00
82.07900, 16344.00
83.32100, 14992.00
84.56400, 14125.00
85.80600, 13503.00
87.04800, 13162.00
88.29000, 12361.00
89.53200, 11720.00
90.77400, 10877.00
92.01500, 10023.00
93.25700, 9393.000
94.49800, 9204.000
95.73900, 9010.000
96.98000, 8738.000
98.22000, 9399.000
99.46100, 10557.96
100.7010, 14007.00
101.9410, 13398.00
103.1810, 14713.00
104.4210, 15079.00
105.6600, 14971.00
106.9000, 14791.00
108.1390, 16267.00
109.3780, 19349.00
110.6170, 22221.00
111.8550, 24505.00
113.0940, 22290.00
114.3320, 25701.00
115.5700, 24815.00
116.8080, 25426.00
118.0460, 28429.00
119.2830, 31121.00
120.5210, 33029.00
121.7580, 35693.00
122.9950, 37729.00
124.2320, 39731.55
125.4690, 41857.97
126.7050, 43243.00
127.9410, 45239.00
129.1780, 46217.00
130.4140, 46862.00
131.6490, 46092.00
132.8850, 44922.00
134.1200, 43707.00
135.3560, 43843.00
136.5910, 44772.00
137.8260, 45180.00
139.0610, 45437.00
140.2950, 45395.00
141.5290, 45673.00
142.7640, 45980.00
143.9980, 45989.00
145.2320, 46041.00
146.4650, 46160.00
147.6990, 46782.00
148.9320, 47138.00
150.1650, 47301.00
151.3980, 47673.00
152.6310, 48037.00
153.8640, 48487.00
155.0960, 49675.00
156.3280, 50017.00
157.5600, 51441.00
158.7920, 52232.00
160.0240, 54230.00
161.2560, 56852.00
162.4870, 57830.00
163.7180, 59953.00
164.9490, 62916.00
166.1800, 66114.00
167.4110, 69544.00
168.6410, 73677.00
169.8720, 78145.00
171.1020, 82456.00
172.3320, 87365.00
173.5620, 92438.00
174.7910, 97257.00
176.0210, 102341.0
177.2500, 106346.0
178.4790, 109524.0
179.7080, 111863.0
180.9370, 113232.0
182.1650, 112625.0
183.3940, 111621.0
184.6220, 109357.0
185.8500, 106622.0
187.0780, 102705.0
188.3050, 98678.00
189.5330, 95638.00
190.7600, 92311.00
191.9870, 89181.00
193.2140, 86423.00
194.4410, 83836.00
195.6680, 81638.00
196.8940, 79764.00
198.1200, 77850.00
199.3470, 76586.00
200.5720, 75027.00
201.7980, 74483.00
203.0240, 73535.00
204.2490, 72547.00
205.4740, 72621.00
206.6990, 71711.00
207.9240, 71741.00
209.1490, 71508.00
210.3740, 71886.00
211.5980, 71939.00
212.8220, 71951.00
214.0460, 72574.00
215.2700, 73089.00
216.4930, 73448.00
217.7170, 74021.00
218.9400, 75021.00
220.1630, 76860.00
221.3860, 77153.00
222.6090, 79173.00
223.8320, 78614.00
225.0540, 79776.00
226.2760, 81232.00
227.4980, 82782.00
228.7200, 84540.00
229.9420, 85938.00
231.1630, 87790.00
232.3850, 89299.00
233.6060, 91428.00
234.8270, 93055.00
236.0480, 94718.00
237.2690, 96446.00
238.4890, 97960.00
239.7090, 99223.00
240.9290, 100350.2
242.1490, 101198.0
243.3690, 101968.0
244.5890, 102536.0
245.8080, 102865.0
247.0270, 102522.0
248.2470, 102610.0
249.4650, 102837.0
250.6840, 102007.0
251.9030, 102184.0
253.1210, 101894.0
254.3390, 101922.0
255.5570, 101774.0
256.7750, 101223.0
257.9930, 100833.0
259.2100, 100682.0
260.4280, 100092.0
261.6450, 99224.00
262.8620, 97748.00
264.0790, 95887.00
265.2950, 93472.00
266.5120, 90369.00
267.7280, 87692.00
268.9440, 83725.00
270.1600, 81057.00
271.3760, 77813.00
272.5920, 74769.00
273.8070, 71964.00
275.0220, 69691.00
276.2370, 67077.00
277.4520, 65384.00
278.6670, 63135.00
279.8820, 61431.00
281.0960, 59944.00
282.3100, 58949.00
283.5240, 57517.00
284.7380, 57040.00
285.9520, 55862.60
287.1650, 55731.00
288.3780, 54043.00
289.5920, 53657.00
290.8050, 52912.00
292.0170, 52397.00
293.2300, 52300.00
294.4430, 51590.00
295.6550, 51317.00
296.8670, 50650.00
298.0790, 50467.00
299.2910, 50183.00
300.5020, 49577.00
301.7140, 49409.00
302.9250, 49010.00
304.1360, 48825.00
305.3470, 48506.40
306.5580, 48228.00
307.7680, 47887.00
308.9780, 47707.00
310.1890, 47393.00
311.3990, 47073.78
312.6090, 46787.00
313.8180, 46408.00
315.0280, 46168.59
316.2370, 45903.66
317.4460, 45661.00
318.6550, 45479.00
319.8640, 45244.00
321.0730, 45105.00
322.2810, 45029.00
323.4890, 44800.00
324.6980, 44389.00
325.9060, 44486.00
327.1130, 44332.00
328.3210, 44410.00
329.5280, 44071.48
330.7360, 43856.17
331.9430, 43464.00
333.1500, 43356.00
334.3560, 43313.00
335.5630, 43426.00
336.7690, 42968.00
337.9760, 42921.00
339.1820, 42885.00
340.3870, 43020.00
341.5930, 43092.00
342.7990, 42758.00
344.0040, 42583.00
345.2090, 42818.00
346.4140, 42775.00
347.6190, 42940.00
348.8240, 42824.00
350.0280, 42706.00
351.2330, 42845.02
352.4370, 42748.00
353.6410, 42931.00
354.8440, 42893.00
356.0480, 42781.00
357.2520, 42652.00
358.4550, 42785.00
359.6580, 42978.00
360.8610, 43153.00
362.0640, 43203.00
363.2660, 43503.00
364.4690, 43956.00
365.6710, 43930.00
366.8730, 44056.00
368.0750, 44539.00
369.2770, 44704.00
370.4780, 45106.00
371.6800, 45145.00
372.8810, 45632.00
374.0820, 45830.00
375.2830, 46319.00
376.4830, 46657.00
377.6840, 47184.00
378.8840, 47835.00
380.0840, 47491.00
381.2840, 48263.00
382.4840, 48764.00
383.6840, 49474.00
384.8830, 50001.80
386.0830, 50629.00
387.2820, 51208.16
388.4810, 51842.00
389.6800, 52340.22
390.8780, 52814.00
392.0770, 53391.00
393.2750, 53815.00
394.4730, 54697.00
395.6710, 55056.00
396.8690, 55782.00
398.0660, 56138.00
399.2640, 56843.00
400.4610, 57266.00
401.6580, 57527.00
402.8550, 57547.00
404.0520, 57945.58
405.2490, 58421.00
406.4450, 58200.00
407.6410, 58123.00
408.8370, 57597.00
410.0330, 57227.00
411.2290, 56641.00
412.4240, 55814.00
413.6200, 54835.00
414.8150, 54059.00
416.0100, 53222.84
417.2050, 52500.00
418.4000, 51680.00
419.5940, 50962.00
420.7880, 50292.00
421.9830, 49957.26
423.1770, 49613.00
424.3700, 49510.00
425.5640, 49445.00
426.7580, 49282.00
427.9510, 49631.00
429.1440, 49525.00
430.3370, 49949.00
431.5300, 50172.00
432.7220, 50453.00
433.9150, 50791.00
435.1070, 51421.00
436.2990, 51652.58
437.4910, 51967.00
438.6830, 52455.00
439.8750, 52585.00
441.0660, 53208.00
442.2570, 53117.00
443.4480, 53535.00
444.6390, 54018.00
445.8300, 54215.00
447.0210, 53831.00
448.2110, 54342.00
449.4010, 54163.00
450.5910, 54583.00
451.7810, 54561.00
452.9710, 54547.00
454.1610, 54391.00
455.3500, 54217.72
456.5390, 54047.72
457.7280, 53686.00
458.9170, 53579.00
460.1060, 53228.00
461.2940, 52945.00
462.4830, 52986.00
463.6710, 52748.00
464.8590, 52416.00
466.0470, 52375.00
467.2350, 52336.00
468.4220, 52339.00
469.6090, 52387.37
470.7970, 52617.00
471.9840, 52527.00
473.1700, 52558.00
474.3570, 52599.00
475.5440, 52474.00
476.7300, 52443.00
477.9160, 52241.00
479.1020, 51557.00
480.2880, 51505.00
481.4740, 50703.00
482.6590, 50324.00
483.8440, 49576.00
485.0300, 49107.00
486.2140, 48745.00
487.3990, 48156.00
488.5840, 47737.00
489.7680, 47101.00
490.9530, 47219.00
492.1370, 46817.00
493.3210, 46607.00
494.5040, 46649.98
495.6880, 46390.22
496.8720, 46593.00
498.0550, 46185.00
499.2380, 46013.00
500.4210, 45930.00
501.6040, 46121.00
502.7860, 46169.00
503.9690, 46253.00
505.1510, 46623.00
506.3330, 46719.00
507.5150, 46735.00
508.6970, 46952.00
509.8780, 46867.00
511.0600, 47349.00
512.2410, 47550.00
513.4220, 47298.00
514.6030, 47939.00
515.7840, 48280.00
516.9640, 48666.00
518.1440, 48844.00
519.3250, 49035.00
520.5050, 49105.00
521.6850, 49323.00
522.8640, 49176.00
524.0440, 49386.00
525.2230, 49672.00
526.4020, 50199.00
527.5820, 49978.00
528.7600, 50177.00
529.9390, 50274.00
531.1180, 50192.00
532.2960, 50547.00
533.4740, 50496.00
534.6520, 50761.46
535.8300, 50986.00
537.0080, 51280.00
538.1850, 51603.00
539.3630, 51910.00
540.5400, 52536.00
541.7170, 52527.00
542.8940, 53446.00
544.0700, 55368.00
545.2470, 55718.00
546.4230, 56055.00
547.5990, 57317.00
548.7750, 57260.00
549.9510, 58408.00
551.1270, 59731.00
552.3020, 60974.00
553.4780, 62089.00
554.6530, 63367.00
555.8280, 64518.00
557.0030, 65867.00
558.1770, 66810.23
559.3520, 68201.01
560.5260, 69171.13
561.7000, 69726.74
562.8740, 69602.80
564.0480, 69609.36
565.2220, 69106.95
566.3950, 68271.80
567.5680, 67365.93
568.7420, 65663.87
569.9150, 64728.00
571.0870, 63275.00
572.2600, 62000.00
573.4320, 60766.00
574.6050, 59517.00
575.7770, 58270.00
576.9490, 57265.00
578.1210, 56399.00
579.2920, 55555.00
580.4640, 54885.00
581.6350, 54508.00
582.8060, 54029.00
583.9770, 53691.00
585.1480, 53563.00
586.3190, 53394.00
587.4890, 53316.00
588.6590, 53060.91
589.8290, 53186.06
590.9990, 53217.69
592.1690, 53160.84
593.3390, 52750.48
594.5080, 52796.69
595.6770, 52659.95
596.8470, 52674.00
598.0160, 52595.00
599.1840, 52594.00
600.3530, 53016.00
601.5210, 53111.00
602.6900, 53441.00
603.8580, 53680.00
605.0260, 53314.00
606.1930, 53454.00
607.3610, 53504.00
608.5280, 53653.00
609.6960, 53816.03
610.8630, 54325.00
612.0300, 54273.00
613.1970, 54445.00
614.3630, 54863.00
615.5300, 54884.00
616.6960, 55945.00
617.8620, 56284.00
619.0280, 56851.00
620.1940, 56959.00
621.3590, 57951.00
622.5250, 58956.00
623.6900, 59535.00
624.8550, 61149.00
626.0200, 61746.00
627.1850, 61967.00
628.3490, 61439.00
629.5140, 60392.00
630.6780, 59148.00
631.8420, 58320.00
633.0060, 57210.00
634.1700, 56401.00
635.3330, 56094.00
636.4970, 55938.00
637.6600, 55779.00
638.8230, 56001.00
639.9860, 56577.00
641.1490, 57030.63
642.3110, 57595.00
643.4740, 58492.00
644.6360, 59024.00
645.7980, 59693.00
646.9600, 60483.00
648.1220, 60681.00
649.2840, 60858.00
650.4450, 61262.00
651.6060, 61300.00
652.7670, 61258.00
653.9280, 60926.00
655.0890, 60831.00
656.2500, 60794.00
657.4100, 59962.00
658.5700, 59497.00
659.7300, 59045.00
660.8900, 58668.00
662.0500, 58732.00
663.2100, 58472.00
664.3690, 58108.00
665.5280, 58182.00
666.6880, 57826.00
667.8460, 58171.00
669.0050, 58543.00
670.1640, 58812.00
671.3220, 59727.00
672.4810, 59867.00
673.6390, 60337.00
674.7970, 61366.00
675.9540, 61512.00
677.1120, 62508.00
678.2690, 63424.00
679.4270, 64850.00
680.5840, 66003.00
681.7410, 67343.00
682.8980, 69101.00
684.0540, 70643.00
685.2110, 73113.00
686.3670, 74951.00
687.5230, 77714.00
688.6790, 80571.00
689.8350, 83703.00
690.9900, 88009.00
692.1460, 92290.32
693.3010, 97709.24
694.4560, 103480.0
695.6110, 110780.0
696.7660, 119322.0
697.9210, 128618.0
699.0750, 139076.0
700.2290, 151546.0
701.3840, 164466.0
702.5370, 179256.0
703.6910, 193136.0
704.8450, 206677.0
705.9980, 218404.0
707.1520, 226816.0
708.3050, 231113.0
709.4580, 231031.0
710.6110, 224574.0
711.7630, 212405.0
712.9160, 198203.0
714.0680, 180577.0
715.2200, 163205.0
716.3720, 146660.0
717.5240, 132396.0
718.6760, 119167.0
719.8270, 107855.0
720.9780, 98950.00
722.1300, 91777.00
723.2810, 85301.00
724.4310, 80651.00
725.5820, 76340.00
726.7330, 72715.00
727.8830, 70522.00
729.0330, 67647.00
730.1830, 65604.00
731.3330, 63776.00
732.4830, 62645.00
733.6320, 61630.00
734.7810, 60588.00
735.9310, 59547.00
737.0800, 59094.00
738.2290, 58417.00
739.3770, 57749.00
740.5260, 57508.00
741.6740, 57281.00
742.8220, 57337.00
743.9700, 57207.00
745.1180, 57293.00
746.2660, 57186.00
747.4130, 57575.00
748.5610, 57634.00
749.7080, 57749.00
750.8550, 57573.00
752.0020, 57689.00
753.1490, 58662.00
754.2950, 57803.00
755.4420, 58350.00
756.5880, 56828.00
757.7340, 57905.00
758.8800, 56384.00
760.0250, 55821.00
761.1710, 55228.00
762.3160, 55103.00
763.4620, 54490.00
764.6070, 53905.00
765.7520, 53528.00
766.8960, 53100.00
768.0410, 52729.00
769.1850, 52683.00
770.3300, 52087.00
771.4740, 52134.00
772.6180, 52189.00
773.7610, 52515.00
774.9050, 52533.00
776.0480, 52337.00
777.1920, 52943.00
778.3350, 53056.00
779.4780, 53827.00
780.6200, 53990.00
781.7630, 54299.00
782.9060, 54346.00
784.0480, 54562.00
785.1900, 54080.00
786.3320, 53736.00
787.4740, 53474.00
788.6150, 53132.00
789.7570, 52736.00
790.8980, 52619.00
792.0390, 52204.00
793.1800, 52040.00
794.3210, 51815.00
795.4620, 51371.00
796.6020, 51189.27
797.7420, 50801.00
798.8830, 50550.00
800.0230, 50079.00
801.1620, 49563.00
802.3020, 49261.00
803.4420, 49152.00
804.5810, 48770.00
805.7200, 48722.00
806.8590, 48571.00
807.9980, 48742.00
809.1370, 48400.00
810.2750, 48393.00
811.4140, 48094.00
812.5520, 48110.00
813.6900, 48083.66
814.8280, 48075.99
815.9650, 48228.00
817.1030, 48282.00
818.2400, 48548.00
819.3780, 48771.00
820.5150, 48632.00
821.6520, 48685.00
822.7880, 48595.00
823.9250, 49139.00
825.0610, 49181.00
826.1980, 49387.00
827.3340, 49394.00
828.4700, 49558.86
829.6050, 49633.97
830.7410, 49891.00
831.8760, 49905.00
833.0120, 50169.00
834.1470, 50576.00
835.2820, 50684.00
836.4160, 51009.84
837.5510, 51217.00
838.6860, 51529.00
839.8200, 52097.00
840.9540, 52413.00
842.0880, 52622.00
843.2220, 52750.00
844.3550, 52667.00
845.4890, 53391.00
846.6220, 53264.00
847.7550, 53741.00
848.8880, 53749.00
850.0210, 53444.00
851.1540, 53787.00
852.2860, 53938.00
853.4190, 54367.00
854.5510, 54786.00
855.6830, 55323.00
856.8150, 56085.00
857.9460, 56877.92
859.0780, 57569.93
860.2090, 58292.00
861.3410, 58702.00
862.4720, 58332.00
863.6020, 57930.00
864.7330, 57200.00
865.8640, 56436.00
866.9940, 55533.00
868.1240, 54683.00
869.2540, 54465.00
870.3840, 53771.00
871.5140, 53469.00
872.6440, 53069.00
873.7730, 53387.00
874.9020, 53113.00
876.0320, 52917.00
877.1600, 52958.00
878.2890, 52940.00
879.4180, 52653.00
880.5460, 52774.00
881.6750, 52950.00
882.8030, 52673.00
883.9310, 52885.00
885.0590, 52653.00
886.1860, 52473.00
887.3140, 52623.00
888.4410, 52642.00
889.5680, 52620.00
890.6950, 52634.00
891.8220, 52816.00
892.9490, 52851.00
894.0750, 53002.00
895.2020, 53160.00
896.3280, 53237.00
897.4540, 53301.00
898.5800, 53331.80
899.7050, 53194.00
900.8310, 53275.00
901.9560, 53230.00
903.0820, 53106.00
904.2070, 52823.00
905.3320, 53135.00
906.4560, 53359.00
907.5810, 53390.00
908.7050, 52836.00
909.8300, 52547.00
910.9540, 52962.00
912.0780, 52924.00
913.2010, 52946.00
914.3250, 52862.00
915.4480, 52398.00
916.5720, 52220.00
917.6950, 51923.00
918.8180, 52038.00
919.9410, 51732.00
921.0630, 51896.00
922.1860, 51551.00
923.3080, 51617.00
924.4300, 51645.00
925.5520, 51433.00
926.6740, 51833.00
927.7960, 51945.00
928.9170, 52152.00
930.0390, 51747.00
931.1600, 51851.00
932.2810, 52038.00
933.4020, 52094.00
934.5230, 52067.00
935.6430, 52207.00
936.7640, 52195.00
937.8840, 51868.00
939.0040, 51967.00
940.1240, 51875.30
941.2440, 51767.00
942.3630, 51912.00
943.4830, 51872.00
944.6020, 52006.00
945.7210, 52127.12
946.8400, 52231.00
947.9590, 52405.00
949.0770, 52476.00
950.1960, 52586.00
951.3140, 52556.00
952.4320, 52920.00
953.5500, 53175.00
954.6680, 53295.00
955.7860, 53695.00
956.9030, 53369.00
958.0210, 53478.00
959.1380, 53602.00
960.2550, 53580.84
961.3720, 53720.00
962.4890, 53897.00
963.6050, 54100.00
964.7220, 54459.00
965.8380, 54681.00
966.9540, 54825.00
968.0700, 54687.00
969.1860, 55173.00
970.3010, 55107.00
971.4170, 55355.00
972.5320, 55501.45
973.6470, 55720.00
974.7620, 55723.00
975.8770, 55755.38
976.9910, 55549.00
978.1060, 55643.00
979.2200, 55680.00
980.3340, 55591.00
981.4480, 55972.00
982.5620, 55765.00
983.6760, 56727.00
984.7890, 57041.00
985.9030, 57454.00
987.0160, 57743.00
988.1290, 58018.00
989.2420, 58304.30
990.3550, 58759.00
991.4670, 58882.00
992.5800, 59556.00
993.6920, 60093.00
994.8040, 61434.00
995.9160, 62619.00
997.0280, 63972.00
998.1390, 66139.00
999.2510, 68374.00
1000.362, 72013.00
1001.473, 75535.00
1002.584, 78570.00
1003.695, 78478.00
1004.805, 74673.00
1005.916, 69885.00
1007.026, 66081.00
1008.136, 63855.00
1009.246, 62306.00
1010.356, 61295.00
1011.466, 60570.00
1012.576, 60160.00
1013.685, 59703.00
1014.794, 59407.00
1015.903, 59380.00
1017.012, 59632.00
1018.121, 59992.00
1019.229, 60576.00
1020.338, 61124.00
1021.446, 61370.41
1022.554, 61618.83
1023.662, 61775.00
1024.770, 61702.00
1025.878, 61607.00
1026.985, 61439.00
1028.092, 61342.00
1029.200, 61138.00
1030.307, 60799.00
1031.413, 60743.00
1032.520, 60638.00
1033.627, 60027.00
1034.733, 59657.00
1035.839, 59739.00
1036.945, 59646.00
1038.051, 59093.00
1039.157, 59107.00
1040.262, 59127.00
1041.368, 59338.00
1042.473, 58997.00
1043.578, 59239.00
1044.683, 59638.00
1045.788, 59618.00
1046.893, 60209.00
1047.997, 60404.00
1049.101, 60523.00
1050.205, 61070.00
1051.309, 61096.00
1052.413, 61450.00
1053.517, 61657.00
1054.621, 61733.00
1055.724, 62001.87
1056.827, 62189.02
1057.930, 62401.00
1059.033, 62728.00
1060.136, 63027.00
1061.238, 63476.00
1062.341, 63760.43
1063.443, 64246.00
1064.545, 64453.00
1065.647, 64921.00
1066.749, 65354.00
1067.850, 65824.02
1068.952, 66371.00
1070.053, 66917.00
1071.154, 67548.00
1072.255, 68111.00
1073.356, 68751.00
1074.457, 69366.00
1075.557, 69802.00
1076.658, 70384.00
1077.758, 70975.00
1078.858, 72277.00
1079.958, 72300.00
1081.057, 73652.00
1082.157, 73591.00
1083.256, 74541.00
1084.356, 74348.00
1085.455, 74889.00
1086.554, 74360.00
1087.653, 74163.00
1088.751, 73962.00
1089.850, 73360.00
1090.948, 73686.00
1092.046, 73527.00
1093.144, 73475.00
1094.242, 73821.00
1095.340, 73644.00
1096.437, 73266.00
1097.534, 73661.00
1098.632, 73262.00
1099.729, 73784.00
1100.826, 73860.00
1101.922, 74290.00
1103.019, 74090.00
1104.115, 74799.00
1105.212, 75020.00
1106.308, 75310.00
1107.404, 75733.00
1108.499, 76418.00
1109.595, 76546.00
1110.691, 77254.00
1111.786, 77066.00
1112.881, 77586.00
1113.976, 77980.00
1115.071, 77799.00
1116.166, 78582.00
1117.260, 78780.00
1118.355, 79590.00
1119.449, 79953.00
1120.543, 80464.00
1121.637, 80635.00
1122.731, 80962.00
1123.824, 81346.00
1124.918, 81957.00
1126.011, 82404.00
1127.104, 82555.00
1128.197, 82773.00
1129.290, 82659.00
1130.382, 82300.85
1131.475, 81746.26
1132.567, 80932.00
1133.659, 79809.00
1134.751, 78420.00
1135.843, 76729.00
1136.935, 74759.00
1138.027, 73009.00
1139.118, 70468.00
1140.209, 68402.00
1141.300, 66586.00
1142.391, 64203.00
1143.482, 63171.00
1144.573, 61963.00
1145.663, 60287.00
1146.754, 59492.00
1147.844, 58709.00
1148.934, 58598.00
1150.024, 58324.00
1151.113, 57949.00
1152.203, 57634.00
1153.292, 57363.00
1154.381, 57623.00
1155.470, 57395.00
1156.559, 57436.00
1157.648, 57877.00
1158.737, 57130.00
1159.825, 57536.00
1160.913, 57405.00
1162.001, 56745.00
1163.089, 57069.00
1164.177, 57072.00
1165.265, 57358.00
1166.352, 57414.84
1167.440, 57236.35
1168.527, 57413.10
1169.614, 57501.36
1170.701, 57236.10
1171.788, 57427.33
1172.874, 57435.57
1173.961, 57436.37
1175.047, 57691.80
1176.133, 57477.91
1177.219, 57729.30
1178.305, 57794.96
1179.390, 57945.57
1180.476, 57912.17
1181.561, 57935.57
1182.646, 57841.00
1183.731, 58028.00
1184.816, 57902.00
1185.901, 57829.00
1186.985, 58083.00
1188.070, 58404.00
1189.154, 58562.00
1190.238, 58028.00
1191.322, 58641.00
1192.406, 57995.00
1193.489, 58299.00
1194.573, 57906.00
1195.656, 57368.00
1196.739, 57913.00
1197.822, 57177.00
1198.905, 57934.00
1199.988, 57779.00
1201.070, 57807.00
1202.153, 57911.00
1203.235, 57565.00
1204.317, 57626.00
1205.399, 57544.00
1206.481, 57195.00
1207.562, 57557.00
1208.644, 57064.00
1209.725, 57357.00
1210.806, 57498.00
1211.887, 57518.00
1212.968, 57751.00
1214.049, 57967.00
1215.129, 58003.00
1216.209, 58054.00
1217.290, 58119.23
1218.370, 58095.77
1219.450, 58087.00
1220.529, 58235.00
1221.609, 58099.00
1222.688, 58554.00
1223.768, 58353.00
1224.847, 58263.00
1225.926, 58667.00
1227.005, 58736.00
1228.083, 59167.00
1229.162, 58969.00
1230.240, 59253.00
1231.318, 59440.00
1232.396, 59552.00
1233.474, 59693.00
1234.552, 60036.00
1235.629, 60117.00
1236.707, 60443.00
1237.784, 60663.00
1238.861, 60655.78
1239.938, 60333.00
1241.015, 60503.00
1242.092, 60388.00
