##NAMES=Trilithionite
##RRUFFID=R040105
##IDEAL CHEMISTRY=KLi_1.5_Al_1.5_(Si_3_Al)O_10_F_2_
##LOCALITY=Brown Derby mine, Ohio City, Gunnison County, Colorado, USA
##OWNER=RRUFF
##SOURCE=University of Arizona Mineral Museum
##DESCRIPTION=Purple hexagonal tablet
##STATUS=The identification of this mineral has been confirmed by X-ray diffraction and chemical analysis
##URL=rruff.info/R040105
##MEASURED CHEMISTRY=(K_0.82_Li_0.14_Na_0.04_)(Li_0.53_Al_0.42_Mn_0.05_)_3_(Si_0.84_Al_0.17_)_4_O_10_((OH)_0.59_F_0.41_)_2_
##PIN_ID=L01598
##ORIENTATION=Laser parallel to c* (0 0 1). Fiducial mark perpendicular to laser is parallel to -a [-1 0 0]
151.3210, 19016.00
152.5490, 19087.00
153.7750, 19118.00
155.0020, 18996.00
156.2290, 19057.00
157.4550, 18992.00
158.6810, 18923.00
159.9080, 18943.00
161.1340, 19162.00
162.3590, 19154.00
163.5850, 19342.00
164.8110, 19540.00
166.0360, 19614.00
167.2610, 19944.00
168.4860, 20098.00
169.7110, 20445.00
170.9360, 20403.00
172.1610, 20589.00
173.3850, 20968.00
174.6100, 21194.00
175.8340, 21589.00
177.0580, 21833.00
178.2820, 21758.00
179.5050, 21852.00
180.7290, 21962.00
181.9520, 21743.00
183.1760, 21657.00
184.3990, 21396.00
185.6220, 21314.00
186.8450, 21142.00
188.0670, 20797.00
189.2900, 20653.00
190.5120, 20481.00
191.7340, 20495.00
192.9560, 20352.00
194.1780, 20270.00
195.4000, 20254.00
196.6220, 20105.00
197.8430, 20158.00
199.0640, 19921.00
200.2860, 20014.00
201.5070, 19993.00
202.7270, 20024.00
203.9480, 20017.00
205.1690, 19917.00
206.3890, 19460.00
207.6090, 19455.00
208.8290, 19291.00
210.0490, 19210.00
211.2690, 19272.00
212.4890, 19418.00
213.7080, 19382.00
214.9280, 19570.00
216.1470, 19582.00
217.3660, 19452.00
218.5850, 19493.00
219.8030, 19684.00
221.0220, 19474.00
222.2400, 19630.00
223.4590, 19512.00
224.6770, 19869.00
225.8950, 19765.00
227.1120, 20055.00
228.3300, 20070.00
229.5480, 20255.00
230.7650, 20429.00
231.9820, 20410.00
233.1990, 20683.00
234.4160, 20875.00
235.6330, 21026.00
236.8490, 21282.00
238.0660, 21587.00
239.2820, 21621.00
240.4980, 22090.00
241.7140, 22154.00
242.9300, 22550.00
244.1460, 22776.00
245.3610, 22857.00
246.5770, 23302.00
247.7920, 23703.00
249.0070, 24168.00
250.2220, 24484.00
251.4370, 24850.00
252.6510, 25041.00
253.8660, 25475.00
255.0800, 25848.00
256.2940, 26236.00
257.5080, 26750.00
258.7220, 26961.00
259.9360, 27508.00
261.1490, 27935.00
262.3630, 27644.00
263.5760, 27286.00
264.7890, 26856.00
266.0020, 26235.00
267.2150, 25639.00
268.4270, 24919.00
269.6400, 24086.00
270.8520, 23791.00
272.0640, 23024.00
273.2760, 22598.00
274.4880, 22460.00
275.7000, 22067.00
276.9120, 21724.00
278.1230, 21556.00
279.3340, 21237.00
280.5450, 20872.00
281.7560, 20771.00
282.9670, 20705.00
284.1780, 20615.00
285.3880, 20394.00
286.5980, 20236.00
287.8090, 20126.00
289.0190, 20204.00
290.2290, 20227.00
291.4380, 20101.00
292.6480, 19990.00
293.8570, 19893.00
295.0670, 20172.00
296.2760, 20079.00
297.4850, 19895.00
298.6930, 19994.00
299.9020, 19826.00
301.1110, 20006.00
302.3190, 19881.00
303.5270, 20005.00
304.7350, 19903.00
305.9430, 19782.00
307.1510, 19766.40
308.3580, 19707.17
309.5660, 19644.00
310.7730, 19612.00
311.9800, 19666.00
313.1870, 19501.00
314.3940, 19501.00
315.6010, 19515.00
316.8070, 19297.00
318.0130, 19350.00
319.2200, 19402.00
320.4260, 19155.00
321.6310, 19273.00
322.8370, 19203.00
324.0430, 19082.00
325.2480, 19123.00
326.4540, 19152.00
327.6590, 19143.00
328.8640, 18977.00
330.0680, 19007.00
331.2730, 18861.00
332.4780, 19117.00
333.6820, 18846.00
334.8860, 18964.00
336.0900, 18805.00
337.2940, 18959.00
338.4980, 18851.00
339.7010, 18701.00
340.9050, 18712.00
342.1080, 18642.00
343.3110, 18747.00
344.5140, 18717.00
345.7170, 18870.00
346.9200, 18706.00
348.1220, 18882.00
349.3240, 18828.00
350.5270, 18946.00
351.7290, 18924.00
352.9310, 19050.00
354.1320, 19052.69
355.3340, 19008.00
356.5350, 19063.00
357.7370, 19117.00
358.9380, 19088.00
360.1390, 18897.00
361.3400, 19231.00
362.5400, 19268.00
363.7410, 19165.00
364.9410, 19541.00
366.1410, 19490.00
367.3410, 19534.00
368.5410, 19788.00
369.7410, 19666.00
370.9400, 19841.00
372.1400, 19914.00
373.3390, 19957.00
374.5380, 19968.00
375.7370, 20042.00
376.9360, 20115.00
378.1350, 20358.00
379.3330, 20321.00
380.5310, 20386.00
381.7300, 20745.00
382.9280, 20651.00
384.1260, 20871.00
385.3230, 20819.00
386.5210, 21084.00
387.7180, 21176.00
388.9160, 21453.00
390.1130, 21428.00
391.3100, 21543.00
392.5060, 21766.00
393.7030, 22053.00
394.9000, 22262.00
396.0960, 22420.63
397.2920, 22508.00
398.4880, 22580.00
399.6840, 22817.00
400.8800, 22669.00
402.0750, 23179.00
403.2710, 23185.00
404.4660, 23180.00
405.6610, 23341.00
406.8560, 23240.00
408.0510, 23204.71
409.2450, 22801.00
410.4400, 22944.00
411.6340, 22746.00
412.8280, 22485.00
414.0220, 22617.00
415.2160, 22011.00
416.4100, 21913.00
417.6030, 21917.00
418.7970, 21620.00
419.9900, 21815.00
421.1830, 21330.00
422.3760, 21521.00
423.5690, 21163.00
424.7610, 21352.00
425.9540, 21628.00
427.1460, 21325.00
428.3380, 21396.00
429.5300, 21483.00
430.7220, 21609.00
431.9140, 21604.00
433.1050, 21750.00
434.2970, 21794.33
435.4880, 21844.00
436.6790, 21894.00
437.8700, 21858.00
439.0610, 21844.00
440.2510, 21982.00
441.4420, 22095.00
442.6320, 22120.00
443.8220, 22037.00
445.0120, 22086.00
446.2020, 22068.00
447.3910, 22062.83
448.5810, 22118.00
449.7700, 22102.00
450.9600, 22030.00
452.1490, 22096.00
453.3370, 21795.00
454.5260, 21895.00
455.7150, 21851.00
456.9030, 21884.00
458.0910, 21873.00
459.2800, 21777.00
460.4670, 22002.00
461.6550, 21775.00
462.8430, 22007.00
464.0300, 21823.00
465.2180, 21777.00
466.4050, 21964.00
467.5920, 21891.00
468.7790, 22080.00
469.9650, 22077.00
471.1520, 22069.00
472.3380, 22047.00
473.5250, 22144.00
474.7110, 22179.00
475.8970, 22183.00
477.0820, 22153.00
478.2680, 22137.00
479.4540, 21977.00
480.6390, 21870.00
481.8240, 21859.00
483.0090, 21511.00
484.1940, 21753.00
485.3780, 21359.00
486.5630, 21356.00
487.7470, 20972.00
488.9320, 20951.00
490.1160, 20851.00
491.3000, 20874.00
492.4830, 20826.00
493.6670, 20771.00
494.8500, 20625.00
496.0340, 20653.29
497.2170, 20833.00
498.4000, 20721.00
499.5820, 20727.00
500.7650, 20894.00
501.9480, 20600.00
503.1300, 20535.00
504.3120, 20542.00
505.4940, 20716.00
506.6760, 20917.00
507.8580, 20887.00
509.0390, 20984.00
510.2210, 20822.00
511.4020, 20925.00
512.5830, 20928.00
513.7640, 21107.00
514.9450, 20998.00
516.1250, 21093.00
517.3060, 21055.00
518.4860, 21154.00
519.6660, 21114.00
520.8460, 21293.00
522.0260, 21172.00
523.2060, 21069.00
524.3850, 21414.00
525.5650, 21555.00
526.7440, 21552.00
527.9230, 21617.00
529.1020, 21838.00
530.2810, 21892.00
531.4590, 21895.00
532.6380, 21869.00
533.8160, 22134.00
534.9940, 22085.00
536.1720, 22226.00
537.3500, 22337.00
538.5270, 22519.00
539.7050, 22757.00
540.8820, 22913.00
542.0590, 23036.43
543.2360, 23101.00
544.4130, 23253.00
545.5900, 23297.00
546.7660, 23448.00
547.9430, 23401.00
549.1190, 23661.00
550.2950, 23818.00
551.4710, 24088.00
552.6470, 24118.00
553.8220, 24288.00
554.9980, 24368.00
556.1730, 24535.10
557.3480, 24914.00
558.5230, 24975.00
559.6980, 25006.00
560.8730, 25384.00
562.0470, 25041.00
563.2220, 25194.00
564.3960, 25157.00
565.5700, 25005.00
566.7440, 24888.00
567.9170, 24895.00
569.0910, 24537.00
570.2640, 24467.00
571.4380, 24083.00
572.6110, 24059.00
573.7840, 23788.00
574.9570, 23494.00
576.1290, 23391.00
577.3020, 23283.00
578.4740, 22963.00
579.6460, 22886.00
580.8180, 22889.00
581.9900, 22634.00
583.1620, 22731.00
584.3330, 22645.00
585.5040, 22459.00
586.6760, 22496.00
587.8470, 22633.00
589.0180, 22545.00
590.1880, 22641.00
591.3590, 22569.00
592.5290, 22566.73
593.7000, 22539.00
594.8700, 22588.00
596.0400, 22564.00
597.2090, 22686.00
598.3790, 22677.00
599.5490, 22840.00
600.7180, 22607.00
601.8870, 22824.00
603.0560, 22853.00
604.2250, 22852.00
605.3940, 22951.00
606.5620, 23139.00
607.7300, 22906.00
608.8990, 23008.00
610.0670, 22938.00
611.2350, 23154.00
612.4020, 23160.00
613.5700, 22991.00
614.7370, 23023.00
615.9050, 23245.00
617.0720, 23253.00
618.2390, 23239.98
619.4060, 23147.00
620.5720, 23119.00
621.7390, 23268.00
622.9050, 23217.00
624.0710, 23368.00
625.2370, 23436.00
626.4030, 23279.00
627.5690, 23449.00
628.7340, 23055.00
629.9000, 22993.00
631.0650, 22755.00
632.2300, 22828.00
633.3950, 22772.00
634.5600, 22745.00
635.7240, 22695.00
636.8890, 22599.00
638.0530, 22757.00
639.2170, 22584.00
640.3810, 22557.00
641.5450, 22374.00
642.7080, 22569.00
643.8720, 22608.00
645.0350, 22752.00
646.1980, 22847.00
647.3610, 22711.00
648.5240, 22747.00
649.6870, 22857.00
650.8490, 22907.00
652.0120, 22788.00
653.1740, 22926.00
654.3360, 22927.52
655.4980, 22894.00
656.6600, 23018.00
657.8210, 23037.00
658.9830, 23035.00
660.1440, 23131.67
661.3050, 23161.73
662.4660, 23274.00
663.6270, 23289.00
664.7870, 23387.88
665.9480, 23454.46
667.1080, 23452.00
668.2680, 23561.00
669.4280, 23530.00
670.5880, 23629.00
671.7480, 23700.00
672.9070, 23860.00
674.0670, 24109.00
675.2260, 24193.00
676.3850, 24468.01
677.5440, 24816.00
678.7030, 24945.00
679.8610, 25187.00
681.0200, 25389.00
682.1780, 25865.00
683.3360, 26395.00
684.4940, 26576.00
685.6520, 27142.00
686.8090, 27886.00
687.9670, 28393.00
689.1240, 28882.00
690.2810, 29891.00
691.4380, 30556.00
692.5950, 31690.00
693.7520, 32874.00
694.9080, 34424.00
696.0650, 35749.00
697.2210, 37839.00
698.3770, 39715.00
699.5330, 41663.00
700.6880, 44851.00
701.8440, 47356.00
702.9990, 50068.00
704.1550, 52850.00
705.3100, 55481.00
706.4650, 57604.00
707.6190, 58897.00
708.7740, 58720.00
709.9290, 57442.00
711.0830, 55168.00
712.2370, 52025.00
713.3910, 48439.00
714.5450, 45106.00
715.6980, 41499.00
716.8520, 38586.00
718.0050, 36026.00
719.1580, 34415.00
720.3110, 32446.00
721.4640, 31351.00
722.6170, 30303.00
723.7700, 29177.00
724.9220, 28398.00
726.0740, 27704.00
727.2260, 27186.00
728.3780, 26520.00
729.5300, 26172.00
730.6810, 25727.00
731.8330, 25641.00
732.9840, 25208.00
734.1350, 25140.00
735.2860, 24952.00
736.4370, 24704.00
737.5880, 24674.00
738.7380, 24794.00
739.8880, 24922.00
741.0390, 24698.00
742.1890, 24684.00
743.3380, 24894.00
744.4880, 24570.00
745.6380, 24806.00
746.7870, 24740.00
747.9360, 24882.00
749.0850, 24889.00
750.2340, 24924.00
751.3830, 24812.00
752.5310, 24772.00
753.6800, 24734.00
754.8280, 24699.00
755.9760, 24776.00
757.1240, 24478.00
758.2720, 24203.00
759.4190, 24411.00
760.5670, 24218.00
761.7140, 24377.00
762.8610, 24127.00
764.0080, 23854.00
765.1550, 23951.00
766.3020, 23789.00
767.4480, 23713.00
768.5950, 23898.00
769.7410, 23645.00
770.8870, 23640.00
772.0330, 23635.00
773.1780, 23641.00
774.3240, 23719.00
775.4690, 23835.00
776.6140, 23646.00
777.7590, 23931.00
778.9040, 23872.00
780.0490, 23749.00
781.1940, 23900.00
782.3380, 23889.00
783.4820, 23993.00
784.6260, 23900.00
785.7700, 23918.00
786.9140, 24003.00
788.0580, 23891.00
789.2010, 23793.00
790.3450, 23755.00
791.4880, 23682.27
792.6310, 23705.00
793.7730, 23573.00
794.9160, 23696.00
796.0590, 23604.00
797.2010, 23621.00
798.3430, 23571.88
799.4850, 23486.00
800.6270, 23437.00
801.7690, 23374.00
802.9100, 23340.00
804.0520, 23340.00
805.1930, 23271.00
806.3340, 23261.70
807.4750, 23322.00
808.6160, 23232.00
809.7560, 23180.00
810.8970, 23204.91
812.0370, 23130.00
813.1770, 23285.00
814.3170, 23291.00
815.4570, 23329.00
816.5960, 23280.00
817.7360, 23007.00
818.8750, 23339.00
820.0140, 23220.00
821.1530, 23436.00
822.2920, 23328.00
823.4310, 23319.00
824.5690, 23538.00
825.7070, 23323.00
826.8460, 23699.00
827.9840, 23750.00
829.1220, 23595.00
830.2590, 23784.00
831.3970, 23678.00
832.5340, 23746.00
833.6710, 23803.00
834.8080, 23910.00
835.9450, 23922.00
837.0820, 23916.00
838.2190, 23905.00
839.3550, 23781.00
840.4910, 23935.00
841.6270, 24217.00
842.7630, 24064.00
843.8990, 24331.00
845.0350, 24151.00
846.1700, 24297.00
847.3060, 24380.00
848.4410, 24171.00
849.5760, 24420.00
850.7100, 24349.00
851.8450, 24376.00
852.9800, 24547.00
854.1140, 24497.00
855.2480, 24449.00
856.3820, 24789.00
857.5160, 24727.00
858.6500, 24532.00
859.7830, 24715.00
860.9170, 24603.21
862.0500, 24976.00
863.1830, 24685.00
864.3160, 24745.00
865.4480, 24991.00
866.5810, 24745.00
867.7130, 24510.00
868.8460, 24815.00
869.9780, 24669.00
871.1100, 24647.00
872.2410, 24629.00
873.3730, 24599.00
874.5050, 24604.00
875.6360, 24586.17
876.7670, 24592.09
877.8980, 24584.00
879.0290, 24605.00
880.1590, 24633.00
881.2900, 24629.00
882.4200, 24795.00
883.5500, 24571.00
884.6800, 24565.00
885.8100, 24731.00
886.9400, 24782.00
888.0690, 24784.00
889.1990, 24777.00
890.3280, 24879.00
891.4570, 24899.00
892.5860, 24914.00
893.7140, 24858.00
894.8430, 24906.00
895.9710, 24910.00
897.1000, 24974.00
898.2280, 24999.98
899.3560, 25117.00
900.4830, 25070.00
901.6110, 25137.00
902.7380, 25169.00
903.8660, 25091.92
904.9930, 25203.00
906.1200, 25101.00
907.2460, 25139.00
908.3730, 25473.00
909.5000, 25176.00
910.6260, 25452.00
911.7520, 25358.00
912.8780, 25403.00
914.0040, 25451.00
915.1290, 25112.00
916.2550, 25480.00
917.3800, 25279.00
918.5050, 25306.00
919.6300, 25378.00
920.7550, 25129.00
921.8800, 25408.00
923.0040, 25252.00
924.1290, 25242.00
925.2530, 25400.00
926.3770, 25362.00
927.5010, 25343.00
928.6250, 25436.00
929.7480, 25417.00
930.8720, 25510.00
931.9950, 25521.24
933.1180, 25386.00
934.2410, 25605.00
935.3640, 25422.00
936.4860, 25544.00
937.6090, 25410.00
938.7310, 25461.00
939.8530, 25567.00
940.9750, 25379.00
942.0970, 25408.00
943.2180, 25466.00
944.3400, 25311.00
945.4610, 25628.00
946.5820, 25458.00
947.7030, 25316.00
948.8240, 25420.00
949.9450, 25568.00
951.0650, 25389.00
952.1860, 25341.00
953.3060, 25605.00
954.4260, 25527.00
955.5460, 25566.00
956.6650, 25387.00
957.7850, 25350.00
958.9040, 25487.00
960.0230, 25414.00
961.1420, 25474.00
962.2610, 25591.00
963.3800, 25379.00
964.4990, 25356.00
965.6170, 25334.00
966.7350, 25554.00
967.8530, 25185.00
968.9710, 25598.00
970.0890, 25397.00
971.2070, 25615.00
972.3240, 25373.00
973.4410, 25387.00
974.5580, 25472.00
975.6750, 25223.00
976.7920, 25276.00
977.9090, 25430.00
979.0250, 25452.00
980.1410, 25216.00
981.2580, 25378.00
982.3740, 25462.00
983.4890, 25378.00
984.6050, 25648.00
985.7200, 25445.00
986.8360, 25584.00
987.9510, 25529.00
989.0660, 25487.77
990.1810, 25646.00
991.2950, 25454.00
992.4100, 25631.00
993.5240, 25652.00
994.6390, 25419.00
995.7530, 25744.00
996.8660, 25802.00
997.9800, 26021.00
999.0940, 25960.00
1000.207, 26404.00
1001.320, 26656.00
1002.433, 26967.00
1003.546, 26896.00
1004.659, 26954.00
1005.772, 26567.00
1006.884, 26269.00
1007.996, 26096.00
1009.108, 25953.47
1010.220, 26109.00
1011.332, 25998.00
1012.444, 26087.00
1013.555, 26137.29
1014.666, 26260.00
1015.777, 26284.00
1016.888, 26267.00
1017.999, 26409.00
1019.110, 26512.00
1020.220, 26594.00
1021.331, 26450.00
1022.441, 26677.00
1023.551, 26480.00
1024.661, 26738.00
1025.770, 26593.00
1026.880, 26679.00
1027.989, 26605.00
1029.098, 26489.00
1030.207, 26454.00
1031.316, 26633.00
1032.425, 26286.00
1033.533, 26568.00
1034.642, 26529.00
1035.750, 26623.00
1036.858, 26578.00
1037.966, 26372.00
1039.073, 26333.00
1040.181, 26582.00
1041.288, 26450.00
1042.396, 26578.00
1043.503, 26477.00
1044.610, 26744.00
1045.716, 26482.00
1046.823, 26813.00
1047.929, 26683.00
1049.036, 26794.00
1050.142, 26646.00
1051.248, 26912.00
1052.353, 27129.00
1053.459, 27007.00
1054.564, 27201.00
1055.670, 27048.00
1056.775, 27349.00
1057.880, 27337.00
1058.985, 27651.00
1060.089, 27607.00
1061.194, 27722.00
1062.298, 27681.00
1063.402, 27916.00
1064.506, 28185.00
1065.610, 28249.00
1066.713, 28492.00
1067.817, 28426.00
1068.920, 28354.00
1070.023, 28446.00
1071.126, 28566.00
1072.229, 28740.00
1073.332, 28594.00
1074.435, 28864.00
1075.537, 29379.00
1076.639, 29255.00
1077.741, 29435.00
1078.843, 29677.00
1079.945, 29454.00
1081.046, 29762.00
1082.148, 29743.00
1083.249, 29726.00
1084.350, 29894.00
1085.451, 29813.00
1086.551, 29669.00
1087.652, 29881.00
1088.752, 29524.00
1089.853, 29775.00
1090.953, 29483.00
1092.053, 29671.00
1093.152, 29636.00
1094.252, 29588.00
1095.351, 29453.00
1096.451, 29436.17
1097.550, 29302.00
1098.649, 29338.00
1099.748, 29297.00
1100.846, 29250.00
1101.945, 29069.00
1103.043, 28962.00
1104.141, 29047.00
1105.239, 28992.00
1106.337, 29030.00
1107.434, 29039.00
1108.532, 29070.17
1109.629, 29163.00
1110.726, 29129.00
1111.823, 29169.00
1112.920, 29106.79
1114.017, 29094.49
1115.113, 29057.00
1116.210, 29010.00
1117.306, 28965.00
1118.402, 28878.00
1119.498, 28953.00
1120.593, 28907.00
1121.689, 28962.00
1122.784, 28891.00
1123.879, 28812.00
1124.974, 28669.00
1126.069, 28581.16
1127.164, 28730.00
1128.259, 28396.00
1129.353, 28249.00
1130.447, 28251.00
1131.541, 28383.00
1132.635, 28222.00
1133.729, 28197.00
1134.822, 27992.00
1135.916, 27857.00
1137.009, 27876.00
1138.102, 27643.00
1139.195, 27463.00
1140.288, 27686.00
1141.380, 27407.00
1142.473, 27174.00
1143.565, 27296.00
1144.657, 27319.00
1145.749, 26953.00
1146.841, 27246.00
1147.932, 27186.00
1149.024, 27217.00
1150.115, 27159.00
1151.206, 26956.00
1152.297, 27119.00
1153.388, 27262.00
1154.479, 27024.00
1155.569, 27214.00
1156.659, 26985.00
1157.750, 27195.00
1158.839, 27170.00
1159.929, 27025.00
1161.019, 27081.00
1162.108, 26936.00
1163.198, 26960.00
1164.287, 27030.00
1165.376, 27105.00
1166.465, 27299.00
1167.553, 27125.00
1168.642, 27066.00
1169.730, 27226.00
1170.818, 27158.00
1171.906, 27329.00
1172.994, 27085.00
1174.082, 27292.00
1175.170, 27227.20
1176.257, 27343.00
1177.344, 27206.00
1178.431, 27441.00
1179.518, 27464.00
1180.605, 27036.00
1181.691, 27187.00
1182.778, 27124.00
1183.864, 27487.00
1184.950, 27404.00
1186.036, 27369.00
1187.122, 27268.00
1188.207, 27282.00
1189.292, 27315.00
1190.378, 27289.17
1191.463, 27339.00
1192.548, 27329.00
1193.632, 27319.00
1194.717, 27360.00
1195.801, 27406.00
1196.886, 27279.00
1197.970, 27476.00
1199.054, 27557.00
1200.137, 27418.00
1201.221, 27446.00
1202.305, 27634.00
1203.388, 27456.00
1204.471, 27279.00
1205.554, 27661.00
1206.637, 27621.00
1207.719, 27700.00
1208.802, 27491.00
1209.884, 27413.00
1210.966, 27568.00
1212.048, 27681.00
1213.130, 27467.00
1214.212, 27804.00
1215.293, 27801.00
1216.374, 27733.00
1217.456, 27785.00
1218.536, 27705.00
1219.617, 27943.00
1220.698, 27694.00
1221.778, 27811.00
1222.859, 27842.00
1223.939, 27787.00
1225.019, 27823.00
1226.099, 27602.00
1227.178, 27936.00
1228.258, 27759.00
1229.337, 27790.00
1230.417, 27940.00
1231.496, 27879.00
1232.574, 27804.00
1233.653, 27962.00
1234.732, 28148.00
1235.810, 28018.00
1236.888, 28166.00
1237.966, 28241.00
1239.044, 28228.00
1240.122, 28095.00
1241.199, 28206.00
1242.277, 28268.00
1243.354, 28119.00
1244.431, 28205.00
1245.508, 28301.00
1246.585, 28408.00
1247.661, 28445.18
1248.738, 28601.00
1249.814, 28457.00
1250.890, 28422.00
1251.966, 28288.00
1253.042, 28355.00
1254.117, 28325.00
1255.193, 28460.00
1256.268, 28507.00
1257.343, 28422.00
1258.418, 28386.00
1259.493, 28605.00
1260.567, 28361.00
1261.642, 28580.00
1262.716, 28667.00
1263.790, 28514.00
1264.864, 28772.00
1265.938, 28741.00
1267.011, 28823.00
1268.085, 28846.00
1269.158, 28836.00
1270.231, 28840.00
1271.304, 29051.00
1272.377, 28894.00
1273.450, 28906.00
1274.522, 29128.00
1275.594, 29188.00
1276.666, 29203.00
1277.738, 29087.00
1278.810, 29292.00
1279.882, 29201.00
1280.953, 29359.00
1282.025, 29323.00
1283.096, 29199.00
1284.167, 29192.00
1285.238, 29189.88
1286.308, 29320.00
1287.379, 29246.00
1288.449, 29328.00
1289.519, 29364.00
1290.589, 29462.00
1291.659, 29824.00
1292.729, 29727.00
1293.798, 30055.00
1294.868, 30193.00
1295.937, 30167.00
1297.006, 30219.00
1298.075, 30633.00
1299.143, 30604.00
1300.212, 30750.00
1301.280, 30663.00
1302.348, 30707.00
1303.416, 30742.00
1304.484, 30851.00
1305.552, 31069.00
1306.620, 30833.00
1307.687, 30946.00
1308.754, 30740.00
1309.821, 30603.00
1310.888, 30523.00
1311.955, 30584.00
1313.021, 30303.00
1314.088, 30303.00
1315.154, 30141.00
1316.220, 30063.63
1317.286, 30056.00
1318.352, 29973.00
