##NAMES=Trilithionite
##RRUFFID=R040105
##IDEAL CHEMISTRY=KLi_1.5_Al_1.5_(Si_3_Al)O_10_F_2_
##LOCALITY=Brown Derby mine, Ohio City, Gunnison County, Colorado, USA
##OWNER=RRUFF
##SOURCE=University of Arizona Mineral Museum
##DESCRIPTION=Purple hexagonal tablet
##STATUS=The identification of this mineral has been confirmed by X-ray diffraction and chemical analysis
##URL=rruff.info/R040105
##MEASURED CHEMISTRY=(K_0.82_Li_0.14_Na_0.04_)(Li_0.53_Al_0.42_Mn_0.05_)_3_(Si_0.84_Al_0.17_)_4_O_10_((OH)_0.59_F_0.41_)_2_
##PIN_ID=L01837
##ORIENTATION=Laser parallel to -b* (0 -1 0). Fiducial mark perpendicular to laser is parallel to c [0 0 1]
139.0430, 25025.00
140.2710, 25047.00
141.5000, 25105.00
142.7280, 25188.40
143.9560, 25266.07
145.1840, 25344.34
146.4120, 25429.85
147.6390, 25507.00
148.8670, 25595.00
150.0940, 25665.33
151.3210, 25737.00
152.5490, 25776.00
153.7750, 25857.00
155.0020, 25930.00
156.2290, 25959.76
157.4550, 26102.00
158.6810, 26017.00
159.9080, 26203.00
161.1340, 26220.00
162.3590, 26285.00
163.5850, 26200.00
164.8110, 26534.00
166.0360, 26501.00
167.2610, 26673.00
168.4860, 26641.00
169.7110, 27084.00
170.9360, 26947.00
172.1610, 26949.00
173.3850, 27360.00
174.6100, 27381.00
175.8340, 27654.00
177.0580, 27807.00
178.2820, 27896.00
179.5050, 28055.00
180.7290, 28239.00
181.9520, 28247.00
183.1760, 28359.00
184.3990, 28421.00
185.6220, 28415.00
186.8450, 28583.00
188.0670, 28277.00
189.2900, 28277.00
190.5120, 28098.00
191.7340, 28133.00
192.9560, 28263.00
194.1780, 27909.00
195.4000, 28177.00
196.6220, 27944.00
197.8430, 28098.00
199.0640, 28089.00
200.2860, 28131.00
201.5070, 28156.00
202.7270, 28146.00
203.9480, 28445.00
205.1690, 28384.00
206.3890, 28287.00
207.6090, 28205.00
208.8290, 27965.00
210.0490, 27929.00
211.2690, 27974.33
212.4890, 28111.00
213.7080, 28241.00
214.9280, 28301.00
216.1470, 28555.00
217.3660, 28397.00
218.5850, 28636.00
219.8030, 28335.00
221.0220, 28470.00
222.2400, 28388.00
223.4590, 28581.00
224.6770, 28750.00
225.8950, 29234.00
227.1120, 28846.00
228.3300, 28916.00
229.5480, 29271.00
230.7650, 29192.00
231.9820, 29357.00
233.1990, 29121.00
234.4160, 29470.00
235.6330, 29428.00
236.8490, 29743.00
238.0660, 29866.00
239.2820, 29944.00
240.4980, 29896.00
241.7140, 30275.00
242.9300, 30349.00
244.1460, 30290.00
245.3610, 30630.00
246.5770, 30749.00
247.7920, 30820.00
249.0070, 30994.00
250.2220, 31185.00
251.4370, 31109.00
252.6510, 31358.00
253.8660, 31632.00
255.0800, 31453.00
256.2940, 31828.00
257.5080, 31964.00
258.7220, 32148.00
259.9360, 32564.00
261.1490, 32696.00
262.3630, 32661.00
263.5760, 32769.00
264.7890, 32463.00
266.0020, 32542.00
267.2150, 32647.00
268.4270, 32260.00
269.6400, 32471.00
270.8520, 32366.00
272.0640, 32007.00
273.2760, 31849.00
274.4880, 31625.00
275.7000, 31523.00
276.9120, 31613.00
278.1230, 31672.00
279.3340, 31422.00
280.5450, 31303.00
281.7560, 31301.00
282.9670, 31210.00
284.1780, 31156.00
285.3880, 31063.00
286.5980, 31046.00
287.8090, 30939.00
289.0190, 31113.00
290.2290, 30965.00
291.4380, 31011.00
292.6480, 31332.00
293.8570, 31277.00
295.0670, 31222.00
296.2760, 31215.00
297.4850, 31251.70
298.6930, 31419.00
299.9020, 31394.00
301.1110, 31426.00
302.3190, 31516.00
303.5270, 31488.00
304.7350, 31568.00
305.9430, 31542.00
307.1510, 31492.00
308.3580, 31627.00
309.5660, 31403.00
310.7730, 31383.00
311.9800, 31576.00
313.1870, 31541.00
314.3940, 31514.00
315.6010, 31551.00
316.8070, 31830.00
318.0130, 31646.00
319.2200, 31690.00
320.4260, 31759.00
321.6310, 31626.00
322.8370, 31853.00
324.0430, 31567.00
325.2480, 31783.00
326.4540, 31633.00
327.6590, 31915.00
328.8640, 31812.00
330.0680, 31859.00
331.2730, 31837.00
332.4780, 31930.00
333.6820, 32018.00
334.8860, 32049.00
336.0900, 32197.00
337.2940, 32020.00
338.4980, 31965.00
339.7010, 32024.00
340.9050, 32036.74
342.1080, 32036.54
343.3110, 32181.00
344.5140, 32109.00
345.7170, 32029.00
346.9200, 32156.00
348.1220, 32355.00
349.3240, 32347.00
350.5270, 32275.00
351.7290, 32299.00
352.9310, 32237.00
354.1320, 32458.00
355.3340, 32414.00
356.5350, 32546.00
357.7370, 32462.00
358.9380, 32662.00
360.1390, 32602.00
361.3400, 32787.00
362.5400, 32769.00
363.7410, 32742.00
364.9410, 32844.00
366.1410, 32961.00
367.3410, 33146.00
368.5410, 32742.00
369.7410, 33170.00
370.9400, 33114.00
372.1400, 32929.00
373.3390, 33310.00
374.5380, 33305.00
375.7370, 33322.00
376.9360, 33338.00
378.1350, 33406.00
379.3330, 33615.00
380.5310, 33653.00
381.7300, 33722.00
382.9280, 33828.73
384.1260, 33787.00
385.3230, 33934.00
386.5210, 33937.00
387.7180, 33910.00
388.9160, 33902.00
390.1130, 34222.00
391.3100, 34201.00
392.5060, 34382.00
393.7030, 34476.00
394.9000, 34436.00
396.0960, 34531.00
397.2920, 34502.00
398.4880, 34752.00
399.6840, 34964.00
400.8800, 35032.00
402.0750, 35047.00
403.2710, 35288.00
404.4660, 35113.00
405.6610, 35108.00
406.8560, 35297.00
408.0510, 35279.00
409.2450, 35264.08
410.4400, 35306.00
411.6340, 35142.00
412.8280, 35208.00
414.0220, 35121.00
415.2160, 35323.00
416.4100, 35279.00
417.6030, 35280.00
418.7970, 34994.00
419.9900, 35308.00
421.1830, 35091.00
422.3760, 35095.00
423.5690, 35107.00
424.7610, 35243.00
425.9540, 35193.00
427.1460, 35336.00
428.3380, 35138.00
429.5300, 35295.00
430.7220, 35350.00
431.9140, 35130.00
433.1050, 35564.00
434.2970, 35338.00
435.4880, 35533.00
436.6790, 35669.00
437.8700, 35659.00
439.0610, 35799.00
440.2510, 35648.00
441.4420, 35668.00
442.6320, 35788.00
443.8220, 35933.00
445.0120, 36010.00
446.2020, 36106.00
447.3910, 35882.00
448.5810, 35949.00
449.7700, 35957.00
450.9600, 36333.00
452.1490, 36180.00
453.3370, 36327.00
454.5260, 36124.00
455.7150, 36137.00
456.9030, 36151.00
458.0910, 36317.00
459.2800, 36236.00
460.4670, 36339.00
461.6550, 36439.00
462.8430, 36378.00
464.0300, 36478.00
465.2180, 36505.00
466.4050, 36536.00
467.5920, 36461.00
468.7790, 36574.00
469.9650, 36499.00
471.1520, 36675.00
472.3380, 36654.00
473.5250, 36792.00
474.7110, 36778.00
475.8970, 36911.00
477.0820, 36801.00
478.2680, 36896.00
479.4540, 36929.00
480.6390, 36959.97
481.8240, 37183.00
483.0090, 37127.00
484.1940, 36925.00
485.3780, 37051.00
486.5630, 36874.00
487.7470, 36865.00
488.9320, 37039.00
490.1160, 36954.00
491.3000, 37148.00
492.4830, 36968.00
493.6670, 37130.00
494.8500, 36804.00
496.0340, 36937.00
497.2170, 37121.00
498.4000, 36844.00
499.5820, 37313.00
500.7650, 37094.00
501.9480, 37150.00
503.1300, 37213.00
504.3120, 37027.00
505.4940, 37195.00
506.6760, 36992.00
507.8580, 37379.00
509.0390, 37172.00
510.2210, 37694.00
511.4020, 37298.00
512.5830, 37503.00
513.7640, 37293.00
514.9450, 37635.00
516.1250, 37563.00
517.3060, 37382.00
518.4860, 37513.00
519.6660, 37596.00
520.8460, 37771.00
522.0260, 37634.00
523.2060, 37891.00
524.3850, 37499.00
525.5650, 37621.00
526.7440, 38120.00
527.9230, 37765.00
529.1020, 37935.00
530.2810, 37797.00
531.4590, 38090.00
532.6380, 38175.00
533.8160, 38295.00
534.9940, 38261.00
536.1720, 38292.00
537.3500, 38418.00
538.5270, 38602.00
539.7050, 38464.00
540.8820, 38511.00
542.0590, 38798.00
543.2360, 38625.00
544.4130, 38781.00
545.5900, 38921.00
546.7660, 38931.00
547.9430, 38996.00
549.1190, 38992.00
550.2950, 39107.89
551.4710, 39175.25
552.6470, 39369.00
553.8220, 39359.00
554.9980, 39545.00
556.1730, 39619.00
557.3480, 39756.00
558.5230, 39572.00
559.6980, 40284.00
560.8730, 40472.00
562.0470, 39820.00
563.2220, 40344.00
564.3960, 40158.00
565.5700, 40228.00
566.7440, 40305.00
567.9170, 40308.00
569.0910, 40263.00
570.2640, 40308.00
571.4380, 40270.00
572.6110, 40058.00
573.7840, 40138.00
574.9570, 40219.00
576.1290, 40193.00
577.3020, 39907.00
578.4740, 40152.00
579.6460, 40001.00
580.8180, 40060.00
581.9900, 40049.34
583.1620, 39912.00
584.3330, 39876.00
585.5040, 39934.00
586.6760, 39687.00
587.8470, 39768.00
589.0180, 39882.00
590.1880, 40086.00
591.3590, 40013.00
592.5290, 39797.00
593.7000, 40127.00
594.8700, 39992.00
596.0400, 39945.00
597.2090, 40162.00
598.3790, 40008.00
599.5490, 40228.00
600.7180, 40122.00
601.8870, 40101.00
603.0560, 40429.00
604.2250, 40403.00
605.3940, 40462.00
606.5620, 40358.00
607.7300, 40277.00
608.8990, 40543.00
610.0670, 40729.00
611.2350, 40704.00
612.4020, 40621.00
613.5700, 40678.00
614.7370, 40561.00
615.9050, 40818.00
617.0720, 40859.00
618.2390, 40843.00
619.4060, 40806.00
620.5720, 40782.00
621.7390, 40644.00
622.9050, 40996.00
624.0710, 41179.00
625.2370, 40669.00
626.4030, 41087.00
627.5690, 40940.00
628.7340, 40952.00
629.9000, 41137.00
631.0650, 40990.00
632.2300, 40922.00
633.3950, 40890.00
634.5600, 40880.77
635.7240, 41067.00
636.8890, 40999.00
638.0530, 41096.00
639.2170, 41251.00
640.3810, 41215.00
641.5450, 41307.00
642.7080, 41394.00
643.8720, 41449.00
645.0350, 41495.06
646.1980, 41562.00
647.3610, 41484.00
648.5240, 41541.00
649.6870, 41397.00
650.8490, 41555.00
652.0120, 41681.00
653.1740, 41884.00
654.3360, 42002.00
655.4980, 41639.00
656.6600, 41861.00
657.8210, 41841.00
658.9830, 41904.00
660.1440, 41993.00
661.3050, 42019.00
662.4660, 41865.00
663.6270, 42344.00
664.7870, 42115.00
665.9480, 42197.00
667.1080, 42420.00
668.2680, 42226.00
669.4280, 42324.00
670.5880, 42589.00
671.7480, 42531.00
672.9070, 42647.00
674.0670, 42821.00
675.2260, 42788.00
676.3850, 42733.00
677.5440, 42797.00
678.7030, 42848.00
679.8610, 42963.48
681.0200, 43459.00
682.1780, 43266.00
683.3360, 43740.00
684.4940, 43894.00
685.6520, 43803.00
686.8090, 44004.00
687.9670, 44443.00
689.1240, 44436.00
690.2810, 44873.00
691.4380, 45270.00
692.5950, 45634.00
693.7520, 45730.00
694.9080, 46160.00
696.0650, 46683.00
697.2210, 47233.00
698.3770, 47966.00
699.5330, 48570.00
700.6880, 49180.00
701.8440, 50242.00
702.9990, 50915.00
704.1550, 51910.00
705.3100, 53140.00
706.4650, 54215.00
707.6190, 54889.00
708.7740, 55553.00
709.9290, 55823.45
711.0830, 55746.10
712.2370, 55648.00
713.3910, 54779.00
714.5450, 53884.00
715.6980, 52652.00
716.8520, 51597.00
718.0050, 50082.00
719.1580, 49552.00
720.3110, 48337.00
721.4640, 47637.00
722.6170, 47336.00
723.7700, 46584.00
724.9220, 46352.00
726.0740, 45944.00
727.2260, 45355.00
728.3780, 45775.00
729.5300, 45269.00
730.6810, 45005.00
731.8330, 45310.00
732.9840, 45130.00
734.1350, 44997.00
735.2860, 45087.00
736.4370, 44600.00
737.5880, 44561.00
738.7380, 44787.00
739.8880, 44535.00
741.0390, 44989.00
742.1890, 44987.00
743.3380, 44881.00
744.4880, 44614.00
745.6380, 44991.00
746.7870, 44966.00
747.9360, 44793.00
749.0850, 44827.00
750.2340, 44955.00
751.3830, 44864.00
752.5310, 45023.00
753.6800, 44994.00
754.8280, 45017.00
755.9760, 45239.00
757.1240, 45146.00
758.2720, 45250.14
759.4190, 44906.00
760.5670, 45213.00
761.7140, 45195.00
762.8610, 44925.00
764.0080, 44980.00
765.1550, 44833.00
766.3020, 45150.00
767.4480, 45245.00
768.5950, 45245.84
769.7410, 45008.00
770.8870, 45291.00
772.0330, 45142.00
773.1780, 45103.00
774.3240, 45243.00
775.4690, 45189.00
776.6140, 45072.00
777.7590, 45279.00
778.9040, 45225.00
780.0490, 45189.00
781.1940, 45239.00
782.3380, 45416.00
783.4820, 45445.00
784.6260, 45500.00
785.7700, 45478.00
786.9140, 45649.00
788.0580, 45688.00
789.2010, 45455.00
790.3450, 45477.00
791.4880, 45698.00
792.6310, 45608.00
793.7730, 45322.00
794.9160, 45552.00
796.0590, 45677.00
797.2010, 45731.00
798.3430, 45402.00
799.4850, 45734.00
800.6270, 45479.00
801.7690, 45767.00
802.9100, 45737.00
804.0520, 45791.00
805.1930, 45752.00
806.3340, 45796.00
807.4750, 45841.00
808.6160, 46159.00
809.7560, 45999.00
810.8970, 46073.00
812.0370, 45838.00
813.1770, 46006.00
814.3170, 45999.00
815.4570, 46250.00
816.5960, 46154.00
817.7360, 46080.00
818.8750, 45935.00
820.0140, 45952.00
821.1530, 46135.00
822.2920, 46028.00
823.4310, 46155.00
824.5690, 46104.00
825.7070, 46255.00
826.8460, 46264.00
827.9840, 46140.00
829.1220, 46470.00
830.2590, 46503.00
831.3970, 46145.00
832.5340, 46465.00
833.6710, 46214.00
834.8080, 46675.00
835.9450, 46587.00
837.0820, 46597.00
838.2190, 46555.00
839.3550, 46533.00
840.4910, 46664.00
841.6270, 46935.00
842.7630, 46774.00
843.8990, 46820.00
845.0350, 46739.00
846.1700, 47098.00
847.3060, 46926.00
848.4410, 47087.00
849.5760, 46898.00
850.7100, 46794.00
851.8450, 47164.00
852.9800, 46971.00
854.1140, 47137.00
855.2480, 47606.00
856.3820, 47541.00
857.5160, 47093.00
858.6500, 47501.00
859.7830, 47339.00
860.9170, 47206.00
862.0500, 47657.00
863.1830, 47475.00
864.3160, 47589.00
865.4480, 47421.00
866.5810, 47531.00
867.7130, 47334.00
868.8460, 47763.00
869.9780, 47605.00
871.1100, 47946.00
872.2410, 47650.00
873.3730, 47803.00
874.5050, 47662.00
875.6360, 48010.00
876.7670, 47927.00
877.8980, 47772.00
879.0290, 47954.00
880.1590, 48026.00
881.2900, 47968.00
882.4200, 47727.00
883.5500, 48047.00
884.6800, 47889.00
885.8100, 48196.00
886.9400, 47886.00
888.0690, 48026.00
889.1990, 48203.00
890.3280, 48166.00
891.4570, 48484.00
892.5860, 48448.88
893.7140, 48358.00
894.8430, 48526.00
895.9710, 48541.00
897.1000, 48636.00
898.2280, 48592.00
899.3560, 48607.04
900.4830, 48635.24
901.6110, 48567.00
902.7380, 48652.00
903.8660, 48640.00
904.9930, 48627.00
906.1200, 48902.00
907.2460, 48693.00
908.3730, 48983.00
909.5000, 48903.00
910.6260, 49184.00
911.7520, 48796.00
912.8780, 49094.00
914.0040, 49133.00
915.1290, 48982.00
916.2550, 49214.00
917.3800, 48996.00
918.5050, 49228.00
919.6300, 49132.00
920.7550, 49091.00
921.8800, 49161.00
923.0040, 49136.00
924.1290, 49327.00
925.2530, 49372.30
926.3770, 49356.00
927.5010, 49557.00
928.6250, 49743.00
929.7480, 49799.00
930.8720, 49584.00
931.9950, 49559.00
933.1180, 49567.00
934.2410, 49734.00
935.3640, 50094.00
936.4860, 50047.00
937.6090, 50016.00
938.7310, 49811.00
939.8530, 49714.00
940.9750, 49661.00
942.0970, 49990.00
943.2180, 50077.00
944.3400, 50118.00
945.4610, 50207.00
946.5820, 50200.09
947.7030, 50393.00
948.8240, 50223.00
949.9450, 50170.00
951.0650, 50272.00
952.1860, 50405.00
953.3060, 50368.00
954.4260, 50437.48
955.5460, 50487.07
956.6650, 50438.00
957.7850, 50538.00
958.9040, 50509.00
960.0230, 50452.00
961.1420, 50913.00
962.2610, 50413.00
963.3800, 50779.00
964.4990, 50495.00
965.6170, 50876.00
966.7350, 50603.00
967.8530, 50842.00
968.9710, 51008.00
970.0890, 51232.00
971.2070, 50987.00
972.3240, 51118.00
973.4410, 51278.00
974.5580, 51036.00
975.6750, 51363.00
976.7920, 51164.00
977.9090, 51344.00
979.0250, 51197.00
980.1410, 51218.00
981.2580, 51226.00
982.3740, 51216.05
983.4890, 51802.00
984.6050, 51260.00
985.7200, 51651.00
986.8360, 51637.00
987.9510, 51537.00
989.0660, 51572.00
990.1810, 51615.00
991.2950, 51601.00
992.4100, 51692.00
993.5240, 51916.00
994.6390, 51737.00
995.7530, 51901.00
996.8660, 51940.00
997.9800, 51827.00
999.0940, 52014.00
1000.207, 51756.00
1001.320, 52020.00
1002.433, 52322.00
1003.546, 52227.00
1004.659, 52277.00
1005.772, 52441.00
1006.884, 52095.00
1007.996, 52341.00
1009.108, 52434.00
1010.220, 52313.00
1011.332, 52585.00
1012.444, 52379.00
1013.555, 52443.00
1014.666, 52647.00
1015.777, 52570.00
1016.888, 52622.00
1017.999, 52366.00
1019.110, 52494.00
1020.220, 52717.00
1021.331, 52315.00
1022.441, 52783.00
1023.551, 52533.00
1024.661, 53021.00
1025.770, 52857.00
1026.880, 52799.00
1027.989, 53004.00
1029.098, 52640.00
1030.207, 52656.00
1031.316, 52867.00
1032.425, 52866.00
1033.533, 52954.32
1034.642, 52848.00
1035.750, 53084.00
1036.858, 53140.00
1037.966, 53228.00
1039.073, 53094.00
1040.181, 53066.00
1041.288, 53538.00
1042.396, 53204.00
1043.503, 53498.00
1044.610, 53578.00
1045.716, 53470.00
1046.823, 53598.84
1047.929, 53504.00
1049.036, 53603.00
1050.142, 53671.64
1051.248, 53414.00
1052.353, 53860.00
1053.459, 53887.00
1054.564, 54009.00
1055.670, 53752.00
1056.775, 54050.00
1057.880, 53537.00
1058.985, 53797.00
1060.089, 54123.00
1061.194, 53662.00
1062.298, 53992.00
1063.402, 54164.00
1064.506, 54379.00
1065.610, 54518.00
1066.713, 54482.00
1067.817, 54449.00
1068.920, 54335.00
1070.023, 54398.24
1071.126, 54488.00
1072.229, 54507.00
1073.332, 54456.00
1074.435, 54536.00
1075.537, 54756.00
1076.639, 55025.00
1077.741, 54875.00
1078.843, 55051.00
1079.945, 55075.00
1081.046, 55084.00
1082.148, 55191.00
1083.249, 55436.00
1084.350, 55501.00
1085.451, 55155.00
1086.551, 55613.00
1087.652, 55243.00
1088.752, 55330.00
1089.853, 55617.00
1090.953, 55458.00
1092.053, 55473.00
1093.152, 55462.00
1094.252, 55561.00
1095.351, 55465.00
1096.451, 55407.00
1097.550, 55810.00
1098.649, 55691.00
1099.748, 55777.00
1100.846, 56011.00
1101.945, 55820.00
1103.043, 55570.00
1104.141, 55724.00
1105.239, 55911.00
1106.337, 55842.00
1107.434, 55990.00
1108.532, 55967.00
1109.629, 56045.00
1110.726, 55886.00
1111.823, 55869.00
1112.920, 56067.00
1114.017, 55823.00
1115.113, 56047.00
1116.210, 56183.00
1117.306, 56212.00
1118.402, 56106.00
1119.498, 56351.00
1120.593, 56410.00
1121.689, 56678.00
1122.784, 56399.00
1123.879, 56290.00
1124.974, 56273.00
1126.069, 56481.00
1127.164, 56388.00
1128.259, 56218.00
1129.353, 56639.00
1130.447, 56377.00
1131.541, 56509.00
1132.635, 56498.00
1133.729, 56317.00
1134.822, 56626.00
1135.916, 56464.00
1137.009, 56451.00
1138.102, 56695.00
1139.195, 56309.00
1140.288, 56652.00
1141.380, 56417.00
1142.473, 56793.00
1143.565, 56673.00
1144.657, 56470.00
1145.749, 56722.00
1146.841, 56461.00
1147.932, 56530.00
1149.024, 56836.00
1150.115, 56702.00
1151.206, 56817.00
1152.297, 56720.00
1153.388, 56761.00
1154.479, 56819.00
1155.569, 56709.00
1156.659, 56730.00
1157.750, 56644.00
1158.839, 56679.64
1159.929, 56988.00
1161.019, 56861.00
1162.108, 56773.00
1163.198, 57063.00
1164.287, 56825.00
1165.376, 57167.00
1166.465, 57159.00
1167.553, 57028.00
1168.642, 57195.00
1169.730, 57135.00
1170.818, 57196.00
1171.906, 57279.00
1172.994, 57163.00
1174.082, 57144.00
1175.170, 57590.00
1176.257, 57462.00
1177.344, 57626.00
1178.431, 57276.00
1179.518, 57562.00
1180.605, 57498.00
1181.691, 57400.00
1182.778, 57389.00
1183.864, 57755.00
1184.950, 57692.00
1186.036, 57802.00
1187.122, 57452.00
1188.207, 58002.00
1189.292, 58057.00
1190.378, 57555.00
1191.463, 57988.00
1192.548, 58171.00
1193.632, 58293.00
1194.717, 58118.00
1195.801, 58032.00
1196.886, 57849.00
1197.970, 57987.00
1199.054, 58401.00
1200.137, 57883.00
1201.221, 58368.00
1202.305, 58300.00
1203.388, 58163.00
1204.471, 58281.00
1205.554, 58362.00
1206.637, 58278.00
1207.719, 58559.00
1208.802, 58099.00
1209.884, 58491.00
1210.966, 58360.00
1212.048, 58549.00
1213.130, 58367.00
1214.212, 58488.00
1215.293, 58788.00
1216.374, 58554.00
1217.456, 58671.00
1218.536, 59105.00
1219.617, 58998.00
1220.698, 58564.00
1221.778, 58754.00
1222.859, 58950.00
1223.939, 59064.00
1225.019, 59009.00
1226.099, 58794.00
1227.178, 59178.00
1228.258, 58965.00
1229.337, 59316.00
1230.417, 59014.00
1231.496, 59379.00
1232.574, 59166.00
1233.653, 59199.00
1234.732, 59578.00
1235.810, 58993.00
1236.888, 59257.00
1237.966, 59238.00
1239.044, 59286.00
1240.122, 59354.00
1241.199, 59471.00
1242.277, 59421.00
1243.354, 59410.00
1244.431, 59502.00
1245.508, 59467.00
1246.585, 59732.00
1247.661, 59910.00
1248.738, 59496.00
1249.814, 59663.00
1250.890, 59476.00
1251.966, 59743.00
1253.042, 59512.00
1254.117, 59318.00
1255.193, 59356.00
1256.268, 59464.00
1257.343, 59433.00
1258.418, 59639.00
1259.493, 59555.00
1260.567, 59869.00
1261.642, 59757.00
1262.716, 60103.00
1263.790, 59918.00
1264.864, 60172.00
1265.938, 59983.00
1267.011, 60060.00
1268.085, 60427.00
1269.158, 60307.00
1270.231, 60133.00
1271.304, 60194.00
1272.377, 60146.00
1273.450, 60108.00
1274.522, 60288.00
1275.594, 60011.00
1276.666, 60351.00
1277.738, 60245.00
1278.810, 60388.00
1279.882, 60419.00
1280.953, 60527.00
1282.025, 60523.00
1283.096, 60602.00
1284.167, 60631.00
1285.238, 60522.00
1286.308, 60996.00
1287.379, 60679.00
1288.449, 60697.00
1289.519, 60859.00
1290.589, 60514.00
1291.659, 60410.00
1292.729, 60978.00
1293.798, 60809.00
1294.868, 61075.00
1295.937, 60992.00
1297.006, 60968.00
1298.075, 60883.00
1299.143, 61039.00
1300.212, 61246.00
1301.280, 61063.00
1302.348, 61190.00
1303.416, 61202.00
1304.484, 61202.00
1305.552, 61049.00
1306.620, 61285.00
1307.687, 61414.00
