##NAMES=Trilithionite
##RRUFFID=R040105
##IDEAL CHEMISTRY=KLi_1.5_Al_1.5_(Si_3_Al)O_10_F_2_
##LOCALITY=Brown Derby mine, Ohio City, Gunnison County, Colorado, USA
##OWNER=RRUFF
##SOURCE=University of Arizona Mineral Museum
##DESCRIPTION=Purple hexagonal tablet
##STATUS=The identification of this mineral has been confirmed by X-ray diffraction and chemical analysis
##URL=rruff.info/R040105
##MEASURED CHEMISTRY=(K_0.82_Li_0.14_Na_0.04_)(Li_0.53_Al_0.42_Mn_0.05_)_3_(Si_0.84_Al_0.17_)_4_O_10_((OH)_0.59_F_0.41_)_2_
##PIN_ID=L00110
##ORIENTATION=Laser parallel to a* (1 0 0). Fiducial mark perpendicular to laser is parallel to b [0 1 0]
139.0430, 19778.00
140.2710, 19808.00
141.5000, 19879.00
142.7280, 19867.00
143.9560, 19943.00
145.1840, 19892.80
146.4120, 19600.00
147.6390, 19821.00
148.8670, 19759.00
150.0940, 19783.00
151.3210, 19918.00
152.5490, 19931.00
153.7750, 20225.00
155.0020, 20030.00
156.2290, 20303.00
157.4550, 20339.00
158.6810, 20385.00
159.9080, 20545.00
161.1340, 20754.09
162.3590, 21093.00
163.5850, 21329.00
164.8110, 21679.00
166.0360, 22025.00
167.2610, 22473.00
168.4860, 22753.00
169.7110, 23239.00
170.9360, 23753.00
172.1610, 24184.00
173.3850, 24915.00
174.6100, 25343.00
175.8340, 25933.00
177.0580, 26515.00
178.2820, 26773.00
179.5050, 27011.00
180.7290, 27242.00
181.9520, 27443.00
183.1760, 27199.00
184.3990, 26927.00
185.6220, 26816.00
186.8450, 26669.00
188.0670, 26047.00
189.2900, 25953.00
190.5120, 25355.00
191.7340, 25290.00
192.9560, 25153.00
194.1780, 24816.00
195.4000, 24855.00
196.6220, 24460.00
197.8430, 24332.00
199.0640, 24220.00
200.2860, 24206.00
201.5070, 24079.00
202.7270, 23970.00
203.9480, 24014.00
205.1690, 23902.00
206.3890, 23778.00
207.6090, 23907.00
208.8290, 23980.00
210.0490, 23862.00
211.2690, 23939.00
212.4890, 24068.00
213.7080, 24176.00
214.9280, 24257.46
216.1470, 24182.00
217.3660, 24400.00
218.5850, 24421.00
219.8030, 24428.00
221.0220, 24577.62
222.2400, 24673.80
223.4590, 24765.00
224.6770, 24993.00
225.8950, 25092.00
227.1120, 25264.00
228.3300, 25470.00
229.5480, 25807.00
230.7650, 25756.00
231.9820, 25990.00
233.1990, 26439.00
234.4160, 26625.00
235.6330, 26637.00
236.8490, 26814.00
238.0660, 27179.00
239.2820, 27095.00
240.4980, 27407.00
241.7140, 27548.00
242.9300, 27577.00
244.1460, 27700.00
245.3610, 27789.00
246.5770, 28135.00
247.7920, 28388.00
249.0070, 28294.00
250.2220, 28263.00
251.4370, 28433.00
252.6510, 28495.00
253.8660, 28690.00
255.0800, 28627.00
256.2940, 28935.00
257.5080, 28844.00
258.7220, 29026.00
259.9360, 29245.00
261.1490, 29035.00
262.3630, 28750.00
263.5760, 28637.00
264.7890, 28164.00
266.0020, 28050.00
267.2150, 27719.00
268.4270, 27228.00
269.6400, 26753.00
270.8520, 26479.00
272.0640, 26129.00
273.2760, 25800.00
274.4880, 25506.00
275.7000, 25321.00
276.9120, 25141.00
278.1230, 25039.00
279.3340, 24977.00
280.5450, 24743.00
281.7560, 24731.00
282.9670, 24574.00
284.1780, 24481.00
285.3880, 24395.00
286.5980, 24371.00
287.8090, 24275.00
289.0190, 24248.49
290.2290, 24213.84
291.4380, 24208.00
292.6480, 24181.00
293.8570, 24215.00
295.0670, 24241.00
296.2760, 24244.00
297.4850, 24058.00
298.6930, 24224.00
299.9020, 24261.00
301.1110, 24426.00
302.3190, 24231.00
303.5270, 24136.00
304.7350, 24238.00
305.9430, 24227.00
307.1510, 24203.00
308.3580, 24324.00
309.5660, 24225.00
310.7730, 24346.00
311.9800, 24215.00
313.1870, 24081.00
314.3940, 24327.00
315.6010, 24265.00
316.8070, 24155.00
318.0130, 24198.00
319.2200, 24247.00
320.4260, 24107.00
321.6310, 24246.00
322.8370, 24131.00
324.0430, 24267.00
325.2480, 24471.00
326.4540, 24107.00
327.6590, 24049.00
328.8640, 24147.00
330.0680, 24256.00
331.2730, 24368.00
332.4780, 24192.00
333.6820, 24252.00
334.8860, 24359.00
336.0900, 24090.00
337.2940, 24442.00
338.4980, 24350.00
339.7010, 24525.00
340.9050, 24644.00
342.1080, 24402.00
343.3110, 24571.00
344.5140, 24557.00
345.7170, 24589.00
346.9200, 24639.00
348.1220, 24660.00
349.3240, 24711.28
350.5270, 24726.00
351.7290, 24781.00
352.9310, 24673.00
354.1320, 24644.00
355.3340, 24848.00
356.5350, 24934.00
357.7370, 24799.00
358.9380, 25035.00
360.1390, 24628.00
361.3400, 24875.00
362.5400, 24858.00
363.7410, 25080.00
364.9410, 25138.00
366.1410, 25152.00
367.3410, 25167.00
368.5410, 25176.00
369.7410, 25277.00
370.9400, 25254.84
372.1400, 25412.00
373.3390, 25305.00
374.5380, 25370.00
375.7370, 25482.00
376.9360, 25561.00
378.1350, 25694.00
379.3330, 25716.99
380.5310, 25788.00
381.7300, 25737.00
382.9280, 25688.00
384.1260, 25628.00
385.3230, 25909.00
386.5210, 26045.00
387.7180, 26011.00
388.9160, 25808.00
390.1130, 25963.00
391.3100, 25905.00
392.5060, 26184.00
393.7030, 26273.00
394.9000, 26316.19
396.0960, 26488.00
397.2920, 26468.00
398.4880, 26431.00
399.6840, 26587.00
400.8800, 26369.00
402.0750, 26715.00
403.2710, 26583.00
404.4660, 26545.00
405.6610, 26736.00
406.8560, 26556.00
408.0510, 26736.00
409.2450, 26717.00
410.4400, 26798.00
411.6340, 26581.00
412.8280, 26412.00
414.0220, 26569.00
415.2160, 26522.00
416.4100, 26575.00
417.6030, 26522.00
418.7970, 26520.00
419.9900, 26537.20
421.1830, 26736.00
422.3760, 26552.00
423.5690, 26587.00
424.7610, 26587.00
425.9540, 26385.00
427.1460, 26549.00
428.3380, 26765.00
429.5300, 26812.00
430.7220, 26730.00
431.9140, 26853.00
433.1050, 26790.00
434.2970, 26917.00
435.4880, 27011.00
436.6790, 27011.00
437.8700, 26944.00
439.0610, 27039.00
440.2510, 27172.00
441.4420, 27038.00
442.6320, 27271.00
443.8220, 27081.00
445.0120, 27068.00
446.2020, 27143.00
447.3910, 27249.00
448.5810, 27287.00
449.7700, 27354.00
450.9600, 27341.00
452.1490, 27297.00
453.3370, 27479.00
454.5260, 27393.00
455.7150, 27651.00
456.9030, 27560.00
458.0910, 27692.00
459.2800, 27556.00
460.4670, 27263.00
461.6550, 27696.00
462.8430, 27540.00
464.0300, 27677.00
465.2180, 27923.00
466.4050, 27798.00
467.5920, 27777.00
468.7790, 27731.00
469.9650, 27955.00
471.1520, 28097.00
472.3380, 28213.00
473.5250, 28229.73
474.7110, 28293.09
475.8970, 28147.00
477.0820, 28254.00
478.2680, 28202.00
479.4540, 28045.00
480.6390, 28130.00
481.8240, 28212.00
483.0090, 28354.00
484.1940, 28273.00
485.3780, 28241.00
486.5630, 28295.00
487.7470, 28210.00
488.9320, 28396.00
490.1160, 28353.00
491.3000, 28441.00
492.4830, 28353.00
493.6670, 28357.00
494.8500, 28252.00
496.0340, 28470.00
497.2170, 28567.00
498.4000, 28295.00
499.5820, 28597.00
500.7650, 28654.00
501.9480, 28507.00
503.1300, 28764.00
504.3120, 28765.00
505.4940, 28721.00
506.6760, 28609.00
507.8580, 28665.00
509.0390, 28750.00
510.2210, 28924.00
511.4020, 28804.00
512.5830, 28972.00
513.7640, 29024.00
514.9450, 28967.00
516.1250, 29157.00
517.3060, 29219.00
518.4860, 29165.00
519.6660, 29213.00
520.8460, 29266.00
522.0260, 29308.00
523.2060, 29361.00
524.3850, 29383.00
525.5650, 29431.91
526.7440, 29452.92
527.9230, 29526.00
529.1020, 29547.00
530.2810, 29620.00
531.4590, 29657.33
532.6380, 29682.60
533.8160, 29721.00
534.9940, 29725.00
536.1720, 29713.20
537.3500, 29722.11
538.5270, 29759.00
539.7050, 29790.00
540.8820, 29895.00
542.0590, 30016.00
543.2360, 29808.00
544.4130, 29929.00
545.5900, 30275.00
546.7660, 30396.00
547.9430, 30177.00
549.1190, 30440.00
550.2950, 30484.00
551.4710, 30478.00
552.6470, 30647.00
553.8220, 30575.00
554.9980, 30671.00
556.1730, 31034.00
557.3480, 30922.00
558.5230, 31135.00
559.6980, 31513.00
560.8730, 31147.00
562.0470, 31568.00
563.2220, 31511.00
564.3960, 31526.00
565.5700, 31471.00
566.7440, 31581.00
567.9170, 31273.00
569.0910, 31415.00
570.2640, 31558.00
571.4380, 31270.00
572.6110, 31184.00
573.7840, 31181.00
574.9570, 31118.00
576.1290, 31218.00
577.3020, 31122.00
578.4740, 31005.00
579.6460, 31145.00
580.8180, 30901.00
581.9900, 31006.00
583.1620, 30817.00
584.3330, 30842.00
585.5040, 31005.00
586.6760, 31089.00
587.8470, 31149.00
589.0180, 31051.00
590.1880, 31084.00
591.3590, 31128.00
592.5290, 31067.00
593.7000, 31210.00
594.8700, 31253.00
596.0400, 31221.00
597.2090, 31203.00
598.3790, 31291.00
599.5490, 31304.00
600.7180, 31471.00
601.8870, 31756.00
603.0560, 31614.00
604.2250, 31680.00
605.3940, 31512.00
606.5620, 31615.00
607.7300, 31672.00
608.8990, 31797.00
610.0670, 31720.00
611.2350, 31761.00
612.4020, 32203.00
613.5700, 31954.68
614.7370, 32526.00
615.9050, 31837.00
617.0720, 31960.00
618.2390, 32084.00
619.4060, 31969.00
620.5720, 32132.00
621.7390, 31887.00
622.9050, 32020.00
624.0710, 32305.00
625.2370, 32113.00
626.4030, 32062.00
627.5690, 32124.00
628.7340, 32182.00
629.9000, 32335.00
631.0650, 32269.00
632.2300, 32310.00
633.3950, 32565.00
634.5600, 32335.00
635.7240, 32268.00
636.8890, 32401.00
638.0530, 32607.00
639.2170, 32587.00
640.3810, 32610.00
641.5450, 32557.00
642.7080, 32597.00
643.8720, 32574.88
645.0350, 32597.33
646.1980, 32596.00
647.3610, 32696.00
648.5240, 32800.00
649.6870, 32946.00
650.8490, 33039.00
652.0120, 33129.00
653.1740, 33192.03
654.3360, 33203.00
655.4980, 33277.00
656.6600, 33210.00
657.8210, 33252.00
658.9830, 33322.00
660.1440, 33547.00
661.3050, 33623.00
662.4660, 33708.00
663.6270, 33684.00
664.7870, 33778.09
665.9480, 33884.00
667.1080, 33903.00
668.2680, 33796.00
669.4280, 33864.00
670.5880, 34009.00
671.7480, 34161.00
672.9070, 34293.00
674.0670, 34329.00
675.2260, 34403.59
676.3850, 34489.00
677.5440, 34494.00
678.7030, 34604.80
679.8610, 34687.61
681.0200, 34816.00
682.1780, 34933.00
683.3360, 35117.00
684.4940, 35322.00
685.6520, 35555.00
686.8090, 35757.00
687.9670, 35917.00
689.1240, 36359.00
690.2810, 36600.00
691.4380, 37067.00
692.5950, 37495.00
693.7520, 37946.00
694.9080, 38332.00
696.0650, 38778.00
697.2210, 39594.00
698.3770, 40254.00
699.5330, 41404.00
700.6880, 42233.00
701.8440, 42927.00
702.9990, 44116.00
704.1550, 45022.00
705.3100, 46247.00
706.4650, 46598.00
707.6190, 47458.00
708.7740, 47584.00
709.9290, 47243.00
711.0830, 46980.00
712.2370, 45994.00
713.3910, 44898.00
714.5450, 43814.00
715.6980, 42384.00
716.8520, 41368.00
718.0050, 40153.00
719.1580, 39568.00
720.3110, 38484.00
721.4640, 38015.00
722.6170, 37741.00
723.7700, 37150.00
724.9220, 36915.00
726.0740, 36673.00
727.2260, 36326.00
728.3780, 36312.00
729.5300, 36033.00
730.6810, 36084.00
731.8330, 35780.00
732.9840, 35816.00
734.1350, 35879.00
735.2860, 35635.00
736.4370, 35705.00
737.5880, 35787.00
738.7380, 35565.00
739.8880, 35674.00
741.0390, 35660.00
742.1890, 35600.00
743.3380, 35621.00
744.4880, 35660.00
745.6380, 35711.52
746.7870, 35756.77
747.9360, 35849.00
749.0850, 35894.00
750.2340, 35872.00
751.3830, 35985.00
752.5310, 35953.00
753.6800, 35994.00
754.8280, 35992.36
755.9760, 35982.84
757.1240, 35967.00
758.2720, 35926.00
759.4190, 35939.00
760.5670, 35822.00
761.7140, 35956.00
762.8610, 35857.00
764.0080, 35952.00
765.1550, 36054.00
766.3020, 36046.00
767.4480, 35966.00
768.5950, 36014.00
769.7410, 36165.00
770.8870, 35808.00
772.0330, 36134.00
773.1780, 36262.00
774.3240, 36161.00
775.4690, 35945.00
776.6140, 36028.00
777.7590, 36167.00
778.9040, 36245.00
780.0490, 36375.00
781.1940, 36254.00
782.3380, 36077.00
783.4820, 36448.00
784.6260, 36285.00
785.7700, 36432.00
786.9140, 36624.00
788.0580, 36330.00
789.2010, 36448.00
790.3450, 36425.00
791.4880, 36480.00
792.6310, 36502.00
793.7730, 36553.00
794.9160, 36557.00
796.0590, 36478.00
797.2010, 36546.00
798.3430, 36292.00
799.4850, 36493.00
800.6270, 36758.00
801.7690, 36535.00
802.9100, 36596.00
804.0520, 36786.00
805.1930, 36545.00
806.3340, 36846.00
807.4750, 36800.00
808.6160, 36591.00
809.7560, 36971.00
810.8970, 36825.00
812.0370, 36675.00
813.1770, 36885.00
814.3170, 36734.00
815.4570, 37127.00
816.5960, 37011.00
817.7360, 36724.00
818.8750, 37083.00
820.0140, 36987.00
821.1530, 37076.00
822.2920, 37315.00
823.4310, 37135.00
824.5690, 36899.00
825.7070, 37238.00
826.8460, 36997.00
827.9840, 36958.00
829.1220, 37331.00
830.2590, 37522.00
831.3970, 37230.00
832.5340, 37275.00
833.6710, 37395.00
834.8080, 37607.00
835.9450, 37313.00
837.0820, 37500.00
838.2190, 37372.00
839.3550, 37500.00
840.4910, 37628.00
841.6270, 37603.00
842.7630, 37654.00
843.8990, 37694.00
845.0350, 37598.00
846.1700, 37796.00
847.3060, 37894.00
848.4410, 37817.00
849.5760, 37659.00
850.7100, 37939.00
851.8450, 37853.00
852.9800, 37948.00
854.1140, 38152.00
855.2480, 38038.00
856.3820, 38103.00
857.5160, 38094.00
858.6500, 38182.63
859.7830, 38189.00
860.9170, 38395.00
862.0500, 38445.00
863.1830, 38469.00
864.3160, 38579.48
865.4480, 38483.00
866.5810, 38687.00
867.7130, 38449.00
868.8460, 38466.00
869.9780, 38493.00
871.1100, 38593.00
872.2410, 38593.00
873.3730, 38653.88
874.5050, 38676.00
875.6360, 38738.00
876.7670, 38807.00
877.8980, 38846.00
879.0290, 38757.00
880.1590, 38633.00
881.2900, 38803.00
882.4200, 38890.00
883.5500, 38853.00
884.6800, 38957.00
885.8100, 38940.95
886.9400, 39093.00
888.0690, 38982.00
889.1990, 38976.00
890.3280, 39095.00
891.4570, 39141.00
892.5860, 39095.00
893.7140, 39179.51
894.8430, 39162.00
895.9710, 39205.00
897.1000, 39266.00
898.2280, 39203.00
899.3560, 39197.00
900.4830, 39509.00
901.6110, 39407.00
902.7380, 39703.00
903.8660, 39629.00
904.9930, 39725.00
906.1200, 39598.00
907.2460, 39639.00
908.3730, 39838.00
909.5000, 39525.00
910.6260, 39705.00
911.7520, 40042.00
912.8780, 39975.00
914.0040, 40013.00
915.1290, 39838.00
916.2550, 39876.00
917.3800, 40060.00
918.5050, 40090.00
919.6300, 40079.00
920.7550, 40151.00
921.8800, 40149.00
923.0040, 40198.00
924.1290, 40141.00
925.2530, 40214.95
926.3770, 40186.00
927.5010, 40324.00
928.6250, 40249.00
929.7480, 40291.00
930.8720, 40394.00
931.9950, 40243.00
933.1180, 40505.00
934.2410, 40616.00
935.3640, 40662.00
936.4860, 40643.00
937.6090, 40537.00
938.7310, 40576.00
939.8530, 40630.00
940.9750, 40788.00
942.0970, 40776.00
943.2180, 40966.00
944.3400, 41030.00
945.4610, 40973.00
946.5820, 40878.00
947.7030, 41084.00
948.8240, 41021.00
949.9450, 41093.00
951.0650, 41223.00
952.1860, 41031.00
953.3060, 41476.00
954.4260, 41325.00
955.5460, 41554.00
956.6650, 41301.00
957.7850, 41503.00
958.9040, 41045.00
960.0230, 41404.00
961.1420, 41254.00
962.2610, 41336.00
963.3800, 41337.00
964.4990, 41585.00
965.6170, 41695.00
966.7350, 42037.00
967.8530, 41790.00
968.9710, 41971.00
970.0890, 41907.00
971.2070, 41847.00
972.3240, 41944.00
973.4410, 42039.00
974.5580, 42303.00
975.6750, 41789.00
976.7920, 42177.00
977.9090, 41872.00
979.0250, 42052.00
980.1410, 42297.00
981.2580, 42341.00
982.3740, 42459.92
983.4890, 42445.00
984.6050, 42521.00
985.7200, 42452.00
986.8360, 42388.00
987.9510, 42519.00
989.0660, 42670.00
990.1810, 42520.00
991.2950, 42794.00
992.4100, 42627.00
993.5240, 42809.00
994.6390, 42491.00
995.7530, 42977.00
996.8660, 42732.00
997.9800, 43116.00
999.0940, 42952.00
1000.207, 42899.00
1001.320, 42987.00
1002.433, 42957.00
1003.546, 43027.00
1004.659, 42931.00
1005.772, 43179.00
1006.884, 43394.00
1007.996, 43269.00
1009.108, 43306.00
1010.220, 43167.00
1011.332, 43415.00
1012.444, 43404.00
1013.555, 43094.00
1014.666, 43269.00
1015.777, 43415.00
1016.888, 43236.00
1017.999, 43761.00
1019.110, 43669.00
1020.220, 43782.00
1021.331, 43591.00
1022.441, 43851.00
1023.551, 43928.00
1024.661, 44062.00
1025.770, 43923.00
1026.880, 43700.00
1027.989, 44194.00
1029.098, 43809.00
1030.207, 43794.00
1031.316, 44021.00
1032.425, 44180.00
1033.533, 44104.00
1034.642, 44158.00
1035.750, 44444.00
1036.858, 44034.00
1037.966, 44743.00
1039.073, 44413.00
1040.181, 44276.00
1041.288, 44625.00
1042.396, 44594.00
1043.503, 44582.00
1044.610, 44741.00
1045.716, 45060.00
1046.823, 44833.00
1047.929, 45013.00
1049.036, 45040.00
1050.142, 44782.00
1051.248, 45198.00
1052.353, 45107.00
1053.459, 45382.00
1054.564, 45470.00
1055.670, 45276.00
1056.775, 45258.00
1057.880, 45312.00
1058.985, 45811.00
1060.089, 45642.00
1061.194, 45846.00
1062.298, 45720.00
1063.402, 45683.00
1064.506, 46079.00
1065.610, 45931.00
1066.713, 45995.00
1067.817, 45993.00
1068.920, 46194.00
1070.023, 46323.00
1071.126, 46239.00
1072.229, 46444.00
1073.332, 46173.00
1074.435, 46245.00
1075.537, 46478.00
1076.639, 46294.00
1077.741, 46587.00
1078.843, 46659.00
1079.945, 46859.00
1081.046, 46858.00
1082.148, 46819.00
1083.249, 46763.00
1084.350, 46868.00
1085.451, 47037.00
1086.551, 47098.00
1087.652, 46927.00
1088.752, 47248.00
1089.853, 47582.00
1090.953, 47278.00
1092.053, 47116.00
1093.152, 47102.00
1094.252, 47251.00
1095.351, 47340.00
1096.451, 47329.00
1097.550, 47496.00
1098.649, 47525.00
1099.748, 47489.00
1100.846, 47568.00
1101.945, 47701.00
1103.043, 48061.00
1104.141, 47930.00
1105.239, 48017.00
1106.337, 48222.00
1107.434, 48150.00
1108.532, 48230.00
1109.629, 48274.00
1110.726, 48220.00
1111.823, 48396.00
1112.920, 48399.00
1114.017, 48658.00
1115.113, 48610.00
1116.210, 48765.00
1117.306, 48884.00
1118.402, 48947.39
1119.498, 49074.00
1120.593, 49189.00
1121.689, 49348.00
1122.784, 49536.00
1123.879, 49580.00
1124.974, 49354.00
1126.069, 49635.00
1127.164, 49651.00
1128.259, 49881.00
1129.353, 49776.00
1130.447, 49876.00
1131.541, 49913.23
1132.635, 49912.00
1133.729, 49854.00
1134.822, 49598.00
1135.916, 49335.00
1137.009, 49315.00
1138.102, 48968.00
1139.195, 48878.67
1140.288, 48795.00
1141.380, 48603.00
1142.473, 48450.00
1143.565, 48312.00
1144.657, 48222.43
1145.749, 48102.00
1146.841, 48128.00
1147.932, 48054.00
1149.024, 48073.27
1150.115, 47949.00
1151.206, 47997.00
1152.297, 47996.00
1153.388, 47925.00
1154.479, 47915.00
1155.569, 47896.00
1156.659, 47857.00
1157.750, 48065.00
1158.839, 47802.00
1159.929, 47911.00
1161.019, 48206.00
1162.108, 48042.00
1163.198, 47968.00
1164.287, 47880.00
1165.376, 48168.00
1166.465, 48325.00
1167.553, 48151.00
1168.642, 48318.00
1169.730, 48220.00
1170.818, 48298.00
1171.906, 48256.00
1172.994, 48285.00
1174.082, 48443.00
1175.170, 48431.00
1176.257, 48619.00
1177.344, 48618.00
1178.431, 48128.00
1179.518, 48342.00
1180.605, 48186.00
1181.691, 48676.00
1182.778, 48611.00
1183.864, 48585.00
1184.950, 48827.00
1186.036, 48746.00
1187.122, 48807.00
1188.207, 48784.00
1189.292, 48867.00
1190.378, 48899.00
1191.463, 48967.43
1192.548, 49047.00
1193.632, 49122.00
1194.717, 49045.00
1195.801, 49084.00
1196.886, 49060.00
1197.970, 49178.00
1199.054, 49266.00
1200.137, 49100.00
1201.221, 49253.00
1202.305, 49127.00
1203.388, 49181.00
1204.471, 49563.00
1205.554, 49129.00
1206.637, 49559.00
1207.719, 49371.00
1208.802, 49607.00
1209.884, 49409.00
1210.966, 49512.96
1212.048, 49582.00
1213.130, 49672.00
1214.212, 49612.00
1215.293, 49730.00
1216.374, 49725.00
1217.456, 49998.00
1218.536, 49982.00
1219.617, 49778.00
1220.698, 49939.00
1221.778, 49708.00
1222.859, 50024.00
1223.939, 50009.00
1225.019, 50079.00
1226.099, 49926.00
1227.178, 50091.00
1228.258, 50206.00
1229.337, 50040.00
1230.417, 50282.00
1231.496, 50393.00
1232.574, 50198.00
1233.653, 50432.00
1234.732, 50346.00
1235.810, 50203.00
1236.888, 50543.00
1237.966, 50772.00
1239.044, 50606.00
1240.122, 50453.00
1241.199, 50986.00
1242.277, 50628.00
1243.354, 50604.00
1244.431, 50783.00
1245.508, 50376.00
1246.585, 50826.00
1247.661, 50685.00
1248.738, 50644.00
1249.814, 50833.00
1250.890, 50835.00
1251.966, 51030.00
1253.042, 51142.00
1254.117, 50953.00
1255.193, 51115.00
1256.268, 51066.00
1257.343, 51012.00
1258.418, 50679.00
1259.493, 50921.00
1260.567, 51053.00
1261.642, 50999.00
1262.716, 51234.00
1263.790, 51298.00
1264.864, 51350.00
1265.938, 51456.00
1267.011, 51520.00
1268.085, 51475.00
1269.158, 51514.00
1270.231, 51740.00
1271.304, 51428.00
1272.377, 51435.00
1273.450, 51423.00
1274.522, 51156.00
1275.594, 51798.00
1276.666, 51710.00
1277.738, 51818.00
1278.810, 51703.00
1279.882, 51910.00
1280.953, 51868.00
1282.025, 51818.00
1283.096, 52007.00
1284.167, 52012.00
1285.238, 52088.00
1286.308, 52026.00
1287.379, 52065.18
1288.449, 52213.00
1289.519, 52089.00
1290.589, 51997.00
1291.659, 52021.00
1292.729, 52205.00
1293.798, 52215.00
1294.868, 52557.00
1295.937, 52590.00
1297.006, 52355.00
1298.075, 52617.00
1299.143, 52693.00
1300.212, 52659.00
1301.280, 52722.00
1302.348, 52603.00
1303.416, 52750.00
1304.484, 52864.00
1305.552, 52868.00
1306.620, 52983.55
1307.687, 53078.00
1308.754, 53098.00
