##NAMES=Triplite
##RRUFFID=R050226
##IDEAL CHEMISTRY=Mn^2+^_2_(PO_4_)F
##LOCALITY=Fremont County, Colorado, USA
##OWNER=RRUFF
##SOURCE=Marcus Origlieri
##DESCRIPTION=Reddish brown massive
##STATUS=The identification of this mineral has been confirmed by X-ray diffraction and chemical analysis
##URL=rruff.info/R050226
##MEASURED CHEMISTRY=(Mn^2+^_1.20_Mg_0.49_Fe^2+^_0.27_Ca_0.04_)_Σ=2_(P_1.00_O_4_)(F_0.95_(OH)_0.05_)_Σ=1_
##PIN_ID=L00496
##ORIENTATION=Laser parallel to a* (1 0 0). Fiducial mark perpendicular to laser is parallel to b [0 1 0]
65.41600, 48840.00
66.65000, 50938.00
67.88400, 53163.00
69.11700, 54832.00
70.35100, 57063.00
71.58400, 59335.00
72.81800, 59460.00
74.05100, 61495.00
75.28400, 63893.00
76.51700, 66559.00
77.74900, 69412.00
78.98200, 70392.00
80.21400, 70845.00
81.44700, 70707.00
82.67900, 72170.00
83.91100, 75797.00
85.14300, 73780.00
86.37400, 72484.00
87.60600, 71446.00
88.83700, 67913.00
90.06900, 66949.00
91.30000, 65934.00
92.53100, 67407.00
93.76200, 68227.00
94.99300, 68943.00
96.22300, 68924.00
97.45400, 68141.00
98.68400, 67470.19
99.91400, 63776.00
101.1440, 64792.00
102.3740, 63154.00
103.6040, 61536.00
104.8340, 61642.00
106.0630, 62824.00
107.2930, 62749.00
108.5220, 64262.00
109.7510, 65765.00
110.9800, 63960.00
112.2090, 62135.00
113.4370, 61451.00
114.6660, 61864.00
115.8940, 61441.00
117.1220, 61805.00
118.3510, 62065.46
119.5790, 62102.03
120.8060, 63026.00
122.0340, 62707.00
123.2620, 63647.00
124.4890, 64367.00
125.7160, 62867.00
126.9430, 60864.00
128.1700, 58166.00
129.3970, 58042.00
130.6240, 57760.00
131.8500, 58651.00
133.0770, 58179.00
134.3030, 58167.00
135.5290, 58798.00
136.7550, 57300.00
137.9810, 56208.00
139.2070, 56287.00
140.4320, 56779.00
141.6580, 57801.00
142.8830, 57228.00
144.1080, 56001.00
145.3330, 55465.00
146.5580, 55678.00
147.7830, 55925.00
149.0070, 55609.00
150.2320, 55710.00
151.4560, 54822.00
152.6800, 55109.00
153.9040, 54486.00
155.1280, 55285.00
156.3520, 55490.00
157.5760, 55689.00
158.7990, 55273.00
160.0220, 54790.00
161.2450, 54845.00
162.4680, 53563.00
163.6910, 54164.00
164.9140, 53538.00
166.1370, 54466.00
167.3590, 54921.00
168.5810, 53839.00
169.8040, 53876.00
171.0260, 53962.00
172.2480, 53733.00
173.4690, 53244.00
174.6910, 53447.00
175.9120, 53357.00
177.1340, 52735.00
178.3550, 52069.00
179.5760, 53063.00
180.7970, 52512.00
182.0180, 52153.00
183.2380, 51555.00
184.4590, 51853.00
185.6790, 51957.74
186.8990, 52672.00
188.1190, 52327.00
189.3390, 52714.00
190.5590, 51776.00
191.7780, 51720.00
192.9980, 52118.00
194.2170, 51632.40
195.4360, 51609.00
196.6550, 51478.00
197.8740, 51329.00
199.0930, 51249.00
200.3120, 51390.00
201.5300, 51537.00
202.7480, 51092.00
203.9670, 51464.00
205.1850, 50890.00
206.4020, 50388.00
207.6200, 50197.00
208.8380, 49656.00
210.0550, 49111.00
211.2730, 49928.00
212.4900, 49868.00
213.7070, 49678.00
214.9240, 49742.00
216.1400, 49541.66
217.3570, 49614.00
218.5730, 49139.00
219.7900, 49274.00
221.0060, 48881.07
222.2220, 49202.00
223.4380, 48822.00
224.6540, 48891.00
225.8690, 49277.00
227.0850, 48830.00
228.3000, 49280.00
229.5150, 48530.00
230.7300, 48783.00
231.9450, 48934.00
233.1600, 48276.00
234.3740, 48309.00
235.5890, 47915.00
236.8030, 47880.00
238.0170, 47772.00
239.2310, 47101.00
240.4450, 47023.00
241.6590, 47589.00
242.8720, 47363.00
244.0860, 48063.00
245.2990, 48102.00
246.5120, 47683.00
247.7250, 47568.00
248.9380, 47572.00
250.1510, 47362.00
251.3630, 47351.91
252.5750, 47367.38
253.7880, 47293.00
255.0000, 47444.00
256.2120, 47525.52
257.4240, 47531.00
258.6350, 47513.00
259.8470, 47279.00
261.0580, 46759.00
262.2690, 46672.00
263.4810, 46520.51
264.6920, 46460.63
265.9020, 46488.00
267.1130, 46565.00
268.3240, 46660.00
269.5340, 46664.00
270.7440, 46647.00
271.9540, 47244.00
273.1640, 46838.00
274.3740, 47071.00
275.5840, 46979.00
276.7930, 46870.00
278.0020, 46983.83
279.2120, 47018.00
280.4210, 47204.00
281.6300, 46527.00
282.8380, 46941.00
284.0470, 46744.00
285.2550, 47174.00
286.4640, 47321.00
287.6720, 47809.00
288.8800, 47656.00
290.0880, 47579.00
291.2960, 47753.00
292.5030, 47140.00
293.7110, 47297.00
294.9180, 47276.05
296.1250, 47796.00
297.3320, 47449.00
298.5390, 47683.00
299.7460, 47825.00
300.9520, 47872.00
302.1590, 47431.00
303.3650, 47549.00
304.5710, 47372.00
305.7770, 47345.00
306.9830, 47497.00
308.1890, 46663.00
309.3940, 47318.00
310.6000, 46778.00
311.8050, 46399.00
313.0100, 46639.00
314.2150, 46387.00
315.4200, 46152.00
316.6240, 46372.00
317.8290, 46264.00
319.0330, 46038.00
320.2370, 46084.00
321.4410, 45662.00
322.6450, 46020.00
323.8490, 45518.00
325.0530, 45357.00
326.2560, 45589.00
327.4600, 45563.00
328.6630, 45095.00
329.8660, 45115.00
331.0690, 44808.00
332.2710, 44704.00
333.4740, 44542.00
334.6760, 44674.00
335.8790, 44666.00
337.0810, 44431.00
338.2830, 44548.00
339.4850, 44192.00
340.6860, 44332.00
341.8880, 44085.00
343.0890, 44357.00
344.2910, 44363.00
345.4920, 44168.00
346.6930, 44005.00
347.8940, 43854.00
349.0940, 43977.00
350.2950, 43547.00
351.4950, 43841.00
352.6950, 43588.00
353.8950, 43533.00
355.0950, 43542.00
356.2950, 43346.00
357.4950, 43411.00
358.6940, 43663.00
359.8940, 43409.00
361.0930, 43328.00
362.2920, 43050.00
363.4910, 42989.00
364.6890, 43277.00
365.8880, 43149.00
367.0860, 43021.00
368.2850, 42780.00
369.4830, 43004.00
370.6810, 43164.00
371.8790, 43298.00
373.0760, 43303.00
374.2740, 43108.00
375.4710, 43323.00
376.6690, 43454.00
377.8660, 43036.00
379.0630, 43010.00
380.2590, 43217.00
381.4560, 43140.00
382.6530, 43013.00
383.8490, 43202.00
385.0450, 43171.00
386.2410, 43322.00
387.4370, 43409.39
388.6330, 43579.00
389.8280, 43557.00
391.0240, 43558.88
392.2190, 43691.28
393.4140, 43805.47
394.6090, 43902.80
395.8040, 43911.92
396.9990, 44050.88
398.1930, 44147.45
399.3880, 44249.05
400.5820, 44426.05
401.7760, 44483.66
402.9700, 44673.46
404.1640, 44820.21
405.3580, 44996.79
406.5510, 45130.63
407.7440, 45286.70
408.9380, 45499.41
410.1310, 45851.27
411.3240, 46200.43
412.5160, 46508.52
413.7090, 46653.75
414.9010, 47009.36
416.0940, 47280.79
417.2860, 47548.54
418.4780, 47933.79
419.6700, 48102.49
420.8610, 48550.00
422.0530, 49666.00
423.2440, 49835.00
424.4360, 50201.00
425.6270, 50962.00
426.8180, 51130.41
428.0080, 51821.82
429.1990, 52284.93
430.3890, 52521.36
431.5800, 52409.20
432.7700, 52547.00
433.9600, 52400.00
435.1500, 52159.00
436.3400, 51983.00
437.5290, 51902.00
438.7190, 51246.00
439.9080, 50615.00
441.0970, 49732.35
442.2860, 49478.36
443.4750, 49199.22
444.6640, 48896.27
445.8520, 48498.43
447.0400, 48223.46
448.2290, 48213.00
449.4170, 48052.00
450.6050, 48083.00
451.7920, 48089.00
452.9800, 48006.00
454.1670, 48042.05
455.3550, 48001.05
456.5420, 47991.00
457.7290, 48008.46
458.9160, 48104.09
460.1030, 48131.95
461.2890, 48094.41
462.4750, 47869.17
463.6620, 47829.91
464.8480, 47681.73
466.0340, 47505.51
467.2200, 47422.24
468.4050, 47098.02
469.5910, 46963.75
470.7760, 46719.43
471.9610, 46880.55
473.1460, 46802.41
474.3310, 46796.53
475.5160, 46864.26
476.7000, 46934.09
477.8850, 46856.00
479.0690, 46820.00
480.2530, 46885.00
481.4370, 46780.00
482.6210, 47153.00
483.8050, 47126.00
484.9880, 47386.00
486.1710, 47340.00
487.3550, 47305.47
488.5380, 47356.00
489.7210, 47343.00
490.9030, 47564.00
492.0860, 47590.29
493.2680, 47900.00
494.4510, 47801.00
495.6330, 48104.00
496.8150, 48263.79
497.9970, 48613.15
499.1780, 48493.00
500.3600, 48604.86
501.5410, 48510.00
502.7220, 48667.00
503.9030, 48672.00
505.0840, 48574.06
506.2650, 48573.72
507.4460, 48358.00
508.6260, 48383.00
509.8060, 48262.00
510.9870, 48037.55
512.1670, 48140.93
513.3460, 48201.15
514.5260, 48220.54
515.7060, 48076.81
516.8850, 48143.72
518.0640, 48126.21
519.2430, 48105.24
520.4220, 48201.79
521.6010, 48252.70
522.7790, 48283.38
523.9580, 48150.95
525.1360, 48229.14
526.3140, 48222.93
527.4920, 48213.25
528.6700, 48321.11
529.8480, 48212.40
531.0250, 48324.00
532.2030, 48377.00
533.3800, 48457.00
534.5570, 48389.00
535.7340, 48154.00
536.9110, 48305.00
538.0870, 47945.00
539.2640, 48313.00
540.4400, 48336.00
541.6160, 48229.00
542.7920, 48434.00
543.9680, 48592.00
545.1440, 48870.00
546.3190, 48837.00
547.4940, 48910.00
548.6700, 48960.00
549.8450, 49080.09
551.0200, 49272.00
552.1940, 49457.00
553.3690, 49743.87
554.5430, 50096.00
555.7180, 50288.00
556.8920, 50505.00
558.0660, 50737.00
559.2400, 50722.00
560.4130, 50932.00
561.5870, 51072.00
562.7600, 51296.00
563.9330, 51523.47
565.1060, 51793.50
566.2790, 52056.00
567.4520, 52365.00
568.6250, 52722.00
569.7970, 52929.00
570.9690, 52979.00
572.1410, 52993.00
573.3130, 53284.78
574.4850, 53416.61
575.6570, 53505.29
576.8280, 53553.12
578.0000, 53437.84
579.1710, 53533.18
580.3420, 53544.11
581.5130, 53551.57
582.6830, 53676.52
583.8540, 53584.95
585.0240, 53708.04
586.1940, 53745.43
587.3650, 53822.08
588.5340, 53834.00
589.7040, 54181.00
590.8740, 54543.00
592.0430, 54854.00
593.2130, 55003.00
594.3820, 55628.00
595.5510, 56499.00
596.7200, 57556.00
597.8880, 57642.00
599.0570, 58473.75
600.2250, 58684.00
601.3930, 59310.09
602.5610, 59611.00
603.7290, 59886.76
604.8970, 60138.69
606.0650, 60295.47
607.2320, 60574.91
608.3990, 60805.12
609.5670, 60883.14
610.7330, 61102.21
611.9000, 61247.91
613.0670, 61321.40
614.2330, 61251.38
615.4000, 61255.89
616.5660, 61162.89
617.7320, 61019.56
618.8980, 60896.51
620.0640, 60716.62
621.2290, 60462.27
622.3950, 60264.68
623.5600, 59955.56
624.7250, 59581.94
625.8900, 59214.39
627.0550, 59020.00
628.2190, 58818.58
629.3840, 58778.23
630.5480, 58712.78
631.7120, 58623.51
632.8760, 58439.08
634.0400, 58377.53
635.2040, 58266.73
636.3670, 58154.00
637.5300, 58109.82
638.6940, 58117.55
639.8570, 58145.15
641.0190, 58147.60
642.1820, 58126.20
643.3450, 58009.65
644.5070, 58016.00
645.6690, 57973.11
646.8320, 57928.18
647.9930, 57951.85
649.1550, 57849.17
650.3170, 57871.73
651.4780, 57796.00
652.6400, 57679.00
653.8010, 57619.00
654.9620, 57420.00
656.1230, 57278.21
657.2830, 57030.27
658.4440, 56875.02
659.6040, 56696.09
660.7640, 56422.01
661.9240, 56270.80
663.0840, 56070.36
664.2440, 55867.89
665.4040, 55796.44
666.5630, 55556.21
667.7220, 55438.86
668.8810, 55272.26
670.0400, 55103.64
671.1990, 55003.58
672.3580, 54868.88
673.5160, 54810.00
674.6750, 54685.75
675.8330, 54689.09
676.9910, 54667.27
678.1480, 54621.66
679.3060, 54480.86
680.4640, 54462.93
681.6210, 54395.81
682.7780, 54326.66
683.9350, 54326.08
685.0920, 54199.16
686.2490, 54197.49
687.4050, 54100.05
688.5620, 54138.30
689.7180, 54127.50
690.8740, 54069.02
692.0300, 53891.52
693.1860, 53813.02
694.3410, 53661.54
695.4970, 53484.05
696.6520, 53351.43
697.8070, 53065.58
698.9620, 52665.05
700.1170, 52472.49
701.2720, 52256.11
702.4260, 51944.77
703.5810, 51756.11
704.7350, 51518.41
705.8890, 51354.00
707.0430, 51132.00
708.1960, 50980.00
709.3500, 50695.00
710.5030, 50340.00
711.6570, 50013.00
712.8100, 49757.05
713.9630, 49232.00
715.1150, 49170.00
716.2680, 48934.00
717.4200, 48400.38
718.5730, 48331.74
719.7250, 48220.11
720.8770, 48067.63
722.0280, 47752.18
723.1800, 47647.22
724.3310, 47458.00
725.4830, 47265.17
726.6340, 47190.01
727.7850, 46898.28
728.9360, 46821.25
730.0860, 46658.66
731.2370, 46535.16
732.3870, 46326.86
733.5370, 46144.80
734.6880, 46047.55
735.8370, 45903.55
736.9870, 45685.48
738.1370, 45564.61
739.2860, 45270.20
740.4350, 45128.21
741.5840, 45051.97
742.7330, 44838.32
743.8820, 44719.14
745.0310, 44563.98
746.1790, 44425.20
747.3270, 44192.53
748.4750, 44193.61
749.6230, 44154.18
750.7710, 44076.58
751.9190, 43838.49
753.0660, 43813.78
754.2140, 43707.22
755.3610, 43599.92
756.5080, 43612.79
757.6540, 43411.80
758.8010, 43428.09
759.9480, 43361.33
761.0940, 43336.49
762.2400, 43229.35
763.3860, 43151.09
764.5320, 43160.43
765.6780, 43125.37
766.8230, 43019.06
767.9690, 43012.55
769.1140, 42835.05
770.2590, 42812.59
771.4040, 42858.52
772.5490, 42769.66
773.6930, 42777.96
774.8380, 42752.88
775.9820, 42566.91
777.1260, 42668.00
778.2700, 42648.72
779.4140, 42505.77
780.5570, 42605.02
781.7010, 42484.75
782.8440, 42543.77
783.9870, 42505.09
785.1300, 42462.94
786.2730, 42538.32
787.4150, 42397.15
788.5580, 42470.67
789.7000, 42458.49
790.8420, 42485.54
791.9840, 42427.66
793.1260, 42396.00
794.2680, 42449.32
795.4090, 42594.00
796.5510, 42623.00
797.6920, 42381.00
798.8330, 42316.00
799.9740, 42499.00
801.1150, 42350.00
802.2550, 42443.49
803.3950, 42329.00
804.5360, 42425.00
805.6760, 42481.43
806.8160, 42564.53
807.9550, 42604.48
809.0950, 42603.59
810.2340, 42439.59
811.3740, 42486.21
812.5130, 42448.44
813.6520, 42407.20
814.7900, 42483.50
815.9290, 42343.22
817.0670, 42417.66
818.2060, 42406.38
819.3440, 42434.34
820.4820, 42377.36
821.6190, 42346.62
822.7570, 42400.85
823.8950, 42408.02
825.0320, 42341.28
826.1690, 42371.74
827.3060, 42228.52
828.4430, 42237.71
829.5790, 42312.68
830.7160, 42250.20
831.8520, 42282.23
832.9880, 42278.28
834.1240, 42110.77
835.2600, 42227.70
836.3960, 42221.61
837.5310, 42089.24
838.6670, 42146.96
839.8020, 41992.04
840.9370, 42047.77
842.0720, 42019.08
843.2060, 41986.93
844.3410, 42072.30
845.4750, 41941.12
846.6100, 42024.62
847.7440, 42022.43
848.8770, 42059.47
850.0110, 42011.57
851.1450, 41989.90
852.2780, 42053.20
853.4110, 42069.46
854.5440, 42011.78
855.6770, 41959.77
856.8100, 42065.38
857.9430, 42127.83
859.0750, 42149.45
860.2070, 42007.95
861.3390, 42077.09
862.4710, 42061.81
863.6030, 42043.07
864.7350, 42141.86
865.8660, 42024.07
866.9970, 42120.99
868.1280, 42132.20
869.2590, 42129.12
870.3900, 42234.63
871.5210, 42296.99
872.6510, 42318.52
873.7820, 42176.92
874.9120, 42245.96
876.0420, 42230.58
877.1710, 42211.74
878.3010, 42310.43
879.4300, 42192.54
880.5600, 42289.37
881.6890, 42300.48
882.8180, 42350.82
883.9470, 42316.22
885.0750, 42307.85
886.2040, 42384.45
887.3320, 42414.00
888.4600, 42369.61
889.5880, 42422.44
890.7160, 42301.58
891.8440, 42333.13
892.9710, 42430.44
894.0990, 42390.32
895.2260, 42444.70
896.3530, 42463.08
897.4800, 42317.92
898.6060, 42457.18
899.7330, 42473.43
900.8590, 42836.00
901.9850, 42976.07
903.1110, 43121.48
904.2370, 43223.75
905.3630, 43285.18
906.4890, 43183.49
907.6140, 43292.40
908.7390, 43316.90
909.8640, 43337.93
910.9890, 43476.49
912.1140, 43398.48
913.2380, 43535.13
914.3630, 43586.12
915.4870, 43676.29
916.6110, 43681.53
917.7350, 43713.00
918.8580, 43462.00
919.9820, 43838.00
921.1050, 43641.00
922.2290, 43488.00
923.3520, 44015.00
924.4750, 43910.00
925.5970, 44086.00
926.7200, 44040.00
927.8420, 43960.00
928.9640, 44149.15
930.0870, 44225.52
931.2080, 44365.00
932.3300, 44565.00
933.4520, 44574.00
934.5730, 44666.00
935.6940, 44952.00
936.8150, 44942.00
937.9360, 45351.00
939.0570, 45439.00
940.1780, 45687.06
941.2980, 45739.20
942.4180, 46172.28
943.5380, 46564.50
944.6580, 46793.61
945.7780, 47233.35
946.8980, 47588.68
948.0170, 47940.21
949.1360, 48409.26
950.2560, 48662.09
951.3740, 49128.96
952.4930, 49510.43
953.6120, 49931.16
954.7300, 50569.00
955.8480, 50836.00
956.9670, 51492.00
958.0850, 51812.00
959.2020, 52627.00
960.3200, 52916.00
961.4370, 53572.00
962.5550, 54340.00
963.6720, 54917.00
964.7890, 55882.00
965.9050, 56959.00
967.0220, 58449.00
968.1380, 60318.00
969.2550, 61715.00
970.3710, 64593.00
971.4870, 67452.00
972.6030, 70939.00
973.7180, 74771.00
974.8340, 79650.00
975.9490, 85480.00
977.0640, 91618.00
978.1790, 98845.00
979.2940, 106405.0
980.4080, 114657.0
981.5230, 122484.0
982.6370, 129951.0
983.7510, 135872.0
984.8650, 139217.0
985.9790, 140126.0
987.0920, 138481.0
988.2060, 133440.0
989.3190, 126098.0
990.4320, 116800.0
991.5450, 107399.0
992.6580, 99662.00
993.7710, 89850.00
994.8830, 82527.00
995.9950, 75656.00
997.1080, 71170.00
998.2190, 66743.00
999.3310, 64142.00
1000.443, 61735.00
1001.554, 59877.00
1002.666, 58788.00
1003.777, 58138.00
1004.888, 56586.00
1005.998, 55927.00
1007.109, 55548.00
1008.219, 55099.00
1009.330, 54551.00
1010.440, 54309.00
1011.550, 54257.00
1012.660, 54263.00
1013.769, 54158.00
1014.879, 54072.00
1015.988, 53974.42
1017.097, 53786.00
1018.206, 53769.00
1019.315, 53871.36
1020.423, 54084.17
1021.532, 54253.93
1022.640, 54382.77
1023.748, 54348.47
1024.856, 54524.81
1025.964, 54616.75
1027.072, 54705.22
1028.179, 54911.10
1029.286, 54900.43
1030.393, 55104.45
1031.500, 55222.78
1032.607, 55380.33
1033.714, 55452.93
1034.820, 55551.67
1035.926, 55735.38
1037.032, 55872.03
1038.138, 55934.75
1039.244, 55982.00
1040.350, 56174.00
1041.455, 56265.00
1042.560, 56201.00
1043.665, 56329.00
1044.770, 56416.00
1045.875, 56502.39
1046.980, 56657.49
1048.084, 56677.00
1049.188, 56785.00
1050.292, 56687.77
1051.396, 56361.97
1052.500, 56515.00
1053.604, 56078.00
1054.707, 55733.00
1055.810, 55760.00
1056.913, 55593.76
1058.016, 55720.84
1059.119, 55804.77
1060.222, 55847.86
1061.324, 55727.80
1062.426, 55818.39
1063.528, 55824.56
1064.630, 55827.27
1065.732, 55947.50
1066.834, 56221.00
1067.935, 56682.40
1069.036, 57976.57
1070.137, 58904.30
1071.238, 59630.98
1072.339, 60121.35
1073.439, 60453.64
1074.540, 60630.69
1075.640, 60529.87
1076.740, 60525.16
1077.840, 60321.52
1078.940, 59999.89
1080.039, 59681.67
1081.138, 59032.57
1082.238, 58483.15
1083.337, 57627.00
1084.436, 56829.00
1085.534, 56284.00
1086.633, 55735.97
1087.731, 55315.74
1088.829, 54762.71
1089.927, 54273.00
1091.025, 53692.45
1092.123, 53550.78
1093.220, 53340.63
1094.318, 53065.78
1095.415, 52493.33
1096.512, 52336.61
1097.609, 52032.25
1098.705, 51735.07
1099.802, 51675.55
1100.898, 51216.37
1101.994, 51180.57
1103.090, 50994.70
1104.186, 50897.21
1105.282, 50830.02
1106.377, 50610.17
1107.473, 50654.71
1108.568, 50658.42
1109.663, 50499.00
1110.758, 50550.23
1111.852, 50517.05
1112.947, 50480.41
1114.041, 50561.29
1115.135, 50425.61
1116.229, 50504.63
1117.323, 50497.95
1118.417, 50530.49
1119.510, 50612.53
1120.603, 50612.00
1121.696, 50768.00
1122.789, 50889.73
1123.882, 50964.59
1124.975, 51022.93
1126.067, 51067.02
1127.159, 50974.55
1128.251, 51119.30
1129.343, 51206.22
1130.435, 51316.25
1131.527, 51570.36
1132.618, 51634.32
1133.709, 51596.47
1134.800, 51541.25
1135.891, 51333.21
1136.982, 51007.87
1138.073, 50727.00
1139.163, 50212.00
1140.253, 49746.00
1141.343, 49446.73
1142.433, 49171.00
1143.523, 48897.00
1144.612, 48701.00
1145.702, 48510.25
1146.791, 48497.44
1147.880, 48446.23
1148.969, 48358.94
1150.058, 48113.28
1151.146, 48083.10
1152.235, 47973.18
1153.323, 47864.61
1154.411, 47878.32
1155.499, 47680.21
1156.586, 47701.61
1157.674, 47641.99
1158.761, 47626.39
1159.848, 47530.58
1160.935, 47465.75
1162.022, 47490.62
1163.109, 47473.18
1164.195, 47386.58
1165.281, 47401.91
1166.368, 47248.27
1167.454, 47251.79
1168.539, 47325.81
1169.625, 47267.12
1170.710, 47347.79
1171.796, 47439.98
1172.881, 47489.03
1173.966, 47497.25
1175.051, 47342.34
1176.135, 47398.08
1177.220, 47369.40
1178.304, 47337.27
1179.388, 47422.65
1180.472, 47291.48
1181.556, 47375.00
1182.639, 47372.82
1183.723, 47409.87
1184.806, 47361.98
1185.889, 47340.33
1186.972, 47403.64
1188.055, 47419.91
1189.137, 47362.25
1190.219, 47401.80
1191.302, 47267.66
1192.384, 47285.93
1193.466, 47369.96
1194.547, 47316.58
1195.629, 47488.00
1196.710, 47584.00
1197.791, 47522.00
1198.872, 47499.00
1199.953, 47476.00
1201.034, 47727.00
1202.114, 47479.00
1203.195, 47308.00
1204.275, 47551.00
1205.355, 47530.00
1206.435, 47204.00
1207.514, 47155.00
1208.594, 47437.96
1209.673, 47547.45
1210.752, 47613.79
1211.831, 47639.30
1212.910, 47501.68
1213.989, 47574.71
1215.067, 47563.31
1216.145, 47548.45
1217.223, 47651.12
1218.301, 47537.22
1219.379, 47638.02
1220.457, 47653.12
1221.534, 47707.43
1222.611, 47676.80
1223.688, 47672.41
1224.765, 47752.98
1225.842, 47786.51
1226.918, 47746.09
1227.995, 47802.90
1229.071, 47686.01
1230.147, 47721.53
1231.223, 47822.81
1232.299, 47786.67
1233.374, 47845.00
1234.449, 47867.36
1235.525, 47726.17
1236.600, 47869.40
1237.674, 47889.61
1238.749, 47678.00
1239.824, 47988.00
1240.898, 47850.00
1241.972, 47972.00
1243.046, 47562.00
1244.120, 47734.00
1245.193, 47830.00
1246.267, 47915.00
1247.340, 48227.00
