##NAMES=Triplite
##RRUFFID=R050226
##IDEAL CHEMISTRY=Mn^2+^_2_(PO_4_)F
##LOCALITY=Fremont County, Colorado, USA
##OWNER=RRUFF
##SOURCE=Marcus Origlieri
##DESCRIPTION=Reddish brown massive
##STATUS=The identification of this mineral has been confirmed by X-ray diffraction and chemical analysis
##URL=rruff.info/R050226
##MEASURED CHEMISTRY=(Mn^2+^_1.20_Mg_0.49_Fe^2+^_0.27_Ca_0.04_)_Σ=2_(P_1.00_O_4_)(F_0.95_(OH)_0.05_)_Σ=1_
##PIN_ID=L00496
##ORIENTATION=Laser parallel to a* (1 0 0). Fiducial mark perpendicular to laser is parallel to b [0 1 0]
64.81000, 35546.00
66.04600, 36616.00
67.28200, 39474.00
68.51800, 41469.00
69.75400, 44324.00
70.98900, 46581.00
72.22500, 48579.00
73.46000, 51444.00
74.69500, 53679.00
75.93000, 54805.00
77.16500, 57365.00
78.40000, 60884.00
79.63400, 61738.00
80.86900, 63223.00
82.10300, 64148.00
83.33700, 65315.00
84.57100, 65342.00
85.80500, 62743.00
87.03800, 60699.00
88.27200, 59874.00
89.50500, 58212.00
90.73800, 57725.00
91.97100, 58184.00
93.20400, 61976.00
94.43700, 62163.00
95.67000, 59084.00
96.90200, 60246.00
98.13400, 57877.00
99.36600, 57067.00
100.5980, 56674.00
101.8300, 56610.00
103.0620, 55564.00
104.2930, 54858.00
105.5250, 54938.00
106.7560, 55729.00
107.9870, 57401.00
109.2180, 58589.00
110.4490, 57880.00
111.6790, 56116.00
112.9100, 55344.00
114.1400, 55744.00
115.3700, 55396.00
116.6000, 56217.00
117.8300, 57749.00
119.0600, 58514.00
120.2900, 58573.00
121.5190, 57773.00
122.7480, 56820.00
123.9770, 55829.00
125.2060, 55331.00
126.4350, 54063.00
127.6640, 53518.00
128.8920, 53225.00
130.1210, 53059.00
131.3490, 52686.29
132.5770, 52520.47
133.8050, 52263.00
135.0330, 52222.00
136.2600, 52200.00
137.4880, 52283.00
138.7150, 52002.00
139.9420, 53038.00
141.1690, 52736.00
142.3960, 52633.77
143.6230, 52584.00
144.8490, 51815.00
146.0760, 51875.00
147.3020, 51038.00
148.5280, 51164.00
149.7540, 51017.07
150.9800, 51244.00
152.2050, 51201.00
153.4310, 51231.00
154.6560, 51729.00
155.8810, 51686.00
157.1060, 51822.00
158.3310, 51338.00
159.5560, 51322.00
160.7800, 51082.00
162.0050, 50848.00
163.2290, 50799.20
164.4530, 50679.00
165.6770, 50571.00
166.9010, 50479.00
168.1250, 50292.21
169.3480, 50297.00
170.5720, 50169.00
171.7950, 50136.00
173.0180, 49986.00
174.2410, 49773.00
175.4640, 49530.00
176.6860, 49102.00
177.9090, 49067.00
179.1310, 48883.25
180.3530, 48617.00
181.5750, 48771.93
182.7970, 48505.00
184.0190, 48490.00
185.2400, 48636.00
186.4620, 48861.00
187.6830, 48790.00
188.9040, 48574.00
190.1250, 48386.00
191.3460, 48574.00
192.5660, 48333.07
193.7870, 48447.00
195.0070, 48112.00
196.2270, 48467.00
197.4470, 48346.00
198.6670, 48067.00
199.8870, 48149.00
201.1060, 48031.79
202.3260, 48024.00
203.5450, 47733.00
204.7640, 47866.00
205.9830, 47157.00
207.2020, 47265.00
208.4200, 46926.00
209.6390, 46489.00
210.8570, 46232.00
212.0750, 46313.00
213.2940, 46031.00
214.5110, 46209.00
215.7290, 45826.00
216.9470, 45653.00
218.1640, 45858.00
219.3810, 45970.00
220.5990, 45546.00
221.8150, 46056.00
223.0320, 45612.00
224.2490, 45738.00
225.4650, 46014.00
226.6820, 45500.00
227.8980, 45737.00
229.1140, 45320.00
230.3300, 45241.00
231.5460, 45113.00
232.7610, 45459.00
233.9770, 44928.00
235.1920, 44330.00
236.4070, 44569.00
237.6220, 44895.00
238.8370, 44745.00
240.0520, 44688.00
241.2660, 44735.00
242.4810, 44578.00
243.6950, 44538.00
244.9090, 44442.00
246.1230, 44418.82
247.3370, 44597.00
248.5500, 44635.00
249.7640, 44137.00
250.9770, 44678.00
252.1900, 44279.46
253.4030, 44482.00
254.6160, 44026.00
255.8290, 43717.00
257.0410, 43808.00
258.2530, 43781.00
259.4660, 43927.00
260.6780, 43666.00
261.8900, 43494.00
263.1010, 43779.00
264.3130, 43584.00
265.5250, 43740.00
266.7360, 43292.00
267.9470, 43188.00
269.1580, 43483.00
270.3690, 43313.91
271.5800, 43281.23
272.7900, 43495.00
274.0010, 43091.00
275.2110, 43164.00
276.4210, 43160.64
277.6310, 43293.41
278.8410, 43587.00
280.0500, 43752.00
281.2600, 43712.00
282.4690, 43736.00
283.6780, 43871.29
284.8870, 43874.00
286.0960, 44130.00
287.3050, 44313.00
288.5130, 44519.00
289.7220, 44505.00
290.9300, 44446.00
292.1380, 44742.00
293.3460, 44813.00
294.5540, 44837.00
295.7610, 45119.00
296.9690, 44865.00
298.1760, 44821.00
299.3830, 44534.00
300.5900, 44578.00
301.7970, 44704.00
303.0040, 44506.00
304.2100, 44639.00
305.4170, 43866.00
306.6230, 43958.00
307.8290, 43331.00
309.0350, 43662.00
310.2410, 43684.00
311.4460, 43464.00
312.6520, 43010.00
313.8570, 42946.00
315.0620, 42811.00
316.2670, 42623.32
317.4720, 42452.71
318.6770, 42501.62
319.8810, 42485.65
321.0860, 42408.13
322.2900, 42085.12
323.4940, 42079.22
324.6980, 41946.23
325.9020, 41808.04
327.1050, 41846.85
328.3090, 41559.56
329.5120, 41595.57
330.7150, 41502.55
331.9180, 41468.59
333.1210, 41306.76
334.3240, 41184.42
335.5260, 41190.08
336.7290, 41124.82
337.9310, 40948.36
339.1330, 40918.23
340.3350, 40626.64
341.5370, 40564.48
342.7380, 40601.41
343.9400, 40431.37
345.1410, 40403.66
346.3420, 39869.00
347.5430, 40121.00
348.7440, 39844.00
349.9450, 39539.00
351.1450, 39768.00
352.3460, 39423.00
353.5460, 39584.00
354.7460, 39549.00
355.9460, 39251.00
357.1460, 39339.00
358.3450, 39253.00
359.5450, 39236.00
360.7440, 38831.00
361.9430, 38940.00
363.1420, 38984.00
364.3410, 38726.00
365.5400, 38904.00
366.7380, 38855.00
367.9370, 38849.00
369.1350, 38774.64
370.3330, 38920.47
371.5310, 39001.34
372.7280, 39020.74
373.9260, 38794.55
375.1230, 38885.49
376.3210, 38849.33
377.5180, 38807.97
378.7150, 38943.54
379.9120, 38753.07
381.1080, 38885.83
382.3050, 38822.00
383.5010, 38817.00
384.6970, 38890.00
385.8930, 38980.00
387.0890, 39021.72
388.2850, 39138.54
389.4810, 38997.93
390.6760, 39224.06
391.8710, 39385.23
393.0660, 39484.93
394.2610, 39339.05
395.4560, 39510.29
396.6510, 39554.44
397.8450, 39593.32
399.0400, 39809.18
400.2340, 39698.96
401.4280, 39911.95
402.6220, 39995.93
403.8150, 40263.00
405.0090, 40321.00
406.2020, 40459.00
407.3960, 40941.00
408.5890, 41015.00
409.7820, 41150.00
410.9740, 41227.00
412.1670, 41603.48
413.3600, 42195.00
414.5520, 42387.00
415.7440, 42662.00
416.9360, 42982.00
418.1280, 43949.00
419.3200, 44463.00
420.5110, 45311.00
421.7020, 45872.00
422.8940, 46762.00
424.0850, 48054.00
425.2760, 49166.00
426.4660, 50250.00
427.6570, 51067.00
428.8470, 52188.00
430.0380, 53028.88
431.2280, 53776.98
432.4180, 54669.00
433.6080, 54894.00
434.7970, 55457.00
435.9870, 55404.00
437.1760, 55068.26
438.3650, 54443.00
439.5540, 53718.00
440.7430, 52909.00
441.9320, 51740.57
443.1210, 51631.00
444.3090, 50332.00
445.4970, 49526.00
446.6850, 49228.00
447.8730, 48950.00
449.0610, 48645.56
450.2490, 48932.76
451.4360, 49088.72
452.6240, 49117.05
453.8110, 48833.64
454.9980, 48801.20
456.1850, 48575.54
457.3710, 48278.77
458.5580, 48092.61
459.7440, 47514.66
460.9310, 47225.79
462.1170, 46864.84
463.3030, 46293.00
464.4880, 45861.00
465.6740, 45151.00
466.8590, 44736.00
468.0450, 44275.21
469.2300, 44032.00
470.4150, 43447.00
471.6000, 43212.00
472.7840, 42807.00
473.9690, 42765.00
475.1530, 42497.92
476.3370, 42205.00
477.5210, 42237.00
478.7050, 41814.00
479.8890, 41840.00
481.0730, 41947.00
482.2560, 41953.00
483.4390, 41948.00
484.6220, 41881.00
485.8050, 41928.08
486.9880, 41921.50
488.1710, 41970.00
489.3530, 42000.00
490.5360, 42042.15
491.7180, 42103.00
492.9000, 42168.00
494.0820, 42248.00
495.2630, 42356.15
496.4450, 42350.00
497.6260, 42575.00
498.8080, 42496.00
499.9890, 42609.50
501.1700, 42603.06
502.3500, 42552.00
503.5310, 42470.00
504.7110, 42495.00
505.8920, 42265.00
507.0720, 42257.74
508.2520, 42090.76
509.4320, 42198.02
510.6110, 42240.36
511.7910, 42221.19
512.9700, 41956.47
514.1490, 42008.87
515.3280, 41934.19
516.5070, 41854.29
517.6860, 41951.32
518.8650, 41722.33
520.0430, 41816.59
521.2210, 41781.82
522.3990, 41806.11
523.5770, 41702.53
524.7550, 41638.44
525.9330, 41702.27
527.1100, 41695.30
528.2870, 41577.03
529.4650, 41605.07
530.6420, 41540.25
531.8180, 41367.77
532.9950, 41462.81
534.1720, 41350.97
535.3480, 41316.00
536.5240, 40970.00
537.7000, 41091.00
538.8760, 41020.47
540.0520, 41489.00
541.2270, 41204.00
542.4030, 41257.00
543.5780, 41600.00
544.7530, 41408.00
545.9280, 41964.00
547.1030, 41931.43
548.2780, 41964.34
549.4520, 42101.00
550.6260, 42066.00
551.8010, 42135.00
552.9750, 42417.00
554.1480, 42421.00
555.3220, 42615.11
556.4960, 42658.00
557.6690, 42922.00
558.8420, 43124.95
560.0150, 43292.66
561.1880, 43515.00
562.3610, 43946.00
563.5340, 44081.00
564.7060, 44562.00
565.8780, 44763.00
567.0500, 45134.00
568.2220, 45459.00
569.3940, 45604.00
570.5660, 45817.00
571.7370, 46333.00
572.9090, 46763.00
574.0800, 47286.00
575.2510, 47511.44
576.4220, 47710.00
577.5920, 47778.00
578.7630, 47915.00
579.9330, 47734.00
581.1040, 47785.00
582.2740, 47796.00
583.4440, 48001.00
584.6130, 48206.00
585.7830, 48068.00
586.9520, 48526.00
588.1220, 48900.00
589.2910, 48855.00
590.4600, 49371.00
591.6290, 49947.00
592.7970, 50724.68
593.9660, 51712.61
595.1340, 52634.84
596.3020, 53495.65
597.4700, 54346.28
598.6380, 55043.20
599.8060, 55848.48
600.9730, 56581.00
602.1410, 57130.27
603.3080, 57730.00
604.4750, 57800.00
605.6420, 58315.00
606.8090, 58172.69
607.9750, 58273.81
609.1420, 58185.00
610.3080, 57787.00
611.4740, 57839.00
612.6400, 56759.00
613.8060, 56620.00
614.9720, 55663.00
616.1370, 55550.00
617.3020, 54976.00
618.4680, 54666.00
619.6330, 54201.00
620.7970, 53949.00
621.9620, 53460.00
623.1270, 53268.00
624.2910, 53231.00
625.4550, 52837.00
626.6190, 52608.00
627.7830, 52345.00
628.9470, 52460.00
630.1110, 52281.00
631.2740, 52579.00
632.4370, 52344.00
633.6000, 52077.29
634.7630, 52480.50
635.9260, 52818.74
637.0890, 53095.50
638.2510, 53126.47
639.4140, 53474.78
640.5760, 53695.79
641.7380, 54079.00
642.9000, 53817.00
644.0610, 54794.00
645.2230, 54971.00
646.3840, 54664.00
647.5460, 55106.00
648.7070, 55189.00
649.8670, 55543.00
651.0280, 55390.00
652.1890, 55669.00
653.3490, 55521.00
654.5090, 55935.00
655.6700, 55975.78
656.8300, 56053.00
657.9890, 56060.00
659.1490, 55962.00
660.3080, 55607.00
661.4680, 55912.00
662.6270, 55646.00
663.7860, 55301.00
664.9450, 55465.00
666.1030, 55625.00
667.2620, 55313.00
668.4200, 55013.00
669.5790, 55030.00
670.7370, 55381.00
671.8940, 55314.22
673.0520, 55508.95
674.2100, 55638.71
675.3670, 55706.96
676.5240, 55529.63
677.6810, 55669.42
678.8380, 55682.12
679.9950, 55689.61
681.1520, 55874.03
682.3080, 55867.00
683.4650, 55925.22
684.6210, 56011.79
685.7770, 56033.41
686.9320, 55993.60
688.0880, 55708.16
689.2440, 55739.84
690.3990, 55644.48
691.5540, 55543.91
692.7090, 55620.27
693.8640, 55370.61
695.0190, 55385.86
696.1730, 54956.33
697.3280, 54812.34
698.4820, 54510.10
699.6360, 54171.30
700.7900, 53978.08
701.9440, 53427.47
703.0970, 53169.07
704.2510, 52749.98
705.4040, 52358.98
706.5570, 51761.00
707.7100, 51404.00
708.8630, 50979.14
710.0150, 50585.00
711.1680, 49985.38
712.3200, 49627.00
713.4720, 49001.00
714.6240, 48374.00
715.7760, 47898.00
716.9280, 46999.00
718.0790, 46826.00
719.2310, 46297.00
720.3820, 46136.00
721.5330, 45475.00
722.6840, 44913.00
723.8350, 44650.00
724.9850, 44185.14
726.1360, 43727.09
727.2860, 43546.00
728.4360, 42909.00
729.5860, 42372.88
730.7360, 42221.09
731.8850, 42004.60
733.0350, 41726.39
734.1840, 41202.83
735.3330, 40996.41
736.4820, 40662.90
737.6310, 40324.18
738.7800, 40162.38
739.9280, 39674.83
741.0760, 39645.47
742.2250, 39422.36
743.3730, 39449.00
744.5200, 39201.00
745.6680, 38985.00
746.8160, 38944.00
747.9630, 38660.00
749.1100, 38698.00
750.2570, 38538.00
751.4040, 38438.00
752.5510, 38230.00
753.6980, 38181.94
754.8440, 37964.00
755.9900, 38073.00
757.1360, 37901.00
758.2820, 37867.00
759.4280, 37836.00
760.5740, 37825.00
761.7190, 37994.00
762.8640, 37833.00
764.0100, 37727.52
765.1550, 37704.00
766.2990, 37503.00
767.4440, 37509.00
768.5890, 37800.00
769.7330, 37641.00
770.8770, 37524.00
772.0210, 37644.00
773.1650, 37346.00
774.3090, 37528.65
775.4520, 37700.10
776.5960, 37806.61
777.7390, 37851.62
778.8820, 37651.07
780.0250, 37767.62
781.1670, 37757.07
782.3100, 37741.33
783.4520, 37902.49
784.5950, 37737.65
785.7370, 37896.01
786.8790, 37925.35
788.0210, 38013.74
789.1620, 37974.23
790.3040, 37974.25
791.4450, 38102.15
792.5860, 38159.23
793.7270, 38105.01
794.8680, 38197.13
796.0090, 38027.78
797.1490, 38087.86
798.2890, 38246.93
799.4300, 38087.88
800.5700, 38181.57
801.7090, 38178.00
802.8490, 38288.00
803.9890, 38428.00
805.1280, 38148.00
806.2670, 38355.00
807.4060, 38001.04
808.5450, 38094.54
809.6840, 38123.08
810.8230, 38090.15
811.9610, 37811.69
813.0990, 37850.34
814.2370, 37761.91
815.3750, 37668.27
816.5130, 37751.55
817.6510, 37508.81
818.7880, 37589.34
819.9250, 37540.84
821.0630, 37551.35
822.1990, 37434.08
823.3360, 37356.26
824.4730, 37406.35
825.6090, 37385.66
826.7460, 37253.63
827.8820, 37267.98
829.0180, 36805.00
830.1540, 36833.00
831.2890, 36602.00
832.4250, 36448.30
833.5600, 36459.00
834.6960, 36226.00
835.8310, 36170.00
836.9660, 36218.00
838.1000, 36112.00
839.2350, 35994.00
840.3690, 35884.00
841.5030, 35833.00
842.6380, 35758.00
843.7710, 35829.00
844.9050, 35739.00
846.0390, 35678.00
847.1720, 35439.48
848.3060, 35574.31
849.4390, 35644.19
850.5720, 35652.61
851.7040, 35415.46
852.8370, 35495.41
853.9700, 35448.27
855.1020, 35395.94
856.2340, 35520.54
857.3660, 35319.11
858.4980, 35440.90
859.6300, 35433.66
860.7610, 35485.50
861.8920, 35409.46
863.0240, 35540.00
864.1550, 35413.00
865.2850, 35221.00
866.4160, 35466.00
867.5470, 35472.00
868.6770, 35592.00
869.8070, 35273.00
870.9370, 35386.00
872.0670, 35620.00
873.1970, 35349.00
874.3270, 35709.00
875.4560, 35314.00
876.5850, 35626.00
877.7140, 35281.00
878.8430, 35484.00
879.9720, 35474.00
881.1010, 35590.00
882.2290, 35451.00
883.3570, 35489.97
884.4860, 35337.00
885.6140, 35338.00
886.7410, 35413.97
887.8690, 35583.00
888.9960, 35586.00
890.1240, 35589.16
891.2510, 35616.00
892.3780, 35635.48
893.5050, 35552.00
894.6320, 35685.00
895.7580, 35873.00
896.8840, 35887.00
898.0110, 35617.00
899.1370, 35897.00
900.2620, 35706.00
901.3880, 35986.00
902.5140, 35554.00
903.6390, 36033.00
904.7640, 35914.00
905.8890, 35746.00
907.0140, 36047.00
908.1390, 35840.00
909.2640, 36292.00
910.3880, 36178.00
911.5120, 35934.00
912.6360, 35990.00
913.7600, 36315.00
914.8840, 36282.30
916.0080, 36778.00
917.1310, 36453.00
918.2550, 36581.00
919.3780, 36363.00
920.5010, 36767.00
921.6230, 36589.00
922.7460, 36676.00
923.8690, 37004.00
924.9910, 36920.00
926.1130, 37089.29
927.2350, 36968.23
928.3570, 37173.66
929.4790, 37317.62
930.6000, 37215.89
931.7220, 37431.38
932.8430, 37519.69
933.9640, 37602.77
935.0850, 37862.80
936.2050, 37796.68
937.3260, 38053.89
938.4460, 38313.00
939.5660, 38644.00
940.6870, 38702.60
941.8060, 39007.00
942.9260, 39027.00
944.0460, 39495.00
945.1650, 39822.00
946.2840, 39994.00
947.4040, 40549.00
948.5220, 41281.00
949.6410, 42086.00
950.7600, 42238.00
951.8780, 42192.00
952.9970, 42651.00
954.1150, 43260.00
955.2330, 43833.82
956.3500, 44629.44
957.4680, 45583.00
958.5860, 46398.00
959.7030, 47540.00
960.8200, 48568.41
961.9370, 49964.07
963.0540, 51324.00
964.1710, 53335.00
965.2870, 55219.00
966.4030, 57754.00
967.5200, 60454.00
968.6360, 63567.00
969.7510, 68031.00
970.8670, 72982.00
971.9830, 78505.00
973.0980, 86620.00
974.2130, 92890.00
975.3280, 101857.0
976.4430, 112343.0
977.5580, 124244.0
978.6730, 135495.0
979.7870, 149011.0
980.9010, 161359.0
982.0150, 172601.0
983.1290, 181424.0
984.2430, 186725.0
985.3560, 187707.0
986.4700, 183427.0
987.5830, 174895.0
988.6960, 163949.0
989.8090, 148761.0
990.9220, 133544.0
992.0350, 117656.0
993.1470, 104627.0
994.2590, 92277.00
995.3720, 82510.00
996.4830, 75086.00
997.5950, 69454.00
998.7070, 64378.00
999.8180, 60723.00
1000.930, 57964.00
1002.041, 55889.00
1003.152, 54761.00
1004.263, 53230.00
1005.373, 52024.70
1006.484, 51790.11
1007.594, 51450.51
1008.704, 51011.14
1009.815, 50172.71
1010.924, 49849.88
1012.034, 49320.34
1013.144, 50212.00
1014.253, 50484.00
1015.362, 49981.00
1016.471, 49482.00
1017.580, 49306.00
1018.689, 49177.00
1019.797, 49334.00
1020.906, 49293.00
1022.014, 49902.00
1023.122, 49510.00
1024.230, 49892.00
1025.338, 49907.00
1026.445, 49990.18
1027.553, 50209.00
1028.660, 50298.00
1029.767, 50414.00
1030.874, 50505.00
1031.981, 50531.00
1033.088, 50735.00
1034.194, 50697.00
1035.300, 50993.00
1036.406, 50939.00
1037.512, 51380.00
1038.618, 51748.00
1039.724, 51386.00
1040.829, 51744.00
1041.935, 51934.00
1043.040, 52018.00
1044.145, 51956.00
1045.250, 51872.00
1046.354, 51890.00
1047.459, 51745.73
1048.563, 51640.00
1049.667, 51491.00
1050.771, 51413.00
1051.875, 51264.00
1052.979, 50872.00
1054.082, 50925.00
1055.186, 50405.00
1056.289, 50365.00
1057.392, 49992.00
1058.495, 49832.00
1059.598, 49823.00
1060.700, 49491.00
1061.803, 49971.00
1062.905, 49747.00
1064.007, 50025.00
1065.109, 50085.00
1066.210, 50650.00
1067.312, 51147.00
1068.413, 51613.46
1069.515, 52632.00
1070.616, 53038.00
1071.717, 53622.00
1072.817, 54826.00
1073.918, 54627.00
1075.019, 54852.00
1076.119, 54853.00
1077.219, 54408.00
1078.319, 53815.00
1079.419, 53408.00
1080.518, 52413.00
1081.618, 52106.00
1082.717, 51114.46
1083.816, 50307.00
1084.915, 49446.00
1086.014, 48945.00
1087.113, 48568.00
1088.211, 48284.00
1089.309, 47585.00
1090.408, 47208.00
1091.506, 46809.00
1092.603, 46442.00
1093.701, 46068.88
1094.799, 45649.00
1095.896, 45301.00
1096.993, 44968.00
1098.090, 44507.00
1099.187, 44276.00
1100.284, 43671.00
1101.380, 43658.00
1102.477, 43396.00
1103.573, 43449.00
1104.669, 42779.00
1105.765, 43011.00
1106.860, 42715.00
1107.956, 42841.00
1109.051, 42742.00
1110.147, 42438.00
1111.242, 42568.00
1112.336, 42590.00
1113.431, 42542.00
1114.526, 42707.00
1115.620, 42411.00
1116.714, 42283.00
1117.809, 42581.00
1118.902, 42525.00
1119.996, 42600.00
1121.090, 42512.00
1122.183, 43169.00
1123.277, 43036.00
1124.370, 43264.00
1125.463, 43642.00
1126.555, 43699.38
1127.648, 44016.00
1128.740, 44060.00
1129.833, 44045.00
1130.925, 44072.00
1132.017, 44164.00
1133.109, 43934.00
1134.200, 43753.00
1135.292, 43535.00
1136.383, 42975.00
1137.474, 42344.00
1138.565, 41937.00
1139.656, 41278.00
1140.747, 40692.00
1141.837, 40389.63
1142.927, 39917.58
1144.018, 39818.00
1145.108, 39258.00
1146.197, 39073.00
1147.287, 38749.00
1148.377, 38745.00
1149.466, 38511.34
1150.555, 38168.80
1151.644, 38143.57
1152.733, 38061.64
1153.822, 37738.92
1154.910, 37738.17
1155.999, 37615.04
1157.087, 37491.54
1158.175, 37549.75
1159.263, 37286.71
1160.350, 37351.72
1161.438, 37292.41
1162.525, 37296.98
1163.613, 37178.39
1164.700, 37104.12
1165.787, 37162.53
1166.873, 37154.90
1167.960, 36984.00
1169.046, 36924.00
1170.133, 36908.00
1171.219, 37019.00
1172.305, 36820.00
1173.390, 37054.00
1174.476, 37143.00
1175.561, 36743.00
1176.647, 37000.00
1177.732, 37166.00
1178.817, 36947.00
1179.901, 36827.00
1180.986, 36965.00
1182.070, 36876.00
1183.155, 36993.52
1184.239, 37076.57
1185.323, 37166.00
1186.407, 37156.00
1187.490, 37100.00
1188.574, 37097.54
1189.657, 37047.00
1190.740, 36935.00
1191.823, 36979.00
1192.906, 36779.00
1193.988, 36886.71
1195.071, 36849.00
1196.153, 37016.00
1197.235, 36897.00
1198.317, 36890.00
1199.399, 36949.00
1200.481, 37015.00
1201.562, 37175.00
1202.644, 36995.00
1203.725, 36912.00
1204.806, 36784.00
1205.887, 37035.00
1206.967, 37033.00
1208.048, 36890.00
1209.128, 36930.03
1210.208, 36809.00
1211.289, 36874.00
1212.368, 36862.00
1213.448, 36825.23
1214.528, 36831.23
1215.607, 36796.00
1216.686, 36794.00
1217.765, 36787.00
1218.844, 36684.75
1219.923, 36833.42
1221.001, 36917.12
1222.080, 36939.35
1223.158, 36716.01
1224.236, 36809.78
1225.314, 36776.46
1226.392, 36737.93
1227.469, 36876.33
1228.547, 36688.70
1229.624, 36824.30
1230.701, 36830.87
1231.778, 36896.49
1232.855, 36834.24
1233.931, 36811.49
1235.008, 36916.64
1236.084, 36950.98
1237.160, 36874.01
1238.236, 36943.38
1239.312, 36751.29
1240.387, 36788.64
1241.463, 36924.98
1242.538, 36854.44
1243.613, 36926.15
1244.688, 36943.69
1245.763, 36940.00
1246.837, 36821.57
