##NAMES=Triplite
##RRUFFID=R050226
##IDEAL CHEMISTRY=Mn^2+^_2_(PO_4_)F
##LOCALITY=Fremont County, Colorado, USA
##OWNER=RRUFF
##SOURCE=Marcus Origlieri
##DESCRIPTION=Reddish brown massive
##STATUS=The identification of this mineral has been confirmed by X-ray diffraction and chemical analysis
##URL=rruff.info/R050226
##MEASURED CHEMISTRY=(Mn^2+^_1.20_Mg_0.49_Fe^2+^_0.27_Ca_0.04_)_Σ=2_(P_1.00_O_4_)(F_0.95_(OH)_0.05_)_Σ=1_
##PIN_ID=L00426
##ORIENTATION=Laser parallel to c* (0 0 1). Fiducial mark perpendicular to laser is parallel to a [1 0 0]
63.41100, 13511.00
64.65300, 14344.00
65.89600, 15648.00
67.13800, 16898.00
68.38000, 18474.00
69.62200, 19937.00
70.86300, 21127.00
72.10500, 22990.00
73.34600, 24834.00
74.58700, 25828.00
75.82800, 27608.00
77.06900, 29050.00
78.30900, 30402.00
79.55000, 30979.00
80.79000, 31517.00
82.03000, 32292.00
83.27000, 33915.00
84.51000, 34621.00
85.74900, 34180.00
86.98900, 33520.00
88.22800, 33256.00
89.46700, 33565.00
90.70600, 33980.00
91.94400, 34778.00
93.18300, 35601.00
94.42100, 35113.00
95.65900, 34957.00
96.89700, 34866.00
98.13500, 34281.00
99.37300, 33908.00
100.6100, 33776.00
101.8480, 33588.00
103.0850, 33126.00
104.3220, 33102.00
105.5590, 33475.00
106.7950, 33925.00
108.0320, 33663.79
109.2680, 34232.00
110.5040, 33388.00
111.7400, 32802.00
112.9760, 32813.00
114.2120, 32887.00
115.4470, 32964.00
116.6820, 33696.00
117.9170, 34375.00
119.1520, 34274.00
120.3870, 34774.95
121.6220, 34245.00
122.8560, 34824.00
124.0900, 34434.00
125.3240, 33779.00
126.5580, 33117.00
127.7920, 32660.00
129.0260, 32633.00
130.2590, 32582.00
131.4920, 32524.00
132.7250, 32486.00
133.9580, 32440.00
135.1910, 32350.00
136.4230, 32287.00
137.6560, 32206.00
138.8880, 32532.00
140.1200, 32465.56
141.3520, 32722.00
142.5830, 32660.00
143.8150, 32469.00
145.0460, 32617.00
146.2770, 32575.29
147.5080, 32652.00
148.7390, 32658.00
149.9700, 32812.00
151.2000, 32783.00
152.4310, 32970.86
153.6610, 33097.86
154.8910, 33224.00
156.1210, 33274.00
157.3500, 33188.00
158.5800, 33242.16
159.8090, 33062.00
161.0380, 33160.00
162.2670, 33175.00
163.4960, 33051.00
164.7240, 33134.00
165.9530, 32870.00
167.1810, 32965.00
168.4090, 32905.00
169.6370, 32631.00
170.8650, 32907.00
172.0920, 32791.00
173.3200, 32960.00
174.5470, 32391.00
175.7740, 32454.00
177.0010, 32220.00
178.2280, 31990.00
179.4540, 31990.00
180.6810, 31866.70
181.9070, 31920.93
183.1330, 31919.00
184.3590, 31978.00
185.5850, 32049.62
186.8100, 31992.00
188.0350, 32196.41
189.2610, 32214.00
190.4860, 32233.00
191.7110, 32176.00
192.9350, 32255.40
194.1600, 32069.00
195.3840, 32318.00
196.6080, 32212.00
197.8320, 32109.00
199.0560, 32202.00
200.2800, 32218.00
201.5030, 32254.00
202.7270, 32235.00
203.9500, 32324.00
205.1730, 32274.03
206.3950, 32271.57
207.6180, 32152.00
208.8410, 32324.00
210.0630, 32157.00
211.2850, 32410.00
212.5070, 32403.00
213.7290, 32543.00
214.9500, 32633.00
216.1720, 32963.00
217.3930, 33132.00
218.6140, 33289.00
219.8350, 33660.00
221.0560, 33736.00
222.2770, 34121.00
223.4970, 33969.00
224.7170, 34486.00
225.9370, 34176.00
227.1570, 34267.00
228.3770, 34146.00
229.5970, 34044.00
230.8160, 33861.80
232.0350, 33414.00
233.2540, 33420.00
234.4730, 32918.00
235.6920, 32816.00
236.9110, 33096.00
238.1290, 32935.00
239.3470, 33052.00
240.5650, 33065.00
241.7830, 33380.00
243.0010, 33430.00
244.2180, 33425.00
245.4360, 33362.00
246.6530, 33503.46
247.8700, 33534.16
249.0870, 33460.04
250.3040, 32967.19
251.5200, 33015.14
252.7370, 32846.31
253.9530, 32668.68
255.1690, 32792.74
256.3850, 32360.88
257.6000, 32748.00
258.8160, 32787.00
260.0310, 32491.00
261.2460, 32332.00
262.4610, 32464.00
263.6760, 32730.00
264.8910, 32747.00
266.1050, 32529.00
267.3200, 32654.00
268.5340, 32450.00
269.7480, 32762.00
270.9620, 32913.00
272.1750, 32894.00
273.3890, 33176.00
274.6020, 33176.00
275.8150, 33300.00
277.0280, 33459.94
278.2410, 33574.55
279.4540, 33885.00
280.6660, 33945.00
281.8790, 34496.00
283.0910, 34787.00
284.3030, 35090.00
285.5140, 35274.00
286.7260, 35751.96
287.9380, 36059.37
289.1490, 36541.00
290.3600, 36862.00
291.5710, 36964.00
292.7820, 37380.00
293.9920, 37463.00
295.2030, 37412.00
296.4130, 37299.00
297.6230, 37370.00
298.8330, 37060.00
300.0430, 37264.00
301.2520, 37367.00
302.4620, 36893.00
303.6710, 36016.00
304.8800, 35491.00
306.0890, 35375.00
307.2980, 34920.00
308.5070, 34565.00
309.7150, 34451.00
310.9230, 33934.00
312.1310, 33760.00
313.3390, 33571.00
314.5470, 33612.00
315.7550, 33304.00
316.9620, 33194.00
318.1690, 32897.00
319.3760, 32960.00
320.5830, 32662.00
321.7900, 32871.00
322.9960, 32768.00
324.2030, 32874.00
325.4090, 32834.00
326.6150, 32745.00
327.8210, 32535.00
329.0270, 32706.00
330.2320, 32623.00
331.4380, 32386.00
332.6430, 32350.00
333.8480, 32470.00
335.0530, 32341.00
336.2580, 32496.89
337.4620, 32431.46
338.6670, 32666.00
339.8710, 32437.00
341.0750, 32339.00
342.2790, 32498.00
343.4820, 32347.00
344.6860, 32397.00
345.8890, 32216.00
347.0920, 32373.00
348.2960, 32258.00
349.4980, 32335.00
350.7010, 32302.00
351.9040, 32442.00
353.1060, 32527.00
354.3080, 32021.00
355.5100, 32512.00
356.7120, 32363.00
357.9140, 32454.00
359.1150, 32694.00
360.3170, 32361.00
361.5180, 32564.00
362.7190, 32526.00
363.9200, 32458.00
365.1200, 32605.00
366.3210, 32690.00
367.5210, 32770.00
368.7210, 32721.00
369.9210, 32993.00
371.1210, 33111.00
372.3210, 33045.00
373.5200, 33122.00
374.7200, 33373.00
375.9190, 33356.00
377.1180, 33609.00
378.3170, 33581.00
379.5150, 33664.00
380.7140, 33889.00
381.9120, 33910.00
383.1110, 34147.00
384.3090, 34418.00
385.5060, 34495.00
386.7040, 34597.00
387.9020, 34653.00
389.0990, 34781.00
390.2960, 35183.00
391.4930, 35232.00
392.6900, 35423.00
393.8860, 35669.35
395.0830, 35663.00
396.2790, 36051.00
397.4750, 36614.00
398.6710, 36769.00
399.8670, 36849.00
401.0630, 37393.00
402.2580, 37423.00
403.4540, 38436.00
404.6490, 38189.00
405.8440, 39039.00
407.0390, 38774.00
408.2330, 38577.00
409.4280, 38967.00
410.6220, 38796.00
411.8160, 38401.00
413.0100, 38864.00
414.2040, 38518.00
415.3980, 38079.00
416.5910, 37954.00
417.7850, 37893.00
418.9780, 37697.00
420.1710, 37439.00
421.3640, 37672.00
422.5560, 37729.00
423.7490, 38032.00
424.9410, 37903.00
426.1330, 38446.00
427.3250, 38374.00
428.5170, 38698.41
429.7090, 39325.00
430.9000, 39300.00
432.0910, 39387.00
433.2820, 39703.00
434.4730, 40329.00
435.6640, 40602.00
436.8550, 40511.59
438.0450, 40063.00
439.2360, 40088.00
440.4260, 39720.00
441.6160, 39480.00
442.8060, 39457.00
443.9950, 39167.00
445.1850, 39269.00
446.3740, 39374.00
447.5630, 39381.00
448.7520, 39652.00
449.9410, 39752.00
451.1300, 39850.00
452.3180, 39861.00
453.5060, 40439.00
454.6950, 41115.00
455.8830, 41059.00
457.0700, 40613.00
458.2580, 40443.00
459.4450, 40085.00
460.6330, 39917.00
461.8200, 39731.00
463.0070, 39602.00
464.1940, 39227.00
465.3800, 38849.00
466.5670, 38510.00
467.7530, 38195.61
468.9390, 37882.00
470.1250, 37635.00
471.3110, 37430.00
472.4970, 37211.00
473.6820, 37468.00
474.8680, 37053.00
476.0530, 36961.00
477.2380, 36903.00
478.4230, 36646.00
479.6070, 36652.00
480.7920, 36880.00
481.9760, 37057.00
483.1600, 36837.00
484.3440, 36800.00
485.5280, 37102.00
486.7120, 36970.00
487.8950, 37066.00
489.0780, 37083.00
490.2620, 37039.00
491.4450, 37289.00
492.6270, 37364.00
493.8100, 37086.00
494.9920, 37394.00
496.1750, 37222.00
497.3570, 37613.00
498.5390, 37249.00
499.7210, 37623.00
500.9020, 37376.00
502.0840, 37532.00
503.2650, 37623.00
504.4460, 37602.00
505.6270, 37481.00
506.8080, 37451.00
507.9890, 37647.00
509.1690, 37212.00
510.3500, 37230.00
511.5300, 37141.00
512.7100, 37481.00
513.8900, 37473.00
515.0690, 37385.00
516.2490, 37527.58
517.4280, 37315.00
518.6070, 37471.00
519.7860, 37335.00
520.9650, 37104.00
522.1440, 37150.00
523.3220, 37331.00
524.5010, 37311.00
525.6790, 37242.00
526.8570, 37228.00
528.0350, 37233.00
529.2130, 37582.00
530.3900, 37599.00
531.5670, 37792.00
532.7450, 37540.00
533.9220, 37685.00
535.0980, 37672.00
536.2750, 37690.00
537.4520, 37741.00
538.6280, 37809.14
539.8040, 37891.99
540.9800, 38034.86
542.1560, 38231.00
543.3320, 38420.00
544.5070, 38618.00
545.6830, 38756.00
546.8580, 38825.20
548.0330, 38701.00
549.2080, 38837.00
550.3830, 38897.00
551.5570, 38786.00
552.7310, 39025.46
553.9060, 39044.00
555.0800, 39338.00
556.2540, 39344.00
557.4270, 39412.00
558.6010, 39743.00
559.7740, 39479.00
560.9470, 39785.00
562.1210, 39871.00
563.2930, 40007.00
564.4660, 40180.84
565.6390, 40286.00
566.8110, 40499.00
567.9830, 40523.00
569.1550, 40797.00
570.3270, 41344.00
571.4990, 41481.00
572.6710, 41781.00
573.8420, 41965.00
575.0130, 41787.00
576.1840, 42416.00
577.3550, 42844.00
578.5260, 42473.00
579.6970, 42789.00
580.8670, 42623.00
582.0370, 43169.00
583.2070, 43073.00
584.3770, 43351.00
585.5470, 43472.00
586.7170, 43399.00
587.8860, 43804.00
589.0550, 43959.00
590.2240, 44514.00
591.3930, 44907.00
592.5620, 45290.00
593.7310, 46207.00
594.8990, 47434.00
596.0670, 48139.00
597.2350, 49223.00
598.4030, 49350.10
599.5710, 49808.36
600.7390, 49368.00
601.9060, 50115.00
603.0740, 50137.00
604.2410, 50288.00
605.4080, 50325.00
606.5740, 50466.00
607.7410, 50491.00
608.9080, 50266.00
610.0740, 50282.00
611.2400, 49925.00
612.4060, 49631.00
613.5720, 49498.00
614.7370, 49048.00
615.9030, 48985.00
617.0680, 48557.00
618.2330, 48692.00
619.3980, 48606.00
620.5630, 48012.00
621.7280, 48154.00
622.8920, 47670.00
624.0570, 48375.00
625.2210, 47780.00
626.3850, 47906.00
627.5490, 47370.00
628.7120, 47518.00
629.8760, 47672.00
631.0390, 47616.00
632.2020, 47741.00
633.3650, 47639.00
634.5280, 48035.00
635.6910, 48020.00
636.8530, 48285.00
638.0160, 48404.00
639.1780, 48663.00
640.3400, 48879.80
641.5020, 49142.00
642.6640, 49297.00
643.8250, 49732.00
644.9870, 49856.00
646.1480, 50040.00
647.3090, 50586.00
648.4700, 50759.00
649.6300, 50993.80
650.7910, 51413.00
651.9510, 51323.00
653.1120, 51621.00
654.2720, 51738.00
655.4320, 51888.46
656.5910, 52039.21
657.7510, 52228.07
658.9100, 52350.45
660.0690, 52409.94
661.2290, 52218.21
662.3880, 52350.89
663.5460, 52353.51
664.7050, 52350.84
665.8630, 52529.14
667.0220, 52373.93
668.1800, 52549.37
669.3380, 52592.80
670.4950, 52696.62
671.6530, 52669.65
672.8100, 52623.00
673.9680, 52683.00
675.1250, 52934.00
676.2820, 52907.00
677.4390, 52898.00
678.5950, 53180.00
679.7520, 53228.00
680.9080, 53668.00
682.0640, 53412.00
683.2200, 53624.00
684.3760, 53630.43
685.5320, 53894.60
686.6870, 54092.22
687.8420, 54226.95
688.9980, 54110.53
690.1530, 54318.45
691.3070, 54396.24
692.4620, 54468.80
693.6170, 54545.92
694.7710, 54642.31
695.9250, 54544.00
697.0790, 54494.00
698.2330, 54346.00
699.3870, 54735.00
700.5400, 54586.00
701.6940, 54215.00
702.8470, 53865.00
704.0000, 53501.00
705.1530, 53291.00
706.3050, 52976.50
707.4580, 52708.00
708.6100, 52520.00
709.7630, 52263.00
710.9150, 52153.00
712.0660, 51969.00
713.2180, 51801.00
714.3700, 51231.00
715.5210, 51312.00
716.6720, 50931.00
717.8240, 50343.00
718.9740, 50317.00
720.1250, 50160.00
721.2760, 49203.00
722.4260, 49355.00
723.5770, 49068.00
724.7270, 48576.00
725.8770, 48559.65
727.0260, 48217.00
728.1760, 48122.00
729.3250, 47813.00
730.4750, 47523.00
731.6240, 47144.00
732.7730, 47095.00
733.9220, 47052.00
735.0700, 46772.00
736.2190, 46982.00
737.3670, 46594.00
738.5150, 46426.00
739.6630, 46686.00
740.8110, 46340.00
741.9590, 46190.00
743.1060, 46111.00
744.2540, 46118.00
745.4010, 46198.00
746.5480, 46231.00
747.6950, 46212.16
748.8410, 46099.23
749.9880, 46160.00
751.1340, 45784.00
752.2800, 45721.00
753.4260, 45609.00
754.5720, 46016.00
755.7180, 45701.00
756.8640, 45877.00
758.0090, 45935.00
759.1540, 45876.00
760.2990, 46185.00
761.4440, 45940.00
762.5890, 46026.00
763.7340, 46118.00
764.8780, 45948.00
766.0220, 46071.00
767.1660, 46130.41
768.3100, 46324.00
769.4540, 46404.00
770.5980, 46248.00
771.7410, 46479.00
772.8840, 46606.00
774.0280, 46907.00
775.1700, 46982.00
776.3130, 46890.00
777.4560, 46929.00
778.5980, 47235.00
779.7410, 47153.00
780.8830, 47283.00
782.0250, 47336.00
783.1670, 47548.00
784.3080, 47660.95
785.4500, 47941.60
786.5910, 48155.68
787.7320, 48306.87
788.8730, 48206.82
790.0140, 48431.20
791.1550, 48424.85
792.2950, 48358.00
793.4360, 48659.00
794.5760, 48579.00
795.7160, 48726.00
796.8560, 48954.00
797.9960, 48714.00
799.1350, 48666.00
800.2750, 48990.00
801.4140, 49053.00
802.5530, 49042.00
803.6920, 49056.00
804.8310, 49098.00
805.9690, 49191.12
807.1080, 49294.00
808.2460, 49416.00
809.3840, 49522.00
810.5220, 49592.77
811.6600, 49507.00
812.7970, 49567.00
813.9350, 49445.00
815.0720, 49461.00
816.2090, 49434.99
817.3460, 49395.00
818.4830, 49457.00
819.6200, 49465.79
820.7560, 49627.00
821.8930, 49340.00
823.0290, 49503.00
824.1650, 49213.00
825.3010, 49507.00
826.4360, 49431.00
827.5720, 49417.39
828.7070, 49536.62
829.8420, 49589.39
830.9770, 49579.27
832.1120, 49317.90
833.2470, 49380.96
834.3820, 49314.01
835.5160, 49241.75
836.6500, 49350.50
837.7840, 49125.71
838.9180, 49231.59
840.0520, 49205.47
841.1860, 49239.77
842.3190, 49143.27
843.4520, 48956.00
844.5850, 49135.00
845.7180, 48968.00
846.8510, 49231.00
847.9840, 49277.00
849.1160, 49339.00
850.2490, 49080.00
851.3810, 49503.00
852.5130, 49352.00
853.6450, 49423.00
854.7760, 49598.00
855.9080, 49541.00
857.0390, 49458.00
858.1700, 49532.00
859.3010, 49622.00
860.4320, 49594.38
861.5630, 49730.45
862.6930, 49652.00
863.8240, 49800.00
864.9540, 49887.00
866.0840, 49625.00
867.2140, 50363.00
868.3440, 50019.00
869.4730, 50136.00
870.6030, 50469.00
871.7320, 50422.00
872.8610, 50456.00
873.9900, 50202.00
875.1190, 50621.00
876.2470, 50576.00
877.3760, 50435.00
878.5040, 50645.00
879.6320, 50714.00
880.7600, 50681.00
881.8880, 50822.00
883.0150, 51058.00
884.1430, 50987.00
885.2700, 51143.00
886.3970, 51177.00
887.5240, 51367.00
888.6510, 51180.00
889.7780, 51364.00
890.9040, 51460.00
892.0310, 51381.00
893.1570, 51890.00
894.2830, 51957.00
895.4090, 51845.00
896.5350, 51611.00
897.6600, 51756.00
898.7860, 52152.00
899.9110, 51954.00
901.0360, 52437.00
902.1610, 52237.00
903.2860, 52268.00
904.4100, 52570.00
905.5350, 52712.00
906.6590, 52756.00
907.7830, 52857.54
908.9070, 52654.00
910.0310, 52942.00
911.1540, 52916.00
912.2780, 53107.00
913.4010, 53396.00
914.5240, 53304.00
915.6470, 53320.00
916.7700, 53674.00
917.8930, 53384.00
919.0150, 53887.00
920.1380, 53707.00
921.2600, 54110.00
922.3820, 54046.00
923.5040, 54188.00
924.6260, 54435.00
925.7470, 54598.00
926.8690, 54595.00
927.9900, 54831.00
929.1110, 54863.00
930.2320, 55016.04
931.3530, 55049.00
932.4730, 55295.00
933.5940, 55425.00
934.7140, 55532.00
935.8340, 56176.00
936.9540, 56056.00
938.0740, 56432.00
939.1930, 56560.00
940.3130, 56734.00
941.4320, 57016.00
942.5510, 57253.00
943.6700, 57718.00
944.7890, 57854.00
945.9080, 58209.46
947.0260, 58860.00
948.1450, 59023.00
949.2630, 59595.00
950.3810, 60500.00
951.4990, 60632.00
952.6170, 61428.00
953.7340, 62571.00
954.8520, 62531.00
955.9690, 63696.00
957.0860, 64701.00
958.2030, 64956.00
959.3200, 65870.00
960.4360, 66529.00
961.5530, 67837.00
962.6690, 68732.00
963.7850, 70380.00
964.9010, 71628.00
966.0170, 73174.00
967.1330, 75257.00
968.2480, 77766.00
969.3630, 81029.00
970.4790, 84944.00
971.5940, 88508.00
972.7080, 93239.00
973.8230, 98534.00
974.9380, 104543.0
976.0520, 111874.0
977.1660, 119141.0
978.2800, 127286.0
979.3940, 135559.0
980.5080, 143904.0
981.6220, 151175.0
982.7350, 157356.0
983.8480, 160909.0
984.9610, 162090.0
986.0740, 160361.0
987.1870, 155676.0
988.3000, 147950.0
989.4120, 137668.0
990.5250, 127267.0
991.6370, 116543.0
992.7490, 107040.0
993.8610, 98613.00
994.9720, 91182.00
996.0840, 85952.00
997.1950, 81229.00
998.3060, 77931.00
999.4170, 75402.00
1000.528, 73570.00
1001.639, 72512.00
1002.750, 71079.00
1003.860, 70023.00
1004.970, 69751.00
1006.080, 68937.00
1007.190, 68661.00
1008.300, 68220.00
1009.410, 68235.00
1010.519, 67923.00
1011.628, 67985.00
1012.738, 68108.00
1013.846, 68290.00
1014.955, 67736.00
1016.064, 68018.00
1017.172, 67753.00
1018.281, 67927.08
1019.389, 68664.00
1020.497, 68184.00
1021.605, 68635.00
1022.713, 68318.00
1023.820, 68465.98
1024.928, 68766.30
1026.035, 68513.34
1027.142, 68937.19
1028.249, 69250.28
1029.356, 69458.54
1030.462, 69247.92
1031.569, 69578.16
1032.675, 69691.56
1033.781, 69796.05
1034.887, 70202.23
1035.993, 70221.00
1037.098, 70370.00
1038.204, 70294.00
1039.309, 70301.00
1040.415, 70849.00
1041.520, 70644.00
1042.624, 70647.00
1043.729, 70318.00
1044.834, 70388.00
1045.938, 70702.00
1047.042, 70503.95
1048.146, 70322.00
1049.250, 70381.00
1050.354, 70167.00
1051.458, 69862.00
1052.561, 69783.55
1053.664, 69772.00
1054.767, 69448.00
1055.870, 69238.00
1056.973, 69146.00
1058.076, 68837.00
1059.178, 69049.00
1060.281, 68871.00
1061.383, 68690.00
1062.485, 68572.00
1063.587, 68590.00
1064.688, 68431.00
1065.790, 68458.43
1066.891, 68647.00
1067.993, 68446.00
1069.094, 68682.00
1070.195, 68632.00
1071.295, 69001.00
1072.396, 68929.00
1073.496, 68829.00
1074.597, 69053.00
1075.697, 68875.00
1076.797, 68828.00
1077.897, 68887.00
1078.996, 68807.00
1080.096, 68898.00
1081.195, 68793.00
1082.294, 68771.45
1083.393, 68640.00
1084.492, 68681.00
1085.591, 68691.00
1086.689, 68808.48
1087.788, 68876.59
1088.886, 68880.55
1089.984, 68826.13
1091.082, 68399.41
1092.180, 68559.83
1093.277, 68549.92
1094.375, 68577.59
1095.472, 68953.23
1096.569, 68564.00
1097.666, 68471.00
1098.763, 68118.00
1099.860, 68331.00
1100.956, 68026.00
1102.053, 67940.00
1103.149, 68365.00
1104.245, 68025.00
1105.341, 68223.00
1106.436, 68143.00
1107.532, 68062.00
1108.627, 68000.00
1109.723, 68195.00
1110.818, 68292.00
1111.913, 68379.00
1113.007, 68468.70
1114.102, 68519.00
1115.197, 68575.00
1116.291, 68651.52
1117.385, 68527.00
1118.479, 68817.00
1119.573, 68766.00
1120.666, 68898.00
1121.760, 69263.00
1122.853, 68848.00
1123.947, 69435.00
1125.040, 69696.00
1126.132, 69824.00
1127.225, 69692.00
1128.318, 70034.00
1129.410, 70107.00
1130.502, 70125.00
1131.595, 70143.00
1132.687, 70251.30
1133.778, 70557.00
1134.870, 70338.00
1135.961, 70399.71
1137.053, 70191.00
1138.144, 70189.00
1139.235, 69142.00
1140.326, 69291.00
1141.416, 69125.00
1142.507, 69214.00
1143.597, 68920.00
1144.688, 69099.00
1145.778, 68833.00
1146.868, 68380.00
1147.957, 68535.00
1149.047, 68527.00
1150.136, 68355.00
1151.226, 68435.00
1152.315, 68304.00
1153.404, 68528.00
1154.493, 68540.00
1155.581, 68680.00
1156.670, 68726.00
1157.758, 68704.00
1158.846, 68781.67
1159.934, 68812.00
1161.022, 68838.00
1162.110, 68937.00
1163.198, 68984.00
1164.285, 68819.00
1165.372, 68992.00
1166.459, 68864.00
1167.546, 69086.00
1168.633, 68768.00
1169.720, 69017.00
1170.806, 69467.00
1171.892, 69175.00
1172.979, 69163.00
1174.065, 69568.00
1175.150, 69507.00
1176.236, 69613.00
1177.322, 69223.00
1178.407, 69725.00
1179.492, 69573.00
1180.577, 69487.00
1181.662, 69945.00
1182.747, 69709.00
1183.832, 70125.00
1184.916, 70375.00
1186.000, 70395.00
1187.084, 70604.38
1188.168, 70764.00
1189.252, 70724.00
1190.336, 70757.00
1191.419, 70797.00
1192.503, 70638.00
1193.586, 70703.00
1194.669, 71100.00
1195.752, 70941.00
1196.835, 71264.00
1197.917, 71022.00
1199.000, 71126.00
1200.082, 71357.00
1201.164, 71239.00
1202.246, 71313.00
1203.328, 71548.00
1204.409, 71665.00
1205.491, 71678.71
1206.572, 71836.00
1207.653, 71667.00
1208.734, 71789.00
1209.815, 71787.00
1210.896, 72107.00
1211.976, 71703.00
1213.057, 72096.00
1214.137, 71901.00
1215.217, 71995.00
1216.297, 72186.00
1217.377, 72134.00
1218.456, 72535.00
1219.536, 72270.00
1220.615, 72294.00
1221.694, 72553.05
1222.773, 72621.00
1223.852, 72978.00
1224.931, 72673.00
1226.009, 72851.00
1227.088, 72816.00
1228.166, 73053.00
1229.244, 73120.00
1230.322, 73520.00
1231.400, 73550.00
1232.477, 73806.00
1233.555, 73439.00
1234.632, 73850.00
1235.709, 73896.00
1236.786, 73988.00
1237.863, 74120.00
1238.939, 74153.00
1240.016, 74298.00
1241.092, 74518.00
1242.168, 74467.62
1243.245, 74720.00
1244.320, 74439.00
1245.396, 74574.70
1246.472, 74554.00
