##NAMES=Triplite
##RRUFFID=R050226
##IDEAL CHEMISTRY=Mn^2+^_2_(PO_4_)F
##LOCALITY=Fremont County, Colorado, USA
##OWNER=RRUFF
##SOURCE=Marcus Origlieri
##DESCRIPTION=Reddish brown massive
##STATUS=The identification of this mineral has been confirmed by X-ray diffraction and chemical analysis
##URL=rruff.info/R050226
##MEASURED CHEMISTRY=(Mn^2+^_1.20_Mg_0.49_Fe^2+^_0.27_Ca_0.04_)_Σ=2_(P_1.00_O_4_)(F_0.95_(OH)_0.05_)_Σ=1_
##PIN_ID=L00426
##ORIENTATION=Laser parallel to c* (0 0 1). Fiducial mark perpendicular to laser is parallel to a [1 0 0]
63.41100, 14559.00
64.65300, 15443.00
65.89600, 18177.00
67.13800, 19735.00
68.38000, 21723.00
69.62200, 23711.00
70.86300, 25616.00
72.10500, 27930.00
73.34600, 30598.00
74.58700, 32444.00
75.82800, 34283.00
77.06900, 36496.00
78.30900, 37844.00
79.55000, 38472.00
80.79000, 39604.00
82.03000, 40723.00
83.27000, 42184.00
84.51000, 43040.00
85.74900, 42406.00
86.98900, 42026.00
88.22800, 42051.00
89.46700, 42218.00
90.70600, 42786.00
91.94400, 43716.00
93.18300, 44474.00
94.42100, 44293.00
95.65900, 44020.00
96.89700, 43897.00
98.13500, 43459.00
99.37300, 43538.00
100.6100, 43233.00
101.8480, 43283.00
103.0850, 42791.00
104.3220, 42817.00
105.5590, 43249.00
106.7950, 44010.00
108.0320, 44852.00
109.2680, 44514.00
110.5040, 43293.00
111.7400, 43372.00
112.9760, 43351.00
114.2120, 43466.00
115.4470, 44051.00
116.6820, 44754.00
117.9170, 45051.00
119.1520, 45456.00
120.3870, 44784.00
121.6220, 44677.00
122.8560, 44861.00
124.0900, 44907.00
125.3240, 44654.00
126.5580, 43658.00
127.7920, 43592.00
129.0260, 43803.00
130.2590, 43968.00
131.4920, 43966.00
132.7250, 43921.00
133.9580, 43748.00
135.1910, 43976.00
136.4230, 43888.00
137.6560, 44014.00
138.8880, 44482.00
140.1200, 44646.00
141.3520, 44581.00
142.5830, 44469.00
143.8150, 44421.00
145.0460, 44409.00
146.2770, 44342.00
147.5080, 44470.00
148.7390, 44814.00
149.9700, 44555.00
151.2000, 45064.00
152.4310, 44813.00
153.6610, 45230.00
154.8910, 45474.00
156.1210, 45939.00
157.3500, 45393.00
158.5800, 45421.00
159.8090, 45291.00
161.0380, 45501.00
162.2670, 45264.00
163.4960, 45477.00
164.7240, 45493.00
165.9530, 45458.00
167.1810, 45436.00
168.4090, 45559.00
169.6370, 45564.00
170.8650, 45499.00
172.0920, 45362.00
173.3200, 45238.00
174.5470, 45186.27
175.7740, 45126.84
177.0010, 45060.00
178.2280, 45084.00
179.4540, 45015.00
180.6810, 44984.00
181.9070, 45150.00
183.1330, 45216.00
184.3590, 45154.00
185.5850, 45117.00
186.8100, 45277.00
188.0350, 45529.00
189.2610, 45360.00
190.4860, 45337.14
191.7110, 45476.41
192.9350, 45219.00
194.1600, 45515.00
195.3840, 45442.01
196.6080, 45769.00
197.8320, 45552.00
199.0560, 45512.00
200.2800, 45699.00
201.5030, 45640.67
202.7270, 45614.16
203.9500, 45833.00
205.1730, 45569.00
206.3950, 45695.00
207.6180, 45886.10
208.8410, 45853.20
210.0630, 45810.00
211.2850, 46123.00
212.5070, 45979.00
213.7290, 46238.00
214.9500, 46616.00
216.1720, 46557.00
217.3930, 47042.00
218.6140, 47193.00
219.8350, 47491.00
221.0560, 47763.00
222.2770, 48298.00
223.4970, 48272.00
224.7170, 48269.00
225.9370, 48457.00
227.1570, 48220.00
228.3770, 47953.34
229.5970, 47869.00
230.8160, 47587.98
232.0350, 47396.82
233.2540, 47147.00
234.4730, 47019.00
235.6920, 46827.00
236.9110, 46759.00
238.1290, 46774.48
239.3470, 46638.54
240.5650, 47085.10
241.7830, 47334.20
243.0010, 47396.45
244.2180, 46712.23
245.4360, 46991.92
246.6530, 46885.33
247.8700, 46762.89
249.0870, 47178.26
250.3040, 46602.61
251.5200, 47009.45
252.7370, 47024.10
253.9530, 47218.25
255.1690, 47432.67
256.3850, 47173.45
257.6000, 47482.45
258.8160, 47604.65
260.0310, 46980.34
261.2460, 47319.93
262.4610, 47273.24
263.6760, 47210.70
264.8910, 47685.97
266.1050, 47170.18
267.3200, 47533.00
268.5340, 47595.00
269.7480, 47459.00
270.9620, 47887.00
272.1750, 48331.00
273.3890, 48143.00
274.6020, 48283.00
275.8150, 48477.00
277.0280, 48493.26
278.2410, 49242.64
279.4540, 49794.57
280.6660, 50159.40
281.8790, 49778.02
283.0910, 50360.30
284.3030, 50556.29
285.5140, 50736.20
286.7260, 51543.00
287.9380, 51858.00
289.1490, 51859.00
290.3600, 52420.00
291.5710, 52509.00
292.7820, 53015.00
293.9920, 52788.00
295.2030, 52629.00
296.4130, 52700.00
297.6230, 52879.00
298.8330, 52594.00
300.0430, 52494.00
301.2520, 52262.00
302.4620, 52014.00
303.6710, 51390.00
304.8800, 51291.00
306.0890, 50847.00
307.2980, 50338.00
308.5070, 50375.00
309.7150, 50153.00
310.9230, 50191.00
312.1310, 49888.00
313.3390, 49666.00
314.5470, 49417.00
315.7550, 49470.00
316.9620, 49396.78
318.1690, 49294.53
319.3760, 49449.00
320.5830, 49239.00
321.7900, 49133.00
322.9960, 49274.00
324.2030, 49152.38
325.4090, 49232.00
326.6150, 49131.00
327.8210, 49194.00
329.0270, 49132.00
330.2320, 49137.00
331.4380, 49167.00
332.6430, 49315.00
333.8480, 49540.00
335.0530, 48949.00
336.2580, 48874.00
337.4620, 49290.00
338.6670, 49147.00
339.8710, 49312.00
341.0750, 49504.00
342.2790, 49173.00
343.4820, 49124.00
344.6860, 49272.00
345.8890, 49402.00
347.0920, 49508.00
348.2960, 49417.00
349.4980, 49441.00
350.7010, 49348.00
351.9040, 49781.00
353.1060, 49552.00
354.3080, 49605.32
355.5100, 49779.90
356.7120, 49890.56
357.9140, 49941.28
359.1150, 49722.16
360.3170, 49874.65
361.5180, 49892.36
362.7190, 49914.24
363.9200, 50147.90
365.1200, 50019.96
366.3210, 50270.62
367.5210, 50384.23
368.7210, 50575.25
369.9210, 50630.59
371.1210, 50741.05
372.3210, 51007.40
373.5200, 51202.97
374.7200, 51275.00
375.9190, 51387.00
377.1180, 51260.00
378.3170, 51673.00
379.5150, 52035.00
380.7140, 51663.00
381.9120, 52122.00
383.1110, 52181.00
384.3090, 52637.00
385.5060, 52630.00
386.7040, 52960.00
387.9020, 52653.00
389.0990, 53173.00
390.2960, 53818.00
391.4930, 54375.00
392.6900, 53820.00
393.8860, 54294.00
395.0830, 54606.00
396.2790, 54759.00
397.4750, 55260.00
398.6710, 55646.00
399.8670, 56063.00
401.0630, 56360.00
402.2580, 56909.00
403.4540, 57311.00
404.6490, 57614.00
405.8440, 57941.32
407.0390, 58067.75
408.2330, 58298.00
409.4280, 58122.00
410.6220, 58035.00
411.8160, 57821.00
413.0100, 57721.57
414.2040, 58055.00
415.3980, 57499.00
416.5910, 57656.00
417.7850, 57598.00
418.9780, 57330.00
420.1710, 57878.26
421.3640, 57677.00
422.5560, 58238.00
423.7490, 58441.02
424.9410, 58820.00
426.1330, 59050.00
427.3250, 59791.00
428.5170, 60211.00
429.7090, 61147.00
430.9000, 61622.00
432.0910, 62093.00
433.2820, 62434.00
434.4730, 62524.00
435.6640, 62802.06
436.8550, 63333.00
438.0450, 62966.00
439.2360, 63165.00
440.4260, 63030.00
441.6160, 62350.00
442.8060, 62391.00
443.9950, 62121.00
445.1850, 62031.00
446.3740, 61711.00
447.5630, 61828.00
448.7520, 61782.86
449.9410, 62036.83
451.1300, 62216.75
452.3180, 62326.54
453.5060, 62156.39
454.6950, 62347.78
455.8830, 62050.00
457.0700, 62350.00
458.2580, 62291.00
459.4450, 61962.00
460.6330, 61718.00
461.8200, 61334.00
463.0070, 61201.00
464.1940, 60965.00
465.3800, 60492.00
466.5670, 59939.00
467.7530, 59575.00
468.9390, 60002.00
470.1250, 59586.00
471.3110, 59189.00
472.4970, 59189.00
473.6820, 58660.00
474.8680, 58852.00
476.0530, 58588.00
477.2380, 58848.00
478.4230, 58740.00
479.6070, 58716.00
480.7920, 59099.00
481.9760, 59100.00
483.1600, 59191.00
484.3440, 58888.00
485.5280, 59333.00
486.7120, 59236.00
487.8950, 59273.00
489.0780, 59481.00
490.2620, 59757.00
491.4450, 59604.00
492.6270, 59641.00
493.8100, 60001.00
494.9920, 60167.00
496.1750, 60177.00
497.3570, 60067.00
498.5390, 60322.00
499.7210, 60727.00
500.9020, 60082.00
502.0840, 60586.00
503.2650, 60773.00
504.4460, 60245.00
505.6270, 60340.00
506.8080, 60268.00
507.9890, 60718.00
509.1690, 60397.00
510.3500, 60393.00
511.5300, 60259.00
512.7100, 60409.00
513.8900, 60346.38
515.0690, 60784.00
516.2490, 60487.00
517.4280, 60622.00
518.6070, 60969.00
519.7860, 60533.00
520.9650, 60829.00
522.1440, 61058.00
523.3220, 60934.00
524.5010, 61012.00
525.6790, 60784.00
526.8570, 61127.00
528.0350, 60908.00
529.2130, 60996.00
530.3900, 61217.00
531.5670, 61415.00
532.7450, 61491.00
533.9220, 61864.00
535.0980, 61816.00
536.2750, 62161.00
537.4520, 62361.00
538.6280, 62275.00
539.8040, 62144.00
540.9800, 62276.00
542.1560, 62441.00
543.3320, 63036.00
544.5070, 63068.00
545.6830, 63838.00
546.8580, 63759.00
548.0330, 63472.00
549.2080, 63635.00
550.3830, 63931.00
551.5570, 63856.00
552.7310, 64075.00
553.9060, 63919.00
555.0800, 64158.00
556.2540, 64353.00
557.4270, 64387.08
558.6010, 64599.00
559.7740, 64690.00
560.9470, 64980.00
562.1210, 65265.00
563.2930, 65395.00
564.4660, 65652.45
565.6390, 65794.21
566.8110, 66000.00
567.9830, 66077.00
569.1550, 66150.00
570.3270, 66297.00
571.4990, 66844.00
572.6710, 66961.00
573.8420, 67524.00
575.0130, 67533.00
576.1840, 68018.00
577.3550, 68000.00
578.5260, 68478.00
579.6970, 68337.00
580.8670, 68489.00
582.0370, 69157.00
583.2070, 68782.00
584.3770, 68841.00
585.5470, 69211.00
586.7170, 69351.00
587.8860, 69854.00
589.0550, 70334.00
590.2240, 70727.00
591.3930, 71157.00
592.5620, 71452.00
593.7310, 71888.00
594.8990, 72570.00
596.0670, 73222.00
597.2350, 73229.00
598.4030, 74182.00
599.5710, 75298.00
600.7390, 75720.00
601.9060, 75746.00
603.0740, 76706.00
604.2410, 76832.00
605.4080, 77089.95
606.5740, 77233.00
607.7410, 77469.00
608.9080, 77495.00
610.0740, 77748.00
611.2400, 76921.00
612.4060, 76789.00
613.5720, 76477.00
614.7370, 76295.00
615.9030, 76438.00
617.0680, 76096.00
618.2330, 76149.00
619.3980, 76005.00
620.5630, 76069.00
621.7280, 76090.00
622.8920, 76393.00
624.0570, 76193.00
625.2210, 76253.00
626.3850, 76738.00
627.5490, 76795.00
628.7120, 76677.00
629.8760, 76922.00
631.0390, 77248.00
632.2020, 77364.00
633.3650, 77364.00
634.5280, 77786.91
635.6910, 78106.00
636.8530, 78521.00
638.0160, 78912.81
639.1780, 79278.73
640.3400, 79692.00
641.5020, 80087.00
642.6640, 80423.05
643.8250, 80913.00
644.9870, 81059.00
646.1480, 81783.00
647.3090, 82040.00
648.4700, 82542.00
649.6300, 83090.00
650.7910, 83621.00
651.9510, 83761.00
653.1120, 84047.00
654.2720, 84707.00
655.4320, 84809.00
656.5910, 85253.00
657.7510, 85195.00
658.9100, 85713.00
660.0690, 85956.00
661.2290, 86426.00
662.3880, 86567.00
663.5460, 86727.00
664.7050, 86991.00
665.8630, 87182.00
667.0220, 86982.00
668.1800, 87467.00
669.3380, 87619.00
670.4950, 88109.00
671.6530, 88126.00
672.8100, 88653.00
673.9680, 89011.00
675.1250, 89019.00
676.2820, 89219.00
677.4390, 90084.00
678.5950, 90131.00
679.7520, 90520.00
680.9080, 90544.00
682.0640, 90774.00
683.2200, 91447.00
684.3760, 91275.00
685.5320, 91965.00
686.6870, 92372.00
687.8420, 92219.00
688.9980, 92365.00
690.1530, 92376.00
691.3070, 92808.00
692.4620, 92510.00
693.6170, 92648.00
694.7710, 92782.00
695.9250, 92473.00
697.0790, 92737.00
698.2330, 92146.00
699.3870, 91933.00
700.5400, 92022.00
701.6940, 92011.00
702.8470, 91358.00
704.0000, 91082.00
705.1530, 90612.00
706.3050, 90188.00
707.4580, 90104.00
708.6100, 89811.00
709.7630, 89256.00
710.9150, 88792.00
712.0660, 88492.16
713.2180, 88053.97
714.3700, 87823.00
715.5210, 87372.00
716.6720, 86969.00
717.8240, 86635.00
718.9740, 86237.67
720.1250, 86286.00
721.2760, 85556.00
722.4260, 85272.00
723.5770, 84998.00
724.7270, 84399.00
725.8770, 84274.00
727.0260, 83920.00
728.1760, 83742.00
729.3250, 83349.00
730.4750, 83124.00
731.6240, 83155.00
732.7730, 83138.00
733.9220, 82836.00
735.0700, 82461.00
736.2190, 82455.00
737.3670, 82088.00
738.5150, 82188.00
739.6630, 81989.00
740.8110, 81972.00
741.9590, 81908.00
743.1060, 81532.00
744.2540, 82002.00
745.4010, 81544.00
746.5480, 81761.00
747.6950, 81977.00
748.8410, 81796.00
749.9880, 81724.00
751.1340, 81630.00
752.2800, 81872.00
753.4260, 81606.00
754.5720, 82099.00
755.7180, 82185.00
756.8640, 82057.00
758.0090, 82344.00
759.1540, 81609.00
760.2990, 82245.00
761.4440, 82804.00
762.5890, 82685.00
763.7340, 82133.00
764.8780, 82741.00
766.0220, 83057.00
767.1660, 82792.00
768.3100, 83371.00
769.4540, 83196.00
770.5980, 83390.00
771.7410, 83711.00
772.8840, 83736.00
774.0280, 83949.71
775.1700, 84347.00
776.3130, 84347.00
777.4560, 84564.00
778.5980, 85051.00
779.7410, 84752.00
780.8830, 85551.00
782.0250, 84893.00
783.1670, 86003.00
784.3080, 85473.00
785.4500, 85739.00
786.5910, 85773.00
787.7320, 86584.00
788.8730, 86292.00
790.0140, 86695.00
791.1550, 86785.00
792.2950, 86932.00
793.4360, 86975.00
794.5760, 87655.00
795.7160, 87738.00
796.8560, 87895.07
797.9960, 88525.00
799.1350, 88137.00
800.2750, 88570.00
801.4140, 88886.00
802.5530, 88444.00
803.6920, 88273.00
804.8310, 88563.00
805.9690, 88746.00
807.1080, 88976.00
808.2460, 88833.00
809.3840, 88761.00
810.5220, 89305.00
811.6600, 89273.00
812.7970, 89847.00
813.9350, 89957.00
815.0720, 89521.00
816.2090, 89562.00
817.3460, 89522.00
818.4830, 89588.00
819.6200, 89656.12
820.7560, 89729.35
821.8930, 89776.00
823.0290, 89991.00
824.1650, 89915.00
825.3010, 90118.00
826.4360, 90268.00
827.5720, 89958.00
828.7070, 89762.00
829.8420, 89858.00
830.9770, 89840.00
832.1120, 89592.00
833.2470, 89792.00
834.3820, 89883.00
835.5160, 90015.00
836.6500, 90215.00
837.7840, 90181.00
838.9180, 90181.00
840.0520, 89908.00
841.1860, 90074.00
842.3190, 89911.00
843.4520, 89762.00
844.5850, 90147.00
845.7180, 90429.00
846.8510, 90238.00
847.9840, 90798.00
849.1160, 90483.00
850.2490, 90668.00
851.3810, 90627.00
852.5130, 90629.00
853.6450, 90930.00
854.7760, 90816.00
855.9080, 91146.00
857.0390, 91384.00
858.1700, 91388.00
859.3010, 91404.00
860.4320, 91965.00
861.5630, 91389.00
862.6930, 91531.00
863.8240, 91487.00
864.9540, 92106.00
866.0840, 92175.00
867.2140, 92293.00
868.3440, 92181.00
869.4730, 92295.00
870.6030, 92831.00
871.7320, 92684.00
872.8610, 92854.00
873.9900, 92883.00
875.1190, 93424.00
876.2470, 93641.00
877.3760, 93902.00
878.5040, 93670.00
879.6320, 93684.00
880.7600, 94150.00
881.8880, 93805.00
883.0150, 94627.00
884.1430, 94268.00
885.2700, 94416.00
886.3970, 94789.00
887.5240, 94689.00
888.6510, 95334.00
889.7780, 94761.00
890.9040, 94856.00
892.0310, 95288.00
893.1570, 95625.00
894.2830, 95943.00
895.4090, 95889.00
896.5350, 96375.00
897.6600, 95820.00
898.7860, 97174.00
899.9110, 96588.00
901.0360, 96604.00
902.1610, 96919.00
903.2860, 96669.00
904.4100, 97355.00
905.5350, 97385.00
906.6590, 97471.00
907.7830, 97226.00
908.9070, 98008.00
910.0310, 97868.00
911.1540, 98181.00
912.2780, 99057.00
913.4010, 98260.00
914.5240, 98157.00
915.6470, 99073.00
916.7700, 99107.00
917.8930, 99468.00
919.0150, 99678.00
920.1380, 99570.00
921.2600, 99985.62
922.3820, 100000.5
923.5040, 100464.0
924.6260, 100341.0
925.7470, 100399.0
926.8690, 100787.0
927.9900, 101175.0
929.1110, 101024.0
930.2320, 101362.0
931.3530, 101867.0
932.4730, 101917.0
933.5940, 101734.0
934.7140, 102176.0
935.8340, 102254.6
936.9540, 102850.0
938.0740, 102770.0
939.1930, 103236.0
940.3130, 103478.0
941.4320, 104141.0
942.5510, 104420.0
943.6700, 104877.5
944.7890, 105288.9
945.9080, 105749.0
947.0260, 106095.0
948.1450, 106549.0
949.2630, 107117.0
950.3810, 107554.0
951.4990, 108406.0
952.6170, 108830.0
953.7340, 109736.0
954.8520, 110608.0
955.9690, 111362.0
957.0860, 112074.0
958.2030, 112881.0
959.3200, 113833.8
960.4360, 114045.0
961.5530, 116041.0
962.6690, 117317.0
963.7850, 118868.0
964.9010, 119099.0
966.0170, 120519.0
967.1330, 122362.0
968.2480, 123576.0
969.3630, 126365.0
970.4790, 128167.0
971.5940, 131799.0
972.7080, 136078.0
973.8230, 139484.0
974.9380, 143577.0
976.0520, 149413.0
977.1660, 156195.0
978.2800, 160422.0
979.3940, 167184.0
980.5080, 172924.0
981.6220, 178493.0
982.7350, 183839.0
983.8480, 186126.0
984.9610, 186783.0
986.0740, 185161.0
987.1870, 180815.0
988.3000, 175177.0
989.4120, 167318.0
990.5250, 160191.0
991.6370, 152317.0
992.7490, 145369.0
993.8610, 139667.0
994.9720, 134756.0
996.0840, 130801.0
997.1950, 126954.0
998.3060, 125857.0
999.4170, 123572.0
1000.528, 121653.0
1001.639, 121221.0
1002.750, 120171.0
1003.860, 119676.0
1004.970, 119181.0
1006.080, 119175.0
1007.190, 118777.0
1008.300, 118874.0
1009.410, 118854.9
1010.519, 118425.5
1011.628, 118757.2
1012.738, 118902.1
1013.846, 118300.4
1014.955, 118662.6
1016.064, 118638.6
1017.172, 118598.6
1018.281, 119096.5
1019.389, 119262.1
1020.497, 119092.7
1021.605, 120101.0
1022.713, 120439.0
1023.820, 121000.0
1024.928, 120983.0
1026.035, 121060.0
1027.142, 120914.0
1028.249, 121412.0
1029.356, 120867.0
1030.462, 121373.0
1031.569, 121444.0
1032.675, 121493.0
1033.781, 121876.0
1034.887, 122673.0
1035.993, 121744.0
1037.098, 122216.0
1038.204, 122845.0
1039.309, 122513.0
1040.415, 122898.0
1041.520, 123028.0
1042.624, 123016.0
1043.729, 123274.0
1044.834, 123307.0
1045.938, 123772.0
1047.042, 123946.0
1048.146, 123757.0
1049.250, 123439.0
1050.354, 123964.0
1051.458, 123785.0
1052.561, 123573.0
1053.664, 123979.0
1054.767, 123418.0
1055.870, 123538.0
1056.973, 124220.0
1058.076, 123853.0
1059.178, 124635.0
1060.281, 123934.0
1061.383, 124014.0
1062.485, 124681.0
1063.587, 125093.0
1064.688, 125259.0
1065.790, 125004.0
1066.891, 125559.0
1067.993, 125516.6
1069.094, 125208.0
1070.195, 125865.0
1071.295, 125928.0
1072.396, 126225.0
1073.496, 125908.0
1074.597, 126436.0
1075.697, 126288.0
1076.797, 126954.0
1077.897, 126568.0
1078.996, 126412.0
1080.096, 126567.0
1081.195, 126496.0
1082.294, 126799.0
1083.393, 126780.7
1084.492, 126789.0
1085.591, 126814.0
1086.689, 126753.0
1087.788, 126611.0
1088.886, 127122.0
1089.984, 127050.0
1091.082, 126585.0
1092.180, 126871.0
1093.277, 126517.0
1094.375, 126210.2
1095.472, 126587.3
1096.569, 126766.9
1097.666, 126759.7
1098.763, 126006.0
1099.860, 126216.2
1100.956, 126040.2
1102.053, 125848.3
1103.149, 126194.2
1104.245, 125549.2
1105.341, 125886.6
1106.436, 125831.9
1107.532, 126315.0
1108.627, 126852.0
1109.723, 126295.0
1110.818, 127195.0
1111.913, 127324.0
1113.007, 126928.0
1114.102, 127692.0
1115.197, 127582.0
1116.291, 128030.0
1117.385, 127833.0
1118.479, 128449.0
1119.573, 129174.0
1120.666, 128432.0
1121.760, 128407.0
1122.853, 128732.0
1123.947, 129107.0
1125.040, 129636.0
1126.132, 129503.0
1127.225, 129402.0
1128.318, 129258.0
1129.410, 129767.0
1130.502, 129558.0
1131.595, 129668.0
1132.687, 129702.4
1133.778, 129176.0
1134.870, 128875.4
1135.961, 129307.2
1137.053, 129541.6
1138.144, 129589.1
1139.235, 128890.2
1140.326, 129155.1
1141.416, 129033.8
1142.507, 128896.6
1143.597, 129297.3
1144.688, 128706.9
1145.778, 129099.0
1146.868, 129099.0
1147.957, 129278.4
1149.047, 129069.2
1150.136, 129422.0
1151.226, 129608.0
1152.315, 129703.0
1153.404, 129938.3
1154.493, 130073.0
1155.581, 130262.0
1156.670, 130400.0
1157.758, 130535.0
1158.846, 130705.0
1159.934, 130594.0
1161.022, 130571.0
1162.110, 130514.0
1163.198, 130603.9
1164.285, 130980.0
1165.372, 130831.0
1166.459, 131266.0
1167.546, 131374.0
1168.633, 131466.3
1169.720, 131870.0
1170.806, 131720.0
1171.892, 132036.0
1172.979, 132197.0
1174.065, 132757.0
1175.150, 132124.0
1176.236, 132387.0
1177.322, 132907.0
1178.407, 132660.0
1179.492, 133337.0
1180.577, 133135.0
1181.662, 133493.0
1182.747, 133537.0
1183.832, 133753.0
1184.916, 134172.0
1186.000, 133801.0
1187.084, 134814.0
1188.168, 134291.0
1189.252, 134862.0
1190.336, 134737.0
1191.419, 134992.0
1192.503, 135501.0
1193.586, 135233.0
1194.669, 135551.0
1195.752, 135249.0
1196.835, 135775.0
1197.917, 135918.0
1199.000, 135987.0
1200.082, 136703.0
1201.164, 136510.0
1202.246, 136559.0
1203.328, 136865.0
1204.409, 136793.0
1205.491, 136935.1
1206.572, 136960.0
1207.653, 137092.0
1208.734, 137303.0
1209.815, 137442.0
1210.896, 137589.0
1211.976, 137690.0
1213.057, 137530.0
1214.137, 137826.0
1215.217, 137413.0
1216.297, 137886.3
1217.377, 138241.0
1218.456, 138600.0
1219.536, 138409.0
1220.615, 138595.0
1221.694, 138864.0
1222.773, 139593.0
1223.852, 139528.0
1224.931, 139853.0
1226.009, 139328.0
1227.088, 139853.0
1228.166, 140115.0
1229.244, 139767.0
1230.322, 140854.0
1231.400, 140913.0
1232.477, 140944.0
1233.555, 141434.0
1234.632, 141607.0
1235.709, 141620.0
1236.786, 142279.0
1237.863, 142583.0
1238.939, 142587.0
1240.016, 142313.0
1241.092, 142399.0
1242.168, 142913.0
1243.245, 142255.0
1244.320, 142788.0
1245.396, 143301.0
1246.472, 143101.0
