##NAMES=Triplite
##RRUFFID=R050226
##IDEAL CHEMISTRY=Mn^2+^_2_(PO_4_)F
##LOCALITY=Fremont County, Colorado, USA
##OWNER=RRUFF
##SOURCE=Marcus Origlieri
##DESCRIPTION=Reddish brown massive
##STATUS=The identification of this mineral has been confirmed by X-ray diffraction and chemical analysis
##URL=rruff.info/R050226
##MEASURED CHEMISTRY=(Mn^2+^_1.20_Mg_0.49_Fe^2+^_0.27_Ca_0.04_)_Σ=2_(P_1.00_O_4_)(F_0.95_(OH)_0.05_)_Σ=1_
##PIN_ID=L00496
##ORIENTATION=Laser parallel to a* (1 0 0). Fiducial mark perpendicular to laser is parallel to b [0 1 0]
64.81000, 27952.00
66.04600, 28744.00
67.28200, 30743.00
68.51800, 32488.00
69.75400, 35357.00
70.98900, 37349.00
72.22500, 39182.00
73.46000, 41372.00
74.69500, 44540.00
75.93000, 46070.00
77.16500, 48651.00
78.40000, 51024.00
79.63400, 52341.00
80.86900, 53017.00
82.10300, 53689.00
83.33700, 54932.00
84.57100, 55152.21
85.80500, 54967.94
87.03800, 55358.00
88.27200, 54083.00
89.50500, 52890.00
90.73800, 52867.00
91.97100, 53308.00
93.20400, 54469.00
94.43700, 55584.00
95.67000, 55549.00
96.90200, 54666.00
98.13400, 55567.00
99.36600, 54087.00
100.5980, 52637.00
101.8300, 54025.00
103.0620, 51994.00
104.2930, 50787.00
105.5250, 51161.00
106.7560, 51724.00
107.9870, 52761.00
109.2180, 54219.00
110.4490, 54022.00
111.6790, 52512.00
112.9100, 54077.00
114.1400, 52685.00
115.3700, 51762.00
116.6000, 52585.00
117.8300, 53133.00
119.0600, 53996.00
120.2900, 53773.00
121.5190, 53240.00
122.7480, 53099.00
123.9770, 52683.59
125.2060, 51902.97
126.4350, 51876.00
127.6640, 50446.00
128.8920, 49759.00
130.1210, 49488.00
131.3490, 49981.00
132.5770, 49572.00
133.8050, 49360.00
135.0330, 48926.00
136.2600, 48959.00
137.4880, 48491.00
138.7150, 49034.22
139.9420, 49023.00
141.1690, 49713.00
142.3960, 49579.00
143.6230, 48836.00
144.8490, 48312.00
146.0760, 48185.00
147.3020, 48218.00
148.5280, 48494.00
149.7540, 48462.00
150.9800, 48059.00
152.2050, 48018.00
153.4310, 48317.00
154.6560, 48191.00
155.8810, 48755.00
157.1060, 48440.00
158.3310, 48291.00
159.5560, 48896.00
160.7800, 48480.00
162.0050, 48197.00
163.2290, 48166.70
164.4530, 47357.00
165.6770, 47489.00
166.9010, 47056.56
168.1250, 46779.12
169.3480, 46554.00
170.5720, 46493.00
171.7950, 46453.00
173.0180, 46673.00
174.2410, 46341.00
175.4640, 46137.00
176.6860, 45686.00
177.9090, 45840.00
179.1310, 45762.00
180.3530, 45501.00
181.5750, 45628.00
182.7970, 45483.00
184.0190, 44950.00
185.2400, 45196.00
186.4620, 45119.00
187.6830, 45060.00
188.9040, 45270.00
190.1250, 45074.00
191.3460, 44896.00
192.5660, 44950.00
193.7870, 44982.00
195.0070, 45353.00
196.2270, 44941.00
197.4470, 45160.00
198.6670, 44885.00
199.8870, 44687.00
201.1060, 44385.00
202.3260, 44884.00
203.5450, 44649.00
204.7640, 44621.00
205.9830, 44456.00
207.2020, 44378.00
208.4200, 44224.00
209.6390, 44125.00
210.8570, 44196.77
212.0750, 43924.00
213.2940, 44122.00
214.5110, 44312.00
215.7290, 43714.00
216.9470, 43814.00
218.1640, 43707.00
219.3810, 44548.00
220.5990, 43983.00
221.8150, 44049.00
223.0320, 43957.00
224.2490, 43632.00
225.4650, 44206.00
226.6820, 43781.00
227.8980, 44041.00
229.1140, 43942.00
230.3300, 43579.00
231.5460, 43596.00
232.7610, 43064.00
233.9770, 43079.00
235.1920, 42751.00
236.4070, 42835.00
237.6220, 42849.00
238.8370, 43076.00
240.0520, 42847.00
241.2660, 42991.00
242.4810, 42998.90
243.6950, 42935.00
244.9090, 43021.00
246.1230, 42916.00
247.3370, 42861.00
248.5500, 42949.00
249.7640, 43004.00
250.9770, 42656.00
252.1900, 42582.00
253.4030, 42753.00
254.6160, 43101.00
255.8290, 42098.00
257.0410, 42262.00
258.2530, 41986.00
259.4660, 42440.00
260.6780, 42110.00
261.8900, 41938.00
263.1010, 42232.00
264.3130, 42323.00
265.5250, 42437.00
266.7360, 42267.00
267.9470, 42383.18
269.1580, 42306.00
270.3690, 42386.00
271.5800, 42300.00
272.7900, 42217.00
274.0010, 42612.00
275.2110, 42490.00
276.4210, 42464.00
277.6310, 42281.00
278.8410, 43079.00
280.0500, 42650.00
281.2600, 43088.00
282.4690, 42487.00
283.6780, 43281.00
284.8870, 43618.00
286.0960, 43304.00
287.3050, 43536.00
288.5130, 43290.59
289.7220, 43649.20
290.9300, 43893.26
292.1380, 44027.04
293.3460, 43834.70
294.5540, 43975.86
295.7610, 43929.83
296.9690, 43839.47
298.1760, 43918.37
299.3830, 44007.00
300.5900, 43905.00
301.7970, 43758.00
303.0040, 43686.00
304.2100, 43378.00
305.4170, 43031.00
306.6230, 43247.00
307.8290, 42845.00
309.0350, 42883.00
310.2410, 42515.00
311.4460, 42418.28
312.6520, 42099.00
313.8570, 42086.00
315.0620, 42042.00
316.2670, 41673.00
317.4720, 41622.00
318.6770, 41679.00
319.8810, 41812.00
321.0860, 41180.00
322.2900, 41335.00
323.4940, 41185.00
324.6980, 41354.00
325.9020, 41096.00
327.1050, 40984.00
328.3090, 41012.00
329.5120, 40716.00
330.7150, 40924.00
331.9180, 40828.00
333.1210, 40351.00
334.3240, 40573.00
335.5260, 40586.00
336.7290, 40337.00
337.9310, 40354.03
339.1330, 40294.00
340.3350, 40111.00
341.5370, 40158.00
342.7380, 40171.00
343.9400, 39922.00
345.1410, 39612.00
346.3420, 39741.00
347.5430, 39565.00
348.7440, 39718.00
349.9450, 39529.00
351.1450, 39219.00
352.3460, 39333.00
353.5460, 39095.86
354.7460, 39238.00
355.9460, 38886.00
357.1460, 38804.00
358.3450, 38729.00
359.5450, 38914.00
360.7440, 38779.00
361.9430, 38722.00
363.1420, 38610.00
364.3410, 38823.00
365.5400, 38905.00
366.7380, 38483.00
367.9370, 38780.00
369.1350, 38620.00
370.3330, 38632.00
371.5310, 38807.00
372.7280, 38692.00
373.9260, 38776.00
375.1230, 38704.00
376.3210, 38718.00
377.5180, 39017.00
378.7150, 38730.00
379.9120, 38870.00
381.1080, 38758.00
382.3050, 39134.00
383.5010, 38760.00
384.6970, 38896.18
385.8930, 39207.99
387.0890, 39413.20
388.2850, 39517.53
389.4810, 39218.83
390.6760, 39440.50
391.8710, 39453.60
393.0660, 39458.15
394.2610, 39753.07
395.4560, 39512.93
396.6510, 39803.23
397.8450, 39881.74
399.0400, 40145.00
400.2340, 40024.00
401.4280, 40262.17
402.6220, 40567.00
403.8150, 40346.00
405.0090, 40761.00
406.2020, 40785.00
407.3960, 41136.00
408.5890, 40976.00
409.7820, 41397.00
410.9740, 41487.00
412.1670, 41637.00
413.3600, 41995.24
414.5520, 42260.25
415.7440, 42592.00
416.9360, 43025.00
418.1280, 43309.88
419.3200, 43709.00
420.5110, 43821.49
421.7020, 44161.16
422.8940, 44537.00
424.0850, 44941.00
425.2760, 45345.00
426.4660, 45917.00
427.6570, 46301.00
428.8470, 46630.00
430.0380, 47078.86
431.2280, 47381.00
432.4180, 47650.00
433.6080, 47503.76
434.7970, 47624.04
435.9870, 47615.36
437.1760, 47483.70
438.3650, 46926.79
439.5540, 46868.10
440.7430, 46578.61
441.9320, 46258.36
443.1210, 46206.25
444.3090, 45597.14
445.4970, 45496.29
446.6850, 45161.52
447.8730, 44901.48
449.0610, 44814.97
450.2490, 44341.13
451.4360, 44650.70
452.6240, 44823.11
453.8110, 44864.01
454.9980, 44471.31
456.1850, 44568.45
457.3710, 44426.54
458.5580, 44245.44
459.7440, 44324.27
460.9310, 43837.34
462.1170, 43850.47
463.3030, 43621.34
464.4880, 43458.82
465.6740, 43620.00
466.8590, 43294.00
468.0450, 42760.00
469.2300, 42707.00
470.4150, 42542.00
471.6000, 42580.00
472.7840, 42488.00
473.9690, 42372.00
475.1530, 42281.00
476.3370, 42569.00
477.5210, 42490.00
478.7050, 42563.00
479.8890, 42372.00
481.0730, 42479.55
482.2560, 42492.00
483.4390, 42627.00
484.6220, 42782.00
485.8050, 42901.00
486.9880, 42996.37
488.1710, 43122.04
489.3530, 43178.00
490.5360, 43318.00
491.7180, 43455.00
492.9000, 43522.14
494.0820, 43416.00
495.2630, 43629.00
496.4450, 43606.32
497.6260, 43705.46
498.8080, 43849.00
499.9890, 43811.00
501.1700, 44036.00
502.3500, 44276.00
503.5310, 43941.00
504.7110, 43941.00
505.8920, 44236.00
507.0720, 43853.00
508.2520, 43906.00
509.4320, 44141.00
510.6110, 43830.00
511.7910, 43886.00
512.9700, 43683.00
514.1490, 43662.00
515.3280, 43724.00
516.5070, 43504.00
517.6860, 43821.00
518.8650, 43584.00
520.0430, 43468.00
521.2210, 43573.00
522.3990, 43330.00
523.5770, 43502.00
524.7550, 43178.00
525.9330, 43310.00
527.1100, 43562.00
528.2870, 43314.00
529.4650, 43453.00
530.6420, 43176.00
531.8180, 43326.00
532.9950, 43086.00
534.1720, 43158.25
535.3480, 43147.32
536.5240, 43294.00
537.7000, 43085.00
538.8760, 43162.00
540.0520, 42988.00
541.2270, 43272.00
542.4030, 43532.00
543.5780, 43364.00
544.7530, 43686.00
545.9280, 43660.00
547.1030, 43858.00
548.2780, 43760.00
549.4520, 43997.00
550.6260, 44125.92
551.8010, 44349.00
552.9750, 44535.00
554.1480, 44600.00
555.3220, 44887.00
556.4960, 44953.00
557.6690, 45433.00
558.8420, 45501.00
560.0150, 45769.00
561.1880, 46045.00
562.3610, 46397.00
563.5340, 46794.00
564.7060, 46903.00
565.8780, 46960.00
567.0500, 46909.00
568.2220, 47205.68
569.3940, 48100.00
570.5660, 47921.00
571.7370, 48022.00
572.9090, 48742.00
574.0800, 48557.00
575.2510, 48914.00
576.4220, 49264.00
577.5920, 49294.00
578.7630, 49392.20
579.9330, 49039.62
581.1040, 49154.60
582.2740, 49168.72
583.4440, 48779.81
584.6130, 48911.35
585.7830, 48834.30
586.9520, 49062.00
588.1220, 49253.47
589.2910, 49709.02
590.4600, 49866.00
591.6290, 50395.00
592.7970, 50884.00
593.9660, 51120.18
595.1340, 52400.00
596.3020, 52280.00
597.4700, 52944.00
598.6380, 53468.00
599.8060, 54782.00
600.9730, 55008.00
602.1410, 55376.00
603.3080, 55406.62
604.4750, 55865.21
605.6420, 56196.70
606.8090, 56406.81
607.9750, 56193.28
609.1420, 56479.83
610.3080, 56537.22
611.4740, 56565.62
612.6400, 56863.91
613.8060, 56606.70
614.9720, 56859.47
616.1370, 56880.04
617.3020, 56977.10
618.4680, 56843.85
619.6330, 56763.29
620.7970, 56661.87
621.9620, 56453.55
623.1270, 56144.33
624.2910, 55432.39
625.4550, 55240.87
626.6190, 54840.79
627.7830, 54432.14
628.9470, 54478.00
630.1110, 54426.00
631.2740, 54420.00
632.4370, 54395.00
633.6000, 54373.00
634.7630, 54512.00
635.9260, 54536.00
637.0890, 54479.00
638.2510, 54848.00
639.4140, 54664.00
640.5760, 55060.00
641.7380, 55164.00
642.9000, 55335.00
644.0610, 55527.27
645.2230, 55545.00
646.3840, 55650.00
647.5460, 55835.00
648.7070, 55846.42
649.8670, 55856.00
651.0280, 55943.00
652.1890, 55961.00
653.3490, 55963.00
654.5090, 55780.87
655.6700, 55909.56
656.8300, 55931.74
657.9890, 55853.14
659.1490, 55371.42
660.3080, 55410.22
661.4680, 55240.36
662.6270, 55062.04
663.7860, 55174.09
664.9450, 54751.08
666.1030, 54858.62
667.2620, 54754.31
668.4200, 54747.02
669.5790, 54415.00
670.7370, 54714.00
671.8940, 53814.00
673.0520, 53996.00
674.2100, 54630.00
675.3670, 54104.00
676.5240, 54091.00
677.6810, 54545.00
678.8380, 54193.89
679.9950, 54041.00
681.1520, 54121.00
682.3080, 54250.00
683.4650, 54287.00
684.6210, 54371.00
685.7770, 54140.00
686.9320, 54400.00
688.0880, 54209.00
689.2440, 54040.00
690.3990, 54021.00
691.5540, 53965.00
692.7090, 53931.00
693.8640, 53814.00
695.0190, 53555.20
696.1730, 53501.45
697.3280, 53087.00
698.4820, 53030.00
699.6360, 53145.00
700.7900, 52459.00
701.9440, 52190.00
703.0970, 51601.00
704.2510, 51339.00
705.4040, 51228.00
706.5570, 50733.03
707.7100, 50439.00
708.8630, 49869.00
710.0150, 49241.00
711.1680, 48893.97
712.3200, 48412.00
713.4720, 48017.00
714.6240, 47694.00
715.7760, 47238.00
716.9280, 46613.00
718.0790, 46227.00
719.2310, 46136.00
720.3820, 45494.80
721.5330, 45176.42
722.6840, 44572.00
723.8350, 44382.00
724.9850, 44045.00
726.1360, 43894.00
727.2860, 43275.00
728.4360, 43152.00
729.5860, 42734.00
730.7360, 42521.00
731.8850, 42080.00
733.0350, 42097.00
734.1840, 41800.00
735.3330, 41668.00
736.4820, 41273.00
737.6310, 41140.00
738.7800, 40665.00
739.9280, 40708.00
741.0760, 40373.00
742.2250, 40196.00
743.3730, 40014.00
744.5200, 39807.00
745.6680, 39853.00
746.8160, 39947.00
747.9630, 39532.00
749.1100, 39345.00
750.2570, 39409.00
751.4040, 39464.00
752.5510, 39269.00
753.6980, 39167.00
754.8440, 39206.00
755.9900, 38697.00
757.1360, 38872.00
758.2820, 38484.00
759.4280, 38801.00
760.5740, 38831.00
761.7190, 38581.00
762.8640, 38695.00
764.0100, 38569.00
765.1550, 38513.00
766.2990, 38404.00
767.4440, 38212.00
768.5890, 38445.00
769.7330, 38267.00
770.8770, 38492.00
772.0210, 38128.00
773.1650, 38267.00
774.3090, 38082.00
775.4520, 38396.00
776.5960, 38302.00
777.7390, 38291.20
778.8820, 38276.00
780.0250, 38133.00
781.1670, 38373.00
782.3100, 38135.00
783.4520, 38187.00
784.5950, 38379.00
785.7370, 38216.00
786.8790, 38437.00
788.0210, 38187.00
789.1620, 38217.00
790.3040, 38362.00
791.4450, 38232.00
792.5860, 38280.00
793.7270, 38193.00
794.8680, 38144.24
796.0090, 38640.00
797.1490, 38396.00
798.2890, 38451.00
799.4300, 38512.05
800.5700, 38262.00
801.7090, 38389.00
802.8490, 38586.00
803.9890, 38436.00
805.1280, 38589.00
806.2670, 38557.38
807.4060, 38506.39
808.5450, 38511.00
809.6840, 38398.00
810.8230, 38354.00
811.9610, 38256.58
813.0990, 38208.95
814.2370, 38208.00
815.3750, 38133.00
816.5130, 38048.88
817.6510, 38037.00
818.7880, 38113.00
819.9250, 37948.00
821.0630, 38086.00
822.1990, 37870.00
823.3360, 38097.00
824.4730, 37730.00
825.6090, 37827.00
826.7460, 37593.00
827.8820, 37734.00
829.0180, 37932.00
830.1540, 37562.00
831.2890, 37368.00
832.4250, 37267.00
833.5600, 37466.00
834.6960, 37001.00
835.8310, 37094.00
836.9660, 37006.00
838.1000, 36909.00
839.2350, 36939.00
840.3690, 36563.00
841.5030, 36747.00
842.6380, 36760.00
843.7710, 36959.00
844.9050, 36673.00
846.0390, 36575.00
847.1720, 36696.00
848.3060, 36453.00
849.4390, 36964.00
850.5720, 36414.00
851.7040, 36554.00
852.8370, 36374.00
853.9700, 36675.00
855.1020, 36651.00
856.2340, 36564.00
857.3660, 36550.00
858.4980, 36695.00
859.6300, 36487.00
860.7610, 36836.00
861.8920, 36692.97
863.0240, 36723.55
864.1550, 36610.00
865.2850, 36702.00
866.4160, 36693.00
867.5470, 36662.00
868.6770, 36782.00
869.8070, 36635.00
870.9370, 36890.00
872.0670, 36544.00
873.1970, 36871.00
874.3270, 36773.00
875.4560, 36790.00
876.5850, 36538.00
877.7140, 36527.00
878.8430, 36898.00
879.9720, 36927.00
881.1010, 36894.00
882.2290, 36439.00
883.3570, 36669.00
884.4860, 36658.00
885.6140, 36908.00
886.7410, 36672.00
887.8690, 36785.00
888.9960, 36893.00
890.1240, 36731.00
891.2510, 36841.00
892.3780, 36910.04
893.5050, 36919.00
894.6320, 37125.00
895.7580, 37113.00
896.8840, 37204.00
898.0110, 37200.00
899.1370, 37145.00
900.2620, 37145.80
901.3880, 37183.00
902.5140, 37083.00
903.6390, 37088.00
904.7640, 37137.00
905.8890, 37446.00
907.0140, 37557.00
908.1390, 37050.00
909.2640, 37495.00
910.3880, 37518.00
911.5120, 37780.00
912.6360, 37948.00
913.7600, 37508.00
914.8840, 37827.00
916.0080, 37655.68
917.1310, 37913.20
918.2550, 38094.64
919.3780, 38203.95
920.5010, 38025.38
921.6230, 38218.48
922.7460, 38262.67
923.8690, 38300.75
924.9910, 38546.17
926.1130, 38409.39
927.2350, 38651.52
928.3570, 38742.39
929.4790, 38902.49
930.6000, 38912.62
931.7220, 38969.12
932.8430, 39175.49
933.9640, 39298.84
935.0850, 39291.71
936.2050, 39635.00
937.3260, 39718.00
938.4460, 39804.00
939.5660, 40045.00
940.6870, 40106.00
941.8060, 40403.00
942.9260, 40741.00
944.0460, 41246.00
945.1650, 41445.35
946.2840, 41860.54
947.4040, 42104.00
948.5220, 42446.00
949.6410, 43091.00
950.7600, 43179.00
951.8780, 44257.00
952.9970, 44651.00
954.1150, 45418.00
955.2330, 45855.00
956.3500, 46638.00
957.4680, 47406.00
958.5860, 47763.00
959.7030, 48571.00
960.8200, 49528.00
961.9370, 50460.00
963.0540, 51841.00
964.1710, 53086.00
965.2870, 54699.00
966.4030, 56362.00
967.5200, 58896.21
968.6360, 62019.00
969.7510, 65233.00
970.8670, 68981.00
971.9830, 73842.00
973.0980, 79636.00
974.2130, 86122.00
975.3280, 94164.00
976.4430, 102598.0
977.5580, 112875.0
978.6730, 123840.0
979.7870, 135443.0
980.9010, 147400.0
982.0150, 158627.0
983.1290, 168295.0
984.2430, 174537.0
985.3560, 177181.0
986.4700, 176077.0
987.5830, 169579.0
988.6960, 159647.0
989.8090, 146274.0
990.9220, 132825.0
992.0350, 118685.0
993.1470, 104865.0
994.2590, 93743.00
995.3720, 84012.00
996.4830, 76611.00
997.5950, 70284.00
998.7070, 65998.00
999.8180, 62274.00
1000.930, 59386.00
1002.041, 57383.00
1003.152, 55651.00
1004.263, 54471.00
1005.373, 53576.00
1006.484, 52312.00
1007.594, 51779.00
1008.704, 51243.00
1009.815, 50852.00
1010.924, 50485.00
1012.034, 49989.00
1013.144, 50095.00
1014.253, 49880.00
1015.362, 49912.00
1016.471, 49697.00
1017.580, 49749.00
1018.689, 49671.00
1019.797, 49449.00
1020.906, 49370.00
1022.014, 49608.00
1023.122, 49788.00
1024.230, 49770.00
1025.338, 49629.00
1026.445, 49734.00
1027.553, 50075.00
1028.660, 50317.00
1029.767, 50023.00
1030.874, 50234.00
1031.981, 50151.00
1033.088, 50510.00
1034.194, 50304.00
1035.300, 50717.00
1036.406, 50865.00
1037.512, 50861.00
1038.618, 51158.00
1039.724, 51346.00
1040.829, 51517.37
1041.935, 51604.35
1043.040, 51900.00
1044.145, 51727.00
1045.250, 51782.00
1046.354, 51972.00
1047.459, 51883.00
1048.563, 52005.00
1049.667, 51789.00
1050.771, 51725.00
1051.875, 51289.00
1052.979, 51319.00
1054.082, 51314.00
1055.186, 51227.00
1056.289, 50533.00
1057.392, 50954.00
1058.495, 50831.00
1059.598, 50288.00
1060.700, 50533.00
1061.803, 50326.00
1062.905, 50233.00
1064.007, 50280.00
1065.109, 50769.00
1066.210, 51031.00
1067.312, 51294.00
1068.413, 51783.00
1069.515, 52074.00
1070.616, 53071.00
1071.717, 53321.00
1072.817, 54372.00
1073.918, 54567.10
1075.019, 54777.00
1076.119, 54846.00
1077.219, 54682.00
1078.319, 54376.00
1079.419, 53725.00
1080.518, 53234.00
1081.618, 52843.00
1082.717, 52007.00
1083.816, 51353.00
1084.915, 50813.00
1086.014, 50502.00
1087.113, 50026.00
1088.211, 49875.00
1089.309, 49241.00
1090.408, 48531.00
1091.506, 48172.00
1092.603, 47433.00
1093.701, 47246.00
1094.799, 46887.00
1095.896, 46795.00
1096.993, 46202.00
1098.090, 45925.00
1099.187, 45878.00
1100.284, 45545.00
1101.380, 45393.43
1102.477, 45372.00
1103.573, 45050.00
1104.669, 44625.00
1105.765, 44529.00
1106.860, 44104.43
1107.956, 44267.25
1109.051, 44358.98
1110.147, 44383.47
1111.242, 44139.27
1112.336, 44242.02
1113.431, 44205.73
1114.526, 44163.74
1115.620, 44315.33
1116.714, 44110.21
1117.809, 44258.72
1118.902, 44067.00
1119.996, 44144.00
1121.090, 44141.12
1122.183, 44432.16
1123.277, 44616.64
1124.370, 44700.20
1125.463, 44380.73
1126.555, 44581.64
1127.648, 44574.04
1128.740, 44557.83
1129.833, 44832.04
1130.925, 44734.00
1132.017, 44783.00
1133.109, 44628.00
1134.200, 44732.00
1135.292, 44209.00
1136.383, 43905.00
1137.474, 43362.00
1138.565, 43435.00
1139.656, 43066.00
1140.747, 42761.00
1141.837, 42208.00
1142.927, 42126.00
1144.018, 41736.00
1145.108, 41967.00
1146.197, 41411.00
1147.287, 41514.00
1148.377, 41452.00
1149.466, 41065.00
1150.555, 40975.00
1151.644, 40723.00
1152.733, 40591.00
1153.822, 40611.00
1154.910, 40480.00
1155.999, 40595.00
1157.087, 40583.00
1158.175, 40442.50
1159.263, 40446.00
1160.350, 40220.00
1161.438, 40218.00
1162.525, 40232.00
1163.613, 40136.00
1164.700, 40165.50
1165.787, 40107.00
1166.873, 40156.00
1167.960, 40145.00
1169.046, 40136.00
1170.133, 40134.00
1171.219, 40257.00
1172.305, 40104.00
1173.390, 40144.46
1174.476, 40022.00
1175.561, 40084.00
1176.647, 40117.00
1177.732, 39897.54
1178.817, 40141.88
1179.901, 40279.61
1180.986, 40316.47
1182.070, 39950.30
1183.155, 40104.56
1184.239, 40050.25
1185.323, 39987.39
1186.407, 40214.89
1187.490, 39907.34
1188.574, 40130.24
1189.657, 40141.39
1190.740, 40249.45
1191.823, 40147.66
1192.906, 40110.70
1193.988, 40283.64
1195.071, 40340.35
1196.153, 40214.41
1197.235, 40328.63
1198.317, 40013.75
1199.399, 40075.41
1200.481, 40299.53
1201.562, 40184.14
1202.644, 40302.20
1203.725, 40331.34
1204.806, 39956.42
1205.887, 40284.21
1206.967, 40308.11
1208.048, 40019.96
1209.128, 40323.67
1210.208, 40078.54
1211.289, 40029.31
1212.368, 40127.52
1213.448, 40072.03
1214.528, 40201.00
1215.607, 40346.00
1216.686, 40449.00
1217.765, 40440.00
1218.844, 40154.00
1219.923, 40095.00
1221.001, 40033.14
1222.080, 40011.00
1223.158, 39990.00
1224.236, 40078.00
1225.314, 40154.00
1226.392, 40204.00
1227.469, 40232.63
1228.547, 40312.00
1229.624, 40245.00
1230.701, 40276.19
1231.778, 40272.00
1232.855, 40182.00
1233.931, 40602.00
1235.008, 40537.00
1236.084, 40049.00
1237.160, 40410.00
1238.236, 40261.00
1239.312, 40118.00
1240.387, 40459.00
1241.463, 40259.00
1242.538, 40401.00
1243.613, 40038.00
1244.688, 40242.00
1245.763, 40435.00
1246.837, 40575.00
