##NAMES=Triplite
##RRUFFID=R050226
##IDEAL CHEMISTRY=Mn^2+^_2_(PO_4_)F
##LOCALITY=Fremont County, Colorado, USA
##OWNER=RRUFF
##SOURCE=Marcus Origlieri
##DESCRIPTION=Reddish brown massive
##STATUS=The identification of this mineral has been confirmed by X-ray diffraction and chemical analysis
##URL=rruff.info/R050226
##MEASURED CHEMISTRY=(Mn^2+^_1.20_Mg_0.49_Fe^2+^_0.27_Ca_0.04_)_Σ=2_(P_1.00_O_4_)(F_0.95_(OH)_0.05_)_Σ=1_
##PIN_ID=L00426
##ORIENTATION=Laser parallel to c* (0 0 1). Fiducial mark perpendicular to laser is parallel to a [1 0 0]
63.41100, 15004.00
64.65300, 15917.00
65.89600, 17152.00
67.13800, 18074.00
68.38000, 19666.00
69.62200, 20699.00
70.86300, 21775.00
72.10500, 23157.00
73.34600, 24695.00
74.58700, 25304.00
75.82800, 26847.00
77.06900, 27975.00
78.30900, 28485.00
79.55000, 28655.00
80.79000, 29303.00
82.03000, 30226.00
83.27000, 31267.00
84.51000, 30498.00
85.74900, 30410.00
86.98900, 28715.00
88.22800, 28076.00
89.46700, 28909.00
90.70600, 28845.00
91.94400, 29974.00
93.18300, 29964.00
94.42100, 29047.00
95.65900, 29019.00
96.89700, 28391.00
98.13500, 27909.00
99.37300, 28200.00
100.6100, 27819.00
101.8480, 27167.00
103.0850, 26994.00
104.3220, 26678.00
105.5590, 27386.00
106.7950, 27972.00
108.0320, 28537.00
109.2680, 27924.00
110.5040, 26852.00
111.7400, 26574.00
112.9760, 26638.00
114.2120, 26926.00
115.4470, 27324.00
116.6820, 28445.00
117.9170, 28075.80
119.1520, 28706.00
120.3870, 27788.00
121.6220, 27792.00
122.8560, 27740.00
124.0900, 27730.00
125.3240, 27103.00
126.5580, 26391.00
127.7920, 25971.00
129.0260, 26143.00
130.2590, 26289.00
131.4920, 26209.00
132.7250, 25955.00
133.9580, 25752.00
135.1910, 25988.00
136.4230, 25688.00
137.6560, 25718.00
138.8880, 26110.00
140.1200, 26206.00
141.3520, 26111.00
142.5830, 25993.00
143.8150, 25664.00
145.0460, 25496.00
146.2770, 25662.00
147.5080, 25317.00
148.7390, 25558.00
149.9700, 25344.00
151.2000, 25500.00
152.4310, 25553.00
153.6610, 25654.76
154.8910, 25614.43
156.1210, 25582.44
157.3500, 25529.00
158.5800, 25433.00
159.8090, 25498.00
161.0380, 25481.00
162.2670, 25469.00
163.4960, 25576.00
164.7240, 25410.00
165.9530, 24994.00
167.1810, 25175.00
168.4090, 25036.00
169.6370, 25055.00
170.8650, 25054.57
172.0920, 24739.00
173.3200, 24855.00
174.5470, 24564.00
175.7740, 24148.00
177.0010, 24115.00
178.2280, 23924.96
179.4540, 24014.76
180.6810, 24055.44
181.9070, 24049.66
183.1330, 23858.23
184.3590, 23906.54
185.5850, 23858.76
186.8100, 23807.07
188.0350, 23889.13
189.2610, 23724.71
190.4860, 23804.65
191.7110, 23787.05
192.9350, 23814.11
194.1600, 23744.49
195.3840, 23704.74
196.6080, 23769.00
197.8320, 23735.00
199.0560, 23699.00
200.2800, 23725.37
201.5030, 23680.29
202.7270, 23803.00
203.9500, 23688.00
205.1730, 23885.00
206.3950, 24026.00
207.6180, 23786.77
208.8410, 23962.00
210.0630, 23479.00
211.2850, 23465.00
212.5070, 23573.00
213.7290, 23838.00
214.9500, 23936.00
216.1720, 24018.00
217.3930, 24248.00
218.6140, 24324.00
219.8350, 24718.00
221.0560, 24739.00
222.2770, 24664.00
223.4970, 24999.00
224.7170, 24998.00
225.9370, 25112.00
227.1570, 24800.00
228.3770, 24746.00
229.5970, 24130.00
230.8160, 24155.00
232.0350, 23996.00
233.2540, 23672.00
234.4730, 23787.00
235.6920, 23687.00
236.9110, 23796.00
238.1290, 23948.00
239.3470, 23656.00
240.5650, 24056.00
241.7830, 23971.00
243.0010, 24000.00
244.2180, 23972.00
245.4360, 23923.00
246.6530, 23950.00
247.8700, 23718.00
249.0870, 23991.00
250.3040, 23985.00
251.5200, 23583.00
252.7370, 23350.00
253.9530, 23161.00
255.1690, 23041.46
256.3850, 23235.00
257.6000, 23046.00
258.8160, 23175.00
260.0310, 23340.00
261.2460, 23131.00
262.4610, 23103.00
263.6760, 23061.00
264.8910, 23279.00
266.1050, 23275.00
267.3200, 23295.00
268.5340, 23434.52
269.7480, 23283.00
270.9620, 23530.00
272.1750, 23543.00
273.3890, 23392.00
274.6020, 23712.00
275.8150, 23681.00
277.0280, 23958.00
278.2410, 24032.00
279.4540, 24169.00
280.6660, 24410.00
281.8790, 24916.00
283.0910, 25075.00
284.3030, 25204.00
285.5140, 25652.00
286.7260, 25760.00
287.9380, 26213.00
289.1490, 26466.00
290.3600, 26784.00
291.5710, 27006.29
292.7820, 27370.00
293.9920, 27172.00
295.2030, 27030.00
296.4130, 26688.00
297.6230, 26758.00
298.8330, 26612.00
300.0430, 26193.00
301.2520, 25933.00
302.4620, 25445.00
303.6710, 25566.00
304.8800, 24974.00
306.0890, 24642.60
307.2980, 24673.00
308.5070, 23906.00
309.7150, 23677.00
310.9230, 23675.00
312.1310, 23460.00
313.3390, 23311.45
314.5470, 22941.00
315.7550, 22916.00
316.9620, 22798.00
318.1690, 22487.00
319.3760, 22601.00
320.5830, 22299.00
321.7900, 22252.00
322.9960, 21981.00
324.2030, 22193.00
325.4090, 22070.00
326.6150, 22128.00
327.8210, 22065.87
329.0270, 22114.29
330.2320, 22113.65
331.4380, 22066.50
332.6430, 21833.74
333.8480, 21840.72
335.0530, 21751.62
336.2580, 21658.59
337.4620, 21699.36
338.6670, 21608.00
339.8710, 21525.00
341.0750, 21453.00
342.2790, 21450.23
343.4820, 21403.00
344.6860, 21451.00
345.8890, 21379.00
347.0920, 21386.00
348.2960, 21292.00
349.4980, 21293.00
350.7010, 21140.00
351.9040, 21416.00
353.1060, 21342.00
354.3080, 21239.00
355.5100, 21124.00
356.7120, 21306.00
357.9140, 21404.00
359.1150, 21091.00
360.3170, 21349.00
361.5180, 21182.00
362.7190, 21386.00
363.9200, 21467.00
365.1200, 21579.00
366.3210, 21488.00
367.5210, 21463.00
368.7210, 21638.00
369.9210, 21613.00
371.1210, 21824.00
372.3210, 21803.00
373.5200, 21744.00
374.7200, 22018.00
375.9190, 22180.00
377.1180, 22127.00
378.3170, 22322.59
379.5150, 22229.95
380.7140, 22449.43
381.9120, 22622.30
383.1110, 22609.66
384.3090, 22836.62
385.5060, 22967.38
386.7040, 23094.32
387.9020, 23355.02
389.0990, 23369.12
390.2960, 23669.00
391.4930, 23699.00
392.6900, 24226.00
393.8860, 24241.00
395.0830, 24435.00
396.2790, 24677.00
397.4750, 25251.00
398.6710, 25168.00
399.8670, 25381.00
401.0630, 25586.00
402.2580, 25609.00
403.4540, 26061.00
404.6490, 26168.00
405.8440, 26171.00
407.0390, 26350.00
408.2330, 26197.00
409.4280, 26242.00
410.6220, 26247.00
411.8160, 25866.00
413.0100, 25945.00
414.2040, 25642.00
415.3980, 25058.00
416.5910, 24970.00
417.7850, 24971.00
418.9780, 24745.00
420.1710, 24624.00
421.3640, 24553.00
422.5560, 24599.81
423.7490, 24622.78
424.9410, 24700.94
426.1330, 24872.00
427.3250, 24945.00
428.5170, 25194.00
429.7090, 25368.00
430.9000, 25365.00
432.0910, 25668.00
433.2820, 25780.00
434.4730, 25662.00
435.6640, 25499.00
436.8550, 25483.58
438.0450, 25308.17
439.2360, 25158.00
440.4260, 25061.00
441.6160, 24611.00
442.8060, 24520.00
443.9950, 24267.00
445.1850, 24052.00
446.3740, 24095.00
447.5630, 23946.00
448.7520, 23944.00
449.9410, 23875.00
451.1300, 23630.71
452.3180, 23794.06
453.5060, 23881.34
454.6950, 23895.17
455.8830, 23696.38
457.0700, 23710.43
458.2580, 23601.40
459.4450, 23461.58
460.6330, 23428.47
461.8200, 23122.08
463.0070, 23033.12
464.1940, 22819.71
465.3800, 22703.00
466.5670, 22681.00
467.7530, 22495.00
468.9390, 22506.00
470.1250, 22088.00
471.3110, 21992.00
472.4970, 21945.00
473.6820, 22046.00
474.8680, 22051.00
476.0530, 22049.00
477.2380, 21894.00
478.4230, 21930.50
479.6070, 21802.00
480.7920, 21912.00
481.9760, 21910.00
483.1600, 21937.63
484.3440, 21913.00
485.5280, 21855.00
486.7120, 21902.00
487.8950, 21843.00
489.0780, 21977.00
490.2620, 21857.64
491.4450, 21964.99
492.6270, 22023.24
493.8100, 22035.02
494.9920, 21861.15
496.1750, 21927.01
497.3570, 21896.80
498.5390, 21862.65
499.7210, 21962.25
500.9020, 21815.39
502.0840, 21912.87
503.2650, 21912.81
504.4460, 21957.40
505.6270, 21905.32
506.8080, 21883.10
507.9890, 21957.58
509.1690, 21978.52
510.3500, 21925.00
511.5300, 21926.00
512.7100, 21828.00
513.8900, 21747.00
515.0690, 21760.92
516.2490, 21687.00
517.4280, 21777.00
518.6070, 21760.00
519.7860, 21795.00
520.9650, 21774.00
522.1440, 21877.00
523.3220, 21814.91
524.5010, 21825.00
525.6790, 21746.83
526.8570, 21776.36
528.0350, 21774.00
529.2130, 21875.00
530.3900, 21903.00
531.5670, 21896.00
532.7450, 22100.78
533.9220, 22469.76
535.0980, 22350.77
536.2750, 22535.00
537.4520, 22381.67
538.6280, 22422.44
539.8040, 22405.00
540.9800, 22421.00
542.1560, 22522.00
543.3320, 22532.00
544.5070, 22698.00
545.6830, 22776.00
546.8580, 22539.00
548.0330, 22650.00
549.2080, 22812.00
550.3830, 22968.00
551.5570, 22764.00
552.7310, 22935.00
553.9060, 22963.92
555.0800, 22927.00
556.2540, 23197.00
557.4270, 22894.00
558.6010, 23147.00
559.7740, 23041.00
560.9470, 22999.00
562.1210, 23176.00
563.2930, 23194.00
564.4660, 23283.00
565.6390, 23563.00
566.8110, 23667.00
567.9830, 23659.00
569.1550, 23974.00
570.3270, 24026.00
571.4990, 24153.34
572.6710, 24383.21
573.8420, 24563.87
575.0130, 24698.07
576.1840, 24646.62
577.3550, 24834.89
578.5260, 24927.09
579.6970, 25015.36
580.8670, 25237.27
582.0370, 25212.72
583.2070, 25432.51
584.3770, 25335.00
585.5470, 25449.40
586.7170, 25928.00
587.8860, 25940.00
589.0550, 26397.72
590.2240, 26672.00
591.3930, 26930.00
592.5620, 27412.00
593.7310, 27879.00
594.8990, 28355.00
596.0670, 28887.00
597.2350, 29722.00
598.4030, 30116.00
599.5710, 30655.00
600.7390, 30990.00
601.9060, 31170.31
603.0740, 31170.00
604.2410, 31289.00
605.4080, 31255.00
606.5740, 31095.00
607.7410, 30947.00
608.9080, 30279.00
610.0740, 30278.00
611.2400, 29740.00
612.4060, 29265.00
613.5720, 28870.00
614.7370, 28533.29
615.9030, 28462.00
617.0680, 28068.00
618.2330, 27867.00
619.3980, 27794.00
620.5630, 27428.00
621.7280, 27226.00
622.8920, 27165.00
624.0570, 26799.00
625.2210, 26829.00
626.3850, 26749.00
627.5490, 26672.00
628.7120, 26795.00
629.8760, 26490.00
631.0390, 26564.00
632.2020, 26573.00
633.3650, 26599.00
634.5280, 26688.31
635.6910, 26573.00
636.8530, 26858.00
638.0160, 26895.00
639.1780, 26979.00
640.3400, 26875.00
641.5020, 27174.00
642.6640, 27032.00
643.8250, 27346.00
644.9870, 27374.00
646.1480, 27357.00
647.3090, 27654.00
648.4700, 27905.00
649.6300, 27971.00
650.7910, 28036.00
651.9510, 28092.00
653.1120, 28014.00
654.2720, 28249.00
655.4320, 28114.00
656.5910, 28387.00
657.7510, 28483.00
658.9100, 28439.00
660.0690, 28492.79
661.2290, 28188.00
662.3880, 28364.00
663.5460, 28102.00
664.7050, 28012.00
665.8630, 28081.00
667.0220, 28180.00
668.1800, 28036.00
669.3380, 28136.00
670.4950, 28055.54
671.6530, 27830.25
672.8100, 27883.14
673.9680, 27889.55
675.1250, 27710.32
676.2820, 27770.81
677.4390, 27735.23
678.5950, 28169.90
679.7520, 28223.00
680.9080, 28429.00
682.0640, 28531.00
683.2200, 28635.00
684.3760, 28678.96
685.5320, 28707.04
686.6870, 28681.00
687.8420, 28721.00
688.9980, 28718.00
690.1530, 28768.00
691.3070, 28726.87
692.4620, 28630.39
693.6170, 28622.27
694.7710, 28565.15
695.9250, 28461.56
697.0790, 28172.32
698.2330, 28122.81
699.3870, 27977.21
700.5400, 27827.80
701.6940, 27812.02
702.8470, 27549.89
704.0000, 27545.00
705.1530, 27130.00
706.3050, 27220.00
707.4580, 26585.00
708.6100, 26656.00
709.7630, 26284.00
710.9150, 26002.00
712.0660, 26025.00
713.2180, 25656.00
714.3700, 25485.00
715.5210, 25352.00
716.6720, 24713.00
717.8240, 24702.00
718.9740, 24252.00
720.1250, 24077.00
721.2760, 23712.00
722.4260, 23548.00
723.5770, 23448.00
724.7270, 23209.00
725.8770, 22681.00
727.0260, 22548.00
728.1760, 22313.00
729.3250, 22255.00
730.4750, 22099.00
731.6240, 21874.00
732.7730, 21662.00
733.9220, 21290.00
735.0700, 21288.00
736.2190, 21329.00
737.3670, 20873.00
738.5150, 21013.00
739.6630, 20757.00
740.8110, 20693.00
741.9590, 20451.00
743.1060, 20441.00
744.2540, 20278.00
745.4010, 20349.00
746.5480, 20268.00
747.6950, 20129.00
748.8410, 20063.00
749.9880, 19969.75
751.1340, 20035.49
752.2800, 20052.13
753.4260, 20022.29
754.5720, 19806.81
755.7180, 19831.06
756.8640, 19759.24
758.0090, 19683.51
759.1540, 19741.54
760.2990, 19685.84
761.4440, 19609.01
762.5890, 19703.00
763.7340, 19725.00
764.8780, 19793.84
766.0220, 19781.00
767.1660, 19903.00
768.3100, 19803.00
769.4540, 19857.00
770.5980, 20022.00
771.7410, 20058.00
772.8840, 20140.00
774.0280, 19953.00
775.1700, 19960.00
776.3130, 19934.00
777.4560, 19980.00
778.5980, 19989.65
779.7410, 20192.00
780.8830, 20113.00
782.0250, 20177.00
783.1670, 20378.00
784.3080, 20329.00
785.4500, 20373.00
786.5910, 20371.00
787.7320, 20527.00
788.8730, 20549.00
790.0140, 20612.00
791.1550, 20700.77
792.2950, 20774.00
793.4360, 20836.00
794.5760, 20808.00
795.7160, 20867.00
796.8560, 20892.00
797.9960, 20674.00
799.1350, 20746.00
800.2750, 20700.00
801.4140, 20939.00
802.5530, 20830.00
803.6920, 21050.00
804.8310, 21014.00
805.9690, 20990.00
807.1080, 20991.00
808.2460, 20945.15
809.3840, 20901.00
810.5220, 20870.00
811.6600, 20812.00
812.7970, 20763.00
813.9350, 20731.00
815.0720, 20894.00
816.2090, 20826.00
817.3460, 20913.00
818.4830, 20656.00
819.6200, 20829.00
820.7560, 20688.00
821.8930, 20494.00
823.0290, 20640.00
824.1650, 20403.00
825.3010, 20196.00
826.4360, 20346.00
827.5720, 20251.00
828.7070, 20195.00
829.8420, 20044.00
830.9770, 19892.00
832.1120, 20042.00
833.2470, 19813.00
834.3820, 19835.00
835.5160, 19764.00
836.6500, 19622.00
837.7840, 19677.00
838.9180, 19551.00
840.0520, 19607.00
841.1860, 19377.00
842.3190, 19391.00
843.4520, 19423.00
844.5850, 19194.00
845.7180, 19381.00
846.8510, 19253.00
847.9840, 19194.00
849.1160, 19260.00
850.2490, 19495.00
851.3810, 19450.00
852.5130, 19406.00
853.6450, 19368.00
854.7760, 19098.00
855.9080, 19245.00
857.0390, 19078.00
858.1700, 19100.00
859.3010, 19262.00
860.4320, 19145.00
861.5630, 19115.00
862.6930, 19063.00
863.8240, 19217.00
864.9540, 19249.00
866.0840, 19193.00
867.2140, 19218.00
868.3440, 19153.00
869.4730, 19127.24
870.6030, 19142.76
871.7320, 19139.00
872.8610, 19114.00
873.9900, 19311.00
875.1190, 19207.00
876.2470, 19352.00
877.3760, 19375.00
878.5040, 19457.00
879.6320, 19365.00
880.7600, 19431.00
881.8880, 19325.00
883.0150, 19278.00
884.1430, 19330.00
885.2700, 19351.00
886.3970, 19387.00
887.5240, 19345.00
888.6510, 19328.00
889.7780, 19318.00
890.9040, 19332.00
892.0310, 19433.00
893.1570, 19412.40
894.2830, 19523.00
895.4090, 19405.00
896.5350, 19548.00
897.6600, 19474.00
898.7860, 19646.00
899.9110, 19635.00
901.0360, 19608.00
902.1610, 19558.00
903.2860, 19777.00
904.4100, 19792.09
905.5350, 20056.00
906.6590, 20028.00
907.7830, 19851.00
908.9070, 19956.00
910.0310, 19888.00
911.1540, 19941.50
912.2780, 19950.93
913.4010, 20020.00
914.5240, 20077.00
915.6470, 19953.00
916.7700, 20247.00
917.8930, 20095.00
919.0150, 20137.00
920.1380, 20473.00
921.2600, 20297.00
922.3820, 20387.00
923.5040, 20369.00
924.6260, 20475.00
925.7470, 20533.00
926.8690, 20491.00
927.9900, 20798.00
929.1110, 20701.00
930.2320, 20782.00
931.3530, 20752.00
932.4730, 20877.00
933.5940, 20995.00
934.7140, 21046.00
935.8340, 21192.99
936.9540, 21256.00
938.0740, 21449.00
939.1930, 21595.00
940.3130, 21744.00
941.4320, 21835.00
942.5510, 22136.00
943.6700, 22266.00
944.7890, 22591.00
945.9080, 22985.00
947.0260, 23240.00
948.1450, 23698.00
949.2630, 24062.00
950.3810, 24582.00
951.4990, 25175.00
952.6170, 25680.00
953.7340, 26316.00
954.8520, 26812.00
955.9690, 27230.00
957.0860, 27749.00
958.2030, 28553.00
959.3200, 28313.00
960.4360, 28437.00
961.5530, 28954.00
962.6690, 29471.00
963.7850, 30287.00
964.9010, 31192.00
966.0170, 32563.00
967.1330, 34200.00
968.2480, 35840.00
969.3630, 38189.00
970.4790, 40843.00
971.5940, 43986.28
972.7080, 47624.00
973.8230, 51577.00
974.9380, 56238.00
976.0520, 60990.00
977.1660, 66857.00
978.2800, 72542.00
979.3940, 79096.00
980.5080, 84868.00
981.6220, 89831.00
982.7350, 93700.00
983.8480, 96209.00
984.9610, 96910.00
986.0740, 95305.00
987.1870, 91080.00
988.3000, 85269.00
989.4120, 77941.00
990.5250, 70132.00
991.6370, 62362.00
992.7490, 55947.00
993.8610, 49437.00
994.9720, 44758.00
996.0840, 40589.00
997.1950, 37244.00
998.3060, 35106.00
999.4170, 32923.00
1000.528, 31776.00
1001.639, 30647.00
1002.750, 29715.00
1003.860, 29114.00
1004.970, 28478.00
1006.080, 28378.00
1007.190, 27861.00
1008.300, 27795.00
1009.410, 27399.00
1010.519, 27298.00
1011.628, 27300.00
1012.738, 26955.00
1013.846, 27269.00
1014.955, 27182.00
1016.064, 27260.00
1017.172, 27508.00
1018.281, 27439.00
1019.389, 27407.00
1020.497, 27726.00
1021.605, 27700.00
1022.713, 27823.00
1023.820, 27811.00
1024.928, 27927.00
1026.035, 27994.00
1027.142, 28084.00
1028.249, 28265.00
1029.356, 28329.00
1030.462, 28346.00
1031.569, 28225.00
1032.675, 28209.00
1033.781, 28173.00
1034.887, 28443.00
1035.993, 28385.00
1037.098, 28570.00
1038.204, 28507.00
1039.309, 28200.00
1040.415, 28202.00
1041.520, 27959.00
1042.624, 27960.00
1043.729, 27913.00
1044.834, 27683.00
1045.938, 27725.00
1047.042, 27727.75
1048.146, 27583.00
1049.250, 27495.69
1050.354, 27472.00
1051.458, 27127.00
1052.561, 26846.00
1053.664, 26575.00
1054.767, 26435.63
1055.870, 26278.03
1056.973, 26081.00
1058.076, 26244.00
1059.178, 25742.00
1060.281, 26008.00
1061.383, 25706.00
1062.485, 25712.00
1063.587, 25636.00
1064.688, 25567.00
1065.790, 25582.00
1066.891, 25334.82
1067.993, 25401.46
1069.094, 25419.04
1070.195, 25390.14
1071.295, 25175.64
1072.396, 25200.82
1073.496, 25129.98
1074.597, 25055.15
1075.697, 25114.12
1076.797, 24926.62
1077.897, 24983.46
1078.996, 24942.81
1080.096, 24946.76
1081.195, 24854.08
1082.294, 24791.26
1083.393, 24825.13
1084.492, 24805.47
1085.591, 24701.66
1086.689, 24708.53
1087.788, 24517.69
1088.886, 24500.35
1089.984, 24557.84
1091.082, 24458.93
1092.180, 24467.57
1093.277, 24535.00
1094.375, 24212.00
1095.472, 24233.00
1096.569, 24043.00
1097.666, 24189.00
1098.763, 23956.00
1099.860, 24003.00
1100.956, 23852.00
1102.053, 23811.00
1103.149, 23966.00
1104.245, 23771.00
1105.341, 23792.00
1106.436, 23471.00
1107.532, 23496.00
1108.627, 23451.00
1109.723, 23661.00
1110.818, 23421.00
1111.913, 23371.00
1113.007, 23670.00
1114.102, 23561.00
1115.197, 23823.00
1116.291, 23768.00
1117.385, 23669.00
1118.479, 23797.00
1119.573, 23784.00
1120.666, 23788.00
1121.760, 24027.00
1122.853, 24042.00
1123.947, 24287.00
1125.040, 24389.00
1126.132, 24459.00
1127.225, 24732.00
1128.318, 24640.00
1129.410, 24832.94
1130.502, 24974.00
1131.595, 24988.00
1132.687, 24887.00
1133.778, 24784.00
1134.870, 24628.00
1135.961, 24417.17
1137.053, 24239.00
1138.144, 23896.00
1139.235, 23656.00
1140.326, 23328.00
1141.416, 23023.00
1142.507, 22903.00
1143.597, 22595.00
1144.688, 22527.00
1145.778, 22379.00
1146.868, 22076.85
1147.957, 22128.58
1149.047, 22134.50
1150.136, 22097.33
1151.226, 21877.81
1152.315, 21901.41
1153.404, 21832.26
1154.493, 21762.52
1155.581, 21829.90
1156.670, 21654.12
1157.758, 21726.05
1158.846, 21703.78
1159.934, 21729.47
1161.022, 21661.84
1162.110, 21692.00
1163.198, 21850.00
1164.285, 21779.00
1165.372, 21683.00
1166.459, 21676.00
1167.546, 21555.00
1168.633, 21570.93
1169.720, 21620.00
1170.806, 21551.00
1171.892, 21684.00
1172.979, 21615.00
1174.065, 21906.00
1175.150, 21576.00
1176.236, 21677.00
1177.322, 21491.00
1178.407, 21557.00
1179.492, 21905.00
1180.577, 22000.00
1181.662, 21876.00
1182.747, 21985.62
1183.832, 21679.57
1184.916, 21796.75
1186.000, 21838.42
1187.084, 21578.41
1188.168, 21707.95
1189.252, 21681.38
1190.336, 21648.41
1191.419, 21832.77
1192.503, 21616.64
1193.586, 21797.56
1194.669, 21819.97
1195.752, 21914.93
1196.835, 21852.80
1197.917, 21839.18
1199.000, 21982.71
1200.082, 22039.21
1201.164, 21958.99
1202.246, 22058.55
1203.328, 21836.90
1204.409, 21897.10
1205.491, 22078.92
1206.572, 22006.58
1207.653, 22108.99
1208.734, 22144.85
1209.815, 21878.25
1210.896, 22137.66
1211.976, 22169.57
1213.057, 21967.92
1214.137, 21996.00
1215.217, 22077.00
1216.297, 22050.00
1217.377, 22034.00
1218.456, 22085.80
1219.536, 22059.67
1220.615, 22132.00
1221.694, 22065.00
1222.773, 22051.00
1223.852, 22058.00
1224.931, 22440.00
1226.009, 22052.00
1227.088, 22376.00
1228.166, 22130.00
1229.244, 22380.00
1230.322, 22463.00
1231.400, 22354.00
1232.477, 22328.00
1233.555, 22497.00
1234.632, 22607.00
1235.709, 22100.00
1236.786, 22468.00
1237.863, 22388.00
1238.939, 22598.00
1240.016, 22589.00
1241.092, 22489.00
1242.168, 22542.00
1243.245, 22774.00
1244.320, 22697.00
1245.396, 22717.00
1246.472, 22650.00
