##NAMES=Triplite
##RRUFFID=R050226
##IDEAL CHEMISTRY=Mn^2+^_2_(PO_4_)F
##LOCALITY=Fremont County, Colorado, USA
##OWNER=RRUFF
##SOURCE=Marcus Origlieri
##DESCRIPTION=Reddish brown massive
##STATUS=The identification of this mineral has been confirmed by X-ray diffraction and chemical analysis
##URL=rruff.info/R050226
##MEASURED CHEMISTRY=(Mn^2+^_1.20_Mg_0.49_Fe^2+^_0.27_Ca_0.04_)_Σ=2_(P_1.00_O_4_)(F_0.95_(OH)_0.05_)_Σ=1_
##PIN_ID=L00312
##ORIENTATION=Laser parallel to (1 0 1). Fiducial mark perpendicular to laser is parallel to b [0 1 0]
129.2090, 17476.00
130.4390, 17760.00
131.6680, 18045.00
132.8980, 18347.00
134.1270, 18430.00
135.3560, 17958.00
136.5850, 18095.00
137.8140, 17981.00
139.0430, 18195.00
140.2710, 18739.00
141.5000, 18722.36
142.7280, 18854.14
143.9560, 18987.00
145.1840, 18900.00
146.4120, 18781.00
147.6390, 18970.00
148.8670, 19490.00
150.0940, 19074.00
151.3210, 19245.00
152.5490, 19142.06
153.7750, 18759.56
155.0020, 18862.00
156.2290, 17977.00
157.4550, 17853.00
158.6810, 17340.00
159.9080, 16798.00
161.1340, 16487.00
162.3590, 16601.00
163.5850, 16528.00
164.8110, 17154.00
166.0360, 17004.86
167.2610, 17811.00
168.4860, 17048.00
169.7110, 17061.00
170.9360, 17012.00
172.1610, 17101.00
173.3850, 17148.00
174.6100, 16678.00
175.8340, 16426.00
177.0580, 16319.00
178.2820, 16459.00
179.5050, 16494.00
180.7290, 16574.00
181.9520, 16418.00
183.1760, 16213.00
184.3990, 16208.00
185.6220, 16347.00
186.8450, 16626.00
188.0670, 16697.00
189.2900, 16758.00
190.5120, 16797.00
191.7340, 16893.29
192.9560, 16964.65
194.1780, 17102.00
195.4000, 17157.00
196.6220, 17323.00
197.8430, 17455.00
199.0640, 17313.00
200.2860, 17470.00
201.5070, 18007.00
202.7270, 18548.00
203.9480, 18468.00
205.1690, 17893.00
206.3890, 16902.00
207.6090, 16142.00
208.8290, 15755.00
210.0490, 15614.00
211.2690, 15586.00
212.4890, 15773.00
213.7080, 16058.00
214.9280, 16408.00
216.1470, 16104.00
217.3660, 16375.00
218.5850, 15650.00
219.8030, 15670.00
221.0220, 15762.00
222.2400, 15473.00
223.4590, 15687.00
224.6770, 15685.00
225.8950, 15741.00
227.1120, 15503.00
228.3300, 15551.00
229.5480, 15628.00
230.7650, 16089.00
231.9820, 16140.00
233.1990, 16199.00
234.4160, 15519.00
235.6330, 15466.00
236.8490, 15553.00
238.0660, 15508.00
239.2820, 15655.00
240.4980, 15422.00
241.7140, 15538.00
242.9300, 15621.00
244.1460, 15502.00
245.3610, 15585.00
246.5770, 15392.00
247.7920, 15424.00
249.0070, 15524.00
250.2220, 15506.00
251.4370, 15605.00
252.6510, 15689.32
253.8660, 15844.23
255.0800, 15936.91
256.2940, 15970.71
257.5080, 15769.26
258.7220, 15871.58
259.9360, 15852.17
261.1490, 15827.75
262.3630, 15972.82
263.5760, 15805.58
264.7890, 15947.96
266.0020, 15966.74
267.2150, 16042.09
268.4270, 15994.94
269.6400, 15985.63
270.8520, 15935.00
272.0640, 15982.00
273.2760, 15983.00
274.4880, 16027.00
275.7000, 16188.00
276.9120, 16513.00
278.1230, 16575.00
279.3340, 16449.00
280.5450, 16164.00
281.7560, 15920.00
282.9670, 15960.00
284.1780, 15832.00
285.3880, 15892.00
286.5980, 15785.00
287.8090, 15776.00
289.0190, 15961.00
290.2290, 15866.00
291.4380, 15988.00
292.6480, 15962.00
293.8570, 15899.00
295.0670, 15884.00
296.2760, 16010.00
297.4850, 15931.00
298.6930, 15953.00
299.9020, 15983.00
301.1110, 15886.00
302.3190, 15943.00
303.5270, 15839.00
304.7350, 15813.00
305.9430, 15787.00
307.1510, 15734.00
308.3580, 15711.00
309.5660, 15869.00
310.7730, 15889.00
311.9800, 16048.00
313.1870, 15785.00
314.3940, 15872.00
315.6010, 15721.00
316.8070, 15751.00
318.0130, 15785.43
319.2200, 15720.49
320.4260, 15865.00
321.6310, 15720.00
322.8370, 15719.00
324.0430, 15783.00
325.2480, 15678.00
326.4540, 15631.00
327.6590, 15851.00
328.8640, 15663.00
330.0680, 15866.00
331.2730, 15616.00
332.4780, 15871.00
333.6820, 15653.00
334.8860, 15658.00
336.0900, 15670.00
337.2940, 15668.00
338.4980, 15641.00
339.7010, 15801.00
340.9050, 15660.00
342.1080, 15593.00
343.3110, 15811.00
344.5140, 15722.00
345.7170, 15682.00
346.9200, 15608.00
348.1220, 15764.00
349.3240, 15580.00
350.5270, 15750.00
351.7290, 15622.00
352.9310, 15657.00
354.1320, 15715.00
355.3340, 15548.00
356.5350, 15715.00
357.7370, 15625.00
358.9380, 15734.00
360.1390, 15707.00
361.3400, 15606.00
362.5400, 15554.00
363.7410, 15737.00
364.9410, 15748.00
366.1410, 15771.00
367.3410, 15808.38
368.5410, 15783.00
369.7410, 15809.00
370.9400, 15752.00
372.1400, 15802.00
373.3390, 15848.00
374.5380, 15766.00
375.7370, 15947.00
376.9360, 15779.00
378.1350, 15853.00
379.3330, 15843.00
380.5310, 15834.25
381.7300, 15816.00
382.9280, 15910.00
384.1260, 15893.00
385.3230, 15959.00
386.5210, 15890.00
387.7180, 15965.34
388.9160, 15869.00
390.1130, 16076.00
391.3100, 16002.00
392.5060, 16051.21
393.7030, 16136.40
394.9000, 16161.00
396.0960, 16254.00
397.2920, 16130.00
398.4880, 16180.00
399.6840, 16088.00
400.8800, 16320.00
402.0750, 16310.00
403.2710, 16274.00
404.4660, 16352.00
405.6610, 16352.00
406.8560, 16378.00
408.0510, 16321.00
409.2450, 16327.00
410.4400, 16463.00
411.6340, 16303.00
412.8280, 16437.00
414.0220, 16462.00
415.2160, 16226.00
416.4100, 16315.00
417.6030, 16319.00
418.7970, 16269.00
419.9900, 16392.00
421.1830, 16247.00
422.3760, 16315.17
423.5690, 16317.07
424.7610, 16387.00
425.9540, 16380.00
427.1460, 16483.00
428.3380, 16614.00
429.5300, 16553.00
430.7220, 16734.00
431.9140, 16561.00
433.1050, 16559.00
434.2970, 16658.00
435.4880, 16937.00
436.6790, 16802.00
437.8700, 16744.00
439.0610, 16709.00
440.2510, 16692.53
441.4420, 16820.00
442.6320, 16691.00
443.8220, 16826.00
445.0120, 16733.00
446.2020, 16796.00
447.3910, 16795.00
448.5810, 16688.00
449.7700, 16793.00
450.9600, 16885.00
452.1490, 16888.00
453.3370, 16901.00
454.5260, 16876.00
455.7150, 16834.00
456.9030, 16795.00
458.0910, 16845.00
459.2800, 16800.46
460.4670, 16827.04
461.6550, 16814.00
462.8430, 16765.00
464.0300, 16846.00
465.2180, 16609.00
466.4050, 16732.00
467.5920, 16736.00
468.7790, 16563.00
469.9650, 16739.00
471.1520, 16677.00
472.3380, 16856.00
473.5250, 16901.00
474.7110, 16744.00
475.8970, 16735.00
477.0820, 16794.00
478.2680, 16928.00
479.4540, 16891.00
480.6390, 16858.00
481.8240, 16918.00
483.0090, 17061.00
484.1940, 17185.00
485.3780, 17114.00
486.5630, 17088.00
487.7470, 17100.00
488.9320, 17137.00
490.1160, 17206.00
491.3000, 17195.00
492.4830, 17362.00
493.6670, 17291.00
494.8500, 17441.00
496.0340, 17385.00
497.2170, 17525.00
498.4000, 17534.00
499.5820, 17382.00
500.7650, 17505.00
501.9480, 17495.00
503.1300, 17545.00
504.3120, 17620.00
505.4940, 17665.00
506.6760, 17696.00
507.8580, 17795.00
509.0390, 17791.00
510.2210, 17682.00
511.4020, 17558.00
512.5830, 17636.00
513.7640, 17647.00
514.9450, 17795.00
516.1250, 17932.00
517.3060, 17623.00
518.4860, 17703.00
519.6660, 17570.00
520.8460, 17704.00
522.0260, 17605.00
523.2060, 17497.00
524.3850, 17672.00
525.5650, 17692.00
526.7440, 17486.00
527.9230, 17806.00
529.1020, 17533.00
530.2810, 17537.00
531.4590, 17612.00
532.6380, 17565.00
533.8160, 17621.00
534.9940, 17636.00
536.1720, 17609.00
537.3500, 17661.00
538.5270, 17436.00
539.7050, 17751.00
540.8820, 17776.00
542.0590, 17853.00
543.2360, 17655.00
544.4130, 17750.00
545.5900, 17691.00
546.7660, 17789.00
547.9430, 17811.00
549.1190, 17779.00
550.2950, 17854.00
551.4710, 17852.00
552.6470, 17837.00
553.8220, 17794.00
554.9980, 17880.00
556.1730, 17896.37
557.3480, 17928.67
558.5230, 18017.00
559.6980, 18010.00
560.8730, 18056.00
562.0470, 18088.00
563.2220, 18192.00
564.3960, 18202.84
565.5700, 18244.19
566.7440, 18277.00
567.9170, 18322.00
569.0910, 18390.00
570.2640, 18501.00
571.4380, 18505.00
572.6110, 18744.00
573.7840, 18629.57
574.9570, 18653.00
576.1290, 18522.00
577.3020, 18498.00
578.4740, 18553.00
579.6460, 18608.00
580.8180, 18656.00
581.9900, 18502.00
583.1620, 18546.00
584.3330, 18754.00
585.5040, 18620.00
586.6760, 18777.00
587.8470, 18656.00
589.0180, 18905.00
590.1880, 18979.00
591.3590, 18751.00
592.5290, 18850.00
593.7000, 19128.00
594.8700, 19185.00
596.0400, 19489.00
597.2090, 19372.00
598.3790, 19577.00
599.5490, 19756.00
600.7180, 19727.00
601.8870, 19918.00
603.0560, 19997.00
604.2250, 20322.00
605.3940, 20310.00
606.5620, 20520.00
607.7300, 20330.00
608.8990, 20635.00
610.0670, 20777.00
611.2350, 20878.00
612.4020, 21221.00
613.5700, 21116.00
614.7370, 21232.00
615.9050, 21431.00
617.0720, 21161.00
618.2390, 21294.00
619.4060, 20956.00
620.5720, 20896.00
621.7390, 20859.00
622.9050, 20523.00
624.0710, 20472.00
625.2370, 20321.00
626.4030, 20551.00
627.5690, 20370.00
628.7340, 20350.50
629.9000, 20224.00
631.0650, 20233.00
632.2300, 20135.00
633.3950, 20149.00
634.5600, 19978.00
635.7240, 20189.00
636.8890, 20158.00
638.0530, 20307.00
639.2170, 20215.00
640.3810, 20148.00
641.5450, 20239.00
642.7080, 20180.00
643.8720, 20200.00
645.0350, 20017.00
646.1980, 20150.00
647.3610, 20140.00
648.5240, 20161.00
649.6870, 20255.00
650.8490, 20302.00
652.0120, 20032.00
653.1740, 19916.00
654.3360, 19986.00
655.4980, 19900.00
656.6600, 19876.00
657.8210, 19854.11
658.9830, 19886.00
660.1440, 19769.00
661.3050, 19778.00
662.4660, 19741.00
663.6270, 19620.00
664.7870, 19784.00
665.9480, 19507.00
667.1080, 19582.00
668.2680, 19437.00
669.4280, 19416.00
670.5880, 19444.00
671.7480, 19177.00
672.9070, 19218.00
674.0670, 19227.00
675.2260, 19225.00
676.3850, 19189.00
677.5440, 19111.00
678.7030, 18934.00
679.8610, 18864.00
681.0200, 18966.00
682.1780, 18842.00
683.3360, 18867.00
684.4940, 18817.00
685.6520, 18909.00
686.8090, 18972.00
687.9670, 18798.00
689.1240, 18704.00
690.2810, 18750.00
691.4380, 18715.00
692.5950, 18545.00
693.7520, 18782.00
694.9080, 18624.00
696.0650, 18634.00
697.2210, 18713.00
698.3770, 18495.00
699.5330, 18497.00
700.6880, 18712.00
701.8440, 18411.00
702.9990, 18535.00
704.1550, 18560.00
705.3100, 18524.00
706.4650, 18510.00
707.6190, 18507.00
708.7740, 18509.41
709.9290, 18538.39
711.0830, 18584.00
712.2370, 18613.00
713.3910, 18743.00
714.5450, 18782.00
715.6980, 18561.00
716.8520, 18619.00
718.0050, 18684.00
719.1580, 18589.00
720.3110, 18640.00
721.4640, 18588.87
722.6170, 18492.00
723.7700, 18482.00
724.9220, 18438.00
726.0740, 18348.00
727.2260, 18406.00
728.3780, 18395.00
729.5300, 18509.00
730.6810, 18433.00
731.8330, 18530.00
732.9840, 18707.00
734.1350, 18389.00
735.2860, 18454.00
736.4370, 18613.00
737.5880, 18423.00
738.7380, 18547.00
739.8880, 18615.00
741.0390, 18538.00
742.1890, 18516.00
743.3380, 18678.00
744.4880, 18612.00
745.6380, 18749.00
746.7870, 18667.00
747.9360, 18821.00
749.0850, 18910.00
750.2340, 18904.00
751.3830, 18838.00
752.5310, 18854.00
753.6800, 18779.00
754.8280, 18753.00
755.9760, 18855.00
757.1240, 18951.00
758.2720, 18844.00
759.4190, 19114.00
760.5670, 19074.77
761.7140, 19046.60
762.8610, 19185.00
764.0080, 18945.00
765.1550, 19036.00
766.3020, 19014.00
767.4480, 19059.00
768.5950, 19077.78
769.7410, 19182.00
770.8870, 19110.00
772.0330, 19137.00
773.1780, 19176.00
774.3240, 19027.00
775.4690, 19119.22
776.6140, 19300.00
777.7590, 19247.00
778.9040, 19239.00
780.0490, 19430.00
781.1940, 19273.00
782.3380, 19410.00
783.4820, 19278.00
784.6260, 19627.00
785.7700, 19549.17
786.9140, 19538.53
788.0580, 19625.00
789.2010, 19442.00
790.3450, 19551.00
791.4880, 19540.00
792.6310, 19502.64
793.7730, 19644.66
794.9160, 19724.44
796.0590, 19745.35
797.2010, 19531.01
798.3430, 19620.43
799.4850, 19588.12
800.6270, 19550.82
801.7690, 19683.00
802.9100, 19502.88
804.0520, 19632.37
805.1930, 19638.27
806.3340, 19700.74
807.4750, 19640.71
808.6160, 19618.52
809.7560, 19718.86
810.8970, 19756.00
812.0370, 19754.00
813.1770, 19633.00
814.3170, 19722.00
815.4570, 19821.00
816.5960, 19668.00
817.7360, 19630.00
818.8750, 19725.00
820.0140, 19783.00
821.1530, 19775.15
822.2920, 19802.00
823.4310, 19796.00
824.5690, 19733.00
825.7070, 19740.00
826.8460, 19853.00
827.9840, 19745.00
829.1220, 19857.00
830.2590, 19610.00
831.3970, 19847.00
832.5340, 19670.00
833.6710, 19764.00
834.8080, 19609.00
835.9450, 19640.00
837.0820, 19853.00
838.2190, 19733.00
839.3550, 19894.00
840.4910, 19971.00
841.6270, 19824.00
842.7630, 19813.00
843.8990, 19766.00
845.0350, 19917.00
846.1700, 19771.00
847.3060, 19966.00
848.4410, 20085.00
849.5760, 20111.00
850.7100, 19901.00
851.8450, 19816.00
852.9800, 19941.00
854.1140, 19993.00
855.2480, 19808.00
856.3820, 20202.00
857.5160, 20113.00
858.6500, 20047.00
859.7830, 20131.00
860.9170, 20176.00
862.0500, 20235.00
863.1830, 20297.00
864.3160, 20319.34
865.4480, 20307.70
866.5810, 20335.00
867.7130, 20290.00
868.8460, 20225.00
869.9780, 20324.00
871.1100, 20416.00
872.2410, 20215.00
873.3730, 20427.00
874.5050, 20267.00
875.6360, 20507.00
876.7670, 20316.00
877.8980, 20517.00
879.0290, 20430.00
880.1590, 20443.00
881.2900, 20641.00
882.4200, 20668.00
883.5500, 20669.00
884.6800, 20701.00
885.8100, 20602.00
886.9400, 20738.00
888.0690, 20603.00
889.1990, 20655.28
890.3280, 20838.00
891.4570, 20695.00
892.5860, 20805.00
893.7140, 20833.00
894.8430, 20928.00
895.9710, 20975.55
897.1000, 20900.00
898.2280, 21073.00
899.3560, 21061.00
900.4830, 21110.00
901.6110, 21235.00
902.7380, 20882.00
903.8660, 21163.00
904.9930, 21410.00
906.1200, 21510.00
907.2460, 21218.00
908.3730, 21248.00
909.5000, 21465.00
910.6260, 21388.00
911.7520, 21585.00
912.8780, 21476.00
914.0040, 21479.00
915.1290, 21563.00
916.2550, 21486.00
917.3800, 21592.00
918.5050, 21672.00
919.6300, 21628.00
920.7550, 21677.00
921.8800, 21645.00
923.0040, 21668.00
924.1290, 21850.00
925.2530, 21706.00
926.3770, 21743.00
927.5010, 21843.00
928.6250, 22040.00
929.7480, 22004.00
930.8720, 21954.00
931.9950, 22033.00
933.1180, 21962.00
934.2410, 22190.00
935.3640, 22214.00
936.4860, 22290.45
937.6090, 22392.00
938.7310, 22519.00
939.8530, 22259.00
940.9750, 22485.00
942.0970, 22481.00
943.2180, 22472.00
944.3400, 22612.00
945.4610, 22733.00
946.5820, 22760.00
947.7030, 22862.00
948.8240, 23019.00
949.9450, 23056.00
951.0650, 23205.40
952.1860, 23276.00
953.3060, 23438.00
954.4260, 23439.00
955.5460, 23519.00
956.6650, 23640.00
957.7850, 23986.00
958.9040, 23938.00
960.0230, 24443.00
961.1420, 24618.00
962.2610, 24644.00
963.3800, 24855.00
964.4990, 25083.00
965.6170, 25518.00
966.7350, 26310.00
967.8530, 26735.00
968.9710, 27033.00
970.0890, 27748.00
971.2070, 28985.00
972.3240, 29785.00
973.4410, 30937.00
974.5580, 31978.00
975.6750, 33564.00
976.7920, 35433.00
977.9090, 37554.00
979.0250, 39911.00
980.1410, 42307.00
981.2580, 44714.00
982.3740, 47327.00
983.4890, 49653.00
984.6050, 51715.00
985.7200, 51278.00
986.8360, 50678.46
987.9510, 48851.00
989.0660, 46200.00
990.1810, 43417.00
991.2950, 39865.00
992.4100, 36830.00
993.5240, 34489.00
994.6390, 32236.00
995.7530, 31000.00
996.8660, 29749.00
997.9800, 28835.00
999.0940, 28359.00
1000.207, 27739.00
1001.320, 27450.00
1002.433, 27274.00
1003.546, 26830.00
1004.659, 26701.00
1005.772, 26603.00
1006.884, 26469.00
1007.996, 26746.00
1009.108, 26484.00
1010.220, 26496.00
1011.332, 26333.00
1012.444, 26200.00
1013.555, 26056.00
1014.666, 26040.00
1015.777, 26208.00
1016.888, 26243.00
1017.999, 26233.00
1019.110, 26144.00
1020.220, 26269.00
1021.331, 26174.00
1022.441, 26143.00
1023.551, 26053.00
1024.661, 26228.00
1025.770, 26215.00
1026.880, 26308.00
1027.989, 26327.00
1029.098, 26305.00
1030.207, 26501.00
1031.316, 26497.00
1032.425, 26526.00
1033.533, 26612.67
1034.642, 26696.00
1035.750, 26746.00
1036.858, 26920.00
1037.966, 27096.00
1039.073, 26978.00
1040.181, 27378.00
1041.288, 27489.00
1042.396, 27456.00
1043.503, 27453.00
1044.610, 27563.00
1045.716, 27790.00
1046.823, 27635.00
1047.929, 27607.00
1049.036, 27440.00
1050.142, 27538.00
1051.248, 27738.00
1052.353, 27575.00
1053.459, 27641.00
1054.564, 27468.00
1055.670, 27499.00
1056.775, 27512.00
1057.880, 27428.00
1058.985, 27543.00
1060.089, 27577.00
1061.194, 27429.00
1062.298, 27673.00
1063.402, 27581.00
1064.506, 27770.00
1065.610, 27703.00
1066.713, 28142.00
1067.817, 28307.00
1068.920, 28740.00
1070.023, 28924.00
1071.126, 29201.00
1072.229, 29352.00
1073.332, 29787.00
1074.435, 30083.00
1075.537, 30299.00
1076.639, 30362.09
1077.741, 30182.00
1078.843, 30200.00
1079.945, 30121.00
1081.046, 29871.00
1082.148, 29775.87
1083.249, 29670.91
1084.350, 29503.76
1085.451, 29277.69
1086.551, 28816.62
1087.652, 28659.11
1088.752, 28380.07
1089.853, 28095.80
1090.953, 27981.25
1092.053, 27554.40
1093.152, 27359.00
1094.252, 27186.00
1095.351, 26907.00
1096.451, 26876.00
1097.550, 26667.26
1098.649, 26723.00
1099.748, 26493.00
1100.846, 26577.00
1101.945, 26750.00
1103.043, 26456.00
1104.141, 26557.00
1105.239, 26658.00
1106.337, 26465.00
1107.434, 26327.00
1108.532, 26355.00
1109.629, 26277.00
1110.726, 26383.00
1111.823, 26313.00
1112.920, 26457.00
1114.017, 26245.00
1115.113, 26320.00
1116.210, 26373.00
1117.306, 26728.00
1118.402, 26488.00
1119.498, 26579.00
1120.593, 26619.00
1121.689, 26531.00
1122.784, 26745.00
1123.879, 26650.00
1124.974, 26754.00
1126.069, 26547.00
1127.164, 26769.00
1128.259, 26426.00
1129.353, 26620.00
1130.447, 26627.00
1131.541, 26301.00
1132.635, 26383.00
1133.729, 26369.00
1134.822, 26253.76
1135.916, 26471.00
1137.009, 26189.00
1138.102, 26149.00
1139.195, 26148.00
1140.288, 25948.00
1141.380, 25975.00
1142.473, 26005.00
1143.565, 25849.00
1144.657, 25856.00
1145.749, 25662.00
1146.841, 25670.00
1147.932, 25690.00
1149.024, 25626.08
1150.115, 25713.00
1151.206, 25714.00
1152.297, 25775.69
1153.388, 25786.40
1154.479, 25768.13
1155.569, 25778.00
1156.659, 25724.00
1157.750, 25672.00
1158.839, 25669.00
1159.929, 25624.00
1161.019, 25523.00
1162.108, 25584.00
1163.198, 25788.00
1164.287, 25766.00
1165.376, 25677.00
1166.465, 25702.00
1167.553, 25526.00
1168.642, 25577.00
1169.730, 25672.00
1170.818, 25494.00
1171.906, 25767.00
1172.994, 25835.00
1174.082, 25652.00
1175.170, 25668.00
1176.257, 25683.00
1177.344, 25771.00
1178.431, 25752.00
1179.518, 25750.00
1180.605, 25764.00
1181.691, 25767.31
1182.778, 25784.00
1183.864, 25812.00
1184.950, 25788.00
1186.036, 25836.00
1187.122, 25842.00
1188.207, 25678.00
1189.292, 25604.00
1190.378, 25713.00
1191.463, 25890.00
1192.548, 25814.00
1193.632, 25847.00
1194.717, 25919.00
1195.801, 25985.00
1196.886, 26020.00
1197.970, 25995.00
1199.054, 25978.00
1200.137, 25873.00
1201.221, 26119.00
1202.305, 26219.00
1203.388, 26178.00
1204.471, 26013.00
1205.554, 26144.00
1206.637, 26167.00
1207.719, 26041.00
1208.802, 26067.00
1209.884, 26052.00
1210.966, 26139.00
1212.048, 26136.00
1213.130, 26099.00
1214.212, 26302.00
1215.293, 26376.00
1216.374, 26378.53
1217.456, 26048.00
1218.536, 26444.00
1219.617, 26246.00
1220.698, 26361.00
1221.778, 26377.00
1222.859, 26458.00
1223.939, 26488.31
1225.019, 26463.00
1226.099, 26497.00
1227.178, 26465.00
1228.258, 26384.00
1229.337, 26514.00
1230.417, 26569.00
1231.496, 26596.00
1232.574, 26737.00
1233.653, 26492.00
1234.732, 26684.00
1235.810, 26675.00
1236.888, 26482.00
1237.966, 26674.00
1239.044, 26690.00
1240.122, 26602.00
1241.199, 27060.00
1242.277, 26742.00
1243.354, 26822.00
1244.431, 26754.00
1245.508, 27012.00
1246.585, 27045.00
1247.661, 27012.00
1248.738, 26967.00
1249.814, 26928.00
1250.890, 26930.84
1251.966, 26939.85
1253.042, 26948.00
1254.117, 27029.00
1255.193, 27050.00
1256.268, 27145.00
1257.343, 27152.00
1258.418, 27132.00
1259.493, 27306.00
1260.567, 27383.00
1261.642, 27372.00
1262.716, 27150.00
1263.790, 27417.00
1264.864, 27266.00
1265.938, 27307.00
1267.011, 27384.00
1268.085, 27352.00
1269.158, 27494.00
1270.231, 27512.00
1271.304, 27695.00
1272.377, 27632.00
1273.450, 27782.00
1274.522, 27686.00
1275.594, 27748.00
1276.666, 27460.00
1277.738, 27881.00
1278.810, 27699.00
1279.882, 27642.00
1280.953, 27883.00
1282.025, 27719.00
1283.096, 27967.00
1284.167, 27938.00
1285.238, 27703.00
1286.308, 28063.00
1287.379, 27822.00
1288.449, 27953.00
1289.519, 27974.00
1290.589, 27786.00
1291.659, 28022.00
1292.729, 28102.00
1293.798, 28028.00
1294.868, 28105.00
1295.937, 28201.00
1297.006, 28158.00
1298.075, 28299.00
1299.143, 28331.00
1300.212, 28546.00
1301.280, 28375.00
1302.348, 28433.00
1303.416, 28636.00
1304.484, 28449.00
1305.552, 28668.00
