##NAMES=Triplite
##RRUFFID=R050226
##IDEAL CHEMISTRY=Mn^2+^_2_(PO_4_)F
##LOCALITY=Fremont County, Colorado, USA
##OWNER=RRUFF
##SOURCE=Marcus Origlieri
##DESCRIPTION=Reddish brown massive
##STATUS=The identification of this mineral has been confirmed by X-ray diffraction and chemical analysis
##URL=rruff.info/R050226
##MEASURED CHEMISTRY=(Mn^2+^_1.20_Mg_0.49_Fe^2+^_0.27_Ca_0.04_)_Σ=2_(P_1.00_O_4_)(F_0.95_(OH)_0.05_)_Σ=1_
##PIN_ID=L00502
##ORIENTATION=Laser parallel to b* (0 1 0). Fiducial mark perpendicular to laser is parallel to c [0 0 1]
64.81000, 8437.000
66.04600, 8788.000
67.28200, 9534.000
68.51800, 10316.00
69.75400, 11412.00
70.98900, 12126.00
72.22500, 13143.00
73.46000, 13996.00
74.69500, 15117.00
75.93000, 15962.00
77.16500, 16781.00
78.40000, 17741.00
79.63400, 18203.00
80.86900, 18421.00
82.10300, 19888.00
83.33700, 19668.00
84.57100, 20372.00
85.80500, 20772.00
87.03800, 20546.00
88.27200, 20164.00
89.50500, 20129.00
90.73800, 20394.00
91.97100, 21290.00
93.20400, 21770.00
94.43700, 21681.96
95.67000, 22020.00
96.90200, 21321.00
98.13400, 20981.00
99.36600, 20681.00
100.5980, 20336.00
101.8300, 20345.00
103.0620, 20062.00
104.2930, 19645.00
105.5250, 19617.00
106.7560, 19955.00
107.9870, 20325.00
109.2180, 20607.00
110.4490, 20732.00
111.6790, 20044.00
112.9100, 19945.00
114.1400, 19933.00
115.3700, 20107.00
116.6000, 20234.00
117.8300, 20469.05
119.0600, 20657.71
120.2900, 21067.00
121.5190, 20957.00
122.7480, 21272.00
123.9770, 21125.00
125.2060, 20895.00
126.4350, 20670.00
127.6640, 20135.00
128.8920, 19712.00
130.1210, 19787.00
131.3490, 19577.00
132.5770, 19693.00
133.8050, 19627.00
135.0330, 19540.00
136.2600, 19489.00
137.4880, 19461.00
138.7150, 19457.00
139.9420, 19752.00
141.1690, 19856.00
142.3960, 20022.00
143.6230, 19694.00
144.8490, 19817.00
146.0760, 19753.00
147.3020, 19845.00
148.5280, 19926.00
149.7540, 19852.00
150.9800, 20014.00
152.2050, 19742.00
153.4310, 19973.00
154.6560, 19909.00
155.8810, 20047.00
157.1060, 19910.73
158.3310, 20049.00
159.5560, 19630.00
160.7800, 19612.00
162.0050, 19607.00
163.2290, 19548.00
164.4530, 19265.00
165.6770, 19353.00
166.9010, 19107.00
168.1250, 18987.00
169.3480, 18924.00
170.5720, 18826.00
171.7950, 18975.00
173.0180, 18807.00
174.2410, 18711.00
175.4640, 18694.00
176.6860, 18364.00
177.9090, 18444.00
179.1310, 18384.00
180.3530, 18577.00
181.5750, 18244.00
182.7970, 18190.00
184.0190, 18188.00
185.2400, 18275.00
186.4620, 18048.00
187.6830, 18178.00
188.9040, 18126.00
190.1250, 18180.00
191.3460, 18166.00
192.5660, 18181.00
193.7870, 18061.00
195.0070, 18126.00
196.2270, 18062.77
197.4470, 17935.00
198.6670, 18002.00
199.8870, 18017.00
201.1060, 18000.00
202.3260, 18085.00
203.5450, 18044.00
204.7640, 17994.00
205.9830, 17980.00
207.2020, 17858.00
208.4200, 17812.00
209.6390, 17707.00
210.8570, 17890.00
212.0750, 18055.00
213.2940, 17808.00
214.5110, 18009.00
215.7290, 18077.00
216.9470, 18066.00
218.1640, 18230.00
219.3810, 18237.00
220.5990, 18263.00
221.8150, 18273.00
223.0320, 18255.00
224.2490, 18305.00
225.4650, 18297.00
226.6820, 18120.00
227.8980, 18061.00
229.1140, 18289.00
230.3300, 18009.00
231.5460, 18047.00
232.7610, 17762.00
233.9770, 17652.00
235.1920, 17964.00
236.4070, 18100.00
237.6220, 17812.00
238.8370, 17828.00
240.0520, 17740.00
241.2660, 17781.00
242.4810, 17819.00
243.6950, 18013.00
244.9090, 18071.00
246.1230, 18090.00
247.3370, 18068.00
248.5500, 18127.00
249.7640, 18088.85
250.9770, 18119.00
252.1900, 18043.00
253.4030, 18005.00
254.6160, 17985.00
255.8290, 17789.00
257.0410, 17807.00
258.2530, 17692.00
259.4660, 17757.00
260.6780, 17798.00
261.8900, 17641.00
263.1010, 17666.00
264.3130, 17857.00
265.5250, 17877.00
266.7360, 17645.00
267.9470, 17884.00
269.1580, 17968.00
270.3690, 17687.00
271.5800, 18058.00
272.7900, 17947.00
274.0010, 17839.00
275.2110, 17900.00
276.4210, 17930.00
277.6310, 17998.00
278.8410, 18124.00
280.0500, 18008.00
281.2600, 18251.00
282.4690, 18241.00
283.6780, 18627.00
284.8870, 18613.00
286.0960, 18807.00
287.3050, 18994.00
288.5130, 18961.00
289.7220, 19105.00
290.9300, 19226.00
292.1380, 19189.00
293.3460, 19235.00
294.5540, 19553.00
295.7610, 19478.00
296.9690, 19486.00
298.1760, 19406.00
299.3830, 19586.00
300.5900, 19239.00
301.7970, 19247.00
303.0040, 19004.00
304.2100, 19174.00
305.4170, 18853.00
306.6230, 18833.00
307.8290, 18463.00
309.0350, 18371.00
310.2410, 18204.00
311.4460, 18147.00
312.6520, 18232.00
313.8570, 17917.00
315.0620, 17879.00
316.2670, 18076.00
317.4720, 18041.00
318.6770, 17961.00
319.8810, 17861.00
321.0860, 17538.00
322.2900, 17588.00
323.4940, 17552.00
324.6980, 17714.00
325.9020, 17690.00
327.1050, 17432.00
328.3090, 17594.00
329.5120, 17513.00
330.7150, 17405.00
331.9180, 17456.00
333.1210, 17430.00
334.3240, 17415.05
335.5260, 17395.00
336.7290, 17339.00
337.9310, 17507.00
339.1330, 17315.00
340.3350, 17473.00
341.5370, 17048.00
342.7380, 17230.00
343.9400, 17367.00
345.1410, 17110.00
346.3420, 17295.00
347.5430, 17257.00
348.7440, 17339.00
349.9450, 17458.00
351.1450, 17236.00
352.3460, 17387.00
353.5460, 17387.00
354.7460, 17500.00
355.9460, 17450.00
357.1460, 17443.00
358.3450, 17593.00
359.5450, 17534.00
360.7440, 17507.27
361.9430, 17235.00
363.1420, 17388.00
364.3410, 17263.00
365.5400, 17261.00
366.7380, 17304.00
367.9370, 17294.00
369.1350, 17344.00
370.3330, 17276.00
371.5310, 17469.00
372.7280, 17501.00
373.9260, 17661.00
375.1230, 17685.00
376.3210, 17765.00
377.5180, 17858.00
378.7150, 17952.00
379.9120, 18078.00
381.1080, 18210.00
382.3050, 18437.00
383.5010, 18480.00
384.6970, 18800.00
385.8930, 18771.00
387.0890, 19034.00
388.2850, 18923.00
389.4810, 19079.00
390.6760, 18941.00
391.8710, 18665.00
393.0660, 18738.00
394.2610, 18665.00
395.4560, 18849.00
396.6510, 18980.00
397.8450, 18913.00
399.0400, 18866.00
400.2340, 18829.00
401.4280, 18858.00
402.6220, 19055.00
403.8150, 19184.00
405.0090, 19074.00
406.2020, 19448.00
407.3960, 19251.00
408.5890, 19462.00
409.7820, 19416.00
410.9740, 19508.00
412.1670, 19795.00
413.3600, 19823.00
414.5520, 19838.00
415.7440, 20049.00
416.9360, 20422.00
418.1280, 20624.00
419.3200, 20885.00
420.5110, 20996.00
421.7020, 21319.00
422.8940, 21724.00
424.0850, 21929.00
425.2760, 22358.00
426.4660, 22465.00
427.6570, 22618.00
428.8470, 22772.00
430.0380, 22530.00
431.2280, 22700.00
432.4180, 22393.00
433.6080, 22293.00
434.7970, 22138.00
435.9870, 21828.00
437.1760, 21524.00
438.3650, 21309.00
439.5540, 20919.00
440.7430, 20621.83
441.9320, 20324.00
443.1210, 20032.00
444.3090, 19636.00
445.4970, 19541.00
446.6850, 19289.00
447.8730, 19180.00
449.0610, 19043.00
450.2490, 19055.00
451.4360, 19089.00
452.6240, 19010.76
453.8110, 19142.00
454.9980, 18905.00
456.1850, 19015.00
457.3710, 18884.00
458.5580, 18963.00
459.7440, 18733.00
460.9310, 18803.00
462.1170, 18623.00
463.3030, 18664.00
464.4880, 18531.00
465.6740, 18413.00
466.8590, 18524.00
468.0450, 18465.00
469.2300, 18362.00
470.4150, 18181.00
471.6000, 18265.00
472.7840, 18222.00
473.9690, 18244.00
475.1530, 18091.00
476.3370, 18071.00
477.5210, 18144.00
478.7050, 18060.00
479.8890, 18110.00
481.0730, 18190.00
482.2560, 18052.00
483.4390, 18090.00
484.6220, 18206.00
485.8050, 18096.00
486.9880, 18219.00
488.1710, 18183.00
489.3530, 18276.00
490.5360, 18187.00
491.7180, 18385.00
492.9000, 18253.00
494.0820, 18323.00
495.2630, 18423.00
496.4450, 18514.00
497.6260, 18473.00
498.8080, 18520.00
499.9890, 18524.08
501.1700, 18519.00
502.3500, 18493.05
503.5310, 18549.97
504.7110, 18480.00
505.8920, 18727.00
507.0720, 18578.00
508.2520, 18688.00
509.4320, 18676.00
510.6110, 18726.73
511.7910, 18788.00
512.9700, 18829.00
514.1490, 18859.00
515.3280, 18938.88
516.5070, 19000.00
517.6860, 19072.00
518.8650, 19173.00
520.0430, 19210.00
521.2210, 19376.00
522.3990, 19469.00
523.5770, 19453.00
524.7550, 19725.00
525.9330, 19670.00
527.1100, 19751.00
528.2870, 20002.00
529.4650, 19972.00
530.6420, 20159.00
531.8180, 20003.00
532.9950, 20049.00
534.1720, 20016.00
535.3480, 19807.00
536.5240, 20101.00
537.7000, 19952.00
538.8760, 20138.00
540.0520, 20117.00
541.2270, 20342.00
542.4030, 20242.00
543.5780, 20436.39
544.7530, 20726.34
545.9280, 20938.56
547.1030, 21077.25
548.2780, 20922.13
549.4520, 21146.30
550.6260, 21218.43
551.8010, 21284.43
552.9750, 21905.00
554.1480, 21918.00
555.3220, 21984.00
556.4960, 22176.00
557.6690, 22368.00
558.8420, 22329.00
560.0150, 22073.00
561.1880, 22043.00
562.3610, 22086.00
563.5340, 22018.00
564.7060, 22002.00
565.8780, 22051.00
567.0500, 21814.00
568.2220, 21959.00
569.3940, 21991.00
570.5660, 21931.67
571.7370, 22156.00
572.9090, 21967.00
574.0800, 22241.00
575.2510, 22356.00
576.4220, 22262.00
577.5920, 22270.00
578.7630, 22377.00
579.9330, 22308.00
581.1040, 22355.00
582.2740, 22538.00
583.4440, 22586.00
584.6130, 22730.00
585.7830, 22678.00
586.9520, 22799.00
588.1220, 22961.00
589.2910, 23261.00
590.4600, 23565.00
591.6290, 23911.00
592.7970, 24276.00
593.9660, 24729.00
595.1340, 25228.00
596.3020, 26065.00
597.4700, 26477.00
598.6380, 27078.00
599.8060, 27685.00
600.9730, 28214.00
602.1410, 28569.00
603.3080, 28966.00
604.4750, 29056.00
605.6420, 29397.00
606.8090, 29246.00
607.9750, 29095.00
609.1420, 29056.00
610.3080, 28674.00
611.4740, 28275.00
612.6400, 28124.00
613.8060, 27870.00
614.9720, 27706.46
616.1370, 27542.00
617.3020, 27481.00
618.4680, 27434.00
619.6330, 27361.00
620.7970, 27359.00
621.9620, 27010.00
623.1270, 26854.00
624.2910, 26755.00
625.4550, 26611.00
626.6190, 26465.00
627.7830, 26362.19
628.9470, 26259.00
630.1110, 26177.00
631.2740, 26014.00
632.4370, 26006.00
633.6000, 25823.00
634.7630, 25707.00
635.9260, 25665.33
637.0890, 25801.84
638.2510, 25874.27
639.4140, 25886.76
640.5760, 25619.07
641.7380, 25744.37
642.9000, 25731.24
644.0610, 25725.43
645.2230, 25944.94
646.3840, 25787.93
647.5460, 26031.28
648.7070, 26096.00
649.8670, 26109.73
651.0280, 26431.00
652.1890, 26269.00
653.3490, 26347.00
654.5090, 26443.00
655.6700, 26305.00
656.8300, 26352.00
657.9890, 26424.00
659.1490, 26308.00
660.3080, 26335.00
661.4680, 26414.00
662.6270, 26196.00
663.7860, 26559.00
664.9450, 26316.00
666.1030, 26436.00
667.2620, 26736.00
668.4200, 26630.00
669.5790, 26904.00
670.7370, 26742.00
671.8940, 27008.00
673.0520, 27162.00
674.2100, 27312.00
675.3670, 27497.00
676.5240, 27882.00
677.6810, 27989.00
678.8380, 28398.00
679.9950, 28397.00
681.1520, 28698.00
682.3080, 28793.00
683.4650, 29424.00
684.6210, 29488.00
685.7770, 29716.00
686.9320, 29882.00
688.0880, 29968.06
689.2440, 30092.05
690.3990, 30147.00
691.5540, 30222.00
692.7090, 30265.00
693.8640, 30313.00
695.0190, 30184.00
696.1730, 30302.00
697.3280, 30113.00
698.4820, 29833.00
699.6360, 29800.00
700.7900, 29397.00
701.9440, 29032.00
703.0970, 28833.00
704.2510, 28511.00
705.4040, 28126.00
706.5570, 27754.00
707.7100, 27406.00
708.8630, 27047.00
710.0150, 27026.00
711.1680, 26571.00
712.3200, 26360.00
713.4720, 25979.00
714.6240, 25853.00
715.7760, 25386.00
716.9280, 25142.56
718.0790, 24808.00
719.2310, 24562.00
720.3820, 24119.00
721.5330, 23856.00
722.6840, 23529.00
723.8350, 23288.19
724.9850, 23192.28
726.1360, 23036.61
727.2860, 22825.81
728.4360, 22339.39
729.5860, 22250.55
730.7360, 22027.85
731.8850, 21817.25
733.0350, 21836.35
734.1840, 21483.68
735.3330, 21535.87
736.4820, 21451.85
737.6310, 21456.63
738.7800, 21326.59
739.9280, 21151.58
741.0760, 21113.42
742.2250, 21051.00
743.3730, 21059.00
744.5200, 20986.00
745.6680, 20877.00
746.8160, 20790.00
747.9630, 20866.00
749.1100, 20711.00
750.2570, 20790.00
751.4040, 20929.00
752.5510, 20808.00
753.6980, 20899.00
754.8440, 20799.00
755.9900, 20753.00
757.1360, 20814.00
758.2820, 20929.00
759.4280, 20891.00
760.5740, 20842.00
761.7190, 20899.69
762.8640, 20888.78
764.0100, 20923.00
765.1550, 20992.00
766.2990, 20995.00
767.4440, 21138.00
768.5890, 21137.00
769.7330, 21049.00
770.8770, 21162.00
772.0210, 21271.00
773.1650, 21230.00
774.3090, 21301.00
775.4520, 21324.90
776.5960, 21346.00
777.7390, 21357.00
778.8820, 21382.00
780.0250, 21366.00
781.1670, 21688.00
782.3100, 21541.00
783.4520, 21743.00
784.5950, 21754.00
785.7370, 21789.00
786.8790, 21901.21
788.0210, 21815.00
789.1620, 22056.00
790.3040, 22079.00
791.4450, 22183.00
792.5860, 22151.00
793.7270, 22143.00
794.8680, 22224.00
796.0090, 22269.00
797.1490, 22292.00
798.2890, 22510.00
799.4300, 22612.00
800.5700, 22419.00
801.7090, 22292.00
802.8490, 22350.00
803.9890, 22303.00
805.1280, 22610.00
806.2670, 22454.00
807.4060, 22621.00
808.5450, 22720.00
809.6840, 22631.00
810.8230, 22742.00
811.9610, 22494.00
813.0990, 22658.00
814.2370, 22550.00
815.3750, 22758.00
816.5130, 22675.00
817.6510, 22568.00
818.7880, 22517.00
819.9250, 22354.00
821.0630, 22406.00
822.1990, 22282.00
823.3360, 22518.00
824.4730, 22287.00
825.6090, 22289.00
826.7460, 22337.00
827.8820, 22098.00
829.0180, 22167.00
830.1540, 22306.00
831.2890, 22182.99
832.4250, 22547.00
833.5600, 22168.00
834.6960, 21881.00
835.8310, 21899.00
836.9660, 21955.00
838.1000, 22040.00
839.2350, 21905.00
840.3690, 21776.00
841.5030, 21801.00
842.6380, 21751.00
843.7710, 21821.00
844.9050, 21930.00
846.0390, 21719.00
847.1720, 21771.00
848.3060, 21773.00
849.4390, 21911.00
850.5720, 21761.00
851.7040, 21953.00
852.8370, 22006.00
853.9700, 21899.00
855.1020, 21956.00
856.2340, 21974.00
857.3660, 22044.00
858.4980, 21992.00
859.6300, 21977.00
860.7610, 22099.00
861.8920, 22134.00
863.0240, 22085.00
864.1550, 22171.61
865.2850, 22201.00
866.4160, 22181.00
867.5470, 22117.00
868.6770, 21992.00
869.8070, 22208.00
870.9370, 22205.00
872.0670, 22318.00
873.1970, 22211.00
874.3270, 22262.00
875.4560, 22236.24
876.5850, 22511.00
877.7140, 22201.00
878.8430, 22457.00
879.9720, 22518.00
881.1010, 22511.00
882.2290, 22451.00
883.3570, 22358.00
884.4860, 22434.00
885.6140, 22423.00
886.7410, 22485.00
887.8690, 22472.35
888.9960, 22496.00
890.1240, 22495.00
891.2510, 22535.00
892.3780, 22663.00
893.5050, 22709.00
894.6320, 22744.00
895.7580, 23006.00
896.8840, 22801.00
898.0110, 22835.00
899.1370, 23052.00
900.2620, 22917.00
901.3880, 23017.00
902.5140, 22913.00
903.6390, 23009.00
904.7640, 23377.00
905.8890, 23043.00
907.0140, 23312.00
908.1390, 23228.00
909.2640, 23428.00
910.3880, 23119.42
911.5120, 23349.69
912.6360, 23502.24
913.7600, 23581.25
914.8840, 23366.45
916.0080, 23531.04
917.1310, 23543.55
918.2550, 23549.86
919.3780, 23767.81
920.5010, 23595.69
921.6230, 23810.24
922.7460, 23886.00
923.8690, 24197.00
924.9910, 24130.00
926.1130, 24272.00
927.2350, 24152.00
928.3570, 24335.00
929.4790, 24472.00
930.6000, 24557.00
931.7220, 24730.51
932.8430, 24655.00
933.9640, 24938.00
935.0850, 25044.00
936.2050, 24974.00
937.3260, 24868.00
938.4460, 25296.00
939.5660, 25181.00
940.6870, 25482.00
941.8060, 25392.00
942.9260, 25673.00
944.0460, 26132.00
945.1650, 26462.00
946.2840, 26677.00
947.4040, 26622.00
948.5220, 27343.00
949.6410, 27505.13
950.7600, 27684.00
951.8780, 28354.00
952.9970, 28780.00
954.1150, 29369.00
955.2330, 29992.00
956.3500, 30447.00
957.4680, 31111.00
958.5860, 31389.00
959.7030, 31933.00
960.8200, 32422.00
961.9370, 33206.87
963.0540, 34227.00
964.1710, 35179.00
965.2870, 36483.00
966.4030, 37943.00
967.5200, 40020.00
968.6360, 42270.00
969.7510, 45311.00
970.8670, 48400.00
971.9830, 52102.00
973.0980, 56937.00
974.2130, 62192.00
975.3280, 68358.00
976.4430, 75263.00
977.5580, 83118.00
978.6730, 91719.00
979.7870, 100902.0
980.9010, 110049.0
982.0150, 117989.0
983.1290, 124642.0
984.2430, 129111.0
985.3560, 130404.0
986.4700, 129702.0
987.5830, 125018.0
988.6960, 118353.0
989.8090, 107998.0
990.9220, 96919.00
992.0350, 85216.00
993.1470, 74472.00
994.2590, 65541.00
995.3720, 58448.00
996.4830, 53009.00
997.5950, 46837.00
998.7070, 43719.00
999.8180, 41122.00
1000.930, 38936.00
1002.041, 37561.00
1003.152, 36678.00
1004.263, 35693.00
1005.373, 34892.00
1006.484, 34382.75
1007.594, 34104.00
1008.704, 33681.00
1009.815, 33486.00
1010.924, 33428.00
1012.034, 33161.00
1013.144, 33130.00
1014.253, 33125.00
1015.362, 32975.00
1016.471, 32886.00
1017.580, 33119.00
1018.689, 32889.00
1019.797, 33059.00
1020.906, 33032.00
1022.014, 33174.00
1023.122, 32984.00
1024.230, 33397.00
1025.338, 33267.00
1026.445, 33510.00
1027.553, 33527.00
1028.660, 33869.00
1029.767, 33790.00
1030.874, 33997.00
1031.981, 34116.00
1033.088, 34253.00
1034.194, 34341.39
1035.300, 34842.00
1036.406, 34602.00
1037.512, 34931.00
1038.618, 35377.00
1039.724, 35382.00
1040.829, 35547.00
1041.935, 35739.00
1043.040, 35629.00
1044.145, 36009.00
1045.250, 35904.00
1046.354, 35731.00
1047.459, 35825.00
1048.563, 35607.00
1049.667, 35337.00
1050.771, 35477.00
1051.875, 35146.00
1052.979, 35183.00
1054.082, 34924.00
1055.186, 34758.00
1056.289, 34524.00
1057.392, 34350.00
1058.495, 34199.00
1059.598, 33969.00
1060.700, 33950.00
1061.803, 33590.00
1062.905, 33525.00
1064.007, 33607.00
1065.109, 33691.00
1066.210, 34151.00
1067.312, 33573.00
1068.413, 33288.00
1069.515, 33503.00
1070.616, 33836.00
1071.717, 33956.00
1072.817, 34367.00
1073.918, 34453.00
1075.019, 34216.00
1076.119, 34444.00
1077.219, 34222.73
1078.319, 34351.00
1079.419, 33753.00
1080.518, 33827.00
1081.618, 33268.81
1082.717, 33314.00
1083.816, 33033.00
1084.915, 32975.00
1086.014, 32933.00
1087.113, 32617.00
1088.211, 32597.00
1089.309, 32424.00
1090.408, 31996.00
1091.506, 31628.00
1092.603, 31372.00
1093.701, 31268.00
1094.799, 30904.00
1095.896, 30878.00
1096.993, 30811.00
1098.090, 30716.00
1099.187, 30624.00
1100.284, 30573.00
1101.380, 30423.00
1102.477, 30320.00
1103.573, 30322.00
1104.669, 30130.00
1105.765, 30071.00
1106.860, 29884.00
1107.956, 29817.00
1109.051, 29998.00
1110.147, 29978.00
1111.242, 30100.00
1112.336, 30059.97
1113.431, 29935.00
1114.526, 29929.00
1115.620, 29925.69
1116.714, 30012.00
1117.809, 30035.00
1118.902, 30091.00
1119.996, 30132.52
1121.090, 30199.26
1122.183, 30232.00
1123.277, 30351.00
1124.370, 30471.00
1125.463, 30559.89
1126.555, 30711.00
1127.648, 30892.00
1128.740, 31190.00
1129.833, 31476.00
1130.925, 31199.00
1132.017, 31553.00
1133.109, 31497.24
1134.200, 31576.00
1135.292, 31388.00
1136.383, 31513.00
1137.474, 31156.00
1138.565, 30914.00
1139.656, 30575.00
1140.747, 30389.00
1141.837, 30162.00
1142.927, 29995.00
1144.018, 29837.28
1145.108, 29759.00
1146.197, 29597.00
1147.287, 29437.00
1148.377, 29402.00
1149.466, 28973.00
1150.555, 29079.00
1151.644, 29071.00
1152.733, 29227.00
1153.822, 29048.00
1154.910, 28891.00
1155.999, 29224.00
1157.087, 28896.00
1158.175, 28988.00
1159.263, 29078.00
1160.350, 28951.00
1161.438, 29090.00
1162.525, 28830.00
1163.613, 29117.00
1164.700, 28982.00
1165.787, 28962.00
1166.873, 28966.00
1167.960, 29041.00
1169.046, 29068.00
1170.133, 29042.00
1171.219, 29174.00
1172.305, 29165.00
1173.390, 29032.00
1174.476, 29131.00
1175.561, 29009.00
1176.647, 29113.00
1177.732, 29099.00
1178.817, 29182.00
1179.901, 29348.00
1180.986, 29232.00
1182.070, 29204.00
1183.155, 29216.00
1184.239, 29559.00
1185.323, 29711.00
1186.407, 29673.00
1187.490, 29767.00
1188.574, 29601.00
1189.657, 29645.00
1190.740, 29556.00
1191.823, 29482.00
1192.906, 29602.00
1193.988, 29833.00
1195.071, 29674.00
1196.153, 29646.00
1197.235, 29925.00
1198.317, 29738.00
1199.399, 29973.00
1200.481, 30059.00
1201.562, 29644.00
1202.644, 30049.00
1203.725, 30025.00
1204.806, 29677.00
1205.887, 29990.00
1206.967, 29908.00
1208.048, 29795.00
1209.128, 30119.00
1210.208, 29950.00
1211.289, 29782.00
1212.368, 30040.00
1213.448, 29976.00
1214.528, 29814.00
1215.607, 30259.00
1216.686, 30242.00
1217.765, 30061.00
1218.844, 29880.00
1219.923, 30305.00
1221.001, 29942.00
1222.080, 30251.00
1223.158, 30087.00
1224.236, 30107.00
1225.314, 30330.00
1226.392, 30496.00
1227.469, 30354.00
1228.547, 30505.67
1229.624, 30292.00
1230.701, 30503.00
1231.778, 30631.00
1232.855, 30561.00
1233.931, 30394.00
1235.008, 30422.00
1236.084, 30567.00
1237.160, 30648.00
1238.236, 30601.00
1239.312, 30664.00
1240.387, 31053.00
1241.463, 30851.00
1242.538, 31091.00
1243.613, 30616.00
1244.688, 30934.00
1245.763, 30692.00
1246.837, 30874.00
