##NAMES=Triplite
##RRUFFID=R050226
##IDEAL CHEMISTRY=Mn^2+^_2_(PO_4_)F
##LOCALITY=Fremont County, Colorado, USA
##OWNER=RRUFF
##SOURCE=Marcus Origlieri
##DESCRIPTION=Reddish brown massive
##STATUS=The identification of this mineral has been confirmed by X-ray diffraction and chemical analysis
##URL=rruff.info/R050226
##MEASURED CHEMISTRY=(Mn^2+^_1.20_Mg_0.49_Fe^2+^_0.27_Ca_0.04_)_Σ=2_(P_1.00_O_4_)(F_0.95_(OH)_0.05_)_Σ=1_
##PIN_ID=L00426
##ORIENTATION=Laser parallel to c* (0 0 1). Fiducial mark perpendicular to laser is parallel to a [1 0 0]
63.41100, 19662.00
64.65300, 20646.00
65.89600, 21692.00
67.13800, 22197.00
68.38000, 23459.00
69.62200, 25050.00
70.86300, 25995.00
72.10500, 27263.84
73.34600, 28720.00
74.58700, 29575.00
75.82800, 30375.00
77.06900, 31749.00
78.30900, 32106.00
79.55000, 32750.00
80.79000, 33395.00
82.03000, 34368.00
83.27000, 34410.48
84.51000, 35253.00
85.74900, 34526.00
86.98900, 34241.00
88.22800, 34138.00
89.46700, 34554.00
90.70600, 35105.00
91.94400, 35993.00
93.18300, 36386.00
94.42100, 35934.00
95.65900, 35240.00
96.89700, 34859.00
98.13500, 33910.00
99.37300, 33403.00
100.6100, 32850.41
101.8480, 32302.00
103.0850, 31882.00
104.3220, 31519.00
105.5590, 31237.00
106.7950, 30993.01
108.0320, 30368.79
109.2680, 30442.00
110.5040, 29244.00
111.7400, 29092.00
112.9760, 28844.00
114.2120, 28938.00
115.4470, 29382.00
116.6820, 30306.00
117.9170, 30105.00
119.1520, 29933.00
120.3870, 29635.00
121.6220, 29756.00
122.8560, 30426.00
124.0900, 29386.00
125.3240, 30291.00
126.5580, 29300.00
127.7920, 26835.00
129.0260, 26891.00
130.2590, 27234.00
131.4920, 26763.00
132.7250, 26522.00
133.9580, 26363.00
135.1910, 26280.00
136.4230, 26263.00
137.6560, 26667.00
138.8880, 26486.00
140.1200, 26854.00
141.3520, 26672.00
142.5830, 26504.00
143.8150, 26316.00
145.0460, 26153.00
146.2770, 26244.00
147.5080, 26653.00
148.7390, 26589.00
149.9700, 26678.00
151.2000, 26584.00
152.4310, 26164.00
153.6610, 26465.00
154.8910, 26763.00
156.1210, 27172.00
157.3500, 26784.00
158.5800, 26937.00
159.8090, 26901.00
161.0380, 26793.00
162.2670, 26704.00
163.4960, 26821.00
164.7240, 26753.00
165.9530, 26674.00
167.1810, 26666.28
168.4090, 26480.00
169.6370, 26550.00
170.8650, 26381.00
172.0920, 26347.00
173.3200, 26209.00
174.5470, 26083.82
175.7740, 25767.00
177.0010, 25827.00
178.2280, 25516.00
179.4540, 25380.00
180.6810, 25357.00
181.9070, 25244.60
183.1330, 25170.00
184.3590, 25216.00
185.5850, 25277.00
186.8100, 25247.00
188.0350, 25234.00
189.2610, 25073.00
190.4860, 25085.00
191.7110, 25001.00
192.9350, 24936.56
194.1600, 25017.00
195.3840, 24858.00
196.6080, 24806.00
197.8320, 24821.00
199.0560, 24790.00
200.2800, 24920.00
201.5030, 24675.00
202.7270, 24829.00
203.9500, 24679.00
205.1730, 24178.00
206.3950, 24266.00
207.6180, 24288.00
208.8410, 24399.00
210.0630, 24424.79
211.2850, 24233.00
212.5070, 24424.00
213.7290, 24490.00
214.9500, 24331.00
216.1720, 24509.00
217.3930, 24732.00
218.6140, 24969.00
219.8350, 25017.00
221.0560, 25358.00
222.2770, 25384.00
223.4970, 25762.00
224.7170, 25807.91
225.9370, 25796.92
227.1570, 25760.00
228.3770, 25694.00
229.5970, 25240.00
230.8160, 25217.00
232.0350, 24886.00
233.2540, 24728.00
234.4730, 24545.00
235.6920, 24680.00
236.9110, 24876.00
238.1290, 24860.00
239.3470, 24950.50
240.5650, 25004.00
241.7830, 25176.00
243.0010, 25407.93
244.2180, 25303.77
245.4360, 25618.00
246.6530, 25137.00
247.8700, 25177.00
249.0870, 25078.00
250.3040, 25034.00
251.5200, 24909.55
252.7370, 24657.75
253.9530, 24560.00
255.1690, 24173.00
256.3850, 23888.00
257.6000, 23848.00
258.8160, 23337.00
260.0310, 23101.20
261.2460, 23142.79
262.4610, 23136.12
263.6760, 23084.72
264.8910, 22801.43
266.1050, 22858.33
267.3200, 22803.76
268.5340, 22761.66
269.7480, 22917.17
270.9620, 22891.00
272.1750, 22988.00
273.3890, 22928.00
274.6020, 23033.00
275.8150, 23163.00
277.0280, 23211.00
278.2410, 23221.00
279.4540, 23399.00
280.6660, 23741.00
281.8790, 24177.00
283.0910, 24354.00
284.3030, 24769.00
285.5140, 25043.24
286.7260, 25482.00
287.9380, 25646.00
289.1490, 25764.00
290.3600, 26107.00
291.5710, 26524.00
292.7820, 26697.00
293.9920, 26929.00
295.2030, 27058.00
296.4130, 26410.20
297.6230, 26474.08
298.8330, 26408.57
300.0430, 26217.21
301.2520, 25713.07
302.4620, 25467.77
303.6710, 25030.29
304.8800, 24781.00
306.0890, 24426.00
307.2980, 23748.00
308.5070, 23654.00
309.7150, 23296.79
310.9230, 23118.00
312.1310, 22823.00
313.3390, 22769.00
314.5470, 22422.00
315.7550, 22319.00
316.9620, 22147.00
318.1690, 21893.00
319.3760, 21834.00
320.5830, 21789.00
321.7900, 21371.77
322.9960, 21438.51
324.2030, 21441.71
325.4090, 21385.08
326.6150, 21081.36
327.8210, 21102.62
329.0270, 20997.26
330.2320, 20889.24
331.4380, 20963.62
332.6430, 20709.17
333.8480, 20785.92
335.0530, 20734.06
336.2580, 20744.82
337.4620, 20628.20
338.6670, 20554.27
339.8710, 20612.99
341.0750, 20602.29
342.2790, 20481.00
343.4820, 20511.10
344.6860, 20277.92
345.8890, 20280.60
347.0920, 20386.50
348.2960, 20351.25
349.4980, 20161.00
350.7010, 20368.00
351.9040, 20351.00
353.1060, 20064.00
354.3080, 20041.00
355.5100, 19964.00
356.7120, 19987.00
357.9140, 20170.00
359.1150, 20217.00
360.3170, 20134.00
361.5180, 19953.00
362.7190, 20144.00
363.9200, 20156.00
365.1200, 20241.00
366.3210, 20126.00
367.5210, 20225.00
368.7210, 20294.00
369.9210, 20256.00
371.1210, 20376.91
372.3210, 20443.52
373.5200, 20477.00
374.7200, 20688.00
375.9190, 20630.00
377.1180, 20821.00
378.3170, 20952.00
379.5150, 21117.00
380.7140, 21299.60
381.9120, 21385.62
383.1110, 21551.00
384.3090, 21626.44
385.5060, 21924.76
386.7040, 22157.16
387.9020, 22327.06
389.0990, 22247.18
390.2960, 22489.68
391.4930, 22602.99
392.6900, 22711.00
393.8860, 22998.76
395.0830, 22955.19
396.2790, 23240.10
397.4750, 23393.84
398.6710, 23465.00
399.8670, 23738.00
401.0630, 23892.00
402.2580, 24034.00
403.4540, 24344.00
404.6490, 24424.00
405.8440, 24622.00
407.0390, 24607.00
408.2330, 24683.59
409.4280, 24738.54
410.6220, 24635.00
411.8160, 24769.00
413.0100, 24457.63
414.2040, 24507.99
415.3980, 24492.30
416.5910, 24414.21
417.7850, 24086.37
418.9780, 23235.00
420.1710, 23176.00
421.3640, 23305.00
422.5560, 23152.00
423.7490, 23072.00
424.9410, 23190.00
426.1330, 23026.00
427.3250, 23245.00
428.5170, 23174.00
429.7090, 23214.00
430.9000, 23142.00
432.0910, 23157.00
433.2820, 23143.30
434.4730, 23273.00
435.6640, 23207.00
436.8550, 23287.00
438.0450, 23512.00
439.2360, 23599.00
440.4260, 23830.00
441.6160, 24062.00
442.8060, 24358.00
443.9950, 24707.00
445.1850, 25179.00
446.3740, 25729.00
447.5630, 26189.00
448.7520, 26768.00
449.9410, 27649.00
451.1300, 28033.00
452.3180, 28575.00
453.5060, 29064.00
454.6950, 29524.00
455.8830, 29914.00
457.0700, 29839.00
458.2580, 29619.00
459.4450, 29339.00
460.6330, 28864.00
461.8200, 28195.00
463.0070, 27630.00
464.1940, 26930.00
465.3800, 26021.00
466.5670, 25411.00
467.7530, 24706.00
468.9390, 24455.00
470.1250, 23717.00
471.3110, 23471.00
472.4970, 22872.00
473.6820, 22888.00
474.8680, 22345.00
476.0530, 22027.00
477.2380, 21785.00
478.4230, 21465.00
479.6070, 21353.00
480.7920, 21286.00
481.9760, 21205.00
483.1600, 21264.00
484.3440, 21074.00
485.5280, 21138.00
486.7120, 21012.30
487.8950, 20875.00
489.0780, 20850.00
490.2620, 20937.00
491.4450, 20981.00
492.6270, 20911.00
493.8100, 20886.00
494.9920, 20750.54
496.1750, 20846.18
497.3570, 20875.81
498.5390, 20842.96
499.7210, 20560.43
500.9020, 20600.35
502.0840, 20511.02
503.2650, 20416.44
504.4460, 20501.73
505.6270, 20255.56
506.8080, 20338.01
507.9890, 20289.27
509.1690, 20300.62
510.3500, 20181.93
511.5300, 20040.00
512.7100, 19893.00
513.8900, 19963.00
515.0690, 19856.00
516.2490, 19751.00
517.4280, 19730.00
518.6070, 19781.00
519.7860, 19625.00
520.9650, 19776.00
522.1440, 19720.00
523.3220, 19871.00
524.5010, 19761.00
525.6790, 19712.00
526.8570, 19891.39
528.0350, 19863.76
529.2130, 20155.00
530.3900, 19939.00
531.5670, 19955.00
532.7450, 19806.00
533.9220, 19766.00
535.0980, 20010.00
536.2750, 19824.00
537.4520, 20002.00
538.6280, 20197.00
539.8040, 20244.00
540.9800, 20195.00
542.1560, 20576.00
543.3320, 20500.00
544.5070, 20707.00
545.6830, 20721.00
546.8580, 20700.00
548.0330, 20627.00
549.2080, 20934.00
550.3830, 20876.00
551.5570, 20980.00
552.7310, 21020.00
553.9060, 21063.41
555.0800, 21183.00
556.2540, 21194.00
557.4270, 21177.00
558.6010, 21232.00
559.7740, 21248.81
560.9470, 21230.00
562.1210, 21369.00
563.2930, 21538.00
564.4660, 21702.00
565.6390, 21724.00
566.8110, 21685.00
567.9830, 21895.00
569.1550, 21879.00
570.3270, 22342.00
571.4990, 22163.00
572.6710, 22539.00
573.8420, 22775.00
575.0130, 23020.00
576.1840, 22889.00
577.3550, 22981.00
578.5260, 23183.00
579.6970, 23234.00
580.8670, 23337.00
582.0370, 23485.00
583.2070, 23510.00
584.3770, 23574.00
585.5470, 23635.00
586.7170, 23878.00
587.8860, 23863.00
589.0550, 24308.00
590.2240, 24748.00
591.3930, 24897.00
592.5620, 25420.00
593.7310, 25791.00
594.8990, 26145.00
596.0670, 26811.00
597.2350, 27198.00
598.4030, 27876.00
599.5710, 28413.00
600.7390, 29007.00
601.9060, 29605.00
603.0740, 29649.00
604.2410, 30084.00
605.4080, 30470.00
606.5740, 30868.00
607.7410, 30903.00
608.9080, 30951.00
610.0740, 30939.00
611.2400, 30942.00
612.4060, 30926.00
613.5720, 30863.00
614.7370, 30643.45
615.9030, 30418.00
617.0680, 30076.00
618.2330, 29649.00
619.3980, 29289.00
620.5630, 28793.00
621.7280, 28236.00
622.8920, 27908.81
624.0570, 27480.00
625.2210, 27235.00
626.3850, 26935.00
627.5490, 26762.00
628.7120, 26496.00
629.8760, 26596.00
631.0390, 26251.00
632.2020, 25895.00
633.3650, 26238.00
634.5280, 26358.00
635.6910, 26232.00
636.8530, 26128.00
638.0160, 26157.00
639.1780, 26320.00
640.3400, 26185.00
641.5020, 26330.00
642.6640, 26224.00
643.8250, 26540.00
644.9870, 26460.00
646.1480, 26596.00
647.3090, 26673.00
648.4700, 26492.00
649.6300, 26681.00
650.7910, 26683.00
651.9510, 26432.00
653.1120, 26668.03
654.2720, 26684.49
655.4320, 26665.97
656.5910, 26616.08
657.7510, 26347.52
658.9100, 26432.42
660.0690, 26419.14
661.2290, 25985.16
662.3880, 25926.40
663.5460, 25801.77
664.7050, 25614.47
665.8630, 25177.69
667.0220, 25063.11
668.1800, 24819.51
669.3380, 24570.61
670.4950, 24495.00
671.6530, 24341.00
672.8100, 24306.00
673.9680, 24055.00
675.1250, 24171.00
676.2820, 24003.00
677.4390, 23607.00
678.5950, 23859.00
679.7520, 23671.00
680.9080, 23579.00
682.0640, 23536.00
683.2200, 23668.00
684.3760, 23611.00
685.5320, 23656.00
686.6870, 23610.00
687.8420, 23709.00
688.9980, 23602.00
690.1530, 23764.00
691.3070, 23388.00
692.4620, 23688.00
693.6170, 23794.00
694.7710, 23573.00
695.9250, 23700.00
697.0790, 23549.00
698.2330, 23281.00
699.3870, 23353.00
700.5400, 23218.00
701.6940, 23228.00
702.8470, 22970.00
704.0000, 22901.00
705.1530, 22634.00
706.3050, 22546.00
707.4580, 22376.00
708.6100, 22225.00
709.7630, 21994.23
710.9150, 21682.00
712.0660, 21493.00
713.2180, 21350.00
714.3700, 21144.00
715.5210, 21107.00
716.6720, 20846.00
717.8240, 20616.00
718.9740, 20333.00
720.1250, 20234.00
721.2760, 20084.00
722.4260, 19724.00
723.5770, 19816.00
724.7270, 19389.00
725.8770, 19219.00
727.0260, 19056.00
728.1760, 18906.00
729.3250, 18731.00
730.4750, 18585.40
731.6240, 18496.00
732.7730, 18273.00
733.9220, 18108.00
735.0700, 17923.80
736.2190, 17871.00
737.3670, 17698.00
738.5150, 17652.00
739.6630, 17671.00
740.8110, 17565.00
741.9590, 17434.00
743.1060, 17361.00
744.2540, 17124.00
745.4010, 17229.00
746.5480, 17117.00
747.6950, 16988.00
748.8410, 17051.00
749.9880, 17139.00
751.1340, 16936.00
752.2800, 17006.23
753.4260, 16932.00
754.5720, 16999.00
755.7180, 16835.00
756.8640, 16939.00
758.0090, 16773.00
759.1540, 16915.00
760.2990, 16781.00
761.4440, 16755.00
762.5890, 16664.00
763.7340, 16701.80
764.8780, 16932.00
766.0220, 16829.00
767.1660, 16954.00
768.3100, 17048.00
769.4540, 16938.00
770.5980, 17081.00
771.7410, 16892.00
772.8840, 16854.00
774.0280, 16881.00
775.1700, 17053.00
776.3130, 17030.00
777.4560, 17191.00
778.5980, 17158.00
779.7410, 17087.00
780.8830, 16979.00
782.0250, 17214.00
783.1670, 17226.00
784.3080, 17345.00
785.4500, 17281.00
786.5910, 17248.00
787.7320, 17254.00
788.8730, 17273.00
790.0140, 17249.00
791.1550, 17304.57
792.2950, 17321.00
793.4360, 17380.00
794.5760, 17370.00
795.7160, 17356.00
796.8560, 17523.00
797.9960, 17383.00
799.1350, 17464.00
800.2750, 17533.00
801.4140, 17404.00
802.5530, 17444.00
803.6920, 17361.00
804.8310, 17372.00
805.9690, 17510.00
807.1080, 17369.00
808.2460, 17427.00
809.3840, 17343.00
810.5220, 17422.00
811.6600, 17173.00
812.7970, 17313.00
813.9350, 17328.00
815.0720, 17137.00
816.2090, 17005.00
817.3460, 17141.00
818.4830, 16951.00
819.6200, 17264.00
820.7560, 17087.00
821.8930, 17322.00
823.0290, 17032.00
824.1650, 16817.00
825.3010, 17009.00
826.4360, 16856.00
827.5720, 16805.50
828.7070, 16841.00
829.8420, 16725.00
830.9770, 16595.00
832.1120, 16691.00
833.2470, 16599.00
834.3820, 16514.00
835.5160, 16492.00
836.6500, 16417.00
837.7840, 16526.00
838.9180, 16516.00
840.0520, 16417.00
841.1860, 16517.00
842.3190, 16339.00
843.4520, 16442.00
844.5850, 16428.00
845.7180, 16455.00
846.8510, 16437.47
847.9840, 16319.00
849.1160, 16356.00
850.2490, 16198.00
851.3810, 16152.00
852.5130, 16310.00
853.6450, 16368.00
854.7760, 16353.00
855.9080, 16244.13
857.0390, 16404.45
858.1700, 16498.73
859.3010, 16530.52
860.4320, 16312.63
861.5630, 16417.14
862.6930, 16392.44
863.8240, 16362.45
864.9540, 16512.33
866.0840, 16330.75
867.2140, 16477.78
868.3440, 16493.63
869.4730, 16569.51
870.6030, 16452.00
871.7320, 16536.00
872.8610, 16390.00
873.9900, 16416.00
875.1190, 16450.00
876.2470, 16334.00
877.3760, 16496.00
878.5040, 16523.00
879.6320, 16549.00
880.7600, 16434.00
881.8880, 16505.00
883.0150, 16567.00
884.1430, 16457.00
885.2700, 16538.00
886.3970, 16528.00
887.5240, 16586.00
888.6510, 16665.00
889.7780, 16542.00
890.9040, 16942.00
892.0310, 16887.00
893.1570, 16757.00
894.2830, 16804.00
895.4090, 16690.00
896.5350, 16845.00
897.6600, 16845.00
898.7860, 16947.00
899.9110, 16861.00
901.0360, 17010.00
902.1610, 16967.00
903.2860, 17071.00
904.4100, 16965.00
905.5350, 17096.00
906.6590, 17298.00
907.7830, 17211.00
908.9070, 17319.00
910.0310, 17295.00
911.1540, 17307.00
912.2780, 17336.00
913.4010, 17270.00
914.5240, 17365.00
915.6470, 17692.00
916.7700, 17608.00
917.8930, 17754.00
919.0150, 17755.00
920.1380, 17733.00
921.2600, 17813.00
922.3820, 17950.00
923.5040, 18054.00
924.6260, 18149.00
925.7470, 18109.00
926.8690, 18252.00
927.9900, 18419.00
929.1110, 18633.20
930.2320, 18639.00
931.3530, 18789.91
932.4730, 18997.00
933.5940, 18972.00
934.7140, 18999.00
935.8340, 19126.18
936.9540, 19514.00
938.0740, 19627.00
939.1930, 19911.77
940.3130, 20404.00
941.4320, 20282.00
942.5510, 20643.00
943.6700, 20657.00
944.7890, 21140.00
945.9080, 21619.00
947.0260, 21927.00
948.1450, 22544.00
949.2630, 23241.00
950.3810, 23938.00
951.4990, 24573.00
952.6170, 25395.00
953.7340, 26228.00
954.8520, 27250.00
955.9690, 28100.00
957.0860, 29333.00
958.2030, 30165.00
959.3200, 31146.00
960.4360, 32439.00
961.5530, 33849.00
962.6690, 35532.00
963.7850, 37853.00
964.9010, 40739.00
966.0170, 44090.00
967.1330, 47989.00
968.2480, 52509.00
969.3630, 58227.00
970.4790, 64518.00
971.5940, 72279.00
972.7080, 80083.00
973.8230, 89682.00
974.9380, 100486.0
976.0520, 112665.0
977.1660, 125614.0
978.2800, 138903.0
979.3940, 152625.0
980.5080, 165331.0
981.6220, 175783.0
982.7350, 183597.0
983.8480, 186992.0
984.9610, 185884.0
986.0740, 180070.0
987.1870, 168662.0
988.3000, 153686.0
989.4120, 135856.0
990.5250, 118531.0
991.6370, 101712.0
992.7490, 86631.00
993.8610, 73563.00
994.9720, 63470.00
996.0840, 55657.00
997.1950, 49391.00
998.3060, 47501.00
999.4170, 41034.00
1000.528, 38465.00
1001.639, 36160.00
1002.750, 34373.00
1003.860, 33451.00
1004.970, 32192.00
1006.080, 31239.00
1007.190, 30587.00
1008.300, 30175.00
1009.410, 29669.00
1010.519, 29427.00
1011.628, 29048.00
1012.738, 29042.00
1013.846, 28633.00
1014.955, 28533.00
1016.064, 28712.00
1017.172, 28447.00
1018.281, 28493.00
1019.389, 28664.00
1020.497, 28553.00
1021.605, 28796.36
1022.713, 29126.00
1023.820, 29158.00
1024.928, 29180.00
1026.035, 29308.00
1027.142, 29559.00
1028.249, 29879.00
1029.356, 29927.00
1030.462, 30414.00
1031.569, 30601.00
1032.675, 30786.00
1033.781, 31052.00
1034.887, 31298.00
1035.993, 31590.87
1037.098, 31847.00
1038.204, 32148.00
1039.309, 32384.00
1040.415, 32496.00
1041.520, 32530.62
1042.624, 32327.00
1043.729, 32245.00
1044.834, 32000.00
1045.938, 31480.00
1047.042, 30971.00
1048.146, 30584.00
1049.250, 30174.00
1050.354, 29611.00
1051.458, 29051.00
1052.561, 28395.00
1053.664, 27815.00
1054.767, 27364.00
1055.870, 26713.00
1056.973, 26243.00
1058.076, 25784.94
1059.178, 25350.28
1060.281, 24997.00
1061.383, 24652.00
1062.485, 24434.00
1063.587, 24167.00
1064.688, 23792.00
1065.790, 23617.00
1066.891, 23583.00
1067.993, 23302.00
1069.094, 23139.00
1070.195, 23326.00
1071.295, 23226.00
1072.396, 23252.00
1073.496, 23357.00
1074.597, 22946.00
1075.697, 22943.00
1076.797, 22820.00
1077.897, 22764.00
1078.996, 22554.00
1080.096, 22333.00
1081.195, 22416.00
1082.294, 22388.00
1083.393, 22195.00
1084.492, 22318.00
1085.591, 22200.00
1086.689, 22204.00
1087.788, 22077.00
1088.886, 21945.00
1089.984, 21977.00
1091.082, 21672.00
1092.180, 21802.00
1093.277, 21984.00
1094.375, 21580.00
1095.472, 21478.00
1096.569, 21365.00
1097.666, 21296.00
1098.763, 21193.64
1099.860, 20873.00
1100.956, 20982.00
1102.053, 20935.00
1103.149, 20758.00
1104.245, 20877.00
1105.341, 20781.00
1106.436, 20648.00
1107.532, 20573.00
1108.627, 20810.00
1109.723, 20926.00
1110.818, 20823.29
1111.913, 20666.00
1113.007, 20690.00
1114.102, 20671.00
1115.197, 20695.00
1116.291, 20678.00
1117.385, 20754.00
1118.479, 20780.41
1119.573, 20794.00
1120.666, 20912.00
1121.760, 20869.00
1122.853, 20983.00
1123.947, 20900.00
1125.040, 21263.00
1126.132, 21137.00
1127.225, 21346.00
1128.318, 21552.00
1129.410, 21475.00
1130.502, 21549.00
1131.595, 21600.00
1132.687, 21534.00
1133.778, 21444.00
1134.870, 21066.00
1135.961, 20744.68
1137.053, 20681.88
1138.144, 20553.21
1139.235, 20362.07
1140.326, 19921.24
1141.416, 19803.02
1142.507, 19555.40
1143.597, 19302.66
1144.688, 19229.63
1145.778, 19140.00
1146.868, 19047.00
1147.957, 19070.00
1149.047, 18971.00
1150.136, 19108.00
1151.226, 18835.00
1152.315, 18696.00
1153.404, 18787.00
1154.493, 18776.00
1155.581, 18363.00
1156.670, 18445.00
1157.758, 18527.00
1158.846, 18475.00
1159.934, 18598.00
1161.022, 18555.00
1162.110, 18425.00
1163.198, 18583.00
1164.285, 18557.00
1165.372, 18601.00
1166.459, 18403.00
1167.546, 18392.00
1168.633, 18429.00
1169.720, 18344.00
1170.806, 18398.00
1171.892, 18380.00
1172.979, 18548.00
1174.065, 18637.00
1175.150, 18432.00
1176.236, 18534.00
1177.322, 18484.00
1178.407, 18346.00
1179.492, 18534.00
1180.577, 18444.00
1181.662, 18382.00
1182.747, 18475.00
1183.832, 18491.00
1184.916, 18646.00
1186.000, 18785.00
1187.084, 18657.00
1188.168, 18571.00
1189.252, 18807.00
1190.336, 18647.00
1191.419, 18805.00
1192.503, 18793.00
1193.586, 18698.00
1194.669, 18856.00
1195.752, 18735.00
1196.835, 18781.00
1197.917, 18765.00
1199.000, 18946.00
1200.082, 18906.96
1201.164, 18875.87
1202.246, 18999.00
1203.328, 18748.00
1204.409, 18925.00
1205.491, 18924.00
1206.572, 18622.00
1207.653, 18779.00
1208.734, 18905.00
1209.815, 19098.00
1210.896, 19197.00
1211.976, 18800.00
1213.057, 18781.00
1214.137, 19362.00
1215.217, 18916.00
1216.297, 18966.00
1217.377, 18745.00
1218.456, 18942.00
1219.536, 18815.00
1220.615, 18879.20
1221.694, 19056.00
1222.773, 18864.00
1223.852, 19706.00
1224.931, 19445.00
1226.009, 19548.00
1227.088, 18870.00
1228.166, 18755.00
1229.244, 18802.00
1230.322, 19183.00
1231.400, 19186.00
1232.477, 18951.00
1233.555, 18963.00
1234.632, 18952.00
1235.709, 18902.00
1236.786, 19026.00
1237.863, 18952.00
1238.939, 19106.00
1240.016, 19177.00
1241.092, 19202.00
1242.168, 19167.00
1243.245, 19196.71
1244.320, 19141.00
1245.396, 19198.00
1246.472, 19116.00
