##NAMES=Triplite
##RRUFFID=R050226
##IDEAL CHEMISTRY=Mn^2+^_2_(PO_4_)F
##LOCALITY=Fremont County, Colorado, USA
##OWNER=RRUFF
##SOURCE=Marcus Origlieri
##DESCRIPTION=Reddish brown massive
##STATUS=The identification of this mineral has been confirmed by X-ray diffraction and chemical analysis
##URL=rruff.info/R050226
##MEASURED CHEMISTRY=(Mn^2+^_1.20_Mg_0.49_Fe^2+^_0.27_Ca_0.04_)_Σ=2_(P_1.00_O_4_)(F_0.95_(OH)_0.05_)_Σ=1_
##PIN_ID=L00496
##ORIENTATION=Laser parallel to a* (1 0 0). Fiducial mark perpendicular to laser is parallel to b [0 1 0]
64.81000, 60512.00
66.04600, 61158.00
67.28200, 64029.00
68.51800, 67043.00
69.75400, 70390.00
70.98900, 73744.00
72.22500, 75664.00
73.46000, 75932.00
74.69500, 76459.00
75.93000, 77126.00
77.16500, 86131.00
78.40000, 83961.00
79.63400, 85289.00
80.86900, 84934.00
82.10300, 83700.00
83.33700, 84930.00
84.57100, 83208.95
85.80500, 83399.00
87.03800, 80629.00
88.27200, 77748.00
89.50500, 75773.00
90.73800, 74852.00
91.97100, 76445.00
93.20400, 77516.00
94.43700, 77675.00
95.67000, 77032.00
96.90200, 75742.00
98.13400, 74105.00
99.36600, 72763.00
100.5980, 73330.00
101.8300, 72265.00
103.0620, 71548.00
104.2930, 70004.00
105.5250, 69833.00
106.7560, 71483.00
107.9870, 72675.00
109.2180, 74340.00
110.4490, 72624.00
111.6790, 69526.00
112.9100, 68433.00
114.1400, 69240.00
115.3700, 70091.00
116.6000, 71055.00
117.8300, 72546.00
119.0600, 72414.00
120.2900, 72640.35
121.5190, 72426.66
122.7480, 71457.00
123.9770, 70848.00
125.2060, 69237.00
126.4350, 67693.00
127.6640, 67078.00
128.8920, 66169.00
130.1210, 65362.00
131.3490, 65982.00
132.5770, 65650.00
133.8050, 65370.00
135.0330, 64894.00
136.2600, 64119.00
137.4880, 63923.00
138.7150, 64540.00
139.9420, 64900.00
141.1690, 64354.00
142.3960, 64664.00
143.6230, 62712.00
144.8490, 62281.00
146.0760, 62675.10
147.3020, 63888.00
148.5280, 63014.00
149.7540, 63287.00
150.9800, 62022.00
152.2050, 62224.00
153.4310, 62892.00
154.6560, 63386.00
155.8810, 63105.62
157.1060, 63773.00
158.3310, 62481.00
159.5560, 61751.00
160.7800, 61390.95
162.0050, 61590.00
163.2290, 60983.00
164.4530, 60849.00
165.6770, 61161.00
166.9010, 60632.00
168.1250, 59794.00
169.3480, 59591.00
170.5720, 60098.00
171.7950, 60121.00
173.0180, 59987.00
174.2410, 59642.00
175.4640, 59673.00
176.6860, 58616.00
177.9090, 58675.75
179.1310, 58415.00
180.3530, 58238.00
181.5750, 58027.07
182.7970, 57669.52
184.0190, 57523.00
185.2400, 57010.00
186.4620, 56860.00
187.6830, 56699.27
188.9040, 57507.00
190.1250, 57035.00
191.3460, 57236.00
192.5660, 57280.00
193.7870, 57246.00
195.0070, 57751.00
196.2270, 57351.00
197.4470, 56941.00
198.6670, 57540.00
199.8870, 57428.00
201.1060, 57908.00
202.3260, 57071.00
203.5450, 57072.00
204.7640, 57740.00
205.9830, 56470.00
207.2020, 55900.00
208.4200, 55459.00
209.6390, 55219.00
210.8570, 55591.00
212.0750, 55301.00
213.2940, 55515.00
214.5110, 55325.00
215.7290, 54859.00
216.9470, 55284.00
218.1640, 54196.00
219.3810, 54822.00
220.5990, 55326.00
221.8150, 54911.00
223.0320, 54006.00
224.2490, 53654.00
225.4650, 54158.00
226.6820, 54350.00
227.8980, 54780.00
229.1140, 54472.55
230.3300, 53893.00
231.5460, 53844.00
232.7610, 53880.00
233.9770, 53911.00
235.1920, 53878.88
236.4070, 53563.00
237.6220, 53712.00
238.8370, 53471.00
240.0520, 53072.00
241.2660, 53182.00
242.4810, 52911.00
243.6950, 53020.00
244.9090, 53529.00
246.1230, 53304.00
247.3370, 52592.00
248.5500, 53414.00
249.7640, 52779.00
250.9770, 53270.00
252.1900, 52652.00
253.4030, 52288.00
254.6160, 52760.00
255.8290, 52339.00
257.0410, 51895.00
258.2530, 52175.00
259.4660, 51908.00
260.6780, 52197.00
261.8900, 52262.00
263.1010, 52165.00
264.3130, 52320.00
265.5250, 52269.49
266.7360, 52157.43
267.9470, 52413.00
269.1580, 52041.00
270.3690, 52412.00
271.5800, 52738.00
272.7900, 52147.00
274.0010, 52139.00
275.2110, 52031.00
276.4210, 51815.00
277.6310, 51934.00
278.8410, 51808.02
280.0500, 52434.00
281.2600, 51933.00
282.4690, 52025.00
283.6780, 52479.00
284.8870, 52292.00
286.0960, 52366.92
287.3050, 52402.92
288.5130, 52163.00
289.7220, 52263.00
290.9300, 52124.00
292.1380, 51972.00
293.3460, 52394.00
294.5540, 52401.00
295.7610, 52603.00
296.9690, 52640.00
298.1760, 52457.00
299.3830, 52531.99
300.5900, 52355.13
301.7970, 52524.00
303.0040, 52121.00
304.2100, 52313.00
305.4170, 52383.00
306.6230, 51682.00
307.8290, 51460.00
309.0350, 51421.00
310.2410, 51179.00
311.4460, 51154.75
312.6520, 51180.00
313.8570, 51074.00
315.0620, 51137.00
316.2670, 51088.37
317.4720, 50468.00
318.6770, 50706.00
319.8810, 50598.00
321.0860, 50041.00
322.2900, 50265.00
323.4940, 50576.00
324.6980, 50412.00
325.9020, 50309.00
327.1050, 49857.00
328.3090, 49852.00
329.5120, 49664.32
330.7150, 49615.00
331.9180, 49516.00
333.1210, 49572.00
334.3240, 49644.00
335.5260, 49631.00
336.7290, 49420.00
337.9310, 49300.00
339.1330, 49005.00
340.3350, 49508.00
341.5370, 49675.00
342.7380, 49394.00
343.9400, 48724.00
345.1410, 49047.00
346.3420, 48985.00
347.5430, 49105.00
348.7440, 48735.00
349.9450, 48479.00
351.1450, 48381.00
352.3460, 48346.00
353.5460, 48255.50
354.7460, 48132.00
355.9460, 48253.00
357.1460, 48033.00
358.3450, 48067.00
359.5450, 48112.00
360.7440, 48198.00
361.9430, 48347.00
363.1420, 48112.00
364.3410, 47966.00
365.5400, 48154.00
366.7380, 48248.00
367.9370, 48152.00
369.1350, 47788.00
370.3330, 48218.00
371.5310, 47903.00
372.7280, 47707.00
373.9260, 47773.00
375.1230, 47922.00
376.3210, 47788.00
377.5180, 47889.21
378.7150, 47551.00
379.9120, 47981.00
381.1080, 47871.00
382.3050, 48025.00
383.5010, 47663.00
384.6970, 47956.00
385.8930, 47931.00
387.0890, 47948.00
388.2850, 47989.00
389.4810, 47922.80
390.6760, 48100.00
391.8710, 47844.00
393.0660, 48295.00
394.2610, 48360.00
395.4560, 48483.00
396.6510, 48247.00
397.8450, 48235.00
399.0400, 48388.00
400.2340, 48372.00
401.4280, 48610.00
402.6220, 48997.00
403.8150, 48612.00
405.0090, 48982.00
406.2020, 48837.00
407.3960, 49250.00
408.5890, 49634.00
409.7820, 49033.00
410.9740, 49191.00
412.1670, 49620.00
413.3600, 49911.00
414.5520, 50118.00
415.7440, 50534.00
416.9360, 51430.00
418.1280, 51787.00
419.3200, 52219.06
420.5110, 51718.00
421.7020, 52731.00
422.8940, 52470.00
424.0850, 52342.00
425.2760, 53326.00
426.4660, 53375.00
427.6570, 53105.00
428.8470, 52985.00
430.0380, 53134.00
431.2280, 53022.00
432.4180, 52540.00
433.6080, 52205.00
434.7970, 51655.00
435.9870, 51498.00
437.1760, 51248.00
438.3650, 50814.00
439.5540, 50664.97
440.7430, 50637.00
441.9320, 50282.00
443.1210, 49878.00
444.3090, 49860.00
445.4970, 49910.00
446.6850, 49976.00
447.8730, 49904.00
449.0610, 49583.00
450.2490, 49652.00
451.4360, 49483.00
452.6240, 49519.30
453.8110, 49599.00
454.9980, 49672.00
456.1850, 49747.00
457.3710, 49833.00
458.5580, 49747.00
459.7440, 49643.00
460.9310, 49699.68
462.1170, 49861.00
463.3030, 49621.00
464.4880, 50105.00
465.6740, 49891.00
466.8590, 49971.00
468.0450, 50254.00
469.2300, 50573.00
470.4150, 50319.00
471.6000, 50423.00
472.7840, 50127.00
473.9690, 50510.00
475.1530, 50429.00
476.3370, 50987.00
477.5210, 51413.00
478.7050, 50762.00
479.8890, 50707.00
481.0730, 50498.00
482.2560, 51145.00
483.4390, 51174.00
484.6220, 51313.00
485.8050, 51081.00
486.9880, 51333.00
488.1710, 51548.00
489.3530, 51624.00
490.5360, 51679.00
491.7180, 51835.00
492.9000, 52053.00
494.0820, 52033.00
495.2630, 51962.00
496.4450, 52203.07
497.6260, 52101.39
498.8080, 52184.30
499.9890, 52109.94
501.1700, 52247.16
502.3500, 52312.06
503.5310, 52308.47
504.7110, 52031.40
505.8920, 52107.48
507.0720, 52042.05
508.2520, 51970.81
509.4320, 52096.62
510.6110, 51859.36
511.7910, 51499.00
512.9700, 51821.00
514.1490, 51694.00
515.3280, 51741.00
516.5070, 51813.00
517.6860, 52069.00
518.8650, 52202.00
520.0430, 52048.00
521.2210, 51956.28
522.3990, 52132.18
523.5770, 52235.74
524.7550, 52270.84
525.9330, 52032.43
527.1100, 52147.19
528.2870, 52120.41
529.4650, 52087.84
530.6420, 52252.30
531.8180, 52053.66
532.9950, 52215.00
534.1720, 52232.64
535.3480, 52316.05
536.5240, 52257.04
537.7000, 52242.01
538.8760, 52634.00
540.0520, 52554.00
541.2270, 52557.00
542.4030, 52975.00
543.5780, 52784.00
544.7530, 53512.00
545.9280, 53624.58
547.1030, 53434.95
548.2780, 54040.00
549.4520, 53885.00
550.6260, 53711.00
551.8010, 54166.83
552.9750, 54507.58
554.1480, 54711.00
555.3220, 55576.00
556.4960, 55895.00
557.6690, 55981.00
558.8420, 56215.00
560.0150, 56145.00
561.1880, 56475.00
562.3610, 56398.81
563.5340, 56751.82
564.7060, 57032.33
565.8780, 57244.38
567.0500, 57182.92
568.2220, 57474.64
569.3940, 57624.82
570.5660, 57924.00
571.7370, 58040.54
572.9090, 58092.60
574.0800, 58260.73
575.2510, 58360.39
576.4220, 58425.23
577.5920, 58365.82
578.7630, 58403.63
579.9330, 58252.00
581.1040, 58172.00
582.2740, 58065.00
583.4440, 57870.00
584.6130, 57801.88
585.7830, 57644.00
586.9520, 57679.00
588.1220, 57539.37
589.2910, 57856.33
590.4600, 58100.93
591.6290, 58277.07
592.7970, 58179.58
593.9660, 58435.39
595.1340, 58904.00
596.3020, 59456.00
597.4700, 59551.00
598.6380, 59926.34
599.8060, 60242.06
600.9730, 60427.00
602.1410, 60861.00
603.3080, 61251.00
604.4750, 61630.00
605.6420, 61738.62
606.8090, 61761.96
607.9750, 61878.00
609.1420, 61534.00
610.3080, 61636.00
611.4740, 61590.00
612.6400, 61739.00
613.8060, 61720.00
614.9720, 61594.00
616.1370, 61660.00
617.3020, 61314.00
618.4680, 61396.00
619.6330, 61268.00
620.7970, 61558.00
621.9620, 61688.00
623.1270, 61680.00
624.2910, 61850.00
625.4550, 61770.00
626.6190, 61953.00
627.7830, 62096.00
628.9470, 61998.00
630.1110, 62260.00
631.2740, 62272.00
632.4370, 62278.00
633.6000, 62313.71
634.7630, 62632.79
635.9260, 62879.51
637.0890, 63057.77
638.2510, 62962.39
639.4140, 63220.32
640.5760, 63336.57
641.7380, 63447.02
642.9000, 63754.53
644.0610, 63698.79
645.2230, 64003.17
646.3840, 64144.00
647.5460, 64325.00
648.7070, 64579.00
649.8670, 64699.00
651.0280, 64831.98
652.1890, 65051.00
653.3490, 64954.00
654.5090, 65154.00
655.6700, 65089.42
656.8300, 65283.00
657.9890, 65262.00
659.1490, 65404.87
660.3080, 65750.00
661.4680, 65608.00
662.6270, 65886.00
663.7860, 66082.00
664.9450, 65912.00
666.1030, 66379.00
667.2620, 66372.96
668.4200, 66812.00
669.5790, 66762.00
670.7370, 66684.00
671.8940, 67144.00
673.0520, 67692.00
674.2100, 68046.00
675.3670, 68535.00
676.5240, 68852.00
677.6810, 69436.00
678.8380, 69696.00
679.9950, 70383.00
681.1520, 70679.00
682.3080, 71198.00
683.4650, 71288.00
684.6210, 71849.00
685.7770, 72201.00
686.9320, 72727.00
688.0880, 72620.00
689.2440, 73480.00
690.3990, 73255.00
691.5540, 73744.00
692.7090, 73753.00
693.8640, 74246.00
695.0190, 73462.00
696.1730, 73248.00
697.3280, 73109.00
698.4820, 72997.00
699.6360, 72209.00
700.7900, 72039.00
701.9440, 71481.73
703.0970, 70989.00
704.2510, 70402.00
705.4040, 69769.00
706.5570, 69155.00
707.7100, 68620.00
708.8630, 68092.00
710.0150, 67507.34
711.1680, 66608.00
712.3200, 66185.00
713.4720, 65859.00
714.6240, 64793.00
715.7760, 64441.00
716.9280, 64089.00
718.0790, 63236.88
719.2310, 62698.71
720.3820, 61928.00
721.5330, 61323.00
722.6840, 60773.00
723.8350, 60354.00
724.9850, 59930.00
726.1360, 59057.00
727.2860, 58939.00
728.4360, 58290.00
729.5860, 57990.00
730.7360, 57620.00
731.8850, 57404.00
733.0350, 56875.00
734.1840, 56488.00
735.3330, 56204.11
736.4820, 55660.29
737.6310, 55527.02
738.7800, 55325.28
739.9280, 54850.25
741.0760, 54728.38
742.2250, 54464.78
743.3730, 54195.57
744.5200, 54123.61
745.6680, 53688.34
746.8160, 53613.07
747.9630, 53394.28
749.1100, 53241.27
750.2570, 52945.84
751.4040, 52694.40
752.5510, 52639.00
753.6980, 52564.00
754.8440, 52333.00
755.9900, 52202.00
757.1360, 52191.00
758.2820, 52104.00
759.4280, 51963.00
760.5740, 51985.00
761.7190, 51666.00
762.8640, 51590.00
764.0100, 51809.00
765.1550, 51736.15
766.2990, 51490.00
767.4440, 51795.00
768.5890, 51685.00
769.7330, 51317.00
770.8770, 51591.00
772.0210, 51392.00
773.1650, 51471.00
774.3090, 51200.00
775.4520, 51556.00
776.5960, 51439.00
777.7390, 51512.00
778.8820, 51106.00
780.0250, 51301.00
781.1670, 51131.00
782.3100, 51156.00
783.4520, 51327.00
784.5950, 51319.00
785.7370, 51389.34
786.8790, 51266.84
788.0210, 51360.84
789.1620, 51386.38
790.3040, 51138.42
791.4450, 51243.63
792.5860, 51207.31
793.7270, 51165.18
794.8680, 51320.11
796.0090, 51111.92
797.1490, 51263.71
798.2890, 51271.81
799.4300, 51345.68
800.5700, 51277.13
801.7090, 51252.57
802.8490, 51370.46
803.9890, 51409.48
805.1280, 51324.54
806.2670, 51402.58
807.4060, 51189.42
808.5450, 51231.79
809.6840, 51384.42
810.8230, 51306.64
811.9610, 51387.28
813.0990, 51376.59
814.2370, 51346.95
815.3750, 51311.51
816.5130, 51345.16
817.6510, 51271.62
818.7880, 51430.09
819.9250, 51444.87
821.0630, 51525.42
822.1990, 51463.55
823.3360, 51445.67
824.4730, 51570.25
825.6090, 51615.93
826.7460, 51537.67
827.8820, 51157.00
829.0180, 51427.00
830.1540, 51406.00
831.2890, 51871.00
832.4250, 51568.00
833.5600, 50942.18
834.6960, 51094.24
835.8310, 51173.96
836.9660, 51185.22
838.1000, 50922.98
839.2350, 51013.91
840.3690, 50963.31
841.5030, 50906.91
842.6380, 51047.55
843.7710, 50825.11
844.9050, 50962.63
846.0390, 50956.46
847.1720, 51016.06
848.3060, 50949.77
849.4390, 51114.64
850.5720, 51207.16
851.7040, 51231.22
852.8370, 50981.78
853.9700, 51085.51
855.1020, 51047.70
856.2340, 51004.10
857.3660, 51157.54
858.4980, 50947.88
859.6300, 51173.40
860.7610, 51022.00
861.8920, 51298.00
863.0240, 51399.00
864.1550, 51551.00
865.2850, 51436.00
866.4160, 51562.39
867.5470, 51434.00
868.6770, 51642.62
869.8070, 51675.00
870.9370, 51709.00
872.0670, 51695.00
873.1970, 51701.00
874.3270, 51733.08
875.4560, 51770.70
876.5850, 51818.00
877.7140, 51863.00
878.8430, 51963.00
879.9720, 51962.08
881.1010, 51936.00
882.2290, 51750.29
883.3570, 51970.21
884.4860, 52117.84
885.6140, 52196.96
886.7410, 52002.53
887.8690, 52161.32
888.9960, 52178.52
890.1240, 52189.97
891.2510, 52398.42
892.3780, 52243.77
893.5050, 52449.09
894.6320, 52510.72
895.7580, 52638.06
896.8840, 52623.00
898.0110, 52651.97
899.1370, 52823.35
900.2620, 52915.80
901.3880, 52884.34
902.5140, 53015.86
903.6390, 52856.13
904.7640, 52951.94
905.8890, 53158.00
907.0140, 53133.66
908.1390, 53267.73
909.2640, 53341.48
910.3880, 53140.96
911.5120, 53417.33
912.6360, 53487.45
913.7600, 53345.82
914.8840, 53591.61
916.0080, 53709.20
917.1310, 53553.20
918.2550, 53750.47
919.3780, 53806.11
920.5010, 53855.95
921.6230, 54102.76
922.7460, 53986.54
923.8690, 54230.31
924.9910, 54330.29
926.1130, 54496.04
927.2350, 54519.38
928.3570, 54466.00
929.4790, 54607.00
930.6000, 54736.27
931.7220, 54993.00
932.8430, 55028.16
933.9640, 55417.45
935.0850, 55734.39
936.2050, 55982.67
937.3260, 55957.64
938.4460, 56285.59
939.5660, 56472.00
940.6870, 56652.81
941.8060, 57030.28
942.9260, 57044.83
944.0460, 57419.36
945.1650, 57695.00
946.2840, 57994.02
947.4040, 58437.00
948.5220, 58770.00
949.6410, 59274.00
950.7600, 59690.00
951.8780, 60525.00
952.9970, 60801.00
954.1150, 62042.00
955.2330, 62646.00
956.3500, 63152.00
957.4680, 63989.00
958.5860, 64497.00
959.7030, 65340.00
960.8200, 66753.00
961.9370, 67853.00
963.0540, 68593.00
964.1710, 70275.00
965.2870, 71624.00
966.4030, 73524.00
967.5200, 76609.00
968.6360, 78664.00
969.7510, 81581.00
970.8670, 85399.00
971.9830, 89640.00
973.0980, 93929.00
974.2130, 100257.0
975.3280, 107081.0
976.4430, 114716.0
977.5580, 123917.0
978.6730, 133714.0
979.7870, 143366.0
980.9010, 153520.0
982.0150, 161995.0
983.1290, 169446.0
984.2430, 172553.0
985.3560, 173674.0
986.4700, 171275.0
987.5830, 164553.0
988.6960, 155894.0
989.8090, 144249.0
990.9220, 132390.0
992.0350, 120848.0
993.1470, 110390.0
994.2590, 100685.0
995.3720, 92883.00
996.4830, 87014.00
997.5950, 81999.00
998.7070, 78681.00
999.8180, 75388.00
1000.930, 73394.00
1002.041, 71800.00
1003.152, 70644.00
1004.263, 69543.13
1005.373, 68698.00
1006.484, 67917.48
1007.594, 67287.00
1008.704, 66838.00
1009.815, 66500.00
1010.924, 66358.00
1012.034, 66170.00
1013.144, 66133.00
1014.253, 65924.30
1015.362, 65884.45
1016.471, 65631.00
1017.580, 65868.00
1018.689, 65859.00
1019.797, 66048.00
1020.906, 65984.68
1022.014, 65782.00
1023.122, 65839.00
1024.230, 65818.00
1025.338, 65776.00
1026.445, 65907.00
1027.553, 66232.00
1028.660, 66067.00
1029.767, 66320.00
1030.874, 66013.00
1031.981, 66056.00
1033.088, 66250.00
1034.194, 66445.00
1035.300, 66569.00
1036.406, 66562.71
1037.512, 66288.16
1038.618, 66367.63
1039.724, 66378.65
1040.829, 66116.16
1041.935, 66206.84
1043.040, 66156.01
1044.145, 66099.36
1045.250, 66239.77
1046.354, 66017.08
1047.459, 66154.36
1048.563, 66260.00
1049.667, 66112.00
1050.771, 66222.24
1051.875, 66230.00
1052.979, 66241.00
1054.082, 66142.00
1055.186, 66155.00
1056.289, 66167.00
1057.392, 66190.00
1058.495, 66022.70
1059.598, 66088.43
1060.700, 66108.86
1061.803, 66087.73
1062.905, 65820.09
1064.007, 65932.55
1065.109, 65930.41
1066.210, 65949.33
1067.312, 66192.28
1068.413, 66098.95
1069.515, 66692.00
1070.616, 66527.11
1071.717, 66703.88
1072.817, 66818.45
1073.918, 66873.56
1075.019, 66729.36
1076.119, 66813.12
1077.219, 66787.57
1078.319, 66745.26
1079.419, 66824.48
1080.518, 66643.37
1081.618, 66694.86
1082.717, 66635.62
1083.816, 66406.38
1084.915, 66465.60
1086.014, 66461.33
1087.113, 66396.21
1088.211, 66130.55
1089.309, 66091.57
1090.408, 65941.82
1091.506, 65774.09
1092.603, 65726.70
1093.701, 65417.50
1094.799, 65339.61
1095.896, 65149.77
1096.993, 64990.67
1098.090, 64720.38
1099.187, 64465.95
1100.284, 64294.54
1101.380, 64055.51
1102.477, 63629.00
1103.573, 64178.00
1104.669, 63571.00
1105.765, 63483.00
1106.860, 63615.00
1107.956, 63264.00
1109.051, 63491.00
1110.147, 63496.15
1111.242, 63415.52
1112.336, 63758.00
1113.431, 63400.00
1114.526, 63611.00
1115.620, 63627.00
1116.714, 63524.02
1117.809, 63780.43
1118.902, 63975.14
1119.996, 64105.63
1121.090, 64174.46
1122.183, 64041.80
1123.277, 64135.00
1124.370, 64116.73
1125.463, 64079.54
1126.555, 64161.79
1127.648, 63981.49
1128.740, 64031.74
1129.833, 63969.02
1130.925, 63936.27
1132.017, 63791.51
1133.109, 63753.56
1134.200, 63636.34
1135.292, 63483.86
1136.383, 63434.66
1137.474, 63106.74
1138.565, 63443.00
1139.656, 63318.00
1140.747, 63231.00
1141.837, 62960.00
1142.927, 63016.00
1144.018, 62752.00
1145.108, 63027.00
1146.197, 62569.00
1147.287, 62485.00
1148.377, 62669.00
1149.466, 62483.00
1150.555, 62380.00
1151.644, 62490.00
1152.733, 62573.00
1153.822, 62456.67
1154.910, 62177.95
1155.999, 62259.31
1157.087, 62293.98
1158.175, 62142.16
1159.263, 62231.15
1160.350, 62223.62
1161.438, 62212.15
1162.525, 62335.02
1163.613, 62210.33
1164.700, 62331.07
1165.787, 62402.00
1166.873, 62518.00
1167.960, 62316.00
1169.046, 62706.00
1170.133, 62413.00
1171.219, 62256.00
1172.305, 62522.00
1173.390, 62097.00
1174.476, 62396.38
1175.561, 62596.00
1176.647, 62723.00
1177.732, 62715.00
1178.817, 62752.00
1179.901, 63021.00
1180.986, 62731.00
1182.070, 62553.00
1183.155, 62879.00
1184.239, 62947.00
1185.323, 62920.00
1186.407, 62584.00
1187.490, 63016.00
1188.574, 63040.00
1189.657, 63458.00
1190.740, 63359.00
1191.823, 63386.00
1192.906, 63054.00
1193.988, 63791.00
1195.071, 63462.00
1196.153, 63531.00
1197.235, 63103.00
1198.317, 63716.00
1199.399, 63366.00
1200.481, 63359.00
1201.562, 63659.00
1202.644, 63715.00
1203.725, 63798.00
1204.806, 63891.00
1205.887, 63664.00
1206.967, 63764.00
1208.048, 63777.00
1209.128, 63549.00
1210.208, 63930.00
1211.289, 63908.00
1212.368, 63663.00
1213.448, 63931.00
1214.528, 64082.00
1215.607, 64135.00
1216.686, 63936.00
1217.765, 64596.00
1218.844, 64032.00
1219.923, 64237.00
1221.001, 64793.00
1222.080, 64214.00
1223.158, 64070.00
1224.236, 64259.00
1225.314, 64137.00
1226.392, 64463.00
1227.469, 64463.00
1228.547, 64128.00
1229.624, 64392.00
1230.701, 64687.00
1231.778, 64339.00
1232.855, 64772.00
1233.931, 64566.00
1235.008, 64363.00
1236.084, 64715.00
1237.160, 64950.00
1238.236, 64605.00
1239.312, 64909.00
1240.387, 65112.00
1241.463, 64861.00
1242.538, 65140.00
1243.613, 65070.00
1244.688, 64941.00
1245.763, 65451.00
1246.837, 64989.00
