##NAMES=Volaschioite
##RRUFFID=R130078
##IDEAL CHEMISTRY=Fe^3+^_4_(S^6+^O_4_)O_2_(OH)_6_&#183;2H_2_O
##LOCALITY=Fornovolasco, Apuan Alps, Tuscany, Italy
##OWNER=Cristian Biagioni
##SOURCE=Cristian Biagioni
##DESCRIPTION=Radial aggregates of yellowish-orange, transparent bladed crystals. Associated with pyrite and iron oxyhydroxides. Data from Biagioni et al (2011)
##STATUS=The identification of this mineral has been confirmed by X-ray diffraction and chemical analysis
##URL=rruff.info/R130078
##MEASURED CHEMISTRY=Fe_4.16_(SO_4_)_0.92_O_2.32_(OH)_6_Â·2H_2_O
98.0428, 585.095
98.8168, 630.679
99.5908, 672.558
100.365, 712.487
101.139, 758.486
101.913, 784.629
102.687, 801.33
103.461, 815.97
104.235, 820.822
105.009, 815.789
105.783, 798.61
106.557, 787.85
107.331, 760.509
108.105, 720.19
108.879, 701.838
109.653, 672.133
110.427, 640.168
111.201, 620.629
111.975, 602.695
112.749, 590.003
113.523, 585.815
114.297, 575.788
115.071, 570.139
115.845, 569.966
116.618, 578.358
117.392, 581.883
118.166, 585.435
118.94, 600.104
119.714, 623.962
120.488, 650.021
121.262, 675.068
122.036, 690.67
122.81, 703.678
123.584, 715.266
124.358, 734.14
125.132, 740.004
125.906, 738.307
126.68, 738.307
127.454, 742.122
128.228, 748.027
129.002, 755.72
129.776, 750.128
130.55, 745.025
131.324, 742.022
132.098, 739.219
132.872, 738.587
133.646, 736.387
134.42, 721.883
135.194, 717.924
135.968, 718.404
136.742, 721.205
137.516, 724.991
138.29, 730.724
139.064, 737.551
139.838, 729.632
140.612, 723.165
141.386, 715.127
142.16, 697.588
142.934, 682.413
143.708, 666.845
144.482, 649.302
145.256, 639.553
146.03, 626.208
146.804, 609.357
147.578, 600.932
148.352, 598.458
149.126, 599.712
149.9, 602.859
150.674, 591.092
151.448, 578.296
152.222, 569.866
152.996, 562.801
153.77, 556.16
154.544, 550.594
155.318, 551.297
156.092, 551.388
156.866, 555.117
157.64, 569.878
158.414, 580.511
159.188, 599.817
159.962, 632.352
160.736, 664.002
161.51, 695.039
162.284, 726.527
163.058, 763.105
163.832, 818.676
164.606, 869.22
165.38, 892.656
166.154, 927.805
166.928, 951.587
167.702, 959.711
168.476, 947.04
169.25, 927.312
170.024, 899.748
170.798, 858.204
171.572, 812.818
172.346, 770.509
173.12, 735.293
173.894, 709.421
174.668, 679.05
175.441, 646.309
176.215, 630.787
176.989, 614.79
177.763, 597.963
178.537, 579.489
179.311, 574.981
180.085, 568.241
180.859, 555.828
181.633, 557.905
182.407, 554.481
183.181, 549.641
183.955, 554.578
184.729, 553.366
185.503, 552.356
186.277, 555.178
187.051, 558.664
187.825, 562.985
188.599, 568.611
189.373, 579.198
190.147, 588.677
190.921, 597.13
191.695, 604.19
192.469, 602.189
193.243, 601.147
194.017, 602.771
194.791, 585.089
195.565, 576.483
196.339, 569.447
197.113, 545.301
197.887, 528.971
198.661, 519.775
199.435, 519.068
200.209, 508.295
200.983, 496.633
201.757, 484.704
202.531, 473.376
203.305, 470.63
204.079, 467.66
204.853, 456.329
205.627, 450.046
206.401, 443.689
207.175, 437.345
207.949, 441.59
208.723, 444.449
209.497, 444.663
210.271, 438.911
211.045, 437.352
211.819, 436.942
212.593, 436.982
213.367, 441.102
214.141, 444.878
214.915, 446.949
215.689, 442.694
216.463, 443.963
217.237, 445.23
218.011, 443.811
218.785, 445.203
219.559, 441.978
220.333, 436.791
221.107, 443.178
221.881, 442.832
222.655, 440.482
223.429, 439.062
224.203, 441.541
224.977, 442.332
225.751, 442.298
226.525, 452.964
227.299, 458.214
228.073, 460.835
228.847, 462.899
229.621, 474.362
230.395, 481.154
231.169, 481.367
231.943, 484.728
232.717, 492.413
233.491, 502.189
234.264, 511.443
235.038, 518.286
235.812, 527.486
236.586, 540.196
237.36, 550.165
238.134, 568.087
238.908, 587.147
239.682, 593.558
240.456, 603.451
241.23, 619.407
242.004, 642.765
242.778, 647.034
243.552, 657.323
244.326, 671.341
245.1, 684.414
245.874, 698.429
246.648, 714.086
247.422, 731.911
248.196, 741.299
248.97, 744.736
249.744, 745.069
250.518, 750.062
251.292, 750.073
252.066, 746.517
252.84, 739.382
253.614, 724.862
254.388, 706.731
255.162, 688.509
255.936, 682.085
256.71, 662.401
257.484, 643.555
258.258, 632.845
259.032, 615.21
259.806, 597.356
260.58, 580.228
261.354, 566.675
262.128, 552.01
262.902, 540.777
263.676, 536.036
264.45, 533.117
265.224, 522.541
265.998, 509.729
266.772, 514.733
267.546, 515.333
268.32, 512.228
269.094, 505.078
269.868, 503.091
270.642, 505.182
271.416, 508.299
272.19, 502.577
272.964, 496.703
273.738, 492.491
274.512, 491.058
275.286, 486.809
276.06, 484.73
276.834, 484.035
277.608, 482.603
278.382, 484.576
279.156, 485.13
279.93, 482.156
280.704, 477.855
281.478, 477.02
282.252, 478.615
283.026, 480.832
283.8, 481.831
284.574, 484.945
285.348, 491.274
286.122, 492.446
286.896, 501.433
287.67, 513.223
288.444, 518.957
289.218, 528.079
289.992, 538.932
290.766, 551.21
291.54, 564.834
292.314, 575.174
293.087, 584.357
293.861, 595.116
294.635, 605.757
295.409, 618.845
296.183, 634.09
296.957, 643.431
297.731, 649.367
298.505, 656.992
299.279, 672.065
300.053, 670.198
300.827, 668.268
301.601, 668.12
302.375, 669.558
303.149, 669.942
303.923, 669.965
304.697, 670.033
305.471, 684.4
306.245, 695.872
307.019, 710.635
307.793, 755.291
308.567, 789.246
309.341, 824.391
310.115, 866.08
310.889, 914.488
311.663, 970.704
312.437, 1033.34
313.211, 1101.02
313.985, 1163.3
314.759, 1214.58
315.533, 1251.95
316.307, 1263.48
317.081, 1257.79
317.855, 1238.45
318.629, 1206.03
319.403, 1148.53
320.177, 1090.54
320.951, 1034.53
321.725, 974.699
322.499, 914.336
323.273, 864.198
324.047, 834.065
324.821, 801.716
325.595, 768.851
326.369, 737.947
327.143, 717.222
327.917, 694.591
328.691, 673.269
329.465, 654.675
330.239, 642.254
331.013, 635.477
331.787, 627.996
332.561, 609.202
333.335, 594.966
334.109, 585.19
334.883, 578.458
335.657, 563.272
336.431, 556.344
337.205, 546.399
337.979, 524.006
338.753, 519.447
339.527, 507.756
340.301, 491.196
341.075, 480.342
341.849, 474.133
342.623, 469.968
343.397, 467.021
344.171, 463.406
344.945, 455.53
345.719, 445.987
346.493, 438.032
347.267, 430.067
348.041, 425.418
348.815, 423.724
349.589, 420.323
350.363, 422.702
351.137, 422.675
351.91, 415.064
352.684, 419.934
353.458, 420.19
354.232, 416.119
355.006, 408.002
355.78, 413.456
356.554, 414.701
357.328, 408.893
358.102, 410.804
358.876, 414.946
359.65, 417.42
360.424, 414.518
361.198, 417.907
361.972, 422.409
362.746, 426.241
363.52, 424.79
364.294, 424.553
365.068, 427.106
365.842, 432.955
366.616, 439.49
367.39, 443.496
368.164, 444.358
368.938, 440.727
369.712, 446.517
370.486, 454.483
371.26, 462.791
372.034, 467.151
372.808, 468.615
373.582, 474.54
374.356, 487.459
375.13, 496.908
375.904, 502.471
376.678, 507.306
377.452, 514.996
378.226, 518.288
379, 527.534
379.774, 540.2
380.548, 543.661
381.322, 553.057
382.096, 560.286
382.87, 563.283
383.644, 582.622
384.418, 584.526
385.192, 583.228
385.966, 594.146
386.74, 600.985
387.514, 609.947
388.288, 618.883
389.062, 618.883
389.836, 627.95
390.61, 637.114
391.384, 643.623
392.158, 649.458
392.932, 659.312
393.706, 676.124
394.48, 703.813
395.254, 714.898
396.028, 733.691
396.802, 756.835
397.576, 772.894
398.35, 801.192
399.124, 833.656
399.898, 868.643
400.672, 908.077
401.446, 939.014
402.22, 967.802
402.994, 998.439
403.768, 1046.43
404.542, 1079.29
405.316, 1103.47
406.09, 1130.07
406.864, 1137.09
407.638, 1144.85
408.412, 1150.19
409.186, 1122.08
409.96, 1098.19
410.734, 1073.43
411.508, 1045.7
412.281, 1019.28
413.055, 981.601
413.829, 939.337
414.603, 899.101
415.377, 870.815
416.151, 835.178
416.925, 797.381
417.699, 774.693
418.473, 744.638
419.247, 721.133
420.021, 706.884
420.795, 695.901
421.569, 685.585
422.343, 675.437
423.117, 665.264
423.891, 661.602
424.665, 664.647
425.439, 670.081
426.213, 672.279
426.987, 666.405
427.761, 672.633
428.535, 688.125
429.309, 699.12
430.083, 708.916
430.857, 720.831
431.631, 736.15
432.405, 757.416
433.179, 775.463
433.953, 797.763
434.727, 829.054
435.501, 854.03
436.275, 879.939
437.049, 908.184
437.823, 940.997
438.597, 969.933
439.371, 1002.3
440.145, 1035.77
440.919, 1062.1
441.693, 1113.25
442.467, 1153.96
443.241, 1180.55
444.015, 1224.31
444.789, 1258.31
445.563, 1288.32
446.337, 1316.92
447.111, 1343.26
447.885, 1367.7
448.659, 1386.56
449.433, 1395.39
450.207, 1406.46
450.981, 1416.66
451.755, 1420.2
452.529, 1404.74
453.303, 1375.69
454.077, 1354.45
454.851, 1339.6
455.625, 1313.09
456.399, 1282.73
457.173, 1247.95
457.947, 1209.93
458.721, 1181.94
459.495, 1137.11
460.269, 1090.46
461.043, 1050.96
461.817, 1024.42
462.591, 992.484
463.365, 956.009
464.139, 915.458
464.913, 887.551
465.687, 861.331
466.461, 832.555
467.235, 793.461
468.009, 770.012
468.783, 742.968
469.557, 713.621
470.331, 696.649
471.104, 671.798
471.878, 649.357
472.652, 630.975
473.426, 607.352
474.2, 593.808
474.974, 581.437
475.748, 566.135
476.522, 552.103
477.296, 536.008
478.07, 521.716
478.844, 512.569
479.618, 508.831
480.392, 504.188
481.166, 496.967
481.94, 484.674
482.714, 480.404
483.488, 470.676
484.262, 457.977
485.036, 449.79
485.81, 450.752
486.584, 449.461
487.358, 444.673
488.132, 438.277
488.906, 432.276
489.68, 427.057
490.454, 422.315
491.228, 415.49
492.002, 409.934
492.776, 406.954
493.55, 406.458
494.324, 399.786
495.098, 401.181
495.872, 402.28
496.646, 397.783
497.42, 391.624
498.194, 386.626
498.968, 386.345
499.742, 394.493
500.516, 394.271
501.29, 394.13
502.064, 394.342
502.838, 395.084
503.612, 392.642
504.386, 390.24
505.16, 390.177
505.934, 396.858
506.708, 399.873
507.482, 398.582
508.256, 396.856
509.03, 405.768
509.804, 404.818
510.578, 404.694
511.352, 406.799
512.126, 408.285
512.9, 411.731
513.674, 414.119
514.448, 415.151
515.222, 418.124
515.996, 416.646
516.77, 419.054
517.544, 427.416
518.318, 430.39
519.092, 431.906
519.866, 433.124
520.64, 434.708
521.414, 437.684
522.188, 437.982
522.962, 436.729
523.736, 434.781
524.51, 437.017
525.284, 434.105
526.058, 433.299
526.832, 440.698
527.606, 439.209
528.38, 439.696
529.154, 439.165
529.927, 434.375
530.701, 435.014
531.475, 428.619
532.249, 420.665
533.023, 418.585
533.797, 414.93
534.571, 410.283
535.345, 407.47
536.119, 411.017
536.893, 402.873
537.667, 392.148
538.441, 383.15
539.215, 382.763
539.989, 377.267
540.763, 372.582
541.537, 369.34
542.311, 367.688
543.085, 362.825
543.859, 354.673
544.633, 345.52
545.407, 340.993
546.181, 341.119
546.955, 336.173
547.729, 327.899
548.503, 325.182
549.277, 322.877
550.051, 318.649
550.825, 312.592
551.599, 306.221
552.373, 302.741
553.147, 299.357
553.921, 296.837
554.695, 299.715
555.469, 296.982
556.243, 293.621
557.017, 290.308
557.791, 285.527
558.565, 284.766
559.339, 283.252
560.113, 280.766
560.887, 280.766
561.661, 275.135
562.435, 271.016
563.209, 270.84
563.983, 277.281
564.757, 268.383
565.531, 264.234
566.305, 266.832
567.079, 263.584
567.853, 264.905
568.627, 264.917
569.401, 262.41
570.175, 258.613
570.949, 259.851
571.723, 259.853
572.497, 258.783
573.271, 263.601
574.045, 261.895
574.819, 260.778
575.593, 261.795
576.367, 264.093
577.141, 263.829
577.915, 261.934
578.689, 259.06
579.463, 256.806
580.237, 257.927
581.011, 257.213
581.785, 255.326
582.559, 258.333
583.333, 258.917
584.107, 260.584
584.881, 262.408
585.655, 259.399
586.429, 254.832
587.203, 253.423
587.977, 254.298
588.75, 252.793
589.524, 253.798
590.298, 254.401
591.072, 253.729
591.846, 250.717
592.62, 254.404
593.394, 256.77
594.168, 257.886
594.942, 260.146
595.716, 256.904
596.49, 256.224
597.264, 259.094
598.038, 265.884
598.812, 262.234
599.586, 260.952
600.36, 261.706
601.134, 262.46
601.908, 264.018
602.682, 263.194
603.456, 262.521
604.23, 265.542
605.004, 260.882
605.778, 259.681
606.552, 261.174
607.326, 264.188
608.1, 262.997
608.874, 258.519
609.648, 254.079
610.422, 252.584
611.196, 251.597
611.97, 252.373
612.744, 252.44
613.518, 250.36
614.292, 251.276
615.066, 250.406
615.84, 247.645
616.614, 243.903
617.388, 248.21
618.162, 247.471
618.936, 245.201
619.71, 243.587
620.484, 246.614
621.258, 246.405
622.032, 246.611
622.806, 247.641
623.58, 246.127
624.354, 244.247
625.128, 242.13
625.902, 240.606
626.676, 242.12
627.45, 239.548
628.224, 239.841
628.998, 241.257
629.772, 237.468
630.546, 238.143
631.32, 241.745
632.094, 244.525
632.868, 240.735
633.642, 239.85
634.416, 242.007
635.19, 244.089
635.964, 242.596
636.738, 248.618
637.512, 246.879
638.286, 245.472
639.06, 250.349
639.834, 246.921
640.608, 249.335
641.382, 253.892
642.156, 257.837
642.93, 256.156
643.704, 256.976
644.478, 256.73
645.252, 255.402
646.026, 259.52
646.799, 254.518
647.573, 253.568
648.347, 257.139
649.121, 256.772
649.895, 258.751
650.669, 260.164
651.443, 261.118
652.217, 262.64
652.991, 265.4
653.765, 264.075
654.539, 262.887
655.313, 267.448
656.087, 274.106
656.861, 275.691
657.635, 274.93
658.409, 274.445
659.183, 278.486
659.957, 280.653
660.731, 284.15
661.505, 290.073
662.279, 294.728
663.053, 297.476
663.827, 296.379
664.601, 293.711
665.375, 299.603
666.149, 307.002
666.923, 310.365
667.697, 311.686
668.471, 317.024
669.245, 320.221
670.019, 326.608
670.793, 334.041
671.567, 339.402
672.341, 351.627
673.115, 358.543
673.889, 364.986
674.663, 373.842
675.437, 375.371
676.211, 380.986
676.985, 391.933
677.759, 406.682
678.533, 415.093
679.307, 416.46
680.081, 430.193
680.855, 451.108
681.629, 454.047
682.403, 473.137
683.177, 489.159
683.951, 501.071
684.725, 510.416
685.499, 518.834
686.273, 533.502
687.047, 547.814
687.821, 557
688.595, 571.548
689.369, 579.111
690.143, 588.701
690.917, 602.667
691.691, 612.611
692.465, 625.791
693.239, 628.793
694.013, 627.456
694.787, 642.782
695.561, 641.79
696.335, 643.562
697.109, 646.957
697.883, 648.488
698.657, 650.021
699.431, 640.636
700.205, 629.832
700.979, 624.221
701.753, 623.454
702.527, 617.206
703.301, 609.884
704.075, 601.486
704.849, 586.908
705.622, 581.16
706.396, 578.07
707.17, 572.335
707.944, 556.982
708.718, 546.877
709.492, 538.552
710.266, 527.813
711.04, 512.399
711.814, 506.254
712.588, 497.896
713.362, 486.979
714.136, 474.691
714.91, 466.24
715.684, 460.442
716.458, 448.529
717.232, 434.269
718.006, 427.342
718.78, 426.251
719.554, 418.783
720.328, 407.446
721.102, 396.039
721.876, 397.316
722.65, 397.022
723.424, 393.732
724.198, 386.135
724.972, 371.498
725.746, 368.311
726.52, 369.433
727.294, 369.138
728.068, 359.889
728.842, 360.194
729.616, 351.987
730.39, 347.013
731.164, 352.248
731.938, 338.84
732.712, 334.764
733.486, 330.954
734.26, 327.678
735.034, 336.463
735.808, 331.135
736.582, 329.293
737.356, 328.118
738.13, 320.824
738.904, 320.824
739.678, 316.415
740.452, 312.372
741.226, 310.853
742, 306.22
742.774, 304.783
743.548, 304.2
744.322, 302.397
745.096, 296.217
745.87, 303.922
746.644, 303.858
747.418, 299.554
748.192, 296.095
748.966, 296.095
749.74, 285.945
750.514, 281.184
751.288, 284.443
752.062, 282.896
752.836, 279.274
753.61, 277.757
754.384, 278.028
755.158, 278.775
755.932, 278.002
756.706, 276.428
757.48, 271.667
758.254, 264.92
759.028, 268.79
759.802, 269.365
760.576, 269.8
761.35, 268.476
762.124, 261.508
762.898, 262.286
763.672, 259.368
764.445, 259.371
765.219, 264.803
765.993, 257.832
766.767, 255.23
767.541, 256.108
768.315, 257.707
769.089, 254.603
769.863, 255.043
770.637, 252.666
771.411, 252.296
772.185, 257.267
772.959, 257.477
773.733, 255.031
774.507, 253.917
775.281, 255.182
776.055, 258.124
776.829, 253.928
777.603, 252.307
778.377, 252.383
779.151, 252.15
779.925, 246.71
780.699, 248.039
781.473, 249.864
782.247, 249.792
783.021, 247.46
783.795, 239.315
784.569, 235.802
785.343, 237.006
786.117, 241.062
786.891, 237.946
787.665, 237.925
788.439, 236.612
789.213, 234.739
789.987, 237.852
790.761, 234.37
791.535, 235.981
792.309, 239.079
793.083, 239.086
793.857, 231.3
794.631, 233.581
795.405, 235.416
796.179, 234.637
796.953, 233.858
797.727, 230.653
798.501, 230.104
799.275, 231.499
800.049, 233.49
800.823, 232.709
801.597, 230.457
802.371, 229.735
803.145, 230.723
803.919, 232.284
804.693, 229.509
805.467, 229.222
806.241, 229.671
807.015, 229.221
807.789, 226.097
808.563, 224.322
809.337, 222.758
810.111, 224.827
810.885, 234.68
811.659, 226.865
812.433, 226.05
813.207, 225.5
813.981, 223.536
814.755, 225.885
815.529, 228.231
816.303, 229.333
817.077, 228.197
817.851, 224.81
818.625, 227.944
819.399, 224.207
820.173, 220.394
820.947, 219.814
821.721, 224.51
822.495, 223.158
823.268, 223.325
824.042, 224.206
824.816, 223.707
825.59, 215.094
826.364, 217.926
827.138, 220.341
827.912, 220.883
828.686, 220.97
829.46, 223.656
830.234, 218.957
831.008, 217.199
831.782, 221.059
832.556, 224.697
833.33, 218.354
834.104, 219.561
834.878, 222.942
835.652, 222.675
836.426, 220.274
837.2, 217.91
837.974, 215.556
838.748, 215.341
839.522, 220.282
840.296, 218.71
841.07, 220.06
841.844, 220.237
842.618, 218.11
843.392, 216.539
844.166, 219.339
844.94, 219.909
845.714, 220.327
846.488, 222.424
847.262, 222.424
848.036, 221.763
848.81, 220.123
849.584, 218.987
850.358, 220.37
851.132, 214.855
851.906, 218.196
852.68, 220.216
853.454, 218.535
854.228, 219.324
855.002, 218.892
855.776, 222.465
856.55, 225.087
857.324, 223.185
858.098, 219.242
858.872, 220.103
859.646, 219.781
860.42, 219.422
861.194, 221.468
861.968, 223.046
862.742, 223.365
863.516, 222.114
864.29, 221.191
865.064, 224.348
865.838, 217.3
866.612, 217.086
867.386, 219.223
868.16, 221.339
868.934, 224.498
869.708, 223.998
870.482, 221.864
871.256, 220.465
872.03, 220.848
872.804, 218.478
873.578, 225.551
874.352, 225.694
875.126, 222.526
875.9, 224.001
876.674, 224.001
877.448, 224.329
878.222, 223.239
878.996, 222.17
879.77, 224.491
880.544, 221.783
881.318, 222.276
882.091, 222.712
882.865, 221.958
883.64, 221.334
884.414, 219.034
885.188, 222.151
885.961, 226.237
886.735, 227.241
887.509, 222.485
888.283, 224.187
889.057, 227.027
889.831, 228.336
890.605, 226.942
891.379, 226.942
892.153, 230.346
892.927, 229.992
893.701, 227.558
894.475, 226.884
895.249, 227.678
896.023, 229.53
896.797, 231.78
897.571, 233.226
898.345, 232.214
899.119, 225.068
899.893, 226.537
900.667, 231.327
901.441, 235.15
902.215, 233.945
902.989, 235.527
903.763, 236.529
904.537, 236.178
905.311, 236.679
906.085, 244.505
906.859, 237.129
907.633, 238.154
908.407, 238.611
909.181, 234.973
909.955, 236.564
910.729, 241.126
911.503, 242.899
912.277, 243.095
913.051, 243.87
913.825, 248.643
914.599, 243.782
915.373, 245.87
916.147, 248.477
916.921, 245.621
917.695, 244.824
918.469, 245.648
919.243, 251.532
920.017, 256.146
920.791, 254.492
921.565, 258.405
922.339, 260.318
923.113, 261.912
923.887, 261.873
924.661, 259.953
925.435, 267.922
926.209, 267.129
926.983, 270.882
927.757, 276.425
928.531, 276.946
929.305, 274.554
930.079, 274.818
930.853, 277.246
931.627, 281.242
932.401, 285.49
933.175, 283.094
933.949, 281.293
934.723, 282.405
935.497, 284.833
936.271, 285.751
937.045, 288.271
937.819, 291.998
938.593, 293.73
939.367, 293.478
940.141, 292.971
940.915, 296.682
941.689, 295.408
942.463, 293.008
943.237, 290.885
944.01, 289.616
944.784, 292.02
945.558, 289.191
946.332, 290.428
947.106, 291.965
947.88, 285.721
948.654, 281.719
949.428, 288.096
950.202, 290.412
950.976, 287.23
951.75, 283.035
952.524, 286.239
953.298, 282.904
954.072, 278.612
954.846, 277.279
955.62, 280.788
956.394, 279.013
957.168, 276.709
957.942, 277.633
958.716, 277.723
959.49, 272.68
960.264, 274.286
961.038, 274.518
961.812, 272.145
962.586, 269.379
963.36, 268.955
964.134, 271.364
964.908, 269.568
965.682, 272.078
966.456, 274.808
967.23, 274.093
968.004, 278.915
968.778, 276.282
969.552, 276.631
970.326, 280.355
971.1, 285.232
971.874, 286.282
972.648, 280.444
973.422, 278.365
974.196, 276.965
974.97, 275.334
975.744, 280.378
976.518, 283.69
977.292, 286.343
978.066, 284.007
978.84, 278.121
979.614, 278.927
980.388, 282.104
981.162, 279.237
981.936, 276.328
982.71, 275.107
983.484, 272.706
984.258, 271.313
985.032, 275.381
985.806, 278.433
986.58, 278.283
987.354, 275.627
988.128, 269.085
988.902, 271.177
989.676, 273.815
990.45, 276.396
991.224, 280.263
991.998, 278.648
992.772, 281.895
993.546, 283.182
994.32, 284.178
