##NAMES=Weloganite
##RRUFFID=R050217
##IDEAL CHEMISTRY=Na_2_Sr_3_Zr^4+^(C^4+^O_3_)_6_&#183;3H_2_O
##LOCALITY=Francon Quarry, Montréal, Québec, Canada
##OWNER=RRUFF
##SOURCE=Marcus Origlieri
##DESCRIPTION=Tan colored tapered hexagonal single crystals
##STATUS=The identification of this mineral has been confirmed by X-ray diffraction and chemical analysis
##URL=rruff.info/R050217
##MEASURED CHEMISTRY=Na_2.00_(Sr_2.93_Ca_0.07_)_Σ=3_(Zr_0.90_Hf_0.10_)_Σ=1_(CO_3_)_6_·3H_2_O
##PIN_ID=M01339
##ORIENTATION=Laser parallel to (0 1 1). Fiducial mark perpendicular to laser is parallel to -a [-1 0 0]
64.63500, 10982.00
65.87000, 11238.00
67.10500, 11630.00
68.34000, 12114.00
69.57400, 12713.00
70.80900, 13659.00
72.04300, 14408.00
73.27700, 16047.00
74.51100, 17791.00
75.74500, 19520.00
76.97800, 21911.00
78.21200, 24404.00
79.44500, 27696.00
80.67800, 31295.00
81.91200, 34696.00
83.14400, 38825.00
84.37700, 42140.00
85.61000, 45696.00
86.84200, 49217.00
88.07500, 52358.00
89.30700, 55482.00
90.53900, 59325.00
91.77100, 63420.00
93.00200, 67315.00
94.23400, 70698.00
95.46500, 73248.00
96.69700, 75240.00
97.92800, 78074.00
99.15900, 80771.00
100.3900, 82253.00
101.6200, 85000.00
102.8510, 87331.00
104.0810, 89505.00
105.3120, 91518.00
106.5420, 92866.00
107.7720, 95162.00
109.0020, 97397.00
110.2310, 99069.00
111.4610, 99356.00
112.6900, 99479.00
113.9190, 100293.0
115.1480, 100128.1
116.3770, 101446.3
117.6060, 102475.3
118.8350, 103230.5
120.0630, 102891.6
121.2920, 103965.4
122.5200, 104472.8
123.7480, 104956.9
124.9760, 106228.9
126.2040, 106049.1
127.4310, 107308.1
128.6590, 107993.1
129.8860, 108940.5
131.1130, 108799.0
132.3400, 109686.0
133.5670, 110877.0
134.7940, 111412.0
136.0200, 111794.0
137.2470, 113866.0
138.4730, 114877.0
139.6990, 116062.0
140.9250, 117864.0
142.1510, 120045.0
143.3770, 121608.0
144.6020, 123912.0
145.8280, 125548.0
147.0530, 127720.0
148.2780, 129910.0
149.5030, 131712.0
150.7280, 133892.0
151.9520, 135316.0
153.1770, 136265.0
154.4010, 136685.0
155.6250, 136328.0
156.8490, 136240.0
158.0730, 135567.0
159.2970, 133699.0
160.5210, 131724.0
161.7440, 128689.0
162.9680, 126197.0
164.1910, 123663.0
165.4140, 121655.0
166.6370, 119418.0
167.8590, 117867.0
169.0820, 116600.0
170.3040, 115399.0
171.5270, 114946.0
172.7490, 113919.0
173.9710, 113485.0
175.1930, 112827.0
176.4140, 112083.0
177.6360, 111326.0
178.8570, 110868.0
180.0780, 110283.0
181.2990, 109783.0
182.5200, 109530.0
183.7410, 109313.0
184.9620, 109321.0
186.1820, 109424.0
187.4030, 108984.0
188.6230, 109650.0
189.8430, 109569.0
191.0630, 109729.0
192.2830, 110306.0
193.5020, 110829.0
194.7220, 111442.0
195.9410, 111869.3
197.1600, 112189.0
198.3790, 112629.0
199.5980, 113107.0
200.8170, 113274.0
202.0350, 113538.0
203.2540, 114188.0
204.4720, 114286.0
205.6900, 114891.0
206.9080, 115044.0
208.1260, 114887.0
209.3430, 115593.0
210.5610, 115611.0
211.7780, 115805.0
212.9960, 115891.0
214.2130, 116641.0
215.4290, 116650.0
216.6460, 117136.1
217.8630, 117206.0
219.0790, 117946.0
220.2960, 118105.0
221.5120, 118511.0
222.7280, 119224.1
223.9440, 120502.0
225.1590, 120617.0
226.3750, 121338.0
227.5900, 122104.0
228.8060, 122606.0
230.0210, 122949.0
231.2360, 123419.0
232.4510, 123473.0
233.6650, 123819.0
234.8800, 123431.0
236.0940, 123882.0
237.3080, 123446.0
238.5220, 123501.0
239.7360, 122962.0
240.9500, 122691.0
242.1640, 121844.0
243.3770, 121365.0
244.5910, 121133.0
245.8040, 120714.0
247.0170, 120359.0
248.2300, 119660.0
249.4420, 119089.0
250.6550, 119047.0
251.8670, 118657.0
253.0800, 118598.0
254.2920, 118818.0
255.5040, 118619.0
256.7160, 118740.0
257.9270, 118865.0
259.1390, 119228.0
260.3500, 119172.0
261.5610, 119168.0
262.7720, 119317.5
263.9830, 119203.0
265.1940, 119420.0
266.4050, 119516.0
267.6150, 119554.0
268.8260, 119353.0
270.0360, 119322.0
271.2460, 119435.0
272.4560, 119043.0
273.6650, 119340.0
274.8750, 119451.0
276.0840, 120050.0
277.2940, 119873.0
278.5030, 120251.0
279.7120, 120522.0
280.9200, 120307.0
282.1290, 120300.0
283.3380, 120406.0
284.5460, 120136.0
285.7540, 119921.0
286.9620, 120070.0
288.1700, 119700.3
289.3780, 119268.0
290.5860, 119281.0
291.7930, 118882.0
293.0000, 118772.0
294.2080, 118709.0
295.4150, 118558.0
296.6210, 118561.0
297.8280, 118747.0
299.0350, 118706.0
300.2410, 118720.0
301.4470, 118933.0
302.6530, 119512.0
303.8590, 120177.0
305.0650, 120682.0
306.2710, 121249.8
307.4760, 121652.0
308.6820, 122319.0
309.8870, 122832.0
311.0920, 123407.0
312.2970, 124080.2
313.5020, 125190.0
314.7060, 125418.0
315.9110, 125966.0
317.1150, 126641.0
318.3190, 126938.0
319.5230, 127739.0
320.7270, 127963.0
321.9300, 128562.0
323.1340, 128246.0
324.3370, 128456.7
325.5410, 128898.0
326.7440, 128401.0
327.9470, 128308.0
329.1490, 128380.0
330.3520, 127918.0
331.5550, 127909.0
332.7570, 127350.0
333.9590, 127608.0
335.1610, 127344.0
336.3630, 127118.0
337.5650, 127142.0
338.7660, 127357.0
339.9680, 127799.0
341.1690, 128383.0
342.3700, 128788.0
343.5710, 128917.0
344.7720, 130044.0
345.9720, 130222.0
347.1730, 131166.0
348.3730, 132170.0
349.5730, 133240.0
350.7730, 134450.0
351.9730, 135268.0
353.1730, 136512.0
354.3730, 137309.0
355.5720, 138062.0
356.7710, 138597.0
357.9710, 138937.0
359.1700, 139732.0
360.3680, 139184.0
361.5670, 139053.0
362.7660, 138955.0
363.9640, 139097.0
365.1620, 138520.0
366.3600, 138258.0
367.5580, 138403.0
368.7560, 136868.0
369.9540, 137104.0
371.1510, 136141.0
372.3480, 136044.0
373.5450, 135250.0
374.7420, 134584.0
375.9390, 133905.0
377.1360, 133076.0
378.3330, 133129.0
379.5290, 132266.0
380.7250, 132115.0
381.9210, 131578.0
383.1170, 131437.0
384.3130, 131477.0
385.5090, 130875.0
386.7040, 130829.0
387.8990, 130614.0
389.0950, 130285.0
390.2900, 130322.0
391.4850, 130348.0
392.6790, 131048.0
393.8740, 130958.0
395.0680, 131050.0
396.2620, 130345.0
397.4570, 130471.0
398.6510, 130848.0
399.8440, 131002.0
401.0380, 130994.0
402.2310, 131008.0
403.4250, 131185.0
404.6180, 131492.0
405.8110, 131491.0
407.0040, 131885.0
408.1970, 132103.0
409.3890, 132369.9
410.5820, 132250.0
411.7740, 132971.0
412.9660, 133215.0
414.1580, 133437.0
415.3500, 132788.0
416.5420, 133527.0
417.7330, 133981.0
418.9240, 133727.0
420.1160, 134397.0
421.3070, 134625.0
422.4980, 134775.0
423.6880, 134286.0
424.8790, 134981.0
426.0690, 134710.0
427.2600, 135588.0
428.4500, 135220.0
429.6400, 135864.0
430.8300, 136068.0
432.0190, 136435.0
433.2090, 136388.0
434.3980, 136885.0
435.5870, 137778.0
436.7760, 137449.0
437.9650, 137091.0
439.1540, 137459.0
440.3430, 138300.0
441.5310, 138074.0
442.7190, 138635.0
443.9080, 139064.0
445.0960, 138777.0
446.2830, 138876.0
447.4710, 139237.0
448.6590, 139720.0
449.8460, 139521.0
451.0330, 139920.0
452.2200, 140042.0
453.4070, 140745.0
454.5940, 140826.0
455.7800, 140787.0
456.9670, 141749.0
458.1530, 141928.0
459.3390, 141797.0
460.5250, 142230.0
461.7110, 142145.0
462.8970, 142704.0
464.0820, 143133.0
465.2680, 143036.0
466.4530, 143742.0
467.6380, 143324.0
468.8230, 144369.0
470.0080, 144117.0
471.1920, 144535.0
472.3770, 144429.0
473.5610, 145355.0
474.7450, 145243.0
475.9290, 145339.0
477.1130, 146673.0
478.2970, 145583.0
479.4800, 146648.0
480.6640, 146244.0
481.8470, 146893.0
483.0300, 146933.0
484.2130, 147612.0
485.3960, 147512.0
486.5780, 147581.0
487.7610, 148025.0
488.9430, 148293.0
490.1250, 148509.0
491.3070, 148690.0
492.4890, 149152.0
493.6710, 149290.8
494.8520, 150078.0
496.0340, 149565.0
497.2150, 150486.0
498.3960, 150302.0
499.5770, 150196.0
500.7570, 150502.0
501.9380, 151312.0
503.1180, 151576.0
504.2990, 151915.0
505.4790, 151802.0
506.6590, 152142.0
507.8390, 152364.0
509.0180, 153077.0
510.1980, 153313.0
511.3770, 153539.0
512.5560, 153273.0
513.7360, 154375.0
514.9140, 154319.0
516.0930, 155047.0
517.2720, 154748.0
518.4500, 155042.0
519.6290, 155110.0
520.8070, 156078.0
521.9850, 156085.0
523.1620, 156445.0
524.3400, 157407.0
525.5180, 156926.0
526.6950, 157821.0
527.8720, 157917.0
529.0490, 158123.0
530.2260, 159008.0
531.4030, 159046.0
532.5790, 158868.0
533.7560, 159186.0
534.9320, 159619.0
536.1080, 160069.0
537.2840, 160379.0
538.4600, 160605.0
539.6360, 160918.0
540.8110, 161175.0
541.9860, 161582.0
543.1620, 161148.0
544.3370, 162163.0
545.5120, 162477.0
546.6860, 162080.0
547.8610, 163244.0
549.0350, 162857.0
550.2090, 163446.0
551.3840, 163813.0
552.5580, 165030.0
553.7310, 164362.0
554.9050, 164439.0
556.0780, 165671.0
557.2520, 165518.0
558.4250, 165822.0
559.5980, 165873.0
560.7710, 166388.0
561.9430, 166227.0
563.1160, 166925.0
564.2880, 167556.0
565.4610, 167387.0
566.6330, 168151.0
567.8050, 168078.0
568.9760, 168562.0
570.1480, 168658.0
571.3200, 169839.0
572.4910, 169087.0
573.6620, 170143.0
574.8330, 170042.0
576.0040, 170171.0
577.1740, 170056.0
578.3450, 170777.0
579.5150, 170978.0
580.6860, 170866.0
581.8560, 171339.0
583.0260, 171409.0
584.1950, 171488.0
585.3650, 172342.0
586.5340, 172939.0
587.7040, 172609.0
588.8730, 173476.0
590.0420, 173503.0
591.2110, 174145.0
592.3790, 174117.0
593.5480, 174154.0
594.7160, 174995.0
595.8840, 175310.0
597.0520, 175711.0
598.2200, 176145.0
599.3880, 175859.0
600.5550, 176385.0
601.7230, 176343.0
602.8900, 177165.0
604.0570, 177536.0
605.2240, 177832.0
606.3910, 177754.0
607.5580, 178776.0
608.7240, 178555.0
609.8900, 179641.0
611.0570, 179394.0
612.2230, 179526.0
613.3880, 180532.0
614.5540, 180105.0
615.7200, 181100.0
616.8850, 181807.0
618.0500, 181541.0
619.2150, 181910.0
620.3800, 181585.0
621.5450, 182828.0
622.7100, 182856.0
623.8740, 183306.0
625.0380, 183065.0
626.2020, 184239.0
627.3660, 184528.0
628.5300, 184961.0
629.6940, 184668.0
630.8570, 185602.0
632.0210, 185667.0
633.1840, 186054.0
634.3470, 186892.0
635.5100, 186335.0
636.6730, 187238.0
637.8350, 187574.0
638.9980, 188111.0
640.1600, 188573.0
641.3220, 188646.0
642.4840, 189548.0
643.6460, 189378.0
644.8070, 190301.0
645.9690, 190132.0
647.1300, 190838.0
648.2910, 190501.0
649.4520, 191047.0
650.6130, 191964.0
651.7740, 192828.0
652.9340, 193100.0
654.0950, 193115.0
655.2550, 193008.0
656.4150, 193977.0
657.5750, 194386.0
658.7350, 194607.0
659.8940, 194645.0
661.0540, 195128.3
662.2130, 196380.0
663.3720, 196244.0
664.5310, 196787.0
665.6900, 198093.0
666.8490, 197722.0
668.0070, 198311.0
669.1650, 198564.0
670.3240, 200144.0
671.4820, 199933.0
672.6400, 200737.5
673.7970, 201400.0
674.9550, 202079.0
676.1120, 202647.0
677.2690, 204116.0
678.4270, 205123.0
679.5830, 205957.0
680.7400, 206442.0
681.8970, 206765.0
683.0530, 207108.0
684.2100, 206602.0
685.3660, 206223.0
686.5220, 206500.0
687.6780, 205663.0
688.8330, 206248.0
689.9890, 206005.0
691.1440, 206868.0
692.2990, 207071.0
693.4540, 207166.0
694.6090, 207791.0
695.7640, 207208.0
696.9180, 208581.0
698.0730, 207776.0
699.2270, 208955.0
700.3810, 209166.0
701.5350, 210085.0
702.6890, 209554.0
703.8430, 210018.0
704.9960, 210532.0
706.1490, 210688.0
707.3030, 211616.0
708.4560, 211810.0
709.6080, 212135.0
710.7610, 212805.0
711.9140, 212449.0
713.0660, 213350.0
714.2180, 213818.0
715.3700, 214860.0
716.5220, 215335.0
717.6740, 216331.0
718.8250, 215845.0
719.9770, 216713.0
721.1280, 216999.0
722.2790, 218007.0
723.4300, 219267.0
724.5810, 220053.0
725.7320, 221091.0
726.8820, 221312.0
728.0320, 222818.0
729.1830, 224248.0
730.3330, 224445.0
731.4820, 225858.0
732.6320, 224685.0
733.7820, 225364.0
734.9310, 226005.0
736.0800, 226711.0
737.2290, 226146.0
738.3780, 227095.0
739.5270, 226620.0
740.6750, 226068.0
741.8240, 227592.0
742.9720, 227471.0
744.1200, 228513.0
745.2680, 228850.0
746.4160, 229554.0
747.5640, 230746.0
748.7110, 232437.0
749.8580, 233129.0
751.0060, 233294.0
752.1530, 233999.0
753.2990, 233703.0
754.4460, 234374.0
755.5930, 234268.0
756.7390, 235044.0
757.8850, 236768.0
759.0310, 237002.0
760.1770, 237846.0
761.3230, 239490.0
762.4690, 240579.0
763.6140, 241418.0
764.7590, 240212.0
765.9040, 239226.0
767.0490, 237525.0
768.1940, 236536.0
769.3390, 235563.0
770.4830, 235560.0
771.6270, 235763.0
772.7720, 235219.0
773.9160, 235489.0
775.0590, 235600.0
776.2030, 236815.0
777.3470, 236780.0
778.4900, 237608.0
779.6330, 236904.0
780.7760, 237539.0
781.9190, 238073.0
783.0620, 238333.0
784.2040, 238780.0
785.3470, 239463.0
786.4890, 240459.0
787.6310, 240214.0
788.7730, 241017.0
789.9150, 241107.0
791.0570, 241392.0
792.1980, 242414.0
793.3390, 242714.0
794.4810, 242929.0
795.6210, 243522.0
796.7620, 244219.0
797.9030, 244130.0
799.0430, 244499.0
800.1840, 245347.0
801.3240, 245767.0
802.4640, 247046.0
803.6040, 245921.0
804.7440, 247081.0
805.8830, 247986.0
807.0230, 247805.0
808.1620, 249130.0
809.3010, 249721.0
810.4400, 250162.0
811.5790, 250633.9
812.7170, 250856.0
813.8560, 250975.0
814.9940, 251587.0
816.1320, 251855.0
817.2700, 252278.0
818.4080, 252981.0
819.5460, 253289.0
820.6830, 253957.0
821.8200, 254381.6
822.9580, 254788.6
824.0950, 255287.0
825.2310, 255672.0
826.3680, 256170.0
827.5050, 256781.0
828.6410, 257674.0
829.7770, 257826.0
830.9130, 258253.0
832.0490, 258177.0
833.1850, 258894.0
834.3210, 258964.0
835.4560, 259443.0
836.5910, 260487.0
837.7260, 261391.0
838.8610, 260802.0
839.9960, 261409.0
841.1310, 262829.0
842.2650, 263023.0
843.4000, 263891.0
844.5340, 264198.0
845.6680, 264563.0
846.8010, 265565.0
847.9350, 265794.0
849.0690, 266352.0
850.2020, 266714.0
851.3350, 267182.0
852.4680, 267966.0
853.6010, 268354.8
854.7340, 268523.9
855.8660, 269684.9
856.9990, 270558.4
858.1310, 271159.0
859.2630, 270671.1
860.3950, 271588.8
861.5270, 271943.1
862.6580, 272274.0
863.7900, 273389.4
864.9210, 273059.5
866.0520, 274162.1
867.1830, 274692.8
868.3140, 275485.2
869.4450, 275711.0
870.5750, 276111.3
871.7060, 277079.0
872.8360, 277732.3
873.9660, 277892.3
875.0960, 278701.0
876.2250, 278350.3
877.3550, 279017.0
878.4840, 279353.0
879.6130, 279080.0
880.7420, 280832.0
881.8710, 281051.0
883.0000, 280844.0
884.1290, 281697.0
885.2570, 281822.0
886.3850, 282779.0
887.5130, 282846.0
888.6410, 283834.0
889.7690, 284747.0
890.8970, 285133.0
892.0240, 285795.9
893.1510, 285768.0
894.2790, 286626.0
895.4050, 287179.0
896.5320, 287622.0
897.6590, 288508.0
898.7850, 288896.6
899.9120, 289894.0
901.0380, 289731.0
902.1640, 290164.0
903.2900, 290181.0
904.4150, 291510.0
905.5410, 291593.0
906.6660, 293111.0
907.7920, 292934.0
908.9170, 293587.0
910.0420, 294073.0
911.1660, 294375.0
912.2910, 294607.0
913.4150, 294856.0
914.5400, 295980.0
915.6640, 296070.0
916.7880, 296593.0
917.9110, 298052.0
919.0350, 297487.0
920.1580, 298569.0
921.2820, 298463.0
922.4050, 300355.0
923.5280, 299868.0
924.6510, 300302.0
925.7730, 301662.0
926.8960, 301642.0
928.0180, 302199.0
929.1400, 302466.0
930.2620, 302986.0
931.3840, 303408.2
932.5060, 303927.0
933.6270, 304290.0
934.7490, 304549.3
935.8700, 304982.5
936.9910, 305423.7
938.1120, 305890.0
939.2330, 306500.0
940.3530, 306880.0
941.4740, 307598.0
942.5940, 307715.0
943.7140, 308326.0
944.8340, 308893.8
945.9540, 309360.0
947.0730, 310160.0
948.1930, 310170.0
949.3120, 310862.0
950.4310, 311042.0
951.5500, 311698.0
952.6690, 312863.0
953.7870, 313600.0
954.9060, 312495.0
956.0240, 314308.0
957.1420, 314102.0
958.2600, 315011.0
959.3780, 315404.0
960.4960, 315564.0
961.6130, 315993.0
962.7310, 317279.0
963.8480, 317115.0
964.9650, 317997.0
966.0820, 318247.0
967.1990, 319020.0
968.3150, 319413.0
969.4310, 319230.0
970.5480, 320206.0
971.6640, 320258.0
972.7800, 321143.0
973.8950, 321231.0
975.0110, 321490.0
976.1260, 321318.0
977.2420, 321912.6
978.3570, 322587.0
979.4720, 322675.0
980.5870, 323175.0
981.7010, 322896.0
982.8160, 323429.3
983.9300, 324571.0
985.0440, 324194.0
986.1580, 325253.0
987.2720, 325673.0
988.3860, 325520.0
989.4990, 325728.0
990.6120, 326148.0
991.7260, 325980.0
992.8390, 327038.0
993.9510, 327894.0
995.0640, 327507.0
996.1770, 328511.0
997.2890, 329237.0
998.4010, 329869.0
999.5130, 330153.0
1000.625, 330580.0
1001.737, 331253.0
1002.848, 330834.0
1003.960, 332723.0
1005.071, 331975.0
1006.182, 332887.0
1007.293, 333210.0
1008.404, 333745.0
1009.514, 334408.7
1010.625, 335203.0
1011.735, 335457.0
1012.845, 335792.0
1013.955, 336017.0
1015.065, 336176.0
1016.175, 336401.0
1017.284, 337439.0
1018.393, 338634.0
1019.503, 339995.0
1020.612, 340635.0
1021.720, 339505.0
1022.829, 341089.0
1023.937, 341447.0
1025.046, 342036.0
1026.154, 342743.0
1027.262, 344094.0
1028.370, 343906.0
1029.478, 345642.0
1030.585, 345946.0
1031.692, 346719.0
1032.800, 347190.0
1033.907, 348067.0
1035.014, 348453.0
1036.120, 349171.0
1037.227, 349288.0
1038.333, 350541.0
1039.440, 350996.0
1040.546, 351464.0
1041.652, 352580.0
1042.757, 352084.0
1043.863, 353066.0
1044.968, 354446.0
1046.074, 355576.0
1047.179, 354711.0
1048.284, 356500.0
1049.388, 357279.0
1050.493, 357195.0
1051.598, 359012.0
1052.702, 359327.0
1053.806, 361335.0
1054.910, 361959.0
1056.014, 363063.0
1057.117, 365192.0
1058.221, 365409.0
1059.324, 367800.0
1060.427, 368513.0
1061.530, 370811.0
1062.633, 371343.0
1063.736, 373378.0
1064.838, 376218.0
1065.941, 379924.0
1067.043, 381154.0
1068.145, 382851.0
1069.247, 385970.0
1070.349, 390145.0
1071.450, 393426.0
1072.552, 399514.0
1073.653, 403735.0
1074.754, 409608.0
1075.855, 414354.0
1076.955, 418308.0
1078.056, 423862.0
1079.156, 430050.0
1080.257, 437284.0
1081.357, 444055.0
1082.457, 445364.0
1083.557, 439218.0
1084.656, 431195.0
1085.756, 422725.0
1086.855, 409739.0
1087.954, 402658.0
1089.053, 395335.0
1090.152, 391582.0
1091.250, 389185.0
1092.349, 386114.0
1093.447, 384689.0
1094.545, 383510.0
1095.643, 382090.0
1096.741, 381169.0
1097.839, 382120.0
1098.936, 380980.0
1100.034, 381214.0
1101.131, 381103.0
1102.228, 381495.0
1103.325, 380739.0
1104.421, 381013.0
1105.518, 380623.0
1106.614, 381567.0
1107.710, 381952.0
1108.806, 382500.0
1109.902, 382659.0
1110.998, 383147.0
1112.094, 383099.0
1113.189, 382623.0
1114.284, 383623.0
1115.379, 383203.0
1116.474, 384662.0
1117.569, 383822.0
1118.664, 384737.0
1119.758, 384808.0
1120.852, 385040.0
1121.946, 386622.0
1123.040, 386262.0
1124.134, 386730.0
1125.228, 387682.0
1126.321, 388095.0
1127.414, 388318.0
1128.507, 388222.0
1129.600, 388377.0
1130.693, 389915.0
1131.786, 388907.0
1132.878, 390273.0
1133.971, 390245.0
1135.063, 390305.0
1136.155, 391345.0
1137.247, 392087.0
1138.338, 391631.0
1139.430, 392401.0
1140.521, 393273.0
1141.612, 393051.0
1142.703, 394399.0
1143.794, 394792.0
1144.885, 394405.0
1145.975, 396068.0
1147.066, 395853.0
1148.156, 397316.0
1149.246, 395795.0
1150.336, 395632.0
1151.425, 397005.0
1152.515, 396973.0
1153.604, 398680.0
1154.693, 398322.0
1155.783, 398028.0
1156.871, 398325.0
1157.960, 398397.9
1159.049, 399685.0
1160.137, 399364.0
1161.225, 400310.0
1162.313, 401372.0
1163.401, 400765.0
1164.489, 402265.0
1165.577, 401312.0
1166.664, 402660.0
1167.751, 402832.0
1168.838, 403092.0
1169.925, 404326.0
1171.012, 403427.0
1172.099, 404219.0
1173.185, 404743.0
1174.272, 405256.0
1175.358, 406160.0
1176.444, 404842.0
1177.529, 406256.0
1178.615, 405512.0
1179.700, 406709.0
1180.786, 407342.0
1181.871, 409042.0
1182.956, 408982.0
1184.041, 408589.0
1185.125, 408930.0
1186.210, 408740.0
1187.294, 410533.0
1188.378, 410245.0
1189.462, 410797.0
1190.546, 410770.0
1191.630, 410940.0
1192.713, 411089.0
1193.797, 410916.0
1194.880, 411321.0
1195.963, 411803.0
1197.046, 412737.0
1198.129, 413131.0
1199.211, 412482.0
1200.293, 413719.0
1201.376, 414699.0
1202.458, 413567.0
1203.540, 416223.0
1204.621, 414586.0
1205.703, 414890.0
1206.784, 415309.0
1207.865, 415953.0
1208.947, 416358.0
1210.027, 417292.0
1211.108, 417666.0
1212.189, 417808.0
1213.269, 417839.0
1214.349, 418342.0
1215.430, 418195.0
1216.509, 419192.0
1217.589, 419655.0
1218.669, 420059.0
1219.748, 419804.0
1220.827, 420717.0
1221.907, 420818.6
1222.986, 420873.0
1224.064, 421433.0
1225.143, 422106.0
1226.221, 422216.0
1227.300, 422716.0
1228.378, 422344.0
1229.456, 424142.0
1230.534, 423229.0
1231.611, 423250.0
1232.689, 424186.0
1233.766, 423654.0
1234.843, 425260.0
1235.920, 425432.0
1236.997, 426124.0
1238.074, 426691.0
1239.150, 426463.0
1240.226, 426841.0
1241.303, 426782.0
1242.379, 427333.7
1243.454, 429026.0
1244.530, 428339.0
