##NAMES=Weloganite
##RRUFFID=R050217
##IDEAL CHEMISTRY=Na_2_Sr_3_Zr^4+^(C^4+^O_3_)_6_&#183;3H_2_O
##LOCALITY=Francon Quarry, Montréal, Québec, Canada
##OWNER=RRUFF
##SOURCE=Marcus Origlieri
##DESCRIPTION=Tan colored tapered hexagonal single crystals
##STATUS=The identification of this mineral has been confirmed by X-ray diffraction and chemical analysis
##URL=rruff.info/R050217
##MEASURED CHEMISTRY=Na_2.00_(Sr_2.93_Ca_0.07_)_Σ=3_(Zr_0.90_Hf_0.10_)_Σ=1_(CO_3_)_6_·3H_2_O
##PIN_ID=M00939
##ORIENTATION=Laser parallel to (1 0 1). Fiducial mark perpendicular to laser is parallel to -b [0 -1 0]
64.63500, 1775.000
65.87000, 1933.000
67.10500, 2157.000
68.34000, 2320.000
69.57400, 2512.000
70.80900, 2869.000
72.04300, 3011.000
73.27700, 3748.000
74.51100, 4449.000
75.74500, 5424.000
76.97800, 6532.000
78.21200, 7521.000
79.44500, 8946.000
80.67800, 10357.00
81.91200, 11740.00
83.14400, 13567.00
84.37700, 15526.00
85.61000, 18289.00
86.84200, 21202.00
88.07500, 24410.00
89.30700, 27709.00
90.53900, 31335.00
91.77100, 35287.00
93.00200, 38817.00
94.23400, 42603.00
95.46500, 45954.00
96.69700, 49209.00
97.92800, 51525.00
99.15900, 54542.00
100.3900, 57749.00
101.6200, 61167.00
102.8510, 64684.00
104.0810, 69064.00
105.3120, 72459.00
106.5420, 75779.00
107.7720, 78121.00
109.0020, 79622.00
110.2310, 80243.00
111.4610, 80294.00
112.6900, 79443.00
113.9190, 78968.00
115.1480, 78113.00
116.3770, 78278.00
117.6060, 79262.00
118.8350, 81366.00
120.0630, 83593.00
121.2920, 87045.00
122.5200, 91429.00
123.7480, 95410.00
124.9760, 100121.0
126.2040, 105252.0
127.4310, 109721.0
128.6590, 113599.0
129.8860, 116652.0
131.1130, 118912.0
132.3400, 121064.0
133.5670, 122709.0
134.7940, 123551.0
136.0200, 125215.0
137.2470, 127955.0
138.4730, 131463.0
139.6990, 136073.0
140.9250, 142754.0
142.1510, 151547.0
143.3770, 160380.0
144.6020, 170131.0
145.8280, 179233.0
147.0530, 188093.0
148.2780, 195739.0
149.5030, 202180.0
150.7280, 207741.0
151.9520, 212116.0
153.1770, 212633.0
154.4010, 210772.0
155.6250, 206166.0
156.8490, 198860.0
158.0730, 190285.0
159.2970, 179903.0
160.5210, 169842.0
161.7440, 157535.0
162.9680, 146151.0
164.1910, 134153.0
165.4140, 125111.0
166.6370, 117837.0
167.8590, 112288.0
169.0820, 108505.0
170.3040, 105292.0
171.5270, 102629.0
172.7490, 100008.0
173.9710, 97545.00
175.1930, 94607.00
176.4140, 92584.00
177.6360, 89453.00
178.8570, 87911.00
180.0780, 86175.00
181.2990, 84607.00
182.5200, 83756.00
183.7410, 83522.00
184.9620, 83237.00
186.1820, 83411.00
187.4030, 83695.00
188.6230, 84344.00
189.8430, 84947.00
191.0630, 85879.00
192.2830, 87853.00
193.5020, 90173.00
194.7220, 92411.00
195.9410, 94515.00
197.1600, 96585.00
198.3790, 99195.00
199.5980, 100334.0
200.8170, 102130.0
202.0350, 103491.0
203.2540, 103690.0
204.4720, 104557.0
205.6900, 104473.0
206.9080, 104797.0
208.1260, 104732.0
209.3430, 103465.0
210.5610, 102648.0
211.7780, 101375.0
212.9960, 99817.00
214.2130, 98089.00
215.4290, 97638.00
216.6460, 98094.00
217.8630, 99503.00
219.0790, 100658.0
220.2960, 102832.0
221.5120, 105434.0
222.7280, 107873.0
223.9440, 111253.0
225.1590, 114263.0
226.3750, 117132.0
227.5900, 119271.0
228.8060, 120680.0
230.0210, 121113.0
231.2360, 121216.0
232.4510, 121206.0
233.6650, 121097.0
234.8800, 120831.0
236.0940, 120977.0
237.3080, 120288.0
238.5220, 119213.0
239.7360, 117242.0
240.9500, 115452.0
242.1640, 112402.0
243.3770, 108869.0
244.5910, 105432.0
245.8040, 102193.0
247.0170, 99266.00
248.2300, 96802.00
249.4420, 94386.00
250.6550, 92047.00
251.8670, 89934.00
253.0800, 87572.00
254.2920, 86088.00
255.5040, 83947.00
256.7160, 82711.00
257.9270, 81265.00
259.1390, 80740.00
260.3500, 79085.00
261.5610, 78489.00
262.7720, 76802.00
263.9830, 75997.00
265.1940, 74633.00
266.4050, 73813.00
267.6150, 72415.00
268.8260, 71416.00
270.0360, 71018.00
271.2460, 70597.00
272.4560, 70135.00
273.6650, 70808.00
274.8750, 70904.00
276.0840, 71098.00
277.2940, 71965.00
278.5030, 72213.00
279.7120, 72403.00
280.9200, 72235.00
282.1290, 72031.00
283.3380, 71614.00
284.5460, 70773.00
285.7540, 70127.00
286.9620, 69406.00
288.1700, 68706.00
289.3780, 67655.00
290.5860, 66815.00
291.7930, 66310.00
293.0000, 65971.00
294.2080, 66078.00
295.4150, 66177.00
296.6210, 67037.00
297.8280, 67934.00
299.0350, 69606.00
300.2410, 71317.00
301.4470, 73555.00
302.6530, 75651.00
303.8590, 78815.00
305.0650, 81634.00
306.2710, 83955.00
307.4760, 86485.00
308.6820, 89534.00
309.8870, 91815.00
311.0920, 94417.00
312.2970, 97599.00
313.5020, 100336.0
314.7060, 102713.0
315.9110, 105163.0
317.1150, 108035.0
318.3190, 109373.0
319.5230, 111897.0
320.7270, 113883.0
321.9300, 115040.0
323.1340, 116016.0
324.3370, 116026.0
325.5410, 115083.0
326.7440, 113521.0
327.9470, 111010.0
329.1490, 108017.0
330.3520, 104221.0
331.5550, 100359.0
332.7570, 96366.00
333.9590, 93291.00
335.1610, 90343.00
336.3630, 88120.00
337.5650, 86887.00
338.7660, 86242.00
339.9680, 86124.00
341.1690, 86839.00
342.3700, 88566.00
343.5710, 90480.00
344.7720, 93110.00
345.9720, 97192.00
347.1730, 101570.0
348.3730, 106207.0
349.5730, 110569.0
350.7730, 116159.0
351.9730, 120452.0
353.1730, 123711.0
354.3730, 126104.0
355.5720, 126706.0
356.7710, 125907.0
357.9710, 123007.0
359.1700, 119931.0
360.3680, 115985.0
361.5670, 112144.0
362.7660, 108696.0
363.9640, 106039.0
365.1620, 103065.0
366.3600, 101112.0
367.5580, 99335.00
368.7560, 98094.00
369.9540, 96133.00
371.1510, 94419.00
372.3480, 92357.00
373.5450, 90156.00
374.7420, 87929.00
375.9390, 85226.00
377.1360, 83168.00
378.3330, 80323.00
379.5290, 78531.00
380.7250, 75952.00
381.9210, 73542.00
383.1170, 71588.00
384.3130, 69736.00
385.5090, 67832.00
386.7040, 66617.00
387.8990, 65258.00
389.0950, 64075.00
390.2900, 63247.00
391.4850, 62242.00
392.6790, 61584.22
393.8740, 61060.00
395.0680, 60523.00
396.2620, 60267.00
397.4570, 59990.00
398.6510, 59527.00
399.8440, 59264.39
401.0380, 58800.00
402.2310, 58599.00
403.4250, 58215.00
404.6180, 57895.00
405.8110, 57761.61
407.0040, 58129.00
408.1970, 57565.00
409.3890, 57559.00
410.5820, 57646.00
411.7740, 57399.00
412.9660, 57291.00
414.1580, 57450.00
415.3500, 57297.00
416.5420, 57768.00
417.7330, 57563.00
418.9240, 57503.00
420.1160, 57005.00
421.3070, 56981.00
422.4980, 57177.00
423.6880, 57277.00
424.8790, 56966.00
426.0690, 57025.00
427.2600, 57131.00
428.4500, 57215.00
429.6400, 56951.00
430.8300, 57009.00
432.0190, 57184.00
433.2090, 57046.00
434.3980, 57184.32
435.5870, 57238.41
436.7760, 57247.00
437.9650, 57458.00
439.1540, 57393.00
440.3430, 57634.00
441.5310, 57746.00
442.7190, 57479.00
443.9080, 57838.00
445.0960, 58122.00
446.2830, 57625.00
447.4710, 58051.00
448.6590, 57932.00
449.8460, 57829.00
451.0330, 58167.00
452.2200, 57975.00
453.4070, 58125.00
454.5940, 58334.00
455.7800, 58372.00
456.9670, 58471.00
458.1530, 58627.00
459.3390, 58493.00
460.5250, 58601.00
461.7110, 58670.00
462.8970, 58451.00
464.0820, 58925.00
465.2680, 59026.00
466.4530, 58652.00
467.6380, 58872.00
468.8230, 58839.00
470.0080, 58863.00
471.1920, 59097.00
472.3770, 59451.00
473.5610, 59584.00
474.7450, 59237.00
475.9290, 59608.00
477.1130, 59517.00
478.2970, 59738.00
479.4800, 59983.00
480.6640, 59735.00
481.8470, 60123.00
483.0300, 60089.00
484.2130, 60075.00
485.3960, 60335.00
486.5780, 60371.00
487.7610, 60622.00
488.9430, 60748.00
490.1250, 60788.00
491.3070, 60713.00
492.4890, 60924.00
493.6710, 61134.00
494.8520, 61168.00
496.0340, 60748.00
497.2150, 61589.00
498.3960, 61541.00
499.5770, 61228.00
500.7570, 61620.00
501.9380, 62092.00
503.1180, 61885.00
504.2990, 61992.00
505.4790, 62202.00
506.6590, 62431.00
507.8390, 62503.00
509.0180, 62671.00
510.1980, 62788.00
511.3770, 62822.10
512.5560, 62674.00
513.7360, 62889.00
514.9140, 62980.00
516.0930, 63032.00
517.2720, 63294.00
518.4500, 63194.00
519.6290, 63455.00
520.8070, 63762.00
521.9850, 64073.00
523.1620, 64175.00
524.3400, 63880.00
525.5180, 64203.00
526.6950, 64612.00
527.8720, 64180.00
529.0490, 64617.00
530.2260, 64897.00
531.4030, 65488.00
532.5790, 65285.00
533.7560, 65276.00
534.9320, 65501.00
536.1080, 65644.00
537.2840, 65670.00
538.4600, 65832.00
539.6360, 66031.00
540.8110, 65825.00
541.9860, 66340.00
543.1620, 66003.00
544.3370, 66101.00
545.5120, 66286.00
546.6860, 66624.00
547.8610, 66497.00
549.0350, 66254.00
550.2090, 66347.00
551.3840, 66682.00
552.5580, 66565.00
553.7310, 66730.00
554.9050, 66712.00
556.0780, 66792.00
557.2520, 66754.00
558.4250, 66932.00
559.5980, 66884.00
560.7710, 67108.00
561.9430, 67050.00
563.1160, 66668.00
564.2880, 67026.00
565.4610, 66826.00
566.6330, 66926.00
567.8050, 67299.00
568.9760, 67184.00
570.1480, 67232.00
571.3200, 67236.00
572.4910, 67182.43
573.6620, 67163.00
574.8330, 67157.00
576.0040, 67197.00
577.1740, 67257.00
578.3450, 67252.91
579.5150, 67438.00
580.6860, 67248.00
581.8560, 67297.00
583.0260, 67231.00
584.1950, 67543.00
585.3650, 67623.00
586.5340, 67919.00
587.7040, 67435.00
588.8730, 67484.00
590.0420, 67811.00
591.2110, 68260.00
592.3790, 68378.00
593.5480, 68242.00
594.7160, 68202.00
595.8840, 68426.00
597.0520, 68698.00
598.2200, 68314.00
599.3880, 68868.00
600.5550, 68889.00
601.7230, 68912.00
602.8900, 69150.00
604.0570, 69116.04
605.2240, 69232.24
606.3910, 69214.00
607.5580, 69403.00
608.7240, 69507.00
609.8900, 69653.00
611.0570, 69758.00
612.2230, 69771.00
613.3880, 70114.00
614.5540, 70125.00
615.7200, 70387.00
616.8850, 70615.00
618.0500, 70435.00
619.2150, 70584.00
620.3800, 70764.00
621.5450, 71169.00
622.7100, 70692.00
623.8740, 71257.00
625.0380, 71257.00
626.2020, 71622.00
627.3660, 71621.00
628.5300, 72271.00
629.6940, 72039.00
630.8570, 72273.00
632.0210, 71992.00
633.1840, 72596.00
634.3470, 72341.00
635.5100, 72436.00
636.6730, 72926.00
637.8350, 73104.00
638.9980, 73245.00
640.1600, 73301.00
641.3220, 73552.00
642.4840, 73476.00
643.6460, 73766.83
644.8070, 73839.00
645.9690, 74248.00
647.1300, 74221.00
648.2910, 74442.00
649.4520, 74891.00
650.6130, 75009.00
651.7740, 75215.00
652.9340, 75265.00
654.0950, 75452.70
655.2550, 75598.36
656.4150, 75748.00
657.5750, 75923.00
658.7350, 76032.00
659.8940, 76214.00
661.0540, 76617.00
662.2130, 76378.00
663.3720, 76958.00
664.5310, 77469.00
665.6900, 77379.00
666.8490, 77484.00
668.0070, 78098.00
669.1650, 78181.00
670.3240, 78855.00
671.4820, 79393.00
672.6400, 79742.00
673.7970, 80323.00
674.9550, 81379.00
676.1120, 82644.00
677.2690, 83981.00
678.4270, 84918.00
679.5830, 86002.00
680.7400, 86687.00
681.8970, 86187.00
683.0530, 85960.00
684.2100, 84681.00
685.3660, 83463.00
686.5220, 82774.00
687.6780, 82038.00
688.8330, 81687.00
689.9890, 81612.00
691.1440, 81514.00
692.2990, 81866.00
693.4540, 81598.00
694.6090, 82196.00
695.7640, 82491.00
696.9180, 82612.00
698.0730, 82456.00
699.2270, 82646.16
700.3810, 83146.00
701.5350, 82599.00
702.6890, 82451.00
703.8430, 82146.00
704.9960, 81632.00
706.1490, 80961.00
707.3030, 80818.00
708.4560, 80306.00
709.6080, 80459.00
710.7610, 80707.00
711.9140, 80111.00
713.0660, 80808.00
714.2180, 80350.00
715.3700, 80500.00
716.5220, 81079.00
717.6740, 80879.00
718.8250, 81475.00
719.9770, 82143.00
721.1280, 82904.00
722.2790, 83500.00
723.4300, 84825.00
724.5810, 86001.00
725.7320, 87990.00
726.8820, 90307.00
728.0320, 92177.00
729.1830, 93537.00
730.3330, 94051.00
731.4820, 94602.00
732.6320, 94131.00
733.7820, 93699.00
734.9310, 94550.00
736.0800, 95012.00
737.2290, 94685.00
738.3780, 94676.00
739.5270, 92654.00
740.6750, 91795.00
741.8240, 91246.00
742.9720, 90243.00
744.1200, 90723.00
745.2680, 91125.00
746.4160, 92490.00
747.5640, 93826.00
748.7110, 95160.00
749.8580, 96085.00
751.0060, 96738.00
752.1530, 97203.00
753.2990, 97887.00
754.4460, 98828.00
755.5930, 101293.0
756.7390, 105609.0
757.8850, 111281.0
759.0310, 118919.0
760.1770, 127828.0
761.3230, 135641.0
762.4690, 140971.0
763.6140, 141267.0
764.7590, 134352.0
765.9040, 123185.0
767.0490, 112232.0
768.1940, 103720.0
769.3390, 97546.00
770.4830, 93866.00
771.6270, 91411.00
772.7720, 89893.00
773.9160, 88407.00
775.0590, 88534.00
776.2030, 87632.00
777.3470, 86807.00
778.4900, 86912.00
779.6330, 86271.00
780.7760, 86399.00
781.9190, 86404.00
783.0620, 86001.00
784.2040, 85992.00
785.3470, 86357.00
786.4890, 86058.00
787.6310, 86227.00
788.7730, 86625.00
789.9150, 86277.00
791.0570, 86191.00
792.1980, 86304.00
793.3390, 86583.00
794.4810, 86371.00
795.6210, 86681.00
796.7620, 86657.00
797.9030, 86910.00
799.0430, 86833.00
800.1840, 86649.00
801.3240, 87035.00
802.4640, 87258.00
803.6040, 87193.00
804.7440, 87705.00
805.8830, 87267.00
807.0230, 87796.00
808.1620, 87801.00
809.3010, 88092.00
810.4400, 88225.00
811.5790, 88372.00
812.7170, 87799.00
813.8560, 88140.00
814.9940, 88406.00
816.1320, 88298.00
817.2700, 88734.00
818.4080, 88875.00
819.5460, 88824.00
820.6830, 89146.00
821.8200, 89057.00
822.9580, 89118.00
824.0950, 88815.00
825.2310, 89324.00
826.3680, 89178.00
827.5050, 89533.00
828.6410, 89883.00
829.7770, 89897.00
830.9130, 89986.00
832.0490, 90455.00
833.1850, 90249.00
834.3210, 90252.00
835.4560, 90516.00
836.5910, 90668.00
837.7260, 90459.00
838.8610, 90876.00
839.9960, 90843.00
841.1310, 90984.00
842.2650, 90921.00
843.4000, 91636.00
844.5340, 91932.00
845.6680, 91923.00
846.8010, 91907.00
847.9350, 92094.00
849.0690, 92163.00
850.2020, 92503.00
851.3350, 92531.00
852.4680, 92754.22
853.6010, 93068.00
854.7340, 93084.00
855.8660, 93305.00
856.9990, 93394.00
858.1310, 93547.23
859.2630, 93679.00
860.3950, 93877.00
861.5270, 93959.00
862.6580, 94120.00
863.7900, 94300.00
864.9210, 94559.00
866.0520, 94698.00
867.1830, 95632.00
868.3140, 96047.00
869.4450, 95935.00
870.5750, 96122.00
871.7060, 96223.00
872.8360, 96305.00
873.9660, 95282.00
875.0960, 95341.00
876.2250, 95111.00
877.3550, 95068.00
878.4840, 95186.00
879.6130, 95672.00
880.7420, 95159.00
881.8710, 95464.00
883.0000, 95590.00
884.1290, 95407.00
885.2570, 96039.00
886.3850, 96078.00
887.5130, 96001.00
888.6410, 95977.00
889.7690, 96171.70
890.8970, 96773.00
892.0240, 96645.00
893.1510, 96957.00
894.2790, 97316.00
895.4050, 97067.00
896.5320, 97014.00
897.6590, 97324.00
898.7850, 97389.00
899.9120, 97720.00
901.0380, 97840.00
902.1640, 97971.00
903.2900, 98133.00
904.4150, 98432.00
905.5410, 98230.00
906.6660, 98932.00
907.7920, 98566.00
908.9170, 98394.00
910.0420, 98662.00
911.1660, 98695.00
912.2910, 98804.00
913.4150, 98686.00
914.5400, 99517.00
915.6640, 99579.00
916.7880, 99280.00
917.9110, 99760.00
919.0350, 99082.00
920.1580, 99658.00
921.2820, 100199.0
922.4050, 99919.00
923.5280, 100143.0
924.6510, 100391.0
925.7730, 100519.0
926.8960, 100725.0
928.0180, 100770.3
929.1400, 100811.0
930.2620, 100835.0
931.3840, 100800.0
932.5060, 100864.0
933.6270, 101047.0
934.7490, 101406.0
935.8700, 100999.0
936.9910, 101111.0
938.1120, 101620.0
939.2330, 101382.0
940.3530, 101900.0
941.4740, 102010.0
942.5940, 102131.0
943.7140, 102335.0
944.8340, 102276.0
945.9540, 102460.0
947.0730, 102509.9
948.1930, 102739.0
949.3120, 102679.0
950.4310, 102605.0
951.5500, 102757.0
952.6690, 102324.0
953.7870, 103237.0
954.9060, 102468.0
956.0240, 103090.0
957.1420, 103795.0
958.2600, 103436.0
959.3780, 103665.0
960.4960, 103620.0
961.6130, 104007.0
962.7310, 104288.0
963.8480, 104242.0
964.9650, 104371.0
966.0820, 104510.2
967.1990, 104841.0
968.3150, 104890.0
969.4310, 104710.0
970.5480, 105181.0
971.6640, 104765.0
972.7800, 105074.0
973.8950, 104560.0
975.0110, 105237.0
976.1260, 104791.0
977.2420, 105340.0
978.3570, 105866.0
979.4720, 105598.0
980.5870, 105634.0
981.7010, 105582.0
982.8160, 105669.0
983.9300, 105677.0
985.0440, 106132.0
986.1580, 105874.0
987.2720, 105987.0
988.3860, 106383.0
989.4990, 106217.0
990.6120, 107128.0
991.7260, 106452.0
992.8390, 106092.0
993.9510, 106681.0
995.0640, 106508.0
996.1770, 106859.0
997.2890, 106960.0
998.4010, 107235.0
999.5130, 107205.0
1000.625, 107407.8
1001.737, 107258.0
1002.848, 107544.0
1003.960, 107703.0
1005.071, 107470.0
1006.182, 108077.0
1007.293, 107937.5
1008.404, 108040.0
1009.514, 107992.0
1010.625, 108002.0
1011.735, 107917.0
1012.845, 108021.3
1013.955, 108098.2
1015.065, 108327.0
1016.175, 108380.0
1017.284, 108753.0
1018.393, 108936.0
1019.503, 109321.0
1020.612, 109476.0
1021.720, 109904.0
1022.829, 109770.0
1023.937, 109922.0
1025.046, 110271.0
1026.154, 110450.0
1027.262, 110650.0
1028.370, 110771.0
1029.478, 111174.0
1030.585, 111425.0
1031.692, 111682.0
1032.800, 112035.0
1033.907, 112726.0
1035.014, 112609.0
1036.120, 112731.0
1037.227, 113612.0
1038.333, 113701.0
1039.440, 113838.0
1040.546, 114335.0
1041.652, 114836.0
1042.757, 114748.0
1043.863, 115558.0
1044.968, 116003.0
1046.074, 116946.0
1047.179, 117070.0
1048.284, 117885.0
1049.388, 119022.0
1050.493, 119472.0
1051.598, 121043.0
1052.702, 123340.0
1053.806, 124956.0
1054.910, 128002.0
1056.014, 130741.0
1057.117, 134707.0
1058.221, 139439.0
1059.324, 143348.0
1060.427, 146861.0
1061.530, 151022.0
1062.633, 153614.0
1063.736, 158960.0
1064.838, 164811.0
1065.941, 172905.0
1067.043, 181313.0
1068.145, 190146.0
1069.247, 202284.0
1070.349, 216774.0
1071.450, 234979.0
1072.552, 257692.0
1073.653, 282468.0
1074.754, 306937.0
1075.855, 325307.0
1076.955, 341241.0
1078.056, 356325.0
1079.156, 379150.0
1080.257, 409395.0
1081.357, 436828.0
1082.457, 446270.0
1083.557, 423555.0
1084.656, 376535.0
1085.756, 319772.0
1086.855, 265370.0
1087.954, 226098.0
1089.053, 196155.0
1090.152, 174787.0
1091.250, 160744.0
1092.349, 151203.0
1093.447, 144410.0
1094.545, 139778.0
1095.643, 135745.0
1096.741, 132981.0
1097.839, 131237.0
1098.936, 129762.0
1100.034, 127996.0
1101.131, 126551.0
1102.228, 125637.0
1103.325, 125109.0
1104.421, 124780.0
1105.518, 123760.0
1106.614, 122704.0
1107.710, 122613.0
1108.806, 122576.0
1109.902, 122449.0
1110.998, 121607.0
1112.094, 121794.0
1113.189, 121730.0
1114.284, 121842.0
1115.379, 120589.0
1116.474, 120970.0
1117.569, 120742.0
1118.664, 120384.0
1119.758, 120853.0
1120.852, 120322.0
1121.946, 120992.0
1123.040, 120694.0
1124.134, 120642.0
1125.228, 120833.0
1126.321, 120831.0
1127.414, 121130.0
1128.507, 120462.0
1129.600, 120855.0
1130.693, 120597.0
1131.786, 121249.0
1132.878, 121468.0
1133.971, 120931.0
1135.063, 120934.0
1136.155, 121380.0
1137.247, 121452.0
1138.338, 121503.0
1139.430, 121596.8
1140.521, 121753.0
1141.612, 121472.0
1142.703, 121496.0
1143.794, 121325.0
1144.885, 121506.0
1145.975, 121537.0
1147.066, 121797.0
1148.156, 121777.0
1149.246, 122033.0
1150.336, 122032.0
1151.425, 121932.0
1152.515, 122136.0
1153.604, 122591.0
1154.693, 121873.0
1155.783, 122294.0
1156.871, 122636.0
1157.960, 122350.0
1159.049, 122154.0
1160.137, 122308.0
1161.225, 122828.0
1162.313, 122392.0
1163.401, 122722.0
1164.489, 122806.0
1165.577, 122960.0
1166.664, 123094.0
1167.751, 123099.0
1168.838, 123210.0
1169.925, 123356.0
1171.012, 123295.0
1172.099, 123024.0
1173.185, 123466.0
1174.272, 123444.0
1175.358, 123267.0
1176.444, 123510.0
1177.529, 123873.0
1178.615, 123965.0
1179.700, 123994.0
1180.786, 124007.0
1181.871, 124373.0
1182.956, 124492.0
1184.041, 123811.0
1185.125, 124212.0
1186.210, 124058.0
1187.294, 124610.0
1188.378, 124516.0
1189.462, 124189.0
1190.546, 124644.0
1191.630, 124988.0
1192.713, 124886.0
1193.797, 124775.0
1194.880, 125160.0
1195.963, 124939.0
1197.046, 124922.0
1198.129, 125616.0
1199.211, 125104.0
1200.293, 125302.0
1201.376, 124833.0
1202.458, 125329.0
1203.540, 125257.0
1204.621, 124950.0
1205.703, 125576.0
1206.784, 125602.0
1207.865, 125465.0
1208.947, 125353.0
1210.027, 125816.0
1211.108, 126048.0
1212.189, 126225.0
1213.269, 126354.0
1214.349, 126649.0
1215.430, 126387.0
1216.509, 126526.0
1217.589, 126871.0
1218.669, 126846.0
1219.748, 126460.0
1220.827, 126638.0
1221.907, 126743.0
1222.986, 126767.0
1224.064, 127488.0
1225.143, 126964.0
1226.221, 127505.0
1227.300, 127048.0
1228.378, 126931.0
1229.456, 127530.0
1230.534, 127410.0
1231.611, 127180.0
1232.689, 127732.0
1233.766, 127432.0
1234.843, 127544.0
1235.920, 127631.0
1236.997, 127811.0
1238.074, 128208.0
1239.150, 128101.6
1240.226, 128259.0
1241.303, 127906.0
1242.379, 128223.0
1243.454, 127870.0
1244.530, 128979.0
