##NAMES=Weloganite
##RRUFFID=R050217
##IDEAL CHEMISTRY=Na_2_Sr_3_Zr^4+^(C^4+^O_3_)_6_&#183;3H_2_O
##LOCALITY=Francon Quarry, Montréal, Québec, Canada
##OWNER=RRUFF
##SOURCE=Marcus Origlieri
##DESCRIPTION=Tan colored tapered hexagonal single crystals
##STATUS=The identification of this mineral has been confirmed by X-ray diffraction and chemical analysis
##URL=rruff.info/R050217
##MEASURED CHEMISTRY=Na_2.00_(Sr_2.93_Ca_0.07_)_Σ=3_(Zr_0.90_Hf_0.10_)_Σ=1_(CO_3_)_6_·3H_2_O
##PIN_ID=M01339
##ORIENTATION=Laser parallel to (0 1 1). Fiducial mark perpendicular to laser is parallel to -a [-1 0 0]
64.63500, 7188.000
65.87000, 7357.000
67.10500, 7450.000
68.34000, 7749.000
69.57400, 8356.000
70.80900, 9298.000
72.04300, 9935.000
73.27700, 11088.00
74.51100, 12749.00
75.74500, 13986.00
76.97800, 15922.00
78.21200, 17952.00
79.44500, 20865.00
80.67800, 23551.00
81.91200, 26254.00
83.14400, 29378.82
84.37700, 32507.00
85.61000, 35740.00
86.84200, 39045.00
88.07500, 42540.00
89.30700, 45806.00
90.53900, 49924.00
91.77100, 53608.00
93.00200, 57281.00
94.23400, 60623.49
95.46500, 63727.00
96.69700, 66591.00
97.92800, 69263.00
99.15900, 71492.00
100.3900, 74291.00
101.6200, 75880.00
102.8510, 78381.00
104.0810, 81174.00
105.3120, 82807.00
106.5420, 84831.00
107.7720, 86976.00
109.0020, 89393.00
110.2310, 90201.00
111.4610, 91088.00
112.6900, 91712.00
113.9190, 91858.00
115.1480, 91844.70
116.3770, 93363.55
117.6060, 94522.51
118.8350, 95340.93
120.0630, 94798.29
121.2920, 96013.01
122.5200, 96523.12
123.7480, 97004.37
124.9760, 98465.78
126.2040, 98121.02
127.4310, 99566.33
128.6590, 100297.4
129.8860, 101355.1
131.1130, 101704.3
132.3400, 102272.4
133.5670, 103549.1
134.7940, 103360.0
136.0200, 103960.0
137.2470, 104782.0
138.4730, 105630.0
139.6990, 107162.0
140.9250, 108387.0
142.1510, 110465.0
143.3770, 111987.0
144.6020, 113576.0
145.8280, 115859.0
147.0530, 117438.0
148.2780, 119129.0
149.5030, 120926.0
150.7280, 122998.0
151.9520, 123983.0
153.1770, 125125.0
154.4010, 125871.0
155.6250, 126570.0
156.8490, 126392.0
158.0730, 125473.0
159.2970, 124139.0
160.5210, 122627.0
161.7440, 120293.0
162.9680, 117822.0
164.1910, 116011.0
165.4140, 113580.0
166.6370, 111576.0
167.8590, 110050.0
169.0820, 108825.0
170.3040, 107624.0
171.5270, 106884.0
172.7490, 106569.0
173.9710, 106010.0
175.1930, 105114.0
176.4140, 104529.0
177.6360, 103983.0
178.8570, 103758.0
180.0780, 102864.0
181.2990, 102578.0
182.5200, 101778.0
183.7410, 101896.0
184.9620, 101377.0
186.1820, 101174.0
187.4030, 101243.0
188.6230, 101797.0
189.8430, 101772.0
191.0630, 102034.0
192.2830, 102308.0
193.5020, 102851.3
194.7220, 104149.0
195.9410, 103987.0
197.1600, 104746.0
198.3790, 104844.0
199.5980, 105043.0
200.8170, 105641.0
202.0350, 105922.0
203.2540, 106370.0
204.4720, 106420.0
205.6900, 106770.0
206.9080, 106666.0
208.1260, 106908.0
209.3430, 107276.0
210.5610, 107229.0
211.7780, 107370.0
212.9960, 107838.0
214.2130, 107405.0
215.4290, 108080.0
216.6460, 108008.0
217.8630, 108889.0
219.0790, 109134.0
220.2960, 109662.6
221.5120, 110067.8
222.7280, 110420.4
223.9440, 110723.1
225.1590, 110826.5
226.3750, 111187.3
227.5900, 111444.7
228.8060, 111698.2
230.0210, 112094.9
231.2360, 112817.0
232.4510, 112861.0
233.6650, 113025.0
234.8800, 113049.0
236.0940, 112797.0
237.3080, 112581.0
238.5220, 112222.0
239.7360, 112085.0
240.9500, 111364.0
242.1640, 111713.0
243.3770, 111366.0
244.5910, 110544.0
245.8040, 110177.0
247.0170, 109501.0
248.2300, 109597.0
249.4420, 109196.0
250.6550, 109005.0
251.8670, 108929.0
253.0800, 108865.0
254.2920, 108835.0
255.5040, 108912.5
256.7160, 109045.0
257.9270, 109169.0
259.1390, 109520.0
260.3500, 109738.0
261.5610, 110119.0
262.7720, 110482.0
263.9830, 110387.0
265.1940, 111192.0
266.4050, 110357.0
267.6150, 111034.0
268.8260, 110592.0
270.0360, 111155.0
271.2460, 110541.0
272.4560, 110853.0
273.6650, 111055.0
274.8750, 111163.0
276.0840, 111410.0
277.2940, 111934.0
278.5030, 111550.0
279.7120, 112027.0
280.9200, 112590.0
282.1290, 112446.0
283.3380, 112851.0
284.5460, 111718.0
285.7540, 111785.0
286.9620, 111312.0
288.1700, 111050.0
289.3780, 110607.0
290.5860, 110526.0
291.7930, 109844.0
293.0000, 109972.0
294.2080, 110179.0
295.4150, 109736.0
296.6210, 109432.0
297.8280, 109341.0
299.0350, 109183.0
300.2410, 110065.0
301.4470, 109871.0
302.6530, 110124.0
303.8590, 111363.0
305.0650, 111590.0
306.2710, 111847.0
307.4760, 112438.0
308.6820, 113238.0
309.8870, 113796.9
311.0920, 114346.0
312.2970, 115212.0
313.5020, 115920.0
314.7060, 116470.0
315.9110, 116904.0
317.1150, 117271.0
318.3190, 117716.0
319.5230, 118089.4
320.7270, 118858.0
321.9300, 118859.0
323.1340, 119296.0
324.3370, 119703.0
325.5410, 119501.5
326.7440, 119502.0
327.9470, 119177.0
329.1490, 118819.0
330.3520, 118578.0
331.5550, 118234.0
332.7570, 117818.0
333.9590, 117811.0
335.1610, 117149.0
336.3630, 117045.0
337.5650, 117712.0
338.7660, 117308.0
339.9680, 117800.0
341.1690, 118168.0
342.3700, 117943.0
343.5710, 118838.0
344.7720, 119529.0
345.9720, 120106.0
347.1730, 120750.0
348.3730, 121568.8
349.5730, 122675.0
350.7730, 123302.0
351.9730, 124589.0
353.1730, 125624.0
354.3730, 125824.0
355.5720, 126869.0
356.7710, 127548.0
357.9710, 127340.0
359.1700, 128453.0
360.3680, 128143.0
361.5670, 128031.0
362.7660, 127776.0
363.9640, 127620.1
365.1620, 127497.0
366.3600, 127273.0
367.5580, 126992.3
368.7560, 126700.0
369.9540, 126130.0
371.1510, 125525.0
372.3480, 124843.0
373.5450, 124278.0
374.7420, 124259.0
375.9390, 123635.0
377.1360, 123355.0
378.3330, 123022.6
379.5290, 122276.0
380.7250, 122237.0
381.9210, 121690.0
383.1170, 121184.0
384.3130, 121071.0
385.5090, 120642.0
386.7040, 120248.0
387.8990, 120416.0
389.0950, 120928.0
390.2900, 120463.0
391.4850, 120368.0
392.6790, 120637.0
393.8740, 119808.0
395.0680, 120441.0
396.2620, 120093.0
397.4570, 120701.0
398.6510, 121153.0
399.8440, 120513.0
401.0380, 120709.0
402.2310, 120689.0
403.4250, 121057.0
404.6180, 121185.6
405.8110, 121331.4
407.0040, 121618.0
408.1970, 121628.0
409.3890, 121814.0
410.5820, 121921.0
411.7740, 121902.0
412.9660, 122623.0
414.1580, 122505.0
415.3500, 122128.0
416.5420, 122988.0
417.7330, 122883.0
418.9240, 122939.0
420.1160, 122874.0
421.3070, 123961.0
422.4980, 123715.0
423.6880, 124159.0
424.8790, 124096.0
426.0690, 124511.0
427.2600, 124222.0
428.4500, 124806.0
429.6400, 125123.0
430.8300, 125095.0
432.0190, 125039.0
433.2090, 125053.0
434.3980, 125616.0
435.5870, 126071.0
436.7760, 126347.0
437.9650, 126917.0
439.1540, 126885.0
440.3430, 126991.0
441.5310, 127126.0
442.7190, 127309.0
443.9080, 127937.0
445.0960, 127613.0
446.2830, 128368.0
447.4710, 127979.0
448.6590, 128689.0
449.8460, 128663.0
451.0330, 128840.0
452.2200, 128862.0
453.4070, 129094.9
454.5940, 129418.7
455.7800, 129656.0
456.9670, 130086.0
458.1530, 130511.0
459.3390, 130613.0
460.5250, 131215.0
461.7110, 130993.0
462.8970, 131080.0
464.0820, 131730.0
465.2680, 131733.0
466.4530, 132234.0
467.6380, 132136.0
468.8230, 132293.0
470.0080, 133169.0
471.1920, 133607.0
472.3770, 133541.0
473.5610, 133808.0
474.7450, 133715.0
475.9290, 134164.0
477.1130, 134394.0
478.2970, 134370.0
479.4800, 134916.7
480.6640, 134906.0
481.8470, 135798.0
483.0300, 135440.0
484.2130, 135904.0
485.3960, 135983.0
486.5780, 135703.0
487.7610, 136608.0
488.9430, 136565.0
490.1250, 136905.0
491.3070, 137484.0
492.4890, 137526.0
493.6710, 137999.0
494.8520, 137967.0
496.0340, 138197.0
497.2150, 138281.0
498.3960, 138940.0
499.5770, 138540.0
500.7570, 139497.0
501.9380, 139342.0
503.1180, 140141.0
504.2990, 139989.0
505.4790, 140760.0
506.6590, 140858.0
507.8390, 140590.0
509.0180, 140731.0
510.1980, 141197.0
511.3770, 141546.0
512.5560, 142115.0
513.7360, 142500.0
514.9140, 142707.0
516.0930, 142852.0
517.2720, 143097.0
518.4500, 143357.0
519.6290, 144474.0
520.8070, 144014.0
521.9850, 145015.0
523.1620, 144705.0
524.3400, 145231.0
525.5180, 145095.0
526.6950, 145740.0
527.8720, 145971.0
529.0490, 146134.0
530.2260, 146530.0
531.4030, 146821.0
532.5790, 147071.0
533.7560, 146757.0
534.9320, 147703.0
536.1080, 148169.0
537.2840, 147864.0
538.4600, 148623.0
539.6360, 148659.0
540.8110, 148155.0
541.9860, 149110.0
543.1620, 149308.0
544.3370, 149268.0
545.5120, 150760.0
546.6860, 149837.0
547.8610, 150442.0
549.0350, 150675.0
550.2090, 150959.0
551.3840, 151194.0
552.5580, 151790.0
553.7310, 151927.0
554.9050, 151937.0
556.0780, 152928.0
557.2520, 152564.0
558.4250, 153008.0
559.5980, 153578.0
560.7710, 153731.0
561.9430, 154492.0
563.1160, 154419.0
564.2880, 154427.1
565.4610, 155510.0
566.6330, 154354.0
567.8050, 155362.0
568.9760, 156097.0
570.1480, 156227.0
571.3200, 156948.0
572.4910, 157009.0
573.6620, 157087.9
574.8330, 156497.0
576.0040, 157039.0
577.1740, 157604.0
578.3450, 157739.0
579.5150, 158320.0
580.6860, 158397.0
581.8560, 158731.0
583.0260, 158656.0
584.1950, 159016.0
585.3650, 159537.0
586.5340, 159265.0
587.7040, 160151.0
588.8730, 159965.0
590.0420, 160170.0
591.2110, 161458.0
592.3790, 161944.0
593.5480, 161560.0
594.7160, 161598.0
595.8840, 162145.0
597.0520, 162997.0
598.2200, 162731.0
599.3880, 162783.0
600.5550, 163372.0
601.7230, 163601.0
602.8900, 164650.0
604.0570, 164222.0
605.2240, 164630.0
606.3910, 165658.0
607.5580, 165533.0
608.7240, 165485.0
609.8900, 165549.0
611.0570, 165972.0
612.2230, 166267.0
613.3880, 167128.0
614.5540, 167314.0
615.7200, 167982.0
616.8850, 168258.1
618.0500, 168123.0
619.2150, 168727.0
620.3800, 169078.0
621.5450, 169294.0
622.7100, 169086.0
623.8740, 169746.0
625.0380, 169906.0
626.2020, 170951.0
627.3660, 170950.0
628.5300, 171418.0
629.6940, 172257.0
630.8570, 172280.0
632.0210, 172394.0
633.1840, 172443.0
634.3470, 172855.0
635.5100, 173348.0
636.6730, 173873.0
637.8350, 174146.0
638.9980, 174532.0
640.1600, 175019.0
641.3220, 175302.8
642.4840, 175669.0
643.6460, 175859.0
644.8070, 176315.0
645.9690, 176312.0
647.1300, 177041.0
648.2910, 176930.0
649.4520, 177658.0
650.6130, 178218.0
651.7740, 178468.0
652.9340, 178917.0
654.0950, 178912.0
655.2550, 180070.0
656.4150, 180292.0
657.5750, 180397.0
658.7350, 181633.0
659.8940, 182106.0
661.0540, 182258.0
662.2130, 182639.0
663.3720, 183003.0
664.5310, 183283.3
665.6900, 183581.0
666.8490, 183829.0
668.0070, 184370.0
669.1650, 184382.0
670.3240, 185773.0
671.4820, 185992.0
672.6400, 186073.0
673.7970, 187080.0
674.9550, 187303.0
676.1120, 188339.0
677.2690, 189636.0
678.4270, 191068.0
679.5830, 191310.0
680.7400, 192673.0
681.8970, 191345.0
683.0530, 192192.0
684.2100, 191283.6
685.3660, 192038.0
686.5220, 191389.0
687.6780, 191185.0
688.8330, 191944.0
689.9890, 191739.0
691.1440, 192580.0
692.2990, 192604.0
693.4540, 192573.0
694.6090, 193773.0
695.7640, 192725.0
696.9180, 193575.0
698.0730, 193909.0
699.2270, 194116.0
700.3810, 194904.0
701.5350, 194820.0
702.6890, 195614.0
703.8430, 195404.0
704.9960, 196165.0
706.1490, 195458.0
707.3030, 196514.0
708.4560, 196782.0
709.6080, 197134.0
710.7610, 197624.0
711.9140, 198135.0
713.0660, 198771.0
714.2180, 198914.0
715.3700, 199767.0
716.5220, 199901.0
717.6740, 200212.0
718.8250, 201171.0
719.9770, 201801.0
721.1280, 202235.0
722.2790, 203130.0
723.4300, 204314.0
724.5810, 204635.0
725.7320, 205165.0
726.8820, 205641.0
728.0320, 207319.0
729.1830, 208637.0
730.3330, 208618.0
731.4820, 209310.0
732.6320, 209013.0
733.7820, 210478.0
734.9310, 210613.0
736.0800, 211354.0
737.2290, 211512.0
738.3780, 211716.0
739.5270, 211154.0
740.6750, 211303.0
741.8240, 211837.0
742.9720, 211705.0
744.1200, 213041.0
745.2680, 213151.0
746.4160, 213806.0
747.5640, 215737.0
748.7110, 216572.0
749.8580, 218030.0
751.0060, 218158.0
752.1530, 219234.0
753.2990, 218404.0
754.4460, 218496.0
755.5930, 218783.0
756.7390, 219468.0
757.8850, 219683.0
759.0310, 220970.0
760.1770, 223258.0
761.3230, 224927.0
762.4690, 226136.0
763.6140, 226806.0
764.7590, 226087.0
765.9040, 224410.0
767.0490, 223381.0
768.1940, 222142.0
769.3390, 220869.0
770.4830, 220674.0
771.6270, 220973.0
772.7720, 221075.0
773.9160, 220224.0
775.0590, 221417.0
776.2030, 221182.0
777.3470, 220736.0
778.4900, 221645.0
779.6330, 220966.0
780.7760, 222329.0
781.9190, 222023.0
783.0620, 222928.0
784.2040, 223398.0
785.3470, 223329.0
786.4890, 224370.0
787.6310, 224651.0
788.7730, 225530.0
789.9150, 226386.0
791.0570, 226889.0
792.1980, 225852.0
793.3390, 226560.0
794.4810, 227181.0
795.6210, 227336.0
796.7620, 227888.0
797.9030, 227934.0
799.0430, 228553.4
800.1840, 228923.0
801.3240, 229451.0
802.4640, 230245.0
803.6040, 230180.0
804.7440, 231622.0
805.8830, 230905.0
807.0230, 231741.0
808.1620, 232510.0
809.3010, 232609.0
810.4400, 233233.0
811.5790, 233569.0
812.7170, 234196.0
813.8560, 234464.0
814.9940, 235411.0
816.1320, 236026.0
817.2700, 235873.0
818.4080, 236559.0
819.5460, 237755.0
820.6830, 238778.0
821.8200, 238561.0
822.9580, 239797.0
824.0950, 239146.0
825.2310, 240306.0
826.3680, 239417.0
827.5050, 239682.0
828.6410, 240892.0
829.7770, 241084.0
830.9130, 241563.7
832.0490, 242544.0
833.1850, 242302.0
834.3210, 243071.0
835.4560, 243664.0
836.5910, 244160.0
837.7260, 244869.1
838.8610, 244425.0
839.9960, 245766.0
841.1310, 246436.0
842.2650, 246113.0
843.4000, 246822.0
844.5340, 247023.0
845.6680, 247239.0
846.8010, 248744.0
847.9350, 248755.0
849.0690, 248918.0
850.2020, 250277.0
851.3350, 250612.0
852.4680, 251261.0
853.6010, 251928.0
854.7340, 252248.0
855.8660, 251797.0
856.9990, 252551.0
858.1310, 253053.0
859.2630, 253353.0
860.3950, 254314.0
861.5270, 254109.0
862.6580, 255280.0
863.7900, 255465.0
864.9210, 255752.0
866.0520, 256709.0
867.1830, 257371.0
868.3140, 257294.0
869.4450, 258473.0
870.5750, 258821.0
871.7060, 259112.0
872.8360, 259940.0
873.9660, 260698.0
875.0960, 260525.0
876.2250, 260920.0
877.3550, 261202.0
878.4840, 261893.0
879.6130, 262138.0
880.7420, 262593.0
881.8710, 263010.0
883.0000, 263470.0
884.1290, 263979.0
885.2570, 263937.0
886.3850, 264612.0
887.5130, 265164.0
888.6410, 265504.0
889.7690, 266683.0
890.8970, 266586.0
892.0240, 267508.0
893.1510, 267974.0
894.2790, 268964.0
895.4050, 268729.0
896.5320, 269660.0
897.6590, 270400.1
898.7850, 270722.0
899.9120, 272090.0
901.0380, 271603.0
902.1640, 272153.0
903.2900, 272814.0
904.4150, 272705.0
905.5410, 273990.0
906.6660, 274772.0
907.7920, 274561.0
908.9170, 276204.0
910.0420, 276689.0
911.1660, 275999.0
912.2910, 276832.0
913.4150, 276935.0
914.5400, 277507.0
915.6640, 278051.0
916.7880, 278283.0
917.9110, 278835.0
919.0350, 279087.0
920.1580, 279243.0
921.2820, 280064.0
922.4050, 281603.0
923.5280, 281775.0
924.6510, 282499.1
925.7730, 282871.0
926.8960, 283214.0
928.0180, 283098.0
929.1400, 283428.0
930.2620, 284277.0
931.3840, 285122.0
932.5060, 284860.0
933.6270, 285747.0
934.7490, 286151.4
935.8700, 285709.0
936.9910, 287136.0
938.1120, 287322.0
939.2330, 287558.0
940.3530, 288147.0
941.4740, 288384.7
942.5940, 288802.0
943.7140, 289459.0
944.8340, 289227.0
945.9540, 290362.0
947.0730, 290799.0
948.1930, 290639.0
949.3120, 291779.0
950.4310, 291222.0
951.5500, 292706.0
952.6690, 292080.0
953.7870, 293381.0
954.9060, 293497.0
956.0240, 293661.0
957.1420, 295462.0
958.2600, 294416.0
959.3780, 296161.0
960.4960, 295939.0
961.6130, 296898.0
962.7310, 297694.0
963.8480, 297832.0
964.9650, 298152.0
966.0820, 298333.0
967.1990, 298749.0
968.3150, 298338.0
969.4310, 299460.0
970.5480, 300672.0
971.6640, 300301.0
972.7800, 300697.0
973.8950, 301360.0
975.0110, 301312.0
976.1260, 302444.0
977.2420, 301993.0
978.3570, 303337.0
979.4720, 302371.0
980.5870, 304231.0
981.7010, 303945.0
982.8160, 303806.0
983.9300, 304271.0
985.0440, 304393.0
986.1580, 305160.0
987.2720, 305139.0
988.3860, 305161.0
989.4990, 306240.0
990.6120, 307606.0
991.7260, 307027.0
992.8390, 307321.0
993.9510, 308282.0
995.0640, 308019.0
996.1770, 308881.0
997.2890, 308774.0
998.4010, 309356.0
999.5130, 310357.0
1000.625, 309965.0
1001.737, 311127.0
1002.848, 311476.0
1003.960, 312544.0
1005.071, 311659.0
1006.182, 312655.0
1007.293, 312812.0
1008.404, 312902.0
1009.514, 313702.0
1010.625, 313275.0
1011.735, 314365.0
1012.845, 314710.0
1013.955, 315171.0
1015.065, 315562.0
1016.175, 316079.0
1017.284, 316377.0
1018.393, 316993.4
1019.503, 317943.0
1020.612, 318161.0
1021.720, 318437.0
1022.829, 318967.0
1023.937, 319995.0
1025.046, 320708.0
1026.154, 321476.0
1027.262, 321904.0
1028.370, 322627.3
1029.478, 323612.0
1030.585, 323882.0
1031.692, 324232.0
1032.800, 324910.0
1033.907, 325976.0
1035.014, 326985.0
1036.120, 326936.0
1037.227, 327199.0
1038.333, 328443.0
1039.440, 328509.0
1040.546, 329099.0
1041.652, 330546.0
1042.757, 330399.0
1043.863, 331239.0
1044.968, 331752.0
1046.074, 332306.0
1047.179, 332666.0
1048.284, 334731.0
1049.388, 334395.0
1050.493, 334360.0
1051.598, 336505.0
1052.702, 336857.0
1053.806, 339049.0
1054.910, 339351.0
1056.014, 340052.0
1057.117, 342182.0
1058.221, 343441.0
1059.324, 345649.0
1060.427, 346723.0
1061.530, 348057.0
1062.633, 349398.0
1063.736, 350643.0
1064.838, 354236.0
1065.941, 355387.0
1067.043, 358164.0
1068.145, 360313.0
1069.247, 363374.0
1070.349, 368475.0
1071.450, 371773.0
1072.552, 378302.0
1073.653, 381344.0
1074.754, 387933.0
1075.855, 392691.0
1076.955, 395402.0
1078.056, 400128.0
1079.156, 405001.0
1080.257, 411073.0
1081.357, 417065.0
1082.457, 420465.0
1083.557, 416389.0
1084.656, 408214.0
1085.756, 397909.0
1086.855, 387588.0
1087.954, 380135.0
1089.053, 372942.0
1090.152, 368181.0
1091.250, 365312.0
1092.349, 362510.0
1093.447, 360653.0
1094.545, 359689.0
1095.643, 358938.0
1096.741, 358856.0
1097.839, 357452.0
1098.936, 357294.0
1100.034, 356880.0
1101.131, 357172.0
1102.228, 357136.0
1103.325, 357270.0
1104.421, 357791.0
1105.518, 356644.0
1106.614, 358219.0
1107.710, 357295.0
1108.806, 357553.0
1109.902, 358605.0
1110.998, 357908.0
1112.094, 358684.0
1113.189, 359276.0
1114.284, 359346.0
1115.379, 359056.0
1116.474, 359769.0
1117.569, 360273.0
1118.664, 359911.0
1119.758, 361482.0
1120.852, 360141.0
1121.946, 361489.0
1123.040, 362190.0
1124.134, 362229.0
1125.228, 362588.0
1126.321, 363061.0
1127.414, 363519.0
1128.507, 363442.0
1129.600, 364348.0
1130.693, 364832.0
1131.786, 364433.0
1132.878, 365998.0
1133.971, 365102.0
1135.063, 366331.0
1136.155, 366484.0
1137.247, 367252.0
1138.338, 367555.0
1139.430, 367580.0
1140.521, 368245.0
1141.612, 368522.0
1142.703, 369380.0
1143.794, 369295.0
1144.885, 368821.0
1145.975, 369635.0
1147.066, 369205.0
1148.156, 370538.0
1149.246, 370590.0
1150.336, 371095.0
1151.425, 371292.0
1152.515, 371245.0
1153.604, 372889.0
1154.693, 371626.0
1155.783, 373268.0
1156.871, 373030.0
1157.960, 373640.0
1159.049, 374638.0
1160.137, 373847.0
1161.225, 374702.0
1162.313, 374493.0
1163.401, 375083.0
1164.489, 376427.0
1165.577, 375158.0
1166.664, 376835.0
1167.751, 376645.0
1168.838, 376890.0
1169.925, 377035.0
1171.012, 377317.0
1172.099, 378108.0
1173.185, 377394.0
1174.272, 379604.0
1175.358, 378339.0
1176.444, 379868.0
1177.529, 380180.0
1178.615, 381164.0
1179.700, 381337.0
1180.786, 381390.0
1181.871, 381324.0
1182.956, 381957.0
1184.041, 381700.0
1185.125, 382934.0
1186.210, 381927.0
1187.294, 382876.0
1188.378, 383279.0
1189.462, 383017.0
1190.546, 383948.0
1191.630, 383622.0
1192.713, 385612.0
1193.797, 384422.0
1194.880, 385397.0
1195.963, 385847.0
1197.046, 384807.0
1198.129, 386205.0
1199.211, 385751.0
1200.293, 386307.0
1201.376, 386692.0
1202.458, 386311.0
1203.540, 387583.0
1204.621, 386643.0
1205.703, 388394.0
1206.784, 388826.0
1207.865, 388175.0
1208.947, 389379.0
1210.027, 389150.0
1211.108, 390555.0
1212.189, 390105.0
1213.269, 390039.0
1214.349, 391631.0
1215.430, 391088.0
1216.509, 391274.0
1217.589, 392025.0
1218.669, 392340.0
1219.748, 391799.0
1220.827, 392256.0
1221.907, 394115.0
1222.986, 393665.0
1224.064, 394335.0
1225.143, 394069.0
1226.221, 394242.0
1227.300, 394894.0
1228.378, 394961.0
1229.456, 395548.0
1230.534, 395623.0
1231.611, 395459.0
1232.689, 396585.0
1233.766, 397218.0
1234.843, 396947.0
1235.920, 396895.0
1236.997, 396474.0
1238.074, 397998.0
1239.150, 397338.0
1240.226, 397755.0
1241.303, 398670.0
1242.379, 398544.0
1243.454, 399525.0
1244.530, 399903.0
