##NAMES=Weloganite
##RRUFFID=R050217
##IDEAL CHEMISTRY=Na_2_Sr_3_Zr^4+^(C^4+^O_3_)_6_&#183;3H_2_O
##LOCALITY=Francon Quarry, Montréal, Québec, Canada
##OWNER=RRUFF
##SOURCE=Marcus Origlieri
##DESCRIPTION=Tan colored tapered hexagonal single crystals
##STATUS=The identification of this mineral has been confirmed by X-ray diffraction and chemical analysis
##URL=rruff.info/R050217
##MEASURED CHEMISTRY=Na_2.00_(Sr_2.93_Ca_0.07_)_Σ=3_(Zr_0.90_Hf_0.10_)_Σ=1_(CO_3_)_6_·3H_2_O
##PIN_ID=M00939
##ORIENTATION=Laser parallel to (1 0 1). Fiducial mark perpendicular to laser is parallel to -b [0 -1 0]
64.63500, 1402.000
65.87000, 1674.000
67.10500, 1817.000
68.34000, 1942.000
69.57400, 2142.000
70.80900, 2453.000
72.04300, 2715.000
73.27700, 3259.000
74.51100, 3933.000
75.74500, 4754.000
76.97800, 5731.000
78.21200, 6746.000
79.44500, 8143.000
80.67800, 9375.000
81.91200, 10873.00
83.14400, 12437.00
84.37700, 14307.00
85.61000, 16465.00
86.84200, 19158.00
88.07500, 21647.00
89.30700, 24210.00
90.53900, 27106.00
91.77100, 30118.00
93.00200, 32789.00
94.23400, 35445.00
95.46500, 38201.00
96.69700, 40571.00
97.92800, 43293.00
99.15900, 45780.00
100.3900, 47750.00
101.6200, 49551.00
102.8510, 52489.00
104.0810, 54663.00
105.3120, 56924.00
106.5420, 59383.00
107.7720, 60914.00
109.0020, 62556.00
110.2310, 63197.00
111.4610, 63575.00
112.6900, 63583.00
113.9190, 63366.00
115.1480, 62738.00
116.3770, 62524.00
117.6060, 63030.00
118.8350, 63263.00
120.0630, 64313.00
121.2920, 65459.00
122.5200, 67021.00
123.7480, 69044.00
124.9760, 70657.00
126.2040, 72928.00
127.4310, 74772.00
128.6590, 77194.00
129.8860, 79074.00
131.1130, 80667.00
132.3400, 82938.00
133.5670, 84821.00
134.7940, 86726.00
136.0200, 88459.00
137.2470, 91104.00
138.4730, 93451.00
139.6990, 96269.00
140.9250, 100316.0
142.1510, 104820.0
143.3770, 109697.0
144.6020, 115503.0
145.8280, 120505.0
147.0530, 125489.0
148.2780, 129072.0
149.5030, 132459.0
150.7280, 135441.0
151.9520, 137952.0
153.1770, 139282.0
154.4010, 140871.0
155.6250, 140234.0
156.8490, 138462.0
158.0730, 135124.0
159.2970, 131195.0
160.5210, 125798.0
161.7440, 119382.0
162.9680, 112517.0
164.1910, 104975.0
165.4140, 98648.00
166.6370, 93309.00
167.8590, 89048.00
169.0820, 85808.00
170.3040, 83613.00
171.5270, 82337.00
172.7490, 80740.00
173.9710, 79853.00
175.1930, 78520.00
176.4140, 77508.00
177.6360, 76793.00
178.8570, 75427.00
180.0780, 74501.00
181.2990, 73644.00
182.5200, 73232.00
183.7410, 72506.00
184.9620, 72657.00
186.1820, 72449.00
187.4030, 72710.00
188.6230, 73184.00
189.8430, 73278.00
191.0630, 74215.00
192.2830, 74891.00
193.5020, 75576.00
194.7220, 76134.00
195.9410, 76697.00
197.1600, 77952.00
198.3790, 78395.00
199.5980, 78525.00
200.8170, 79422.00
202.0350, 79426.00
203.2540, 79834.00
204.4720, 80299.00
205.6900, 80134.00
206.9080, 80928.00
208.1260, 81487.00
209.3430, 81335.00
210.5610, 81192.00
211.7780, 81090.00
212.9960, 81709.00
214.2130, 81737.00
215.4290, 82042.00
216.6460, 83120.00
217.8630, 84360.00
219.0790, 85237.00
220.2960, 87079.00
221.5120, 88198.00
222.7280, 89461.00
223.9440, 90746.00
225.1590, 91762.00
226.3750, 92855.00
227.5900, 94002.00
228.8060, 94888.00
230.0210, 95102.00
231.2360, 94850.00
232.4510, 93958.00
233.6650, 93550.00
234.8800, 92829.00
236.0940, 92058.00
237.3080, 91257.00
238.5220, 90399.00
239.7360, 89543.00
240.9500, 88388.00
242.1640, 87153.00
243.3770, 85558.00
244.5910, 84290.00
245.8040, 82509.00
247.0170, 81332.00
248.2300, 79620.00
249.4420, 78499.38
250.6550, 77413.00
251.8670, 76488.00
253.0800, 75172.00
254.2920, 74596.00
255.5040, 73606.00
256.7160, 73518.00
257.9270, 73314.00
259.1390, 73032.00
260.3500, 72819.00
261.5610, 72478.00
262.7720, 72499.00
263.9830, 71840.00
265.1940, 71800.00
266.4050, 71560.00
267.6150, 71578.00
268.8260, 71484.00
270.0360, 71463.00
271.2460, 71289.00
272.4560, 71986.00
273.6650, 73027.00
274.8750, 74406.00
276.0840, 74762.00
277.2940, 75471.00
278.5030, 76610.00
279.7120, 77374.00
280.9200, 77496.00
282.1290, 77547.00
283.3380, 77251.00
284.5460, 76630.00
285.7540, 75884.00
286.9620, 74487.00
288.1700, 73275.00
289.3780, 71964.00
290.5860, 71185.00
291.7930, 69922.00
293.0000, 69045.00
294.2080, 68537.00
295.4150, 68017.00
296.6210, 67346.00
297.8280, 67824.00
299.0350, 67477.00
300.2410, 67908.00
301.4470, 68371.93
302.6530, 68818.00
303.8590, 69454.00
305.0650, 70421.00
306.2710, 70830.00
307.4760, 72148.00
308.6820, 73067.00
309.8870, 73620.00
311.0920, 74744.00
312.2970, 75848.00
313.5020, 76595.00
314.7060, 77449.70
315.9110, 78336.00
317.1150, 78746.00
318.3190, 79361.00
319.5230, 79848.00
320.7270, 80704.00
321.9300, 81480.00
323.1340, 81001.00
324.3370, 81543.00
325.5410, 81137.00
326.7440, 81080.00
327.9470, 80395.00
329.1490, 79539.00
330.3520, 78682.00
331.5550, 77679.00
332.7570, 76995.00
333.9590, 76313.00
335.1610, 75474.00
336.3630, 75192.00
337.5650, 75497.00
338.7660, 75799.00
339.9680, 76697.00
341.1690, 77346.00
342.3700, 78894.00
343.5710, 80915.00
344.7720, 82923.00
345.9720, 85732.00
347.1730, 88812.00
348.3730, 92223.00
349.5730, 95570.00
350.7730, 98602.00
351.9730, 101798.0
353.1730, 104344.0
354.3730, 105495.0
355.5720, 106529.0
356.7710, 106948.0
357.9710, 105655.0
359.1700, 103551.0
360.3680, 101406.0
361.5670, 99353.00
362.7660, 96397.00
363.9640, 94371.00
365.1620, 92581.00
366.3600, 91186.00
367.5580, 89747.00
368.7560, 88572.00
369.9540, 87179.00
371.1510, 85893.95
372.3480, 84490.00
373.5450, 83089.00
374.7420, 81646.00
375.9390, 79756.00
377.1360, 78941.00
378.3330, 77659.00
379.5290, 75459.00
380.7250, 73761.00
381.9210, 72218.00
383.1170, 71388.00
384.3130, 70550.00
385.5090, 69613.00
386.7040, 68847.00
387.8990, 68139.52
389.0950, 67390.00
390.2900, 66930.00
391.4850, 66448.00
392.6790, 66043.00
393.8740, 65791.00
395.0680, 65727.00
396.2620, 65270.00
397.4570, 65245.00
398.6510, 64730.00
399.8440, 64914.00
401.0380, 64947.00
402.2310, 64306.00
403.4250, 64576.00
404.6180, 64626.00
405.8110, 64597.00
407.0040, 64366.00
408.1970, 64414.00
409.3890, 64386.00
410.5820, 64327.13
411.7740, 64290.00
412.9660, 64350.00
414.1580, 64325.00
415.3500, 64416.00
416.5420, 64495.45
417.7330, 64549.30
418.9240, 64678.00
420.1160, 64718.00
421.3070, 64735.00
422.4980, 64817.00
423.6880, 64700.00
424.8790, 64677.00
426.0690, 64677.00
427.2600, 64947.00
428.4500, 64781.00
429.6400, 64786.00
430.8300, 64582.00
432.0190, 64997.00
433.2090, 64724.00
434.3980, 65256.00
435.5870, 65326.00
436.7760, 65365.00
437.9650, 65460.00
439.1540, 65638.00
440.3430, 65505.00
441.5310, 65440.00
442.7190, 65601.00
443.9080, 66144.00
445.0960, 66191.00
446.2830, 65906.00
447.4710, 66206.00
448.6590, 66075.00
449.8460, 66654.00
451.0330, 66525.00
452.2200, 66530.00
453.4070, 66549.00
454.5940, 66731.00
455.7800, 66603.00
456.9670, 66819.00
458.1530, 67048.00
459.3390, 66696.00
460.5250, 67141.00
461.7110, 67062.00
462.8970, 66706.00
464.0820, 67447.00
465.2680, 67297.00
466.4530, 67624.00
467.6380, 67791.00
468.8230, 68250.00
470.0080, 67792.00
471.1920, 68086.00
472.3770, 67915.00
473.5610, 68189.00
474.7450, 68145.00
475.9290, 68461.00
477.1130, 68288.00
478.2970, 68452.00
479.4800, 68576.00
480.6640, 68649.00
481.8470, 68597.00
483.0300, 69247.00
484.2130, 69516.00
485.3960, 69039.00
486.5780, 69339.00
487.7610, 69181.00
488.9430, 69372.00
490.1250, 69633.00
491.3070, 69710.00
492.4890, 69785.00
493.6710, 69598.00
494.8520, 70324.00
496.0340, 70154.97
497.2150, 70548.00
498.3960, 70335.00
499.5770, 70127.00
500.7570, 70219.00
501.9380, 70599.00
503.1180, 70655.00
504.2990, 70578.00
505.4790, 70866.00
506.6590, 70929.00
507.8390, 71187.00
509.0180, 71131.00
510.1980, 71525.00
511.3770, 71353.00
512.5560, 71617.00
513.7360, 72236.00
514.9140, 71566.00
516.0930, 71871.00
517.2720, 71748.00
518.4500, 72260.00
519.6290, 72379.00
520.8070, 72542.00
521.9850, 72811.00
523.1620, 72876.12
524.3400, 72904.00
525.5180, 73075.00
526.6950, 73116.00
527.8720, 73179.00
529.0490, 73615.00
530.2260, 73579.00
531.4030, 73835.00
532.5790, 73721.00
533.7560, 74222.00
534.9320, 74190.00
536.1080, 74151.00
537.2840, 74339.00
538.4600, 74244.00
539.6360, 74371.00
540.8110, 74561.00
541.9860, 75094.00
543.1620, 74739.00
544.3370, 74720.00
545.5120, 75351.00
546.6860, 75025.00
547.8610, 75185.00
549.0350, 75083.00
550.2090, 75227.00
551.3840, 75498.00
552.5580, 75513.00
553.7310, 75645.00
554.9050, 75959.00
556.0780, 75937.00
557.2520, 76168.00
558.4250, 75903.00
559.5980, 76527.00
560.7710, 76143.00
561.9430, 76676.00
563.1160, 76167.00
564.2880, 76089.00
565.4610, 76537.00
566.6330, 76645.00
567.8050, 76803.00
568.9760, 76753.00
570.1480, 76795.00
571.3200, 76575.00
572.4910, 76854.00
573.6620, 76837.00
574.8330, 76864.00
576.0040, 77036.00
577.1740, 76835.00
578.3450, 77165.00
579.5150, 77522.00
580.6860, 77060.00
581.8560, 77832.00
583.0260, 77420.00
584.1950, 78080.00
585.3650, 77761.00
586.5340, 77890.00
587.7040, 77729.00
588.8730, 77940.00
590.0420, 78057.00
591.2110, 78589.00
592.3790, 78683.00
593.5480, 78592.00
594.7160, 78847.00
595.8840, 78681.00
597.0520, 78729.00
598.2200, 79080.00
599.3880, 78891.00
600.5550, 79226.00
601.7230, 79112.00
602.8900, 79316.00
604.0570, 79622.00
605.2240, 79794.00
606.3910, 79726.00
607.5580, 80146.00
608.7240, 79846.00
609.8900, 80043.00
611.0570, 80499.00
612.2230, 80621.00
613.3880, 80592.00
614.5540, 80897.00
615.7200, 80932.00
616.8850, 80848.00
618.0500, 81043.00
619.2150, 81084.00
620.3800, 81215.00
621.5450, 81291.00
622.7100, 81683.00
623.8740, 81883.00
625.0380, 81584.00
626.2020, 82407.00
627.3660, 81566.00
628.5300, 82203.00
629.6940, 82373.00
630.8570, 82468.00
632.0210, 82717.00
633.1840, 82778.33
634.3470, 83020.54
635.5100, 82987.00
636.6730, 83448.00
637.8350, 83649.00
638.9980, 83820.00
640.1600, 83342.00
641.3220, 83726.00
642.4840, 83880.00
643.6460, 84556.00
644.8070, 84644.00
645.9690, 84546.00
647.1300, 85132.00
648.2910, 84957.00
649.4520, 85262.00
650.6130, 85007.00
651.7740, 85357.00
652.9340, 85448.00
654.0950, 85921.00
655.2550, 86125.00
656.4150, 86520.00
657.5750, 86367.00
658.7350, 86245.00
659.8940, 86902.00
661.0540, 86979.00
662.2130, 87670.00
663.3720, 87382.00
664.5310, 87763.00
665.6900, 87551.00
666.8490, 88140.00
668.0070, 88381.00
669.1650, 88471.00
670.3240, 89176.00
671.4820, 89200.00
672.6400, 90463.00
673.7970, 91217.00
674.9550, 92747.00
676.1120, 93730.00
677.2690, 95796.00
678.4270, 96963.00
679.5830, 98775.00
680.7400, 99640.00
681.8970, 99689.00
683.0530, 99133.00
684.2100, 97625.00
685.3660, 95590.00
686.5220, 94777.00
687.6780, 93457.00
688.8330, 92916.00
689.9890, 92561.00
691.1440, 92653.00
692.2990, 92654.00
693.4540, 92042.00
694.6090, 92538.00
695.7640, 92174.00
696.9180, 92254.00
698.0730, 92372.00
699.2270, 92449.00
700.3810, 92411.00
701.5350, 92087.00
702.6890, 92257.00
703.8430, 91745.00
704.9960, 91573.00
706.1490, 92031.00
707.3030, 91306.00
708.4560, 91878.00
709.6080, 91252.00
710.7610, 91507.00
711.9140, 92019.00
713.0660, 92156.00
714.2180, 92580.00
715.3700, 92732.00
716.5220, 93053.00
717.6740, 93419.65
718.8250, 93783.00
719.9770, 94344.00
721.1280, 95039.00
722.2790, 95942.00
723.4300, 97449.00
724.5810, 98883.00
725.7320, 100722.0
726.8820, 102408.0
728.0320, 104369.0
729.1830, 106024.0
730.3330, 107059.0
731.4820, 107229.0
732.6320, 106982.0
733.7820, 106669.0
734.9310, 106567.2
736.0800, 106311.2
737.2290, 106047.4
738.3780, 105785.5
739.5270, 105010.3
740.6750, 105296.6
741.8240, 105401.1
742.9720, 105187.0
744.1200, 106414.0
745.2680, 107294.0
746.4160, 111291.0
747.5640, 112601.0
748.7110, 114628.0
749.8580, 116504.0
751.0060, 117586.0
752.1530, 117019.0
753.2990, 115086.0
754.4460, 113524.0
755.5930, 111967.0
756.7390, 112015.0
757.8850, 113479.0
759.0310, 115353.0
760.1770, 118567.0
761.3230, 122083.0
762.4690, 123997.0
763.6140, 124574.0
764.7590, 122283.0
765.9040, 117886.0
767.0490, 112439.0
768.1940, 107499.0
769.3390, 103905.0
770.4830, 102283.0
771.6270, 100747.0
772.7720, 99914.00
773.9160, 99556.00
775.0590, 99133.00
776.2030, 98837.00
777.3470, 98915.00
778.4900, 99062.00
779.6330, 98206.00
780.7760, 98971.00
781.9190, 98545.00
783.0620, 98903.00
784.2040, 98483.00
785.3470, 99185.00
786.4890, 98965.00
787.6310, 99122.00
788.7730, 99323.00
789.9150, 99003.00
791.0570, 99684.00
792.1980, 99522.00
793.3390, 100021.0
794.4810, 99836.00
795.6210, 99735.00
796.7620, 100054.0
797.9030, 99923.00
799.0430, 100612.0
800.1840, 100052.0
801.3240, 100029.0
802.4640, 100577.0
803.6040, 100557.0
804.7440, 100598.0
805.8830, 100350.0
807.0230, 101166.0
808.1620, 101472.0
809.3010, 101703.0
810.4400, 101805.0
811.5790, 101816.0
812.7170, 101817.0
813.8560, 101681.0
814.9940, 102081.0
816.1320, 102209.0
817.2700, 102234.0
818.4080, 102046.0
819.5460, 102959.0
820.6830, 103141.0
821.8200, 102734.0
822.9580, 102539.0
824.0950, 103284.0
825.2310, 103637.0
826.3680, 103096.0
827.5050, 103285.0
828.6410, 103841.0
829.7770, 104162.0
830.9130, 103765.0
832.0490, 103922.0
833.1850, 104383.0
834.3210, 103892.0
835.4560, 104517.0
836.5910, 104982.0
837.7260, 104600.0
838.8610, 104721.0
839.9960, 104970.0
841.1310, 105763.0
842.2650, 105348.0
843.4000, 105699.0
844.5340, 105939.0
845.6680, 105838.0
846.8010, 106309.0
847.9350, 106421.0
849.0690, 106603.0
850.2020, 106923.0
851.3350, 106901.0
852.4680, 107190.0
853.6010, 107967.0
854.7340, 107480.0
855.8660, 107252.0
856.9990, 108004.0
858.1310, 107603.0
859.2630, 108128.0
860.3950, 108558.0
861.5270, 108301.0
862.6580, 108428.0
863.7900, 109162.0
864.9210, 109510.0
866.0520, 110070.0
867.1830, 109966.0
868.3140, 110405.0
869.4450, 110831.0
870.5750, 110873.0
871.7060, 111160.0
872.8360, 110881.0
873.9660, 110747.0
875.0960, 110402.0
876.2250, 110321.0
877.3550, 110260.0
878.4840, 110261.0
879.6130, 110236.0
880.7420, 110367.0
881.8710, 110502.8
883.0000, 110314.0
884.1290, 110893.0
885.2570, 110936.0
886.3850, 111074.0
887.5130, 110841.0
888.6410, 110929.0
889.7690, 111595.0
890.8970, 111578.0
892.0240, 111764.0
893.1510, 112007.0
894.2790, 112194.0
895.4050, 112103.0
896.5320, 112770.0
897.6590, 112370.0
898.7850, 112941.0
899.9120, 112994.0
901.0380, 113025.0
902.1640, 113467.0
903.2900, 113480.0
904.4150, 113416.0
905.5410, 113518.0
906.6660, 113892.0
907.7920, 113753.0
908.9170, 114305.0
910.0420, 114414.0
911.1660, 114077.0
912.2910, 114628.0
913.4150, 114473.0
914.5400, 114814.0
915.6640, 114832.0
916.7880, 114534.0
917.9110, 114984.0
919.0350, 114863.0
920.1580, 115677.0
921.2820, 115476.0
922.4050, 115662.0
923.5280, 115270.0
924.6510, 115767.0
925.7730, 115744.0
926.8960, 115772.0
928.0180, 116052.0
929.1400, 116785.0
930.2620, 116601.0
931.3840, 116738.0
932.5060, 116439.0
933.6270, 116720.0
934.7490, 116860.0
935.8700, 116919.0
936.9910, 116990.0
938.1120, 117219.0
939.2330, 117479.0
940.3530, 117496.0
941.4740, 117858.0
942.5940, 117900.5
943.7140, 118442.0
944.8340, 118031.0
945.9540, 117993.0
947.0730, 117931.0
948.1930, 118612.0
949.3120, 118732.0
950.4310, 119141.0
951.5500, 118533.0
952.6690, 119068.0
953.7870, 119398.0
954.9060, 118914.0
956.0240, 119210.0
957.1420, 119741.0
958.2600, 119400.0
959.3780, 119916.0
960.4960, 120031.0
961.6130, 120294.0
962.7310, 120605.0
963.8480, 120664.4
964.9650, 120952.0
966.0820, 120765.0
967.1990, 120726.0
968.3150, 120548.0
969.4310, 120891.0
970.5480, 121026.0
971.6640, 120904.0
972.7800, 120907.0
973.8950, 121139.8
975.0110, 121121.0
976.1260, 121543.0
977.2420, 121768.0
978.3570, 121811.0
979.4720, 121357.0
980.5870, 122154.0
981.7010, 121646.0
982.8160, 122288.0
983.9300, 122801.0
985.0440, 122172.0
986.1580, 122461.0
987.2720, 122148.0
988.3860, 122221.0
989.4990, 122289.0
990.6120, 122260.9
991.7260, 122253.0
992.8390, 122529.0
993.9510, 122898.0
995.0640, 123262.0
996.1770, 122998.0
997.2890, 123340.0
998.4010, 123174.0
999.5130, 123630.0
1000.625, 123210.0
1001.737, 123715.0
1002.848, 123656.0
1003.960, 123708.0
1005.071, 124112.0
1006.182, 124217.0
1007.293, 124566.0
1008.404, 124261.0
1009.514, 124788.0
1010.625, 124920.0
1011.735, 124784.0
1012.845, 125147.0
1013.955, 124940.0
1015.065, 125351.0
1016.175, 125643.0
1017.284, 125992.0
1018.393, 125817.0
1019.503, 125941.0
1020.612, 126013.0
1021.720, 126582.0
1022.829, 126550.0
1023.937, 126941.0
1025.046, 126593.0
1026.154, 127665.0
1027.262, 127903.0
1028.370, 127683.0
1029.478, 128053.0
1030.585, 128529.0
1031.692, 128923.0
1032.800, 129501.0
1033.907, 129226.0
1035.014, 129613.0
1036.120, 130001.0
1037.227, 129974.0
1038.333, 130413.0
1039.440, 130683.2
1040.546, 131251.0
1041.652, 131421.0
1042.757, 131853.0
1043.863, 132345.0
1044.968, 132046.0
1046.074, 133271.0
1047.179, 133226.0
1048.284, 134074.0
1049.388, 134621.0
1050.493, 135063.0
1051.598, 136525.0
1052.702, 137528.0
1053.806, 139104.0
1054.910, 140682.0
1056.014, 142871.0
1057.117, 145247.0
1058.221, 147743.0
1059.324, 150360.0
1060.427, 152616.0
1061.530, 154591.0
1062.633, 156224.0
1063.736, 158757.0
1064.838, 162013.0
1065.941, 165797.0
1067.043, 170681.0
1068.145, 175653.0
1069.247, 181694.0
1070.349, 189876.0
1071.450, 199258.0
1072.552, 211661.0
1073.653, 224564.0
1074.754, 239099.0
1075.855, 252587.0
1076.955, 266230.0
1078.056, 279933.0
1079.156, 296574.0
1080.257, 316499.0
1081.357, 332967.0
1082.457, 342794.0
1083.557, 332174.0
1084.656, 306401.0
1085.756, 270600.0
1086.855, 234996.0
1087.954, 209181.0
1089.053, 188732.0
1090.152, 175294.0
1091.250, 165673.0
1092.349, 159333.0
1093.447, 155382.0
1094.545, 151740.0
1095.643, 149041.0
1096.741, 147331.0
1097.839, 145777.0
1098.936, 144919.0
1100.034, 143630.0
1101.131, 143441.0
1102.228, 142677.0
1103.325, 142310.0
1104.421, 142201.0
1105.518, 141458.0
1106.614, 141163.0
1107.710, 140960.0
1108.806, 141072.0
1109.902, 140413.0
1110.998, 140518.0
1112.094, 140228.0
1113.189, 140514.0
1114.284, 140409.0
1115.379, 139649.0
1116.474, 140644.0
1117.569, 139948.0
1118.664, 140114.0
1119.758, 140048.0
1120.852, 140437.0
1121.946, 140294.0
1123.040, 140395.0
1124.134, 140959.0
1125.228, 140728.0
1126.321, 140295.0
1127.414, 140823.0
1128.507, 140975.0
1129.600, 140928.0
1130.693, 141369.0
1131.786, 141321.0
1132.878, 140674.0
1133.971, 141373.0
1135.063, 142044.0
1136.155, 141675.0
1137.247, 141293.0
1138.338, 141523.0
1139.430, 141888.0
1140.521, 141692.0
1141.612, 141972.0
1142.703, 142297.0
1143.794, 142244.0
1144.885, 142532.0
1145.975, 142502.0
1147.066, 142978.0
1148.156, 142711.0
1149.246, 142451.0
1150.336, 142231.0
1151.425, 142885.0
1152.515, 142425.0
1153.604, 143016.0
1154.693, 142745.0
1155.783, 143371.0
1156.871, 143300.0
1157.960, 143421.0
1159.049, 143798.0
1160.137, 143816.0
1161.225, 143633.0
1162.313, 143761.0
1163.401, 143800.0
1164.489, 144293.0
1165.577, 144080.0
1166.664, 144534.0
1167.751, 144028.0
1168.838, 144585.0
1169.925, 144996.0
1171.012, 144736.0
1172.099, 145196.0
1173.185, 145131.0
1174.272, 145302.0
1175.358, 145177.0
1176.444, 145390.0
1177.529, 145599.0
1178.615, 145720.0
1179.700, 145886.0
1180.786, 146159.0
1181.871, 145817.0
1182.956, 146312.0
1184.041, 146307.0
1185.125, 145813.0
1186.210, 146064.0
1187.294, 146022.2
1188.378, 145978.0
1189.462, 146291.0
1190.546, 146808.0
1191.630, 147002.0
1192.713, 147229.0
1193.797, 146787.0
1194.880, 146888.0
1195.963, 147039.0
1197.046, 147111.0
1198.129, 147136.6
1199.211, 147235.9
1200.293, 147273.2
1201.376, 147358.0
1202.458, 147405.0
1203.540, 147472.8
1204.621, 147605.2
1205.703, 147862.0
1206.784, 147862.0
1207.865, 148229.0
1208.947, 148523.0
1210.027, 148579.0
1211.108, 148654.0
1212.189, 148866.0
1213.269, 148820.0
1214.349, 148808.0
1215.430, 148955.0
1216.509, 149079.0
1217.589, 149660.0
1218.669, 149455.0
1219.748, 149506.0
1220.827, 149205.0
1221.907, 149218.0
1222.986, 149978.0
1224.064, 150408.0
1225.143, 149675.0
1226.221, 149318.0
1227.300, 150171.0
1228.378, 150403.0
1229.456, 150321.0
1230.534, 150755.0
1231.611, 150301.0
1232.689, 150805.0
1233.766, 150541.0
1234.843, 151007.0
1235.920, 150758.0
1236.997, 151578.0
1238.074, 150971.0
1239.150, 150930.0
1240.226, 151682.0
1241.303, 151175.0
1242.379, 151610.0
1243.454, 151764.0
1244.530, 151887.0
