##NAMES=Weloganite
##RRUFFID=R050217
##IDEAL CHEMISTRY=Na_2_Sr_3_Zr^4+^(C^4+^O_3_)_6_&#183;3H_2_O
##LOCALITY=Francon Quarry, Montréal, Québec, Canada
##OWNER=RRUFF
##SOURCE=Marcus Origlieri
##DESCRIPTION=Tan colored tapered hexagonal single crystals
##STATUS=The identification of this mineral has been confirmed by X-ray diffraction and chemical analysis
##URL=rruff.info/R050217
##MEASURED CHEMISTRY=Na_2.00_(Sr_2.93_Ca_0.07_)_Σ=3_(Zr_0.90_Hf_0.10_)_Σ=1_(CO_3_)_6_·3H_2_O
##PIN_ID=M00939
##ORIENTATION=Laser parallel to (1 0 1). Fiducial mark perpendicular to laser is parallel to -b [0 -1 0]
64.63500, 1270.000
65.87000, 1480.000
67.10500, 1475.000
68.34000, 1632.000
69.57400, 1782.000
70.80900, 2031.000
72.04300, 2210.000
73.27700, 2659.000
74.51100, 3264.000
75.74500, 3822.000
76.97800, 4652.000
78.21200, 5431.000
79.44500, 6498.000
80.67800, 7571.000
81.91200, 8813.000
83.14400, 9916.000
84.37700, 11623.00
85.61000, 13352.00
86.84200, 15628.00
88.07500, 17722.00
89.30700, 19953.00
90.53900, 22619.00
91.77100, 25337.00
93.00200, 27590.00
94.23400, 30558.00
95.46500, 32886.00
96.69700, 35002.00
97.92800, 37165.00
99.15900, 38987.00
100.3900, 41034.00
101.6200, 43088.36
102.8510, 44946.00
104.0810, 47328.00
105.3120, 49389.00
106.5420, 51794.00
107.7720, 53343.00
109.0020, 54803.00
110.2310, 55880.00
111.4610, 55872.00
112.6900, 55631.00
113.9190, 54812.00
115.1480, 54169.00
116.3770, 53777.00
117.6060, 53945.00
118.8350, 54403.48
120.0630, 55334.00
121.2920, 56471.00
122.5200, 58175.00
123.7480, 60037.00
124.9760, 62321.00
126.2040, 64803.00
127.4310, 66918.00
128.6590, 69393.00
129.8860, 71756.00
131.1130, 73355.00
132.3400, 75591.00
133.5670, 77454.00
134.7940, 79624.00
136.0200, 81623.00
137.2470, 84359.00
138.4730, 87369.00
139.6990, 91199.00
140.9250, 95756.00
142.1510, 101256.0
143.3770, 108287.0
144.6020, 115190.0
145.8280, 121722.0
147.0530, 127073.0
148.2780, 131949.0
149.5030, 136408.0
150.7280, 140791.0
151.9520, 143226.0
153.1770, 145870.0
154.4010, 146574.0
155.6250, 145698.0
156.8490, 141973.0
158.0730, 138279.0
159.2970, 132496.0
160.5210, 125647.0
161.7440, 117176.0
162.9680, 108769.0
164.1910, 100056.0
165.4140, 92675.00
166.6370, 86037.00
167.8590, 81305.00
169.0820, 77986.00
170.3040, 75738.00
171.5270, 73983.00
172.7490, 72741.00
173.9710, 71107.00
175.1930, 69566.00
176.4140, 68411.00
177.6360, 66559.00
178.8570, 65773.00
180.0780, 64648.00
181.2990, 64059.00
182.5200, 63129.00
183.7410, 63020.00
184.9620, 63100.00
186.1820, 63311.00
187.4030, 63661.00
188.6230, 64366.00
189.8430, 64982.00
191.0630, 65447.00
192.2830, 66632.00
193.5020, 67152.00
194.7220, 68617.00
195.9410, 69433.00
197.1600, 70168.00
198.3790, 71140.00
199.5980, 72048.00
200.8170, 72619.00
202.0350, 73579.00
203.2540, 74099.00
204.4720, 74194.00
205.6900, 74087.00
206.9080, 74186.00
208.1260, 74416.00
209.3430, 74232.59
210.5610, 74293.00
211.7780, 74061.00
212.9960, 73894.00
214.2130, 73872.00
215.4290, 74707.00
216.6460, 75347.00
217.8630, 76844.00
219.0790, 78241.00
220.2960, 80025.00
221.5120, 82238.00
222.7280, 84458.00
223.9440, 86977.00
225.1590, 89219.00
226.3750, 91018.00
227.5900, 92462.00
228.8060, 93670.00
230.0210, 94169.00
231.2360, 94331.00
232.4510, 93685.00
233.6650, 92408.00
234.8800, 91630.00
236.0940, 90957.00
237.3080, 89765.00
238.5220, 88714.00
239.7360, 87037.00
240.9500, 85824.00
242.1640, 83805.00
243.3770, 81712.00
244.5910, 79758.00
245.8040, 77524.00
247.0170, 75218.00
248.2300, 73303.00
249.4420, 71783.00
250.6550, 70196.00
251.8670, 68760.00
253.0800, 66796.00
254.2920, 65499.00
255.5040, 64643.00
256.7160, 63713.00
257.9270, 63412.00
259.1390, 63021.00
260.3500, 62976.00
261.5610, 62322.00
262.7720, 62318.00
263.9830, 61459.00
265.1940, 60764.00
266.4050, 60342.00
267.6150, 59746.00
268.8260, 59511.00
270.0360, 58750.00
271.2460, 58740.00
272.4560, 58895.00
273.6650, 59514.00
274.8750, 59796.00
276.0840, 60618.00
277.2940, 61555.00
278.5030, 62561.00
279.7120, 63302.00
280.9200, 63905.00
282.1290, 64280.00
283.3380, 64037.00
284.5460, 63460.00
285.7540, 62465.00
286.9620, 61015.00
288.1700, 60279.00
289.3780, 58958.00
290.5860, 58148.00
291.7930, 56803.00
293.0000, 55998.00
294.2080, 54841.00
295.4150, 54014.00
296.6210, 53986.00
297.8280, 54079.00
299.0350, 54128.00
300.2410, 54332.00
301.4470, 55264.00
302.6530, 55857.00
303.8590, 56992.00
305.0650, 57977.00
306.2710, 59208.00
307.4760, 60271.22
308.6820, 61633.00
309.8870, 62587.00
311.0920, 63558.00
312.2970, 64891.00
313.5020, 65629.00
314.7060, 66872.00
315.9110, 67704.00
317.1150, 68505.00
318.3190, 69423.00
319.5230, 70415.00
320.7270, 70803.00
321.9300, 71980.00
323.1340, 72131.00
324.3370, 72681.00
325.5410, 72584.00
326.7440, 72192.00
327.9470, 71892.00
329.1490, 70828.00
330.3520, 70231.00
331.5550, 68745.00
332.7570, 67315.00
333.9590, 66445.00
335.1610, 66374.00
336.3630, 65621.00
337.5650, 66375.00
338.7660, 66337.00
339.9680, 67485.00
341.1690, 69059.00
342.3700, 71338.00
343.5710, 74281.00
344.7720, 78039.00
345.9720, 82392.00
347.1730, 86806.00
348.3730, 91966.00
349.5730, 98570.00
350.7730, 104225.0
351.9730, 109515.0
353.1730, 114185.0
354.3730, 117612.0
355.5720, 119507.0
356.7710, 119524.0
357.9710, 117716.0
359.1700, 114699.0
360.3680, 110038.0
361.5670, 105976.0
362.7660, 101732.0
363.9640, 97692.00
365.1620, 94214.00
366.3600, 91537.00
367.5580, 88882.00
368.7560, 86615.00
369.9540, 84722.00
371.1510, 82251.00
372.3480, 80327.00
373.5450, 77957.00
374.7420, 75677.00
375.9390, 73191.00
377.1360, 71003.00
378.3330, 68287.00
379.5290, 66154.00
380.7250, 63776.00
381.9210, 61691.00
383.1170, 59525.00
384.3130, 58589.00
385.5090, 57393.00
386.7040, 55627.00
387.8990, 54135.00
389.0950, 53066.00
390.2900, 52690.00
391.4850, 51538.00
392.6790, 51075.00
393.8740, 50049.00
395.0680, 49596.00
396.2620, 49152.00
397.4570, 49048.00
398.6510, 48785.00
399.8440, 48191.00
401.0380, 48310.00
402.2310, 47955.00
403.4250, 48031.00
404.6180, 47448.00
405.8110, 47362.00
407.0040, 47440.00
408.1970, 47014.00
409.3890, 47207.00
410.5820, 47081.00
411.7740, 47042.00
412.9660, 46571.00
414.1580, 46884.00
415.3500, 46591.00
416.5420, 46784.00
417.7330, 46398.00
418.9240, 46526.00
420.1160, 46459.00
421.3070, 46592.00
422.4980, 46491.00
423.6880, 46545.48
424.8790, 46806.00
426.0690, 46529.00
427.2600, 46590.00
428.4500, 46444.00
429.6400, 46591.00
430.8300, 46259.00
432.0190, 46514.00
433.2090, 46406.00
434.3980, 46676.00
435.5870, 46444.00
436.7760, 46674.00
437.9650, 46687.00
439.1540, 46553.00
440.3430, 46759.00
441.5310, 46640.00
442.7190, 46906.00
443.9080, 47087.00
445.0960, 46991.00
446.2830, 47176.00
447.4710, 47112.75
448.6590, 46951.00
449.8460, 46957.00
451.0330, 47138.00
452.2200, 46949.00
453.4070, 47483.00
454.5940, 47539.00
455.7800, 47343.00
456.9670, 47298.00
458.1530, 47721.00
459.3390, 47437.00
460.5250, 47636.00
461.7110, 47724.00
462.8970, 47152.00
464.0820, 47744.00
465.2680, 47787.00
466.4530, 47575.00
467.6380, 47868.00
468.8230, 48128.00
470.0080, 48579.00
471.1920, 48102.00
472.3770, 48028.00
473.5610, 48035.00
474.7450, 48074.00
475.9290, 48358.00
477.1130, 48180.00
478.2970, 48145.00
479.4800, 48646.00
480.6640, 48165.00
481.8470, 48470.00
483.0300, 48390.00
484.2130, 48999.00
485.3960, 48884.00
486.5780, 49109.00
487.7610, 49168.00
488.9430, 49108.00
490.1250, 49289.00
491.3070, 49124.00
492.4890, 49160.00
493.6710, 49534.00
494.8520, 49613.00
496.0340, 49559.00
497.2150, 49877.00
498.3960, 49944.00
499.5770, 49738.00
500.7570, 50085.00
501.9380, 50152.00
503.1180, 50333.00
504.2990, 50342.00
505.4790, 50267.00
506.6590, 50693.00
507.8390, 50177.00
509.0180, 50710.00
510.1980, 50756.00
511.3770, 50794.00
512.5560, 50731.00
513.7360, 50791.00
514.9140, 50829.00
516.0930, 51068.00
517.2720, 50971.00
518.4500, 51177.00
519.6290, 51621.00
520.8070, 51313.00
521.9850, 51412.00
523.1620, 51328.00
524.3400, 51912.00
525.5180, 51748.00
526.6950, 51944.00
527.8720, 52271.00
529.0490, 52134.00
530.2260, 52061.00
531.4030, 52703.00
532.5790, 52418.00
533.7560, 52330.00
534.9320, 52906.00
536.1080, 52502.00
537.2840, 53041.00
538.4600, 52811.00
539.6360, 53300.00
540.8110, 52839.00
541.9860, 53457.00
543.1620, 53185.00
544.3370, 53061.00
545.5120, 53410.00
546.6860, 53629.00
547.8610, 53532.00
549.0350, 53075.00
550.2090, 53340.00
551.3840, 53505.00
552.5580, 53817.00
553.7310, 53763.00
554.9050, 53753.00
556.0780, 54048.00
557.2520, 53767.00
558.4250, 53724.00
559.5980, 54078.00
560.7710, 54512.00
561.9430, 54131.00
563.1160, 54251.00
564.2880, 53978.00
565.4610, 54269.00
566.6330, 54117.00
567.8050, 54464.00
568.9760, 54454.00
570.1480, 54076.00
571.3200, 54337.00
572.4910, 54353.00
573.6620, 54386.00
574.8330, 54332.00
576.0040, 54531.00
577.1740, 54442.00
578.3450, 54533.29
579.5150, 54423.00
580.6860, 54552.00
581.8560, 54548.00
583.0260, 54637.16
584.1950, 54755.00
585.3650, 54873.00
586.5340, 55026.00
587.7040, 55161.00
588.8730, 55241.92
590.0420, 55252.00
591.2110, 55374.00
592.3790, 55370.00
593.5480, 55383.00
594.7160, 55486.00
595.8840, 55422.00
597.0520, 55639.00
598.2200, 55751.00
599.3880, 55656.00
600.5550, 55994.00
601.7230, 56019.00
602.8900, 56012.00
604.0570, 56205.00
605.2240, 56221.00
606.3910, 56402.00
607.5580, 56524.00
608.7240, 56626.00
609.8900, 56773.11
611.0570, 56884.00
612.2230, 57036.00
613.3880, 57058.00
614.5540, 57216.00
615.7200, 57514.00
616.8850, 57351.00
618.0500, 57197.00
619.2150, 57648.00
620.3800, 57767.00
621.5450, 57872.00
622.7100, 58088.55
623.8740, 57728.00
625.0380, 58212.00
626.2020, 58090.00
627.3660, 57912.00
628.5300, 58730.00
629.6940, 58634.00
630.8570, 58664.00
632.0210, 58822.00
633.1840, 58881.00
634.3470, 59251.00
635.5100, 59025.00
636.6730, 59407.00
637.8350, 59604.00
638.9980, 59329.00
640.1600, 59846.00
641.3220, 59856.00
642.4840, 60002.00
643.6460, 60276.00
644.8070, 60154.00
645.9690, 60728.00
647.1300, 60710.00
648.2910, 61090.00
649.4520, 60937.00
650.6130, 60903.00
651.7740, 60891.00
652.9340, 61165.00
654.0950, 61189.00
655.2550, 61396.00
656.4150, 61690.00
657.5750, 61876.00
658.7350, 61961.00
659.8940, 61895.00
661.0540, 62336.00
662.2130, 62631.00
663.3720, 62484.00
664.5310, 62656.00
665.6900, 63123.00
666.8490, 63239.00
668.0070, 63168.00
669.1650, 63544.00
670.3240, 64290.00
671.4820, 64961.00
672.6400, 65657.00
673.7970, 66332.00
674.9550, 67437.00
676.1120, 69193.00
677.2690, 70769.00
678.4270, 72834.00
679.5830, 74959.00
680.7400, 76051.00
681.8970, 76748.00
683.0530, 75186.00
684.2100, 73924.00
685.3660, 71839.00
686.5220, 70251.00
687.6780, 68818.00
688.8330, 68182.00
689.9890, 67636.00
691.1440, 67229.00
692.2990, 67401.00
693.4540, 67556.00
694.6090, 67188.00
695.7640, 67071.00
696.9180, 67449.00
698.0730, 67508.00
699.2270, 67409.00
700.3810, 67389.00
701.5350, 66976.00
702.6890, 66882.00
703.8430, 67126.00
704.9960, 66663.00
706.1490, 66184.00
707.3030, 65711.00
708.4560, 65861.00
709.6080, 65711.00
710.7610, 66124.00
711.9140, 65854.00
713.0660, 66245.00
714.2180, 66207.00
715.3700, 66409.89
716.5220, 66922.00
717.6740, 67009.00
718.8250, 67479.00
719.9770, 68050.00
721.1280, 68982.00
722.2790, 70027.27
723.4300, 71126.00
724.5810, 72840.00
725.7320, 74903.00
726.8820, 76949.00
728.0320, 78977.00
729.1830, 81439.00
730.3330, 82573.00
731.4820, 83065.00
732.6320, 82728.00
733.7820, 82451.00
734.9310, 82659.00
736.0800, 83146.00
737.2290, 83617.00
738.3780, 83458.00
739.5270, 82317.00
740.6750, 80896.00
741.8240, 80095.00
742.9720, 79178.00
744.1200, 80037.00
745.2680, 80877.00
746.4160, 82452.00
747.5640, 85054.00
748.7110, 87365.00
749.8580, 88821.00
751.0060, 89979.00
752.1530, 89741.00
753.2990, 88392.00
754.4460, 87895.00
755.5930, 86797.00
756.7390, 87691.00
757.8850, 90167.00
759.0310, 94060.00
760.1770, 99556.00
761.3230, 104448.0
762.4690, 109482.0
763.6140, 110240.0
764.7590, 107655.0
765.9040, 101273.0
767.0490, 92985.00
768.1940, 85782.00
769.3390, 80597.00
770.4830, 77620.00
771.6270, 75510.00
772.7720, 73652.00
773.9160, 72895.00
775.0590, 72171.00
776.2030, 71674.00
777.3470, 71645.00
778.4900, 71344.00
779.6330, 71207.00
780.7760, 71099.00
781.9190, 71123.00
783.0620, 70957.00
784.2040, 71432.00
785.3470, 71211.00
786.4890, 71421.00
787.6310, 71058.00
788.7730, 71425.00
789.9150, 71220.00
791.0570, 71317.00
792.1980, 71061.00
793.3390, 71232.90
794.4810, 71848.00
795.6210, 71442.00
796.7620, 71609.00
797.9030, 71514.00
799.0430, 71529.00
800.1840, 71911.00
801.3240, 72173.00
802.4640, 72124.00
803.6040, 72265.00
804.7440, 72369.00
805.8830, 72212.00
807.0230, 72215.00
808.1620, 72839.00
809.3010, 72466.00
810.4400, 72664.00
811.5790, 72967.00
812.7170, 72828.00
813.8560, 72998.00
814.9940, 73194.00
816.1320, 73431.00
817.2700, 73119.00
818.4080, 73594.00
819.5460, 73359.00
820.6830, 74211.00
821.8200, 73890.00
822.9580, 74374.00
824.0950, 74167.00
825.2310, 74096.00
826.3680, 74052.00
827.5050, 74229.00
828.6410, 74404.00
829.7770, 74779.00
830.9130, 74861.00
832.0490, 74717.00
833.1850, 74575.00
834.3210, 74993.00
835.4560, 74778.00
836.5910, 75292.00
837.7260, 75245.00
838.8610, 75283.00
839.9960, 75852.00
841.1310, 76302.00
842.2650, 75878.00
843.4000, 76038.00
844.5340, 76195.00
845.6680, 75986.00
846.8010, 76428.00
847.9350, 76784.00
849.0690, 76815.00
850.2020, 76865.00
851.3350, 77066.00
852.4680, 77737.00
853.6010, 77566.00
854.7340, 77891.00
855.8660, 77515.00
856.9990, 77859.00
858.1310, 78012.00
859.2630, 77937.00
860.3950, 78267.00
861.5270, 78307.00
862.6580, 78817.00
863.7900, 79163.00
864.9210, 79194.00
866.0520, 79884.00
867.1830, 80204.00
868.3140, 80527.00
869.4450, 81099.00
870.5750, 81761.00
871.7060, 81549.00
872.8360, 81372.00
873.9660, 81202.00
875.0960, 80397.00
876.2250, 80010.00
877.3550, 79312.00
878.4840, 79752.00
879.6130, 79678.00
880.7420, 79562.00
881.8710, 79599.00
883.0000, 79940.00
884.1290, 79341.00
885.2570, 79934.00
886.3850, 79980.00
887.5130, 79901.00
888.6410, 80398.00
889.7690, 80507.00
890.8970, 80737.00
892.0240, 80948.05
893.1510, 80854.00
894.2790, 81143.00
895.4050, 81238.00
896.5320, 81152.00
897.6590, 81383.00
898.7850, 81093.00
899.9120, 81709.00
901.0380, 81666.00
902.1640, 82121.00
903.2900, 82002.00
904.4150, 81858.00
905.5410, 82061.00
906.6660, 81997.00
907.7920, 82157.00
908.9170, 82348.00
910.0420, 82512.00
911.1660, 82715.00
912.2910, 82955.00
913.4150, 82812.00
914.5400, 83132.00
915.6640, 83209.00
916.7880, 83689.00
917.9110, 83137.00
919.0350, 83169.00
920.1580, 83546.00
921.2820, 83682.00
922.4050, 83727.00
923.5280, 83886.00
924.6510, 83782.00
925.7730, 84000.00
926.8960, 83741.00
928.0180, 83916.00
929.1400, 84369.00
930.2620, 84172.00
931.3840, 84319.00
932.5060, 84552.00
933.6270, 84865.00
934.7490, 84483.00
935.8700, 85077.00
936.9910, 84835.00
938.1120, 85268.00
939.2330, 84915.00
940.3530, 85344.00
941.4740, 85645.00
942.5940, 85295.00
943.7140, 85767.00
944.8340, 85335.00
945.9540, 85874.00
947.0730, 85933.00
948.1930, 86291.00
949.3120, 86386.00
950.4310, 86137.00
951.5500, 86424.00
952.6690, 86871.00
953.7870, 86565.00
954.9060, 86830.00
956.0240, 86288.00
957.1420, 86781.00
958.2600, 86756.00
959.3780, 87064.00
960.4960, 87272.00
961.6130, 87562.00
962.7310, 87715.00
963.8480, 87490.00
964.9650, 87456.00
966.0820, 87963.00
967.1990, 87736.00
968.3150, 87969.00
969.4310, 88095.00
970.5480, 88192.00
971.6640, 88499.00
972.7800, 88313.00
973.8950, 88068.00
975.0110, 88570.00
976.1260, 88203.00
977.2420, 88913.00
978.3570, 88939.00
979.4720, 88624.00
980.5870, 89070.00
981.7010, 88836.00
982.8160, 89057.00
983.9300, 88714.00
985.0440, 89274.00
986.1580, 88980.00
987.2720, 88915.00
988.3860, 89692.00
989.4990, 90537.00
990.6120, 90024.02
991.7260, 89694.00
992.8390, 89474.00
993.9510, 89573.00
995.0640, 89746.00
996.1770, 90179.00
997.2890, 90166.00
998.4010, 90161.00
999.5130, 90385.00
1000.625, 90160.00
1001.737, 90549.00
1002.848, 90635.00
1003.960, 90802.00
1005.071, 90721.00
1006.182, 91360.00
1007.293, 91072.00
1008.404, 90731.00
1009.514, 91391.00
1010.625, 91466.00
1011.735, 91475.00
1012.845, 91801.00
1013.955, 91999.00
1015.065, 92044.00
1016.175, 92011.00
1017.284, 92126.00
1018.393, 92156.00
1019.503, 92267.59
1020.612, 92446.00
1021.720, 92521.00
1022.829, 92809.00
1023.937, 92939.00
1025.046, 93679.00
1026.154, 93337.00
1027.262, 94133.00
1028.370, 94219.00
1029.478, 94066.00
1030.585, 94544.00
1031.692, 94751.00
1032.800, 95400.00
1033.907, 95029.00
1035.014, 95059.00
1036.120, 95721.00
1037.227, 95888.00
1038.333, 96190.00
1039.440, 96523.00
1040.546, 96564.00
1041.652, 97347.00
1042.757, 97354.00
1043.863, 97661.00
1044.968, 97847.00
1046.074, 98486.00
1047.179, 99022.00
1048.284, 99597.00
1049.388, 100220.0
1050.493, 100974.0
1051.598, 101586.0
1052.702, 102793.0
1053.806, 104905.0
1054.910, 106150.0
1056.014, 109076.0
1057.117, 111643.0
1058.221, 114157.0
1059.324, 117068.4
1060.427, 120105.0
1061.530, 122494.0
1062.633, 124841.0
1063.736, 127073.0
1064.838, 130750.0
1065.941, 134719.0
1067.043, 140379.0
1068.145, 145917.0
1069.247, 154493.0
1070.349, 163803.0
1071.450, 176222.0
1072.552, 192295.0
1073.653, 209717.0
1074.754, 230077.0
1075.855, 249041.0
1076.955, 267058.0
1078.056, 284008.0
1079.156, 306831.0
1080.257, 337678.0
1081.357, 368150.0
1082.457, 389471.0
1083.557, 384614.0
1084.656, 351610.0
1085.756, 301895.0
1086.855, 250142.0
1087.954, 209933.0
1089.053, 179019.0
1090.152, 157311.0
1091.250, 143015.0
1092.349, 132767.0
1093.447, 125866.0
1094.545, 120978.0
1095.643, 117808.0
1096.741, 114732.0
1097.839, 113027.0
1098.936, 110778.0
1100.034, 110144.0
1101.131, 108758.0
1102.228, 108081.0
1103.325, 107438.0
1104.421, 106565.0
1105.518, 105947.0
1106.614, 105806.0
1107.710, 105533.0
1108.806, 105009.3
1109.902, 104628.0
1110.998, 104099.0
1112.094, 104230.0
1113.189, 103854.0
1114.284, 103991.0
1115.379, 103554.0
1116.474, 103995.0
1117.569, 103694.0
1118.664, 103343.0
1119.758, 103853.0
1120.852, 103267.0
1121.946, 103587.0
1123.040, 103156.0
1124.134, 103429.0
1125.228, 103114.0
1126.321, 103432.0
1127.414, 103741.0
1128.507, 103805.0
1129.600, 103780.0
1130.693, 103940.0
1131.786, 103963.0
1132.878, 104112.0
1133.971, 104136.0
1135.063, 104175.8
1136.155, 104218.1
1137.247, 104195.0
1138.338, 104267.0
1139.430, 104229.0
1140.521, 104316.0
1141.612, 104184.0
1142.703, 104509.0
1143.794, 104557.0
1144.885, 104487.0
1145.975, 104598.0
1147.066, 104672.0
1148.156, 104850.0
1149.246, 104722.0
1150.336, 104739.0
1151.425, 105117.0
1152.515, 105265.0
1153.604, 105007.0
1154.693, 105126.0
1155.783, 105134.0
1156.871, 104965.0
1157.960, 105582.0
1159.049, 105508.0
1160.137, 105641.0
1161.225, 105740.0
1162.313, 105602.0
1163.401, 105329.0
1164.489, 105952.0
1165.577, 105859.0
1166.664, 106102.0
1167.751, 106320.0
1168.838, 106160.0
1169.925, 106312.0
1171.012, 106271.0
1172.099, 106335.0
1173.185, 106505.0
1174.272, 107200.0
1175.358, 107043.0
1176.444, 106456.0
1177.529, 107187.0
1178.615, 106971.0
1179.700, 107107.0
1180.786, 106891.0
1181.871, 107185.0
1182.956, 107191.0
1184.041, 107352.0
1185.125, 107451.0
1186.210, 107287.0
1187.294, 107530.0
1188.378, 107470.1
1189.462, 107569.2
1190.546, 107520.0
1191.630, 107751.0
1192.713, 107831.0
1193.797, 107862.0
1194.880, 107752.0
1195.963, 108113.0
1197.046, 107753.0
1198.129, 108139.0
1199.211, 108142.0
1200.293, 108389.0
1201.376, 108395.0
1202.458, 107852.0
1203.540, 108729.0
1204.621, 108126.0
1205.703, 108803.0
1206.784, 108668.0
1207.865, 108377.0
1208.947, 109208.0
1210.027, 108854.0
1211.108, 109263.0
1212.189, 109304.0
1213.269, 109157.0
1214.349, 109308.0
1215.430, 109295.0
1216.509, 109074.0
1217.589, 109217.8
1218.669, 109924.0
1219.748, 109401.0
1220.827, 109678.0
1221.907, 110045.0
1222.986, 109851.0
1224.064, 110391.0
1225.143, 109861.0
1226.221, 110585.0
1227.300, 109905.0
1228.378, 110935.0
1229.456, 110789.0
1230.534, 110535.0
1231.611, 110354.0
1232.689, 110252.0
1233.766, 110270.6
1234.843, 110190.0
1235.920, 110553.0
1236.997, 110820.0
1238.074, 111163.0
1239.150, 110873.0
1240.226, 111158.0
1241.303, 110945.0
1242.379, 111032.0
1243.454, 111255.0
1244.530, 111756.0
