##NAMES=Weloganite
##RRUFFID=R050217
##IDEAL CHEMISTRY=Na_2_Sr_3_Zr^4+^(C^4+^O_3_)_6_&#183;3H_2_O
##LOCALITY=Francon Quarry, Montréal, Québec, Canada
##OWNER=RRUFF
##SOURCE=Marcus Origlieri
##DESCRIPTION=Tan colored tapered hexagonal single crystals
##STATUS=The identification of this mineral has been confirmed by X-ray diffraction and chemical analysis
##URL=rruff.info/R050217
##MEASURED CHEMISTRY=Na_2.00_(Sr_2.93_Ca_0.07_)_Σ=3_(Zr_0.90_Hf_0.10_)_Σ=1_(CO_3_)_6_·3H_2_O
##PIN_ID=M00939
##ORIENTATION=Laser parallel to (1 0 1). Fiducial mark perpendicular to laser is parallel to -b [0 -1 0]
64.63500, 1473.000
65.87000, 1753.000
67.10500, 1910.000
68.34000, 2118.000
69.57400, 2424.000
70.80900, 2801.000
72.04300, 3280.000
73.27700, 3913.000
74.51100, 4872.000
75.74500, 5711.000
76.97800, 6989.000
78.21200, 8128.000
79.44500, 9722.000
80.67800, 11487.00
81.91200, 13380.51
83.14400, 15579.54
84.37700, 17917.00
85.61000, 20535.00
86.84200, 23365.00
88.07500, 26393.00
89.30700, 29229.00
90.53900, 32678.00
91.77100, 35290.00
93.00200, 38303.00
94.23400, 41283.00
95.46500, 43986.00
96.69700, 45981.00
97.92800, 48558.00
99.15900, 50488.00
100.3900, 52675.00
101.6200, 54208.00
102.8510, 56069.00
104.0810, 58111.00
105.3120, 59671.00
106.5420, 61797.00
107.7720, 63095.00
109.0020, 63956.00
110.2310, 64690.00
111.4610, 64334.00
112.6900, 64138.00
113.9190, 63769.00
115.1480, 63257.00
116.3770, 63128.00
117.6060, 63021.00
118.8350, 63419.00
120.0630, 63689.00
121.2920, 64130.39
122.5200, 64800.00
123.7480, 65521.00
124.9760, 66539.00
126.2040, 67818.00
127.4310, 69099.00
128.6590, 70576.00
129.8860, 72485.00
131.1130, 74547.00
132.3400, 76941.00
133.5670, 79276.00
134.7940, 81897.00
136.0200, 84607.00
137.2470, 88403.00
138.4730, 92237.00
139.6990, 96526.00
140.9250, 101370.0
142.1510, 106347.0
143.3770, 111608.0
144.6020, 116374.0
145.8280, 121369.0
147.0530, 124720.0
148.2780, 128532.0
149.5030, 131723.0
150.7280, 135458.0
151.9520, 137972.0
153.1770, 140687.0
154.4010, 141742.0
155.6250, 141504.0
156.8490, 139057.0
158.0730, 135841.0
159.2970, 130669.0
160.5210, 124751.0
161.7440, 116736.0
162.9680, 109952.0
164.1910, 103082.0
165.4140, 97848.00
166.6370, 93342.00
167.8590, 89964.00
169.0820, 88055.00
170.3040, 86645.00
171.5270, 85585.00
172.7490, 84478.73
173.9710, 83481.00
175.1930, 82908.00
176.4140, 82312.00
177.6360, 81484.00
178.8570, 82167.00
180.0780, 81825.00
181.2990, 82332.00
182.5200, 82103.00
183.7410, 82578.00
184.9620, 83824.00
186.1820, 84418.00
187.4030, 85675.00
188.6230, 86788.00
189.8430, 87051.00
191.0630, 87466.00
192.2830, 88062.00
193.5020, 88659.00
194.7220, 89057.00
195.9410, 89495.00
197.1600, 89199.00
198.3790, 90229.00
199.5980, 90279.00
200.8170, 91108.00
202.0350, 91417.00
203.2540, 91492.00
204.4720, 91106.00
205.6900, 91531.00
206.9080, 91257.00
208.1260, 91376.00
209.3430, 91607.00
210.5610, 91946.00
211.7780, 92795.00
212.9960, 93711.00
214.2130, 94937.00
215.4290, 96913.00
216.6460, 98453.00
217.8630, 100863.0
219.0790, 103340.0
220.2960, 106614.0
221.5120, 109538.0
222.7280, 111588.0
223.9440, 114399.0
225.1590, 116373.0
226.3750, 117613.0
227.5900, 118777.0
228.8060, 119456.0
230.0210, 118679.0
231.2360, 118199.0
232.4510, 117330.0
233.6650, 115314.0
234.8800, 113795.0
236.0940, 112193.0
237.3080, 110735.0
238.5220, 109836.0
239.7360, 108698.0
240.9500, 107199.0
242.1640, 105674.0
243.3770, 103351.0
244.5910, 101472.0
245.8040, 99454.00
247.0170, 97300.00
248.2300, 95337.00
249.4420, 93330.00
250.6550, 92038.00
251.8670, 91009.00
253.0800, 89520.00
254.2920, 88473.00
255.5040, 87976.00
256.7160, 88015.00
257.9270, 88010.00
259.1390, 88448.00
260.3500, 88694.00
261.5610, 88832.00
262.7720, 88917.00
263.9830, 88730.00
265.1940, 88406.00
266.4050, 87812.00
267.6150, 87499.00
268.8260, 86610.00
270.0360, 86738.00
271.2460, 86241.00
272.4560, 86657.00
273.6650, 87081.00
274.8750, 88485.00
276.0840, 89310.00
277.2940, 90314.00
278.5030, 91580.00
279.7120, 92234.00
280.9200, 92526.00
282.1290, 92910.49
283.3380, 92633.00
284.5460, 92528.00
285.7540, 91743.00
286.9620, 90612.00
288.1700, 89183.00
289.3780, 88206.00
290.5860, 87478.00
291.7930, 85767.00
293.0000, 84928.00
294.2080, 83859.00
295.4150, 82674.00
296.6210, 82052.00
297.8280, 80850.00
299.0350, 80757.00
300.2410, 80376.00
301.4470, 80635.00
302.6530, 81209.00
303.8590, 81589.00
305.0650, 82179.00
306.2710, 82585.00
307.4760, 83111.00
308.6820, 83728.00
309.8870, 83952.00
311.0920, 84425.81
312.2970, 84658.00
313.5020, 85021.00
314.7060, 85169.00
315.9110, 85266.00
317.1150, 85606.00
318.3190, 85685.00
319.5230, 86210.00
320.7270, 85977.00
321.9300, 86611.00
323.1340, 86741.00
324.3370, 87141.00
325.5410, 87491.00
326.7440, 87992.00
327.9470, 88548.00
329.1490, 88977.00
330.3520, 89446.00
331.5550, 90276.00
332.7570, 90956.00
333.9590, 92514.00
335.1610, 93474.00
336.3630, 95517.00
337.5650, 97852.00
338.7660, 100341.0
339.9680, 103350.0
341.1690, 106946.0
342.3700, 111883.0
343.5710, 117652.0
344.7720, 124001.0
345.9720, 131245.0
347.1730, 139211.0
348.3730, 148072.0
349.5730, 157054.0
350.7730, 166569.0
351.9730, 174638.0
353.1730, 180526.0
354.3730, 184545.0
355.5720, 185732.0
356.7710, 184410.0
357.9710, 181186.0
359.1700, 174875.0
360.3680, 168692.0
361.5670, 162342.0
362.7660, 156335.0
363.9640, 151147.0
365.1620, 147437.0
366.3600, 143501.0
367.5580, 140173.0
368.7560, 136434.0
369.9540, 133495.0
371.1510, 130057.0
372.3480, 126645.0
373.5450, 123181.0
374.7420, 119102.0
375.9390, 115393.0
377.1360, 111657.0
378.3330, 107989.0
379.5290, 104803.0
380.7250, 101553.0
381.9210, 98956.00
383.1170, 95996.00
384.3130, 94343.00
385.5090, 91164.00
386.7040, 89666.00
387.8990, 88496.00
389.0950, 87041.00
390.2900, 85824.00
391.4850, 85149.00
392.6790, 84236.00
393.8740, 83432.00
395.0680, 82589.00
396.2620, 82596.00
397.4570, 82086.00
398.6510, 81305.00
399.8440, 81339.00
401.0380, 80962.00
402.2310, 80405.00
403.4250, 80420.00
404.6180, 80072.00
405.8110, 79771.00
407.0040, 79496.00
408.1970, 79147.00
409.3890, 79577.00
410.5820, 79551.00
411.7740, 79071.00
412.9660, 79362.00
414.1580, 79101.00
415.3500, 79371.00
416.5420, 78967.00
417.7330, 79135.00
418.9240, 78847.00
420.1160, 78606.00
421.3070, 78995.00
422.4980, 79011.00
423.6880, 78929.84
424.8790, 78816.00
426.0690, 78798.00
427.2600, 78784.16
428.4500, 78575.00
429.6400, 78846.00
430.8300, 78963.00
432.0190, 79034.00
433.2090, 78939.00
434.3980, 79002.00
435.5870, 78846.00
436.7760, 78928.62
437.9650, 79035.77
439.1540, 79106.00
440.3430, 79336.00
441.5310, 79576.00
442.7190, 79709.00
443.9080, 79796.00
445.0960, 79834.00
446.2830, 79893.00
447.4710, 80215.00
448.6590, 80098.00
449.8460, 80293.00
451.0330, 80233.00
452.2200, 80082.00
453.4070, 80387.00
454.5940, 80166.00
455.7800, 80120.00
456.9670, 80466.00
458.1530, 80791.00
459.3390, 80751.00
460.5250, 80511.00
461.7110, 80782.00
462.8970, 80758.00
464.0820, 80699.00
465.2680, 81329.00
466.4530, 81210.00
467.6380, 81478.00
468.8230, 81083.00
470.0080, 81613.00
471.1920, 81587.00
472.3770, 81354.00
473.5610, 81788.00
474.7450, 81762.00
475.9290, 81897.00
477.1130, 82102.00
478.2970, 82086.00
479.4800, 81801.00
480.6640, 82116.00
481.8470, 82831.00
483.0300, 82587.00
484.2130, 82855.00
485.3960, 82443.00
486.5780, 82951.00
487.7610, 82939.00
488.9430, 83656.00
490.1250, 83627.00
491.3070, 83385.00
492.4890, 83321.00
493.6710, 83442.40
494.8520, 83752.00
496.0340, 83775.00
497.2150, 84098.00
498.3960, 84295.00
499.5770, 84290.00
500.7570, 84381.00
501.9380, 84444.00
503.1180, 84501.00
504.2990, 84618.76
505.4790, 84808.00
506.6590, 84835.00
507.8390, 85083.00
509.0180, 85180.89
510.1980, 85147.00
511.3770, 85282.00
512.5560, 85212.00
513.7360, 85115.00
514.9140, 85140.00
516.0930, 85443.00
517.2720, 85448.00
518.4500, 85859.00
519.6290, 85731.00
520.8070, 85847.00
521.9850, 86164.00
523.1620, 86369.00
524.3400, 86176.00
525.5180, 86394.00
526.6950, 86514.00
527.8720, 86619.00
529.0490, 86734.00
530.2260, 87060.00
531.4030, 87515.00
532.5790, 87528.00
533.7560, 87860.00
534.9320, 87616.00
536.1080, 87705.00
537.2840, 87900.00
538.4600, 87912.00
539.6360, 87954.00
540.8110, 88316.00
541.9860, 88079.00
543.1620, 88360.00
544.3370, 88319.00
545.5120, 88656.00
546.6860, 88294.00
547.8610, 88815.00
549.0350, 88778.00
550.2090, 89125.00
551.3840, 89014.00
552.5580, 88806.00
553.7310, 89256.00
554.9050, 89302.00
556.0780, 89553.00
557.2520, 89870.00
558.4250, 89514.00
559.5980, 90101.00
560.7710, 89600.00
561.9430, 89775.00
563.1160, 90133.00
564.2880, 90368.00
565.4610, 90196.00
566.6330, 90352.00
567.8050, 90635.00
568.9760, 90775.00
570.1480, 90931.00
571.3200, 90712.00
572.4910, 90698.00
573.6620, 91079.00
574.8330, 90875.00
576.0040, 91035.88
577.1740, 90885.00
578.3450, 91167.00
579.5150, 91243.00
580.6860, 91385.00
581.8560, 91065.00
583.0260, 91571.00
584.1950, 91913.00
585.3650, 91743.00
586.5340, 92230.00
587.7040, 91973.00
588.8730, 92294.00
590.0420, 91900.00
591.2110, 92424.00
592.3790, 92518.00
593.5480, 92551.00
594.7160, 93042.00
595.8840, 93189.00
597.0520, 93270.00
598.2200, 93599.00
599.3880, 93554.00
600.5550, 93728.00
601.7230, 93268.00
602.8900, 93744.00
604.0570, 94118.00
605.2240, 94022.00
606.3910, 94517.00
607.5580, 94412.00
608.7240, 94249.00
609.8900, 94824.00
611.0570, 94960.00
612.2230, 95083.00
613.3880, 94755.00
614.5540, 95080.00
615.7200, 95159.00
616.8850, 95353.00
618.0500, 95533.48
619.2150, 95716.99
620.3800, 95797.00
621.5450, 96036.00
622.7100, 96080.00
623.8740, 95985.00
625.0380, 96462.00
626.2020, 96499.00
627.3660, 96300.00
628.5300, 97151.00
629.6940, 96895.00
630.8570, 97205.00
632.0210, 97407.00
633.1840, 97705.00
634.3470, 97374.00
635.5100, 97705.00
636.6730, 97569.00
637.8350, 98465.00
638.9980, 98605.00
640.1600, 98449.00
641.3220, 99144.00
642.4840, 98795.00
643.6460, 98983.00
644.8070, 99145.00
645.9690, 99147.00
647.1300, 99390.00
648.2910, 99455.00
649.4520, 100067.0
650.6130, 99891.00
651.7740, 100249.0
652.9340, 100158.0
654.0950, 100104.0
655.2550, 100299.0
656.4150, 100487.0
657.5750, 100744.0
658.7350, 100954.0
659.8940, 101481.0
661.0540, 101519.0
662.2130, 101936.0
663.3720, 102261.0
664.5310, 102220.0
665.6900, 102436.0
666.8490, 102608.0
668.0070, 103217.0
669.1650, 103828.0
670.3240, 104276.0
671.4820, 104646.0
672.6400, 106116.0
673.7970, 107107.0
674.9550, 109079.0
676.1120, 111223.0
677.2690, 114258.0
678.4270, 116392.0
679.5830, 118683.0
680.7400, 119477.0
681.8970, 119153.0
683.0530, 117237.0
684.2100, 114929.0
685.3660, 112806.0
686.5220, 110433.0
687.6780, 109442.0
688.8330, 108345.0
689.9890, 108384.0
691.1440, 107566.0
692.2990, 107712.0
693.4540, 107483.0
694.6090, 107505.0
695.7640, 107619.0
696.9180, 108028.0
698.0730, 107574.0
699.2270, 108036.0
700.3810, 107656.0
701.5350, 107422.0
702.6890, 107389.0
703.8430, 106487.0
704.9960, 106719.0
706.1490, 106658.0
707.3030, 106587.0
708.4560, 106846.0
709.6080, 106650.0
710.7610, 107049.0
711.9140, 106986.0
713.0660, 107722.0
714.2180, 107468.0
715.3700, 107767.0
716.5220, 108721.0
717.6740, 108940.0
718.8250, 109318.0
719.9770, 110534.0
721.1280, 111101.0
722.2790, 112938.0
723.4300, 114675.0
724.5810, 116795.0
725.7320, 119687.0
726.8820, 122252.0
728.0320, 124541.0
729.1830, 126104.0
730.3330, 128251.0
731.4820, 128082.0
732.6320, 128161.0
733.7820, 128042.0
734.9310, 128748.0
736.0800, 129660.0
737.2290, 130542.0
738.3780, 129615.0
739.5270, 127090.0
740.6750, 125038.0
741.8240, 123309.0
742.9720, 122740.0
744.1200, 123190.0
745.2680, 124536.0
746.4160, 126878.0
747.5640, 128835.0
748.7110, 131201.0
749.8580, 132571.0
751.0060, 132733.0
752.1530, 132087.0
753.2990, 131694.0
754.4460, 130472.0
755.5930, 131136.0
756.7390, 132727.0
757.8850, 136643.0
759.0310, 142170.0
760.1770, 148131.0
761.3230, 154862.0
762.4690, 157553.0
763.6140, 156985.0
764.7590, 151604.0
765.9040, 142093.0
767.0490, 133060.0
768.1940, 126365.0
769.3390, 122732.0
770.4830, 119575.0
771.6270, 117731.0
772.7720, 116117.0
773.9160, 115038.0
775.0590, 115493.0
776.2030, 114809.0
777.3470, 114447.0
778.4900, 114235.0
779.6330, 113597.0
780.7760, 113606.4
781.9190, 114018.0
783.0620, 113565.0
784.2040, 113710.0
785.3470, 113919.0
786.4890, 113909.0
787.6310, 114104.0
788.7730, 114364.0
789.9150, 114156.0
791.0570, 114365.0
792.1980, 114714.0
793.3390, 114871.0
794.4810, 114948.9
795.6210, 115007.0
796.7620, 114895.0
797.9030, 114850.0
799.0430, 114620.0
800.1840, 115261.0
801.3240, 115667.0
802.4640, 115493.0
803.6040, 116045.0
804.7440, 115350.0
805.8830, 115241.0
807.0230, 115966.0
808.1620, 116304.0
809.3010, 116558.0
810.4400, 116319.0
811.5790, 116710.0
812.7170, 116454.0
813.8560, 116977.0
814.9940, 116965.0
816.1320, 116805.0
817.2700, 117759.0
818.4080, 117381.0
819.5460, 118291.0
820.6830, 117904.0
821.8200, 117283.0
822.9580, 117838.0
824.0950, 117710.0
825.2310, 118279.0
826.3680, 118138.0
827.5050, 118662.0
828.6410, 118499.0
829.7770, 119116.0
830.9130, 119118.0
832.0490, 119310.0
833.1850, 119210.0
834.3210, 119399.0
835.4560, 119309.0
836.5910, 119674.0
837.7260, 119572.0
838.8610, 119563.0
839.9960, 120238.0
841.1310, 119908.0
842.2650, 120469.0
843.4000, 120389.0
844.5340, 120859.0
845.6680, 121125.0
846.8010, 121114.0
847.9350, 121121.0
849.0690, 121740.0
850.2020, 121922.0
851.3350, 122219.0
852.4680, 122373.0
853.6010, 122756.0
854.7340, 122923.2
855.8660, 123138.0
856.9990, 123219.0
858.1310, 123292.0
859.2630, 123180.0
860.3950, 123407.0
861.5270, 123643.0
862.6580, 124533.0
863.7900, 124623.0
864.9210, 125397.0
866.0520, 125978.0
867.1830, 126625.0
868.3140, 127816.0
869.4450, 128579.0
870.5750, 128594.0
871.7060, 128747.4
872.8360, 128492.0
873.9660, 127654.0
875.0960, 126747.0
876.2250, 126455.3
877.3550, 125884.2
878.4840, 125533.0
879.6130, 125394.0
880.7420, 124877.0
881.8710, 124953.0
883.0000, 124948.2
884.1290, 125333.0
885.2570, 125452.0
886.3850, 125730.0
887.5130, 126414.0
888.6410, 126082.0
889.7690, 125816.0
890.8970, 126729.0
892.0240, 126546.0
893.1510, 127281.0
894.2790, 126956.0
895.4050, 126723.0
896.5320, 127250.0
897.6590, 127642.0
898.7850, 127426.0
899.9120, 127533.0
901.0380, 128003.0
902.1640, 127917.0
903.2900, 127543.0
904.4150, 128681.0
905.5410, 127999.0
906.6660, 128383.0
907.7920, 128360.0
908.9170, 128700.0
910.0420, 128757.0
911.1660, 128643.0
912.2910, 129021.0
913.4150, 129198.0
914.5400, 129264.0
915.6640, 129076.0
916.7880, 129544.0
917.9110, 130085.0
919.0350, 129573.0
920.1580, 129796.0
921.2820, 130198.0
922.4050, 130839.0
923.5280, 130231.0
924.6510, 130804.0
925.7730, 130618.5
926.8960, 132820.0
928.0180, 130937.0
929.1400, 130947.0
930.2620, 132275.0
931.3840, 131346.0
932.5060, 131552.0
933.6270, 131332.0
934.7490, 131436.0
935.8700, 131949.0
936.9910, 131785.0
938.1120, 132715.0
939.2330, 132187.0
940.3530, 132300.0
941.4740, 133033.0
942.5940, 132333.0
943.7140, 133240.0
944.8340, 132817.0
945.9540, 132844.0
947.0730, 132760.0
948.1930, 133496.0
949.3120, 133716.0
950.4310, 133748.0
951.5500, 133638.0
952.6690, 134434.0
953.7870, 134221.0
954.9060, 134002.0
956.0240, 134616.0
957.1420, 134248.0
958.2600, 134571.0
959.3780, 134367.0
960.4960, 134948.0
961.6130, 134776.0
962.7310, 135427.0
963.8480, 135180.0
964.9650, 135529.0
966.0820, 135013.0
967.1990, 135840.0
968.3150, 135923.0
969.4310, 136331.0
970.5480, 135715.0
971.6640, 136140.0
972.7800, 135895.0
973.8950, 136477.0
975.0110, 136327.0
976.1260, 136307.0
977.2420, 136534.0
978.3570, 136803.0
979.4720, 136228.0
980.5870, 136282.0
981.7010, 136331.0
982.8160, 136739.0
983.9300, 136440.0
985.0440, 136884.0
986.1580, 136914.0
987.2720, 136901.0
988.3860, 137126.0
989.4990, 137348.0
990.6120, 137398.0
991.7260, 137305.0
992.8390, 138123.0
993.9510, 137504.0
995.0640, 137951.0
996.1770, 138263.0
997.2890, 137619.0
998.4010, 138591.0
999.5130, 138274.0
1000.625, 138466.0
1001.737, 138924.0
1002.848, 138752.0
1003.960, 139399.0
1005.071, 139339.0
1006.182, 139338.0
1007.293, 139120.0
1008.404, 139313.7
1009.514, 139407.4
1010.625, 139591.0
1011.735, 139908.0
1012.845, 139978.0
1013.955, 140375.0
1015.065, 140727.0
1016.175, 141156.0
1017.284, 141329.9
1018.393, 141296.0
1019.503, 141670.0
1020.612, 141809.0
1021.720, 141999.0
1022.829, 141588.0
1023.937, 142251.0
1025.046, 142096.0
1026.154, 142470.0
1027.262, 143201.0
1028.370, 143502.0
1029.478, 143683.0
1030.585, 144020.0
1031.692, 144212.0
1032.800, 144438.0
1033.907, 144478.0
1035.014, 144960.0
1036.120, 145211.0
1037.227, 145692.0
1038.333, 146146.0
1039.440, 146218.0
1040.546, 146857.0
1041.652, 147318.0
1042.757, 147629.0
1043.863, 147570.0
1044.968, 148168.0
1046.074, 149044.0
1047.179, 150164.0
1048.284, 150534.0
1049.388, 151322.0
1050.493, 151615.0
1051.598, 153086.0
1052.702, 154371.0
1053.806, 155889.0
1054.910, 158506.0
1056.014, 160981.0
1057.117, 163797.0
1058.221, 166492.0
1059.324, 168474.0
1060.427, 170436.0
1061.530, 171637.0
1062.633, 173699.0
1063.736, 176446.0
1064.838, 179524.0
1065.941, 183223.0
1067.043, 188871.0
1068.145, 195490.0
1069.247, 204592.0
1070.349, 216864.0
1071.450, 233305.0
1072.552, 251307.0
1073.653, 272119.0
1074.754, 295314.0
1075.855, 318779.0
1076.955, 344732.0
1078.056, 375458.0
1079.156, 417115.0
1080.257, 465507.0
1081.357, 507257.0
1082.457, 519704.0
1083.557, 491791.0
1084.656, 436786.0
1085.756, 368945.0
1086.855, 310113.0
1087.954, 266941.0
1089.053, 234547.0
1090.152, 212787.0
1091.250, 197972.0
1092.349, 188450.0
1093.447, 181184.0
1094.545, 175968.0
1095.643, 172115.0
1096.741, 169095.0
1097.839, 166590.0
1098.936, 164702.0
1100.034, 163445.0
1101.131, 162623.0
1102.228, 161525.0
1103.325, 160531.0
1104.421, 160319.0
1105.518, 159289.0
1106.614, 158723.0
1107.710, 158126.0
1108.806, 157953.0
1109.902, 157887.0
1110.998, 157344.0
1112.094, 157100.0
1113.189, 156987.0
1114.284, 156614.0
1115.379, 156740.0
1116.474, 156926.0
1117.569, 156590.0
1118.664, 156668.0
1119.758, 156871.0
1120.852, 156762.0
1121.946, 157010.0
1123.040, 156473.0
1124.134, 156579.0
1125.228, 156611.0
1126.321, 157158.0
1127.414, 157320.0
1128.507, 157129.0
1129.600, 157331.0
1130.693, 157055.0
1131.786, 157185.6
1132.878, 157267.0
1133.971, 157353.0
1135.063, 157503.0
1136.155, 157627.0
1137.247, 157759.0
1138.338, 157897.4
1139.430, 158190.0
1140.521, 158165.0
1141.612, 158475.0
1142.703, 158620.0
1143.794, 158146.0
1144.885, 158038.0
1145.975, 158492.0
1147.066, 158248.0
1148.156, 158913.0
1149.246, 159105.0
1150.336, 158854.0
1151.425, 158854.0
1152.515, 159057.0
1153.604, 158740.0
1154.693, 158915.0
1155.783, 159173.0
1156.871, 159627.0
1157.960, 159806.0
1159.049, 160024.0
1160.137, 159697.0
1161.225, 160367.0
1162.313, 159850.0
1163.401, 160823.0
1164.489, 160502.0
1165.577, 160216.0
1166.664, 160762.0
1167.751, 161118.0
1168.838, 161238.0
1169.925, 161191.0
1171.012, 161594.0
1172.099, 160862.0
1173.185, 161191.0
1174.272, 162098.0
1175.358, 161887.0
1176.444, 162525.0
1177.529, 161750.0
1178.615, 162536.0
1179.700, 162246.0
1180.786, 162259.0
1181.871, 162299.0
1182.956, 162086.0
1184.041, 162244.0
1185.125, 162435.0
1186.210, 162457.0
1187.294, 162730.0
1188.378, 162906.0
1189.462, 163182.0
1190.546, 163363.7
1191.630, 163348.0
1192.713, 163747.0
1193.797, 163890.0
1194.880, 164097.0
1195.963, 163685.0
1197.046, 163424.0
1198.129, 163835.0
1199.211, 163889.0
1200.293, 164374.0
1201.376, 164217.0
1202.458, 164510.0
1203.540, 164630.0
1204.621, 164940.0
1205.703, 165063.0
1206.784, 165172.4
1207.865, 165093.0
1208.947, 165189.0
1210.027, 165337.0
1211.108, 165052.0
1212.189, 164950.0
1213.269, 165257.0
1214.349, 166032.0
1215.430, 166636.0
1216.509, 166072.0
1217.589, 165862.0
1218.669, 166134.0
1219.748, 165989.0
1220.827, 166190.6
1221.907, 166900.0
1222.986, 166563.0
1224.064, 166939.0
1225.143, 167085.0
1226.221, 167141.0
1227.300, 167063.0
1228.378, 167529.0
1229.456, 167832.0
1230.534, 167539.0
1231.611, 167913.0
1232.689, 167841.8
1233.766, 167690.0
1234.843, 167934.0
1235.920, 168421.0
1236.997, 168683.0
1238.074, 167988.0
1239.150, 168998.0
1240.226, 168907.0
1241.303, 168304.0
1242.379, 169127.0
1243.454, 168899.0
1244.530, 169412.0
