##NAMES=Weloganite
##RRUFFID=R050217
##IDEAL CHEMISTRY=Na_2_Sr_3_Zr^4+^(C^4+^O_3_)_6_&#183;3H_2_O
##LOCALITY=Francon Quarry, Montréal, Québec, Canada
##OWNER=RRUFF
##SOURCE=Marcus Origlieri
##DESCRIPTION=Tan colored tapered hexagonal single crystals
##STATUS=The identification of this mineral has been confirmed by X-ray diffraction and chemical analysis
##URL=rruff.info/R050217
##MEASURED CHEMISTRY=Na_2.00_(Sr_2.93_Ca_0.07_)_Σ=3_(Zr_0.90_Hf_0.10_)_Σ=1_(CO_3_)_6_·3H_2_O
##PIN_ID=M01339
##ORIENTATION=Laser parallel to (0 1 1). Fiducial mark perpendicular to laser is parallel to -a [-1 0 0]
64.63500, 3746.000
65.87000, 4110.000
67.10500, 4494.000
68.34000, 4839.000
69.57400, 5397.000
70.80900, 6179.000
72.04300, 6891.000
73.27700, 8152.000
74.51100, 9849.000
75.74500, 11727.00
76.97800, 13858.00
78.21200, 16352.00
79.44500, 20217.00
80.67800, 24335.00
81.91200, 28558.00
83.14400, 31586.00
84.37700, 34208.00
85.61000, 37387.00
86.84200, 41885.00
88.07500, 46367.00
89.30700, 50778.00
90.53900, 55319.00
91.77100, 60360.00
93.00200, 65428.00
94.23400, 69792.00
95.46500, 73932.00
96.69700, 76960.00
97.92800, 80403.00
99.15900, 83592.00
100.3900, 86244.00
101.6200, 89052.00
102.8510, 91740.00
104.0810, 94154.00
105.3120, 96503.34
106.5420, 98917.00
107.7720, 100729.0
109.0020, 102540.0
110.2310, 104399.0
111.4610, 104991.0
112.6900, 106199.1
113.9190, 105941.4
115.1480, 107124.3
116.3770, 107985.9
117.6060, 107563.7
118.8350, 108799.2
120.0630, 109369.8
121.2920, 109913.7
122.5200, 111381.9
123.7480, 111145.9
124.9760, 112599.4
126.2040, 113378.5
127.4310, 114465.6
128.6590, 114885.0
129.8860, 115510.2
131.1130, 116765.0
132.3400, 117719.0
133.5670, 119212.0
134.7940, 120105.0
136.0200, 121051.0
137.2470, 122734.0
138.4730, 124190.0
139.6990, 126381.0
140.9250, 128791.0
142.1510, 130964.0
143.3770, 133631.0
144.6020, 135513.0
145.8280, 137678.0
147.0530, 139567.0
148.2780, 141377.0
149.5030, 143749.0
150.7280, 145831.0
151.9520, 146958.0
153.1770, 148300.0
154.4010, 148785.0
155.6250, 148796.2
156.8490, 148181.2
158.0730, 147693.0
159.2970, 144810.0
160.5210, 143411.0
161.7440, 139695.0
162.9680, 136863.0
164.1910, 136049.0
165.4140, 132697.0
166.6370, 131295.0
167.8590, 128612.0
169.0820, 126854.0
170.3040, 126093.0
171.5270, 125105.0
172.7490, 124666.0
173.9710, 124192.0
175.1930, 123319.0
176.4140, 123301.0
177.6360, 122479.0
178.8570, 121922.0
180.0780, 121644.0
181.2990, 121724.0
182.5200, 121737.0
183.7410, 121055.0
184.9620, 120654.0
186.1820, 120948.0
187.4030, 121065.0
188.6230, 121695.0
189.8430, 121765.0
191.0630, 122093.0
192.2830, 122994.0
193.5020, 123203.0
194.7220, 123692.0
195.9410, 123757.0
197.1600, 124328.5
198.3790, 125313.0
199.5980, 125291.0
200.8170, 125746.0
202.0350, 126063.0
203.2540, 127010.0
204.4720, 126970.0
205.6900, 127180.0
206.9080, 127858.0
208.1260, 127913.2
209.3430, 128390.1
210.5610, 128524.0
211.7780, 129042.0
212.9960, 129423.0
214.2130, 129531.0
215.4290, 130687.0
216.6460, 131845.0
217.8630, 132281.0
219.0790, 132726.0
220.2960, 133753.0
221.5120, 135016.0
222.7280, 135776.0
223.9440, 136949.0
225.1590, 138245.0
226.3750, 138656.0
227.5900, 139640.0
228.8060, 140112.0
230.0210, 140539.0
231.2360, 140821.6
232.4510, 140648.0
233.6650, 140771.0
234.8800, 140406.0
236.0940, 139930.0
237.3080, 139772.0
238.5220, 139695.0
239.7360, 139253.0
240.9500, 138848.0
242.1640, 138261.0
243.3770, 137751.0
244.5910, 137117.0
245.8040, 136514.7
247.0170, 135802.0
248.2300, 135319.0
249.4420, 134940.0
250.6550, 134519.0
251.8670, 133731.0
253.0800, 133944.0
254.2920, 133956.0
255.5040, 133254.0
256.7160, 133901.0
257.9270, 133464.0
259.1390, 133506.0
260.3500, 134660.0
261.5610, 134110.0
262.7720, 134280.0
263.9830, 134991.0
265.1940, 134899.0
266.4050, 134947.0
267.6150, 135203.0
268.8260, 135251.0
270.0360, 134476.0
271.2460, 134749.0
272.4560, 134493.0
273.6650, 134822.0
274.8750, 134818.0
276.0840, 134923.0
277.2940, 135316.5
278.5030, 135927.0
279.7120, 135986.0
280.9200, 136197.0
282.1290, 136353.5
283.3380, 136092.0
284.5460, 135886.0
285.7540, 135592.0
286.9620, 135394.5
288.1700, 135203.0
289.3780, 134879.0
290.5860, 134474.0
291.7930, 133997.0
293.0000, 133515.0
294.2080, 133395.0
295.4150, 133465.0
296.6210, 133365.5
297.8280, 133820.0
299.0350, 133696.0
300.2410, 134151.0
301.4470, 134651.0
302.6530, 135255.0
303.8590, 135622.0
305.0650, 136151.0
306.2710, 136577.0
307.4760, 137352.0
308.6820, 138081.0
309.8870, 138794.0
311.0920, 139678.0
312.2970, 139943.0
313.5020, 141249.0
314.7060, 141786.0
315.9110, 142883.0
317.1150, 143282.0
318.3190, 143655.0
319.5230, 144492.0
320.7270, 145555.0
321.9300, 146062.0
323.1340, 145577.0
324.3370, 146732.0
325.5410, 146467.0
326.7440, 146667.0
327.9470, 147321.0
329.1490, 146401.0
330.3520, 146620.0
331.5550, 146089.0
332.7570, 146022.0
333.9590, 146575.0
335.1610, 146125.0
336.3630, 146588.0
337.5650, 147085.0
338.7660, 147339.0
339.9680, 147061.0
341.1690, 148699.0
342.3700, 148949.0
343.5710, 150223.0
344.7720, 151786.0
345.9720, 152762.0
347.1730, 154829.0
348.3730, 157036.0
349.5730, 158498.0
350.7730, 160693.0
351.9730, 162419.0
353.1730, 164383.0
354.3730, 165849.0
355.5720, 167033.0
356.7710, 167634.2
357.9710, 167384.0
359.1700, 167681.0
360.3680, 167060.0
361.5670, 166164.0
362.7660, 165745.0
363.9640, 164966.0
365.1620, 164183.0
366.3600, 163162.0
367.5580, 162452.0
368.7560, 161353.0
369.9540, 160226.0
371.1510, 158879.0
372.3480, 157510.0
373.5450, 156841.0
374.7420, 156087.0
375.9390, 154471.0
377.1360, 153893.0
378.3330, 152465.0
379.5290, 152166.0
380.7250, 151678.0
381.9210, 151441.0
383.1170, 150330.0
384.3130, 150724.0
385.5090, 149700.0
386.7040, 149864.0
387.8990, 149433.0
389.0950, 148726.0
390.2900, 148973.0
391.4850, 148959.0
392.6790, 149596.0
393.8740, 148874.0
395.0680, 148659.0
396.2620, 149153.0
397.4570, 148699.0
398.6510, 149336.0
399.8440, 148519.0
401.0380, 148686.0
402.2310, 149473.0
403.4250, 149280.0
404.6180, 149683.0
405.8110, 150024.0
407.0040, 150045.0
408.1970, 150315.3
409.3890, 149761.0
410.5820, 150469.0
411.7740, 150779.0
412.9660, 150677.0
414.1580, 151330.0
415.3500, 151027.0
416.5420, 151633.0
417.7330, 151348.0
418.9240, 151700.0
420.1160, 152012.0
421.3070, 152206.0
422.4980, 152408.0
423.6880, 152794.0
424.8790, 153097.1
426.0690, 153583.0
427.2600, 153827.9
428.4500, 153873.0
429.6400, 154118.0
430.8300, 153879.0
432.0190, 154596.0
433.2090, 154443.0
434.3980, 154745.0
435.5870, 155160.0
436.7760, 155899.0
437.9650, 155944.0
439.1540, 156147.0
440.3430, 156174.0
441.5310, 156398.0
442.7190, 156813.0
443.9080, 156922.0
445.0960, 157216.0
446.2830, 157390.0
447.4710, 157884.0
448.6590, 157787.0
449.8460, 158140.0
451.0330, 158597.0
452.2200, 158512.0
453.4070, 159490.0
454.5940, 159416.0
455.7800, 159964.0
456.9670, 159754.0
458.1530, 160184.0
459.3390, 160281.0
460.5250, 161095.0
461.7110, 161101.0
462.8970, 161523.0
464.0820, 161940.0
465.2680, 162152.0
466.4530, 162368.0
467.6380, 162668.4
468.8230, 162991.0
470.0080, 163087.0
471.1920, 163586.0
472.3770, 163665.0
473.5610, 164001.0
474.7450, 164199.0
475.9290, 164822.0
477.1130, 164935.0
478.2970, 165134.0
479.4800, 165349.0
480.6640, 165462.0
481.8470, 165761.0
483.0300, 165602.0
484.2130, 165919.1
485.3960, 166855.0
486.5780, 166553.0
487.7610, 166874.0
488.9430, 167650.0
490.1250, 167861.0
491.3070, 168393.0
492.4890, 168414.0
493.6710, 169013.0
494.8520, 169144.0
496.0340, 168858.0
497.2150, 169526.0
498.3960, 169866.0
499.5770, 170034.0
500.7570, 170730.0
501.9380, 170906.0
503.1180, 171474.0
504.2990, 171156.0
505.4790, 171851.0
506.6590, 171916.0
507.8390, 172439.0
509.0180, 172340.0
510.1980, 172305.0
511.3770, 172818.0
512.5560, 172961.6
513.7360, 173289.5
514.9140, 173736.0
516.0930, 174153.0
517.2720, 174529.0
518.4500, 175310.0
519.6290, 174915.0
520.8070, 176158.0
521.9850, 176252.0
523.1620, 176212.0
524.3400, 177360.0
525.5180, 176762.0
526.6950, 177298.0
527.8720, 177459.0
529.0490, 177635.0
530.2260, 178311.0
531.4030, 178781.0
532.5790, 178988.0
533.7560, 179635.0
534.9320, 179128.0
536.1080, 179529.0
537.2840, 180252.0
538.4600, 179711.0
539.6360, 180688.0
540.8110, 181383.0
541.9860, 181678.0
543.1620, 181884.0
544.3370, 182224.0
545.5120, 182692.0
546.6860, 182832.0
547.8610, 183028.0
549.0350, 182883.0
550.2090, 183357.0
551.3840, 183687.0
552.5580, 184576.0
553.7310, 184594.0
554.9050, 185400.0
556.0780, 185364.0
557.2520, 185918.0
558.4250, 186472.0
559.5980, 186277.0
560.7710, 186686.0
561.9430, 187327.0
563.1160, 187795.0
564.2880, 187498.0
565.4610, 187834.0
566.6330, 188060.0
567.8050, 188683.0
568.9760, 188593.0
570.1480, 189517.0
571.3200, 190365.0
572.4910, 189913.0
573.6620, 190340.0
574.8330, 190344.0
576.0040, 191659.0
577.1740, 191590.0
578.3450, 191794.0
579.5150, 191220.0
580.6860, 191661.0
581.8560, 191894.0
583.0260, 192277.0
584.1950, 192947.0
585.3650, 193521.0
586.5340, 193859.0
587.7040, 193775.0
588.8730, 194581.0
590.0420, 194927.0
591.2110, 195603.0
592.3790, 195062.0
593.5480, 195819.0
594.7160, 195778.0
595.8840, 196235.0
597.0520, 197230.0
598.2200, 197709.0
599.3880, 197861.0
600.5550, 197956.0
601.7230, 197995.0
602.8900, 198301.4
604.0570, 199414.0
605.2240, 198936.0
606.3910, 199785.0
607.5580, 200251.0
608.7240, 200242.0
609.8900, 200471.0
611.0570, 201079.8
612.2230, 202037.0
613.3880, 202216.0
614.5540, 202697.0
615.7200, 203045.0
616.8850, 202807.0
618.0500, 203757.0
619.2150, 204248.0
620.3800, 204469.0
621.5450, 205383.0
622.7100, 205287.0
623.8740, 204946.0
625.0380, 205730.0
626.2020, 206574.0
627.3660, 206094.0
628.5300, 206955.0
629.6940, 207669.0
630.8570, 207972.0
632.0210, 208288.0
633.1840, 208854.0
634.3470, 209525.0
635.5100, 209427.0
636.6730, 210175.0
637.8350, 210104.0
638.9980, 210418.0
640.1600, 210751.0
641.3220, 211463.0
642.4840, 211854.0
643.6460, 212456.0
644.8070, 212707.0
645.9690, 212795.0
647.1300, 213578.0
648.2910, 214793.0
649.4520, 214699.0
650.6130, 214026.0
651.7740, 214544.0
652.9340, 215899.0
654.0950, 217744.0
655.2550, 217373.7
656.4150, 217688.0
657.5750, 217436.0
658.7350, 217792.0
659.8940, 218547.0
661.0540, 219437.0
662.2130, 218946.0
663.3720, 219451.0
664.5310, 220133.0
665.6900, 220487.0
666.8490, 220538.0
668.0070, 221522.0
669.1650, 221541.0
670.3240, 222474.0
671.4820, 223245.0
672.6400, 224522.0
673.7970, 225342.1
674.9550, 226246.1
676.1120, 227354.0
677.2690, 228061.0
678.4270, 229244.0
679.5830, 230397.0
680.7400, 230820.0
681.8970, 231409.0
683.0530, 231239.0
684.2100, 230732.0
685.3660, 230111.0
686.5220, 230282.0
687.6780, 230428.0
688.8330, 230479.0
689.9890, 230581.9
691.1440, 230085.0
692.2990, 230944.0
693.4540, 230526.0
694.6090, 231211.0
695.7640, 231350.0
696.9180, 231676.0
698.0730, 232382.0
699.2270, 233020.0
700.3810, 233647.0
701.5350, 233014.0
702.6890, 233183.0
703.8430, 233626.0
704.9960, 234041.0
706.1490, 234579.0
707.3030, 234968.0
708.4560, 235084.0
709.6080, 235782.0
710.7610, 236167.0
711.9140, 236327.0
713.0660, 237442.0
714.2180, 237484.0
715.3700, 238382.0
716.5220, 238999.0
717.6740, 239530.0
718.8250, 240129.0
719.9770, 240661.0
721.1280, 241611.0
722.2790, 242422.7
723.4300, 243792.0
724.5810, 244524.0
725.7320, 246318.0
726.8820, 247742.0
728.0320, 249231.0
729.1830, 249896.0
730.3330, 249585.0
731.4820, 250888.0
732.6320, 249964.0
733.7820, 251607.0
734.9310, 252103.0
736.0800, 252932.0
737.2290, 252666.0
738.3780, 252988.0
739.5270, 251909.0
740.6750, 252072.0
741.8240, 252112.0
742.9720, 252284.0
744.1200, 254352.0
745.2680, 254358.0
746.4160, 257133.0
747.5640, 257373.0
748.7110, 259679.0
749.8580, 259987.0
751.0060, 260474.0
752.1530, 261212.0
753.2990, 260793.0
754.4460, 260411.0
755.5930, 260529.0
756.7390, 261339.0
757.8850, 262839.0
759.0310, 264265.0
760.1770, 266627.0
761.3230, 268982.0
762.4690, 269937.0
763.6140, 269580.0
764.7590, 267864.0
765.9040, 265692.0
767.0490, 263965.0
768.1940, 261872.0
769.3390, 261937.0
770.4830, 261175.0
771.6270, 260310.0
772.7720, 261056.0
773.9160, 260984.0
775.0590, 261485.0
776.2030, 261880.0
777.3470, 261490.0
778.4900, 262071.0
779.6330, 262114.0
780.7760, 262985.0
781.9190, 263537.0
783.0620, 263700.0
784.2040, 263986.0
785.3470, 264338.0
786.4890, 265581.0
787.6310, 265874.0
788.7730, 266325.0
789.9150, 266324.0
791.0570, 267360.0
792.1980, 267327.0
793.3390, 267556.0
794.4810, 268258.0
795.6210, 268470.0
796.7620, 269926.0
797.9030, 270036.0
799.0430, 270734.0
800.1840, 271056.0
801.3240, 271374.0
802.4640, 271877.0
803.6040, 272146.0
804.7440, 272722.8
805.8830, 273127.0
807.0230, 273814.0
808.1620, 274549.0
809.3010, 275042.0
810.4400, 275648.7
811.5790, 275695.0
812.7170, 276717.0
813.8560, 277265.0
814.9940, 277875.0
816.1320, 277704.0
817.2700, 278367.0
818.4080, 278578.0
819.5460, 279719.0
820.6830, 280060.0
821.8200, 279942.0
822.9580, 280840.0
824.0950, 281135.0
825.2310, 281398.0
826.3680, 282423.0
827.5050, 283268.0
828.6410, 283292.0
829.7770, 284025.0
830.9130, 284397.0
832.0490, 285049.0
833.1850, 285541.0
834.3210, 285900.0
835.4560, 286109.0
836.5910, 286466.0
837.7260, 286801.0
838.8610, 287424.2
839.9960, 288030.0
841.1310, 288867.0
842.2650, 289446.0
843.4000, 290257.0
844.5340, 290654.0
845.6680, 291265.0
846.8010, 292351.0
847.9350, 292643.0
849.0690, 292696.0
850.2020, 292768.0
851.3350, 294082.0
852.4680, 295598.0
853.6010, 294969.0
854.7340, 296090.0
855.8660, 295717.0
856.9990, 297360.0
858.1310, 298475.0
859.2630, 297866.0
860.3950, 298587.0
861.5270, 298940.0
862.6580, 298925.0
863.7900, 299149.0
864.9210, 300876.0
866.0520, 300927.0
867.1830, 301666.0
868.3140, 302696.0
869.4450, 302324.0
870.5750, 303873.0
871.7060, 304219.0
872.8360, 304869.0
873.9660, 304297.0
875.0960, 305277.0
876.2250, 305576.0
877.3550, 305446.0
878.4840, 306006.0
879.6130, 306355.0
880.7420, 306951.4
881.8710, 307748.0
883.0000, 308495.0
884.1290, 308336.0
885.2570, 309111.0
886.3850, 309579.0
887.5130, 310598.0
888.6410, 310539.0
889.7690, 311258.0
890.8970, 312441.0
892.0240, 312711.0
893.1510, 313887.0
894.2790, 313697.0
895.4050, 313899.0
896.5320, 315196.0
897.6590, 315969.0
898.7850, 315697.0
899.9120, 316637.0
901.0380, 316898.0
902.1640, 318268.0
903.2900, 318632.0
904.4150, 320008.0
905.5410, 319774.0
906.6660, 320153.0
907.7920, 320232.0
908.9170, 321579.0
910.0420, 321440.0
911.1660, 321842.0
912.2910, 323700.0
913.4150, 323513.0
914.5400, 323950.0
915.6640, 324346.0
916.7880, 324739.0
917.9110, 325018.1
919.0350, 326016.0
920.1580, 325968.0
921.2820, 326910.0
922.4050, 328408.0
923.5280, 328587.0
924.6510, 328801.0
925.7730, 329584.0
926.8960, 329752.0
928.0180, 329963.0
929.1400, 330471.0
930.2620, 331567.0
931.3840, 331649.0
932.5060, 331819.0
933.6270, 333457.0
934.7490, 333051.0
935.8700, 333676.0
936.9910, 332959.0
938.1120, 334782.0
939.2330, 334902.0
940.3530, 335409.0
941.4740, 335918.0
942.5940, 336288.0
943.7140, 337063.0
944.8340, 337532.0
945.9540, 338277.0
947.0730, 338863.0
948.1930, 339173.0
949.3120, 339400.0
950.4310, 339688.0
951.5500, 339933.0
952.6690, 341108.0
953.7870, 340943.0
954.9060, 342163.0
956.0240, 342782.0
957.1420, 343215.1
958.2600, 344148.0
959.3780, 344515.0
960.4960, 344938.0
961.6130, 345905.0
962.7310, 346457.0
963.8480, 347165.4
964.9650, 347156.0
966.0820, 348281.0
967.1990, 348428.0
968.3150, 348314.0
969.4310, 347927.0
970.5480, 348644.0
971.6640, 348886.0
972.7800, 350175.0
973.8950, 349862.0
975.0110, 351220.0
976.1260, 350710.0
977.2420, 351595.0
978.3570, 352382.0
979.4720, 352636.0
980.5870, 353342.0
981.7010, 353310.0
982.8160, 353429.0
983.9300, 353500.0
985.0440, 354032.4
986.1580, 354513.0
987.2720, 355142.0
988.3860, 355991.0
989.4990, 356297.0
990.6120, 357090.1
991.7260, 356335.0
992.8390, 358133.0
993.9510, 358035.0
995.0640, 357905.0
996.1770, 358767.0
997.2890, 359381.0
998.4010, 359967.0
999.5130, 360708.0
1000.625, 360935.0
1001.737, 361331.0
1002.848, 361667.0
1003.960, 363354.0
1005.071, 363281.0
1006.182, 363737.0
1007.293, 364118.0
1008.404, 364172.0
1009.514, 365009.0
1010.625, 365370.0
1011.735, 365653.0
1012.845, 366203.0
1013.955, 366182.0
1015.065, 367169.0
1016.175, 368914.0
1017.284, 369385.0
1018.393, 369756.0
1019.503, 369928.0
1020.612, 371197.0
1021.720, 371361.0
1022.829, 372200.1
1023.937, 372213.0
1025.046, 373863.0
1026.154, 374057.0
1027.262, 375227.0
1028.370, 375566.0
1029.478, 376967.0
1030.585, 378058.0
1031.692, 377879.0
1032.800, 378197.0
1033.907, 378668.0
1035.014, 379956.0
1036.120, 380387.0
1037.227, 381184.0
1038.333, 381773.0
1039.440, 382414.0
1040.546, 382899.0
1041.652, 383669.0
1042.757, 385237.0
1043.863, 384725.0
1044.968, 386191.0
1046.074, 386666.0
1047.179, 386958.0
1048.284, 388189.0
1049.388, 389588.0
1050.493, 389271.0
1051.598, 391540.0
1052.702, 392058.0
1053.806, 394327.0
1054.910, 394080.0
1056.014, 396049.0
1057.117, 396866.0
1058.221, 398565.0
1059.324, 401370.0
1060.427, 401675.0
1061.530, 404047.0
1062.633, 405270.0
1063.736, 407847.0
1064.838, 409748.0
1065.941, 412645.0
1067.043, 416099.0
1068.145, 418019.0
1069.247, 422376.0
1070.349, 426923.0
1071.450, 431988.0
1072.552, 439303.0
1073.653, 445769.0
1074.754, 453285.0
1075.855, 460493.0
1076.955, 467148.0
1078.056, 476189.0
1079.156, 486724.0
1080.257, 500878.0
1081.357, 512457.0
1082.457, 514220.0
1083.557, 504447.0
1084.656, 488735.0
1085.756, 472722.0
1086.855, 457361.0
1087.954, 445866.0
1089.053, 437287.0
1090.152, 430944.0
1091.250, 426906.0
1092.349, 423450.0
1093.447, 421509.0
1094.545, 418929.0
1095.643, 417910.0
1096.741, 417407.0
1097.839, 416605.0
1098.936, 416506.0
1100.034, 415408.0
1101.131, 415840.0
1102.228, 414956.0
1103.325, 415911.0
1104.421, 416768.0
1105.518, 416577.0
1106.614, 416154.0
1107.710, 416693.0
1108.806, 417379.0
1109.902, 416214.0
1110.998, 417833.0
1112.094, 418265.0
1113.189, 418385.0
1114.284, 419135.0
1115.379, 418610.0
1116.474, 419595.0
1117.569, 419457.0
1118.664, 419773.0
1119.758, 421716.0
1120.852, 420410.0
1121.946, 420729.0
1123.040, 420755.0
1124.134, 422209.0
1125.228, 422637.0
1126.321, 423118.0
1127.414, 422474.0
1128.507, 422150.0
1129.600, 424471.0
1130.693, 424210.0
1131.786, 425198.0
1132.878, 425356.0
1133.971, 425843.0
1135.063, 426485.0
1136.155, 427192.0
1137.247, 427275.0
1138.338, 428262.0
1139.430, 427602.0
1140.521, 428699.0
1141.612, 428799.0
1142.703, 430158.0
1143.794, 429538.0
1144.885, 429990.0
1145.975, 430551.0
1147.066, 430423.0
1148.156, 431707.0
1149.246, 432329.0
1150.336, 432126.0
1151.425, 433823.0
1152.515, 433659.0
1153.604, 434825.0
1154.693, 433313.0
1155.783, 435083.0
1156.871, 434703.0
1157.960, 435314.0
1159.049, 436467.0
1160.137, 435530.0
1161.225, 437805.0
1162.313, 438984.0
1163.401, 438515.6
1164.489, 439035.0
1165.577, 438424.0
1166.664, 439408.0
1167.751, 439906.0
1168.838, 440097.0
1169.925, 440646.0
1171.012, 441095.8
1172.099, 441892.0
1173.185, 441894.0
1174.272, 442851.0
1175.358, 442800.0
1176.444, 443788.0
1177.529, 443183.0
1178.615, 444246.0
1179.700, 445009.0
1180.786, 445101.0
1181.871, 444688.0
1182.956, 445791.0
1184.041, 445548.0
1185.125, 446489.0
1186.210, 446029.0
1187.294, 446581.0
1188.378, 447835.0
1189.462, 447323.0
1190.546, 447689.0
1191.630, 447077.0
1192.713, 449458.0
1193.797, 449226.0
1194.880, 450101.0
1195.963, 451128.0
1197.046, 449576.0
1198.129, 451117.0
1199.211, 450801.0
1200.293, 451493.0
1201.376, 452330.0
1202.458, 452369.0
1203.540, 453076.0
1204.621, 452443.0
1205.703, 454098.0
1206.784, 454135.0
1207.865, 454243.0
1208.947, 455266.0
1210.027, 455042.0
1211.108, 456345.0
1212.189, 456491.0
1213.269, 457078.0
1214.349, 457173.0
1215.430, 457138.0
1216.509, 457441.0
1217.589, 458444.0
1218.669, 459260.0
1219.748, 459191.0
1220.827, 458860.0
1221.907, 460909.0
1222.986, 459138.0
1224.064, 461561.0
1225.143, 461385.0
1226.221, 462137.0
1227.300, 461830.0
1228.378, 463275.0
1229.456, 463364.0
1230.534, 463555.0
1231.611, 463873.0
1232.689, 464149.5
1233.766, 464107.0
1234.843, 464844.0
1235.920, 465088.0
1236.997, 465334.0
1238.074, 466272.0
1239.150, 466644.0
1240.226, 467502.0
1241.303, 467319.0
1242.379, 467519.0
1243.454, 468333.0
1244.530, 469151.0
