##NAMES=Whewellite
##RRUFFID=R050240
##IDEAL CHEMISTRY=Ca(C_2_)^6+^O_4_&#183;H_2_O
##LOCALITY=Huron River, Milan, Ohio, USA
##OWNER=RRUFF
##SOURCE=Marcus Origlieri
##DESCRIPTION=White fragment
##STATUS=The identification of this mineral has been confirmed by X-ray diffraction and chemical analysis
##URL=rruff.info/R050240
##MEASURED CHEMISTRY=Ca_1.00_C_2_O_4_Â·H_2_O
##PIN_ID=L00839
##ORIENTATION=Laser parallel to c* (0 0 1). Fiducial mark perpendicular to laser is parallel to a [1 0 0]
107.0470, 9989.000
108.2800, 10189.00
109.5120, 10020.00
110.7440, 10066.00
111.9760, 10096.00
113.2080, 10268.00
114.4400, 10467.00
115.6710, 10609.00
116.9030, 10754.00
118.1340, 10919.00
119.3650, 11268.00
120.5960, 11507.00
121.8270, 11789.00
123.0580, 12187.00
124.2880, 12472.00
125.5190, 12828.00
126.7490, 13346.00
127.9790, 13991.00
129.2090, 14318.00
130.4390, 15084.00
131.6680, 15622.00
132.8980, 16344.00
134.1270, 17003.00
135.3560, 17640.00
136.5850, 18352.00
137.8140, 18759.00
139.0430, 19122.00
140.2710, 19067.00
141.5000, 18518.00
142.7280, 17742.00
143.9560, 16793.00
145.1840, 15843.00
146.4120, 15150.82
147.6390, 14393.06
148.8670, 13804.00
150.0940, 13261.00
151.3210, 12792.00
152.5490, 12550.00
153.7750, 12417.00
155.0020, 12337.00
156.2290, 12111.00
157.4550, 12039.00
158.6810, 11973.00
159.9080, 11925.84
161.1340, 11977.00
162.3590, 11985.00
163.5850, 12049.00
164.8110, 12169.00
166.0360, 12106.00
167.2610, 12120.00
168.4860, 12292.00
169.7110, 12039.00
170.9360, 12136.00
172.1610, 12348.00
173.3850, 12337.00
174.6100, 12533.00
175.8340, 12530.00
177.0580, 12613.00
178.2820, 12782.00
179.5050, 12929.17
180.7290, 13157.16
181.9520, 13397.00
183.1760, 13713.00
184.3990, 14033.00
185.6220, 14410.00
186.8450, 14809.00
188.0670, 15427.00
189.2900, 16225.00
190.5120, 16556.00
191.7340, 17292.00
192.9560, 17634.00
194.1780, 17588.00
195.4000, 17404.00
196.6220, 17359.00
197.8430, 17209.00
199.0640, 17247.00
200.2860, 17165.00
201.5070, 17192.00
202.7270, 17553.00
203.9480, 17656.00
205.1690, 17820.00
206.3890, 17596.00
207.6090, 17503.00
208.8290, 17210.00
210.0490, 16964.00
211.2690, 16546.00
212.4890, 16367.00
213.7080, 16008.00
214.9280, 15688.00
216.1470, 15323.00
217.3660, 15282.00
218.5850, 15280.00
219.8030, 15026.00
221.0220, 15021.00
222.2400, 15125.00
223.4590, 14962.00
224.6770, 14585.00
225.8950, 14294.00
227.1120, 14121.00
228.3300, 13877.63
229.5480, 13643.00
230.7650, 13619.00
231.9820, 13578.00
233.1990, 13612.00
234.4160, 13635.00
235.6330, 13560.00
236.8490, 13579.00
238.0660, 13674.00
239.2820, 13520.00
240.4980, 13790.00
241.7140, 13616.00
242.9300, 13669.00
244.1460, 13829.00
245.3610, 13827.00
246.5770, 13757.00
247.7920, 13921.00
249.0070, 13859.00
250.2220, 13910.00
251.4370, 13906.26
252.6510, 13825.00
253.8660, 13850.00
255.0800, 13828.62
256.2940, 13783.04
257.5080, 13805.00
258.7220, 13723.00
259.9360, 13655.00
261.1490, 13649.00
262.3630, 13708.00
263.5760, 13501.00
264.7890, 13604.00
266.0020, 13519.00
267.2150, 13713.00
268.4270, 13702.00
269.6400, 13922.00
270.8520, 13907.00
272.0640, 13812.00
273.2760, 14009.00
274.4880, 13993.00
275.7000, 14033.00
276.9120, 14070.00
278.1230, 14035.22
279.3340, 14054.00
280.5450, 13995.00
281.7560, 14039.00
282.9670, 14053.00
284.1780, 13947.00
285.3880, 13996.00
286.5980, 13972.00
287.8090, 13930.00
289.0190, 13807.00
290.2290, 13848.00
291.4380, 13793.00
292.6480, 13907.00
293.8570, 13894.00
295.0670, 13875.00
296.2760, 13814.00
297.4850, 13879.00
298.6930, 14029.00
299.9020, 13950.00
301.1110, 13977.00
302.3190, 13821.00
303.5270, 13785.00
304.7350, 13814.37
305.9430, 13818.45
307.1510, 13897.00
308.3580, 13980.00
309.5660, 14047.00
310.7730, 14159.00
311.9800, 13951.00
313.1870, 14070.00
314.3940, 13978.00
315.6010, 14023.00
316.8070, 14083.00
318.0130, 14094.00
319.2200, 14193.00
320.4260, 14238.00
321.6310, 14112.00
322.8370, 14265.00
324.0430, 14207.00
325.2480, 14433.00
326.4540, 14195.00
327.6590, 14336.00
328.8640, 14354.00
330.0680, 14364.00
331.2730, 14575.00
332.4780, 14431.00
333.6820, 14323.00
334.8860, 14358.00
336.0900, 14442.00
337.2940, 14586.00
338.4980, 14483.00
339.7010, 14569.00
340.9050, 14508.00
342.1080, 14710.00
343.3110, 14459.00
344.5140, 14554.00
345.7170, 14802.00
346.9200, 14622.00
348.1220, 14497.00
349.3240, 14698.00
350.5270, 14821.00
351.7290, 14691.00
352.9310, 14621.00
354.1320, 14746.00
355.3340, 14578.00
356.5350, 14693.00
357.7370, 14756.00
358.9380, 14802.00
360.1390, 14702.00
361.3400, 14848.00
362.5400, 14782.00
363.7410, 14841.00
364.9410, 14878.00
366.1410, 14877.66
367.3410, 14916.65
368.5410, 14940.00
369.7410, 14946.00
370.9400, 14999.00
372.1400, 15002.00
373.3390, 14981.00
374.5380, 15067.00
375.7370, 14991.00
376.9360, 15192.00
378.1350, 14968.00
379.3330, 15113.00
380.5310, 15074.00
381.7300, 15277.00
382.9280, 15328.00
384.1260, 15146.00
385.3230, 15114.00
386.5210, 15251.00
387.7180, 15203.00
388.9160, 15200.00
390.1130, 15177.00
391.3100, 15399.00
392.5060, 15488.00
393.7030, 15294.00
394.9000, 15472.00
396.0960, 15341.00
397.2920, 15496.00
398.4880, 15327.00
399.6840, 15463.00
400.8800, 15419.00
402.0750, 15426.00
403.2710, 15539.00
404.4660, 15509.00
405.6610, 15652.00
406.8560, 15617.00
408.0510, 15588.00
409.2450, 15515.00
410.4400, 15525.03
411.6340, 15582.00
412.8280, 15559.00
414.0220, 15563.00
415.2160, 15650.00
416.4100, 15741.00
417.6030, 15736.00
418.7970, 15878.00
419.9900, 15811.00
421.1830, 15753.00
422.3760, 15675.00
423.5690, 15822.00
424.7610, 15777.00
425.9540, 15842.00
427.1460, 15789.00
428.3380, 15731.00
429.5300, 15929.00
430.7220, 15976.00
431.9140, 15846.00
433.1050, 16043.00
434.2970, 15862.00
435.4880, 15960.00
436.6790, 16103.00
437.8700, 16071.00
439.0610, 16046.00
440.2510, 16027.00
441.4420, 16194.00
442.6320, 16185.00
443.8220, 16295.00
445.0120, 16148.00
446.2020, 16164.00
447.3910, 16404.00
448.5810, 16183.00
449.7700, 16335.00
450.9600, 16354.00
452.1490, 16234.00
453.3370, 16324.00
454.5260, 16397.00
455.7150, 16343.00
456.9030, 16330.00
458.0910, 16327.00
459.2800, 16255.00
460.4670, 16365.00
461.6550, 16502.00
462.8430, 16480.00
464.0300, 16526.00
465.2180, 16547.00
466.4050, 16591.00
467.5920, 16500.00
468.7790, 16590.00
469.9650, 16618.00
471.1520, 16520.00
472.3380, 16611.00
473.5250, 16554.00
474.7110, 16692.00
475.8970, 16699.00
477.0820, 16641.00
478.2680, 16648.00
479.4540, 16813.00
480.6390, 16832.00
481.8240, 16794.00
483.0090, 16816.00
484.1940, 16799.00
485.3780, 16820.62
486.5630, 16912.00
487.7470, 16898.00
488.9320, 17090.00
490.1160, 17192.00
491.3000, 17389.00
492.4830, 17426.00
493.6670, 17415.00
494.8500, 17482.00
496.0340, 17624.00
497.2170, 17773.00
498.4000, 17765.00
499.5820, 17735.00
500.7650, 17937.00
501.9480, 17885.18
503.1300, 17975.00
504.3120, 17960.00
505.4940, 17983.00
506.6760, 18078.00
507.8580, 17935.00
509.0390, 17714.00
510.2210, 17743.00
511.4020, 17957.00
512.5830, 17829.00
513.7640, 18021.00
514.9450, 18098.00
516.1250, 18227.00
517.3060, 18276.00
518.4860, 18327.78
519.6660, 18183.00
520.8460, 18343.00
522.0260, 18316.00
523.2060, 18224.00
524.3850, 18271.00
525.5650, 18257.00
526.7440, 18184.00
527.9230, 18061.00
529.1020, 17910.00
530.2810, 17932.00
531.4590, 17895.00
532.6380, 17813.00
533.8160, 17952.00
534.9940, 17862.00
536.1720, 17912.00
537.3500, 17908.39
538.5270, 17896.00
539.7050, 17837.00
540.8820, 17866.00
542.0590, 17755.00
543.2360, 17909.00
544.4130, 17860.00
545.5900, 17900.00
546.7660, 17810.00
547.9430, 18043.00
549.1190, 17825.00
550.2950, 17765.00
551.4710, 17911.00
552.6470, 18050.00
553.8220, 17906.00
554.9980, 17990.00
556.1730, 18154.00
557.3480, 18206.00
558.5230, 18045.00
559.6980, 17987.00
560.8730, 18221.00
562.0470, 18122.00
563.2220, 18277.00
564.3960, 18374.00
565.5700, 18170.00
566.7440, 18460.00
567.9170, 18563.00
569.0910, 18489.00
570.2640, 18440.00
571.4380, 18602.00
572.6110, 18564.00
573.7840, 18325.00
574.9570, 18388.00
576.1290, 18727.00
577.3020, 18576.00
578.4740, 18703.00
579.6460, 18671.00
580.8180, 18607.00
581.9900, 18655.00
583.1620, 18845.00
584.3330, 18836.00
585.5040, 18962.00
586.6760, 19223.00
587.8470, 19153.00
589.0180, 19128.00
590.1880, 19290.00
591.3590, 19298.00
592.5290, 19371.00
593.7000, 19370.00
594.8700, 19382.00
596.0400, 19288.00
597.2090, 19301.00
598.3790, 19416.00
599.5490, 19478.00
600.7180, 19273.00
601.8870, 19255.00
603.0560, 19365.00
604.2250, 19331.00
605.3940, 19340.00
606.5620, 19356.00
607.7300, 19239.00
608.8990, 19282.00
610.0670, 19222.00
611.2350, 19191.00
612.4020, 19133.00
613.5700, 19235.00
614.7370, 19216.00
615.9050, 19231.00
617.0720, 19196.00
618.2390, 19336.00
619.4060, 19208.00
620.5720, 19289.00
621.7390, 19241.00
622.9050, 19237.09
624.0710, 19309.00
625.2370, 19260.00
626.4030, 19346.00
627.5690, 19382.00
628.7340, 19385.31
629.9000, 19422.00
631.0650, 19440.00
632.2300, 19512.00
633.3950, 19578.00
634.5600, 19504.00
635.7240, 19566.00
636.8890, 19331.00
638.0530, 19386.00
639.2170, 19543.00
640.3810, 19497.00
641.5450, 19670.00
642.7080, 19590.00
643.8720, 19577.00
645.0350, 19703.00
646.1980, 19655.00
647.3610, 19693.12
648.5240, 19724.02
649.6870, 19723.00
650.8490, 19772.00
652.0120, 19816.00
653.1740, 19882.00
654.3360, 19766.00
655.4980, 19775.00
656.6600, 19875.00
657.8210, 19967.00
658.9830, 19960.74
660.1440, 19859.00
661.3050, 20000.00
662.4660, 19891.00
663.6270, 19952.00
664.7870, 19982.00
665.9480, 19817.00
667.1080, 19943.00
668.2680, 19910.00
669.4280, 19801.00
670.5880, 19901.00
671.7480, 20010.00
672.9070, 19948.00
674.0670, 20002.00
675.2260, 20025.00
676.3850, 20100.00
677.5440, 20059.00
678.7030, 20166.00
679.8610, 20201.00
681.0200, 20066.00
682.1780, 20158.00
683.3360, 20214.00
684.4940, 20237.00
685.6520, 20264.00
686.8090, 20249.00
687.9670, 20127.00
689.1240, 20294.00
690.2810, 20141.00
691.4380, 20248.00
692.5950, 20360.00
693.7520, 20396.00
694.9080, 20442.00
696.0650, 20351.00
697.2210, 20139.00
698.3770, 20459.00
699.5330, 20376.00
700.6880, 20453.00
701.8440, 20598.00
702.9990, 20567.00
704.1550, 20614.00
705.3100, 20552.00
706.4650, 20541.00
707.6190, 20358.00
708.7740, 20494.00
709.9290, 20548.00
711.0830, 20649.00
712.2370, 20834.00
713.3910, 20679.00
714.5450, 20762.00
715.6980, 20559.00
716.8520, 20578.00
718.0050, 20777.00
719.1580, 20621.00
720.3110, 20786.00
721.4640, 20793.00
722.6170, 20761.00
723.7700, 20849.45
724.9220, 20834.10
726.0740, 20912.00
727.2260, 20889.00
728.3780, 20914.00
729.5300, 20981.00
730.6810, 20942.00
731.8330, 21073.00
732.9840, 21068.20
734.1350, 20998.00
735.2860, 21072.00
736.4370, 21053.00
737.5880, 20943.00
738.7380, 20951.00
739.8880, 21220.00
741.0390, 21076.00
742.1890, 21278.00
743.3380, 21154.00
744.4880, 21215.00
745.6380, 21217.00
746.7870, 21218.00
747.9360, 21360.00
749.0850, 21208.00
750.2340, 21174.00
751.3830, 21262.00
752.5310, 21288.69
753.6800, 21374.00
754.8280, 21377.63
755.9760, 21305.00
757.1240, 21412.00
758.2720, 21410.00
759.4190, 21492.00
760.5670, 21444.00
761.7140, 21402.00
762.8610, 21396.00
764.0080, 21462.00
765.1550, 21595.00
766.3020, 21654.00
767.4480, 21780.00
768.5950, 21609.00
769.7410, 21740.00
770.8870, 21770.00
772.0330, 21863.00
773.1780, 21537.00
774.3240, 21925.00
775.4690, 21870.00
776.6140, 21892.00
777.7590, 22199.00
778.9040, 22073.00
780.0490, 22155.00
781.1940, 22088.00
782.3380, 22090.69
783.4820, 22111.35
784.6260, 22063.00
785.7700, 22123.00
786.9140, 22025.00
788.0580, 22013.00
789.2010, 21794.00
790.3450, 22108.00
791.4880, 21797.00
792.6310, 22129.00
793.7730, 21924.00
794.9160, 21979.00
796.0590, 22087.00
797.2010, 21769.00
798.3430, 21967.00
799.4850, 22050.00
800.6270, 22120.00
801.7690, 22009.00
802.9100, 22173.00
804.0520, 22293.00
805.1930, 22052.00
806.3340, 22379.00
807.4750, 22286.00
808.6160, 22153.00
809.7560, 22352.00
810.8970, 22268.00
812.0370, 22236.00
813.1770, 22460.00
814.3170, 22318.00
815.4570, 22519.00
816.5960, 22575.00
817.7360, 22577.00
818.8750, 22423.00
820.0140, 22322.00
821.1530, 22605.00
822.2920, 22456.00
823.4310, 22559.00
824.5690, 22383.00
825.7070, 22684.00
826.8460, 22779.00
827.9840, 22830.00
829.1220, 22937.77
830.2590, 22660.00
831.3970, 22958.00
832.5340, 22725.00
833.6710, 22652.00
834.8080, 22760.00
835.9450, 22784.00
837.0820, 22682.00
838.2190, 22881.00
839.3550, 22800.00
840.4910, 23031.00
841.6270, 22930.00
842.7630, 23082.00
843.8990, 23109.00
845.0350, 23268.00
846.1700, 23053.00
847.3060, 23227.00
848.4410, 23296.00
849.5760, 23166.00
850.7100, 23318.00
851.8450, 23413.00
852.9800, 23356.00
854.1140, 23513.00
855.2480, 23620.00
856.3820, 23746.00
857.5160, 23883.00
858.6500, 24001.00
859.7830, 24026.00
860.9170, 24520.00
862.0500, 24529.00
863.1830, 24719.00
864.3160, 24607.00
865.4480, 24680.00
866.5810, 24776.00
867.7130, 24614.00
868.8460, 24453.00
869.9780, 24352.00
871.1100, 24159.00
872.2410, 24253.00
873.3730, 24491.00
874.5050, 24354.00
875.6360, 24507.00
876.7670, 24600.00
877.8980, 24691.00
879.0290, 25008.00
880.1590, 24703.00
881.2900, 25199.00
882.4200, 25086.00
883.5500, 25076.00
884.6800, 25260.00
885.8100, 25253.00
886.9400, 25317.00
888.0690, 25293.00
889.1990, 25601.00
890.3280, 25723.00
891.4570, 26097.00
892.5860, 26395.00
893.7140, 26654.00
894.8430, 27263.00
895.9710, 27392.00
897.1000, 26776.00
898.2280, 26091.00
899.3560, 25226.00
900.4830, 25200.00
901.6110, 24727.00
902.7380, 24692.00
903.8660, 24621.00
904.9930, 24562.00
906.1200, 24484.00
907.2460, 24485.00
908.3730, 24474.83
909.5000, 24528.00
910.6260, 24615.00
911.7520, 24614.00
912.8780, 24891.00
914.0040, 24760.00
915.1290, 24704.00
916.2550, 25023.00
917.3800, 25017.00
918.5050, 24886.00
919.6300, 24939.00
920.7550, 24930.00
921.8800, 25070.00
923.0040, 25160.00
924.1290, 25093.00
925.2530, 25317.00
926.3770, 25239.00
927.5010, 25189.00
928.6250, 25364.00
929.7480, 25461.00
930.8720, 25498.00
931.9950, 25555.00
933.1180, 25635.00
934.2410, 25449.00
935.3640, 25600.00
936.4860, 25508.00
937.6090, 25540.00
938.7310, 25701.00
939.8530, 25562.00
940.9750, 25756.00
942.0970, 25684.00
943.2180, 25696.00
944.3400, 25812.00
945.4610, 25658.00
946.5820, 25573.00
947.7030, 25587.00
948.8240, 25614.00
949.9450, 25438.00
951.0650, 25547.00
952.1860, 25480.00
953.3060, 25359.00
954.4260, 25297.00
955.5460, 25334.00
956.6650, 25103.00
957.7850, 25108.00
958.9040, 25164.00
960.0230, 25367.00
961.1420, 25036.00
962.2610, 25221.00
963.3800, 25166.00
964.4990, 25237.00
965.6170, 25134.00
966.7350, 25139.00
967.8530, 25127.00
968.9710, 25254.00
970.0890, 25352.00
971.2070, 25254.00
972.3240, 25127.00
973.4410, 25100.00
974.5580, 25172.00
975.6750, 25273.00
976.7920, 25212.00
977.9090, 25248.00
979.0250, 25404.00
980.1410, 25281.00
981.2580, 25347.00
982.3740, 25191.00
983.4890, 25248.00
984.6050, 25338.00
985.7200, 25352.00
986.8360, 25325.00
987.9510, 25325.00
989.0660, 25363.22
990.1810, 25345.00
991.2950, 25396.00
992.4100, 25447.99
993.5240, 25622.00
994.6390, 25539.00
995.7530, 25542.00
996.8660, 25487.00
997.9800, 25362.00
999.0940, 25637.00
1000.207, 25742.00
1001.320, 25472.00
1002.433, 25825.00
1003.546, 25713.00
1004.659, 25719.00
1005.772, 25678.00
1006.884, 25712.00
1007.996, 25898.00
1009.108, 25919.00
1010.220, 25909.00
1011.332, 25706.00
1012.444, 25869.00
1013.555, 25668.00
1014.666, 25838.00
1015.777, 25959.00
1016.888, 26148.00
1017.999, 26008.00
1019.110, 25815.00
1020.220, 25901.00
1021.331, 25983.00
1022.441, 25781.00
1023.551, 26017.00
1024.661, 26001.00
1025.770, 26069.00
1026.880, 26117.00
1027.989, 26111.00
1029.098, 26132.00
1030.207, 26171.00
1031.316, 26132.00
1032.425, 26164.00
1033.533, 26143.99
1034.642, 26187.00
1035.750, 26163.00
1036.858, 26165.00
1037.966, 26291.00
1039.073, 26336.00
1040.181, 26357.15
1041.288, 26292.00
1042.396, 26393.00
1043.503, 26338.00
1044.610, 26344.00
1045.716, 26427.00
1046.823, 26420.00
1047.929, 26400.00
1049.036, 26519.00
1050.142, 26451.00
1051.248, 26428.00
1052.353, 26499.00
1053.459, 26506.00
1054.564, 26682.00
1055.670, 26530.00
1056.775, 26608.00
1057.880, 26450.00
1058.985, 26672.00
1060.089, 26632.00
1061.194, 26638.00
1062.298, 26750.00
1063.402, 26751.00
1064.506, 26716.00
1065.610, 26711.00
1066.713, 26711.00
1067.817, 26736.00
1068.920, 26862.00
1070.023, 26892.00
1071.126, 26959.00
1072.229, 26752.00
1073.332, 26842.00
1074.435, 26920.00
1075.537, 27003.00
1076.639, 27065.00
1077.741, 26911.00
1078.843, 26931.00
1079.945, 27005.00
1081.046, 27012.00
1082.148, 27134.91
1083.249, 27240.00
1084.350, 27291.00
1085.451, 27456.00
1086.551, 27348.00
1087.652, 27537.00
1088.752, 27221.00
1089.853, 27185.00
1090.953, 27424.00
1092.053, 27249.00
1093.152, 27114.00
1094.252, 27182.00
1095.351, 27174.00
1096.451, 27204.00
1097.550, 27321.00
1098.649, 27245.00
1099.748, 27228.00
1100.846, 27352.00
1101.945, 27156.00
1103.043, 27136.00
1104.141, 27224.29
1105.239, 27282.00
1106.337, 27326.00
1107.434, 27346.00
1108.532, 27255.00
1109.629, 27461.00
1110.726, 27437.00
1111.823, 27240.00
1112.920, 27464.00
1114.017, 27528.00
1115.113, 27465.00
1116.210, 27649.00
1117.306, 27879.00
1118.402, 27689.00
1119.498, 27873.00
1120.593, 27801.00
1121.689, 27807.00
1122.784, 27770.00
1123.879, 27681.00
1124.974, 27735.91
1126.069, 27756.00
1127.164, 27745.00
1128.259, 27828.00
1129.353, 27715.00
1130.447, 27605.00
1131.541, 27707.00
1132.635, 27887.00
1133.729, 27756.00
1134.822, 27886.00
1135.916, 27808.00
1137.009, 27983.00
1138.102, 27934.00
1139.195, 27864.00
1140.288, 27964.00
1141.380, 27958.00
1142.473, 27946.00
1143.565, 28054.00
1144.657, 28009.00
1145.749, 27889.00
1146.841, 28057.00
1147.932, 28059.00
1149.024, 28233.00
1150.115, 27984.00
1151.206, 28168.00
1152.297, 28050.00
1153.388, 28026.00
1154.479, 28161.00
1155.569, 28109.00
1156.659, 28096.00
1157.750, 28106.00
1158.839, 28256.00
1159.929, 28250.00
1161.019, 28264.00
1162.108, 28373.00
1163.198, 28278.00
1164.287, 28267.00
1165.376, 28141.00
1166.465, 28127.00
1167.553, 28287.00
1168.642, 28533.00
1169.730, 28605.00
1170.818, 28593.00
1171.906, 28584.00
1172.994, 28318.00
1174.082, 28630.00
1175.170, 28582.00
1176.257, 28481.00
1177.344, 28714.00
1178.431, 28531.00
1179.518, 28765.00
1180.605, 28571.00
1181.691, 28647.00
1182.778, 28754.00
1183.864, 28506.00
1184.950, 28502.00
1186.036, 28677.00
1187.122, 28676.00
1188.207, 29016.00
1189.292, 28722.00
1190.378, 28603.00
1191.463, 28778.00
1192.548, 28991.00
1193.632, 28653.00
1194.717, 28836.00
1195.801, 28702.00
1196.886, 28903.00
1197.970, 28735.00
1199.054, 28793.00
1200.137, 28725.00
1201.221, 28829.00
1202.305, 28849.00
1203.388, 29102.00
1204.471, 28929.00
1205.554, 29011.00
1206.637, 28751.00
1207.719, 29119.00
1208.802, 29089.00
1209.884, 29105.00
1210.966, 29279.00
1212.048, 29205.00
1213.130, 29186.00
1214.212, 29282.00
1215.293, 29210.00
1216.374, 29372.00
1217.456, 29369.00
1218.536, 29088.00
1219.617, 29505.00
1220.698, 29099.00
1221.778, 29279.00
1222.859, 29280.00
1223.939, 29287.00
1225.019, 29235.00
1226.099, 29471.00
1227.178, 29284.00
1228.258, 29481.00
1229.337, 29570.00
1230.417, 29521.00
1231.496, 29461.00
1232.574, 29451.00
1233.653, 29388.00
1234.732, 29413.15
1235.810, 29333.00
1236.888, 29445.00
1237.966, 29591.00
1239.044, 29571.00
1240.122, 29693.00
1241.199, 29712.00
1242.277, 29639.00
1243.354, 29729.00
1244.431, 29817.00
1245.508, 29532.00
1246.585, 29847.00
1247.661, 29564.00
1248.738, 29776.00
1249.814, 29605.00
1250.890, 30009.00
1251.966, 29765.00
1253.042, 30058.00
1254.117, 29749.00
1255.193, 29558.00
1256.268, 29743.00
1257.343, 29749.00
1258.418, 29691.00
1259.493, 29825.00
1260.567, 30143.00
1261.642, 29858.00
1262.716, 30093.00
1263.790, 29927.00
1264.864, 30363.00
1265.938, 29962.00
1267.011, 30008.00
1268.085, 30069.00
1269.158, 30070.00
1270.231, 29987.00
1271.304, 30198.00
1272.377, 30236.00
1273.450, 30119.00
1274.522, 30249.00
1275.594, 30149.00
1276.666, 29999.00
1277.738, 30149.00
1278.810, 30132.00
1279.882, 30195.00
1280.953, 30317.00
1282.025, 30211.00
1283.096, 30253.00
1284.167, 30375.00
1285.238, 30314.81
1286.308, 30249.00
1287.379, 30278.00
1288.449, 30286.00
