##NAMES=Whewellite
##RRUFFID=R050240
##IDEAL CHEMISTRY=Ca(C_2_)^6+^O_4_&#183;H_2_O
##LOCALITY=Huron River, Milan, Ohio, USA
##OWNER=RRUFF
##SOURCE=Marcus Origlieri
##DESCRIPTION=White fragment
##STATUS=The identification of this mineral has been confirmed by X-ray diffraction and chemical analysis
##URL=rruff.info/R050240
##MEASURED CHEMISTRY=Ca_1.00_C_2_O_4_Â·H_2_O
##PIN_ID=L00839
##ORIENTATION=Laser parallel to c* (0 0 1). Fiducial mark perpendicular to laser is parallel to a [1 0 0]
107.0470, 9488.000
108.2800, 9733.000
109.5120, 9681.000
110.7440, 9737.000
111.9760, 9720.000
113.2080, 9752.000
114.4400, 9993.000
115.6710, 10228.00
116.9030, 10382.00
118.1340, 10555.00
119.3650, 10609.00
120.5960, 10824.00
121.8270, 11207.00
123.0580, 11427.00
124.2880, 11775.00
125.5190, 12088.00
126.7490, 12566.00
127.9790, 12990.72
129.2090, 13438.00
130.4390, 14010.00
131.6680, 14531.00
132.8980, 15135.00
134.1270, 15669.00
135.3560, 16201.00
136.5850, 16506.00
137.8140, 16990.00
139.0430, 17051.00
140.2710, 17152.00
141.5000, 16773.00
142.7280, 16140.00
143.9560, 15610.00
145.1840, 14836.00
146.4120, 14328.00
147.6390, 13675.00
148.8670, 13143.00
150.0940, 12940.00
151.3210, 12625.00
152.5490, 12420.00
153.7750, 12032.00
155.0020, 11954.00
156.2290, 11813.00
157.4550, 11781.00
158.6810, 11741.00
159.9080, 11914.00
161.1340, 11757.00
162.3590, 11663.00
163.5850, 11852.00
164.8110, 11786.00
166.0360, 11633.00
167.2610, 11759.00
168.4860, 11777.00
169.7110, 11884.00
170.9360, 11991.00
172.1610, 12073.00
173.3850, 12176.00
174.6100, 12176.00
175.8340, 12183.00
177.0580, 12351.00
178.2820, 12411.00
179.5050, 12612.94
180.7290, 12751.00
181.9520, 13075.00
183.1760, 13360.00
184.3990, 13644.00
185.6220, 14187.00
186.8450, 14672.00
188.0670, 15159.00
189.2900, 15709.00
190.5120, 16386.00
191.7340, 16930.00
192.9560, 17156.00
194.1780, 17390.00
195.4000, 17223.00
196.6220, 16874.00
197.8430, 16751.00
199.0640, 16583.00
200.2860, 16570.00
201.5070, 16585.00
202.7270, 16532.00
203.9480, 16519.02
205.1690, 16519.00
206.3890, 16446.00
207.6090, 16157.00
208.8290, 16081.00
210.0490, 15974.00
211.2690, 15579.00
212.4890, 15444.00
213.7080, 15131.00
214.9280, 14997.00
216.1470, 15174.00
217.3660, 15041.00
218.5850, 15197.00
219.8030, 15422.00
221.0220, 15634.00
222.2400, 15630.00
223.4590, 15366.00
224.6770, 15142.00
225.8950, 14636.00
227.1120, 14386.00
228.3300, 14174.00
229.5480, 13958.00
230.7650, 13688.00
231.9820, 13816.00
233.1990, 13572.00
234.4160, 13687.00
235.6330, 13674.00
236.8490, 13742.00
238.0660, 13815.00
239.2820, 13871.00
240.4980, 14025.00
241.7140, 14111.00
242.9300, 14331.00
244.1460, 14442.00
245.3610, 14500.00
246.5770, 14895.00
247.7920, 15012.00
249.0070, 14822.00
250.2220, 14855.00
251.4370, 14711.00
252.6510, 14409.00
253.8660, 14277.00
255.0800, 13937.00
256.2940, 13896.00
257.5080, 13956.00
258.7220, 13577.00
259.9360, 13623.00
261.1490, 13404.00
262.3630, 13479.00
263.5760, 13426.00
264.7890, 13434.00
266.0020, 13383.00
267.2150, 13481.00
268.4270, 13528.00
269.6400, 13406.00
270.8520, 13476.00
272.0640, 13432.00
273.2760, 13466.00
274.4880, 13487.00
275.7000, 13517.00
276.9120, 13448.00
278.1230, 13486.81
279.3340, 13479.00
280.5450, 13494.00
281.7560, 13595.00
282.9670, 13595.00
284.1780, 13564.00
285.3880, 13623.40
286.5980, 13599.00
287.8090, 13602.00
289.0190, 13610.00
290.2290, 13459.00
291.4380, 13478.00
292.6480, 13495.00
293.8570, 13643.00
295.0670, 13829.00
296.2760, 13660.00
297.4850, 13659.00
298.6930, 13695.00
299.9020, 13593.00
301.1110, 13571.00
302.3190, 13681.00
303.5270, 13613.00
304.7350, 13674.12
305.9430, 13836.00
307.1510, 13726.00
308.3580, 13719.00
309.5660, 13711.00
310.7730, 13700.00
311.9800, 13731.00
313.1870, 13821.00
314.3940, 13848.00
315.6010, 13774.00
316.8070, 13895.00
318.0130, 13717.00
319.2200, 13930.00
320.4260, 13946.00
321.6310, 13940.00
322.8370, 14063.00
324.0430, 13935.00
325.2480, 14111.00
326.4540, 13935.00
327.6590, 14036.00
328.8640, 14091.00
330.0680, 14049.00
331.2730, 14199.00
332.4780, 14172.00
333.6820, 14245.00
334.8860, 14053.00
336.0900, 14015.00
337.2940, 14184.00
338.4980, 14233.00
339.7010, 14397.00
340.9050, 14278.00
342.1080, 14377.00
343.3110, 14357.00
344.5140, 14345.00
345.7170, 14353.00
346.9200, 14279.00
348.1220, 14327.00
349.3240, 14192.00
350.5270, 14301.00
351.7290, 14271.00
352.9310, 14440.00
354.1320, 14427.00
355.3340, 14425.00
356.5350, 14552.00
357.7370, 14383.00
358.9380, 14617.00
360.1390, 14500.00
361.3400, 14589.00
362.5400, 14640.00
363.7410, 14685.00
364.9410, 14605.00
366.1410, 14537.00
367.3410, 14663.00
368.5410, 14653.00
369.7410, 14744.00
370.9400, 14871.00
372.1400, 14628.00
373.3390, 14771.00
374.5380, 14921.00
375.7370, 14727.00
376.9360, 14808.00
378.1350, 14754.00
379.3330, 14719.00
380.5310, 14814.00
381.7300, 14924.00
382.9280, 14875.00
384.1260, 14948.00
385.3230, 14754.00
386.5210, 14947.00
387.7180, 14933.00
388.9160, 15092.00
390.1130, 15123.00
391.3100, 15048.00
392.5060, 15216.00
393.7030, 14993.00
394.9000, 15176.00
396.0960, 15133.00
397.2920, 15055.00
398.4880, 15082.00
399.6840, 15223.00
400.8800, 15158.00
402.0750, 15105.00
403.2710, 15180.00
404.4660, 15103.00
405.6610, 15395.00
406.8560, 15264.00
408.0510, 15430.00
409.2450, 15287.00
410.4400, 15259.00
411.6340, 15484.00
412.8280, 15415.00
414.0220, 15392.00
415.2160, 15462.00
416.4100, 15391.00
417.6030, 15578.00
418.7970, 15428.00
419.9900, 15553.00
421.1830, 15699.00
422.3760, 15531.00
423.5690, 15555.00
424.7610, 15643.00
425.9540, 15545.00
427.1460, 15662.00
428.3380, 15588.00
429.5300, 15635.00
430.7220, 15584.00
431.9140, 15760.00
433.1050, 15668.00
434.2970, 15774.00
435.4880, 15906.00
436.6790, 15742.00
437.8700, 15857.00
439.0610, 15920.00
440.2510, 15770.00
441.4420, 15883.00
442.6320, 15856.00
443.8220, 15992.00
445.0120, 15897.00
446.2020, 15993.00
447.3910, 16086.00
448.5810, 15989.00
449.7700, 16087.00
450.9600, 16160.00
452.1490, 16110.00
453.3370, 15948.00
454.5260, 16082.00
455.7150, 16162.00
456.9030, 16019.00
458.0910, 16203.00
459.2800, 16200.00
460.4670, 16321.00
461.6550, 16266.00
462.8430, 16319.00
464.0300, 16254.00
465.2180, 16404.00
466.4050, 16337.00
467.5920, 16323.00
468.7790, 16404.00
469.9650, 16416.00
471.1520, 16394.00
472.3380, 16438.00
473.5250, 16472.00
474.7110, 16475.00
475.8970, 16603.00
477.0820, 16604.00
478.2680, 16548.00
479.4540, 16692.00
480.6390, 16610.00
481.8240, 16653.00
483.0090, 16653.00
484.1940, 16806.00
485.3780, 16790.00
486.5630, 16843.00
487.7470, 16993.00
488.9320, 16769.00
490.1160, 16989.00
491.3000, 16816.00
492.4830, 17154.00
493.6670, 17317.00
494.8500, 17568.00
496.0340, 17549.00
497.2170, 17781.00
498.4000, 17926.00
499.5820, 18093.00
500.7650, 18135.00
501.9480, 18268.00
503.1300, 18229.00
504.3120, 18221.00
505.4940, 18032.00
506.6760, 18090.00
507.8580, 17957.00
509.0390, 18036.00
510.2210, 18049.00
511.4020, 18132.00
512.5830, 17971.00
513.7640, 18250.00
514.9450, 18320.00
516.1250, 18387.00
517.3060, 18661.00
518.4860, 18803.00
519.6660, 18523.00
520.8460, 18738.00
522.0260, 18669.00
523.2060, 18531.00
524.3850, 18413.00
525.5650, 18175.00
526.7440, 18298.00
527.9230, 17877.00
529.1020, 17912.00
530.2810, 18026.00
531.4590, 17870.00
532.6380, 17932.00
533.8160, 17616.00
534.9940, 17593.00
536.1720, 17633.00
537.3500, 17553.00
538.5270, 17560.00
539.7050, 17696.00
540.8820, 17748.00
542.0590, 17478.00
543.2360, 17605.00
544.4130, 17644.00
545.5900, 17662.00
546.7660, 17842.00
547.9430, 17624.00
549.1190, 17752.00
550.2950, 17608.00
551.4710, 17796.00
552.6470, 17688.00
553.8220, 17849.00
554.9980, 17943.00
556.1730, 17743.00
557.3480, 17873.00
558.5230, 17895.00
559.6980, 17904.00
560.8730, 18028.00
562.0470, 18039.76
563.2220, 18088.00
564.3960, 18089.00
565.5700, 18146.00
566.7440, 18061.00
567.9170, 18194.00
569.0910, 18280.00
570.2640, 18265.00
571.4380, 18390.00
572.6110, 18369.00
573.7840, 18484.00
574.9570, 18365.00
576.1290, 18462.00
577.3020, 18342.00
578.4740, 18430.00
579.6460, 18755.00
580.8180, 18686.00
581.9900, 18816.00
583.1620, 18978.00
584.3330, 18983.00
585.5040, 19150.00
586.6760, 19269.00
587.8470, 19338.06
589.0180, 19420.00
590.1880, 19555.00
591.3590, 19718.00
592.5290, 19899.00
593.7000, 19893.00
594.8700, 19799.00
596.0400, 19621.00
597.2090, 20045.00
598.3790, 19675.00
599.5490, 19799.00
600.7180, 19693.00
601.8870, 19687.00
603.0560, 19327.00
604.2250, 19370.00
605.3940, 19339.00
606.5620, 19263.00
607.7300, 19348.00
608.8990, 19086.00
610.0670, 18984.00
611.2350, 19144.00
612.4020, 19068.00
613.5700, 19074.00
614.7370, 18990.00
615.9050, 19170.00
617.0720, 18935.00
618.2390, 19061.00
619.4060, 19038.00
620.5720, 19015.00
621.7390, 19043.00
622.9050, 19042.00
624.0710, 19019.67
625.2370, 19038.65
626.4030, 19007.00
627.5690, 19037.00
628.7340, 19104.00
629.9000, 19088.00
631.0650, 18918.00
632.2300, 19303.00
633.3950, 19287.00
634.5600, 19293.00
635.7240, 19107.00
636.8890, 19296.00
638.0530, 19260.00
639.2170, 19252.00
640.3810, 19289.00
641.5450, 19269.00
642.7080, 19247.00
643.8720, 19380.00
645.0350, 19374.00
646.1980, 19506.00
647.3610, 19511.00
648.5240, 19478.00
649.6870, 19488.00
650.8490, 19405.00
652.0120, 19431.95
653.1740, 19512.00
654.3360, 19494.00
655.4980, 19429.00
656.6600, 19548.00
657.8210, 19408.00
658.9830, 19558.00
660.1440, 19501.00
661.3050, 19436.00
662.4660, 19613.00
663.6270, 19622.00
664.7870, 19710.00
665.9480, 19759.95
667.1080, 19719.00
668.2680, 19775.00
669.4280, 19777.00
670.5880, 19693.00
671.7480, 19639.00
672.9070, 19754.00
674.0670, 19777.00
675.2260, 19824.00
676.3850, 19782.00
677.5440, 19924.00
678.7030, 19727.00
679.8610, 20040.00
681.0200, 19785.00
682.1780, 19960.00
683.3360, 19832.00
684.4940, 20087.00
685.6520, 20064.00
686.8090, 19972.00
687.9670, 19943.00
689.1240, 19930.00
690.2810, 20091.00
691.4380, 19901.00
692.5950, 20234.00
693.7520, 20087.00
694.9080, 20170.00
696.0650, 20194.00
697.2210, 20222.00
698.3770, 19948.00
699.5330, 20184.00
700.6880, 20039.00
701.8440, 20097.00
702.9990, 20077.00
704.1550, 20070.84
705.3100, 20341.00
706.4650, 20162.00
707.6190, 20178.00
708.7740, 20313.00
709.9290, 20221.00
711.0830, 20391.00
712.2370, 20438.00
713.3910, 20446.00
714.5450, 20532.59
715.6980, 20629.00
716.8520, 20602.00
718.0050, 20701.00
719.1580, 20734.70
720.3110, 20673.00
721.4640, 20641.00
722.6170, 20537.00
723.7700, 20451.00
724.9220, 20598.00
726.0740, 20547.00
727.2260, 20694.00
728.3780, 20663.00
729.5300, 20779.00
730.6810, 20671.00
731.8330, 20733.00
732.9840, 20785.00
734.1350, 20760.00
735.2860, 20829.00
736.4370, 20846.00
737.5880, 20914.00
738.7380, 21008.00
739.8880, 20857.00
741.0390, 20938.00
742.1890, 20831.00
743.3380, 20901.00
744.4880, 20881.00
745.6380, 20809.00
746.7870, 21054.00
747.9360, 21026.00
749.0850, 20874.00
750.2340, 21070.00
751.3830, 21308.00
752.5310, 21243.00
753.6800, 21196.00
754.8280, 21177.00
755.9760, 21153.00
757.1240, 21210.00
758.2720, 21205.01
759.4190, 21232.00
760.5670, 21229.00
761.7140, 21241.00
762.8610, 21193.00
764.0080, 21291.00
765.1550, 21276.55
766.3020, 21268.97
767.4480, 21337.00
768.5950, 21283.00
769.7410, 21334.00
770.8870, 21436.00
772.0330, 21385.00
773.1780, 21568.00
774.3240, 21580.00
775.4690, 21646.00
776.6140, 21804.00
777.7590, 21816.00
778.9040, 21716.00
780.0490, 21979.00
781.1940, 21692.00
782.3380, 21614.00
783.4820, 21643.00
784.6260, 21758.00
785.7700, 21949.00
786.9140, 21929.00
788.0580, 21795.00
789.2010, 21721.00
790.3450, 21711.00
791.4880, 21729.00
792.6310, 21746.00
793.7730, 21779.83
794.9160, 21755.00
796.0590, 21863.00
797.2010, 21934.00
798.3430, 21964.00
799.4850, 21906.00
800.6270, 21824.00
801.7690, 22058.00
802.9100, 22191.00
804.0520, 22133.00
805.1930, 22158.00
806.3340, 21951.00
807.4750, 22084.00
808.6160, 22042.00
809.7560, 22086.00
810.8970, 22156.00
812.0370, 22182.00
813.1770, 22122.00
814.3170, 22170.00
815.4570, 22142.00
816.5960, 22333.00
817.7360, 22282.00
818.8750, 22314.00
820.0140, 22238.00
821.1530, 22324.00
822.2920, 22443.00
823.4310, 22358.00
824.5690, 22415.00
825.7070, 22386.00
826.8460, 22439.00
827.9840, 22353.00
829.1220, 22431.00
830.2590, 22465.00
831.3970, 22500.00
832.5340, 22414.00
833.6710, 22404.00
834.8080, 22756.00
835.9450, 22638.00
837.0820, 22658.00
838.2190, 22740.00
839.3550, 22627.00
840.4910, 22629.00
841.6270, 22632.00
842.7630, 22788.00
843.8990, 22733.00
845.0350, 22980.00
846.1700, 22707.00
847.3060, 22685.00
848.4410, 23081.00
849.5760, 23028.00
850.7100, 23144.00
851.8450, 23005.00
852.9800, 23059.00
854.1140, 23104.00
855.2480, 23215.00
856.3820, 23263.00
857.5160, 23515.00
858.6500, 23757.00
859.7830, 23716.00
860.9170, 23951.00
862.0500, 23892.00
863.1830, 24030.00
864.3160, 23986.00
865.4480, 23957.62
866.5810, 24044.00
867.7130, 23835.00
868.8460, 23890.00
869.9780, 23794.00
871.1100, 23708.00
872.2410, 23911.00
873.3730, 23858.00
874.5050, 23839.00
875.6360, 23965.00
876.7670, 23998.00
877.8980, 24101.00
879.0290, 24156.00
880.1590, 24192.00
881.2900, 24357.00
882.4200, 24435.00
883.5500, 24613.00
884.6800, 24633.00
885.8100, 24826.00
886.9400, 24826.00
888.0690, 25239.00
889.1990, 25745.00
890.3280, 26423.03
891.4570, 26992.00
892.5860, 28366.00
893.7140, 29717.00
894.8430, 31104.00
895.9710, 31057.00
897.1000, 29655.00
898.2280, 27896.00
899.3560, 26352.00
900.4830, 25326.00
901.6110, 24653.00
902.7380, 24759.00
903.8660, 24341.00
904.9930, 24257.00
906.1200, 24144.00
907.2460, 24285.00
908.3730, 24422.00
909.5000, 24195.00
910.6260, 24161.00
911.7520, 24379.00
912.8780, 24323.00
914.0040, 24329.00
915.1290, 24408.00
916.2550, 24513.00
917.3800, 24409.00
918.5050, 24347.00
919.6300, 24395.00
920.7550, 24608.00
921.8800, 24752.00
923.0040, 24879.00
924.1290, 24728.00
925.2530, 24891.00
926.3770, 24555.00
927.5010, 24826.00
928.6250, 24875.00
929.7480, 25053.00
930.8720, 24915.00
931.9950, 24942.00
933.1180, 25072.00
934.2410, 25187.00
935.3640, 25054.00
936.4860, 25171.00
937.6090, 25287.00
938.7310, 25056.00
939.8530, 25333.00
940.9750, 25345.00
942.0970, 25172.00
943.2180, 25216.00
944.3400, 25294.00
945.4610, 25114.00
946.5820, 25051.00
947.7030, 25309.00
948.8240, 25178.00
949.9450, 25233.00
951.0650, 25283.00
952.1860, 25082.00
953.3060, 25165.00
954.4260, 25175.00
955.5460, 25096.00
956.6650, 25014.00
957.7850, 25118.00
958.9040, 25072.00
960.0230, 24997.00
961.1420, 24849.00
962.2610, 25064.00
963.3800, 25104.00
964.4990, 24839.00
965.6170, 25086.00
966.7350, 25145.00
967.8530, 24914.00
968.9710, 25036.00
970.0890, 25104.00
971.2070, 25045.00
972.3240, 24997.00
973.4410, 25135.00
974.5580, 25133.00
975.6750, 25148.00
976.7920, 25118.00
977.9090, 25133.25
979.0250, 25031.00
980.1410, 25098.00
981.2580, 25310.00
982.3740, 25216.00
983.4890, 25274.00
984.6050, 25170.00
985.7200, 25250.00
986.8360, 25347.00
987.9510, 25267.00
989.0660, 25433.00
990.1810, 25526.00
991.2950, 25384.00
992.4100, 25317.00
993.5240, 25641.00
994.6390, 25360.00
995.7530, 25496.00
996.8660, 25523.00
997.9800, 25335.00
999.0940, 25870.00
1000.207, 25558.00
1001.320, 25793.00
1002.433, 25416.00
1003.546, 25661.00
1004.659, 25558.00
1005.772, 25591.00
1006.884, 25672.00
1007.996, 25708.00
1009.108, 25557.00
1010.220, 25998.00
1011.332, 25778.00
1012.444, 25575.00
1013.555, 25893.00
1014.666, 25787.00
1015.777, 25874.00
1016.888, 25889.00
1017.999, 25902.00
1019.110, 25850.00
1020.220, 25846.00
1021.331, 25806.00
1022.441, 26092.00
1023.551, 26005.00
1024.661, 26208.00
1025.770, 26031.00
1026.880, 25874.00
1027.989, 25977.00
1029.098, 25946.00
1030.207, 25979.00
1031.316, 26014.00
1032.425, 26182.00
1033.533, 26080.00
1034.642, 26218.00
1035.750, 25940.00
1036.858, 26152.00
1037.966, 26195.00
1039.073, 26171.00
1040.181, 26339.00
1041.288, 26302.00
1042.396, 26306.00
1043.503, 26360.00
1044.610, 26066.00
1045.716, 26294.00
1046.823, 26233.00
1047.929, 26389.00
1049.036, 26250.00
1050.142, 26242.00
1051.248, 26293.05
1052.353, 26434.00
1053.459, 26348.00
1054.564, 26504.00
1055.670, 26552.00
1056.775, 26491.00
1057.880, 26531.00
1058.985, 26286.00
1060.089, 26634.00
1061.194, 26430.00
1062.298, 26551.00
1063.402, 26690.00
1064.506, 26611.00
1065.610, 26576.00
1066.713, 26613.00
1067.817, 26835.00
1068.920, 26577.00
1070.023, 26987.00
1071.126, 26852.00
1072.229, 26842.00
1073.332, 26788.00
1074.435, 26633.00
1075.537, 26849.00
1076.639, 26893.00
1077.741, 26844.00
1078.843, 26767.00
1079.945, 27022.00
1081.046, 27180.00
1082.148, 26772.00
1083.249, 26906.00
1084.350, 27079.00
1085.451, 27130.00
1086.551, 27189.00
1087.652, 27198.00
1088.752, 27117.00
1089.853, 27138.00
1090.953, 27139.00
1092.053, 27050.00
1093.152, 27241.00
1094.252, 27264.00
1095.351, 27250.00
1096.451, 27010.00
1097.550, 27072.00
1098.649, 27039.00
1099.748, 27196.00
1100.846, 27173.00
1101.945, 27288.00
1103.043, 27450.00
1104.141, 27244.00
1105.239, 27390.00
1106.337, 27262.00
1107.434, 27499.00
1108.532, 27483.00
1109.629, 27342.00
1110.726, 27546.00
1111.823, 27369.00
1112.920, 27484.00
1114.017, 27585.00
1115.113, 27573.00
1116.210, 27620.00
1117.306, 27678.00
1118.402, 27680.00
1119.498, 27607.00
1120.593, 27781.00
1121.689, 27809.00
1122.784, 27588.00
1123.879, 27688.00
1124.974, 27864.00
1126.069, 27731.00
1127.164, 27828.00
1128.259, 27770.00
1129.353, 27664.00
1130.447, 27678.00
1131.541, 27677.00
1132.635, 27835.00
1133.729, 27899.00
1134.822, 27833.00
1135.916, 27690.00
1137.009, 27720.00
1138.102, 27712.96
1139.195, 27995.00
1140.288, 27881.00
1141.380, 27906.00
1142.473, 28140.00
1143.565, 27886.00
1144.657, 27917.00
1145.749, 28093.00
1146.841, 27966.00
1147.932, 28010.00
1149.024, 27992.00
1150.115, 28228.00
1151.206, 28005.00
1152.297, 28252.00
1153.388, 28202.00
1154.479, 28096.00
1155.569, 28161.00
1156.659, 28251.00
1157.750, 28217.00
1158.839, 28301.00
1159.929, 28260.00
1161.019, 28242.00
1162.108, 28178.00
1163.198, 28272.00
1164.287, 28347.00
1165.376, 28140.00
1166.465, 28331.00
1167.553, 28378.00
1168.642, 28331.00
1169.730, 28526.00
1170.818, 28544.00
1171.906, 28187.00
1172.994, 28536.00
1174.082, 28512.00
1175.170, 28367.00
1176.257, 28551.00
1177.344, 28766.00
1178.431, 28481.00
1179.518, 28590.00
1180.605, 28705.00
1181.691, 28764.00
1182.778, 28891.00
1183.864, 28827.20
1184.950, 28767.00
1186.036, 28725.00
1187.122, 28854.00
1188.207, 28913.00
1189.292, 28932.00
1190.378, 28951.36
1191.463, 28933.66
1192.548, 28815.00
1193.632, 28949.00
1194.717, 28704.00
1195.801, 28879.00
1196.886, 29057.00
1197.970, 28893.00
1199.054, 28957.00
1200.137, 28996.00
1201.221, 29102.00
1202.305, 28772.00
1203.388, 29033.00
1204.471, 28940.00
1205.554, 28940.00
1206.637, 29073.00
1207.719, 29105.00
1208.802, 29042.00
1209.884, 28987.00
1210.966, 29041.00
1212.048, 29150.00
1213.130, 29193.00
1214.212, 29219.00
1215.293, 29285.00
1216.374, 28995.00
1217.456, 29105.00
1218.536, 29424.00
1219.617, 29061.00
1220.698, 29524.00
1221.778, 29360.00
1222.859, 29500.00
1223.939, 29402.00
1225.019, 29364.00
1226.099, 29232.00
1227.178, 29550.00
1228.258, 29403.00
1229.337, 29349.00
1230.417, 29522.00
1231.496, 29328.00
1232.574, 29449.00
1233.653, 29485.00
1234.732, 29498.00
1235.810, 29525.00
1236.888, 29549.78
1237.966, 29701.00
1239.044, 29646.00
1240.122, 29679.00
1241.199, 29832.00
1242.277, 29677.00
1243.354, 29672.00
1244.431, 29936.00
1245.508, 29691.00
1246.585, 29418.00
1247.661, 29681.00
1248.738, 29851.00
1249.814, 29584.00
1250.890, 29974.00
1251.966, 29972.00
1253.042, 29575.00
1254.117, 29853.00
1255.193, 30041.00
1256.268, 30022.00
1257.343, 30003.00
1258.418, 29733.00
1259.493, 29871.00
1260.567, 30023.00
1261.642, 29874.00
1262.716, 30034.00
1263.790, 30091.00
1264.864, 30065.00
1265.938, 30081.00
1267.011, 30021.00
1268.085, 30041.00
1269.158, 30283.00
1270.231, 30146.00
1271.304, 30080.00
1272.377, 30059.00
1273.450, 30335.00
1274.522, 30532.00
1275.594, 30174.00
1276.666, 30271.00
1277.738, 30035.00
1278.810, 30293.00
1279.882, 30441.00
1280.953, 30142.00
1282.025, 30202.00
1283.096, 30237.00
1284.167, 30347.00
1285.238, 30293.00
1286.308, 30477.00
1287.379, 30291.00
1288.449, 30486.00
