##NAMES=Whewellite
##RRUFFID=R050240
##IDEAL CHEMISTRY=Ca(C_2_)^6+^O_4_&#183;H_2_O
##LOCALITY=Huron River, Milan, Ohio, USA
##OWNER=RRUFF
##SOURCE=Marcus Origlieri
##DESCRIPTION=White fragment
##STATUS=The identification of this mineral has been confirmed by X-ray diffraction and chemical analysis
##URL=rruff.info/R050240
##MEASURED CHEMISTRY=Ca_1.00_C_2_O_4_Â·H_2_O
##PIN_ID=L00839
##ORIENTATION=Laser parallel to c* (0 0 1). Fiducial mark perpendicular to laser is parallel to a [1 0 0]
107.0470, 11428.00
108.2800, 11258.00
109.5120, 10840.00
110.7440, 11028.00
111.9760, 11122.00
113.2080, 11314.00
114.4400, 11583.00
115.6710, 11801.00
116.9030, 11878.00
118.1340, 12106.00
119.3650, 12484.00
120.5960, 12697.00
121.8270, 13151.00
123.0580, 13268.00
124.2880, 13788.00
125.5190, 14209.00
126.7490, 14817.00
127.9790, 15213.00
129.2090, 15801.00
130.4390, 16578.00
131.6680, 17121.00
132.8980, 17828.00
134.1270, 18594.00
135.3560, 19242.00
136.5850, 19762.00
137.8140, 20142.00
139.0430, 20399.00
140.2710, 20196.00
141.5000, 19724.00
142.7280, 18907.00
143.9560, 17982.00
145.1840, 17075.00
146.4120, 16262.00
147.6390, 15451.00
148.8670, 14873.00
150.0940, 14425.00
151.3210, 14117.00
152.5490, 13978.00
153.7750, 13849.00
155.0020, 13533.00
156.2290, 13520.00
157.4550, 13403.00
158.6810, 13409.00
159.9080, 13381.68
161.1340, 13428.00
162.3590, 13348.00
163.5850, 13403.00
164.8110, 13341.00
166.0360, 13369.00
167.2610, 13428.00
168.4860, 13481.00
169.7110, 13539.00
170.9360, 13415.00
172.1610, 13770.00
173.3850, 13678.00
174.6100, 13784.00
175.8340, 14136.00
177.0580, 14132.00
178.2820, 14336.00
179.5050, 14650.00
180.7290, 14743.00
181.9520, 14910.00
183.1760, 15319.00
184.3990, 15802.00
185.6220, 16227.00
186.8450, 16676.00
188.0670, 17345.00
189.2900, 18077.00
190.5120, 18628.00
191.7340, 19226.00
192.9560, 19575.00
194.1780, 19700.00
195.4000, 19494.00
196.6220, 19341.00
197.8430, 19197.00
199.0640, 19099.00
200.2860, 19025.00
201.5070, 19253.00
202.7270, 19412.00
203.9480, 19341.00
205.1690, 19760.00
206.3890, 19707.00
207.6090, 19398.00
208.8290, 18929.00
210.0490, 18515.00
211.2690, 18228.00
212.4890, 17860.00
213.7080, 17492.00
214.9280, 17326.00
216.1470, 17216.00
217.3660, 17050.00
218.5850, 17118.00
219.8030, 17170.00
221.0220, 17380.00
222.2400, 17306.00
223.4590, 17144.00
224.6770, 16720.00
225.8950, 16448.00
227.1120, 15775.00
228.3300, 15867.00
229.5480, 15492.00
230.7650, 15322.00
231.9820, 15272.00
233.1990, 15397.00
234.4160, 15437.00
235.6330, 15256.00
236.8490, 15535.00
238.0660, 15400.00
239.2820, 15428.00
240.4980, 15462.00
241.7140, 15496.00
242.9300, 15629.00
244.1460, 15674.00
245.3610, 15830.00
246.5770, 16079.00
247.7920, 16087.00
249.0070, 15972.00
250.2220, 15979.00
251.4370, 15698.00
252.6510, 15640.00
253.8660, 15513.00
255.0800, 15296.00
256.2940, 15231.00
257.5080, 15404.00
258.7220, 15217.00
259.9360, 15239.00
261.1490, 15110.00
262.3630, 15087.00
263.5760, 15100.00
264.7890, 15067.00
266.0020, 15255.00
267.2150, 15110.00
268.4270, 15257.00
269.6400, 15019.00
270.8520, 15335.00
272.0640, 15143.00
273.2760, 15197.00
274.4880, 15412.00
275.7000, 15280.00
276.9120, 15327.00
278.1230, 15203.00
279.3340, 15304.00
280.5450, 15250.33
281.7560, 15214.00
282.9670, 15263.00
284.1780, 15343.00
285.3880, 15464.00
286.5980, 15517.00
287.8090, 15357.00
289.0190, 15312.00
290.2290, 15351.00
291.4380, 15462.00
292.6480, 15419.00
293.8570, 15469.00
295.0670, 15382.00
296.2760, 15417.47
297.4850, 15500.00
298.6930, 15417.00
299.9020, 15442.00
301.1110, 15382.00
302.3190, 15430.00
303.5270, 15502.00
304.7350, 15481.00
305.9430, 15325.00
307.1510, 15568.00
308.3580, 15396.00
309.5660, 15371.00
310.7730, 15564.00
311.9800, 15522.00
313.1870, 15723.00
314.3940, 15513.00
315.6010, 15523.00
316.8070, 15569.00
318.0130, 15707.00
319.2200, 15721.00
320.4260, 15815.00
321.6310, 15719.00
322.8370, 15629.00
324.0430, 15648.00
325.2480, 15739.00
326.4540, 15823.00
327.6590, 15652.00
328.8640, 15791.00
330.0680, 15830.00
331.2730, 15822.00
332.4780, 15990.00
333.6820, 16071.00
334.8860, 15953.00
336.0900, 15995.00
337.2940, 16024.00
338.4980, 16019.00
339.7010, 16066.00
340.9050, 16049.00
342.1080, 16041.00
343.3110, 16205.00
344.5140, 16023.00
345.7170, 16235.00
346.9200, 16282.00
348.1220, 15975.00
349.3240, 16267.00
350.5270, 16150.00
351.7290, 16238.00
352.9310, 16316.00
354.1320, 16322.00
355.3340, 16090.00
356.5350, 16197.00
357.7370, 16228.00
358.9380, 16372.00
360.1390, 16445.00
361.3400, 16592.00
362.5400, 16418.00
363.7410, 16436.00
364.9410, 16636.00
366.1410, 16314.00
367.3410, 16421.00
368.5410, 16404.00
369.7410, 16377.00
370.9400, 16604.00
372.1400, 16553.00
373.3390, 16600.00
374.5380, 16752.00
375.7370, 16693.00
376.9360, 16616.00
378.1350, 16547.00
379.3330, 16618.00
380.5310, 16822.00
381.7300, 16857.00
382.9280, 16806.00
384.1260, 16770.00
385.3230, 16639.00
386.5210, 16674.71
387.7180, 16695.36
388.9160, 16727.00
390.1130, 16820.00
391.3100, 16902.00
392.5060, 16933.00
393.7030, 16928.00
394.9000, 17010.00
396.0960, 17000.00
397.2920, 16921.00
398.4880, 17149.00
399.6840, 17046.00
400.8800, 17218.00
402.0750, 17209.00
403.2710, 17104.00
404.4660, 17366.00
405.6610, 17149.00
406.8560, 17213.00
408.0510, 17284.00
409.2450, 17250.00
410.4400, 17318.00
411.6340, 17323.15
412.8280, 17240.00
414.0220, 17328.00
415.2160, 17356.00
416.4100, 17315.00
417.6030, 17359.00
418.7970, 17307.00
419.9900, 17535.00
421.1830, 17415.00
422.3760, 17558.00
423.5690, 17460.00
424.7610, 17435.00
425.9540, 17538.00
427.1460, 17428.00
428.3380, 17460.00
429.5300, 17585.00
430.7220, 17482.00
431.9140, 17469.00
433.1050, 17746.00
434.2970, 17599.00
435.4880, 17781.00
436.6790, 17774.00
437.8700, 17638.00
439.0610, 17785.00
440.2510, 17782.00
441.4420, 17808.00
442.6320, 17876.99
443.8220, 17757.00
445.0120, 17924.00
446.2020, 17894.00
447.3910, 17846.00
448.5810, 18082.00
449.7700, 18004.00
450.9600, 17873.00
452.1490, 17954.00
453.3370, 18086.00
454.5260, 17870.00
455.7150, 18151.00
456.9030, 18108.00
458.0910, 18234.00
459.2800, 18131.00
460.4670, 18124.00
461.6550, 18061.00
462.8430, 18324.00
464.0300, 18337.00
465.2180, 18382.00
466.4050, 18372.00
467.5920, 18344.00
468.7790, 18368.00
469.9650, 18338.00
471.1520, 18387.00
472.3380, 18331.00
473.5250, 18358.00
474.7110, 18510.00
475.8970, 18381.00
477.0820, 18515.00
478.2680, 18512.00
479.4540, 18516.00
480.6390, 18586.00
481.8240, 18614.00
483.0090, 18746.00
484.1940, 18733.00
485.3780, 18682.00
486.5630, 18693.00
487.7470, 18997.00
488.9320, 18911.00
490.1160, 19076.00
491.3000, 19042.00
492.4830, 19261.00
493.6670, 19382.00
494.8500, 19301.00
496.0340, 19693.00
497.2170, 19670.00
498.4000, 19970.00
499.5820, 20031.00
500.7650, 20142.00
501.9480, 20206.00
503.1300, 20176.06
504.3120, 20043.00
505.4940, 20040.00
506.6760, 19893.00
507.8580, 19733.00
509.0390, 19766.00
510.2210, 19738.00
511.4020, 19735.00
512.5830, 19992.00
513.7640, 20042.00
514.9450, 20266.00
516.1250, 20389.00
517.3060, 20383.00
518.4860, 20439.00
519.6660, 20554.00
520.8460, 20497.00
522.0260, 20466.00
523.2060, 20317.00
524.3850, 20269.00
525.5650, 20089.00
526.7440, 19840.00
527.9230, 19837.00
529.1020, 19714.67
530.2810, 19934.00
531.4590, 19723.00
532.6380, 19734.00
533.8160, 19924.00
534.9940, 19605.00
536.1720, 19815.00
537.3500, 19641.00
538.5270, 19872.00
539.7050, 19651.00
540.8820, 19750.00
542.0590, 19805.00
543.2360, 19751.00
544.4130, 19820.00
545.5900, 19682.00
546.7660, 19617.00
547.9430, 19842.00
549.1190, 19735.00
550.2950, 19627.00
551.4710, 19940.00
552.6470, 19748.00
553.8220, 19911.00
554.9980, 20063.00
556.1730, 20087.00
557.3480, 19949.00
558.5230, 20068.00
559.6980, 20042.00
560.8730, 20147.00
562.0470, 20085.00
563.2220, 20190.00
564.3960, 20254.00
565.5700, 20311.00
566.7440, 20239.00
567.9170, 20161.00
569.0910, 20417.00
570.2640, 20109.00
571.4380, 20593.00
572.6110, 20614.00
573.7840, 20378.00
574.9570, 20381.00
576.1290, 20387.74
577.3020, 20479.00
578.4740, 20563.00
579.6460, 20632.00
580.8180, 20733.74
581.9900, 20845.00
583.1620, 20918.00
584.3330, 21127.00
585.5040, 21212.00
586.6760, 21426.00
587.8470, 21453.90
589.0180, 21556.07
590.1880, 21539.00
591.3590, 21640.00
592.5290, 21755.00
593.7000, 21715.00
594.8700, 21695.00
596.0400, 21805.00
597.2090, 21720.00
598.3790, 21567.00
599.5490, 21705.00
600.7180, 21617.00
601.8870, 21622.00
603.0560, 21492.00
604.2250, 21347.00
605.3940, 21436.00
606.5620, 21101.00
607.7300, 21406.00
608.8990, 21194.00
610.0670, 21200.00
611.2350, 21071.00
612.4020, 21221.00
613.5700, 21286.00
614.7370, 21317.00
615.9050, 21067.00
617.0720, 21337.00
618.2390, 21196.00
619.4060, 21325.00
620.5720, 21176.00
621.7390, 21297.00
622.9050, 21261.00
624.0710, 21368.00
625.2370, 21308.00
626.4030, 21267.00
627.5690, 21203.00
628.7340, 21401.00
629.9000, 21334.00
631.0650, 21335.00
632.2300, 21435.00
633.3950, 21320.00
634.5600, 21497.00
635.7240, 21529.00
636.8890, 21357.00
638.0530, 21715.00
639.2170, 21660.00
640.3810, 21455.00
641.5450, 21741.00
642.7080, 21326.00
643.8720, 21599.00
645.0350, 21751.00
646.1980, 21680.00
647.3610, 21593.00
648.5240, 21768.00
649.6870, 21796.00
650.8490, 21717.00
652.0120, 21744.00
653.1740, 21837.00
654.3360, 21653.00
655.4980, 21813.00
656.6600, 21797.00
657.8210, 21702.00
658.9830, 21733.00
660.1440, 21729.87
661.3050, 21920.00
662.4660, 21790.00
663.6270, 21896.00
664.7870, 21938.00
665.9480, 21705.00
667.1080, 21926.00
668.2680, 22167.00
669.4280, 22077.00
670.5880, 21859.00
671.7480, 21957.00
672.9070, 22266.00
674.0670, 21923.00
675.2260, 22018.00
676.3850, 22159.00
677.5440, 22095.00
678.7030, 22324.00
679.8610, 22251.00
681.0200, 22170.00
682.1780, 22280.00
683.3360, 22229.00
684.4940, 22210.00
685.6520, 22203.00
686.8090, 22371.00
687.9670, 22393.00
689.1240, 22346.00
690.2810, 22319.00
691.4380, 22374.00
692.5950, 22409.00
693.7520, 22420.00
694.9080, 22449.33
696.0650, 22453.00
697.2210, 22472.00
698.3770, 22439.00
699.5330, 22439.00
700.6880, 22348.00
701.8440, 22392.28
702.9990, 22506.00
704.1550, 22476.00
705.3100, 22568.00
706.4650, 22678.00
707.6190, 22568.00
708.7740, 22671.00
709.9290, 22559.00
711.0830, 22640.00
712.2370, 22864.00
713.3910, 22953.00
714.5450, 22671.00
715.6980, 22742.00
716.8520, 22521.00
718.0050, 22770.00
719.1580, 22933.00
720.3110, 22820.00
721.4640, 22842.00
722.6170, 23037.00
723.7700, 22974.00
724.9220, 23056.00
726.0740, 22934.00
727.2260, 23156.00
728.3780, 23091.00
729.5300, 23061.00
730.6810, 23085.00
731.8330, 23192.00
732.9840, 23221.00
734.1350, 23240.00
735.2860, 23158.00
736.4370, 23191.00
737.5880, 23093.00
738.7380, 23198.00
739.8880, 23106.00
741.0390, 23278.00
742.1890, 23442.00
743.3380, 23420.00
744.4880, 23367.00
745.6380, 23283.00
746.7870, 23393.00
747.9360, 23623.00
749.0850, 23184.00
750.2340, 23417.00
751.3830, 23510.00
752.5310, 23340.00
753.6800, 23673.00
754.8280, 23773.00
755.9760, 23735.00
757.1240, 23657.00
758.2720, 23457.00
759.4190, 23773.00
760.5670, 23633.00
761.7140, 23752.00
762.8610, 23674.00
764.0080, 23722.00
765.1550, 23776.00
766.3020, 23741.00
767.4480, 23874.00
768.5950, 23827.00
769.7410, 23850.00
770.8870, 23977.00
772.0330, 23984.00
773.1780, 24091.00
774.3240, 24276.00
775.4690, 24137.00
776.6140, 24429.00
777.7590, 24007.00
778.9040, 24339.00
780.0490, 24243.00
781.1940, 24258.00
782.3380, 23945.00
783.4820, 24323.00
784.6260, 24208.00
785.7700, 24277.00
786.9140, 24323.00
788.0580, 24359.00
789.2010, 24284.00
790.3450, 24203.00
791.4880, 24272.00
792.6310, 24323.00
793.7730, 24510.00
794.9160, 24244.00
796.0590, 24295.00
797.2010, 24437.00
798.3430, 24358.00
799.4850, 24525.00
800.6270, 24516.00
801.7690, 24454.00
802.9100, 24531.00
804.0520, 24593.00
805.1930, 24385.00
806.3340, 24654.00
807.4750, 24568.00
808.6160, 24683.00
809.7560, 24557.00
810.8970, 24697.00
812.0370, 24541.00
813.1770, 24739.00
814.3170, 24689.00
815.4570, 24883.00
816.5960, 24720.00
817.7360, 24883.00
818.8750, 24754.00
820.0140, 24901.00
821.1530, 24735.00
822.2920, 24873.00
823.4310, 24878.00
824.5690, 24876.00
825.7070, 24945.00
826.8460, 24867.00
827.9840, 24894.00
829.1220, 25092.00
830.2590, 25030.00
831.3970, 24853.00
832.5340, 25342.00
833.6710, 25267.00
834.8080, 25047.00
835.9450, 25295.00
837.0820, 25095.00
838.2190, 25055.00
839.3550, 25333.00
840.4910, 25459.00
841.6270, 25405.00
842.7630, 25519.00
843.8990, 25321.00
845.0350, 25359.00
846.1700, 25342.00
847.3060, 25304.00
848.4410, 25427.75
849.5760, 25671.00
850.7100, 25697.00
851.8450, 25627.00
852.9800, 25828.00
854.1140, 25752.00
855.2480, 26103.00
856.3820, 26124.00
857.5160, 26394.00
858.6500, 26531.00
859.7830, 26824.00
860.9170, 26900.00
862.0500, 27079.00
863.1830, 26977.00
864.3160, 27062.00
865.4480, 27202.00
866.5810, 27028.00
867.7130, 26865.00
868.8460, 26772.00
869.9780, 26707.00
871.1100, 26684.30
872.2410, 26768.00
873.3730, 26794.00
874.5050, 26855.00
875.6360, 27063.00
876.7670, 27144.00
877.8980, 27231.00
879.0290, 27329.00
880.1590, 27244.00
881.2900, 27549.00
882.4200, 27627.00
883.5500, 27888.00
884.6800, 27913.00
885.8100, 27816.00
886.9400, 27935.00
888.0690, 28294.00
889.1990, 28523.00
890.3280, 29001.00
891.4570, 29344.00
892.5860, 30405.00
893.7140, 31670.00
894.8430, 32506.00
895.9710, 32269.00
897.1000, 30817.00
898.2280, 29451.00
899.3560, 28314.00
900.4830, 27770.00
901.6110, 27517.00
902.7380, 27088.00
903.8660, 27101.00
904.9930, 26872.00
906.1200, 27150.00
907.2460, 27092.00
908.3730, 27229.00
909.5000, 27034.00
910.6260, 27316.00
911.7520, 27102.00
912.8780, 27439.00
914.0040, 27319.00
915.1290, 27555.00
916.2550, 27570.00
917.3800, 27531.00
918.5050, 27334.00
919.6300, 27566.00
920.7550, 27565.00
921.8800, 27681.00
923.0040, 27587.00
924.1290, 27553.00
925.2530, 27671.00
926.3770, 27585.00
927.5010, 27680.49
928.6250, 27890.00
929.7480, 27880.00
930.8720, 27954.00
931.9950, 28191.00
933.1180, 28161.00
934.2410, 28100.00
935.3640, 28144.00
936.4860, 28274.00
937.6090, 28127.00
938.7310, 28508.00
939.8530, 28211.00
940.9750, 28340.00
942.0970, 28319.00
943.2180, 28316.00
944.3400, 28296.00
945.4610, 28133.00
946.5820, 28129.00
947.7030, 28106.51
948.8240, 28072.74
949.9450, 28070.00
951.0650, 28114.00
952.1860, 27993.00
953.3060, 28054.00
954.4260, 27905.00
955.5460, 27874.00
956.6650, 27784.00
957.7850, 27779.00
958.9040, 27886.00
960.0230, 28007.00
961.1420, 27825.00
962.2610, 27777.00
963.3800, 27926.00
964.4990, 28053.00
965.6170, 27931.00
966.7350, 27995.32
967.8530, 27764.00
968.9710, 27848.00
970.0890, 27907.00
971.2070, 27711.00
972.3240, 27871.00
973.4410, 27951.00
974.5580, 27775.00
975.6750, 27940.00
976.7920, 27994.00
977.9090, 27847.00
979.0250, 28009.00
980.1410, 27958.00
981.2580, 27825.00
982.3740, 28085.00
983.4890, 28040.00
984.6050, 27991.00
985.7200, 28056.00
986.8360, 28277.00
987.9510, 28272.00
989.0660, 28233.00
990.1810, 27961.00
991.2950, 28143.00
992.4100, 28014.00
993.5240, 28124.00
994.6390, 28301.00
995.7530, 28072.00
996.8660, 28480.00
997.9800, 28319.00
999.0940, 28683.00
1000.207, 28642.00
1001.320, 28259.00
1002.433, 28634.00
1003.546, 28624.00
1004.659, 28476.00
1005.772, 28642.00
1006.884, 28591.00
1007.996, 28609.00
1009.108, 28418.00
1010.220, 28575.00
1011.332, 28624.00
1012.444, 28817.00
1013.555, 28672.00
1014.666, 28652.00
1015.777, 28637.00
1016.888, 28744.00
1017.999, 28833.00
1019.110, 28497.00
1020.220, 28727.00
1021.331, 28540.00
1022.441, 28736.00
1023.551, 28949.00
1024.661, 28822.00
1025.770, 29130.00
1026.880, 29019.00
1027.989, 28969.00
1029.098, 29063.00
1030.207, 29117.00
1031.316, 28971.00
1032.425, 29065.00
1033.533, 28981.00
1034.642, 29067.00
1035.750, 28990.00
1036.858, 29118.00
1037.966, 29506.00
1039.073, 29112.00
1040.181, 29184.00
1041.288, 29108.00
1042.396, 29496.00
1043.503, 28995.00
1044.610, 29363.00
1045.716, 29215.00
1046.823, 29421.00
1047.929, 29282.00
1049.036, 29438.00
1050.142, 29378.00
1051.248, 29479.00
1052.353, 29325.00
1053.459, 29301.00
1054.564, 29282.00
1055.670, 29338.00
1056.775, 29446.00
1057.880, 29479.00
1058.985, 29251.00
1060.089, 29383.00
1061.194, 29712.00
1062.298, 29372.00
1063.402, 29486.00
1064.506, 29672.00
1065.610, 29436.00
1066.713, 29535.00
1067.817, 29593.00
1068.920, 29567.00
1070.023, 29718.00
1071.126, 29679.00
1072.229, 29709.00
1073.332, 29844.00
1074.435, 29745.00
1075.537, 29742.00
1076.639, 29888.00
1077.741, 30007.00
1078.843, 29831.00
1079.945, 29927.00
1081.046, 29842.00
1082.148, 30153.00
1083.249, 29962.00
1084.350, 30159.00
1085.451, 30314.00
1086.551, 30298.00
1087.652, 30302.00
1088.752, 30302.00
1089.853, 30152.00
1090.953, 30250.00
1092.053, 30295.00
1093.152, 29895.00
1094.252, 30149.00
1095.351, 30268.00
1096.451, 30418.00
1097.550, 30120.00
1098.649, 30143.00
1099.748, 30236.00
1100.846, 30287.00
1101.945, 30227.00
1103.043, 30429.00
1104.141, 30257.00
1105.239, 30304.00
1106.337, 30410.00
1107.434, 30352.00
1108.532, 30419.00
1109.629, 30512.00
1110.726, 30411.00
1111.823, 30436.00
1112.920, 30317.00
1114.017, 30568.00
1115.113, 30501.00
1116.210, 30445.00
1117.306, 30723.00
1118.402, 30553.00
1119.498, 30722.00
1120.593, 30876.00
1121.689, 31029.00
1122.784, 30914.00
1123.879, 30764.00
1124.974, 30986.00
1126.069, 30660.00
1127.164, 30730.00
1128.259, 30670.00
1129.353, 30592.00
1130.447, 30740.00
1131.541, 30834.00
1132.635, 30839.00
1133.729, 30993.00
1134.822, 30734.00
1135.916, 30771.00
1137.009, 30990.00
1138.102, 30857.00
1139.195, 30926.00
1140.288, 30927.00
1141.380, 31057.00
1142.473, 30897.00
1143.565, 30892.00
1144.657, 30925.00
1145.749, 30914.94
1146.841, 30885.00
1147.932, 31047.00
1149.024, 31314.00
1150.115, 31445.00
1151.206, 30936.00
1152.297, 31485.00
1153.388, 31145.00
1154.479, 31291.00
1155.569, 31377.00
1156.659, 31293.00
1157.750, 31521.00
1158.839, 31256.00
1159.929, 31206.00
1161.019, 31098.00
1162.108, 31180.00
1163.198, 31476.00
1164.287, 31471.00
1165.376, 31589.00
1166.465, 31533.00
1167.553, 31391.00
1168.642, 31459.00
1169.730, 31650.00
1170.818, 31747.00
1171.906, 31386.00
1172.994, 31623.00
1174.082, 31574.00
1175.170, 31914.00
1176.257, 31620.00
1177.344, 31717.00
1178.431, 31615.00
1179.518, 31733.00
1180.605, 31779.00
1181.691, 31829.00
1182.778, 31892.00
1183.864, 31817.00
1184.950, 31826.00
1186.036, 31862.00
1187.122, 31853.00
1188.207, 31861.00
1189.292, 31910.00
1190.378, 31768.00
1191.463, 32076.00
1192.548, 31922.00
1193.632, 32122.00
1194.717, 32010.00
1195.801, 32220.00
1196.886, 32082.00
1197.970, 32049.00
1199.054, 32160.00
1200.137, 32222.00
1201.221, 31951.00
1202.305, 32138.00
1203.388, 31904.00
1204.471, 32461.00
1205.554, 32288.00
1206.637, 32310.00
1207.719, 32314.00
1208.802, 32126.00
1209.884, 32208.00
1210.966, 32367.00
1212.048, 32429.00
1213.130, 32429.00
1214.212, 32308.00
1215.293, 32499.00
1216.374, 32753.00
1217.456, 32592.00
1218.536, 32482.00
1219.617, 32283.00
1220.698, 32495.00
1221.778, 32535.00
1222.859, 32521.00
1223.939, 32535.00
1225.019, 32666.00
1226.099, 32483.00
1227.178, 32516.00
1228.258, 32738.00
1229.337, 32734.00
1230.417, 32867.00
1231.496, 32982.00
1232.574, 32953.23
1233.653, 32650.00
1234.732, 32942.00
1235.810, 32753.00
1236.888, 32752.00
1237.966, 32934.00
1239.044, 32707.00
1240.122, 32883.00
1241.199, 32877.00
1242.277, 32842.00
1243.354, 32842.00
1244.431, 32776.00
1245.508, 32951.00
1246.585, 33063.00
1247.661, 33078.00
1248.738, 33002.00
1249.814, 32956.00
1250.890, 32843.00
1251.966, 33090.00
1253.042, 32962.00
1254.117, 33239.00
1255.193, 33119.00
1256.268, 33044.00
1257.343, 32957.00
1258.418, 33019.00
1259.493, 33186.00
1260.567, 33193.00
1261.642, 33331.00
1262.716, 33222.00
1263.790, 33326.00
1264.864, 33275.00
1265.938, 33218.00
1267.011, 33501.00
1268.085, 33266.00
1269.158, 33383.00
1270.231, 33158.00
1271.304, 33348.00
1272.377, 33261.00
1273.450, 33466.00
1274.522, 33376.00
1275.594, 33482.00
1276.666, 33572.00
1277.738, 33522.00
1278.810, 33893.00
1279.882, 33672.00
1280.953, 33433.00
1282.025, 33780.00
1283.096, 33575.00
1284.167, 33736.00
1285.238, 33731.00
1286.308, 33522.00
1287.379, 33744.00
1288.449, 33725.00
