##NAMES=Whewellite
##RRUFFID=R050240
##IDEAL CHEMISTRY=Ca(C_2_)^6+^O_4_&#183;H_2_O
##LOCALITY=Huron River, Milan, Ohio, USA
##OWNER=RRUFF
##SOURCE=Marcus Origlieri
##DESCRIPTION=White fragment
##STATUS=The identification of this mineral has been confirmed by X-ray diffraction and chemical analysis
##URL=rruff.info/R050240
##MEASURED CHEMISTRY=Ca_1.00_C_2_O_4_Â·H_2_O
##PIN_ID=L01973
##ORIENTATION=Laser parallel to b* (0 1 0). Fiducial mark perpendicular to laser is parallel to -c [0 0 -1]
100.8830, 9127.000
102.1160, 9127.000
103.3490, 9158.000
104.5820, 9335.000
105.8150, 9676.000
107.0470, 10003.00
108.2800, 10083.00
109.5120, 10083.00
110.7440, 10152.00
111.9760, 10355.00
113.2080, 10667.00
114.4400, 10962.00
115.6710, 11164.00
116.9030, 11698.00
118.1340, 11952.00
119.3650, 12184.00
120.5960, 12856.00
121.8270, 13326.00
123.0580, 13994.00
124.2880, 14555.00
125.5190, 15286.00
126.7490, 16021.00
127.9790, 16716.00
129.2090, 17563.00
130.4390, 18238.00
131.6680, 18681.00
132.8980, 19127.00
134.1270, 19431.00
135.3560, 19168.00
136.5850, 19169.00
137.8140, 18999.00
139.0430, 18900.00
140.2710, 18641.00
141.5000, 18411.65
142.7280, 18137.00
143.9560, 17751.00
145.1840, 17232.00
146.4120, 16672.00
147.6390, 16107.00
148.8670, 15348.00
150.0940, 14630.00
151.3210, 14285.00
152.5490, 13500.00
153.7750, 13416.00
155.0020, 12857.00
156.2290, 12638.00
157.4550, 12464.00
158.6810, 12167.00
159.9080, 11998.00
161.1340, 11807.00
162.3590, 11750.00
163.5850, 11746.00
164.8110, 11516.00
166.0360, 11543.00
167.2610, 11523.00
168.4860, 11484.00
169.7110, 11670.00
170.9360, 11563.00
172.1610, 11824.00
173.3850, 11811.00
174.6100, 12103.00
175.8340, 12258.00
177.0580, 12419.00
178.2820, 12725.00
179.5050, 12951.00
180.7290, 13178.00
181.9520, 13416.00
183.1760, 13808.00
184.3990, 14104.00
185.6220, 14642.00
186.8450, 14970.00
188.0670, 15539.00
189.2900, 16164.00
190.5120, 16755.00
191.7340, 17123.00
192.9560, 17817.00
194.1780, 18451.00
195.4000, 19289.00
196.6220, 20283.00
197.8430, 21103.00
199.0640, 22670.00
200.2860, 23659.00
201.5070, 24981.00
202.7270, 25914.00
203.9480, 26653.00
205.1690, 27119.00
206.3890, 26935.00
207.6090, 26148.00
208.8290, 25608.00
210.0490, 24363.00
211.2690, 23542.00
212.4890, 22459.00
213.7080, 21329.00
214.9280, 20588.00
216.1470, 20037.00
217.3660, 19545.00
218.5850, 19135.00
219.8030, 18682.00
221.0220, 18189.71
222.2400, 17675.14
223.4590, 17128.00
224.6770, 16475.00
225.8950, 15761.00
227.1120, 14938.00
228.3300, 14487.00
229.5480, 13999.00
230.7650, 13872.00
231.9820, 13481.00
233.1990, 13298.00
234.4160, 13306.00
235.6330, 13357.00
236.8490, 13348.00
238.0660, 13408.00
239.2820, 13553.00
240.4980, 13532.00
241.7140, 13634.00
242.9300, 13820.00
244.1460, 14069.00
245.3610, 13948.00
246.5770, 14289.00
247.7920, 14269.00
249.0070, 14231.00
250.2220, 14202.00
251.4370, 13934.00
252.6510, 13584.00
253.8660, 13388.00
255.0800, 13279.00
256.2940, 13271.00
257.5080, 12999.00
258.7220, 12864.00
259.9360, 12784.00
261.1490, 12705.00
262.3630, 12630.00
263.5760, 12624.00
264.7890, 12591.00
266.0020, 12648.00
267.2150, 12647.00
268.4270, 12701.00
269.6400, 12857.00
270.8520, 12706.00
272.0640, 12616.00
273.2760, 12633.00
274.4880, 12753.00
275.7000, 12710.00
276.9120, 12825.00
278.1230, 12750.00
279.3340, 12662.00
280.5450, 12789.00
281.7560, 12805.00
282.9670, 12730.00
284.1780, 12707.00
285.3880, 12731.00
286.5980, 12499.00
287.8090, 12398.00
289.0190, 12360.00
290.2290, 12408.00
291.4380, 12460.00
292.6480, 12391.00
293.8570, 12301.00
295.0670, 12343.00
296.2760, 12371.00
297.4850, 12458.00
298.6930, 12318.00
299.9020, 12405.00
301.1110, 12249.00
302.3190, 12269.00
303.5270, 12190.00
304.7350, 12149.00
305.9430, 12148.00
307.1510, 12086.00
308.3580, 12034.00
309.5660, 12034.00
310.7730, 11917.00
311.9800, 11920.34
313.1870, 11880.00
314.3940, 11908.00
315.6010, 11906.45
316.8070, 11927.70
318.0130, 11925.00
319.2200, 11979.00
320.4260, 11971.00
321.6310, 11965.00
322.8370, 11881.00
324.0430, 11877.00
325.2480, 12050.00
326.4540, 12006.00
327.6590, 11901.00
328.8640, 12030.00
330.0680, 11971.00
331.2730, 12031.00
332.4780, 11929.00
333.6820, 12034.00
334.8860, 12001.00
336.0900, 12041.00
337.2940, 12071.00
338.4980, 11991.00
339.7010, 12166.00
340.9050, 12087.00
342.1080, 12221.00
343.3110, 12159.00
344.5140, 12113.00
345.7170, 12038.00
346.9200, 12163.00
348.1220, 12147.00
349.3240, 12225.00
350.5270, 12064.00
351.7290, 12131.00
352.9310, 12192.00
354.1320, 12300.00
355.3340, 12170.00
356.5350, 12228.00
357.7370, 12212.00
358.9380, 12195.00
360.1390, 12320.00
361.3400, 12194.00
362.5400, 12179.00
363.7410, 12272.00
364.9410, 12359.00
366.1410, 12321.00
367.3410, 12309.00
368.5410, 12476.00
369.7410, 12314.00
370.9400, 12274.00
372.1400, 12505.00
373.3390, 12523.00
374.5380, 12376.00
375.7370, 12459.00
376.9360, 12591.00
378.1350, 12445.00
379.3330, 12552.00
380.5310, 12563.00
381.7300, 12622.00
382.9280, 12574.00
384.1260, 12685.00
385.3230, 12697.00
386.5210, 12734.00
387.7180, 12659.00
388.9160, 12703.00
390.1130, 12642.00
391.3100, 12655.00
392.5060, 12577.00
393.7030, 12714.00
394.9000, 12667.00
396.0960, 12797.00
397.2920, 12785.00
398.4880, 12805.00
399.6840, 12719.00
400.8800, 12854.00
402.0750, 12797.00
403.2710, 12896.00
404.4660, 12921.92
405.6610, 12816.00
406.8560, 12987.00
408.0510, 12925.00
409.2450, 12960.00
410.4400, 12809.00
411.6340, 12950.00
412.8280, 13102.00
414.0220, 12963.00
415.2160, 13075.00
416.4100, 12985.00
417.6030, 13043.00
418.7970, 13224.00
419.9900, 12989.00
421.1830, 12962.00
422.3760, 13146.00
423.5690, 13159.00
424.7610, 13201.00
425.9540, 13163.00
427.1460, 13184.00
428.3380, 13118.00
429.5300, 13198.00
430.7220, 13319.00
431.9140, 13235.00
433.1050, 13285.00
434.2970, 13310.00
435.4880, 13413.00
436.6790, 13352.00
437.8700, 13400.00
439.0610, 13382.00
440.2510, 13439.00
441.4420, 13440.21
442.6320, 13388.00
443.8220, 13498.00
445.0120, 13479.00
446.2020, 13589.00
447.3910, 13798.00
448.5810, 13669.00
449.7700, 13764.00
450.9600, 13739.00
452.1490, 13736.00
453.3370, 13887.00
454.5260, 13723.00
455.7150, 13813.00
456.9030, 13895.00
458.0910, 14033.00
459.2800, 14168.00
460.4670, 14080.00
461.6550, 14278.00
462.8430, 14261.00
464.0300, 14341.00
465.2180, 14389.00
466.4050, 14418.00
467.5920, 14691.00
468.7790, 14590.00
469.9650, 14915.00
471.1520, 15120.00
472.3380, 15292.00
473.5250, 15397.00
474.7110, 15609.00
475.8970, 15868.00
477.0820, 16085.00
478.2680, 16270.00
479.4540, 16833.00
480.6390, 17356.00
481.8240, 17867.00
483.0090, 18611.00
484.1940, 19337.00
485.3780, 20330.00
486.5630, 21669.00
487.7470, 23181.00
488.9320, 25455.00
490.1160, 28046.00
491.3000, 30979.00
492.4830, 34782.00
493.6670, 39205.00
494.8500, 43552.00
496.0340, 48232.00
497.2170, 52759.00
498.4000, 56917.00
499.5820, 59703.00
500.7650, 60736.00
501.9480, 59906.00
503.1300, 56866.00
504.3120, 52480.00
505.4940, 46995.00
506.6760, 41517.00
507.8580, 36426.00
509.0390, 31715.00
510.2210, 28483.00
511.4020, 25504.00
512.5830, 23441.00
513.7640, 21633.00
514.9450, 20540.00
516.1250, 19770.00
517.3060, 18835.00
518.4860, 18275.00
519.6660, 18010.00
520.8460, 17578.00
522.0260, 17418.00
523.2060, 17075.00
524.3850, 16573.00
525.5650, 16366.00
526.7440, 16053.00
527.9230, 15945.00
529.1020, 15865.00
530.2810, 15527.00
531.4590, 15525.00
532.6380, 15483.00
533.8160, 15425.00
534.9940, 15040.00
536.1720, 15177.00
537.3500, 15017.00
538.5270, 15098.00
539.7050, 15065.00
540.8820, 14893.00
542.0590, 14849.00
543.2360, 14733.00
544.4130, 15000.00
545.5900, 14857.00
546.7660, 14963.00
547.9430, 14967.00
549.1190, 14913.00
550.2950, 14854.00
551.4710, 14954.00
552.6470, 15019.00
553.8220, 15073.00
554.9980, 14856.00
556.1730, 14989.00
557.3480, 15004.00
558.5230, 14821.00
559.6980, 14973.00
560.8730, 14951.00
562.0470, 15050.00
563.2220, 15006.00
564.3960, 15017.00
565.5700, 14939.00
566.7440, 15086.00
567.9170, 15018.70
569.0910, 15134.00
570.2640, 15002.00
571.4380, 15052.00
572.6110, 15066.00
573.7840, 15135.00
574.9570, 15155.11
576.1290, 15374.00
577.3020, 15253.00
578.4740, 15444.00
579.6460, 15591.00
580.8180, 15572.00
581.9900, 15783.00
583.1620, 15752.00
584.3330, 15883.00
585.5040, 16088.00
586.6760, 16140.00
587.8470, 16261.00
589.0180, 16459.00
590.1880, 16517.00
591.3590, 16485.00
592.5290, 16514.00
593.7000, 16402.00
594.8700, 16592.00
596.0400, 16601.00
597.2090, 16408.00
598.3790, 16522.00
599.5490, 16256.00
600.7180, 16089.00
601.8870, 16034.00
603.0560, 15841.53
604.2250, 15877.00
605.3940, 15661.00
606.5620, 15713.00
607.7300, 15770.00
608.8990, 15715.00
610.0670, 15609.00
611.2350, 15680.00
612.4020, 15514.00
613.5700, 15574.00
614.7370, 15455.00
615.9050, 15530.00
617.0720, 15466.00
618.2390, 15577.00
619.4060, 15505.00
620.5720, 15664.00
621.7390, 15586.00
622.9050, 15462.00
624.0710, 15736.00
625.2370, 15647.00
626.4030, 15628.00
627.5690, 15620.00
628.7340, 15555.00
629.9000, 15580.00
631.0650, 15684.00
632.2300, 15567.00
633.3950, 15662.00
634.5600, 15727.00
635.7240, 15666.00
636.8890, 15676.00
638.0530, 15689.00
639.2170, 15707.00
640.3810, 15857.00
641.5450, 15710.00
642.7080, 15733.00
643.8720, 15742.00
645.0350, 15908.00
646.1980, 15822.00
647.3610, 15899.00
648.5240, 15766.00
649.6870, 16061.00
650.8490, 15989.00
652.0120, 16008.00
653.1740, 15957.00
654.3360, 15960.00
655.4980, 15962.77
656.6600, 15976.88
657.8210, 15985.00
658.9830, 16062.00
660.1440, 16100.00
661.3050, 16182.00
662.4660, 16161.00
663.6270, 16189.00
664.7870, 16110.00
665.9480, 16089.00
667.1080, 16177.00
668.2680, 16002.00
669.4280, 16065.00
670.5880, 16045.00
671.7480, 16194.00
672.9070, 16161.00
674.0670, 16235.00
675.2260, 16236.00
676.3850, 16186.00
677.5440, 16198.00
678.7030, 16312.00
679.8610, 16237.00
681.0200, 16516.00
682.1780, 16406.00
683.3360, 16454.00
684.4940, 16308.00
685.6520, 16294.00
686.8090, 16476.00
687.9670, 16407.00
689.1240, 16370.00
690.2810, 16181.00
691.4380, 16369.00
692.5950, 16406.00
693.7520, 16445.00
694.9080, 16417.00
696.0650, 16456.27
697.2210, 16451.00
698.3770, 16452.00
699.5330, 16542.00
700.6880, 16472.00
701.8440, 16614.00
702.9990, 16516.00
704.1550, 16694.00
705.3100, 16689.00
706.4650, 16698.00
707.6190, 16680.00
708.7740, 16725.00
709.9290, 16815.00
711.0830, 16848.00
712.2370, 16960.00
713.3910, 16733.00
714.5450, 16851.00
715.6980, 16810.00
716.8520, 16959.00
718.0050, 16802.00
719.1580, 16845.00
720.3110, 16755.00
721.4640, 16769.41
722.6170, 16759.00
723.7700, 16830.00
724.9220, 16858.00
726.0740, 16897.00
727.2260, 16931.00
728.3780, 16999.00
729.5300, 17010.00
730.6810, 16960.00
731.8330, 17127.00
732.9840, 16884.00
734.1350, 17004.00
735.2860, 16848.00
736.4370, 16912.00
737.5880, 17060.00
738.7380, 17035.00
739.8880, 17140.00
741.0390, 17196.00
742.1890, 17031.00
743.3380, 17046.00
744.4880, 17053.51
745.6380, 17191.00
746.7870, 17082.00
747.9360, 17071.00
749.0850, 17048.00
750.2340, 17155.00
751.3830, 17063.00
752.5310, 17302.00
753.6800, 17454.00
754.8280, 17318.00
755.9760, 17433.00
757.1240, 17397.00
758.2720, 17391.00
759.4190, 17430.47
760.5670, 17344.00
761.7140, 17401.00
762.8610, 17468.00
764.0080, 17353.00
765.1550, 17477.00
766.3020, 17525.00
767.4480, 17678.00
768.5950, 17597.00
769.7410, 17702.00
770.8870, 17749.00
772.0330, 17849.00
773.1780, 17631.00
774.3240, 17732.00
775.4690, 17687.00
776.6140, 17924.00
777.7590, 17874.00
778.9040, 17839.00
780.0490, 18035.00
781.1940, 17976.00
782.3380, 17953.00
783.4820, 17768.00
784.6260, 17791.00
785.7700, 17749.00
786.9140, 17892.00
788.0580, 17759.00
789.2010, 17858.00
790.3450, 17811.00
791.4880, 17672.00
792.6310, 17824.00
793.7730, 17888.00
794.9160, 17829.00
796.0590, 17863.00
797.2010, 17901.00
798.3430, 17904.15
799.4850, 18065.00
800.6270, 17923.00
801.7690, 18027.00
802.9100, 17947.00
804.0520, 18121.00
805.1930, 17848.00
806.3340, 17847.00
807.4750, 18064.00
808.6160, 17975.00
809.7560, 18004.00
810.8970, 18118.00
812.0370, 18130.00
813.1770, 18035.00
814.3170, 18122.00
815.4570, 18286.00
816.5960, 18264.00
817.7360, 18155.00
818.8750, 18169.00
820.0140, 18118.00
821.1530, 18158.00
822.2920, 18143.82
823.4310, 18243.00
824.5690, 18137.00
825.7070, 18266.00
826.8460, 18248.00
827.9840, 18516.00
829.1220, 18383.00
830.2590, 18461.00
831.3970, 18404.00
832.5340, 18394.00
833.6710, 18514.00
834.8080, 18524.00
835.9450, 18566.00
837.0820, 18529.00
838.2190, 18677.00
839.3550, 18756.00
840.4910, 18609.00
841.6270, 18564.00
842.7630, 18763.00
843.8990, 18794.00
845.0350, 18914.00
846.1700, 19014.00
847.3060, 18781.00
848.4410, 19156.00
849.5760, 19053.00
850.7100, 19043.00
851.8450, 19342.00
852.9800, 19425.00
854.1140, 19549.00
855.2480, 19844.00
856.3820, 20143.00
857.5160, 20558.00
858.6500, 21185.00
859.7830, 21872.00
860.9170, 22461.00
862.0500, 22498.00
863.1830, 22600.00
864.3160, 22665.00
865.4480, 22343.00
866.5810, 21824.00
867.7130, 21557.00
868.8460, 21167.00
869.9780, 20674.00
871.1100, 20303.00
872.2410, 20553.00
873.3730, 20345.00
874.5050, 20399.00
875.6360, 20666.00
876.7670, 20918.00
877.8980, 20935.00
879.0290, 21287.00
880.1590, 21681.00
881.2900, 21829.00
882.4200, 22289.00
883.5500, 22951.00
884.6800, 23537.00
885.8100, 24824.00
886.9400, 26356.00
888.0690, 29196.00
889.1990, 32546.49
890.3280, 36972.00
891.4570, 41416.00
892.5860, 47128.00
893.7140, 52930.00
894.8430, 54947.00
895.9710, 50839.00
897.1000, 43948.00
898.2280, 36643.00
899.3560, 30081.00
900.4830, 25815.00
901.6110, 23315.00
902.7380, 21925.00
903.8660, 21115.00
904.9930, 20951.00
906.1200, 20622.00
907.2460, 20320.00
908.3730, 20522.00
909.5000, 20430.00
910.6260, 20623.00
911.7520, 20401.00
912.8780, 20506.00
914.0040, 20611.00
915.1290, 20780.00
916.2550, 20722.00
917.3800, 20783.00
918.5050, 20733.00
919.6300, 20680.00
920.7550, 20831.00
921.8800, 20844.00
923.0040, 20942.00
924.1290, 20818.00
925.2530, 21162.00
926.3770, 20975.00
927.5010, 21015.00
928.6250, 21268.00
929.7480, 21308.00
930.8720, 21210.00
931.9950, 21141.00
933.1180, 21300.00
934.2410, 21463.00
935.3640, 21524.00
936.4860, 21493.00
937.6090, 21503.00
938.7310, 21703.00
939.8530, 21602.00
940.9750, 21723.00
942.0970, 21613.00
943.2180, 21559.00
944.3400, 21502.00
945.4610, 21503.00
946.5820, 21520.00
947.7030, 21235.00
948.8240, 21400.00
949.9450, 21117.00
951.0650, 21249.00
952.1860, 21141.00
953.3060, 20976.00
954.4260, 21002.00
955.5460, 20759.00
956.6650, 20787.00
957.7850, 20917.00
958.9040, 21017.00
960.0230, 20926.00
961.1420, 20746.00
962.2610, 20718.00
963.3800, 20763.00
964.4990, 20887.00
965.6170, 20638.00
966.7350, 20556.00
967.8530, 20466.00
968.9710, 20857.00
970.0890, 20921.00
971.2070, 20776.00
972.3240, 20655.00
973.4410, 20721.00
974.5580, 20737.00
975.6750, 20648.00
976.7920, 20732.00
977.9090, 20815.00
979.0250, 20607.00
980.1410, 20889.00
981.2580, 20754.00
982.3740, 20946.00
983.4890, 20676.00
984.6050, 20851.00
985.7200, 20927.00
986.8360, 20961.00
987.9510, 20940.00
989.0660, 20673.00
990.1810, 20953.00
991.2950, 20772.00
992.4100, 20923.00
993.5240, 21122.00
994.6390, 20860.00
995.7530, 21173.00
996.8660, 21081.00
997.9800, 21001.00
999.0940, 20878.00
1000.207, 21160.00
1001.320, 21108.00
1002.433, 21114.00
1003.546, 21112.00
1004.659, 21139.00
1005.772, 21254.00
1006.884, 21165.00
1007.996, 21219.00
1009.108, 21292.00
1010.220, 21161.00
1011.332, 21215.00
1012.444, 21196.00
1013.555, 21309.00
1014.666, 21388.00
1015.777, 21287.00
1016.888, 21304.00
1017.999, 21425.00
1019.110, 21643.00
1020.220, 21375.00
1021.331, 21540.00
1022.441, 21686.00
1023.551, 21554.00
1024.661, 21568.00
1025.770, 21671.00
1026.880, 21568.00
1027.989, 21642.00
1029.098, 21519.00
1030.207, 21727.00
1031.316, 21613.00
1032.425, 21708.00
1033.533, 21578.00
1034.642, 21753.00
1035.750, 21655.00
1036.858, 21754.00
1037.966, 21932.00
1039.073, 21821.00
1040.181, 21875.00
1041.288, 21704.00
1042.396, 21785.00
1043.503, 21765.00
1044.610, 21884.00
1045.716, 21756.00
1046.823, 21796.00
1047.929, 21722.00
1049.036, 21831.00
1050.142, 21664.00
1051.248, 21713.00
1052.353, 21723.00
1053.459, 21835.00
1054.564, 21851.00
1055.670, 21942.00
1056.775, 21962.90
1057.880, 21952.00
1058.985, 21957.00
1060.089, 21958.00
1061.194, 21867.00
1062.298, 21782.00
1063.402, 21849.00
1064.506, 22016.00
1065.610, 22115.00
1066.713, 22013.00
1067.817, 21949.00
1068.920, 21929.00
1070.023, 21982.00
1071.126, 22054.00
1072.229, 22368.00
1073.332, 22154.00
1074.435, 22267.00
1075.537, 22074.00
1076.639, 22241.00
1077.741, 22345.00
1078.843, 22304.00
1079.945, 22597.00
1081.046, 22951.00
1082.148, 23308.00
1083.249, 23797.00
1084.350, 24056.00
1085.451, 24712.00
1086.551, 24590.00
1087.652, 24238.00
1088.752, 23767.00
1089.853, 23022.00
1090.953, 22794.00
1092.053, 22501.00
1093.152, 22358.00
1094.252, 22514.00
1095.351, 22430.00
1096.451, 22256.00
1097.550, 22566.00
1098.649, 22475.00
1099.748, 22509.00
1100.846, 22417.00
1101.945, 22277.00
1103.043, 22451.00
1104.141, 22710.00
1105.239, 22364.00
1106.337, 22672.00
1107.434, 22634.00
1108.532, 22533.00
1109.629, 22663.00
1110.726, 22652.00
1111.823, 22711.00
1112.920, 22623.00
1114.017, 22612.00
1115.113, 22772.00
1116.210, 22704.00
1117.306, 22943.00
1118.402, 22718.00
1119.498, 22927.00
1120.593, 22941.00
1121.689, 23011.00
1122.784, 23044.00
1123.879, 22966.00
1124.974, 23041.00
1126.069, 22878.00
1127.164, 23005.00
1128.259, 22863.00
1129.353, 22928.00
1130.447, 22965.00
1131.541, 22826.00
1132.635, 22931.00
1133.729, 22888.00
1134.822, 23033.00
1135.916, 23100.00
1137.009, 22980.00
1138.102, 23064.00
1139.195, 22982.00
1140.288, 23184.00
1141.380, 23215.00
1142.473, 23202.00
1143.565, 23096.00
1144.657, 23093.00
1145.749, 23062.00
1146.841, 23064.00
1147.932, 23145.00
1149.024, 23259.00
1150.115, 23052.00
1151.206, 23198.00
1152.297, 23107.00
1153.388, 23244.00
1154.479, 23197.00
1155.569, 23391.00
1156.659, 23257.00
1157.750, 23390.00
1158.839, 23319.00
1159.929, 23490.00
1161.019, 23217.00
1162.108, 23324.00
1163.198, 23392.00
1164.287, 23472.00
1165.376, 23531.00
1166.465, 23586.00
1167.553, 23282.00
1168.642, 23610.00
1169.730, 23476.00
1170.818, 23410.00
1171.906, 23548.00
1172.994, 23567.00
1174.082, 23635.00
1175.170, 23692.00
1176.257, 23657.44
1177.344, 23689.00
1178.431, 23571.00
1179.518, 23622.00
1180.605, 23552.00
1181.691, 23509.00
1182.778, 23649.00
1183.864, 23753.00
1184.950, 23763.00
1186.036, 23952.00
1187.122, 23906.33
1188.207, 23785.00
1189.292, 23823.00
1190.378, 23934.00
1191.463, 23801.00
1192.548, 24050.00
1193.632, 23923.00
1194.717, 23659.00
1195.801, 24077.00
1196.886, 24005.00
1197.970, 23938.00
1199.054, 23971.00
1200.137, 23904.00
1201.221, 24162.00
1202.305, 24224.00
1203.388, 24121.00
1204.471, 23931.00
1205.554, 24156.00
1206.637, 24131.00
1207.719, 24195.00
1208.802, 24062.00
1209.884, 24173.00
1210.966, 24121.00
1212.048, 23951.00
1213.130, 24148.00
1214.212, 24433.00
1215.293, 24184.00
1216.374, 24202.00
1217.456, 24263.00
1218.536, 24148.00
1219.617, 24293.00
1220.698, 24402.00
1221.778, 24516.00
1222.859, 24205.00
1223.939, 24243.00
1225.019, 24325.00
1226.099, 24073.00
1227.178, 24555.00
1228.258, 24384.00
1229.337, 24453.00
1230.417, 24591.00
1231.496, 24420.00
1232.574, 24776.00
1233.653, 24723.00
1234.732, 24612.00
1235.810, 24657.00
1236.888, 24571.00
1237.966, 24616.00
1239.044, 24750.00
1240.122, 24557.00
1241.199, 24546.00
1242.277, 24647.00
1243.354, 24732.00
1244.431, 24877.00
1245.508, 24567.00
1246.585, 24729.00
1247.661, 24751.00
1248.738, 24886.00
1249.814, 24646.00
1250.890, 24812.00
1251.966, 24807.00
1253.042, 24514.00
1254.117, 24519.00
1255.193, 24709.00
1256.268, 24847.00
1257.343, 25061.00
1258.418, 25029.00
1259.493, 24867.00
1260.567, 25016.00
1261.642, 25059.00
1262.716, 24914.00
1263.790, 24911.00
1264.864, 24990.00
1265.938, 25144.00
1267.011, 25111.80
1268.085, 25180.00
1269.158, 25152.00
1270.231, 25014.00
1271.304, 25070.00
1272.377, 25099.00
1273.450, 25221.00
1274.522, 25186.00
1275.594, 25226.00
1276.666, 25246.72
1277.738, 25255.00
1278.810, 25263.00
1279.882, 25249.80
1280.953, 25305.00
1282.025, 25194.00
1283.096, 25151.00
