##NAMES=Zaccariniite
##RRUFFID=R130009
##IDEAL CHEMISTRY=RhNiAs
##LOCALITY=Loma Peguera chromitite, Dominican Replubic
##OWNER=University of Leoben
##SOURCE=Anna Vymazalova
##DESCRIPTION=Anhedral grains, intergrown with garutiite, in association with hexaferrum, Ru-Os-Ir-Fe alloys, and Ru-Os-Ir-Fe oxygenated compounds in chromite. Data from Vymazalova et al. (2012)
##STATUS=The identification of this mineral has been determined by Raman spectroscopy and chemical analysis
##URL=rruff.info/R130009
##MEASURED CHEMISTRY=(Rh_1.01_Os_0.01_Ir_0.01_Ru_0.01_Pd_0.01_)_Σ=1.05_(Ni_1.00_Fe_0.02_)_Σ=1.02_(As_0.92_S_0.01_)_Σ=0.93_
102.605, 804.667
104.24, 801.667
105.882, 857.667
107.517, 871.01
109.16, 939.01
110.795, 919.667
112.437, 949.01
114.08, 997.323
115.715, 1092.67
117.35, 1084.67
118.992, 1149.01
120.627, 1195.01
122.262, 1227.32
123.897, 1261.01
125.539, 1319.01
127.174, 1368.32
128.809, 1442.01
130.444, 1488.01
132.079, 1485.01
133.714, 1496.01
135.349, 1573.32
136.983, 1608.01
138.618, 1594.01
140.253, 1617.01
141.881, 1599.67
143.515, 1617.67
145.15, 1562.32
146.785, 1581.32
148.412, 1544.67
150.047, 1656.32
151.675, 1747.32
153.309, 1646.01
154.944, 1681.67
156.572, 1653.01
158.199, 1724.01
159.834, 1853.67
161.461, 1977.01
163.088, 2038.01
164.716, 2102.32
166.35, 2080.01
167.978, 2101.01
169.605, 2106.01
171.232, 2105.32
172.859, 2082.32
174.487, 2021.67
176.114, 1986.32
177.741, 2015.32
179.368, 1985.32
180.996, 1953.32
182.615, 2067.32
184.243, 2184.32
185.87, 2366.32
187.489, 2414.67
189.117, 2377.01
190.744, 2216.32
192.364, 2020.32
193.991, 1851.67
195.61, 1746.32
197.238, 1686.67
198.857, 1671.32
200.477, 1578.67
202.096, 1586.67
203.724, 1590.01
205.343, 1560.67
206.963, 1538.01
208.583, 1534.01
210.21, 1519.67
211.822, 1541.32
213.449, 1528.67
215.061, 1534.32
216.688, 1535.01
218.3, 1514.01
219.92, 1499.32
221.539, 1487.32
223.159, 1527.32
224.771, 1488.01
226.391, 1534.67
228.01, 1493.32
229.622, 1443.01
231.242, 1490.32
232.861, 1493.32
234.473, 1474.01
236.085, 1510.32
237.705, 1489.67
239.317, 1474.01
240.937, 1473.01
242.549, 1483.67
244.161, 1473.67
245.773, 1482.32
247.392, 1480.32
249.004, 1477.32
250.616, 1454.01
252.228, 1480.01
253.84, 1478.01
255.452, 1447.32
257.064, 1469.01
258.676, 1406.67
260.288, 1493.01
261.892, 1427.01
263.504, 1445.01
265.116, 1444.32
266.728, 1454.01
268.332, 1470.67
269.944, 1496.32
271.549, 1490.01
273.161, 1499.32
274.765, 1505.67
276.377, 1524.32
277.981, 1578.67
279.593, 1575.67
281.198, 1592.01
282.802, 1692.32
284.406, 1738.01
286.018, 1880.67
287.623, 1910.32
289.227, 1941.01
290.831, 1908.67
292.436, 1848.67
294.04, 1750.67
295.644, 1747.67
297.249, 1641.32
298.853, 1654.01
300.457, 1566.67
302.062, 1577.01
303.658, 1546.01
305.263, 1452.67
306.867, 1514.32
308.464, 1506.32
310.068, 1477.01
311.672, 1483.32
313.269, 1455.01
314.866, 1469.01
316.47, 1462.01
318.067, 1446.01
319.671, 1454.67
321.268, 1403.32
322.865, 1457.01
324.469, 1409.67
326.066, 1430.01
327.662, 1450.67
329.259, 1393.32
330.856, 1434.32
332.452, 1427.67
334.049, 1430.01
335.646, 1439.32
337.242, 1392.01
338.839, 1426.67
340.436, 1427.67
342.033, 1416.67
343.622, 1409.01
345.218, 1440.67
346.815, 1414.67
348.412, 1384.67
350.001, 1436.32
351.597, 1432.32
353.186, 1428.01
354.783, 1418.67
356.372, 1423.67
357.969, 1436.32
359.558, 1424.67
361.147, 1403.01
362.744, 1381.01
364.333, 1442.01
365.922, 1395.32
367.511, 1434.67
369.1, 1422.32
370.689, 1452.01
372.278, 1455.32
373.875, 1423.32
375.464, 1429.01
377.053, 1438.32
378.634, 1429.67
380.223, 1448.01
381.812, 1452.32
383.401, 1411.67
384.99, 1468.01
386.572, 1432.01
388.161, 1456.32
389.75, 1443.67
391.331, 1447.67
392.92, 1455.32
394.502, 1396.01
396.091, 1444.01
397.672, 1461.32
399.254, 1447.67
400.843, 1411.32
402.424, 1468.32
404.006, 1397.32
405.595, 1414.32
407.176, 1442.01
408.757, 1436.67
410.339, 1406.67
411.92, 1464.32
413.502, 1435.01
415.083, 1427.67
416.665, 1439.67
418.246, 1483.01
419.827, 1438.67
421.401, 1446.67
422.983, 1457.01
424.564, 1466.67
426.145, 1448.32
427.727, 1456.01
429.301, 1460.32
430.882, 1443.67
432.456, 1484.01
434.037, 1447.01
435.611, 1502.67
437.192, 1509.67
438.766, 1462.67
440.34, 1486.01
441.921, 1496.01
443.495, 1487.67
445.069, 1455.32
446.643, 1473.32
448.224, 1437.01
449.798, 1422.01
451.372, 1443.01
452.945, 1417.32
454.519, 1430.01
456.093, 1458.01
457.667, 1418.67
459.24, 1442.32
460.807, 1449.01
462.38, 1516.01
463.954, 1476.01
465.528, 1455.01
467.094, 1468.67
468.668, 1483.01
470.242, 1500.01
471.808, 1516.67
473.382, 1486.67
474.948, 1476.67
476.521, 1434.32
478.088, 1474.01
479.654, 1479.32
481.227, 1505.32
482.794, 1536.32
484.36, 1492.01
485.926, 1446.01
487.5, 1493.32
489.066, 1483.32
490.632, 1495.01
492.198, 1446.67
493.764, 1419.67
495.33, 1443.67
496.896, 1453.01
498.463, 1440.67
500.029, 1500.01
501.587, 1463.01
503.153, 1443.67
504.719, 1467.01
506.286, 1447.01
507.844, 1492.32
509.41, 1486.32
510.969, 1468.01
512.535, 1503.32
514.101, 1481.32
515.659, 1470.01
517.218, 1467.67
518.784, 1480.32
520.343, 1456.01
521.901, 1463.01
523.467, 1460.67
525.026, 1474.67
526.584, 1502.67
528.143, 1489.01
529.709, 1470.67
531.26, 1525.67
532.826, 1492.67
534.384, 1504.67
535.935, 1478.01
537.501, 1512.01
539.052, 1534.67
540.611, 1558.67
542.169, 1510.32
543.728, 1530.01
545.279, 1523.01
546.837, 1539.01
548.396, 1567.32
549.946, 1552.67
551.505, 1492.01
553.056, 1549.01
554.614, 1578.01
556.165, 1559.67
557.724, 1539.32
559.274, 1539.01
560.833, 1567.32
562.384, 1608.01
563.935, 1567.01
565.485, 1554.67
567.036, 1569.01
568.595, 1525.01
570.146, 1562.01
571.697, 1519.32
573.247, 1532.67
574.798, 1578.67
576.349, 1560.67
577.9, 1559.67
579.443, 1524.01
580.994, 1521.01
582.545, 1515.32
584.096, 1504.32
585.647, 1539.01
587.19, 1521.17
588.741, 1572.32
590.292, 1522.32
591.835, 1487.32
593.386, 1512.32
594.929, 1511.67
596.472, 1497.32
598.023, 1508.67
599.566, 1487.67
601.117, 1529.67
602.66, 1478.67
604.203, 1505.67
605.747, 1491.32
607.297, 1531.32
608.841, 1450.32
610.384, 1491.01
611.927, 1496.67
613.47, 1511.01
615.014, 1492.01
616.557, 1463.67
618.1, 1478.32
619.636, 1493.32
621.179, 1489.01
622.722, 1503.01
624.265, 1533.01
625.801, 1461.01
627.344, 1494.32
628.887, 1488.67
630.423, 1479.01
631.966, 1481.67
633.502, 1446.32
635.045, 1435.67
636.58, 1475.67
638.124, 1468.32
639.659, 1475.32
641.195, 1474.01
642.738, 1476.01
644.273, 1457.67
645.809, 1467.01
647.345, 1457.67
648.88, 1433.01
650.416, 1489.67
651.959, 1454.01
653.495, 1459.32
655.023, 1425.32
656.566, 1430.01
658.094, 1451.67
659.629, 1435.01
661.165, 1412.67
662.7, 1438.67
664.236, 1472.01
665.764, 1466.67
667.299, 1449.01
668.827, 1438.01
670.363, 1428.32
671.899, 1437.32
673.427, 1430.01
674.962, 1418.32
676.49, 1425.67
678.018, 1403.32
679.554, 1389.67
681.081, 1471.67
682.609, 1378.01
684.145, 1410.32
685.673, 1435.01
687.201, 1441.01
688.729, 1433.32
690.257, 1427.01
691.785, 1421.67
693.313, 1419.32
694.841, 1384.32
696.368, 1383.01
697.896, 1402.67
699.424, 1402.67
700.952, 1377.67
702.473, 1393.01
704, 1399.01
705.528, 1402.32
707.056, 1396.01
708.577, 1390.01
710.105, 1446.67
711.625, 1405.67
713.153, 1395.67
714.673, 1411.01
716.201, 1411.01
717.721, 1371.67
719.242, 1375.67
720.77, 1399.32
722.29, 1371.01
723.81, 1397.67
725.331, 1363.67
726.858, 1421.32
728.379, 1399.01
729.899, 1431.01
731.419, 1404.01
732.94, 1422.67
734.46, 1415.67
735.98, 1397.67
737.5, 1443.32
739.021, 1433.32
740.533, 1401.01
742.054, 1418.32
743.574, 1425.01
745.094, 1444.32
746.607, 1420.32
748.127, 1365.67
749.64, 1424.32
751.16, 1434.32
752.681, 1439.01
754.193, 1393.32
755.714, 1476.01
757.226, 1429.32
758.739, 1427.67
760.259, 1453.32
761.772, 1438.67
763.284, 1446.32
764.797, 1466.01
766.317, 1450.01
767.83, 1419.01
769.343, 1443.67
770.855, 1442.32
772.368, 1413.32
773.881, 1425.32
775.393, 1470.67
776.906, 1478.32
778.411, 1453.01
779.924, 1467.01
781.436, 1464.32
782.949, 1453.67
784.462, 1466.67
785.967, 1463.67
787.479, 1430.67
788.992, 1470.32
790.497, 1455.67
792.01, 1459.67
793.515, 1465.01
795.027, 1437.32
796.532, 1486.32
798.037, 1471.32
799.55, 1454.32
801.055, 1440.01
802.56, 1449.32
804.073, 1467.32
805.578, 1444.01
807.083, 1466.01
808.588, 1430.67
810.093, 1454.67
811.598, 1463.67
813.103, 1485.01
814.608, 1455.32
816.113, 1430.01
817.618, 1450.32
819.123, 1433.67
820.62, 1408.67
822.125, 1448.32
823.63, 1440.01
825.135, 1452.32
826.633, 1434.01
828.138, 1446.01
829.635, 1418.67
831.14, 1420.01
832.637, 1401.67
834.142, 1417.32
835.64, 1425.32
837.145, 1404.01
838.642, 1425.01
840.14, 1418.01
841.645, 1396.32
843.142, 1423.67
844.639, 1442.67
846.137, 1402.01
847.634, 1437.32
849.139, 1394.67
850.637, 1403.67
852.134, 1420.32
853.624, 1400.01
855.121, 1435.32
856.618, 1425.67
858.116, 1403.01
859.613, 1406.01
861.111, 1440.67
862.608, 1420.67
864.098, 1409.32
865.595, 1425.67
867.092, 1407.01
868.582, 1424.01
870.08, 1400.01
871.569, 1411.32
873.067, 1425.32
874.556, 1427.67
876.054, 1392.67
877.543, 1409.67
879.033, 1428.67
880.531, 1423.01
882.02, 1434.67
883.51, 1442.32
885, 1462.67
886.497, 1440.32
887.987, 1439.32
889.469, 1451.67
890.966, 1471.01
892.456, 1427.67
893.938, 1480.32
895.436, 1494.01
896.918, 1487.01
898.407, 1502.67
899.897, 1506.32
901.387, 1503.67
902.877, 1485.32
904.359, 1497.01
905.849, 1516.67
907.338, 1518.01
908.82, 1440.01
910.31, 1492.01
911.792, 1487.01
913.282, 1478.32
914.764, 1510.67
916.246, 1476.01
917.736, 1492.32
919.218, 1493.67
920.7, 1505.32
922.19, 1501.32
923.672, 1539.67
925.154, 1497.01
926.636, 1509.67
928.118, 1514.67
929.6, 1532.32
931.082, 1544.67
932.564, 1546.01
934.047, 1561.01
935.529, 1516.01
937.011, 1539.01
938.493, 1533.01
939.975, 1540.32
941.449, 1538.32
942.932, 1564.67
944.414, 1573.32
945.888, 1532.01
947.37, 1530.01
948.845, 1567.67
950.327, 1590.67
951.809, 1549.67
953.283, 1544.67
954.765, 1555.32
956.24, 1637.67
957.714, 1630.67
959.196, 1590.67
960.671, 1599.32
962.145, 1621.01
963.62, 1603.32
965.094, 1587.32
966.576, 1571.01
968.051, 1601.01
969.525, 1592.01
971, 1593.67
972.474, 1583.01
973.941, 1596.67
975.415, 1590.67
976.89, 1629.32
978.364, 1610.67
979.839, 1640.32
981.313, 1637.67
982.78, 1623.01
984.255, 1600.32
985.729, 1618.01
987.196, 1615.01
988.67, 1656.67
990.137, 1648.67
991.612, 1655.67
993.078, 1599.32
994.553, 1675.67
996.02, 1631.32
997.486, 1662.67
998.961, 1694.67
1000.43, 1616.67
1001.89, 1643.01
1003.36, 1694.32
1004.84, 1638.01
1006.3, 1618.32
1007.77, 1624.32
1009.24, 1636.67
1010.7, 1661.01
1012.17, 1648.32
1013.64, 1604.32
1015.1, 1699.01
1016.56, 1676.67
1018.03, 1641.32
1019.5, 1679.32
1020.96, 1698.67
1022.43, 1667.32
1023.89, 1654.32
1025.36, 1701.01
1026.82, 1633.32
1028.28, 1720.32
1029.75, 1691.01
1031.21, 1732.32
1032.67, 1682.01
1034.13, 1667.32
1035.59, 1719.67
1037.06, 1709.32
1038.52, 1663.32
1039.98, 1701.32
1041.44, 1701.67
1042.9, 1693.67
1044.36, 1735.01
1045.82, 1721.01
1047.28, 1745.32
1048.74, 1711.32
1050.2, 1761.32
1051.66, 1769.32
1053.12, 1700.32
1054.58, 1733.32
1056.04, 1757.67
1057.5, 1746.32
1058.95, 1759.32
1060.41, 1749.01
1061.87, 1769.01
1063.32, 1757.01
1064.78, 1828.32
1066.24, 1774.01
1067.69, 1758.32
1069.15, 1728.67
1070.6, 1778.67
1072.06, 1777.67
1073.51, 1752.67
1074.96, 1794.32
1076.42, 1812.32
1077.87, 1816.67
1079.32, 1827.67
1080.78, 1771.32
1082.23, 1777.67
1083.68, 1776.67
1085.14, 1745.67
1086.59, 1742.01
1088.04, 1815.32
1089.49, 1816.67
1090.94, 1813.32
1092.39, 1829.32
1093.85, 1818.01
1095.3, 1852.67
1096.75, 1848.01
1098.2, 1830.67
1099.64, 1819.51
1101.1, 1812.32
1102.55, 1824.67
1103.99, 1813.01
1105.44, 1812.32
1106.89, 1796.32
1108.34, 1772.67
1109.79, 1858.67
1111.23, 1783.67
1112.68, 1829.67
1114.13, 1820.67
1115.57, 1788.32
1117.02, 1764.32
1118.47, 1776.32
1119.91, 1802.67
1121.36, 1811.32
1122.81, 1746.32
1124.25, 1738.01
1125.7, 1754.32
1127.14, 1722.32
1128.58, 1682.67
1130.03, 1727.32
1131.47, 1705.32
1132.92, 1716.67
1134.35, 1697.32
1135.8, 1682.01
1137.24, 1718.01
1138.68, 1730.32
1140.13, 1664.67
1141.56, 1702.32
1143.01, 1703.67
1144.45, 1673.67
1145.89, 1659.32
1147.33, 1659.32
1148.77, 1659.32
1150.21, 1627.67
1151.65, 1659.32
1153.08, 1664.67
1154.53, 1676.01
1155.96, 1661.01
1157.41, 1674.67
1158.84, 1655.67
1160.28, 1674.67
1161.72, 1661.67
1163.15, 1634.67
1164.59, 1622.32
1166.03, 1633.01
1167.46, 1626.32
1168.9, 1654.67
1170.33, 1628.01
1171.77, 1634.67
1173.21, 1666.67
1174.64, 1655.01
1176.08, 1629.01
1177.52, 1594.67
1178.94, 1656.67
1180.38, 1625.01
1181.82, 1642.01
1183.25, 1619.67
1184.68, 1643.01
1186.12, 1623.32
1187.55, 1619.67
1188.98, 1599.01
1190.41, 1554.67
1191.85, 1625.67
1193.28, 1630.32
1194.7, 1639.32
1196.14, 1609.67
1197.57, 1603.32
1199, 1610.01
1200.43, 1624.32
1201.86, 1596.67
1203.29, 1639.67
1204.72, 1631.67
1206.15, 1574.01
1207.58, 1595.01
1209.01, 1643.01
1210.43, 1577.32
1211.86, 1569.01
1213.28, 1610.01
1214.71, 1571.67
1216.14, 1603.85
1217.57, 1650.45
1219, 1603.85
1220.42, 1656.32
1221.85, 1612.32
1223.27, 1619.67
1224.7, 1589.67
1226.13, 1554.01
1227.55, 1599.01
1228.98, 1594.01
1230.4, 1570.01
1231.82, 1559.32
1233.25, 1547.67
1234.67, 1560.01
1236.1, 1576.32
1237.52, 1565.32
1238.94, 1599.32
1240.36, 1610.32
1241.78, 1618.32
1243.2, 1607.32
1244.63, 1560.32
1246.05, 1590.67
1247.47, 1571.32
1248.89, 1596.01
1250.31, 1549.67
1251.73, 1599.32
1253.15, 1621.32
1254.57, 1586.32
1255.99, 1595.01
1257.41, 1568.67
1258.82, 1564.01
1260.25, 1616.32
1261.67, 1580.32
1263.08, 1608.01
1264.5, 1571.67
1265.91, 1609.67
1267.34, 1589.01
1268.75, 1607.01
1270.17, 1595.01
1271.58, 1613.32
1273, 1617.67
1274.42, 1561.67
1275.83, 1616.32
1277.24, 1578.32
1278.66, 1585.32
1280.08, 1565.67
1281.49, 1591.67
1282.9, 1600.67
1284.32, 1599.01
1285.73, 1630.32
1287.14, 1616.67
1288.56, 1613.01
1289.97, 1611.01
1291.38, 1620.01
1292.8, 1622.32
1294.2, 1586.67
1295.62, 1623.67
1297.03, 1600.32
1298.44, 1609.67
1299.86, 1587.01
1301.26, 1599.01
1302.68, 1610.67
1304.08, 1637.32
1305.5, 1654.67
1306.9, 1607.01
1308.31, 1585.67
1309.72, 1613.67
1311.13, 1620.67
1312.54, 1649.32
1313.94, 1614.01
1315.35, 1616.32
1316.76, 1573.67
1318.17, 1607.67
1319.58, 1592.32
1320.98, 1608.67
1322.39, 1575.67
1323.8, 1636.01
1325.2, 1608.32
1326.61, 1662.67
1328.01, 1647.32
1329.42, 1629.67
1330.82, 1613.32
1332.23, 1611.01
1333.63, 1619.32
1335.04, 1618.01
1336.44, 1638.32
1337.84, 1596.01
1339.25, 1598.01
1340.65, 1642.67
1342.05, 1596.32
1343.46, 1635.32
1344.85, 1646.01
1346.26, 1631.32
1347.66, 1646.01
1349.06, 1660.01
1350.46, 1634.32
1351.86, 1606.01
1353.27, 1673.32
1354.66, 1615.32
1356.06, 1687.32
1357.46, 1632.01
1358.87, 1647.67
1360.26, 1669.67
1361.66, 1593.01
1363.06, 1654.67
1364.46, 1633.32
1365.86, 1623.01
1367.25, 1643.67
1368.65, 1660.01
1370.04, 1642.67
1371.44, 1646.32
1372.84, 1671.67
1374.24, 1635.01
1375.64, 1658.01
1377.03, 1684.01
1378.42, 1650.67
1379.82, 1673.32
1381.21, 1673.01
1382.61, 1631.01
1384.01, 1680.67
1385.4, 1652.32
1386.8, 1670.01
1388.19, 1701.32
1389.58, 1721.67
1390.98, 1656.67
1392.37, 1652.01
1393.76, 1657.67
1395.15, 1625.01
1396.55, 1686.01
1397.94, 1664.32
1399.33, 1673.01
1400.72, 1663.32
1402.11, 1652.01
1403.5, 1663.32
1404.89, 1677.01
1406.28, 1732.01
1407.67, 1677.32
1409.06, 1701.67
1410.45, 1635.01
1411.84, 1680.32
1413.23, 1699.67
1414.61, 1635.32
1416, 1694.67
1417.39, 1670.32
1418.78, 1638.32
1420.17, 1627.67
1421.56, 1684.32
1422.94, 1707.32
1424.32, 1665.01
1425.71, 1730.32
1427.1, 1650.32
1428.49, 1686.32
1429.87, 1670.32
1431.26, 1677.32
1432.64, 1695.67
1434.03, 1647.67
1435.41, 1659.32
1436.8, 1648.32
1438.18, 1702.32
1439.56, 1692.32
1440.95, 1659.01
1442.33, 1664.01
1443.71, 1691.32
1445.1, 1679.32
1446.48, 1686.67
1447.86, 1689.32
1449.24, 1682.01
1450.63, 1722.01
1452, 1716.67
1453.38, 1712.67
1454.77, 1662.32
1456.14, 1682.32
1457.53, 1722.67
1458.91, 1701.01
1460.28, 1669.32
1461.67, 1666.32
1463.04, 1704.01
1464.42, 1667.67
1465.8, 1679.67
1467.18, 1696.67
1468.56, 1723.67
1469.93, 1690.67
1471.31, 1719.01
1472.69, 1685.01
1474.06, 1720.67
1475.45, 1720.67
1476.82, 1683.67
1478.2, 1684.32
1479.57, 1692.01
1480.95, 1738.01
1482.32, 1744.32
1483.7, 1660.01
1485.07, 1705.67
1486.45, 1720.01
1487.82, 1752.32
1489.2, 1742.67
1490.57, 1726.32
1491.94, 1674.32
1493.32, 1757.67
1494.69, 1700.01
1496.06, 1721.32
1497.43, 1714.32
1498.81, 1703.32
1500.18, 1684.67
1501.55, 1737.32
1502.92, 1736.67
1504.3, 1742.32
1505.66, 1749.01
1507.04, 1718.67
1508.41, 1694.32
1509.77, 1702.67
1511.14, 1710.67
1512.52, 1703.32
1513.88, 1723.23
1515.25, 1788.32
1516.62, 1732.01
1517.99, 1733.32
1519.36, 1711.01
1520.73, 1739.32
1522.1, 1673.01
1523.46, 1721.01
1524.82, 1716.01
1526.19, 1657.01
1527.56, 1736.01
1528.93, 1753.32
1530.29, 1719.32
1531.66, 1734.67
1533.02, 1758.01
1534.39, 1701.67
1535.76, 1738.67
1537.12, 1759.01
1538.48, 1701.32
1539.85, 1710.32
1541.21, 1673.01
1542.58, 1751.67
1543.94, 1737.32
1545.3, 1735.32
1546.66, 1741.67
1548.02, 1743.32
1549.39, 1724.01
1550.75, 1749.67
1552.11, 1741.32
1553.47, 1726.01
1554.83, 1699.32
1556.2, 1764.67
1557.56, 1790.32
1558.92, 1792.32
1560.28, 1803.67
1561.64, 1745.01
1563, 1747.01
1564.36, 1719.67
1565.72, 1740.32
1567.07, 1731.01
1568.43, 1756.32
1569.79, 1690.01
1571.15, 1732.67
1572.5, 1727.32
1573.86, 1724.32
1575.22, 1737.01
1576.57, 1731.67
1577.93, 1750.32
1579.29, 1765.01
1580.65, 1727.67
1582.01, 1740.01
1583.36, 1758.67
1584.71, 1731.67
1586.07, 1768.01
1587.42, 1754.67
1588.78, 1742.32
1590.13, 1748.01
1591.49, 1740.67
1592.84, 1734.01
1594.19, 1761.67
1595.55, 1781.32
1596.9, 1788.67
1598.26, 1782.67
1599.61, 1748.32
1600.96, 1744.32
1602.31, 1719.32
1603.66, 1715.01
1605.01, 1783.01
1606.36, 1768.32
1607.71, 1745.32
1609.07, 1750.67
1610.42, 1761.01
1611.76, 1764.32
1613.11, 1772.67
1614.47, 1747.32
1615.81, 1793.01
1617.16, 1751.01
1618.52, 1746.67
1619.86, 1757.67
1621.21, 1782.32
1622.56, 1746.67
1623.9, 1704.01
1625.25, 1747.67
1626.61, 1756.32
##END=



