##NAMES=Zircon
##RRUFFID=R050203
##IDEAL CHEMISTRY=Zr^4+^SiO_4_
##LOCALITY=Eastern Thailand
##OWNER=RRUFF
##SOURCE=Eric Van Valkenburg
##DESCRIPTION=Dark red water-worn single crystal
##STATUS=The identification of this mineral has been confirmed by X-ray diffraction and chemical analysis
##URL=rruff.info/R050203
##MEASURED CHEMISTRY=(Zr_0.99_Hf_0.01_)_Î£=1_Si_1.00_O_4_
##PIN_ID=L01102
##ORIENTATION=Laser parallel to c* (0 0 1). Fiducial mark perpendicular to laser is parallel to a [1 0 0]
63.41100, 38.00000
64.65300, 33.00000
65.89600, 35.00000
67.13800, 42.00000
68.38000, 33.00000
69.62200, 24.00000
70.86300, 36.00000
72.10500, 27.00000
73.34600, 45.00000
74.58700, 22.00000
75.82800, 32.00000
77.06900, 31.00000
78.30900, 43.00000
79.55000, 29.00000
80.79000, 45.00000
82.03000, 44.00000
83.27000, 30.00000
84.51000, 33.00000
85.74900, 26.00000
86.98900, 38.00000
88.22800, 45.00000
89.46700, 31.00000
90.70600, 36.00000
91.94400, 48.00000
93.18300, 52.00000
94.42100, 61.00000
95.65900, 60.00000
96.89700, 55.00000
98.13500, 87.00000
99.37300, 89.00000
100.6100, 92.00000
101.8480, 115.0000
103.0850, 124.0000
104.3220, 137.4860
105.5590, 163.0000
106.7950, 171.0000
108.0320, 190.0000
109.2680, 220.0000
110.5040, 220.0000
111.7400, 274.0000
112.9760, 299.0000
114.2120, 264.0000
115.4470, 335.0000
116.6820, 426.0000
117.9170, 429.0000
119.1520, 402.0000
120.3870, 304.0000
121.6220, 277.0000
122.8560, 263.0000
124.0900, 266.0000
125.3240, 259.0000
126.5580, 264.0000
127.7920, 226.0000
129.0260, 238.0000
130.2590, 248.0000
131.4920, 275.0000
132.7250, 255.0000
133.9580, 246.0000
135.1910, 236.0000
136.4230, 262.0000
137.6560, 226.0000
138.8880, 245.0000
140.1200, 269.0000
141.3520, 257.0000
142.5830, 243.0000
143.8150, 250.0000
145.0460, 263.0000
146.2770, 253.1534
147.5080, 256.0000
148.7390, 252.0000
149.9700, 252.0000
151.2000, 261.0000
152.4310, 270.0000
153.6610, 273.4335
154.8910, 280.4238
156.1210, 280.0000
157.3500, 288.0000
158.5800, 281.0000
159.8090, 280.0000
161.0380, 294.0000
162.2670, 292.0000
163.4960, 274.0000
164.7240, 283.0000
165.9530, 261.0000
167.1810, 260.0000
168.4090, 259.0000
169.6370, 267.0000
170.8650, 265.1439
172.0920, 259.0000
173.3200, 268.0000
174.5470, 273.0000
175.7740, 275.0000
177.0010, 284.0000
178.2280, 279.0000
179.4540, 246.0000
180.6810, 287.0000
181.9070, 265.0000
183.1330, 274.0000
184.3590, 314.0000
185.5850, 283.0000
186.8100, 298.0000
188.0350, 285.0000
189.2610, 312.0000
190.4860, 299.0000
191.7110, 330.0000
192.9350, 364.0000
194.1600, 373.5892
195.3840, 387.0860
196.6080, 422.0000
197.8320, 411.0000
199.0560, 439.0000
200.2800, 492.0000
201.5030, 549.0000
202.7270, 626.0000
203.9500, 828.0000
205.1730, 973.0000
206.3950, 1218.000
207.6180, 1443.000
208.8410, 1737.000
210.0630, 2248.000
211.2850, 2668.000
212.5070, 2986.000
213.7290, 3392.000
214.9500, 3668.000
216.1720, 3415.000
217.3930, 2906.000
218.6140, 2351.000
219.8350, 1792.000
221.0560, 1325.000
222.2770, 1016.000
223.4970, 838.0000
224.7170, 741.0000
225.9370, 628.0000
227.1570, 573.0000
228.3770, 500.0000
229.5970, 456.0000
230.8160, 413.0000
232.0350, 395.0000
233.2540, 348.0000
234.4730, 322.0000
235.6920, 311.0000
236.9110, 297.0000
238.1290, 288.0000
239.3470, 310.0000
240.5650, 272.0000
241.7830, 278.0000
243.0010, 293.0000
244.2180, 279.0000
245.4360, 274.0000
246.6530, 275.0000
247.8700, 262.0000
249.0870, 267.0000
250.3040, 271.7583
251.5200, 296.0000
252.7370, 291.0000
253.9530, 273.0000
255.1690, 283.0000
256.3850, 253.0000
257.6000, 273.0000
258.8160, 302.0000
260.0310, 269.0000
261.2460, 281.0000
262.4610, 290.0000
263.6760, 300.0000
264.8910, 297.0000
266.1050, 300.2951
267.3200, 289.0000
268.5340, 290.0000
269.7480, 282.0000
270.9620, 263.0000
272.1750, 299.0000
273.3890, 272.0000
274.6020, 270.0000
275.8150, 297.0000
277.0280, 290.0000
278.2410, 282.0000
279.4540, 270.0000
280.6660, 278.0000
281.8790, 265.0000
283.0910, 252.0000
284.3030, 272.0000
285.5140, 298.0000
286.7260, 312.0000
287.9380, 274.0000
289.1490, 272.0000
290.3600, 281.0000
291.5710, 288.0000
292.7820, 291.0000
293.9920, 281.0000
295.2030, 272.0000
296.4130, 273.0000
297.6230, 264.0000
298.8330, 277.0000
300.0430, 269.0000
301.2520, 255.0000
302.4620, 286.0000
303.6710, 266.0000
304.8800, 272.0000
306.0890, 295.0000
307.2980, 277.0000
308.5070, 275.0000
309.7150, 281.0000
310.9230, 277.0000
312.1310, 293.0000
313.3390, 301.0000
314.5470, 288.0000
315.7550, 283.0000
316.9620, 269.0000
318.1690, 294.0000
319.3760, 276.0000
320.5830, 322.0000
321.7900, 311.0000
322.9960, 289.0000
324.2030, 296.0000
325.4090, 287.0000
326.6150, 301.0000
327.8210, 307.0000
329.0270, 313.0000
330.2320, 319.0000
331.4380, 297.0000
332.6430, 344.0000
333.8480, 315.0000
335.0530, 305.0000
336.2580, 328.0000
337.4620, 313.0000
338.6670, 349.0000
339.8710, 319.0000
341.0750, 360.0000
342.2790, 370.0000
343.4820, 365.0000
344.6860, 421.0000
345.8890, 445.0000
347.0920, 511.0000
348.2960, 525.0000
349.4980, 567.0000
350.7010, 611.0000
351.9040, 720.0000
353.1060, 808.0000
354.3080, 837.0000
355.5100, 939.0000
356.7120, 971.0000
357.9140, 969.0000
359.1150, 912.0000
360.3170, 852.0000
361.5180, 789.0000
362.7190, 664.0000
363.9200, 548.0000
365.1200, 494.0000
366.3210, 461.0000
367.5210, 392.0000
368.7210, 424.0000
369.9210, 386.0000
371.1210, 388.0000
372.3210, 406.0000
373.5200, 389.0000
374.7200, 408.0000
375.9190, 397.0000
377.1180, 384.0000
378.3170, 426.0000
379.5150, 409.0000
380.7140, 425.0000
381.9120, 468.0000
383.1110, 479.0000
384.3090, 552.0000
385.5060, 570.0000
386.7040, 651.0000
387.9020, 735.0000
389.0990, 779.0000
390.2960, 904.0000
391.4930, 954.0000
392.6900, 1015.000
393.8860, 1051.000
395.0830, 1017.000
396.2790, 921.0000
397.4750, 844.0000
398.6710, 726.0000
399.8670, 691.0000
401.0630, 606.0000
402.2580, 569.0000
403.4540, 563.0000
404.6490, 551.0000
405.8440, 534.0000
407.0390, 523.0000
408.2330, 527.9825
409.4280, 527.4999
410.6220, 556.0000
411.8160, 548.0000
413.0100, 585.0000
414.2040, 604.0000
415.3980, 640.0000
416.5910, 676.0000
417.7850, 738.0000
418.9780, 744.0000
420.1710, 827.1917
421.3640, 995.0000
422.5560, 987.0000
423.7490, 1156.000
424.9410, 1270.000
426.1330, 1596.000
427.3250, 1978.000
428.5170, 2583.000
429.7090, 3325.000
430.9000, 4373.000
432.0910, 5637.000
433.2820, 7134.000
434.4730, 8861.000
435.6640, 10459.00
436.8550, 12467.00
438.0450, 13927.00
439.2360, 14578.00
440.4260, 14241.00
441.6160, 12767.00
442.8060, 10876.00
443.9950, 8608.000
445.1850, 6650.000
446.3740, 5102.000
447.5630, 3935.000
448.7520, 3186.000
449.9410, 2575.000
451.1300, 2146.000
452.3180, 1809.000
453.5060, 1536.000
454.6950, 1351.000
455.8830, 1264.000
457.0700, 1171.000
458.2580, 1055.000
459.4450, 997.0000
460.6330, 928.0000
461.8200, 884.0000
463.0070, 837.0000
464.1940, 795.0000
465.3800, 765.0000
466.5670, 713.4775
467.7530, 676.0000
468.9390, 641.0000
470.1250, 651.0000
471.3110, 664.0000
472.4970, 610.0000
473.6820, 603.0000
474.8680, 548.0000
476.0530, 554.0000
477.2380, 513.0000
478.4230, 541.0000
479.6070, 511.7928
480.7920, 504.0320
481.9760, 479.0000
483.1600, 487.0000
484.3440, 479.0000
485.5280, 479.0000
486.7120, 476.0000
487.8950, 489.0000
489.0780, 465.0000
490.2620, 442.0000
491.4450, 482.0000
492.6270, 454.0000
493.8100, 445.0000
494.9920, 466.0000
496.1750, 455.0000
497.3570, 457.0830
498.5390, 447.0000
499.7210, 457.0000
500.9020, 443.0000
502.0840, 451.0000
503.2650, 452.0000
504.4460, 463.0000
505.6270, 462.0000
506.8080, 451.0000
507.9890, 425.0000
509.1690, 468.0000
510.3500, 464.0000
511.5300, 430.0000
512.7100, 455.0000
513.8900, 468.0000
515.0690, 443.0000
516.2490, 459.0000
517.4280, 454.0000
518.6070, 461.0000
519.7860, 444.0000
520.9650, 467.0000
522.1440, 442.0000
523.3220, 474.0000
524.5010, 460.0000
525.6790, 467.0000
526.8570, 459.0000
528.0350, 473.0000
529.2130, 471.0000
530.3900, 468.1690
531.5670, 468.6379
532.7450, 463.0000
533.9220, 453.0000
535.0980, 454.0000
536.2750, 434.0000
537.4520, 451.0000
538.6280, 435.0000
539.8040, 451.0000
540.9800, 479.0000
542.1560, 501.0000
543.3320, 450.0000
544.5070, 498.0000
545.6830, 460.0000
546.8580, 468.0000
548.0330, 456.0000
549.2080, 486.0000
550.3830, 477.0000
551.5570, 482.0000
552.7310, 458.0000
553.9060, 459.0000
555.0800, 498.0000
556.2540, 490.0000
557.4270, 493.0000
558.6010, 467.0000
559.7740, 493.0000
560.9470, 489.0000
562.1210, 464.0000
563.2930, 450.0000
564.4660, 428.0000
565.6390, 503.0000
566.8110, 466.4257
567.9830, 462.5715
569.1550, 457.0000
570.3270, 436.0000
571.4990, 432.0000
572.6710, 425.7782
573.8420, 429.0000
575.0130, 423.0000
576.1840, 439.0000
577.3550, 447.0000
578.5260, 435.0000
579.6970, 430.0000
580.8670, 430.0000
582.0370, 426.0000
583.2070, 411.0000
584.3770, 414.0000
585.5470, 430.0000
586.7170, 440.0000
587.8860, 427.0000
589.0550, 418.0000
590.2240, 433.0000
591.3930, 402.0000
592.5620, 422.0000
593.7310, 420.0000
594.8990, 450.0000
596.0670, 454.0000
597.2350, 431.0000
598.4030, 393.0000
599.5710, 428.0000
600.7390, 411.0000
601.9060, 427.0000
603.0740, 414.0000
604.2410, 446.0000
605.4080, 421.0000
606.5740, 404.0000
607.7410, 457.0000
608.9080, 423.0000
610.0740, 429.0000
611.2400, 482.0000
612.4060, 452.0000
613.5720, 420.0000
614.7370, 442.0000
615.9030, 462.0000
617.0680, 442.0000
618.2330, 444.0000
619.3980, 464.0000
620.5630, 454.0000
621.7280, 478.0000
622.8920, 447.0000
624.0570, 438.0000
625.2210, 430.0000
626.3850, 454.0000
627.5490, 446.0000
628.7120, 436.0000
629.8760, 445.0000
631.0390, 445.0000
632.2020, 452.5814
633.3650, 458.0000
634.5280, 469.0000
635.6910, 458.0000
636.8530, 455.0000
638.0160, 463.0000
639.1780, 507.0000
640.3400, 545.0000
641.5020, 508.0000
642.6640, 532.0000
643.8250, 505.0000
644.9870, 488.0000
646.1480, 503.0000
647.3090, 443.0000
648.4700, 450.0000
649.6300, 415.0000
650.7910, 434.0000
651.9510, 447.0000
653.1120, 454.0000
654.2720, 429.0000
655.4320, 441.0000
656.5910, 441.0000
657.7510, 460.0000
658.9100, 415.0000
660.0690, 423.0000
661.2290, 436.0000
662.3880, 444.0000
663.5460, 455.0000
664.7050, 432.0000
665.8630, 438.0000
667.0220, 443.0000
668.1800, 474.0000
669.3380, 474.0000
670.4950, 445.0000
671.6530, 471.0000
672.8100, 453.0000
673.9680, 462.0000
675.1250, 457.3129
676.2820, 485.0000
677.4390, 439.0000
678.5950, 449.0000
679.7520, 435.0000
680.9080, 411.0000
682.0640, 407.0000
683.2200, 405.5166
684.3760, 427.0000
685.5320, 418.0000
686.6870, 427.0000
687.8420, 437.0000
688.9980, 417.0000
690.1530, 444.0000
691.3070, 462.0000
692.4620, 424.0000
693.6170, 408.0000
694.7710, 467.0000
695.9250, 465.0000
697.0790, 448.0000
698.2330, 437.0000
699.3870, 451.0000
700.5400, 410.0000
701.6940, 446.0000
702.8470, 446.0000
704.0000, 434.0000
705.1530, 448.0000
706.3050, 423.0000
707.4580, 464.0000
708.6100, 449.0000
709.7630, 436.0000
710.9150, 462.0000
712.0660, 450.0000
713.2180, 462.0000
714.3700, 475.0000
715.5210, 466.0000
716.6720, 452.0000
717.8240, 457.0000
718.9740, 423.0000
720.1250, 441.0000
721.2760, 450.0000
722.4260, 452.0000
723.5770, 424.0000
724.7270, 459.0000
725.8770, 454.0000
727.0260, 441.0000
728.1760, 458.0000
729.3250, 446.4731
730.4750, 453.0000
731.6240, 444.0000
732.7730, 454.0000
733.9220, 461.0000
735.0700, 449.9725
736.2190, 460.0000
737.3670, 435.0000
738.5150, 430.0000
739.6630, 427.0000
740.8110, 427.0000
741.9590, 431.2549
743.1060, 429.0000
744.2540, 440.0000
745.4010, 443.0000
746.5480, 436.0000
747.6950, 442.0205
748.8410, 417.0000
749.9880, 440.0000
751.1340, 434.0000
752.2800, 428.0000
753.4260, 443.0000
754.5720, 443.0000
755.7180, 451.0000
756.8640, 431.0000
758.0090, 448.0000
759.1540, 456.0000
760.2990, 423.0000
761.4440, 446.0000
762.5890, 450.0000
763.7340, 445.0000
764.8780, 439.0000
766.0220, 437.9886
767.1660, 461.5495
768.3100, 474.7535
769.4540, 478.1573
770.5980, 442.4076
771.7410, 457.2165
772.8840, 451.7639
774.0280, 445.4803
775.1700, 467.4052
776.3130, 437.3504
777.4560, 458.8278
778.5980, 459.7346
779.7410, 470.0560
780.8830, 459.9908
782.0250, 456.2225
783.1670, 472.8473
784.3080, 478.1803
785.4500, 465.7683
786.5910, 476.6884
787.7320, 445.9216
788.8730, 451.7356
790.0140, 473.3325
791.1550, 461.9456
792.2950, 473.2385
793.4360, 475.8936
794.5760, 439.2942
795.7160, 470.9625
796.8560, 473.1072
797.9960, 444.9377
799.1350, 474.2669
800.2750, 450.2766
801.4140, 445.3181
802.5530, 454.6823
803.6920, 434.0000
804.8310, 446.0000
805.9690, 408.0000
807.1080, 440.0000
808.2460, 567.0000
809.3840, 501.5289
810.5220, 525.8253
811.6600, 458.0000
812.7970, 477.0000
813.9350, 448.0000
815.0720, 440.0000
816.2090, 435.0000
817.3460, 443.0000
818.4830, 451.0000
819.6200, 463.0000
820.7560, 439.0000
821.8930, 459.0000
823.0290, 457.0000
824.1650, 447.0000
825.3010, 467.0000
826.4360, 438.0000
827.5720, 421.0000
828.7070, 456.0000
829.8420, 444.0000
830.9770, 469.0000
832.1120, 460.0000
833.2470, 447.0000
834.3820, 456.0000
835.5160, 460.0000
836.6500, 446.0000
837.7840, 466.0000
838.9180, 460.0000
840.0520, 449.0000
841.1860, 451.9167
842.3190, 455.8000
843.4520, 439.0000
844.5850, 461.0000
845.7180, 457.0000
846.8510, 430.0000
847.9840, 438.0000
849.1160, 456.0000
850.2490, 482.0000
851.3810, 461.0000
852.5130, 483.0000
853.6450, 471.0000
854.7760, 472.0000
855.9080, 460.0000
857.0390, 467.0000
858.1700, 455.0000
859.3010, 423.0000
860.4320, 491.0000
861.5630, 498.0000
862.6930, 490.0000
863.8240, 476.0000
864.9540, 488.0000
866.0840, 466.0000
867.2140, 473.0000
868.3440, 483.0000
869.4730, 481.0000
870.6030, 456.0000
871.7320, 474.0000
872.8610, 453.0000
873.9900, 462.0000
875.1190, 474.0000
876.2470, 476.0000
877.3760, 473.0000
878.5040, 455.0000
879.6320, 469.0000
880.7600, 470.0000
881.8880, 449.0000
883.0150, 484.0000
884.1430, 509.0000
885.2700, 479.0000
886.3970, 469.0000
887.5240, 502.0000
888.6510, 484.0000
889.7780, 468.0000
890.9040, 505.0000
892.0310, 499.0000
893.1570, 448.0000
894.2830, 460.0000
895.4090, 494.0000
896.5350, 454.0000
897.6600, 484.0000
898.7860, 511.0000
899.9110, 487.0000
901.0360, 483.0000
902.1610, 448.0000
903.2860, 453.0000
904.4100, 453.8135
905.5350, 487.0000
906.6590, 470.0000
907.7830, 495.0000
908.9070, 497.0000
910.0310, 476.0000
911.1540, 471.0000
912.2780, 504.0000
913.4010, 517.0000
914.5240, 495.0000
915.6470, 509.0000
916.7700, 481.0000
917.8930, 516.0000
919.0150, 498.0000
920.1380, 510.0000
921.2600, 517.0000
922.3820, 516.8849
923.5040, 518.0000
924.6260, 527.0000
925.7470, 535.0000
926.8690, 534.0000
927.9900, 501.0000
929.1110, 541.0000
930.2320, 513.0000
931.3530, 514.0000
932.4730, 529.0000
933.5940, 508.0000
934.7140, 547.0000
935.8340, 529.0000
936.9540, 512.0000
938.0740, 517.0000
939.1930, 504.0000
940.3130, 520.0000
941.4320, 524.0000
942.5510, 505.0000
943.6700, 552.0000
944.7890, 554.0000
945.9080, 545.0000
947.0260, 534.0000
948.1450, 540.0000
949.2630, 570.0000
950.3810, 558.0000
951.4990, 594.0000
952.6170, 562.0000
953.7340, 564.0000
954.8520, 563.0000
955.9690, 607.0000
957.0860, 595.0000
958.2030, 625.0000
959.3200, 652.0000
960.4360, 649.0000
961.5530, 645.0000
962.6690, 721.0000
963.7850, 734.0000
964.9010, 800.0000
966.0170, 900.0000
967.1330, 1107.000
968.2480, 1478.000
969.3630, 2099.000
970.4790, 2770.000
971.5940, 3983.000
972.7080, 5302.000
973.8230, 6548.000
974.9380, 7532.000
976.0520, 7534.000
977.1660, 6100.000
978.2800, 4565.000
979.3940, 3093.000
980.5080, 2244.000
981.6220, 1629.880
982.7350, 1618.144
983.8480, 1554.540
984.9610, 1441.869
986.0740, 1133.156
987.1870, 1136.000
988.3000, 1108.000
989.4120, 1175.000
990.5250, 1158.000
991.6370, 1238.000
992.7490, 1325.000
993.8610, 1449.000
994.9720, 1623.000
996.0840, 1812.000
997.1950, 2122.000
998.3060, 2584.000
999.4170, 3224.000
1000.528, 4548.000
1001.639, 6879.000
1002.750, 12031.00
1003.860, 16700.00
1004.970, 23764.00
1006.080, 33804.00
1007.190, 44703.00
1008.300, 53371.00
1009.410, 54455.00
1010.519, 44801.00
1011.628, 31428.00
1012.738, 19787.00
1013.846, 12237.00
1014.955, 8000.000
1016.064, 5431.000
1017.172, 3801.000
1018.281, 2850.000
1019.389, 2218.000
1020.497, 1869.000
1021.605, 1581.000
1022.713, 1398.000
1023.820, 1267.000
1024.928, 1191.000
1026.035, 1066.000
1027.142, 1046.000
1028.249, 969.0000
1029.356, 920.0000
1030.462, 923.0000
1031.569, 860.0000
1032.675, 856.0000
1033.781, 827.0000
1034.887, 790.0000
1035.993, 802.0000
1037.098, 783.0000
1038.204, 725.0000
1039.309, 763.0000
1040.415, 773.0000
1041.520, 728.0000
1042.624, 741.0000
1043.729, 711.0000
1044.834, 712.0000
1045.938, 677.0000
1047.042, 694.0000
1048.146, 698.0000
1049.250, 684.0000
1050.354, 683.0000
1051.458, 708.0000
1052.561, 659.0000
1053.664, 683.0000
1054.767, 690.0000
1055.870, 715.0000
1056.973, 701.0000
1058.076, 673.0000
1059.178, 638.0000
1060.281, 624.0000
1061.383, 635.0000
1062.485, 614.0000
1063.587, 628.0000
1064.688, 663.0000
1065.790, 613.0000
1066.891, 614.0000
1067.993, 639.0000
1069.094, 634.0000
1070.195, 629.0000
1071.295, 643.0000
1072.396, 628.0000
1073.496, 644.0000
1074.597, 660.0000
1075.697, 663.0000
1076.797, 670.0000
1077.897, 657.0000
1078.996, 666.6996
1080.096, 675.0000
1081.195, 682.0000
1082.294, 705.0000
1083.393, 730.0000
1084.492, 758.0000
1085.591, 790.0000
1086.689, 825.3580
1087.788, 893.0000
1088.886, 895.0000
1089.984, 923.0000
1091.082, 940.0000
1092.180, 922.0000
1093.277, 853.0000
1094.375, 803.0000
1095.472, 758.0000
1096.569, 732.0000
1097.666, 734.0000
1098.763, 699.0000
1099.860, 716.0000
1100.956, 736.0000
1102.053, 721.0000
1103.149, 714.0000
1104.245, 733.0000
1105.341, 798.0000
1106.436, 839.0000
1107.532, 835.0000
1108.627, 912.0000
1109.723, 914.0000
1110.818, 962.0000
1111.913, 940.0000
1113.007, 963.0000
1114.102, 870.0000
1115.197, 800.0000
1116.291, 807.0000
1117.385, 774.0000
1118.479, 753.0000
1119.573, 729.0000
1120.666, 724.0000
1121.760, 704.0000
1122.853, 709.0000
1123.947, 700.0000
1125.040, 676.0000
1126.132, 688.0000
1127.225, 669.0000
1128.318, 667.0000
1129.410, 785.0000
1130.502, 705.3765
1131.595, 733.0000
1132.687, 636.0000
1133.778, 675.0000
1134.870, 667.0000
1135.961, 667.0000
1137.053, 773.0000
1138.144, 735.9641
1139.235, 753.6838
1140.326, 750.0000
1141.416, 746.0000
1142.507, 782.0000
1143.597, 813.0000
1144.688, 837.0000
1145.778, 852.0000
1146.868, 850.8430
1147.957, 860.0000
1149.047, 818.0000
1150.136, 795.0000
1151.226, 750.0000
1152.315, 720.0000
1153.404, 744.0000
1154.493, 697.0000
1155.581, 693.0000
1156.670, 656.0000
1157.758, 632.0000
1158.846, 628.0000
1159.934, 626.4714
1161.022, 643.0000
1162.110, 646.0000
1163.198, 639.0000
1164.285, 633.0000
1165.372, 638.8229
1166.459, 622.0000
1167.546, 635.0000
1168.633, 643.0000
1169.720, 614.0000
1170.806, 619.0000
1171.892, 600.0000
1172.979, 578.0000
1174.065, 618.0000
1175.150, 595.0000
1176.236, 614.0000
1177.322, 583.0000
1178.407, 582.0000
1179.492, 592.0000
1180.577, 602.0000
1181.662, 608.0000
1182.747, 567.0000
1183.832, 585.0000
1184.916, 612.0000
1186.000, 561.0000
1187.084, 584.0000
1188.168, 593.0000
1189.252, 598.0000
1190.336, 566.0000
1191.419, 630.0000
1192.503, 573.0000
1193.586, 576.0000
1194.669, 568.0000
1195.752, 599.0000
1196.835, 582.0000
1197.917, 622.0000
1199.000, 609.0000
1200.082, 585.0000
1201.164, 608.0000
1202.246, 571.0000
1203.328, 577.0000
1204.409, 562.0000
1205.491, 583.0000
1206.572, 557.0000
1207.653, 586.0000
1208.734, 602.0000
1209.815, 577.0000
1210.896, 589.0000
1211.976, 651.0000
1213.057, 600.0000
1214.137, 605.0000
1215.217, 633.0000
1216.297, 610.0000
1217.377, 642.0000
1218.456, 601.0000
1219.536, 621.0000
1220.615, 600.0000
1221.694, 644.0000
1222.773, 636.0000
1223.852, 619.0000
1224.931, 652.0000
1226.009, 639.0000
1227.088, 664.0000
1228.166, 660.0283
1229.244, 661.0000
1230.322, 647.0000
1231.400, 653.0000
1232.477, 637.0000
1233.555, 632.0000
1234.632, 633.6661
1235.709, 619.0000
1236.786, 632.0000
1237.863, 658.0000
1238.939, 653.0000
1240.016, 642.0000
1241.092, 648.0000
1242.168, 683.0000
1243.245, 664.6120
1244.320, 677.0000
1245.396, 661.0000
1246.472, 618.0000
1247.547, 627.0000
1248.622, 640.0000
1249.697, 628.0000
