##NAMES=Zircon
##RRUFFID=R050203
##IDEAL CHEMISTRY=Zr^4+^SiO_4_
##LOCALITY=Eastern Thailand
##OWNER=RRUFF
##SOURCE=Eric Van Valkenburg
##DESCRIPTION=Dark red water-worn single crystal
##STATUS=The identification of this mineral has been confirmed by X-ray diffraction and chemical analysis
##URL=rruff.info/R050203
##MEASURED CHEMISTRY=(Zr_0.99_Hf_0.01_)_Î£=1_Si_1.00_O_4_
##PIN_ID=L00061
##ORIENTATION=Laser parallel to a* (1 0 0). Fiducial mark perpendicular to laser is parallel to -c [0 0 -1]
63.41100, 20.00000
64.65300, 28.00000
65.89600, 21.00000
67.13800, 16.00000
68.38000, 28.00000
69.62200, 19.00000
70.86300, 18.00000
72.10500, 13.00000
73.34600, 22.00000
74.58700, 25.00000
75.82800, 43.00000
77.06900, 11.00000
78.30900, 30.00000
79.55000, 20.00000
80.79000, 24.00000
82.03000, 12.00000
83.27000, 21.00000
84.51000, 29.00000
85.74900, 32.00000
86.98900, 37.00000
88.22800, 34.00000
89.46700, 22.00000
90.70600, 40.00000
91.94400, 43.00000
93.18300, 42.00000
94.42100, 68.00000
95.65900, 83.00000
96.89700, 65.00000
98.13500, 73.00000
99.37300, 103.0000
100.6100, 107.0000
101.8480, 124.0000
103.0850, 140.0000
104.3220, 156.0000
105.5590, 184.0000
106.7950, 200.0000
108.0320, 220.0000
109.2680, 233.0000
110.5040, 250.4999
111.7400, 265.0000
112.9760, 282.0000
114.2120, 298.0000
115.4470, 313.0000
116.6820, 349.0000
117.9170, 412.0000
119.1520, 462.0000
120.3870, 435.0000
121.6220, 359.0000
122.8560, 350.0000
124.0900, 363.0000
125.3240, 351.0000
126.5580, 330.0000
127.7920, 315.0000
129.0260, 352.0000
130.2590, 349.0000
131.4920, 362.0000
132.7250, 376.0000
133.9580, 354.0000
135.1910, 364.0000
136.4230, 370.0000
137.6560, 374.0000
138.8880, 361.0000
140.1200, 357.0000
141.3520, 361.9659
142.5830, 385.0000
143.8150, 366.0000
145.0460, 375.0000
146.2770, 365.0000
147.5080, 356.0000
148.7390, 383.0000
149.9700, 428.0000
151.2000, 375.0000
152.4310, 418.0000
153.6610, 399.0000
154.8910, 408.0000
156.1210, 367.0000
157.3500, 401.0000
158.5800, 396.0000
159.8090, 425.0000
161.0380, 415.0000
162.2670, 390.0000
163.4960, 400.0000
164.7240, 384.0000
165.9530, 412.0000
167.1810, 414.0000
168.4090, 418.1160
169.6370, 391.0000
170.8650, 420.0000
172.0920, 418.0000
173.3200, 396.0000
174.5470, 408.0000
175.7740, 414.0000
177.0010, 407.0000
178.2280, 415.0000
179.4540, 423.0000
180.6810, 425.0000
181.9070, 433.0000
183.1330, 427.0000
184.3590, 415.0000
185.5850, 403.0000
186.8100, 426.0000
188.0350, 434.0000
189.2610, 482.0000
190.4860, 483.0000
191.7110, 512.0000
192.9350, 599.0000
194.1600, 694.0000
195.3840, 795.0000
196.6080, 916.0000
197.8320, 1079.000
199.0560, 1287.000
200.2800, 1343.000
201.5030, 1536.000
202.7270, 1701.000
203.9500, 1539.700
205.1730, 1458.000
206.3950, 1206.000
207.6180, 1068.000
208.8410, 921.0000
210.0630, 942.0000
211.2850, 987.0000
212.5070, 1034.000
213.7290, 1165.000
214.9500, 1279.000
216.1720, 1413.000
217.3930, 1515.000
218.6140, 1681.984
219.8350, 1791.000
221.0560, 2027.000
222.2770, 2247.000
223.4970, 2452.000
224.7170, 2803.000
225.9370, 2825.000
227.1570, 2670.000
228.3770, 2295.000
229.5970, 1797.000
230.8160, 1460.000
232.0350, 1094.000
233.2540, 846.0000
234.4730, 700.0000
235.6920, 629.0000
236.9110, 555.0000
238.1290, 508.0000
239.3470, 501.0000
240.5650, 490.0000
241.7830, 468.0000
243.0010, 450.0000
244.2180, 444.0000
245.4360, 435.0000
246.6530, 441.0000
247.8700, 404.0000
249.0870, 419.0000
250.3040, 414.0000
251.5200, 436.0000
252.7370, 435.0000
253.9530, 436.0000
255.1690, 449.0000
256.3850, 434.0000
257.6000, 420.0000
258.8160, 423.0000
260.0310, 415.0000
261.2460, 429.0000
262.4610, 410.0000
263.6760, 437.0000
264.8910, 430.0000
266.1050, 418.0000
267.3200, 417.0000
268.5340, 412.4525
269.7480, 410.6920
270.9620, 417.0000
272.1750, 414.0000
273.3890, 431.0000
274.6020, 439.0000
275.8150, 413.0000
277.0280, 431.0000
278.2410, 456.0000
279.4540, 505.0000
280.6660, 472.1678
281.8790, 457.0000
283.0910, 420.0000
284.3030, 425.0000
285.5140, 414.0000
286.7260, 430.0000
287.9380, 437.0000
289.1490, 435.0000
290.3600, 419.0000
291.5710, 434.0000
292.7820, 427.3442
293.9920, 472.0000
295.2030, 423.0000
296.4130, 462.0000
297.6230, 448.0000
298.8330, 451.0000
300.0430, 439.0000
301.2520, 464.0000
302.4620, 459.0000
303.6710, 489.0000
304.8800, 472.0000
306.0890, 480.0000
307.2980, 462.0000
308.5070, 458.0000
309.7150, 466.0000
310.9230, 462.0000
312.1310, 474.0000
313.3390, 477.7460
314.5470, 515.0000
315.7550, 494.0000
316.9620, 507.0000
318.1690, 522.0000
319.3760, 485.0000
320.5830, 534.0000
321.7900, 511.0000
322.9960, 542.0000
324.2030, 571.0000
325.4090, 526.0000
326.6150, 518.0000
327.8210, 526.0000
329.0270, 518.0000
330.2320, 512.0000
331.4380, 584.0000
332.6430, 569.0000
333.8480, 595.0000
335.0530, 601.0000
336.2580, 615.0000
337.4620, 644.0000
338.6670, 708.0000
339.8710, 690.0000
341.0750, 764.0000
342.2790, 835.0000
343.4820, 949.0000
344.6860, 1127.000
345.8890, 1291.000
347.0920, 1650.000
348.2960, 2122.000
349.4980, 2750.000
350.7010, 3461.000
351.9040, 4400.000
353.1060, 5486.000
354.3080, 6450.000
355.5100, 7176.000
356.7120, 8006.000
357.9140, 8131.000
359.1150, 7563.000
360.3170, 6420.000
361.5180, 4988.000
362.7190, 3812.000
363.9200, 2809.000
365.1200, 2158.000
366.3210, 1718.000
367.5210, 1315.000
368.7210, 1109.000
369.9210, 965.0000
371.1210, 878.0000
372.3210, 862.0000
373.5200, 770.0000
374.7200, 747.0000
375.9190, 685.0000
377.1180, 614.0000
378.3170, 651.0000
379.5150, 635.0000
380.7140, 624.0000
381.9120, 645.0000
383.1110, 601.0000
384.3090, 617.0000
385.5060, 625.0000
386.7040, 655.0000
387.9020, 652.0000
389.0990, 643.0000
390.2960, 670.0000
391.4930, 692.0000
392.6900, 680.0000
393.8860, 717.0000
395.0830, 670.0000
396.2790, 686.0000
397.4750, 677.0000
398.6710, 626.0000
399.8670, 660.0000
401.0630, 617.0000
402.2580, 617.0000
403.4540, 588.0000
404.6490, 642.0000
405.8440, 575.0000
407.0390, 616.0000
408.2330, 613.0000
409.4280, 625.0000
410.6220, 654.0000
411.8160, 635.0000
413.0100, 652.0000
414.2040, 642.0000
415.3980, 678.0000
416.5910, 672.0000
417.7850, 698.0000
418.9780, 680.0000
420.1710, 708.0000
421.3640, 746.0000
422.5560, 820.0000
423.7490, 834.0000
424.9410, 918.0000
426.1330, 992.0000
427.3250, 1064.000
428.5170, 1217.000
429.7090, 1428.000
430.9000, 1795.000
432.0910, 2211.000
433.2820, 2801.000
434.4730, 3363.000
435.6640, 4097.000
436.8550, 4898.000
438.0450, 5471.000
439.2360, 5849.000
440.4260, 6016.000
441.6160, 5703.000
442.8060, 4998.000
443.9950, 4064.000
445.1850, 3256.000
446.3740, 2629.000
447.5630, 2118.000
448.7520, 1693.000
449.9410, 1459.000
451.1300, 1227.000
452.3180, 1094.000
453.5060, 1006.000
454.6950, 905.0000
455.8830, 880.0000
457.0700, 822.0000
458.2580, 800.0000
459.4450, 766.3720
460.6330, 734.0000
461.8200, 720.0000
463.0070, 711.0000
464.1940, 711.0000
465.3800, 697.0222
466.5670, 684.0000
467.7530, 673.0000
468.9390, 655.0000
470.1250, 632.0000
471.3110, 615.0000
472.4970, 632.0000
473.6820, 608.0000
474.8680, 598.0000
476.0530, 576.0000
477.2380, 578.1795
478.4230, 597.0000
479.6070, 587.0000
480.7920, 610.0000
481.9760, 618.0000
483.1600, 594.0000
484.3440, 579.0000
485.5280, 553.0000
486.7120, 560.0000
487.8950, 592.0000
489.0780, 609.0000
490.2620, 589.0000
491.4450, 572.0000
492.6270, 550.0000
493.8100, 541.0000
494.9920, 578.0000
496.1750, 547.0000
497.3570, 578.0000
498.5390, 583.0000
499.7210, 589.0000
500.9020, 576.0000
502.0840, 606.0000
503.2650, 558.0000
504.4460, 557.0000
505.6270, 580.0000
506.8080, 590.0000
507.9890, 560.0000
509.1690, 585.0000
510.3500, 585.0000
511.5300, 561.0000
512.7100, 594.0000
513.8900, 582.0000
515.0690, 564.0000
516.2490, 622.0000
517.4280, 595.0000
518.6070, 564.0000
519.7860, 614.0000
520.9650, 602.0000
522.1440, 596.0000
523.3220, 605.0000
524.5010, 584.0000
525.6790, 586.0000
526.8570, 591.0000
528.0350, 575.0000
529.2130, 590.0000
530.3900, 574.0000
531.5670, 595.0000
532.7450, 570.0000
533.9220, 582.0000
535.0980, 583.0000
536.2750, 561.0000
537.4520, 602.0000
538.6280, 600.0000
539.8040, 604.0000
540.9800, 630.0000
542.1560, 593.0000
543.3320, 588.0000
544.5070, 598.0000
545.6830, 613.0000
546.8580, 616.0000
548.0330, 574.0000
549.2080, 611.0000
550.3830, 588.0000
551.5570, 607.0000
552.7310, 622.0000
553.9060, 612.0000
555.0800, 617.0000
556.2540, 575.0000
557.4270, 600.0000
558.6010, 575.0000
559.7740, 636.0000
560.9470, 587.0000
562.1210, 630.0000
563.2930, 583.0000
564.4660, 636.0000
565.6390, 603.0000
566.8110, 581.0000
567.9830, 586.0000
569.1550, 594.0000
570.3270, 558.0000
571.4990, 601.0000
572.6710, 625.0000
573.8420, 593.0000
575.0130, 589.0000
576.1840, 574.0000
577.3550, 573.8821
578.5260, 587.0000
579.6970, 583.0000
580.8670, 613.0000
582.0370, 615.0000
583.2070, 602.0000
584.3770, 605.0000
585.5470, 596.0000
586.7170, 588.0000
587.8860, 600.0000
589.0550, 600.5346
590.2240, 601.0000
591.3930, 618.0000
592.5620, 627.0000
593.7310, 633.0612
594.8990, 586.0000
596.0670, 625.0000
597.2350, 603.0000
598.4030, 584.0000
599.5710, 618.0000
600.7390, 605.0000
601.9060, 606.0000
603.0740, 585.0000
604.2410, 596.0000
605.4080, 613.0000
606.5740, 586.0000
607.7410, 612.0000
608.9080, 621.0000
610.0740, 586.0000
611.2400, 613.0000
612.4060, 615.0000
613.5720, 622.0000
614.7370, 604.0000
615.9030, 607.0000
617.0680, 606.0000
618.2330, 600.0000
619.3980, 610.0000
620.5630, 596.0000
621.7280, 623.0000
622.8920, 636.0000
624.0570, 607.0000
625.2210, 652.0000
626.3850, 638.0000
627.5490, 614.0000
628.7120, 593.0000
629.8760, 625.0000
631.0390, 607.0000
632.2020, 650.0000
633.3650, 622.0000
634.5280, 605.0000
635.6910, 628.0000
636.8530, 646.0000
638.0160, 630.0000
639.1780, 647.7549
640.3400, 647.0000
641.5020, 653.0000
642.6640, 645.0000
643.8250, 643.0000
644.9870, 642.0000
646.1480, 671.0000
647.3090, 603.0000
648.4700, 601.0000
649.6300, 621.0000
650.7910, 641.0000
651.9510, 629.0000
653.1120, 634.0000
654.2720, 621.0000
655.4320, 640.0000
656.5910, 626.0000
657.7510, 630.0000
658.9100, 627.0000
660.0690, 628.9650
661.2290, 630.3957
662.3880, 638.0000
663.5460, 635.0000
664.7050, 636.2632
665.8630, 642.0000
667.0220, 634.0000
668.1800, 646.0000
669.3380, 623.0000
670.4950, 662.0000
671.6530, 639.0000
672.8100, 618.0000
673.9680, 667.0000
675.1250, 606.0000
676.2820, 627.0000
677.4390, 639.0000
678.5950, 664.0000
679.7520, 633.0000
680.9080, 642.0000
682.0640, 656.0000
683.2200, 619.0000
684.3760, 659.0000
685.5320, 646.0000
686.6870, 622.0000
687.8420, 626.0000
688.9980, 645.0000
690.1530, 647.0000
691.3070, 618.0000
692.4620, 653.0000
693.6170, 628.0000
694.7710, 645.0000
695.9250, 649.0000
697.0790, 655.0000
698.2330, 667.0000
699.3870, 672.0000
700.5400, 667.0000
701.6940, 643.0000
702.8470, 688.0000
704.0000, 670.0000
705.1530, 645.0000
706.3050, 659.0000
707.4580, 640.0000
708.6100, 667.0000
709.7630, 675.0000
710.9150, 691.0000
712.0660, 669.0000
713.2180, 691.0000
714.3700, 657.0000
715.5210, 687.0000
716.6720, 659.0000
717.8240, 682.0000
718.9740, 650.0000
720.1250, 682.0000
721.2760, 673.0000
722.4260, 651.0000
723.5770, 635.0000
724.7270, 670.0000
725.8770, 657.0000
727.0260, 663.0000
728.1760, 633.0000
729.3250, 661.0000
730.4750, 645.0000
731.6240, 716.0000
732.7730, 690.0000
733.9220, 686.0000
735.0700, 675.0000
736.2190, 679.0000
737.3670, 668.0000
738.5150, 688.0000
739.6630, 684.0000
740.8110, 651.0000
741.9590, 657.0000
743.1060, 710.0000
744.2540, 651.0000
745.4010, 636.0000
746.5480, 707.0000
747.6950, 702.0000
748.8410, 688.0000
749.9880, 693.0000
751.1340, 668.0000
752.2800, 683.0000
753.4260, 669.0000
754.5720, 676.0000
755.7180, 674.0000
756.8640, 683.0000
758.0090, 717.0000
759.1540, 697.0000
760.2990, 707.0000
761.4440, 689.0000
762.5890, 674.0000
763.7340, 684.0000
764.8780, 692.0000
766.0220, 727.0000
767.1660, 688.0000
768.3100, 688.0000
769.4540, 702.0000
770.5980, 663.0000
771.7410, 694.0000
772.8840, 722.0000
774.0280, 722.0000
775.1700, 710.0000
776.3130, 699.0000
777.4560, 701.0000
778.5980, 700.6472
779.7410, 702.3268
780.8830, 709.0000
782.0250, 706.0000
783.1670, 701.0000
784.3080, 688.0000
785.4500, 712.0000
786.5910, 697.0000
787.7320, 717.0000
788.8730, 696.0000
790.0140, 734.0000
791.1550, 710.0000
792.2950, 712.0000
793.4360, 726.0000
794.5760, 719.0000
795.7160, 713.0000
796.8560, 730.0000
797.9960, 666.0000
799.1350, 732.0000
800.2750, 762.0000
801.4140, 689.0000
802.5530, 738.0000
803.6920, 736.0000
804.8310, 717.0000
805.9690, 766.0000
807.1080, 703.0000
808.2460, 691.0000
809.3840, 714.0000
810.5220, 684.0000
811.6600, 745.0000
812.7970, 723.0000
813.9350, 715.0000
815.0720, 702.0000
816.2090, 726.0000
817.3460, 711.1717
818.4830, 715.0000
819.6200, 706.0000
820.7560, 699.0000
821.8930, 698.0000
823.0290, 699.0000
824.1650, 707.0000
825.3010, 708.0000
826.4360, 725.0000
827.5720, 713.0000
828.7070, 726.0000
829.8420, 721.3871
830.9770, 710.0000
832.1120, 709.0000
833.2470, 719.0000
834.3820, 705.0000
835.5160, 722.0000
836.6500, 730.0000
837.7840, 724.0000
838.9180, 724.0000
840.0520, 732.3073
841.1860, 731.0000
842.3190, 742.0000
843.4520, 729.0000
844.5850, 720.0000
845.7180, 709.0000
846.8510, 724.0000
847.9840, 713.0000
849.1160, 761.0000
850.2490, 711.0000
851.3810, 743.0000
852.5130, 713.0000
853.6450, 732.0000
854.7760, 721.0000
855.9080, 757.0000
857.0390, 773.0000
858.1700, 730.0000
859.3010, 756.0000
860.4320, 738.0000
861.5630, 741.0000
862.6930, 730.0000
863.8240, 752.0000
864.9540, 723.0000
866.0840, 750.0000
867.2140, 780.0000
868.3440, 743.0000
869.4730, 747.0000
870.6030, 746.0000
871.7320, 745.0000
872.8610, 743.0000
873.9900, 757.0000
875.1190, 769.0000
876.2470, 747.0000
877.3760, 762.0000
878.5040, 775.0000
879.6320, 762.0000
880.7600, 748.0000
881.8880, 778.0000
883.0150, 753.0000
884.1430, 717.0000
885.2700, 748.0000
886.3970, 767.0000
887.5240, 767.0000
888.6510, 775.6979
889.7780, 778.8611
890.9040, 770.0000
892.0310, 772.0000
893.1570, 773.0000
894.2830, 753.0000
895.4090, 794.0000
896.5350, 790.0000
897.6600, 754.0000
898.7860, 747.0000
899.9110, 809.0000
901.0360, 794.0000
902.1610, 795.0000
903.2860, 757.0000
904.4100, 784.0000
905.5350, 778.0000
906.6590, 768.0000
907.7830, 780.0000
908.9070, 758.0000
910.0310, 780.0000
911.1540, 783.0000
912.2780, 810.0000
913.4010, 766.0000
914.5240, 806.0000
915.6470, 798.0000
916.7700, 822.0000
917.8930, 808.9619
919.0150, 798.5055
920.1380, 785.0000
921.2600, 778.0000
922.3820, 792.0000
923.5040, 817.0000
924.6260, 797.0000
925.7470, 805.0000
926.8690, 793.0000
927.9900, 785.0000
929.1110, 767.0000
930.2320, 781.0000
931.3530, 822.0000
932.4730, 796.0000
933.5940, 791.0000
934.7140, 819.0000
935.8340, 795.0000
936.9540, 796.0000
938.0740, 758.0000
939.1930, 793.0000
940.3130, 843.0000
941.4320, 844.0000
942.5510, 841.0000
943.6700, 795.0000
944.7890, 818.0000
945.9080, 822.0000
947.0260, 795.0000
948.1450, 822.0000
949.2630, 784.0000
950.3810, 837.0000
951.4990, 824.0000
952.6170, 838.0000
953.7340, 836.0000
954.8520, 818.0000
955.9690, 839.0000
957.0860, 803.0000
958.2030, 807.0000
959.3200, 835.0000
960.4360, 839.0000
961.5530, 839.0000
962.6690, 882.0000
963.7850, 856.0000
964.9010, 846.0000
966.0170, 888.0000
967.1330, 896.0000
968.2480, 966.0000
969.3630, 1022.000
970.4790, 1202.000
971.5940, 1386.000
972.7080, 1639.000
973.8230, 1891.000
974.9380, 2154.000
976.0520, 2296.000
977.1660, 2116.000
978.2800, 1753.000
979.3940, 1423.000
980.5080, 1209.000
981.6220, 1122.000
982.7350, 1038.000
983.8480, 1009.000
984.9610, 927.0000
986.0740, 961.0000
987.1870, 927.0000
988.3000, 922.0000
989.4120, 906.0000
990.5250, 915.6470
991.6370, 946.0000
992.7490, 963.0000
993.8610, 970.0000
994.9720, 1021.000
996.0840, 1032.000
997.1950, 1062.000
998.3060, 1159.000
999.4170, 1318.000
1000.528, 1408.000
1001.639, 1736.000
1002.750, 2317.000
1003.860, 3110.000
1004.970, 4325.000
1006.080, 5978.000
1007.190, 7980.000
1008.300, 9598.000
1009.410, 10722.00
1010.519, 9543.000
1011.628, 7452.000
1012.738, 5076.000
1013.846, 3518.000
1014.955, 2597.000
1016.064, 1968.000
1017.172, 1600.000
1018.281, 1441.000
1019.389, 1212.000
1020.497, 1154.000
1021.605, 1070.000
1022.713, 1055.000
1023.820, 1006.000
1024.928, 988.0000
1026.035, 1020.000
1027.142, 971.0000
1028.249, 985.0000
1029.356, 961.0000
1030.462, 969.0000
1031.569, 984.0000
1032.675, 966.9412
1033.781, 937.0000
1034.887, 943.0000
1035.993, 976.0000
1037.098, 946.0000
1038.204, 950.0000
1039.309, 926.0000
1040.415, 921.0000
1041.520, 918.9992
1042.624, 949.0000
1043.729, 921.0000
1044.834, 922.0000
1045.938, 934.0000
1047.042, 989.0000
1048.146, 987.0000
1049.250, 1002.000
1050.354, 1014.000
1051.458, 1037.000
1052.561, 1071.000
1053.664, 1110.000
1054.767, 1166.000
1055.870, 1207.000
1056.973, 1204.000
1058.076, 1162.000
1059.178, 1042.000
1060.281, 1013.000
1061.383, 1009.000
1062.485, 981.0000
1063.587, 991.0000
1064.688, 962.0000
1065.790, 974.0000
1066.891, 941.0000
1067.993, 923.0000
1069.094, 949.0000
1070.195, 938.0000
1071.295, 910.0000
1072.396, 954.0000
1073.496, 927.0000
1074.597, 949.0000
1075.697, 957.1571
1076.797, 922.0000
1077.897, 966.0000
1078.996, 996.0000
1080.096, 991.0000
1081.195, 1004.000
1082.294, 1024.461
1083.393, 1057.000
1084.492, 1067.000
1085.591, 1105.000
1086.689, 1139.000
1087.788, 1172.000
1088.886, 1191.000
1089.984, 1171.000
1091.082, 1154.000
1092.180, 1131.000
1093.277, 1087.000
1094.375, 1069.170
1095.472, 1061.000
1096.569, 1018.000
1097.666, 1000.000
1098.763, 981.0000
1099.860, 974.0000
1100.956, 1001.000
1102.053, 979.0000
1103.149, 965.0000
1104.245, 1020.000
1105.341, 994.0000
1106.436, 1002.000
1107.532, 1023.000
1108.627, 1054.000
1109.723, 1058.460
1110.818, 1045.000
1111.913, 1082.000
1113.007, 1073.000
1114.102, 1089.000
1115.197, 1046.000
1116.291, 1019.000
1117.385, 1041.000
1118.479, 1034.000
1119.573, 1009.000
1120.666, 955.0000
1121.760, 994.0000
1122.853, 962.0000
1123.947, 991.0000
1125.040, 999.0000
1126.132, 1006.000
1127.225, 961.0000
1128.318, 988.0000
1129.410, 961.0000
1130.502, 969.0000
1131.595, 951.0000
1132.687, 964.0000
1133.778, 961.0282
1134.870, 952.0000
1135.961, 953.0000
1137.053, 986.0000
1138.144, 960.0000
1139.235, 1003.000
1140.326, 1012.000
1141.416, 1049.000
1142.507, 986.0000
1143.597, 1010.000
1144.688, 1028.000
1145.778, 1075.000
1146.868, 1086.000
1147.957, 1088.037
1149.047, 1082.000
1150.136, 1067.000
1151.226, 1051.000
1152.315, 1026.000
1153.404, 1025.000
1154.493, 1006.000
1155.581, 1000.583
1156.670, 987.0000
1157.758, 992.0000
1158.846, 997.0000
1159.934, 995.0000
1161.022, 986.0000
1162.110, 953.0000
1163.198, 978.0000
1164.285, 999.0000
1165.372, 1008.000
1166.459, 955.0000
1167.546, 961.0000
1168.633, 950.0000
1169.720, 999.0000
1170.806, 934.0000
1171.892, 980.0000
1172.979, 943.0000
1174.065, 941.0000
1175.150, 944.0000
1176.236, 967.0000
1177.322, 960.0000
1178.407, 940.0000
1179.492, 986.0000
1180.577, 972.0000
1181.662, 934.0000
1182.747, 945.0000
1183.832, 964.0000
1184.916, 973.0000
1186.000, 972.0000
1187.084, 976.0000
1188.168, 956.0000
1189.252, 984.0000
1190.336, 993.0000
1191.419, 943.0000
1192.503, 990.0000
1193.586, 999.0000
1194.669, 962.0000
1195.752, 959.0000
1196.835, 970.0000
1197.917, 968.0000
1199.000, 980.0000
1200.082, 993.0000
1201.164, 983.0000
1202.246, 967.0000
1203.328, 1019.000
1204.409, 957.0000
1205.491, 948.0000
1206.572, 1014.000
1207.653, 983.0000
1208.734, 956.0000
1209.815, 949.0000
1210.896, 998.0000
1211.976, 992.0000
1213.057, 1010.000
1214.137, 989.0000
1215.217, 976.0000
1216.297, 1018.000
1217.377, 1036.000
1218.456, 961.0000
1219.536, 1061.000
1220.615, 1013.000
1221.694, 1037.000
1222.773, 1056.000
1223.852, 1031.000
1224.931, 1046.000
1226.009, 1019.000
1227.088, 998.0000
1228.166, 1005.000
1229.244, 1008.000
1230.322, 998.0000
1231.400, 1011.000
1232.477, 1023.000
1233.555, 974.0000
1234.632, 1035.000
1235.709, 1056.000
1236.786, 1003.000
1237.863, 1055.000
1238.939, 1066.000
1240.016, 1046.000
1241.092, 1053.572
1242.168, 996.0000
1243.245, 1023.000
1244.320, 1001.000
1245.396, 997.0000
1246.472, 1013.000
1247.547, 1039.000
1248.622, 1016.000
1249.697, 1058.000
