##NAMES=Zircon
##RRUFFID=R050203
##IDEAL CHEMISTRY=Zr^4+^SiO_4_
##LOCALITY=Eastern Thailand
##OWNER=RRUFF
##SOURCE=Eric Van Valkenburg
##DESCRIPTION=Dark red water-worn single crystal
##STATUS=The identification of this mineral has been confirmed by X-ray diffraction and chemical analysis
##URL=rruff.info/R050203
##MEASURED CHEMISTRY=(Zr_0.99_Hf_0.01_)_Î£=1_Si_1.00_O_4_
##PIN_ID=L00061
##ORIENTATION=Laser parallel to a* (1 0 0). Fiducial mark perpendicular to laser is parallel to -c [0 0 -1]
63.41100, 20.00000
64.65300, 23.00000
65.89600, 31.00000
67.13800, 14.00000
68.38000, 32.00000
69.62200, 25.00000
70.86300, 28.00000
72.10500, 10.00000
73.34600, 18.00000
74.58700, 25.00000
75.82800, 24.00000
77.06900, 26.63839
78.30900, 22.00000
79.55000, 23.00000
80.79000, 27.00000
82.03000, 23.00000
83.27000, 20.00000
84.51000, 28.00000
85.74900, 25.00000
86.98900, 35.00000
88.22800, 33.00000
89.46700, 32.00000
90.70600, 39.00000
91.94400, 37.00000
93.18300, 48.00000
94.42100, 58.00000
95.65900, 68.00000
96.89700, 62.00000
98.13500, 78.00000
99.37300, 77.00000
100.6100, 106.0000
101.8480, 111.0000
103.0850, 120.0000
104.3220, 146.0000
105.5590, 184.0000
106.7950, 184.0000
108.0320, 211.0000
109.2680, 217.0000
110.5040, 236.0000
111.7400, 266.0000
112.9760, 251.0000
114.2120, 292.0000
115.4470, 308.0000
116.6820, 374.0000
117.9170, 418.0000
119.1520, 442.0000
120.3870, 412.0000
121.6220, 366.0000
122.8560, 332.0000
124.0900, 359.0000
125.3240, 343.0000
126.5580, 326.0000
127.7920, 315.0000
129.0260, 330.0000
130.2590, 326.0000
131.4920, 344.0000
132.7250, 339.0000
133.9580, 324.0000
135.1910, 334.0000
136.4230, 362.0000
137.6560, 345.0000
138.8880, 348.0000
140.1200, 340.0000
141.3520, 343.0000
142.5830, 329.0000
143.8150, 320.0000
145.0460, 353.0000
146.2770, 350.0000
147.5080, 348.0000
148.7390, 341.0000
149.9700, 351.0000
151.2000, 358.0000
152.4310, 357.0000
153.6610, 336.0000
154.8910, 356.0000
156.1210, 357.0000
157.3500, 377.0000
158.5800, 363.0000
159.8090, 368.0000
161.0380, 359.0000
162.2670, 400.0000
163.4960, 365.0000
164.7240, 375.0000
165.9530, 368.0000
167.1810, 351.0000
168.4090, 371.0000
169.6370, 375.0000
170.8650, 354.0000
172.0920, 389.0000
173.3200, 369.0000
174.5470, 363.0000
175.7740, 356.0000
177.0010, 369.0000
178.2280, 393.0000
179.4540, 363.0000
180.6810, 376.0000
181.9070, 362.0000
183.1330, 385.0000
184.3590, 373.0000
185.5850, 404.0000
186.8100, 363.0000
188.0350, 383.0000
189.2610, 376.0000
190.4860, 379.0000
191.7110, 398.0000
192.9350, 429.0000
194.1600, 448.3821
195.3840, 486.6099
196.6080, 514.0000
197.8320, 564.0000
199.0560, 614.0000
200.2800, 653.0000
201.5030, 660.0000
202.7270, 657.9948
203.9500, 685.0000
205.1730, 606.0000
206.3950, 549.0000
207.6180, 506.0000
208.8410, 472.0000
210.0630, 433.0000
211.2850, 434.0000
212.5070, 419.0000
213.7290, 499.0000
214.9500, 502.0000
216.1720, 536.0000
217.3930, 606.0000
218.6140, 620.0000
219.8350, 741.0000
221.0560, 792.0000
222.2770, 901.0000
223.4970, 985.0000
224.7170, 1039.000
225.9370, 1027.000
227.1570, 964.0000
228.3770, 873.0000
229.5970, 733.0000
230.8160, 640.0000
232.0350, 555.0000
233.2540, 489.0000
234.4730, 460.0000
235.6920, 432.0000
236.9110, 387.0000
238.1290, 406.0000
239.3470, 398.0000
240.5650, 404.0000
241.7830, 395.0000
243.0010, 397.0719
244.2180, 395.0000
245.4360, 402.0000
246.6530, 402.0000
247.8700, 412.0000
249.0870, 404.0000
250.3040, 408.2739
251.5200, 384.0000
252.7370, 397.0000
253.9530, 394.0000
255.1690, 363.0000
256.3850, 389.0000
257.6000, 416.0000
258.8160, 378.0000
260.0310, 383.0000
261.2460, 372.0000
262.4610, 388.0000
263.6760, 368.0000
264.8910, 402.0000
266.1050, 409.0000
267.3200, 411.0000
268.5340, 401.0000
269.7480, 402.0000
270.9620, 400.0000
272.1750, 380.0000
273.3890, 389.0000
274.6020, 389.0000
275.8150, 421.0000
277.0280, 394.0000
278.2410, 427.0000
279.4540, 407.0000
280.6660, 428.0000
281.8790, 417.0000
283.0910, 410.0000
284.3030, 413.0000
285.5140, 434.0000
286.7260, 389.0000
287.9380, 436.0000
289.1490, 424.0000
290.3600, 409.0000
291.5710, 413.0000
292.7820, 406.9257
293.9920, 424.0000
295.2030, 409.0000
296.4130, 424.0000
297.6230, 426.0000
298.8330, 428.0000
300.0430, 416.0000
301.2520, 410.0000
302.4620, 423.0000
303.6710, 421.0000
304.8800, 443.0000
306.0890, 456.0000
307.2980, 456.0000
308.5070, 465.8654
309.7150, 464.0777
310.9230, 473.0000
312.1310, 454.0000
313.3390, 464.0000
314.5470, 450.0000
315.7550, 448.0000
316.9620, 444.0000
318.1690, 507.0000
319.3760, 462.0000
320.5830, 516.0000
321.7900, 510.0000
322.9960, 488.0000
324.2030, 490.0000
325.4090, 505.0000
326.6150, 479.0000
327.8210, 511.0000
329.0270, 499.0000
330.2320, 488.0000
331.4380, 483.0000
332.6430, 479.0000
333.8480, 505.0000
335.0530, 519.0000
336.2580, 521.0000
337.4620, 508.0000
338.6670, 537.0000
339.8710, 533.0000
341.0750, 567.0000
342.2790, 572.0000
343.4820, 630.0000
344.6860, 681.0000
345.8890, 730.0000
347.0920, 897.0000
348.2960, 1039.000
349.4980, 1161.000
350.7010, 1454.000
351.9040, 1647.000
353.1060, 1992.000
354.3080, 2250.000
355.5100, 2477.000
356.7120, 2517.000
357.9140, 2521.000
359.1150, 2266.000
360.3170, 1925.000
361.5180, 1637.000
362.7190, 1346.000
363.9200, 1120.000
365.1200, 985.0000
366.3210, 826.0000
367.5210, 776.0000
368.7210, 713.0000
369.9210, 654.0000
371.1210, 639.0000
372.3210, 654.0000
373.5200, 632.0000
374.7200, 607.0000
375.9190, 615.0000
377.1180, 556.0000
378.3170, 578.0000
379.5150, 548.0000
380.7140, 585.0000
381.9120, 553.0000
383.1110, 580.0000
384.3090, 587.0000
385.5060, 562.0000
386.7040, 585.0000
387.9020, 573.0000
389.0990, 585.0000
390.2960, 594.8491
391.4930, 587.0000
392.6900, 611.0000
393.8860, 651.0000
395.0830, 654.1104
396.2790, 645.0000
397.4750, 648.0000
398.6710, 646.0000
399.8670, 628.0000
401.0630, 639.0000
402.2580, 625.0000
403.4540, 662.0000
404.6490, 625.0000
405.8440, 686.0000
407.0390, 657.0000
408.2330, 651.0000
409.4280, 721.0000
410.6220, 705.0000
411.8160, 723.0000
413.0100, 707.0000
414.2040, 739.0000
415.3980, 749.0054
416.5910, 761.4602
417.7850, 802.0000
418.9780, 804.0000
420.1710, 858.0000
421.3640, 897.0000
422.5560, 954.0000
423.7490, 1000.000
424.9410, 1080.000
426.1330, 1288.000
427.3250, 1504.000
428.5170, 1735.000
429.7090, 2218.000
430.9000, 2767.000
432.0910, 3428.000
433.2820, 4327.000
434.4730, 5382.000
435.6640, 6522.000
436.8550, 7764.000
438.0450, 8720.000
439.2360, 9331.000
440.4260, 9124.000
441.6160, 8273.000
442.8060, 7146.000
443.9950, 5827.000
445.1850, 4539.000
446.3740, 3562.000
447.5630, 2834.000
448.7520, 2294.000
449.9410, 1915.000
451.1300, 1635.000
452.3180, 1379.000
453.5060, 1237.000
454.6950, 1088.000
455.8830, 1000.000
457.0700, 970.0000
458.2580, 938.0000
459.4450, 870.0000
460.6330, 836.0000
461.8200, 803.4356
463.0070, 750.0000
464.1940, 750.0000
465.3800, 727.0000
466.5670, 704.0000
467.7530, 720.0000
468.9390, 671.0000
470.1250, 711.0000
471.3110, 652.0000
472.4970, 668.0000
473.6820, 668.0000
474.8680, 638.0000
476.0530, 621.0000
477.2380, 635.0000
478.4230, 601.0000
479.6070, 606.0000
480.7920, 606.0000
481.9760, 615.0000
483.1600, 593.0000
484.3440, 588.0000
485.5280, 565.0000
486.7120, 601.0000
487.8950, 595.0000
489.0780, 613.0000
490.2620, 541.0000
491.4450, 595.0000
492.6270, 555.0000
493.8100, 566.0000
494.9920, 553.0000
496.1750, 561.0000
497.3570, 566.0000
498.5390, 579.0000
499.7210, 555.0000
500.9020, 579.0000
502.0840, 564.0000
503.2650, 561.0000
504.4460, 567.0000
505.6270, 570.0000
506.8080, 569.0000
507.9890, 556.0000
509.1690, 548.0000
510.3500, 578.0000
511.5300, 575.0000
512.7100, 531.0000
513.8900, 596.0000
515.0690, 548.0000
516.2490, 561.0000
517.4280, 571.0000
518.6070, 564.0000
519.7860, 534.0000
520.9650, 559.0000
522.1440, 554.0000
523.3220, 571.0000
524.5010, 584.0000
525.6790, 549.0000
526.8570, 575.0000
528.0350, 562.0000
529.2130, 575.0000
530.3900, 556.0000
531.5670, 550.0000
532.7450, 566.0000
533.9220, 582.0000
535.0980, 550.0000
536.2750, 579.0000
537.4520, 555.0000
538.6280, 562.0000
539.8040, 587.0000
540.9800, 548.0000
542.1560, 590.0000
543.3320, 523.0000
544.5070, 551.0000
545.6830, 580.0000
546.8580, 570.0000
548.0330, 570.0000
549.2080, 589.0000
550.3830, 535.0000
551.5570, 585.0000
552.7310, 546.0000
553.9060, 564.0000
555.0800, 586.0000
556.2540, 581.0000
557.4270, 563.0000
558.6010, 541.0000
559.7740, 602.0000
560.9470, 576.0000
562.1210, 574.0000
563.2930, 548.0000
564.4660, 560.0000
565.6390, 561.0000
566.8110, 581.0000
567.9830, 569.0000
569.1550, 565.0000
570.3270, 562.0000
571.4990, 583.0000
572.6710, 559.0000
573.8420, 581.0000
575.0130, 567.0000
576.1840, 553.0000
577.3550, 579.0000
578.5260, 572.0000
579.6970, 557.0000
580.8670, 553.0000
582.0370, 573.0000
583.2070, 555.0000
584.3770, 557.0000
585.5470, 593.0000
586.7170, 588.0000
587.8860, 551.0000
589.0550, 541.0000
590.2240, 570.0000
591.3930, 572.0000
592.5620, 567.0000
593.7310, 582.4094
594.8990, 562.0000
596.0670, 588.0000
597.2350, 580.0000
598.4030, 570.0000
599.5710, 567.0000
600.7390, 556.0000
601.9060, 548.0000
603.0740, 571.0000
604.2410, 579.0000
605.4080, 578.0000
606.5740, 586.7878
607.7410, 565.0000
608.9080, 581.0000
610.0740, 554.0000
611.2400, 534.0000
612.4060, 547.0000
613.5720, 546.0000
614.7370, 574.0000
615.9030, 586.0000
617.0680, 577.0000
618.2330, 596.0000
619.3980, 591.0000
620.5630, 596.8380
621.7280, 584.0000
622.8920, 600.0000
624.0570, 610.0000
625.2210, 599.0000
626.3850, 584.0000
627.5490, 586.0000
628.7120, 591.0000
629.8760, 586.0000
631.0390, 584.8743
632.2020, 583.1077
633.3650, 579.0000
634.5280, 584.0000
635.6910, 589.0000
636.8530, 606.0000
638.0160, 577.0000
639.1780, 589.0000
640.3400, 583.0000
641.5020, 570.0000
642.6640, 631.0000
643.8250, 566.0000
644.9870, 607.0000
646.1480, 568.0000
647.3090, 592.0000
648.4700, 591.0000
649.6300, 596.0000
650.7910, 572.0000
651.9510, 586.0000
653.1120, 579.0000
654.2720, 607.0000
655.4320, 611.0000
656.5910, 595.0000
657.7510, 616.0000
658.9100, 579.0000
660.0690, 576.0000
661.2290, 586.0000
662.3880, 613.0000
663.5460, 575.0000
664.7050, 627.0000
665.8630, 608.0000
667.0220, 585.0000
668.1800, 619.0000
669.3380, 586.0000
670.4950, 581.0000
671.6530, 598.0000
672.8100, 607.0000
673.9680, 601.0000
675.1250, 593.0000
676.2820, 601.0000
677.4390, 584.0000
678.5950, 590.3943
679.7520, 589.0000
680.9080, 601.0000
682.0640, 600.0000
683.2200, 618.0000
684.3760, 609.0000
685.5320, 595.0000
686.6870, 611.0000
687.8420, 628.0000
688.9980, 612.0000
690.1530, 600.0000
691.3070, 656.0000
692.4620, 627.0000
693.6170, 614.0000
694.7710, 636.0000
695.9250, 615.0000
697.0790, 644.0000
698.2330, 610.0000
699.3870, 632.0000
700.5400, 615.0000
701.6940, 619.0000
702.8470, 627.0000
704.0000, 623.0000
705.1530, 606.0000
706.3050, 655.0000
707.4580, 658.0000
708.6100, 645.0000
709.7630, 664.0000
710.9150, 657.0000
712.0660, 649.0000
713.2180, 646.0000
714.3700, 637.0000
715.5210, 646.0000
716.6720, 652.0000
717.8240, 654.0000
718.9740, 654.8011
720.1250, 634.0000
721.2760, 644.0000
722.4260, 636.0000
723.5770, 617.0000
724.7270, 622.0000
725.8770, 625.5160
727.0260, 630.0000
728.1760, 641.0000
729.3250, 649.0000
730.4750, 640.0000
731.6240, 667.0000
732.7730, 656.7197
733.9220, 646.0000
735.0700, 650.0000
736.2190, 645.0000
737.3670, 639.0000
738.5150, 628.0000
739.6630, 620.0000
740.8110, 617.0000
741.9590, 648.0000
743.1060, 641.0000
744.2540, 636.0000
745.4010, 634.0000
746.5480, 632.3865
747.6950, 625.0000
748.8410, 629.0000
749.9880, 625.8011
751.1340, 614.0000
752.2800, 630.0000
753.4260, 635.0000
754.5720, 636.0000
755.7180, 655.0000
756.8640, 662.0000
758.0090, 646.0000
759.1540, 635.0000
760.2990, 613.0000
761.4440, 657.0000
762.5890, 668.0000
763.7340, 640.0000
764.8780, 645.0000
766.0220, 650.0000
767.1660, 646.0000
768.3100, 641.0000
769.4540, 660.0000
770.5980, 641.0000
771.7410, 649.0000
772.8840, 646.0000
774.0280, 640.0000
775.1700, 631.0000
776.3130, 642.0000
777.4560, 631.1399
778.5980, 627.0000
779.7410, 618.0000
780.8830, 656.0000
782.0250, 645.0000
783.1670, 661.0000
784.3080, 655.0000
785.4500, 653.0000
786.5910, 654.0000
787.7320, 648.0000
788.8730, 650.0000
790.0140, 651.0000
791.1550, 680.0000
792.2950, 641.0000
793.4360, 678.0000
794.5760, 694.0000
795.7160, 629.0000
796.8560, 670.0000
797.9960, 646.0000
799.1350, 630.0000
800.2750, 639.0000
801.4140, 668.0000
802.5530, 626.0000
803.6920, 669.0000
804.8310, 679.0000
805.9690, 665.0000
807.1080, 654.0000
808.2460, 633.0000
809.3840, 657.0000
810.5220, 646.8480
811.6600, 668.0000
812.7970, 657.0000
813.9350, 669.0000
815.0720, 677.0000
816.2090, 651.0000
817.3460, 660.0000
818.4830, 650.0000
819.6200, 649.0000
820.7560, 627.0000
821.8930, 673.0000
823.0290, 645.0000
824.1650, 667.0000
825.3010, 668.0000
826.4360, 636.0000
827.5720, 631.0000
828.7070, 659.0000
829.8420, 632.0000
830.9770, 706.0000
832.1120, 671.0000
833.2470, 678.0000
834.3820, 670.0000
835.5160, 663.0000
836.6500, 671.0000
837.7840, 635.0000
838.9180, 645.0000
840.0520, 661.0000
841.1860, 661.0000
842.3190, 682.0000
843.4520, 678.0000
844.5850, 701.0000
845.7180, 705.6500
846.8510, 687.0000
847.9840, 709.0000
849.1160, 691.0000
850.2490, 666.0000
851.3810, 650.0000
852.5130, 648.0000
853.6450, 693.0000
854.7760, 677.0000
855.9080, 668.0000
857.0390, 719.0000
858.1700, 698.0000
859.3010, 710.0000
860.4320, 682.0000
861.5630, 675.0000
862.6930, 705.0000
863.8240, 719.0000
864.9540, 696.0000
866.0840, 682.0000
867.2140, 690.0000
868.3440, 701.0000
869.4730, 697.0000
870.6030, 720.0000
871.7320, 694.0000
872.8610, 692.0000
873.9900, 700.0000
875.1190, 646.0000
876.2470, 682.0000
877.3760, 711.0000
878.5040, 688.0000
879.6320, 712.0000
880.7600, 709.0000
881.8880, 700.0000
883.0150, 711.0000
884.1430, 701.4819
885.2700, 707.2729
886.3970, 695.0000
887.5240, 717.0000
888.6510, 720.0000
889.7780, 727.5779
890.9040, 750.0000
892.0310, 724.0000
893.1570, 728.0000
894.2830, 707.0000
895.4090, 706.0000
896.5350, 706.0000
897.6600, 684.0000
898.7860, 724.0000
899.9110, 749.0000
901.0360, 747.0000
902.1610, 733.0000
903.2860, 713.0000
904.4100, 699.0000
905.5350, 714.0000
906.6590, 728.0000
907.7830, 744.0000
908.9070, 712.0000
910.0310, 703.0000
911.1540, 748.0000
912.2780, 711.0000
913.4010, 754.0000
914.5240, 755.0000
915.6470, 756.0000
916.7700, 695.0000
917.8930, 748.0000
919.0150, 704.0000
920.1380, 752.0000
921.2600, 729.0000
922.3820, 781.0000
923.5040, 733.0000
924.6260, 728.0000
925.7470, 718.0000
926.8690, 705.8943
927.9900, 743.0000
929.1110, 718.0000
930.2320, 715.0000
931.3530, 749.0000
932.4730, 738.0000
933.5940, 725.0000
934.7140, 746.0000
935.8340, 735.0000
936.9540, 748.0000
938.0740, 715.0000
939.1930, 740.0000
940.3130, 775.0000
941.4320, 745.0000
942.5510, 750.0000
943.6700, 720.0000
944.7890, 787.0000
945.9080, 775.0000
947.0260, 733.0000
948.1450, 772.0000
949.2630, 748.0000
950.3810, 759.0000
951.4990, 722.0000
952.6170, 743.0000
953.7340, 731.0000
954.8520, 730.0000
955.9690, 766.0000
957.0860, 735.0000
958.2030, 783.0000
959.3200, 746.0000
960.4360, 696.0000
961.5530, 752.0000
962.6690, 777.0000
963.7850, 740.0000
964.9010, 748.0000
966.0170, 725.0000
967.1330, 741.0000
968.2480, 800.0000
969.3630, 780.0000
970.4790, 816.0000
971.5940, 833.0000
972.7080, 934.0000
973.8230, 985.0000
974.9380, 1026.000
976.0520, 1023.000
977.1660, 980.0000
978.2800, 893.0000
979.3940, 858.0000
980.5080, 871.0000
981.6220, 797.0000
982.7350, 782.0000
983.8480, 787.0000
984.9610, 782.0000
986.0740, 782.0000
987.1870, 793.0000
988.3000, 767.0000
989.4120, 786.0000
990.5250, 789.0000
991.6370, 764.0000
992.7490, 784.0000
993.8610, 778.0000
994.9720, 767.0000
996.0840, 777.0000
997.1950, 798.0000
998.3060, 805.0000
999.4170, 798.0000
1000.528, 793.0000
1001.639, 809.0000
1002.750, 866.0000
1003.860, 853.0000
1004.970, 954.0000
1006.080, 967.0000
1007.190, 1059.000
1008.300, 1077.000
1009.410, 1129.000
1010.519, 1050.000
1011.628, 1004.000
1012.738, 931.0000
1013.846, 882.0000
1014.955, 887.0000
1016.064, 868.0000
1017.172, 873.0000
1018.281, 810.0000
1019.389, 817.0000
1020.497, 858.0000
1021.605, 809.0000
1022.713, 869.0000
1023.820, 812.0000
1024.928, 822.0000
1026.035, 832.0000
1027.142, 831.0000
1028.249, 847.0000
1029.356, 843.0000
1030.462, 860.0000
1031.569, 851.0000
1032.675, 841.0000
1033.781, 853.0000
1034.887, 854.0000
1035.993, 857.0000
1037.098, 852.0000
1038.204, 855.0433
1039.309, 875.0000
1040.415, 852.0000
1041.520, 842.2902
1042.624, 860.5558
1043.729, 871.3487
1044.834, 875.0694
1045.938, 850.5350
1047.042, 862.4849
1048.146, 859.8135
1049.250, 856.5427
1050.354, 873.6276
1051.458, 853.2026
1052.561, 869.9637
1053.664, 871.8802
1054.767, 880.5908
1055.870, 874.5898
1056.973, 873.1328
1058.076, 886.3920
1059.178, 891.5015
1060.281, 883.8070
1061.383, 892.9484
1062.485, 872.0073
1063.587, 877.4641
1064.688, 894.3090
1065.790, 887.3531
1066.891, 896.7623
1067.993, 899.9395
1069.094, 874.7885
1070.195, 898.9010
1071.295, 901.7078
1072.396, 882.6400
1073.496, 905.0635
1074.597, 889.0115
1075.697, 886.6923
1076.797, 890.0000
1077.897, 929.0000
1078.996, 902.0000
1080.096, 951.0000
1081.195, 922.0000
1082.294, 989.0000
1083.393, 1033.000
1084.492, 1070.000
1085.591, 1071.000
1086.689, 1122.000
1087.788, 1178.000
1088.886, 1151.000
1089.984, 1155.000
1091.082, 1089.000
1092.180, 1060.000
1093.277, 1026.763
1094.375, 997.7970
1095.472, 946.0000
1096.569, 960.0000
1097.666, 917.0000
1098.763, 893.0000
1099.860, 899.0000
1100.956, 879.0000
1102.053, 884.0000
1103.149, 906.0000
1104.245, 883.0000
1105.341, 911.0000
1106.436, 883.0000
1107.532, 935.0000
1108.627, 888.0000
1109.723, 994.0000
1110.818, 954.0000
1111.913, 952.0000
1113.007, 971.0000
1114.102, 950.0000
1115.197, 965.0000
1116.291, 929.0000
1117.385, 950.0000
1118.479, 914.0000
1119.573, 878.0000
1120.666, 880.0000
1121.760, 880.0000
1122.853, 882.0000
1123.947, 873.0000
1125.040, 895.0000
1126.132, 901.0000
1127.225, 869.0000
1128.318, 854.0000
1129.410, 885.0000
1130.502, 910.0000
1131.595, 890.0000
1132.687, 857.0000
1133.778, 906.0000
1134.870, 859.0000
1135.961, 850.0000
1137.053, 877.0000
1138.144, 903.0000
1139.235, 906.0000
1140.326, 886.0000
1141.416, 901.0000
1142.507, 880.0000
1143.597, 943.0000
1144.688, 993.0000
1145.778, 989.0000
1146.868, 989.0000
1147.957, 990.0840
1149.047, 971.2261
1150.136, 964.0000
1151.226, 932.0000
1152.315, 925.0000
1153.404, 906.0000
1154.493, 900.0000
1155.581, 889.3614
1156.670, 875.0000
1157.758, 870.0000
1158.846, 880.0000
1159.934, 868.0000
1161.022, 871.0000
1162.110, 896.0000
1163.198, 876.0000
1164.285, 837.0000
1165.372, 871.0000
1166.459, 894.0000
1167.546, 859.0000
1168.633, 884.0000
1169.720, 861.0000
1170.806, 857.0000
1171.892, 850.0000
1172.979, 812.0000
1174.065, 857.0000
1175.150, 883.0000
1176.236, 824.0000
1177.322, 878.0000
1178.407, 841.0000
1179.492, 854.4507
1180.577, 851.3021
1181.662, 868.0000
1182.747, 844.0000
1183.832, 824.0000
1184.916, 849.0000
1186.000, 881.0000
1187.084, 841.0000
1188.168, 847.0000
1189.252, 871.0000
1190.336, 848.0000
1191.419, 881.0000
1192.503, 840.0000
1193.586, 856.0000
1194.669, 873.0000
1195.752, 884.0000
1196.835, 864.0000
1197.917, 871.0000
1199.000, 851.0000
1200.082, 891.0000
1201.164, 908.0000
1202.246, 867.0000
1203.328, 903.0000
1204.409, 854.0000
1205.491, 902.0000
1206.572, 881.0000
1207.653, 898.0000
1208.734, 834.0000
1209.815, 926.0000
1210.896, 857.0000
1211.976, 879.0000
1213.057, 895.0000
1214.137, 928.0000
1215.217, 910.0000
1216.297, 915.0000
1217.377, 898.0000
1218.456, 899.0000
1219.536, 922.0000
1220.615, 898.0000
1221.694, 903.0000
1222.773, 905.5612
1223.852, 926.0000
1224.931, 910.0000
1226.009, 917.0000
1227.088, 925.0000
1228.166, 910.0000
1229.244, 903.0000
1230.322, 906.2202
1231.400, 897.0000
1232.477, 913.0000
1233.555, 921.0000
1234.632, 936.0000
1235.709, 946.9479
1236.786, 933.0000
1237.863, 963.0000
1238.939, 924.0000
1240.016, 914.0000
1241.092, 919.0000
1242.168, 938.0000
1243.245, 886.0000
1244.320, 883.0000
1245.396, 922.0000
1246.472, 922.0000
1247.547, 882.0000
1248.622, 947.0000
1249.697, 905.0000
