##NAMES=Zircon
##RRUFFID=R050203
##IDEAL CHEMISTRY=Zr^4+^SiO_4_
##LOCALITY=Eastern Thailand
##OWNER=RRUFF
##SOURCE=Eric Van Valkenburg
##DESCRIPTION=Dark red water-worn single crystal
##STATUS=The identification of this mineral has been confirmed by X-ray diffraction and chemical analysis
##URL=rruff.info/R050203
##MEASURED CHEMISTRY=(Zr_0.99_Hf_0.01_)_Î£=1_Si_1.00_O_4_
##PIN_ID=L00061
##ORIENTATION=Laser parallel to a* (1 0 0). Fiducial mark perpendicular to laser is parallel to -c [0 0 -1]
63.41100, 21.00000
64.65300, 23.00000
65.89600, 39.00000
67.13800, 17.00000
68.38000, 38.00000
69.62200, 14.00000
70.86300, 30.00000
72.10500, 25.00000
73.34600, 30.00000
74.58700, 31.00000
75.82800, 38.00000
77.06900, 34.43750
78.30900, 31.00000
79.55000, 29.00000
80.79000, 19.00000
82.03000, 18.00000
83.27000, 20.00000
84.51000, 33.00000
85.74900, 32.00000
86.98900, 40.00000
88.22800, 25.00000
89.46700, 40.00000
90.70600, 34.00000
91.94400, 53.00000
93.18300, 51.00000
94.42100, 53.00000
95.65900, 89.00000
96.89700, 77.00000
98.13500, 96.00000
99.37300, 106.0000
100.6100, 126.0000
101.8480, 136.0000
103.0850, 152.6931
104.3220, 166.0000
105.5590, 183.0000
106.7950, 201.0000
108.0320, 213.1004
109.2680, 231.1404
110.5040, 237.0000
111.7400, 269.0000
112.9760, 302.0000
114.2120, 334.0591
115.4470, 311.0000
116.6820, 395.0000
117.9170, 442.0000
119.1520, 458.0000
120.3870, 421.0000
121.6220, 382.0000
122.8560, 371.0000
124.0900, 366.0000
125.3240, 371.0000
126.5580, 365.0000
127.7920, 371.1065
129.0260, 365.0000
130.2590, 377.0000
131.4920, 371.0000
132.7250, 362.0000
133.9580, 349.0000
135.1910, 379.0000
136.4230, 380.0000
137.6560, 369.0000
138.8880, 375.0000
140.1200, 352.0000
141.3520, 407.0000
142.5830, 396.0000
143.8150, 398.0000
145.0460, 368.0000
146.2770, 392.0000
147.5080, 392.9787
148.7390, 388.3377
149.9700, 424.0000
151.2000, 402.0000
152.4310, 420.0000
153.6610, 452.2991
154.8910, 414.6573
156.1210, 432.0000
157.3500, 381.0000
158.5800, 394.0000
159.8090, 420.0000
161.0380, 411.0000
162.2670, 392.0000
163.4960, 396.0000
164.7240, 420.0000
165.9530, 426.0000
167.1810, 389.0000
168.4090, 430.0000
169.6370, 417.0000
170.8650, 385.0000
172.0920, 395.0000
173.3200, 381.0000
174.5470, 401.0000
175.7740, 416.0000
177.0010, 400.0000
178.2280, 417.0000
179.4540, 424.0000
180.6810, 427.0000
181.9070, 417.0000
183.1330, 442.0000
184.3590, 434.0000
185.5850, 422.0000
186.8100, 424.0000
188.0350, 444.0000
189.2610, 476.0000
190.4860, 499.3068
191.7110, 492.0000
192.9350, 564.0000
194.1600, 639.0000
195.3840, 667.0000
196.6080, 782.0000
197.8320, 916.0000
199.0560, 1041.000
200.2800, 1119.000
201.5030, 1178.000
202.7270, 1275.000
203.9500, 1275.000
205.1730, 1215.000
206.3950, 1155.000
207.6180, 1148.000
208.8410, 1137.000
210.0630, 1286.000
211.2850, 1449.000
212.5070, 1630.000
213.7290, 1767.000
214.9500, 1962.000
216.1720, 2070.000
217.3930, 1973.000
218.6140, 1883.000
219.8350, 1866.000
221.0560, 1875.000
222.2770, 1889.000
223.4970, 1960.000
224.7170, 1979.000
225.9370, 1874.439
227.1570, 1892.000
228.3770, 1588.000
229.5970, 1302.000
230.8160, 1076.000
232.0350, 844.0000
233.2540, 713.0000
234.4730, 579.0000
235.6920, 591.0000
236.9110, 500.0000
238.1290, 506.0000
239.3470, 443.0000
240.5650, 446.0000
241.7830, 445.0000
243.0010, 447.0000
244.2180, 442.0000
245.4360, 417.0000
246.6530, 425.0000
247.8700, 442.0000
249.0870, 394.0000
250.3040, 416.0000
251.5200, 438.0000
252.7370, 417.0000
253.9530, 417.0000
255.1690, 426.0000
256.3850, 422.0000
257.6000, 410.0000
258.8160, 432.0000
260.0310, 425.0000
261.2460, 413.0000
262.4610, 424.0000
263.6760, 415.0000
264.8910, 434.0000
266.1050, 434.0000
267.3200, 424.0000
268.5340, 429.0000
269.7480, 420.0000
270.9620, 428.0000
272.1750, 434.0000
273.3890, 412.0000
274.6020, 405.0000
275.8150, 429.0000
277.0280, 433.0000
278.2410, 426.0000
279.4540, 443.0000
280.6660, 437.0000
281.8790, 437.5635
283.0910, 434.0000
284.3030, 435.0000
285.5140, 434.0000
286.7260, 436.0000
287.9380, 443.0000
289.1490, 458.0000
290.3600, 446.0000
291.5710, 458.0000
292.7820, 442.0000
293.9920, 433.0000
295.2030, 443.0000
296.4130, 454.0000
297.6230, 427.0000
298.8330, 445.0000
300.0430, 472.0000
301.2520, 422.0000
302.4620, 453.0000
303.6710, 460.0000
304.8800, 454.0000
306.0890, 460.0000
307.2980, 476.0000
308.5070, 499.0000
309.7150, 449.0000
310.9230, 464.0000
312.1310, 436.0000
313.3390, 506.0000
314.5470, 516.0000
315.7550, 481.0000
316.9620, 480.0000
318.1690, 490.0000
319.3760, 446.0000
320.5830, 510.0000
321.7900, 497.0000
322.9960, 505.0000
324.2030, 545.0000
325.4090, 521.0000
326.6150, 469.0000
327.8210, 529.0000
329.0270, 554.0000
330.2320, 507.0000
331.4380, 557.0000
332.6430, 543.0000
333.8480, 560.0000
335.0530, 545.0000
336.2580, 552.0000
337.4620, 591.0000
338.6670, 619.0000
339.8710, 641.0000
341.0750, 687.0000
342.2790, 770.0000
343.4820, 810.0000
344.6860, 927.0000
345.8890, 1069.000
347.0920, 1333.000
348.2960, 1579.000
349.4980, 2019.000
350.7010, 2447.000
351.9040, 3069.000
353.1060, 3718.000
354.3080, 4372.000
355.5100, 5002.000
356.7120, 5299.000
357.9140, 5278.000
359.1150, 4943.000
360.3170, 4078.000
361.5180, 3335.000
362.7190, 2502.000
363.9200, 2159.000
365.1200, 1657.304
366.3210, 1655.000
367.5210, 1107.000
368.7210, 936.0000
369.9210, 815.0000
371.1210, 812.0000
372.3210, 754.0000
373.5200, 717.0000
374.7200, 667.0000
375.9190, 639.0000
377.1180, 666.0000
378.3170, 623.0000
379.5150, 647.0000
380.7140, 636.0000
381.9120, 623.0000
383.1110, 632.0000
384.3090, 643.0000
385.5060, 663.0000
386.7040, 665.0000
387.9020, 705.0000
389.0990, 716.0000
390.2960, 758.0000
391.4930, 829.0000
392.6900, 834.0000
393.8860, 877.0000
395.0830, 879.0000
396.2790, 859.0000
397.4750, 814.0000
398.6710, 778.0000
399.8670, 755.0000
401.0630, 738.0000
402.2580, 683.0000
403.4540, 696.0000
404.6490, 704.0000
405.8440, 662.0000
407.0390, 676.0000
408.2330, 679.0000
409.4280, 682.0000
410.6220, 682.0000
411.8160, 697.0000
413.0100, 703.0000
414.2040, 708.0000
415.3980, 712.0000
416.5910, 756.0000
417.7850, 809.0000
418.9780, 813.0000
420.1710, 842.0000
421.3640, 897.0000
422.5560, 973.0000
423.7490, 1024.000
424.9410, 1164.000
426.1330, 1240.000
427.3250, 1408.000
428.5170, 1709.000
429.7090, 2097.000
430.9000, 2703.000
432.0910, 3439.000
433.2820, 4345.000
434.4730, 5494.000
435.6640, 6669.000
436.8550, 7842.000
438.0450, 8820.000
439.2360, 9546.000
440.4260, 9656.000
441.6160, 9019.000
442.8060, 7864.000
443.9950, 6430.000
445.1850, 5217.000
446.3740, 4020.000
447.5630, 3122.000
448.7520, 2578.000
449.9410, 2152.000
451.1300, 1832.000
452.3180, 1539.000
453.5060, 1345.000
454.6950, 1271.000
455.8830, 1175.000
457.0700, 1089.000
458.2580, 1025.187
459.4450, 966.0000
460.6330, 918.0000
461.8200, 875.0000
463.0070, 838.1558
464.1940, 805.9858
465.3800, 789.0000
466.5670, 759.0000
467.7530, 757.0000
468.9390, 750.0000
470.1250, 758.0000
471.3110, 757.0000
472.4970, 683.0000
473.6820, 701.0000
474.8680, 673.0000
476.0530, 691.0000
477.2380, 684.0000
478.4230, 655.0000
479.6070, 638.0000
480.7920, 636.0000
481.9760, 628.0000
483.1600, 642.0000
484.3440, 650.0000
485.5280, 632.0000
486.7120, 620.0000
487.8950, 616.3029
489.0780, 606.5472
490.2620, 603.0000
491.4450, 600.0000
492.6270, 601.0000
493.8100, 603.0000
494.9920, 614.0000
496.1750, 599.0000
497.3570, 601.0000
498.5390, 643.0000
499.7210, 580.0000
500.9020, 624.0000
502.0840, 628.0000
503.2650, 616.0000
504.4460, 628.0000
505.6270, 593.0000
506.8080, 619.0000
507.9890, 604.0000
509.1690, 605.0000
510.3500, 624.0000
511.5300, 601.0000
512.7100, 613.0000
513.8900, 611.1924
515.0690, 652.0000
516.2490, 626.0000
517.4280, 592.0000
518.6070, 629.0000
519.7860, 628.0000
520.9650, 663.0000
522.1440, 637.0000
523.3220, 597.0000
524.5010, 619.0000
525.6790, 601.0000
526.8570, 634.0000
528.0350, 657.0000
529.2130, 602.0000
530.3900, 614.0000
531.5670, 618.0000
532.7450, 647.0000
533.9220, 607.0000
535.0980, 619.0000
536.2750, 608.0000
537.4520, 602.0000
538.6280, 632.0000
539.8040, 632.0000
540.9800, 639.0000
542.1560, 647.0000
543.3320, 645.7587
544.5070, 627.0000
545.6830, 642.0000
546.8580, 651.0000
548.0330, 640.0000
549.2080, 654.0000
550.3830, 666.0000
551.5570, 643.0000
552.7310, 666.0000
553.9060, 646.0000
555.0800, 677.0000
556.2540, 637.0000
557.4270, 645.0000
558.6010, 628.0000
559.7740, 649.0000
560.9470, 627.0000
562.1210, 651.0000
563.2930, 641.0000
564.4660, 601.0000
565.6390, 634.0000
566.8110, 633.0000
567.9830, 616.0000
569.1550, 586.0000
570.3270, 638.0000
571.4990, 600.0000
572.6710, 600.0000
573.8420, 632.0000
575.0130, 647.0000
576.1840, 609.0000
577.3550, 634.0000
578.5260, 629.0000
579.6970, 616.0000
580.8670, 611.0000
582.0370, 613.0000
583.2070, 625.0000
584.3770, 616.0000
585.5470, 617.0000
586.7170, 634.0000
587.8860, 638.0000
589.0550, 628.0000
590.2240, 620.0000
591.3930, 641.0000
592.5620, 604.0000
593.7310, 585.0000
594.8990, 603.6779
596.0670, 637.0000
597.2350, 628.0000
598.4030, 637.0000
599.5710, 645.0000
600.7390, 612.0000
601.9060, 579.0000
603.0740, 646.0000
604.2410, 622.0000
605.4080, 673.0000
606.5740, 621.0000
607.7410, 604.0000
608.9080, 620.0000
610.0740, 656.0000
611.2400, 622.0000
612.4060, 628.0000
613.5720, 628.0000
614.7370, 639.0000
615.9030, 648.0000
617.0680, 651.9686
618.2330, 668.0000
619.3980, 656.0000
620.5630, 651.0000
621.7280, 635.0000
622.8920, 658.0000
624.0570, 648.0000
625.2210, 634.0000
626.3850, 617.0000
627.5490, 622.1376
628.7120, 641.0000
629.8760, 634.0000
631.0390, 646.0000
632.2020, 656.0000
633.3650, 665.0000
634.5280, 665.0000
635.6910, 654.0000
636.8530, 659.0000
638.0160, 665.0000
639.1780, 680.0000
640.3400, 687.0000
641.5020, 698.2029
642.6640, 679.0000
643.8250, 700.0000
644.9870, 703.0000
646.1480, 661.0000
647.3090, 656.0000
648.4700, 646.5132
649.6300, 665.0000
650.7910, 639.0000
651.9510, 647.0000
653.1120, 657.0000
654.2720, 638.0000
655.4320, 625.0000
656.5910, 634.0000
657.7510, 665.0000
658.9100, 641.0000
660.0690, 679.0000
661.2290, 662.0000
662.3880, 656.0000
663.5460, 671.0000
664.7050, 645.0000
665.8630, 629.0000
667.0220, 657.0000
668.1800, 671.0000
669.3380, 645.0000
670.4950, 637.0000
671.6530, 645.5261
672.8100, 648.0000
673.9680, 659.0000
675.1250, 666.0000
676.2820, 675.0000
677.4390, 645.0000
678.5950, 642.0000
679.7520, 631.0000
680.9080, 648.0000
682.0640, 674.0000
683.2200, 688.0000
684.3760, 662.0000
685.5320, 664.0000
686.6870, 620.0000
687.8420, 678.0000
688.9980, 647.0000
690.1530, 679.0000
691.3070, 698.0000
692.4620, 679.0000
693.6170, 657.0000
694.7710, 701.0000
695.9250, 688.0000
697.0790, 675.0000
698.2330, 706.0000
699.3870, 703.0000
700.5400, 679.0000
701.6940, 698.0000
702.8470, 713.0000
704.0000, 696.0000
705.1530, 658.0000
706.3050, 698.0000
707.4580, 684.0000
708.6100, 684.0000
709.7630, 695.0000
710.9150, 685.8988
712.0660, 702.0000
713.2180, 688.0000
714.3700, 686.0000
715.5210, 698.0000
716.6720, 691.0000
717.8240, 693.0000
718.9740, 690.0000
720.1250, 697.0000
721.2760, 697.0000
722.4260, 700.0000
723.5770, 695.9423
724.7270, 685.0000
725.8770, 688.0000
727.0260, 696.0000
728.1760, 701.0000
729.3250, 729.0000
730.4750, 656.0000
731.6240, 724.0000
732.7730, 685.0000
733.9220, 666.0000
735.0700, 683.0000
736.2190, 691.0000
737.3670, 704.0000
738.5150, 702.1224
739.6630, 703.4692
740.8110, 696.0000
741.9590, 695.0000
743.1060, 697.4228
744.2540, 692.5797
745.4010, 691.0000
746.5480, 679.0000
747.6950, 676.0000
748.8410, 678.0000
749.9880, 678.0000
751.1340, 700.0000
752.2800, 719.0000
753.4260, 717.2007
754.5720, 695.0000
755.7180, 721.0000
756.8640, 687.0000
758.0090, 688.0000
759.1540, 666.0000
760.2990, 704.0000
761.4440, 696.0000
762.5890, 701.0000
763.7340, 680.0000
764.8780, 713.0000
766.0220, 695.0000
767.1660, 739.0000
768.3100, 725.0000
769.4540, 677.0000
770.5980, 704.0000
771.7410, 704.0000
772.8840, 733.0000
774.0280, 741.0000
775.1700, 706.0000
776.3130, 729.0000
777.4560, 723.0000
778.5980, 722.0000
779.7410, 685.0000
780.8830, 727.0000
782.0250, 692.0000
783.1670, 734.0000
784.3080, 706.0000
785.4500, 716.0000
786.5910, 708.0000
787.7320, 707.0000
788.8730, 711.9875
790.0140, 700.0000
791.1550, 717.0000
792.2950, 715.0000
793.4360, 714.0000
794.5760, 688.0000
795.7160, 705.0000
796.8560, 733.0000
797.9960, 740.0000
799.1350, 714.0000
800.2750, 701.0000
801.4140, 722.0000
802.5530, 731.0000
803.6920, 718.0000
804.8310, 729.0000
805.9690, 728.0000
807.1080, 698.0000
808.2460, 706.0000
809.3840, 729.0000
810.5220, 742.0000
811.6600, 709.0000
812.7970, 701.0000
813.9350, 716.0000
815.0720, 742.0000
816.2090, 712.0000
817.3460, 698.0000
818.4830, 708.0000
819.6200, 694.2833
820.7560, 698.9568
821.8930, 692.0000
823.0290, 720.0000
824.1650, 714.0000
825.3010, 755.0000
826.4360, 682.0000
827.5720, 744.0000
828.7070, 722.0000
829.8420, 710.0000
830.9770, 738.0000
832.1120, 747.0000
833.2470, 735.0000
834.3820, 725.0000
835.5160, 725.0000
836.6500, 734.0000
837.7840, 738.0000
838.9180, 756.0000
840.0520, 712.0000
841.1860, 739.0000
842.3190, 725.0000
843.4520, 752.0000
844.5850, 718.0000
845.7180, 740.0000
846.8510, 729.0000
847.9840, 746.0000
849.1160, 730.0000
850.2490, 734.0000
851.3810, 737.0000
852.5130, 739.0000
853.6450, 767.0000
854.7760, 723.0000
855.9080, 758.0000
857.0390, 733.0000
858.1700, 771.0000
859.3010, 791.0000
860.4320, 711.0000
861.5630, 752.0000
862.6930, 764.0000
863.8240, 754.0000
864.9540, 755.0000
866.0840, 752.0000
867.2140, 757.2554
868.3440, 766.0000
869.4730, 782.0000
870.6030, 776.0000
871.7320, 806.0000
872.8610, 792.0000
873.9900, 787.0000
875.1190, 751.0000
876.2470, 774.0000
877.3760, 740.0000
878.5040, 715.0000
879.6320, 793.0000
880.7600, 772.0000
881.8880, 787.0000
883.0150, 728.0000
884.1430, 785.0000
885.2700, 738.0000
886.3970, 789.0000
887.5240, 758.0000
888.6510, 772.0000
889.7780, 790.0000
890.9040, 782.0000
892.0310, 800.0000
893.1570, 809.0000
894.2830, 786.0000
895.4090, 783.0000
896.5350, 775.0000
897.6600, 773.0000
898.7860, 776.9830
899.9110, 785.0000
901.0360, 784.0000
902.1610, 771.0000
903.2860, 762.0000
904.4100, 773.0000
905.5350, 788.0000
906.6590, 808.0000
907.7830, 796.0000
908.9070, 791.0000
910.0310, 797.5372
911.1540, 795.0000
912.2780, 790.0000
913.4010, 807.0000
914.5240, 785.0000
915.6470, 785.9261
916.7700, 799.4101
917.8930, 791.0000
919.0150, 800.0000
920.1380, 850.0000
921.2600, 797.0000
922.3820, 833.0000
923.5040, 808.0000
924.6260, 806.0000
925.7470, 747.1635
926.8690, 816.6773
927.9900, 856.9514
929.1110, 869.5596
930.2320, 771.6387
931.3530, 816.4432
932.4730, 804.0473
933.5940, 789.3084
934.7140, 854.1984
935.8340, 772.3512
936.9540, 835.9783
938.0740, 841.5347
939.1930, 873.6663
940.3130, 848.2491
941.4320, 840.6053
942.5510, 890.5310
943.6700, 908.5798
944.7890, 876.5352
945.9080, 910.3562
947.0260, 826.4938
948.1450, 845.9005
949.2630, 909.8595
950.3810, 880.7061
951.4990, 915.5768
952.6170, 926.0635
953.7340, 825.7332
954.8520, 918.1231
955.9690, 868.0000
957.0860, 813.0000
958.2030, 875.0000
959.3200, 855.0000
960.4360, 854.0000
961.5530, 906.0000
962.6690, 877.0000
963.7850, 876.0000
964.9010, 954.0000
966.0170, 942.0000
967.1330, 988.0000
968.2480, 1097.000
969.3630, 1313.000
970.4790, 1627.000
971.5940, 2008.000
972.7080, 2533.000
973.8230, 3200.000
974.9380, 3792.000
976.0520, 4023.000
977.1660, 3589.000
978.2800, 2847.000
979.3940, 2145.000
980.5080, 1703.000
981.6220, 1443.000
982.7350, 1237.000
983.8480, 1194.000
984.9610, 1149.000
986.0740, 1119.000
987.1870, 1101.139
988.3000, 1084.722
989.4120, 1093.000
990.5250, 1091.000
991.6370, 1111.000
992.7490, 1152.000
993.8610, 1236.000
994.9720, 1259.000
996.0840, 1302.000
997.1950, 1364.000
998.3060, 1568.000
999.4170, 1738.000
1000.528, 2212.000
1001.639, 2818.000
1002.750, 4005.000
1003.860, 5856.000
1004.970, 8368.000
1006.080, 12249.00
1007.190, 17141.00
1008.300, 20930.00
1009.410, 23387.00
1010.519, 20849.00
1011.628, 15721.00
1012.738, 10721.00
1013.846, 6826.000
1014.955, 4628.000
1016.064, 3321.000
1017.172, 2556.000
1018.281, 2030.000
1019.389, 1737.000
1020.497, 1471.000
1021.605, 1315.000
1022.713, 1250.000
1023.820, 1189.000
1024.928, 1180.000
1026.035, 1164.000
1027.142, 1122.000
1028.249, 1076.000
1029.356, 1072.000
1030.462, 1024.000
1031.569, 1019.000
1032.675, 1042.000
1033.781, 1027.000
1034.887, 1012.000
1035.993, 996.0000
1037.098, 981.0000
1038.204, 1012.000
1039.309, 974.0000
1040.415, 1005.000
1041.520, 999.0000
1042.624, 994.0000
1043.729, 976.0000
1044.834, 990.0000
1045.938, 997.9411
1047.042, 1007.546
1048.146, 1029.000
1049.250, 1050.000
1050.354, 1052.000
1051.458, 1088.000
1052.561, 1148.000
1053.664, 1170.000
1054.767, 1236.000
1055.870, 1191.000
1056.973, 1216.000
1058.076, 1098.000
1059.178, 1081.000
1060.281, 1008.000
1061.383, 1000.000
1062.485, 988.0000
1063.587, 960.0000
1064.688, 983.0000
1065.790, 977.0000
1066.891, 1004.000
1067.993, 954.0000
1069.094, 954.0000
1070.195, 921.0000
1071.295, 949.0000
1072.396, 951.0000
1073.496, 960.0000
1074.597, 989.0000
1075.697, 999.0000
1076.797, 1002.011
1077.897, 1050.000
1078.996, 1001.000
1080.096, 1035.000
1081.195, 1038.000
1082.294, 1062.000
1083.393, 1083.000
1084.492, 1103.000
1085.591, 1150.000
1086.689, 1188.000
1087.788, 1216.000
1088.886, 1222.000
1089.984, 1193.000
1091.082, 1217.000
1092.180, 1151.000
1093.277, 1088.000
1094.375, 1087.000
1095.472, 1038.000
1096.569, 1041.000
1097.666, 1026.000
1098.763, 993.0000
1099.860, 1015.000
1100.956, 1001.000
1102.053, 974.0000
1103.149, 1000.000
1104.245, 976.0000
1105.341, 1051.000
1106.436, 1015.000
1107.532, 1083.000
1108.627, 1088.000
1109.723, 1143.000
1110.818, 1121.000
1111.913, 1137.000
1113.007, 1121.000
1114.102, 1117.000
1115.197, 1043.000
1116.291, 1052.000
1117.385, 1022.000
1118.479, 988.0000
1119.573, 1027.000
1120.666, 1008.000
1121.760, 1023.000
1122.853, 1006.000
1123.947, 984.0000
1125.040, 1004.000
1126.132, 988.0000
1127.225, 983.0000
1128.318, 980.0000
1129.410, 955.0000
1130.502, 946.0000
1131.595, 1009.000
1132.687, 991.0000
1133.778, 1010.000
1134.870, 957.0000
1135.961, 958.0000
1137.053, 971.0000
1138.144, 1005.000
1139.235, 985.0000
1140.326, 1011.039
1141.416, 1027.414
1142.507, 1049.000
1143.597, 1065.000
1144.688, 1084.214
1145.778, 1130.000
1146.868, 1122.000
1147.957, 1138.000
1149.047, 1158.000
1150.136, 1115.000
1151.226, 1073.000
1152.315, 1058.000
1153.404, 1016.000
1154.493, 1006.000
1155.581, 1007.000
1156.670, 983.0000
1157.758, 992.0000
1158.846, 1016.000
1159.934, 973.0000
1161.022, 970.0000
1162.110, 973.0000
1163.198, 949.0000
1164.285, 977.0000
1165.372, 983.0000
1166.459, 926.0000
1167.546, 963.0000
1168.633, 945.0000
1169.720, 998.0000
1170.806, 1004.000
1171.892, 935.0000
1172.979, 923.0000
1174.065, 977.0000
1175.150, 950.0000
1176.236, 997.0000
1177.322, 967.0000
1178.407, 998.0000
1179.492, 983.0000
1180.577, 940.0000
1181.662, 942.0000
1182.747, 948.0000
1183.832, 967.0000
1184.916, 957.6901
1186.000, 977.0000
1187.084, 955.0000
1188.168, 941.0000
1189.252, 955.0000
1190.336, 982.0000
1191.419, 943.0000
1192.503, 968.0000
1193.586, 950.0000
1194.669, 961.0000
1195.752, 985.0000
1196.835, 946.0000
1197.917, 952.0000
1199.000, 995.0000
1200.082, 962.0000
1201.164, 953.0000
1202.246, 1007.000
1203.328, 968.0000
1204.409, 952.0000
1205.491, 957.0000
1206.572, 958.0000
1207.653, 965.8474
1208.734, 959.0000
1209.815, 985.0000
1210.896, 1013.000
1211.976, 1006.000
1213.057, 973.0000
1214.137, 969.0000
1215.217, 999.0000
1216.297, 1079.000
1217.377, 1047.261
1218.456, 1058.304
1219.536, 1021.000
1220.615, 1032.000
1221.694, 1006.000
1222.773, 1032.000
1223.852, 978.0000
1224.931, 1027.000
1226.009, 1026.000
1227.088, 1065.000
1228.166, 1018.000
1229.244, 1041.000
1230.322, 1038.000
1231.400, 1015.000
1232.477, 1039.000
1233.555, 1033.000
1234.632, 1066.000
1235.709, 1053.957
1236.786, 1049.000
1237.863, 1031.000
1238.939, 1008.000
1240.016, 982.0000
1241.092, 973.0000
1242.168, 1000.000
1243.245, 1028.000
1244.320, 1018.000
1245.396, 1021.000
1246.472, 1042.000
1247.547, 1034.000
1248.622, 1021.000
1249.697, 1036.000
