##NAMES=Zircon
##RRUFFID=R050488
##IDEAL CHEMISTRY=Zr^4+^SiO_4_
##LOCALITY=Sigulani Village, Tambani Area, Blantyre District, Nyassaland
##OWNER=RRUFF
##SOURCE=California Institute of Technology
##DESCRIPTION=Brown fragment
##STATUS=The identification of this mineral has been confirmed by X-ray diffraction and chemical analysis
##URL=rruff.info/R050488
##MEASURED CHEMISTRY=(Zr_0.99_Hf_0.01_)_Î£=1_Si_1.00_O_4_
##PIN_ID=L00554
##ORIENTATION=Laser parallel to c* (0 0 1). Fiducial mark perpendicular to laser is parallel to a [1 0 0]
63.41100, 181.0000
64.65300, 211.0000
65.89600, 811.0000
67.13800, 211.0000
68.38000, 164.0000
69.62200, 180.0000
70.86300, 171.0000
72.10500, 186.0000
73.34600, 171.0000
74.58700, 196.0000
75.82800, 190.0000
77.06900, 184.0000
78.30900, 183.0000
79.55000, 213.0000
80.79000, 298.0000
82.03000, 254.0859
83.27000, 368.0000
84.51000, 224.0000
85.74900, 234.0000
86.98900, 254.0000
88.22800, 275.0000
89.46700, 320.0000
90.70600, 391.0000
91.94400, 430.0000
93.18300, 486.0000
94.42100, 574.0000
95.65900, 689.0000
96.89700, 832.0000
98.13500, 1003.000
99.37300, 1174.000
100.6100, 1360.478
101.8480, 1659.000
103.0850, 1806.000
104.3220, 2113.000
105.5590, 2452.000
106.7950, 2715.000
108.0320, 3069.000
109.2680, 3366.000
110.5040, 3656.000
111.7400, 3954.000
112.9760, 4283.000
114.2120, 4533.000
115.4470, 4868.000
116.6820, 5152.995
117.9170, 5515.000
119.1520, 5727.000
120.3870, 5966.000
121.6220, 6216.000
122.8560, 6305.000
124.0900, 6488.000
125.3240, 6583.000
126.5580, 6814.000
127.7920, 7067.000
129.0260, 7167.000
130.2590, 7282.000
131.4920, 7375.000
132.7250, 7481.000
133.9580, 7649.000
135.1910, 7676.000
136.4230, 7813.000
137.6560, 7842.000
138.8880, 7789.000
140.1200, 8112.000
141.3520, 7946.000
142.5830, 8080.000
143.8150, 8041.000
145.0460, 8140.000
146.2770, 8302.000
147.5080, 8310.000
148.7390, 8289.000
149.9700, 8407.000
151.2000, 8436.000
152.4310, 8384.000
153.6610, 8421.000
154.8910, 8583.000
156.1210, 8527.000
157.3500, 8439.000
158.5800, 8605.000
159.8090, 8587.000
161.0380, 8785.000
162.2670, 8683.000
163.4960, 8753.000
164.7240, 8692.000
165.9530, 8711.000
167.1810, 8738.000
168.4090, 8745.000
169.6370, 8780.000
170.8650, 8830.000
172.0920, 8738.000
173.3200, 8829.000
174.5470, 8889.000
175.7740, 8875.000
177.0010, 8990.000
178.2280, 8825.000
179.4540, 8984.000
180.6810, 8918.000
181.9070, 8985.000
183.1330, 9064.000
184.3590, 8942.000
185.5850, 9065.000
186.8100, 9027.000
188.0350, 9098.000
189.2610, 9140.000
190.4860, 9162.000
191.7110, 9158.000
192.9350, 9304.000
194.1600, 9345.000
195.3840, 9284.000
196.6080, 9548.000
197.8320, 9409.000
199.0560, 9622.000
200.2800, 9633.000
201.5030, 9774.000
202.7270, 9772.000
203.9500, 9917.000
205.1730, 9867.000
206.3950, 9934.000
207.6180, 10018.00
208.8410, 9987.000
210.0630, 10135.00
211.2850, 10173.00
212.5070, 10381.00
213.7290, 10656.00
214.9500, 10781.00
216.1720, 10880.14
217.3930, 10959.00
218.6140, 10841.00
219.8350, 10738.00
221.0560, 10435.00
222.2770, 10398.00
223.4970, 10331.00
224.7170, 10459.00
225.9370, 10410.00
227.1570, 10409.00
228.3770, 10302.00
229.5970, 10351.00
230.8160, 10183.00
232.0350, 9997.000
233.2540, 9887.000
234.4730, 9925.000
235.6920, 9890.000
236.9110, 9850.000
238.1290, 9851.000
239.3470, 9863.000
240.5650, 9769.000
241.7830, 9845.000
243.0010, 10084.00
244.2180, 9836.000
245.4360, 10084.00
246.6530, 10078.00
247.8700, 9997.000
249.0870, 10043.00
250.3040, 10088.00
251.5200, 9987.000
252.7370, 9976.000
253.9530, 10034.00
255.1690, 9940.000
256.3850, 9986.000
257.6000, 10063.00
258.8160, 9978.000
260.0310, 10122.00
261.2460, 10022.00
262.4610, 10213.00
263.6760, 10287.00
264.8910, 10179.00
266.1050, 10274.00
267.3200, 10071.00
268.5340, 10234.00
269.7480, 10348.00
270.9620, 10275.00
272.1750, 10248.00
273.3890, 10297.00
274.6020, 10374.00
275.8150, 10289.00
277.0280, 10420.00
278.2410, 10343.00
279.4540, 10392.00
280.6660, 10385.00
281.8790, 10385.00
283.0910, 10405.41
284.3030, 10390.00
285.5140, 10419.00
286.7260, 10433.00
287.9380, 10436.00
289.1490, 10506.00
290.3600, 10489.00
291.5710, 10595.00
292.7820, 10608.00
293.9920, 10587.00
295.2030, 10507.00
296.4130, 10601.00
297.6230, 10667.00
298.8330, 10601.00
300.0430, 10609.00
301.2520, 10684.00
302.4620, 10678.00
303.6710, 10743.00
304.8800, 10673.00
306.0890, 10666.00
307.2980, 10804.00
308.5070, 10687.00
309.7150, 10658.00
310.9230, 10782.00
312.1310, 10941.00
313.3390, 10731.00
314.5470, 10983.00
315.7550, 10915.00
316.9620, 10901.00
318.1690, 10918.00
319.3760, 10885.00
320.5830, 11007.00
321.7900, 10854.00
322.9960, 10966.00
324.2030, 11027.00
325.4090, 10958.00
326.6150, 11146.00
327.8210, 11054.00
329.0270, 11077.00
330.2320, 11099.00
331.4380, 11099.00
332.6430, 11063.00
333.8480, 11201.00
335.0530, 11159.00
336.2580, 11184.00
337.4620, 11298.00
338.6670, 11259.00
339.8710, 11445.00
341.0750, 11448.96
342.2790, 11279.00
343.4820, 11523.00
344.6860, 11492.00
345.8890, 11503.00
347.0920, 11719.00
348.2960, 11916.00
349.4980, 12097.00
350.7010, 12298.00
351.9040, 12502.59
353.1060, 12651.00
354.3080, 12957.00
355.5100, 13198.00
356.7120, 13503.00
357.9140, 14021.00
359.1150, 13763.81
360.3170, 13786.00
361.5180, 13171.00
362.7190, 12997.00
363.9200, 12413.00
365.1200, 12221.00
366.3210, 11977.00
367.5210, 11945.00
368.7210, 11890.00
369.9210, 11780.00
371.1210, 11821.00
372.3210, 11878.00
373.5200, 11792.00
374.7200, 11876.00
375.9190, 11863.25
377.1180, 11775.00
378.3170, 11892.00
379.5150, 11838.00
380.7140, 11858.00
381.9120, 11770.00
383.1110, 11696.00
384.3090, 11895.00
385.5060, 11963.00
386.7040, 11886.00
387.9020, 12014.00
389.0990, 12036.00
390.2960, 12040.00
391.4930, 12131.00
392.6900, 12205.00
393.8860, 12210.00
395.0830, 12375.00
396.2790, 12259.00
397.4750, 12311.00
398.6710, 12247.00
399.8670, 12175.00
401.0630, 12192.00
402.2580, 12204.00
403.4540, 12139.00
404.6490, 12190.00
405.8440, 12363.00
407.0390, 12292.00
408.2330, 12301.00
409.4280, 12376.00
410.6220, 12340.00
411.8160, 12318.00
413.0100, 12358.00
414.2040, 12519.00
415.3980, 12351.00
416.5910, 12527.00
417.7850, 12340.00
418.9780, 12480.00
420.1710, 12589.00
421.3640, 12629.00
422.5560, 12583.00
423.7490, 12848.00
424.9410, 12911.00
426.1330, 12834.00
427.3250, 13018.00
428.5170, 13291.00
429.7090, 13426.00
430.9000, 13723.00
432.0910, 14104.00
433.2820, 14556.00
434.4730, 15048.00
435.6640, 15695.00
436.8550, 16570.00
438.0450, 17551.00
439.2360, 18249.00
440.4260, 18968.00
441.6160, 18957.00
442.8060, 18522.00
443.9950, 17601.00
445.1850, 16775.00
446.3740, 15896.00
447.5630, 15115.00
448.7520, 14478.00
449.9410, 14184.00
451.1300, 13985.00
452.3180, 13692.00
453.5060, 13514.00
454.6950, 13480.00
455.8830, 13264.00
457.0700, 13365.00
458.2580, 13264.00
459.4450, 13177.00
460.6330, 13174.00
461.8200, 13094.15
463.0070, 13113.00
464.1940, 13014.00
465.3800, 13037.00
466.5670, 13015.86
467.7530, 13039.52
468.9390, 13097.00
470.1250, 13113.00
471.3110, 13207.00
472.4970, 13199.00
473.6820, 13036.00
474.8680, 13086.00
476.0530, 13180.00
477.2380, 13317.00
478.4230, 13180.00
479.6070, 13192.00
480.7920, 13127.00
481.9760, 13357.00
483.1600, 13150.00
484.3440, 13281.00
485.5280, 13268.00
486.7120, 13269.00
487.8950, 13402.00
489.0780, 13355.00
490.2620, 13449.00
491.4450, 13347.00
492.6270, 13264.00
493.8100, 13273.00
494.9920, 13265.00
496.1750, 13519.00
497.3570, 13411.00
498.5390, 13581.00
499.7210, 13520.00
500.9020, 13396.00
502.0840, 13390.00
503.2650, 13575.00
504.4460, 13521.00
505.6270, 13516.00
506.8080, 13682.00
507.9890, 13442.00
509.1690, 13700.00
510.3500, 13672.00
511.5300, 13520.00
512.7100, 13671.00
513.8900, 13698.00
515.0690, 13689.00
516.2490, 13642.00
517.4280, 13639.00
518.6070, 13736.00
519.7860, 13674.00
520.9650, 13835.00
522.1440, 13698.00
523.3220, 13640.00
524.5010, 13839.00
525.6790, 13788.00
526.8570, 13854.52
528.0350, 13814.00
529.2130, 13898.00
530.3900, 13952.00
531.5670, 13884.00
532.7450, 13721.00
533.9220, 13813.00
535.0980, 13925.00
536.2750, 13925.00
537.4520, 14112.00
538.6280, 13945.00
539.8040, 14081.00
540.9800, 14011.00
542.1560, 14089.00
543.3320, 14050.00
544.5070, 14056.00
545.6830, 14161.00
546.8580, 14192.00
548.0330, 14184.00
549.2080, 14156.00
550.3830, 14247.00
551.5570, 14282.00
552.7310, 14201.00
553.9060, 14113.00
555.0800, 14316.00
556.2540, 14353.00
557.4270, 14447.00
558.6010, 14426.48
559.7740, 14510.00
560.9470, 14340.00
562.1210, 14346.00
563.2930, 14389.00
564.4660, 14435.00
565.6390, 14312.00
566.8110, 14287.00
567.9830, 14441.00
569.1550, 14317.00
570.3270, 14567.00
571.4990, 14506.00
572.6710, 14490.00
573.8420, 14598.00
575.0130, 14486.00
576.1840, 14505.00
577.3550, 14604.00
578.5260, 14563.00
579.6970, 14495.00
580.8670, 14630.72
582.0370, 14818.15
583.2070, 14931.29
584.3770, 14974.13
585.5470, 14736.11
586.7170, 14860.76
587.8860, 14840.05
589.0550, 14813.38
590.2240, 14989.06
591.3930, 14791.88
592.5620, 14964.35
593.7310, 14989.26
594.8990, 15081.68
596.0670, 15027.88
597.2350, 15019.23
598.4030, 15156.88
599.5710, 15213.52
600.7390, 15142.88
601.9060, 15239.59
603.0740, 15037.28
604.2410, 15097.36
605.4080, 15270.66
606.5740, 15207.33
607.7410, 15306.71
608.9080, 15344.14
610.0740, 15099.96
611.2400, 15345.48
612.4060, 15379.23
613.5720, 15195.52
614.7370, 15424.25
615.9030, 15270.52
617.0680, 15253.29
618.2330, 15338.81
619.3980, 15317.22
620.5630, 15464.49
621.7280, 15449.09
622.8920, 15419.14
624.0570, 15452.63
625.2210, 15306.37
626.3850, 15493.56
627.5490, 15452.97
628.7120, 15525.59
629.8760, 15623.89
631.0390, 15525.67
632.2020, 15324.00
633.3650, 15625.00
634.5280, 15533.00
635.6910, 15584.00
636.8530, 15446.00
638.0160, 15684.00
639.1780, 15536.00
640.3400, 15759.00
641.5020, 15767.00
642.6640, 15708.00
643.8250, 15825.00
644.9870, 15895.00
646.1480, 15772.00
647.3090, 15767.00
648.4700, 15841.00
649.6300, 15808.00
650.7910, 15881.00
651.9510, 15801.00
653.1120, 15751.00
654.2720, 15866.00
655.4320, 15954.00
656.5910, 15989.85
657.7510, 16007.00
658.9100, 16098.00
660.0690, 16059.00
661.2290, 16032.00
662.3880, 15902.00
663.5460, 15993.00
664.7050, 15973.00
665.8630, 16027.00
667.0220, 15993.00
668.1800, 16048.17
669.3380, 16116.00
670.4950, 16127.00
671.6530, 16114.00
672.8100, 16114.00
673.9680, 16045.00
675.1250, 16113.00
676.2820, 16066.00
677.4390, 16165.00
678.5950, 16085.00
679.7520, 16237.00
680.9080, 16346.00
682.0640, 16225.00
683.2200, 16349.00
684.3760, 16330.00
685.5320, 16314.00
686.6870, 16377.00
687.8420, 16373.00
688.9980, 16359.72
690.1530, 16414.57
691.3070, 16330.00
692.4620, 16473.00
693.6170, 16500.00
694.7710, 16497.00
695.9250, 16670.00
697.0790, 16580.00
698.2330, 16617.00
699.3870, 16597.00
700.5400, 16741.00
701.6940, 16671.54
702.8470, 16738.31
704.0000, 16725.21
705.1530, 16775.00
706.3050, 16642.00
707.4580, 16585.00
708.6100, 16477.00
709.7630, 16732.00
710.9150, 16724.00
712.0660, 16779.00
713.2180, 16658.00
714.3700, 16690.00
715.5210, 16928.00
716.6720, 16646.12
717.8240, 16835.12
718.9740, 16949.80
720.1250, 16994.20
721.2760, 16757.74
722.4260, 16883.93
723.5770, 16864.79
724.7270, 16839.68
725.8770, 17016.92
727.0260, 16821.27
728.1760, 16995.30
729.3250, 17021.75
730.4750, 17115.75
731.6240, 17063.50
732.7730, 17056.41
733.9220, 17195.61
735.0700, 17253.79
736.2190, 17184.71
737.3670, 17282.96
738.5150, 17082.20
739.6630, 17143.83
740.8110, 17318.68
741.9590, 17256.92
743.1060, 17357.84
744.2540, 17396.82
745.4010, 17154.19
746.5480, 17401.26
747.6950, 17436.56
748.8410, 17254.39
749.9880, 17484.68
751.1340, 17332.49
752.2800, 17316.81
753.4260, 17403.88
754.5720, 17383.84
755.7180, 17532.66
756.8640, 17518.81
758.0090, 17490.41
759.1540, 17525.43
760.2990, 17380.72
761.4440, 17569.46
762.5890, 17530.42
763.7340, 17604.60
764.8780, 17704.43
766.0220, 17607.76
767.1660, 17719.12
768.3100, 17507.88
769.4540, 17788.00
770.5980, 17767.00
771.7410, 18018.00
772.8840, 17727.00
774.0280, 17896.00
775.1700, 17926.00
776.3130, 17829.00
777.4560, 17902.00
778.5980, 17985.00
779.7410, 17840.00
780.8830, 17920.00
782.0250, 18123.00
783.1670, 18023.00
784.3080, 17990.00
785.4500, 18221.00
786.5910, 18047.00
787.7320, 18001.00
788.8730, 18068.00
790.0140, 18281.00
791.1550, 18173.00
792.2950, 18172.00
793.4360, 18224.00
794.5760, 18215.00
795.7160, 18252.74
796.8560, 18267.00
797.9960, 18319.00
799.1350, 18278.00
800.2750, 18314.00
801.4140, 18463.00
802.5530, 18224.00
803.6920, 18290.00
804.8310, 18508.00
805.9690, 18397.00
807.1080, 18362.00
808.2460, 18525.00
809.3840, 18427.00
810.5220, 18483.00
811.6600, 18630.00
812.7970, 18515.00
813.9350, 18516.00
815.0720, 18568.00
816.2090, 18590.00
817.3460, 18677.00
818.4830, 18648.00
819.6200, 18742.89
820.7560, 18705.00
821.8930, 18857.00
823.0290, 18840.00
824.1650, 18814.00
825.3010, 18729.00
826.4360, 18904.00
827.5720, 19026.00
828.7070, 18995.00
829.8420, 18882.00
830.9770, 18961.00
832.1120, 18959.00
833.2470, 18927.00
834.3820, 19117.00
835.5160, 19110.00
836.6500, 19025.00
837.7840, 19111.00
838.9180, 19172.00
840.0520, 19016.00
841.1860, 19204.00
842.3190, 19174.00
843.4520, 19188.00
844.5850, 19182.00
845.7180, 19294.00
846.8510, 19419.00
847.9840, 19295.00
849.1160, 19283.00
850.2490, 19167.00
851.3810, 19149.00
852.5130, 19432.00
853.6450, 19393.00
854.7760, 19492.00
855.9080, 19307.00
857.0390, 19407.00
858.1700, 19386.00
859.3010, 19291.00
860.4320, 19464.00
861.5630, 19497.00
862.6930, 19730.00
863.8240, 19664.00
864.9540, 19673.00
866.0840, 19579.00
867.2140, 19670.00
868.3440, 19616.00
869.4730, 19609.48
870.6030, 19797.00
871.7320, 19672.00
872.8610, 19749.00
873.9900, 19968.00
875.1190, 19765.00
876.2470, 19930.00
877.3760, 19729.00
878.5040, 19675.00
879.6320, 19803.00
880.7600, 19751.94
881.8880, 19944.10
883.0150, 20061.95
884.1430, 20109.52
885.2700, 19876.21
886.3970, 20005.58
887.5240, 19989.60
888.6510, 19967.66
889.7780, 20148.07
890.9040, 19955.59
892.0310, 20132.79
893.1570, 20162.41
894.2830, 20259.56
895.4090, 20210.47
896.5350, 20206.56
897.6600, 20348.91
898.7860, 20410.28
899.9110, 20344.34
901.0360, 20268.00
902.1610, 20437.00
903.2860, 20434.00
904.4100, 20461.00
905.5350, 20350.00
906.6590, 20405.00
907.7830, 20462.00
908.9070, 20360.00
910.0310, 20450.13
911.1540, 20455.89
912.2780, 20519.00
913.4010, 20567.00
914.5240, 20595.00
915.6470, 20727.00
916.7700, 20572.00
917.8930, 20570.00
919.0150, 20917.00
920.1380, 20680.00
921.2600, 20805.00
922.3820, 20809.00
923.5040, 20820.00
924.6260, 20905.00
925.7470, 20791.00
926.8690, 20786.00
927.9900, 20888.00
929.1110, 20884.00
930.2320, 20886.00
931.3530, 20861.00
932.4730, 21075.00
933.5940, 20914.00
934.7140, 21154.00
935.8340, 20900.00
936.9540, 20964.00
938.0740, 21108.00
939.1930, 21219.00
940.3130, 21270.00
941.4320, 21252.00
942.5510, 21291.00
943.6700, 21281.00
944.7890, 21229.00
945.9080, 21273.00
947.0260, 21503.00
948.1450, 21399.00
949.2630, 21581.00
950.3810, 21351.00
951.4990, 21509.00
952.6170, 21581.00
953.7340, 21552.00
954.8520, 21523.00
955.9690, 21419.00
957.0860, 21668.00
958.2030, 21709.00
959.3200, 21729.00
960.4360, 21965.00
961.5530, 22956.00
962.6690, 23511.00
963.7850, 23414.00
964.9010, 22603.00
966.0170, 22266.00
967.1330, 22332.00
968.2480, 22263.00
969.3630, 22340.00
970.4790, 22693.00
971.5940, 22896.00
972.7080, 23325.00
973.8230, 24201.00
974.9380, 25009.00
976.0520, 25271.00
977.1660, 25144.00
978.2800, 24265.00
979.3940, 23636.00
980.5080, 23187.00
981.6220, 23009.00
982.7350, 22759.00
983.8480, 22579.00
984.9610, 22670.00
986.0740, 22568.00
987.1870, 22523.00
988.3000, 22561.00
989.4120, 22450.00
990.5250, 22530.44
991.6370, 22617.00
992.7490, 22652.00
993.8610, 22969.00
994.9720, 23062.00
996.0840, 23289.00
997.1950, 23400.00
998.3060, 23547.00
999.4170, 24058.00
1000.528, 24706.00
1001.639, 25293.00
1002.750, 26783.00
1003.860, 28390.00
1004.970, 30430.00
1006.080, 33709.00
1007.190, 37678.00
1008.300, 42143.00
1009.410, 44875.00
1010.519, 43594.00
1011.628, 39560.00
1012.738, 34384.00
1013.846, 30323.00
1014.955, 27529.00
1016.064, 25891.00
1017.172, 24920.00
1018.281, 24391.00
1019.389, 24309.00
1020.497, 23799.00
1021.605, 23764.00
1022.713, 23511.00
1023.820, 23414.00
1024.928, 23377.45
1026.035, 23390.00
1027.142, 23312.00
1028.249, 23319.00
1029.356, 23251.92
1030.462, 23341.65
1031.569, 23264.00
1032.675, 23476.00
1033.781, 23438.00
1034.887, 23348.00
1035.993, 23439.00
1037.098, 23381.32
1038.204, 23346.00
1039.309, 23384.00
1040.415, 23571.00
1041.520, 23611.00
1042.624, 23612.00
1043.729, 23646.00
1044.834, 23711.00
1045.938, 23791.00
1047.042, 23738.00
1048.146, 23736.00
1049.250, 23773.12
1050.354, 23611.00
1051.458, 23838.00
1052.561, 23713.00
1053.664, 23773.00
1054.767, 23914.00
1055.870, 23990.00
1056.973, 23705.00
1058.076, 23856.00
1059.178, 23740.00
1060.281, 23849.00
1061.383, 23966.00
1062.485, 23767.00
1063.587, 23796.00
1064.688, 23878.52
1065.790, 24018.00
1066.891, 24121.00
1067.993, 24536.00
1069.094, 24787.00
1070.195, 24726.00
1071.295, 24386.00
1072.396, 24820.00
1073.496, 24178.00
1074.597, 24190.00
1075.697, 24333.00
1076.797, 24256.00
1077.897, 24332.00
1078.996, 24387.00
1080.096, 24626.00
1081.195, 24615.00
1082.294, 24643.00
1083.393, 24626.00
1084.492, 24467.00
1085.591, 24602.00
1086.689, 24806.00
1087.788, 24857.00
1088.886, 25546.00
1089.984, 25471.00
1091.082, 25230.00
1092.180, 25054.00
1093.277, 24745.00
1094.375, 24902.00
1095.472, 24648.00
1096.569, 24920.00
1097.666, 25005.00
1098.763, 24973.00
1099.860, 25135.00
1100.956, 25115.92
1102.053, 25115.44
1103.149, 25094.00
1104.245, 25105.00
1105.341, 24981.00
1106.436, 25045.00
1107.532, 25041.00
1108.627, 25343.00
1109.723, 25202.00
1110.818, 25333.00
1111.913, 25239.00
1113.007, 25224.00
1114.102, 25255.00
1115.197, 25282.00
1116.291, 25545.00
1117.385, 25448.00
1118.479, 25605.00
1119.573, 25208.00
1120.666, 25422.00
1121.760, 25504.00
1122.853, 25416.00
1123.947, 25782.00
1125.040, 25262.00
1126.132, 25654.00
1127.225, 25764.00
1128.318, 25535.00
1129.410, 25435.00
1130.502, 25658.00
1131.595, 25658.00
1132.687, 25665.00
1133.778, 25677.00
1134.870, 25740.84
1135.961, 25723.00
1137.053, 25876.00
1138.144, 25977.00
1139.235, 26014.00
1140.326, 25980.00
1141.416, 25944.00
1142.507, 25939.00
1143.597, 26061.00
1144.688, 26220.00
1145.778, 26197.00
1146.868, 26116.00
1147.957, 26038.00
1149.047, 26066.00
1150.136, 26094.00
1151.226, 26345.00
1152.315, 26142.00
1153.404, 26521.00
1154.493, 26282.00
1155.581, 26104.00
1156.670, 26333.00
1157.758, 26391.00
1158.846, 26218.00
1159.934, 26391.00
1161.022, 26218.00
1162.110, 26247.00
1163.198, 26461.00
1164.285, 26466.00
1165.372, 26474.00
1166.459, 26603.00
1167.546, 26670.00
1168.633, 26502.00
1169.720, 26552.00
1170.806, 26528.00
1171.892, 26647.00
1172.979, 26527.00
1174.065, 26836.00
1175.150, 26581.00
1176.236, 26582.00
1177.322, 26998.00
1178.407, 26920.00
1179.492, 26912.00
1180.577, 26769.00
1181.662, 26876.00
1182.747, 26806.00
1183.832, 26820.00
1184.916, 26975.00
1186.000, 26744.00
1187.084, 27098.00
1188.168, 26972.00
1189.252, 27107.00
1190.336, 27076.00
1191.419, 26977.00
1192.503, 27117.00
1193.586, 27211.00
1194.669, 27357.00
1195.752, 27220.00
1196.835, 27370.00
1197.917, 27159.00
1199.000, 27237.00
1200.082, 27090.00
1201.164, 27369.00
1202.246, 27381.00
1203.328, 27180.00
1204.409, 27462.00
1205.491, 27515.00
1206.572, 27599.00
1207.653, 27412.00
1208.734, 27482.00
1209.815, 27393.00
1210.896, 27651.00
1211.976, 27556.00
1213.057, 27677.00
1214.137, 27675.00
1215.217, 27586.00
1216.297, 27714.00
1217.377, 27656.00
1218.456, 27747.00
1219.536, 27800.00
1220.615, 27942.00
1221.694, 27905.00
1222.773, 27970.57
1223.852, 27852.00
1224.931, 28012.00
1226.009, 27929.00
1227.088, 27947.00
1228.166, 27750.00
1229.244, 27948.00
1230.322, 27974.00
1231.400, 27913.00
1232.477, 28128.00
1233.555, 28175.00
1234.632, 28030.00
1235.709, 28267.00
1236.786, 28270.00
1237.863, 27961.00
1238.939, 28195.00
1240.016, 28212.00
1241.092, 28191.00
1242.168, 28005.00
1243.245, 28360.00
1244.320, 28277.00
1245.396, 28695.00
1246.472, 28417.00
1247.547, 28415.00
