##NAMES=Zircon
##RRUFFID=R050034
##IDEAL CHEMISTRY=Zr^4+^SiO_4_
##LOCALITY=Oaxaca, Mexico
##OWNER=RRUFF
##SOURCE=University of Arizona Mineral Museum
##DESCRIPTION=Reddish brown single crystal fragments
##STATUS=The identification of this mineral has been confirmed by X-ray diffraction and chemical analysis
##URL=rruff.info/R050034
##MEASURED CHEMISTRY=Zr_1.00_Si_1.00_O_4_
243.3418, 19721.33
245.0473, 19869.14
246.7529, 20088.82
248.4584, 20292.08
250.1640, 20491.48
251.8695, 20742.72
253.5751, 20895.10
255.2806, 21122.23
256.9862, 21393.27
258.6917, 21699.59
260.3973, 22031.37
262.1028, 22388.79
263.8084, 22815.93
265.5139, 23302.41
267.2195, 23593.39
268.9250, 23907.16
270.6306, 24336.48
272.3362, 24603.72
274.0417, 24959.31
275.7473, 25295.64
277.4528, 25556.93
279.1584, 26051.36
280.8639, 26270.83
282.5695, 26422.73
284.2750, 26636.26
285.9806, 26889.48
287.6861, 27146.82
289.3917, 27422.16
291.0972, 27713.93
292.8028, 28159.98
294.5084, 28530.72
296.2139, 28864.69
297.9195, 29306.71
299.6250, 29672.23
301.3305, 30028.93
303.0361, 30402.43
304.7417, 30765.36
306.4472, 30976.06
308.1528, 31198.65
309.8583, 31479.06
311.5639, 31505.69
313.2694, 31472.59
314.9750, 31378.65
316.6805, 31139.81
318.3861, 30736.62
320.0916, 30419.08
321.7972, 30128.67
323.5027, 29864.64
325.2083, 29526.05
326.9138, 29263.71
328.6194, 29007.59
330.3250, 28700.03
332.0305, 28497.60
333.7361, 28325.55
335.4416, 28186.90
337.1472, 28200.88
338.8527, 27993.60
340.5583, 28100.31
342.2638, 28340.55
343.9694, 28672.05
345.6749, 29095.24
347.3805, 29832.20
349.0860, 30801.52
350.7916, 32389.24
352.4971, 33685.35
354.2027, 34391.35
355.9082, 34698.46
357.6138, 33698.11
359.3193, 32186.15
361.0249, 30773.57
362.7304, 29400.51
364.4360, 28329.95
366.1415, 27592.41
367.8471, 27127.80
369.5526, 26791.39
371.2582, 26435.44
372.9637, 26141.33
374.6693, 25942.99
376.3748, 25791.03
378.0804, 25654.50
379.7859, 25468.13
381.4915, 25270.46
383.1971, 25054.63
384.9026, 24766.02
386.6082, 24390.09
388.3137, 24052.38
390.0193, 23700.16
391.7248, 23174.73
393.4304, 22537.69
395.1359, 22130.25
396.8415, 21756.80
398.5470, 21131.39
400.2526, 20735.72
401.9581, 20457.79
403.6637, 20188.36
405.3692, 19799.72
407.0748, 19590.50
408.7803, 19464.89
410.4859, 19339.56
412.1914, 19146.91
413.8970, 19001.10
415.6025, 18909.17
417.3081, 18832.59
419.0137, 18768.20
420.7192, 18714.54
422.4248, 18775.54
424.1303, 18852.30
425.8359, 18933.01
427.5414, 19316.34
429.2470, 19602.13
430.9525, 19999.27
432.6581, 20541.97
434.3636, 21423.78
436.0692, 21759.68
437.7747, 21814.43
439.4803, 21591.73
441.1859, 20795.94
442.8914, 20025.05
444.5970, 19236.93
446.3025, 18450.65
448.0081, 17732.65
449.7136, 17310.46
451.4192, 16987.92
453.1247, 16683.45
454.8303, 16298.75
456.5358, 16137.57
458.2414, 16010.30
459.9469, 15880.34
461.6525, 15727.20
463.3580, 15525.13
465.0636, 15461.21
466.7691, 15359.99
468.4747, 15186.99
470.1802, 15182.75
471.8858, 14996.14
473.5913, 14889.74
475.2969, 14839.71
477.0024, 14518.52
478.7080, 14536.08
480.4135, 14492.83
482.1191, 14415.21
483.8246, 14312.75
485.5302, 14211.93
487.2357, 14158.07
488.9413, 14099.37
490.6469, 14003.85
492.3524, 13922.94
494.0580, 13905.65
495.7635, 13871.14
497.4691, 13810.01
499.1746, 13707.31
500.8802, 13748.83
502.5857, 13744.99
504.2913, 13713.43
505.9968, 13688.40
507.7024, 13737.88
509.4079, 13775.62
511.1135, 13779.78
512.8190, 13707.03
514.5246, 13696.80
516.2302, 13706.98
517.9357, 13738.83
519.6412, 13789.46
521.3468, 13757.68
523.0524, 13749.75
524.7579, 13785.86
526.4634, 13821.73
528.1690, 13742.55
529.8746, 13793.65
531.5801, 13823.91
533.2856, 13824.30
534.9912, 13778.51
536.6968, 13761.70
538.4023, 13772.15
540.1078, 13720.71
541.8134, 13637.08
543.5190, 13680.96
545.2245, 13636.10
546.9301, 13580.48
548.6356, 13523.01
550.3412, 13470.36
552.0468, 13485.24
553.7523, 13374.80
555.4578, 13317.00
557.1634, 13318.70
558.8690, 13302.41
560.5745, 13286.03
562.2800, 13304.14
563.9856, 13317.98
565.6912, 13287.83
567.3967, 13108.73
569.1022, 13190.65
570.8078, 13206.69
572.5134, 13151.90
574.2189, 13237.39
575.9244, 13160.31
577.6300, 13109.97
579.3356, 13114.31
581.0411, 13224.34
582.7466, 13246.81
584.4522, 13276.46
586.1578, 13286.15
587.8633, 13288.00
589.5689, 13357.28
591.2744, 13501.58
592.9800, 13596.31
594.6855, 13637.04
596.3911, 13605.09
598.0966, 13724.40
599.8022, 13733.97
601.5078, 13816.76
603.2133, 13935.20
604.9188, 14028.57
606.6244, 14097.31
608.3300, 14133.55
610.0355, 14184.44
611.7411, 14250.82
613.4466, 14270.13
615.1522, 14532.07
616.8577, 14626.34
618.5633, 14639.27
620.2688, 14607.28
621.9744, 14594.33
623.6799, 14732.26
625.3855, 14795.94
627.0910, 14795.82
628.7966, 14758.72
630.5021, 14818.78
632.2077, 14901.52
633.9133, 14903.47
635.6188, 14819.32
637.3243, 14759.67
639.0299, 14813.85
640.7355, 14730.63
642.4410, 14640.59
644.1465, 14606.57
645.8521, 14600.92
647.5577, 14504.64
649.2632, 14340.54
650.9688, 14202.77
652.6743, 14203.35
654.3799, 14016.31
656.0854, 13780.80
657.7910, 13641.61
659.4965, 13543.22
661.2021, 13331.57
662.9077, 13090.26
664.6132, 12971.21
666.3187, 12862.82
668.0243, 12738.81
669.7299, 12499.26
671.4354, 12268.66
673.1409, 12110.30
674.8465, 11965.18
676.5521, 11822.82
678.2576, 11628.72
679.9631, 11624.96
681.6687, 11476.13
683.3743, 11305.29
685.0798, 11165.86
686.7853, 11070.54
688.4909, 10929.20
690.1965, 10853.08
691.9020, 10760.26
693.6075, 10622.56
695.3131, 10601.01
697.0187, 10470.48
698.7242, 10380.10
700.4298, 10297.75
702.1353, 10209.24
703.8409, 10138.22
705.5464, 10025.78
707.2520, 9976.117
708.9575, 9941.355
710.6631, 9891.400
712.3687, 9799.354
714.0742, 9703.635
715.7797, 9665.977
717.4853, 9623.380
719.1909, 9537.648
720.8964, 9464.047
722.6020, 9443.473
724.3075, 9367.197
726.0131, 9288.343
727.7186, 9240.501
729.4241, 9203.844
731.1297, 9161.490
732.8353, 9081.777
734.5408, 9026.693
736.2464, 9018.824
737.9519, 8940.533
739.6575, 8833.711
741.3630, 8808.504
743.0686, 8805.259
744.7741, 8794.960
746.4797, 8721.462
748.1852, 8608.797
749.8908, 8616.272
751.5963, 8612.930
753.3019, 8573.812
755.0074, 8521.075
756.7130, 8483.369
758.4186, 8408.613
760.1241, 8410.012
761.8297, 8436.952
763.5352, 8338.981
765.2408, 8271.113
766.9463, 8287.223
768.6519, 8283.155
770.3574, 8258.401
772.0630, 8220.838
773.7685, 8141.775
775.4741, 8165.976
777.1796, 8154.353
778.8852, 8109.616
780.5908, 8046.741
782.2963, 8071.988
784.0018, 8016.693
785.7074, 7978.512
787.4130, 7973.446
789.1185, 7994.847
790.8240, 7998.668
792.5296, 7862.141
794.2352, 7819.927
795.9407, 7820.609
797.6462, 7829.347
799.3518, 7801.893
801.0574, 7635.318
802.7629, 7627.062
804.4684, 7628.507
806.1740, 7606.748
807.8796, 7547.384
809.5851, 7485.177
811.2906, 7425.022
812.9962, 7455.909
814.7018, 7424.620
816.4073, 7331.930
818.1129, 7252.545
819.8184, 7279.346
821.5240, 7315.725
823.2296, 7313.836
824.9351, 7283.242
826.6406, 7233.015
828.3462, 7135.458
830.0518, 7191.670
831.7573, 7167.244
833.4628, 7138.140
835.1684, 7130.778
836.8740, 7157.628
838.5795, 7083.273
840.2850, 7086.405
841.9906, 7054.476
843.6962, 7000.392
845.4017, 6957.820
847.1073, 7051.876
848.8128, 6993.735
850.5184, 6983.236
852.2239, 6985.095
853.9295, 6982.190
855.6350, 6963.018
857.3406, 7027.229
859.0461, 6913.189
860.7517, 6912.996
862.4572, 6953.942
864.1628, 6979.559
865.8683, 6921.632
867.5739, 6867.270
869.2795, 6915.196
870.9850, 6968.791
872.6906, 6955.265
874.3961, 6870.707
876.1017, 6886.964
877.8072, 6880.174
879.5128, 6959.381
881.2183, 6939.311
882.9239, 6873.986
884.6294, 6845.538
886.3350, 6876.546
888.0405, 6936.216
889.7461, 6930.026
891.4517, 6921.840
893.1572, 6915.564
894.8627, 6900.858
896.5683, 6887.615
898.2739, 6949.976
899.9794, 6895.750
901.6849, 6867.168
903.3905, 6897.605
905.0961, 6970.177
906.8016, 7017.971
908.5071, 6957.367
910.2127, 6974.209
911.9183, 7003.319
913.6238, 7010.773
915.3293, 6982.429
917.0349, 7025.826
918.7405, 7050.529
920.4460, 7047.608
922.1516, 7040.143
923.8571, 7031.647
925.5627, 7015.328
927.2682, 6971.622
928.9738, 6989.199
930.6793, 6985.494
932.3849, 6967.094
934.0905, 6939.574
935.7960, 6917.143
937.5015, 6999.296
939.2071, 6860.328
940.9127, 6893.306
942.6182, 6855.418
944.3237, 6816.763
946.0293, 6883.846
947.7349, 6881.507
949.4404, 6843.867
951.1459, 6853.640
952.8515, 6870.352
954.5571, 6880.327
956.2626, 6888.410
957.9681, 6938.247
959.6737, 7014.820
961.3793, 7064.369
963.0848, 7178.812
964.7903, 7362.863
966.4959, 7637.260
968.2015, 8043.664
969.9070, 8587.359
971.6126, 8933.561
973.3181, 9033.897
975.0237, 8874.976
976.7292, 8563.590
978.4348, 8250.404
980.1403, 7906.445
981.8459, 7732.064
983.5515, 7706.429
985.2570, 7697.273
986.9625, 7753.963
988.6681, 7925.596
990.3737, 8211.763
992.0792, 8567.834
993.7848, 9078.369
995.4903, 9942.507
997.1959, 11294.58
998.9014, 13334.60
1000.607, 16246.46
1002.312, 20406.80
1004.018, 23528.69
1005.724, 24007.07
1007.429, 22297.00
1009.135, 19202.73
1010.840, 15692.28
1012.546, 12724.97
1014.251, 10806.52
1015.957, 9822.441
1017.662, 9141.271
1019.368, 8684.927
1021.074, 8380.302
1022.779, 8168.189
1024.485, 8045.544
1026.190, 7911.501
1027.896, 7737.554
1029.601, 7688.655
1031.307, 7695.070
1033.012, 7675.140
1034.718, 7604.401
1036.424, 7637.839
1038.129, 7608.634
1039.835, 7635.241
1041.540, 7570.697
1043.246, 7540.082
1044.951, 7559.698
1046.657, 7574.925
1048.362, 7589.221
1050.068, 7536.335
1051.774, 7573.409
1053.479, 7583.677
1055.185, 7643.230
1056.890, 7667.375
1058.596, 7569.159
1060.301, 7657.797
1062.007, 7657.015
1063.712, 7629.835
1065.418, 7605.375
1067.124, 7632.870
1068.829, 7677.296
1070.535, 7683.758
1072.240, 7682.967
1073.946, 7599.418
1075.651, 7700.240
1077.357, 7777.085
1079.062, 7749.781
1080.768, 7699.255
1082.474, 7716.121
1084.179, 7774.883
1085.885, 7804.766
1087.590, 7855.339
1089.296, 7854.992
1091.001, 7825.233
1092.707, 7820.772
1094.412, 7840.874
1096.118, 7831.046
1097.823, 7831.266
1099.529, 7841.576
1101.234, 7887.816
1102.940, 7878.876
1104.646, 7858.028
1106.351, 7862.540
1108.057, 7893.485
1109.762, 7904.840
1111.468, 7877.432
1113.173, 7909.059
1114.879, 7923.090
1116.584, 7935.101
1118.290, 7902.380
1119.996, 7887.763
1121.701, 7995.758
1123.407, 8045.388
1125.112, 8023.679
1126.818, 8075.621
1128.523, 8054.723
1130.229, 8054.712
1131.934, 8092.448
1133.640, 8121.101
1135.346, 8098.032
1137.051, 8188.041
1138.757, 8169.427
1140.462, 8190.280
1142.168, 8176.828
1143.873, 8175.126
1145.579, 8216.309
1147.284, 8290.732
1148.990, 8341.124
1150.696, 8264.668
1152.401, 8279.677
1154.107, 8335.531
1155.812, 8362.770
1157.518, 8379.191
1159.223, 8413.202
1160.929, 8462.430
1162.634, 8498.169
1164.340, 8570.490
1166.046, 8569.912
1167.751, 8605.840
1169.457, 8680.199
1171.162, 8734.569
1172.868, 8790.104
1174.573, 8835.222
1176.279, 8838.934
1177.984, 8901.604
1179.690, 9109.573
1181.396, 9095.539
1183.101, 9130.255
1184.807, 9244.889
1186.512, 9352.879
1188.218, 9398.425
1189.923, 9407.333
1191.629, 9466.635
1193.334, 9627.484
1195.040, 9790.757
1196.745, 9873.846
1198.451, 10017.29
1200.157, 10175.24
1201.862, 10332.84
1203.568, 10456.79
1205.273, 10566.98
1206.979, 10843.94
1208.684, 10990.62
1210.390, 11031.40
1212.095, 11295.56
1213.801, 11459.82
1215.507, 11626.97
1217.212, 11821.66
1218.918, 11968.34
1220.623, 12053.46
1222.329, 12293.26
1224.034, 12570.42
1225.740, 12781.77
1227.445, 13206.65
1229.151, 13597.07
1230.857, 14003.17
1232.562, 14485.07
1234.268, 15055.55
1235.973, 15742.00
1237.679, 16654.02
1239.384, 17528.53
1241.090, 18682.03
1242.795, 20053.57
1244.501, 21494.83
1246.207, 23118.63
1247.912, 24688.82
1249.618, 26182.67
1251.323, 27682.99
1253.029, 29009.09
1254.734, 29792.45
1256.440, 29835.05
1258.145, 28907.52
1259.851, 27253.07
1261.557, 25789.37
1263.262, 24303.50
1264.968, 22705.02
1266.673, 21064.80
1268.379, 19527.69
1270.084, 18356.82
1271.790, 17302.06
1273.495, 16371.71
1275.201, 15709.14
1276.906, 14993.84
1278.612, 14383.66
1280.318, 13837.98
1282.023, 13352.05
1283.729, 12933.60
1285.434, 12593.02
1287.140, 12320.53
1288.845, 11997.83
1290.551, 11858.74
1292.256, 11596.74
1293.962, 11405.23
1295.667, 11273.21
1297.373, 11187.20
1299.079, 11066.30
1300.784, 10979.96
1302.490, 10960.16
1304.195, 10886.06
1305.901, 10877.66
1307.606, 10916.95
1309.312, 10945.37
1311.017, 11056.15
1312.723, 11007.12
1314.429, 11059.68
1316.134, 11202.15
1317.840, 11438.69
1319.545, 11629.72
1321.251, 11689.92
1322.956, 11854.31
1324.662, 12199.06
1326.367, 12422.60
1328.073, 12823.80
1329.779, 13164.82
1331.484, 13543.59
1333.190, 14138.61
1334.895, 14537.07
1336.601, 15074.39
1338.306, 15858.95
1340.012, 16667.78
1341.717, 17494.53
1343.423, 18357.78
1345.129, 19443.78
1346.834, 20492.54
1348.540, 22020.32
1350.245, 23406.98
1351.951, 24762.31
1353.656, 26351.19
1355.362, 28258.33
1357.067, 30470.87
1358.773, 33002.57
1360.479, 35829.30
1362.184, 39032.25
1363.890, 43159.08
1365.595, 48463.91
1367.301, 53934.08
1369.006, 60210.03
1370.712, 66225.80
1372.417, 72382.45
1374.123, 76477.89
1375.828, 78398.10
1377.534, 78023.43
1379.240, 74890.70
1380.945, 69655.22
1382.651, 63631.92
1384.356, 57075.98
1386.062, 50403.74
1387.767, 44967.18
1389.473, 39943.51
1391.178, 35977.61
1392.884, 32792.66
1394.589, 30102.36
1396.295, 27935.19
1398.001, 26079.30
1399.706, 24623.43
1401.412, 23509.23
1403.117, 22528.01
1404.823, 21634.96
1406.528, 20937.44
1408.234, 20349.28
1409.939, 19813.99
1411.645, 19156.00
1413.351, 18679.13
1415.056, 18406.53
1416.762, 18085.44
1418.467, 17812.41
1420.173, 17497.62
1421.878, 17398.13
1423.584, 17196.99
1425.289, 16941.44
1426.995, 16768.92
1428.701, 16603.25
1430.406, 16479.07
1432.112, 16304.99
1433.817, 16194.00
1435.523, 16248.12
1437.228, 16195.20
1438.934, 16186.26
1440.639, 16222.70
1442.345, 16357.84
1444.051, 16493.42
1445.756, 16663.81
1447.462, 16777.46
1449.167, 16937.92
1450.873, 17197.46
1452.578, 17466.72
1454.284, 17639.48
1455.989, 17684.87
1457.695, 17659.12
1459.401, 17638.21
1461.106, 17647.88
1462.812, 17813.45
1464.517, 17540.73
1466.223, 17344.64
1467.928, 17056.13
1469.634, 16827.76
1471.339, 16746.97
1473.045, 16413.05
1474.750, 16069.70
1476.456, 15910.67
1478.162, 15829.36
1479.867, 15676.63
1481.573, 15497.49
1483.278, 15377.80
1484.984, 15316.18
1486.689, 15271.54
1488.395, 15143.10
1490.100, 15164.02
1491.806, 15196.44
1493.512, 15230.67
1495.217, 15301.67
1496.923, 15307.48
1498.628, 15413.83
1500.334, 15617.68
1502.039, 15808.91
1503.745, 15827.58
1505.450, 16103.12
1507.156, 16227.79
1508.862, 16527.10
1510.567, 16819.69
1512.273, 17145.94
1513.978, 17563.00
1515.684, 17954.09
1517.389, 18457.73
1519.095, 19032.42
1520.800, 19546.56
1522.506, 19991.73
1524.212, 20340.85
1525.917, 20536.84
1527.623, 20604.01
1529.328, 20562.91
1531.034, 20361.44
1532.739, 19791.13
1534.445, 19377.92
1536.150, 18725.98
1537.856, 18112.70
1539.562, 17565.49
1541.267, 16876.31
1542.973, 16447.79
1544.678, 16042.38
1546.384, 15479.08
1548.089, 15222.66
1549.795, 14924.58
1551.500, 14453.25
1553.206, 14215.50
1554.911, 14118.99
1556.617, 13964.38
1558.323, 13769.97
1560.028, 13579.90
1561.734, 13562.44
1563.439, 13414.10
1565.145, 13367.23
1566.850, 13235.14
1568.556, 13142.89
1570.261, 13248.66
1571.967, 13081.65
1573.672, 13208.48
1575.378, 13246.11
1577.084, 13441.69
1578.789, 13349.17
1580.495, 13331.44
1582.200, 13158.19
1583.906, 13256.28
1585.611, 13272.59
1587.317, 13142.35
1589.022, 13051.80
1590.728, 13054.07
1592.434, 13007.86
1594.139, 12945.01
1595.845, 12846.91
1597.550, 12768.76
1599.256, 12807.79
1600.961, 12808.48
1602.667, 12617.32
1604.372, 12623.99
1606.078, 12672.43
1607.784, 12492.52
1609.489, 12489.07
1611.195, 12432.27
1612.900, 12420.59
1614.606, 12491.32
1616.311, 12484.11
1618.017, 12395.64
1619.722, 12358.57
1621.428, 12260.26
1623.134, 12283.79
1624.839, 12324.26
1626.545, 12176.90
1628.250, 12271.76
1629.956, 12021.68
1631.661, 12018.60
1633.367, 11911.80
1635.072, 12040.64
1636.778, 11985.83
1638.484, 11966.63
1640.189, 11986.72
1641.895, 12030.64
1643.600, 12093.42
1645.306, 12075.42
1647.011, 11967.36
1648.717, 11949.45
1650.422, 11799.44
1652.128, 11894.97
1653.833, 11969.66
1655.539, 11944.37
1657.245, 11920.53
1658.950, 11874.50
1660.656, 11960.18
1662.361, 12000.05
1664.067, 11908.14
1665.772, 11998.27
1667.478, 12017.97
1669.183, 11992.14
1670.889, 12101.87
1672.595, 12170.48
1674.300, 12069.57
1676.006, 12254.49
1677.711, 12307.42
1679.417, 12360.30
1681.122, 12371.20
1682.828, 12442.59
1684.533, 12437.43
1686.239, 12664.04
1687.945, 12671.61
1689.650, 12653.34
1691.356, 12770.34
1693.061, 12839.96
1694.767, 12947.18
1696.472, 13022.27
1698.178, 13097.31
1699.883, 13157.74
1701.589, 13251.03
1703.294, 13347.97
1705.000, 13390.87
1706.706, 13494.26
1708.411, 13656.42
1710.117, 13712.16
1711.822, 13834.25
1713.528, 13959.48
1715.233, 14146.43
1716.939, 14123.75
1718.644, 14214.28
1720.350, 14345.96
1722.056, 14448.82
1723.761, 14638.58
1725.467, 14697.15
1727.172, 14779.99
1728.878, 14987.42
1730.583, 15187.86
1732.289, 15152.04
1733.994, 15192.09
1735.700, 15380.84
1737.406, 15418.88
1739.111, 15371.82
1740.817, 15629.22
1742.522, 15472.93
1744.228, 15426.11
1745.933, 15423.36
1747.639, 15510.49
1749.344, 15469.23
1751.050, 15461.60
1752.755, 15478.98
1754.461, 15550.14
1756.167, 15370.34
1757.872, 15403.72
1759.578, 15351.81
1761.283, 15209.73
1762.989, 15189.62
1764.694, 15167.57
1766.400, 15224.85
1768.105, 15184.91
1769.811, 15284.59
1771.517, 15320.76
1773.222, 15171.84
1774.928, 14967.12
1776.633, 14839.03
1778.339, 14962.40
1780.044, 14973.09
1781.750, 14737.02
1783.455, 14794.07
1785.161, 14759.32
1786.867, 14645.67
1788.572, 14686.00
1790.278, 14608.73
1791.983, 14612.60
1793.689, 14704.83
1795.394, 14548.55
1797.100, 14599.93
1798.805, 14663.14
1800.511, 14716.84
1802.217, 14777.14
1803.922, 14861.30
1805.628, 14838.89
1807.333, 14840.88
1809.039, 15071.04
1810.744, 15118.34
1812.450, 15229.63
1814.155, 15188.44
1815.861, 15344.99
1817.567, 15486.97
1819.272, 15831.88
1820.978, 16144.94
1822.683, 16260.78
1824.389, 16542.79
1826.094, 16949.82
1827.800, 17152.47
1829.505, 17447.06
1831.211, 17935.96
1832.917, 18223.77
1834.622, 18537.40
1836.328, 18987.38
1838.033, 19669.15
1839.739, 20084.97
1841.444, 20464.62
1843.150, 20931.91
1844.855, 21026.95
1846.561, 21641.88
1848.266, 21538.97
1849.972, 22103.45
1851.677, 22129.89
1853.383, 22096.29
1855.089, 22238.25
1856.794, 22433.11
1858.500, 22085.58
1860.205, 21865.02
1861.911, 21362.58
1863.616, 20955.30
1865.322, 20455.81
1867.027, 19938.05
1868.733, 19477.79
1870.439, 19081.06
1872.144, 18715.17
1873.850, 18367.70
1875.555, 18010.30
1877.261, 17529.25
1878.966, 17246.31
1880.672, 16911.98
1882.377, 16724.51
1884.083, 16438.68
1885.789, 16279.08
1887.494, 16190.13
1889.200, 15966.52
1890.905, 15801.42
1892.611, 15788.39
1894.316, 15803.09
1896.022, 15781.39
1897.727, 15790.55
1899.433, 15746.81
1901.139, 15692.02
1902.844, 15681.76
1904.550, 15793.27
1906.255, 15760.75
1907.961, 15733.19
1909.666, 15869.35
1911.372, 15980.93
1913.077, 16002.29
1914.783, 16054.33
1916.489, 16235.70
1918.194, 16243.50
1919.900, 16598.04
1921.605, 16536.94
1923.311, 16770.23
1925.016, 16930.81
1926.722, 17130.45
1928.427, 17064.54
1930.133, 17407.51
1931.839, 17561.41
1933.544, 17661.26
1935.250, 17873.15
1936.955, 18008.31
1938.661, 18279.90
1940.366, 18554.32
1942.072, 18640.70
1943.777, 18720.80
1945.483, 18897.84
1947.188, 19410.32
1948.894, 19666.39
1950.600, 19805.47
1952.305, 20313.38
1954.011, 20654.36
1955.716, 21178.52
1957.422, 21667.44
1959.127, 22044.00
1960.833, 22611.65
1962.538, 23041.22
1964.244, 23423.22
1965.950, 23662.13
1967.655, 23681.35
1969.361, 24135.22
1971.066, 24854.10
1972.772, 24770.71
1974.477, 24678.84
1976.183, 24578.63
1977.888, 24697.97
1979.594, 24717.47
1981.300, 24344.12
1983.005, 23736.76
1984.711, 23387.64
1986.416, 23159.99
1988.122, 22523.82
1989.827, 21967.10
1991.533, 21286.20
1993.238, 20807.17
1994.944, 20520.49
1996.649, 20004.24
1998.355, 19648.08
2000.061, 19253.49
2001.766, 18747.52
