##NAMES=Zircon
##RRUFFID=R050286
##IDEAL CHEMISTRY=Zr^4+^SiO_4_
##LOCALITY=Renfrew County, Ontario, Canada
##OWNER=RRUFF
##SOURCE=Marcus Origlieri
##DESCRIPTION=Brownish red prismatic crystal frozen in matrix, associated with apatite
##STATUS=The identification of this mineral has been confirmed by X-ray diffraction and chemical analysis
##URL=rruff.info/R050286
##MEASURED CHEMISTRY=Zr_1.00_Si_1.00_O_4_; trace amounts of Hf
##PIN_ID=L00926
##ORIENTATION=Laser parallel to a* (1 0 0). Fiducial mark perpendicular to laser is parallel to c [0 0 1]
63.41100, 64.00000
64.65300, 69.00000
65.89600, 81.00000
67.13800, 84.00000
68.38000, 79.00000
69.62200, 70.00000
70.86300, 78.00000
72.10500, 57.00000
73.34600, 72.00000
74.58700, 65.00000
75.82800, 73.00000
77.06900, 78.00000
78.30900, 75.00000
79.55000, 74.00000
80.79000, 103.0000
82.03000, 88.00000
83.27000, 76.00000
84.51000, 62.00000
85.74900, 94.00000
86.98900, 103.0000
88.22800, 123.0000
89.46700, 122.0000
90.70600, 124.0000
91.94400, 162.0000
93.18300, 188.0000
94.42100, 210.0000
95.65900, 256.0000
96.89700, 293.0000
98.13500, 349.1483
99.37300, 414.0000
100.6100, 480.0000
101.8480, 558.0000
103.0850, 639.0000
104.3220, 735.7308
105.5590, 858.0000
106.7950, 947.0000
108.0320, 1090.000
109.2680, 1205.000
110.5040, 1353.000
111.7400, 1434.000
112.9760, 1567.000
114.2120, 1650.000
115.4470, 1852.000
116.6820, 2104.000
117.9170, 2218.000
119.1520, 2420.000
120.3870, 2244.000
121.6220, 2272.000
122.8560, 2246.000
124.0900, 2328.000
125.3240, 2360.000
126.5580, 2444.000
127.7920, 2524.000
129.0260, 2509.000
130.2590, 2604.000
131.4920, 2712.000
132.7250, 2714.000
133.9580, 2733.000
135.1910, 2707.000
136.4230, 2780.000
137.6560, 2852.000
138.8880, 2842.000
140.1200, 2874.000
141.3520, 2867.000
142.5830, 2961.000
143.8150, 2893.000
145.0460, 2956.000
146.2770, 3033.000
147.5080, 3021.000
148.7390, 3036.000
149.9700, 3058.000
151.2000, 3063.000
152.4310, 3052.000
153.6610, 3153.000
154.8910, 3180.000
156.1210, 3164.000
157.3500, 3123.000
158.5800, 3175.000
159.8090, 3194.000
161.0380, 3259.000
162.2670, 3322.000
163.4960, 3320.000
164.7240, 3244.000
165.9530, 3297.000
167.1810, 3285.000
168.4090, 3264.000
169.6370, 3300.000
170.8650, 3311.000
172.0920, 3285.000
173.3200, 3310.000
174.5470, 3329.000
175.7740, 3340.000
177.0010, 3382.000
178.2280, 3358.000
179.4540, 3317.000
180.6810, 3315.000
181.9070, 3341.000
183.1330, 3362.000
184.3590, 3402.000
185.5850, 3375.000
186.8100, 3397.000
188.0350, 3473.000
189.2610, 3418.000
190.4860, 3466.000
191.7110, 3522.000
192.9350, 3617.000
194.1600, 3671.000
195.3840, 3781.365
196.6080, 3868.025
197.8320, 4002.000
199.0560, 4123.000
200.2800, 4235.000
201.5030, 4490.000
202.7270, 4690.000
203.9500, 4819.000
205.1730, 5070.000
206.3950, 5248.000
207.6180, 5644.000
208.8410, 5936.099
210.0630, 6254.000
211.2850, 6746.000
212.5070, 7143.000
213.7290, 7731.000
214.9500, 8172.000
216.1720, 8138.000
217.3930, 7904.000
218.6140, 7155.000
219.8350, 6555.000
221.0560, 5851.000
222.2770, 5522.000
223.4970, 5066.000
224.7170, 4835.000
225.9370, 4677.000
227.1570, 4557.000
228.3770, 4459.000
229.5970, 4369.000
230.8160, 4176.000
232.0350, 4021.000
233.2540, 3900.000
234.4730, 3803.188
235.6920, 3726.428
236.9110, 3709.000
238.1290, 3643.000
239.3470, 3669.000
240.5650, 3673.000
241.7830, 3637.000
243.0010, 3514.000
244.2180, 3579.000
245.4360, 3490.000
246.6530, 3571.000
247.8700, 3525.000
249.0870, 3553.000
250.3040, 3458.000
251.5200, 3477.000
252.7370, 3495.000
253.9530, 3427.000
255.1690, 3402.000
256.3850, 3452.000
257.6000, 3424.000
258.8160, 3437.000
260.0310, 3461.000
261.2460, 3363.000
262.4610, 3350.000
263.6760, 3466.000
264.8910, 3348.000
266.1050, 3377.000
267.3200, 3342.000
268.5340, 3445.000
269.7480, 3409.000
270.9620, 3613.203
272.1750, 3567.139
273.3890, 3559.878
274.6020, 3533.000
275.8150, 3489.000
277.0280, 3416.000
278.2410, 3426.000
279.4540, 3448.000
280.6660, 3489.000
281.8790, 3473.222
283.0910, 3435.000
284.3030, 3445.000
285.5140, 3468.000
286.7260, 3437.000
287.9380, 3368.000
289.1490, 3482.000
290.3600, 3400.000
291.5710, 3499.000
292.7820, 3459.000
293.9920, 3419.000
295.2030, 3424.000
296.4130, 3513.000
297.6230, 3436.000
298.8330, 3444.000
300.0430, 3500.000
301.2520, 3390.000
302.4620, 3422.000
303.6710, 3483.000
304.8800, 3466.000
306.0890, 3500.000
307.2980, 3476.000
308.5070, 3504.000
309.7150, 3514.000
310.9230, 3579.000
312.1310, 3537.000
313.3390, 3597.000
314.5470, 3581.000
315.7550, 3691.000
316.9620, 3638.000
318.1690, 3660.000
319.3760, 3728.000
320.5830, 3727.000
321.7900, 3728.000
322.9960, 3717.000
324.2030, 3676.000
325.4090, 3787.000
326.6150, 3600.000
327.8210, 3646.000
329.0270, 3757.000
330.2320, 3748.000
331.4380, 3736.000
332.6430, 3685.000
333.8480, 3756.000
335.0530, 3759.000
336.2580, 3817.000
337.4620, 3892.000
338.6670, 3893.000
339.8710, 3864.000
341.0750, 3846.000
342.2790, 4003.000
343.4820, 4108.000
344.6860, 4173.000
345.8890, 4219.000
347.0920, 4366.000
348.2960, 4498.000
349.4980, 4612.000
350.7010, 4694.000
351.9040, 4847.000
353.1060, 5027.000
354.3080, 5226.000
355.5100, 5298.000
356.7120, 5454.000
357.9140, 5394.000
359.1150, 5152.000
360.3170, 5087.000
361.5180, 4886.000
362.7190, 4694.000
363.9200, 4562.000
365.1200, 4449.000
366.3210, 4377.000
367.5210, 4293.744
368.7210, 4279.000
369.9210, 4208.848
371.1210, 4138.000
372.3210, 4161.000
373.5200, 4092.623
374.7200, 4128.000
375.9190, 4055.000
377.1180, 4088.000
378.3170, 4138.000
379.5150, 4133.000
380.7140, 4254.000
381.9120, 4243.000
383.1110, 4290.000
384.3090, 4322.000
385.5060, 4434.000
386.7040, 4470.000
387.9020, 4582.000
389.0990, 4686.000
390.2960, 4797.000
391.4930, 4803.000
392.6900, 5049.000
393.8860, 4928.000
395.0830, 5019.000
396.2790, 4966.498
397.4750, 4829.000
398.6710, 4773.000
399.8670, 4655.000
401.0630, 4517.000
402.2580, 4427.000
403.4540, 4523.000
404.6490, 4407.000
405.8440, 4498.000
407.0390, 4502.000
408.2330, 4387.000
409.4280, 4509.000
410.6220, 4493.000
411.8160, 4556.000
413.0100, 4592.000
414.2040, 4730.000
415.3980, 4864.000
416.5910, 4916.000
417.7850, 4959.000
418.9780, 5091.000
420.1710, 5257.084
421.3640, 5564.000
422.5560, 5743.000
423.7490, 5999.000
424.9410, 6380.000
426.1330, 6652.000
427.3250, 7220.000
428.5170, 7803.000
429.7090, 8222.000
430.9000, 9189.000
432.0910, 9978.000
433.2820, 11050.00
434.4730, 12233.00
435.6640, 13489.00
436.8550, 15098.00
438.0450, 16716.00
439.2360, 17945.00
440.4260, 18917.00
441.6160, 19036.00
442.8060, 18641.00
443.9950, 17317.00
445.1850, 15872.00
446.3740, 13796.00
447.5630, 12282.00
448.7520, 10830.00
449.9410, 9829.000
451.1300, 9084.000
452.3180, 8192.000
453.5060, 7420.000
454.6950, 7078.000
455.8830, 6613.000
457.0700, 6300.000
458.2580, 6113.000
459.4450, 5824.000
460.6330, 5690.000
461.8200, 5545.000
463.0070, 5468.000
464.1940, 5311.000
465.3800, 5288.000
466.5670, 5193.349
467.7530, 5009.000
468.9390, 5048.000
470.1250, 5014.000
471.3110, 4906.000
472.4970, 4882.000
473.6820, 4801.000
474.8680, 4835.000
476.0530, 4748.000
477.2380, 4680.000
478.4230, 4599.000
479.6070, 4550.000
480.7920, 4580.000
481.9760, 4558.000
483.1600, 4557.000
484.3440, 4408.000
485.5280, 4429.000
486.7120, 4353.000
487.8950, 4401.000
489.0780, 4402.000
490.2620, 4358.000
491.4450, 4378.000
492.6270, 4318.000
493.8100, 4301.464
494.9920, 4285.333
496.1750, 4244.000
497.3570, 4259.000
498.5390, 4237.000
499.7210, 4258.000
500.9020, 4159.000
502.0840, 4252.000
503.2650, 4321.000
504.4460, 4230.000
505.6270, 4278.000
506.8080, 4335.000
507.9890, 4246.000
509.1690, 4336.000
510.3500, 4265.000
511.5300, 4326.000
512.7100, 4327.000
513.8900, 4380.000
515.0690, 4235.000
516.2490, 4311.000
517.4280, 4372.000
518.6070, 4221.000
519.7860, 4253.000
520.9650, 4342.000
522.1440, 4355.000
523.3220, 4321.000
524.5010, 4361.000
525.6790, 4364.000
526.8570, 4350.000
528.0350, 4360.000
529.2130, 4390.000
530.3900, 4287.000
531.5670, 4242.000
532.7450, 4256.000
533.9220, 4242.000
535.0980, 4238.792
536.2750, 4277.000
537.4520, 4231.000
538.6280, 4263.000
539.8040, 4228.000
540.9800, 4287.000
542.1560, 4186.000
543.3320, 4245.000
544.5070, 4219.000
545.6830, 4312.000
546.8580, 4288.000
548.0330, 4212.000
549.2080, 4264.000
550.3830, 4243.000
551.5570, 4223.000
552.7310, 4313.000
553.9060, 4152.000
555.0800, 4182.000
556.2540, 4230.000
557.4270, 4175.000
558.6010, 4126.000
559.7740, 4244.000
560.9470, 4175.000
562.1210, 4120.000
563.2930, 4163.000
564.4660, 4126.000
565.6390, 4146.000
566.8110, 4137.000
567.9830, 4208.000
569.1550, 4158.000
570.3270, 4172.000
571.4990, 4170.511
572.6710, 4148.468
573.8420, 4154.000
575.0130, 4121.000
576.1840, 4127.000
577.3550, 4103.000
578.5260, 4160.000
579.6970, 4107.495
580.8670, 4248.000
582.0370, 4112.000
583.2070, 4068.000
584.3770, 4234.000
585.5470, 4185.000
586.7170, 4182.000
587.8860, 4087.808
589.0550, 4181.364
590.2240, 4234.735
591.3930, 4250.082
592.5620, 4113.515
593.7310, 4173.113
594.8990, 4154.095
596.0670, 4131.854
597.2350, 4219.060
598.4030, 4104.586
599.5710, 4190.057
600.7390, 4195.713
601.9060, 4237.896
603.0740, 4200.982
604.2410, 4188.497
605.4080, 4255.137
606.5740, 4277.964
607.7410, 4231.942
608.9080, 4276.448
610.0740, 4159.208
611.2400, 4183.901
612.4060, 4269.831
613.5720, 4227.785
614.7370, 4138.000
615.9030, 4213.000
617.0680, 4208.000
618.2330, 4237.000
619.3980, 4333.000
620.5630, 4321.000
621.7280, 4364.000
622.8920, 4358.144
624.0570, 4330.434
625.2210, 4315.000
626.3850, 4273.000
627.5490, 4246.000
628.7120, 4251.000
629.8760, 4261.036
631.0390, 4317.000
632.2020, 4321.000
633.3650, 4374.000
634.5280, 4399.000
635.6910, 4419.000
636.8530, 4467.000
638.0160, 4470.000
639.1780, 4549.000
640.3400, 4638.000
641.5020, 4663.171
642.6640, 4623.374
643.8250, 4733.000
644.9870, 4526.000
646.1480, 4486.000
647.3090, 4559.000
648.4700, 4478.000
649.6300, 4493.000
650.7910, 4459.000
651.9510, 4477.000
653.1120, 4426.000
654.2720, 4462.000
655.4320, 4477.000
656.5910, 4438.000
657.7510, 4508.000
658.9100, 4443.000
660.0690, 4378.000
661.2290, 4335.000
662.3880, 4351.136
663.5460, 4506.000
664.7050, 4394.000
665.8630, 4461.000
667.0220, 4429.000
668.1800, 4482.000
669.3380, 4474.000
670.4950, 4335.000
671.6530, 4434.000
672.8100, 4347.000
673.9680, 4414.000
675.1250, 4406.091
676.2820, 4401.000
677.4390, 4383.000
678.5950, 4353.206
679.7520, 4377.000
680.9080, 4216.619
682.0640, 4305.397
683.2200, 4353.993
684.3760, 4364.562
685.5320, 4223.219
686.6870, 4278.043
687.8420, 4254.253
688.9980, 4227.236
690.1530, 4309.669
691.3070, 4190.427
692.4620, 4271.124
693.6170, 4272.008
694.7710, 4309.423
695.9250, 4267.739
697.0790, 4250.486
698.2330, 4312.358
699.3870, 4330.417
700.5400, 4279.630
701.6940, 4319.368
702.8470, 4255.000
704.0000, 4277.000
705.1530, 4257.000
706.3050, 4337.000
707.4580, 4248.000
708.6100, 4320.000
709.7630, 4304.000
710.9150, 4319.000
712.0660, 4289.000
713.2180, 4306.000
714.3700, 4265.000
715.5210, 4332.000
716.6720, 4316.000
717.8240, 4234.000
718.9740, 4253.000
720.1250, 4307.000
721.2760, 4321.000
722.4260, 4344.000
723.5770, 4326.000
724.7270, 4309.000
725.8770, 4321.000
727.0260, 4233.000
728.1760, 4253.000
729.3250, 4284.756
730.4750, 4290.828
731.6240, 4375.000
732.7730, 4357.000
733.9220, 4360.000
735.0700, 4340.000
736.2190, 4297.000
737.3670, 4324.000
738.5150, 4254.000
739.6630, 4342.000
740.8110, 4332.000
741.9590, 4314.000
743.1060, 4341.000
744.2540, 4380.000
745.4010, 4354.179
746.5480, 4447.089
747.6950, 4499.815
748.8410, 4514.516
749.9880, 4377.304
751.1340, 4436.255
752.2800, 4416.593
753.4260, 4393.708
754.5720, 4480.269
755.7180, 4365.151
756.8640, 4449.977
758.0090, 4454.987
759.1540, 4496.527
760.2990, 4458.967
761.4440, 4445.838
762.5890, 4511.835
763.7340, 4534.019
764.8780, 4487.353
766.0220, 4531.213
767.1660, 4413.331
768.3100, 4437.380
769.4540, 4522.666
770.5980, 4479.977
771.7410, 4525.282
772.8840, 4537.074
774.0280, 4396.562
775.1700, 4520.922
776.3130, 4530.733
777.4560, 4422.927
778.5980, 4538.211
779.7410, 4446.620
780.8830, 4428.870
782.0250, 4466.691
783.1670, 4446.582
784.3080, 4517.806
785.4500, 4501.041
786.5910, 4476.415
787.7320, 4486.095
788.8730, 4398.559
790.0140, 4491.380
791.1550, 4494.000
792.2950, 4456.000
793.4360, 4490.000
794.5760, 4510.000
795.7160, 4620.000
796.8560, 4621.000
797.9960, 4628.109
799.1350, 4463.000
800.2750, 4588.000
801.4140, 4525.288
802.5530, 4485.000
803.6920, 4588.000
804.8310, 4535.000
805.9690, 4592.000
807.1080, 4502.000
808.2460, 4494.000
809.3840, 4488.000
810.5220, 4522.000
811.6600, 4569.000
812.7970, 4565.000
813.9350, 4582.000
815.0720, 4491.000
816.2090, 4540.000
817.3460, 4489.000
818.4830, 4542.000
819.6200, 4593.000
820.7560, 4603.000
821.8930, 4576.000
823.0290, 4553.000
824.1650, 4588.000
825.3010, 4618.000
826.4360, 4630.000
827.5720, 4651.493
828.7070, 4640.000
829.8420, 4676.000
830.9770, 4665.000
832.1120, 4676.000
833.2470, 4724.000
834.3820, 4730.000
835.5160, 4776.000
836.6500, 4813.702
837.7840, 4839.773
838.9180, 4861.203
840.0520, 4874.432
841.1860, 4874.000
842.3190, 4873.000
843.4520, 4853.000
844.5850, 4821.282
845.7180, 4795.000
846.8510, 4775.000
847.9840, 4735.000
849.1160, 4765.000
850.2490, 4785.000
851.3810, 4789.000
852.5130, 4782.000
853.6450, 4793.000
854.7760, 4792.000
855.9080, 4764.000
857.0390, 4778.000
858.1700, 4780.998
859.3010, 4817.154
860.4320, 4812.000
861.5630, 4894.000
862.6930, 4924.000
863.8240, 4916.000
864.9540, 4993.000
866.0840, 5035.000
867.2140, 5071.000
868.3440, 5114.000
869.4730, 5160.744
870.6030, 5250.000
871.7320, 5267.000
872.8610, 5267.000
873.9900, 5335.000
875.1190, 5308.503
876.2470, 5280.000
877.3760, 5280.000
878.5040, 5281.000
879.6320, 5251.000
880.7600, 5294.000
881.8880, 5210.000
883.0150, 5266.000
884.1430, 5287.000
885.2700, 5191.000
886.3970, 5197.000
887.5240, 5208.000
888.6510, 5177.000
889.7780, 5176.000
890.9040, 5215.000
892.0310, 5176.000
893.1570, 5252.000
894.2830, 5151.000
895.4090, 5207.000
896.5350, 5167.000
897.6600, 5185.000
898.7860, 5252.000
899.9110, 5170.000
901.0360, 5210.000
902.1610, 5212.000
903.2860, 5351.000
904.4100, 5252.000
905.5350, 5297.000
906.6590, 5272.000
907.7830, 5295.000
908.9070, 5286.000
910.0310, 5301.000
911.1540, 5314.810
912.2780, 5356.000
913.4010, 5335.000
914.5240, 5324.000
915.6470, 5311.272
916.7700, 5433.000
917.8930, 5337.000
919.0150, 5462.000
920.1380, 5488.000
921.2600, 5450.000
922.3820, 5394.000
923.5040, 5586.000
924.6260, 5472.000
925.7470, 5568.000
926.8690, 5595.000
927.9900, 5586.000
929.1110, 5550.000
930.2320, 5537.000
931.3530, 5579.000
932.4730, 5538.000
933.5940, 5654.000
934.7140, 5543.000
935.8340, 5515.000
936.9540, 5450.000
938.0740, 5581.000
939.1930, 5671.000
940.3130, 5511.000
941.4320, 5651.000
942.5510, 5659.000
943.6700, 5696.000
944.7890, 5789.000
945.9080, 5705.000
947.0260, 5706.000
948.1450, 5774.000
949.2630, 5823.000
950.3810, 5796.000
951.4990, 5763.000
952.6170, 5933.000
953.7340, 5906.000
954.8520, 5943.000
955.9690, 5964.000
957.0860, 6046.000
958.2030, 6146.000
959.3200, 6199.000
960.4360, 6308.197
961.5530, 6346.000
962.6690, 6519.000
963.7850, 6678.000
964.9010, 6816.000
966.0170, 7154.000
967.1330, 7525.000
968.2480, 8002.000
969.3630, 8664.000
970.4790, 9446.000
971.5940, 10589.00
972.7080, 11771.00
973.8230, 12695.00
974.9380, 13016.00
976.0520, 12243.00
977.1660, 11493.00
978.2800, 10390.00
979.3940, 9475.000
980.5080, 8922.000
981.6220, 8506.000
982.7350, 8263.000
983.8480, 8036.000
984.9610, 8024.000
986.0740, 7910.000
987.1870, 7980.000
988.3000, 8066.000
989.4120, 8337.000
990.5250, 8639.000
991.6370, 9046.000
992.7490, 9543.000
993.8610, 10110.00
994.9720, 10999.00
996.0840, 11915.00
997.1950, 13615.00
998.3060, 15682.00
999.4170, 18609.00
1000.528, 22137.00
1001.639, 26581.00
1002.750, 32315.00
1003.860, 39763.00
1004.970, 48696.00
1006.080, 57425.00
1007.190, 62409.00
1008.300, 61242.00
1009.410, 55311.00
1010.519, 45112.00
1011.628, 35558.00
1012.738, 28142.00
1013.846, 22730.00
1014.955, 18569.00
1016.064, 15906.00
1017.172, 13875.00
1018.281, 12218.00
1019.389, 11472.00
1020.497, 10415.00
1021.605, 9723.000
1022.713, 9135.000
1023.820, 8607.000
1024.928, 8239.000
1026.035, 7845.000
1027.142, 7641.000
1028.249, 7351.000
1029.356, 7156.000
1030.462, 6946.000
1031.569, 6908.000
1032.675, 6834.000
1033.781, 6594.000
1034.887, 6637.000
1035.993, 6521.000
1037.098, 6394.000
1038.204, 6320.000
1039.309, 6196.000
1040.415, 6249.000
1041.520, 6247.000
1042.624, 6159.000
1043.729, 6119.000
1044.834, 6055.825
1045.938, 6035.308
1047.042, 5945.000
1048.146, 5980.000
1049.250, 6000.000
1050.354, 5902.000
1051.458, 5915.000
1052.561, 5984.000
1053.664, 5975.000
1054.767, 5967.000
1055.870, 5966.573
1056.973, 5921.000
1058.076, 5898.000
1059.178, 5899.000
1060.281, 5827.000
1061.383, 5822.000
1062.485, 5798.000
1063.587, 5808.000
1064.688, 5817.000
1065.790, 5740.000
1066.891, 5828.000
1067.993, 5739.000
1069.094, 5781.000
1070.195, 5696.000
1071.295, 5654.000
1072.396, 5784.000
1073.496, 5738.000
1074.597, 5769.000
1075.697, 5809.000
1076.797, 5821.000
1077.897, 5768.000
1078.996, 5711.000
1080.096, 5789.000
1081.195, 5867.000
1082.294, 5797.000
1083.393, 5878.000
1084.492, 5904.000
1085.591, 5994.000
1086.689, 5987.000
1087.788, 5954.000
1088.886, 5919.000
1089.984, 5982.000
1091.082, 5956.000
1092.180, 5988.000
1093.277, 5859.000
1094.375, 6025.000
1095.472, 5926.642
1096.569, 5850.000
1097.666, 5875.000
1098.763, 5806.000
1099.860, 5834.000
1100.956, 5813.000
1102.053, 5783.000
1103.149, 5795.000
1104.245, 5778.914
1105.341, 5786.854
1106.436, 5781.000
1107.532, 5825.000
1108.627, 5842.000
1109.723, 5896.000
1110.818, 5892.877
1111.913, 5992.000
1113.007, 5847.000
1114.102, 5846.000
1115.197, 5729.000
1116.291, 5867.000
1117.385, 5849.000
1118.479, 5781.000
1119.573, 5743.000
1120.666, 5744.447
1121.760, 5676.000
1122.853, 5767.000
1123.947, 5694.000
1125.040, 5727.000
1126.132, 5726.000
1127.225, 5714.000
1128.318, 5750.000
1129.410, 5680.000
1130.502, 5806.000
1131.595, 5709.000
1132.687, 5755.000
1133.778, 5614.000
1134.870, 5751.000
1135.961, 5663.000
1137.053, 5684.000
1138.144, 5650.000
1139.235, 5627.000
1140.326, 5715.000
1141.416, 5796.000
1142.507, 5797.000
1143.597, 5825.000
1144.688, 5844.000
1145.778, 5821.000
1146.868, 5783.000
1147.957, 5740.000
1149.047, 5813.000
1150.136, 5860.000
1151.226, 5921.000
1152.315, 5818.000
1153.404, 5761.000
1154.493, 5718.000
1155.581, 5687.037
1156.670, 5761.000
1157.758, 5690.000
1158.846, 5713.000
1159.934, 5754.000
1161.022, 5724.000
1162.110, 5698.000
1163.198, 5616.000
1164.285, 5783.000
1165.372, 5513.000
1166.459, 5691.000
1167.546, 5616.000
1168.633, 5677.000
1169.720, 5738.000
1170.806, 5728.000
1171.892, 5709.000
1172.979, 5559.000
1174.065, 5525.000
1175.150, 5583.000
1176.236, 5653.000
1177.322, 5559.000
1178.407, 5592.000
1179.492, 5730.000
1180.577, 5613.000
1181.662, 5686.000
1182.747, 5699.000
1183.832, 5650.000
1184.916, 5720.000
1186.000, 5640.000
1187.084, 5716.000
1188.168, 5649.000
1189.252, 5650.000
1190.336, 5696.000
1191.419, 5737.000
1192.503, 5670.000
1193.586, 5650.000
1194.669, 5707.000
1195.752, 5704.000
1196.835, 5703.000
1197.917, 5792.000
1199.000, 5728.000
1200.082, 5697.000
1201.164, 5748.000
1202.246, 5730.467
1203.328, 5699.000
1204.409, 5737.000
1205.491, 5751.000
1206.572, 5756.220
1207.653, 5772.000
1208.734, 5782.000
1209.815, 5793.000
1210.896, 5795.000
1211.976, 5726.000
1213.057, 5798.000
1214.137, 5758.045
1215.217, 5819.000
1216.297, 5767.000
1217.377, 5784.000
1218.456, 5843.000
1219.536, 5761.000
1220.615, 5809.000
1221.694, 5889.000
1222.773, 5836.000
1223.852, 5820.000
1224.931, 5798.000
1226.009, 5796.000
1227.088, 5798.558
1228.166, 5793.000
1229.244, 5832.000
1230.322, 5844.000
1231.400, 5885.000
1232.477, 5838.000
1233.555, 5804.000
1234.632, 5798.000
1235.709, 5799.000
1236.786, 5914.000
1237.863, 5759.000
1238.939, 5880.000
1240.016, 5785.000
1241.092, 5854.000
1242.168, 5887.000
1243.245, 5896.000
1244.320, 5883.000
1245.396, 5856.000
1246.472, 5890.000
