##NAMES=Abhurite
##RRUFFID=R060227
##IDEAL CHEMISTRY=Sn^2+^_21_O_6_(OH)_14_Cl_16_
##LOCALITY=Wreck of the SS Cheerful, 14 miles NNW of St. Ives, Cornwall, England
##OWNER=RRUFF
##SOURCE=Michael Scott
##DESCRIPTION=Aggregate of tan colored platy crystals
##STATUS=The identification of this mineral is confirmed by single-crystal X-ray diffraction and chemical analysis.
##URL=rruff.info/R060227
##MEASURED CHEMISTRY=Sn^2+^_21.00_Cl_16.00_(OH)_14.00_O_6_; (OH) estimated by difference
91.82715, 8511.991
92.30927, 8360.948
92.79138, 8389.858
93.27350, 8527.466
93.75562, 8657.752
94.23773, 8758.342
94.71985, 8844.601
95.20197, 8913.393
95.68408, 8975.489
96.16620, 9018.394
96.64832, 9039.753
97.13043, 9042.593
97.61255, 9025.968
98.09467, 8987.147
98.57678, 8926.068
99.05890, 8824.702
99.54102, 8693.179
100.0231, 8555.295
100.5052, 8427.686
100.9874, 8315.699
101.4695, 8218.065
101.9516, 8137.776
102.4337, 8071.788
102.9158, 8025.574
103.3979, 8005.682
103.8801, 8005.401
104.3622, 8012.709
104.8443, 8017.064
105.3264, 8016.535
105.8085, 8039.268
106.2906, 8090.248
106.7728, 8152.197
107.2549, 8215.198
107.7370, 8278.203
108.2191, 8347.215
108.7012, 8429.271
109.1833, 8524.923
109.6655, 8626.104
110.1476, 8728.229
110.6297, 8835.790
111.1118, 8959.130
111.5939, 9103.983
112.0760, 9255.011
112.5582, 9409.158
113.0403, 9564.729
113.5224, 9686.838
114.0045, 9765.187
114.4866, 9798.688
114.9688, 9756.313
115.4509, 9599.380
115.9330, 9379.057
116.4151, 9109.607
116.8972, 8795.980
117.3793, 8464.096
117.8615, 8139.337
118.3436, 7810.058
118.8257, 7523.827
119.3078, 7278.406
119.7899, 7071.038
120.2720, 6902.979
120.7542, 6774.393
121.2363, 6679.896
121.7184, 6603.384
122.2005, 6551.677
122.6826, 6514.486
123.1647, 6496.958
123.6468, 6492.639
124.1290, 6493.791
124.6111, 6496.453
125.0932, 6500.262
125.5753, 6502.220
126.0574, 6499.757
126.5395, 6498.401
127.0217, 6502.829
127.5038, 6511.566
127.9859, 6517.470
128.4680, 6516.216
128.9501, 6506.942
129.4323, 6491.454
129.9144, 6469.810
130.3965, 6441.890
130.8786, 6407.244
131.3607, 6365.642
131.8428, 6318.303
132.3250, 6262.476
132.8071, 6201.428
133.2892, 6141.629
133.7713, 6083.390
134.2534, 6028.200
134.7355, 5980.318
135.2177, 5940.587
135.6998, 5908.438
136.1819, 5881.494
136.6640, 5860.487
137.1461, 5847.423
137.6282, 5844.536
138.1104, 5852.349
138.5925, 5864.580
139.0746, 5883.884
139.5567, 5905.600
140.0388, 5928.333
140.5209, 5951.899
141.0031, 5977.221
141.4852, 6006.214
141.9673, 6043.396
142.4494, 6071.766
142.9315, 6100.017
143.4136, 6115.915
143.8958, 6113.232
144.3779, 6089.813
144.8600, 6045.435
145.3421, 5978.911
145.8242, 5884.205
146.3063, 5774.372
146.7885, 5644.076
147.2706, 5500.300
147.7527, 5349.329
148.2348, 5191.978
148.7169, 5032.404
149.1990, 4876.133
149.6812, 4719.329
150.1633, 4571.713
150.6454, 4439.084
151.1275, 4318.835
151.6096, 4205.296
152.0917, 4097.036
152.5739, 3994.017
153.0560, 3893.024
153.5381, 3793.108
154.0202, 3699.510
154.5023, 3617.655
154.9844, 3548.057
155.4665, 3484.041
155.9487, 3423.481
156.4308, 3368.591
156.9129, 3321.413
157.3950, 3282.346
157.8771, 3251.621
158.3592, 3230.629
158.8414, 3222.602
159.3235, 3216.910
159.8056, 3209.997
160.2877, 3204.239
160.7698, 3201.188
161.2519, 3201.404
161.7341, 3205.678
162.2162, 3216.594
162.6983, 3239.650
163.1804, 3262.693
163.6625, 3284.518
164.1446, 3305.199
164.6268, 3324.622
165.1089, 3342.772
165.5910, 3359.875
166.0731, 3377.883
166.5552, 3399.623
167.0373, 3419.247
167.5195, 3436.898
168.0016, 3451.603
168.4837, 3461.815
168.9658, 3466.447
169.4479, 3465.534
169.9300, 3460.782
170.4122, 3454.890
170.8943, 3443.715
171.3764, 3422.066
171.8585, 3392.117
172.3406, 3363.230
172.8227, 3343.128
173.3049, 3330.746
173.7870, 3313.385
174.2691, 3286.171
174.7512, 3257.287
175.2333, 3231.854
175.7154, 3209.928
176.1976, 3193.546
176.6797, 3185.802
177.1618, 3185.041
177.6439, 3187.942
178.1260, 3192.647
178.6081, 3201.073
179.0903, 3216.295
179.5724, 3238.805
180.0545, 3266.830
180.5366, 3297.450
181.0187, 3332.403
181.5008, 3375.442
181.9830, 3428.595
182.4651, 3490.908
182.9472, 3560.596
183.4293, 3639.770
183.9114, 3723.654
184.3935, 3809.775
184.8757, 3898.064
185.3578, 3989.248
185.8399, 4084.009
186.3220, 4182.167
186.8041, 4279.280
187.2862, 4374.917
187.7684, 4470.286
188.2505, 4565.333
188.7326, 4660.331
189.2147, 4755.898
189.6968, 4851.993
190.1789, 4949.005
190.6611, 5046.149
191.1432, 5141.862
191.6253, 5239.816
192.1074, 5339.781
192.5895, 5442.403
193.0716, 5549.721
193.5538, 5662.870
194.0359, 5782.694
194.5180, 5905.695
195.0001, 6028.603
195.4822, 6156.658
195.9643, 6292.538
196.4465, 6435.755
196.9286, 6585.102
197.4107, 6738.978
197.8928, 6897.887
198.3749, 7059.712
198.8570, 7225.887
199.3392, 7393.435
199.8213, 7562.571
200.3034, 7732.947
200.7855, 7899.680
201.2676, 8061.171
201.7497, 8216.355
202.2319, 8355.313
202.7140, 8484.861
203.1961, 8593.944
203.6782, 8676.813
204.1603, 8733.765
204.6424, 8754.386
205.1246, 8725.998
205.6067, 8651.339
206.0888, 8535.006
206.5709, 8374.048
207.0530, 8172.996
207.5351, 7934.431
208.0173, 7653.741
208.4994, 7348.660
208.9815, 7019.278
209.4636, 6675.111
209.9457, 6335.456
210.4278, 6000.097
210.9100, 5673.845
211.3921, 5365.076
211.8742, 5075.433
212.3563, 4804.988
212.8384, 4552.136
213.3205, 4315.835
213.8027, 4095.584
214.2848, 3891.759
214.7669, 3704.024
215.2490, 3535.676
215.7311, 3391.372
216.2132, 3260.869
216.6954, 3138.882
217.1775, 3025.204
217.6596, 2919.079
218.1417, 2820.147
218.6238, 2728.361
219.1059, 2644.686
219.5881, 2571.345
220.0702, 2505.232
220.5523, 2446.112
221.0344, 2393.001
221.5165, 2344.119
221.9986, 2298.540
222.4808, 2256.392
222.9629, 2218.840
223.4450, 2189.480
223.9271, 2161.789
224.4092, 2132.734
224.8913, 2104.464
225.3735, 2081.006
225.8556, 2065.192
226.3377, 2056.445
226.8198, 2047.216
227.3019, 2036.675
227.7840, 2026.565
228.2662, 2015.908
228.7483, 2006.043
229.2304, 1999.546
229.7125, 1998.277
230.1946, 2001.673
230.6767, 2003.672
231.1589, 1999.695
231.6410, 1999.353
232.1231, 2006.703
232.6052, 2019.399
233.0873, 2032.577
233.5694, 2043.109
234.0516, 2051.810
234.5337, 2064.879
235.0158, 2084.008
235.4979, 2104.743
235.9800, 2125.382
236.4621, 2146.622
236.9443, 2170.595
237.4264, 2198.855
237.9085, 2230.338
238.3906, 2260.216
238.8727, 2288.072
239.3548, 2315.087
239.8370, 2339.885
240.3191, 2363.908
240.8012, 2390.871
241.2833, 2423.198
241.7654, 2459.126
242.2475, 2493.606
242.7297, 2526.298
243.2118, 2558.314
243.6939, 2588.535
244.1760, 2617.985
244.6581, 2649.877
245.1402, 2685.875
245.6224, 2724.685
246.1045, 2763.778
246.5866, 2802.832
247.0687, 2842.585
247.5508, 2884.253
248.0329, 2927.029
248.5151, 2968.747
248.9972, 3009.192
249.4793, 3047.789
249.9614, 3084.646
250.4435, 3120.378
250.9256, 3152.167
251.4078, 3180.141
251.8899, 3203.440
252.3720, 3219.300
252.8541, 3227.337
253.3362, 3226.025
253.8183, 3215.786
254.3005, 3196.805
254.7826, 3170.263
255.2647, 3137.294
255.7468, 3097.576
256.2289, 3049.149
256.7110, 2990.381
257.1931, 2923.501
257.6753, 2851.223
258.1574, 2773.919
258.6395, 2693.719
259.1216, 2610.236
259.6037, 2524.505
260.0858, 2441.124
260.5680, 2361.284
261.0501, 2283.423
261.5322, 2205.062
262.0143, 2127.068
262.4964, 2052.062
262.9785, 1982.088
263.4607, 1916.869
263.9428, 1852.733
264.4249, 1788.536
264.9070, 1728.015
265.3891, 1672.751
265.8712, 1621.817
266.3534, 1573.603
266.8355, 1526.744
267.3176, 1481.908
267.7997, 1441.934
268.2818, 1409.459
268.7639, 1378.085
269.2461, 1345.244
269.7282, 1311.844
270.2103, 1279.049
270.6924, 1247.261
271.1745, 1216.735
271.6566, 1188.866
272.1388, 1164.839
272.6209, 1141.958
273.1030, 1119.284
273.5851, 1097.142
274.0672, 1076.220
274.5493, 1056.746
275.0315, 1038.425
275.5136, 1020.738
275.9957, 1003.786
276.4778, 987.2568
276.9599, 970.9026
277.4420, 954.9401
277.9242, 939.6970
278.4063, 925.2121
278.8884, 911.1344
279.3705, 896.3522
279.8526, 879.4774
280.3347, 865.1829
280.8169, 855.4106
281.2990, 846.9787
281.7811, 837.8656
282.2632, 827.4863
282.7453, 816.2467
283.2274, 804.3917
283.7096, 790.8130
284.1917, 779.5337
284.6738, 771.2058
285.1559, 764.3766
285.6380, 759.0371
286.1201, 754.7327
286.6023, 750.0117
287.0844, 742.9443
287.5665, 732.7386
288.0486, 723.4827
288.5307, 714.5636
289.0128, 707.0426
289.4950, 702.1989
289.9771, 699.4421
290.4592, 696.8912
290.9413, 692.8058
291.4234, 687.0631
291.9055, 681.5155
292.3877, 675.7380
292.8698, 670.5555
293.3519, 666.4570
293.8340, 663.1803
294.3161, 660.1583
294.7982, 656.9988
295.2804, 653.7192
295.7625, 650.6927
296.2446, 647.1952
296.7267, 644.7807
297.2088, 644.5807
297.6909, 645.5023
298.1731, 646.0516
298.6552, 645.4233
299.1373, 643.7629
299.6194, 641.5947
300.1015, 638.1670
300.5836, 635.1381
301.0658, 632.2924
301.5479, 630.0683
302.0300, 629.1877
302.5121, 629.9004
302.9942, 631.3821
303.4763, 631.8978
303.9585, 630.4042
304.4406, 629.4749
304.9227, 629.2565
305.4048, 629.4875
305.8869, 629.9536
306.3690, 630.6084
306.8512, 631.5551
307.3333, 632.9399
307.8154, 634.8235
308.2975, 637.0516
308.7796, 639.8668
309.2617, 642.7828
309.7439, 645.5157
310.2260, 648.0492
310.7081, 650.5403
311.1902, 653.1899
311.6723, 656.1498
312.1544, 658.2474
312.6366, 658.7344
313.1187, 659.2398
313.6008, 659.8888
314.0829, 661.0556
314.5650, 663.4450
315.0471, 667.6315
315.5293, 673.4985
316.0114, 679.5255
316.4935, 687.1442
316.9756, 693.3628
317.4577, 696.5236
317.9398, 698.0801
318.4220, 700.1373
318.9041, 703.7670
319.3862, 708.5947
319.8683, 713.5121
320.3504, 719.0714
320.8326, 723.9110
321.3147, 726.9191
321.7968, 729.6847
322.2789, 733.9454
322.7610, 740.1876
323.2431, 747.4525
323.7253, 754.0297
324.2074, 759.3448
324.6895, 765.1290
325.1716, 771.8556
325.6537, 778.6712
326.1358, 785.2111
326.6180, 791.3253
327.1001, 796.8649
327.5822, 801.5541
328.0643, 805.0529
328.5464, 809.5338
329.0285, 815.7429
329.5107, 822.0812
329.9928, 827.7726
330.4749, 833.0228
330.9570, 838.5012
331.4391, 844.7839
331.9212, 851.7766
332.4034, 858.0438
332.8855, 863.6099
333.3676, 868.4144
333.8497, 871.6650
334.3318, 874.3193
334.8139, 877.5797
335.2961, 882.0123
335.7782, 887.5355
336.2603, 893.9784
336.7424, 903.8914
337.2245, 910.7477
337.7066, 911.8502
338.1888, 911.2681
338.6709, 912.2520
339.1530, 915.8008
339.6351, 921.1953
340.1172, 927.5783
340.5993, 935.5294
341.0815, 942.9517
341.5636, 949.5511
342.0457, 955.9039
342.5278, 962.0485
343.0099, 968.1685
343.4920, 974.7766
343.9742, 982.6504
344.4563, 991.9594
344.9384, 999.3656
345.4205, 1001.269
345.9026, 1004.766
346.3847, 1012.955
346.8669, 1023.975
347.3490, 1034.201
347.8311, 1041.179
348.3132, 1046.127
348.7953, 1054.021
349.2774, 1068.107
349.7596, 1080.198
350.2417, 1086.950
350.7238, 1092.124
351.2059, 1099.702
351.6880, 1111.038
352.1701, 1123.828
352.6523, 1134.190
353.1344, 1141.412
353.6165, 1148.337
354.0986, 1155.543
354.5807, 1162.341
355.0628, 1168.458
355.5450, 1173.784
356.0271, 1178.129
356.5092, 1181.165
356.9913, 1182.846
357.4734, 1184.177
357.9555, 1184.946
358.4377, 1185.569
358.9198, 1186.633
359.4019, 1187.677
359.8840, 1187.783
360.3661, 1186.391
360.8482, 1183.716
361.3304, 1180.408
361.8125, 1176.649
362.2946, 1171.835
362.7767, 1165.513
363.2588, 1158.242
363.7409, 1150.313
364.2231, 1141.659
364.7052, 1133.092
365.1873, 1126.536
365.6694, 1122.502
366.1515, 1115.323
366.6336, 1101.012
367.1158, 1085.176
367.5979, 1072.307
368.0800, 1062.346
368.5621, 1051.862
369.0442, 1037.440
369.5263, 1020.118
370.0085, 1005.239
370.4906, 994.2427
370.9727, 983.8727
371.4548, 971.8288
371.9369, 958.7294
372.4190, 945.7888
372.9012, 933.9767
373.3833, 922.3188
373.8654, 908.8809
374.3475, 893.3965
374.8296, 878.8688
375.3117, 867.0753
375.7939, 857.1558
376.2760, 847.9534
376.7581, 839.7952
377.2402, 831.1961
377.7223, 820.8477
378.2044, 809.0682
378.6866, 797.1486
379.1687, 785.1516
379.6508, 773.5220
380.1329, 762.8356
380.6150, 753.0795
381.0971, 743.6176
381.5793, 734.1721
382.0614, 724.8813
382.5435, 715.9320
383.0256, 707.3015
383.5077, 699.1423
383.9898, 691.6473
384.4720, 684.7563
384.9541, 677.5863
385.4362, 669.3339
385.9183, 661.5446
386.4004, 655.5706
386.8825, 650.9610
387.3647, 646.1976
387.8468, 640.7586
388.3289, 634.4630
388.8110, 626.4328
389.2931, 615.0049
389.7752, 605.5963
390.2574, 600.8085
390.7395, 597.9664
391.2216, 593.8561
391.7037, 587.7867
392.1858, 581.0702
392.6679, 575.2422
393.1501, 570.5185
393.6322, 565.6397
394.1143, 559.0402
394.5964, 553.6697
395.0785, 552.8197
395.5606, 554.8768
396.0428, 554.8316
396.5249, 549.1359
397.0070, 539.1937
397.4891, 532.3955
397.9712, 532.0236
398.4533, 530.9761
398.9355, 527.8695
399.4176, 523.9995
399.8997, 520.8646
400.3818, 518.9072
400.8639, 517.3455
401.3460, 514.9458
401.8282, 511.2319
402.3103, 508.0099
402.7924, 505.2625
403.2745, 502.9226
403.7566, 501.0406
404.2387, 499.5478
404.7209, 498.3140
405.2030, 497.3000
405.6851, 496.4490
406.1672, 495.3412
406.6493, 493.6130
407.1314, 492.1713
407.6136, 491.2558
408.0957, 490.6898
408.5778, 490.4190
409.0599, 490.4345
409.5420, 490.3254
410.0241, 489.2945
410.5063, 487.0775
410.9884, 485.3884
411.4705, 484.7458
411.9526, 484.5129
412.4347, 484.7347
412.9168, 485.1818
413.3990, 485.0252
413.8811, 482.9764
414.3632, 479.8015
414.8453, 478.6078
415.3274, 480.1672
415.8095, 481.8096
416.2917, 482.4031
416.7738, 482.1189
417.2559, 480.9059
417.7380, 478.3476
418.2201, 475.7193
418.7022, 474.2663
419.1844, 473.9019
419.6665, 473.9182
420.1486, 474.4951
420.6307, 474.8459
421.1128, 473.5461
421.5949, 470.5769
422.0771, 468.6470
422.5592, 469.2521
423.0413, 471.2183
423.5234, 473.3970
424.0055, 475.6721
424.4876, 476.9351
424.9698, 475.9641
425.4519, 473.1434
425.9340, 471.3425
426.4161, 470.9189
426.8982, 471.0920
427.3803, 471.9284
427.8625, 473.0807
428.3446, 473.7265
428.8267, 473.5168
429.3088, 473.0010
429.7909, 473.0905
430.2730, 473.8941
430.7552, 475.2115
431.2373, 478.2010
431.7194, 480.8298
432.2015, 481.1042
432.6836, 479.3590
433.1657, 477.7228
433.6479, 477.9481
434.1300, 479.8639
434.6121, 481.2048
435.0942, 480.5212
435.5763, 480.9618
436.0584, 484.3438
436.5406, 488.5493
437.0227, 490.8744
437.5048, 490.4586
437.9869, 489.0493
438.4690, 489.5749
438.9511, 493.0093
439.4333, 495.2057
439.9154, 494.9061
440.3975, 494.4216
440.8796, 494.4109
441.3617, 495.0592
441.8438, 496.6877
442.3260, 499.9849
442.8081, 504.0834
443.2902, 505.7575
443.7723, 504.0444
444.2544, 502.3281
444.7365, 501.1270
445.2187, 500.8085
445.7008, 502.2327
446.1829, 505.6730
446.6650, 509.0738
447.1471, 510.4280
447.6292, 510.0795
448.1114, 509.8893
448.5935, 510.0275
449.0756, 510.5567
449.5577, 511.8315
450.0398, 513.5787
450.5219, 514.9830
451.0041, 515.7584
451.4862, 516.1426
451.9683, 515.9729
452.4504, 515.4198
452.9325, 515.8168
453.4146, 518.1680
453.8968, 521.3129
454.3789, 522.4016
454.8610, 520.5676
455.3431, 519.8493
455.8252, 522.0660
456.3073, 525.3579
456.7895, 527.8214
457.2716, 529.1740
457.7537, 529.9777
458.2358, 530.5986
458.7179, 531.0397
459.2000, 532.2494
459.6822, 534.9928
460.1643, 537.4952
460.6464, 539.2796
461.1285, 540.5238
461.6106, 541.4131
462.0927, 542.0337
462.5748, 542.5314
463.0569, 543.1346
463.5391, 543.8212
464.0212, 544.6655
464.5033, 545.3261
464.9854, 546.4403
465.4675, 549.0574
465.9496, 552.4188
466.4318, 554.4933
466.9139, 553.5177
467.3960, 550.9137
467.8781, 551.7991
468.3602, 558.4781
468.8423, 562.6117
469.3245, 559.9227
469.8066, 554.9077
470.2887, 550.5859
470.7708, 547.4470
471.2529, 545.1965
471.7350, 544.2481
472.2172, 544.0925
472.6993, 542.8575
473.1814, 540.3736
473.6635, 536.8324
474.1456, 531.9427
474.6277, 526.0878
475.1099, 520.0983
475.5920, 514.1158
476.0741, 508.0443
476.5562, 501.8839
477.0383, 495.6159
477.5204, 488.9042
478.0026, 481.5820
478.4847, 474.2409
478.9668, 467.9424
479.4489, 463.0403
479.9310, 457.2812
480.4131, 450.1361
480.8953, 442.4686
481.3774, 434.5073
481.8595, 426.5204
482.3416, 419.1468
482.8237, 412.7648
483.3058, 407.1375
483.7880, 401.4379
484.2701, 396.3064
484.7522, 390.1153
485.2343, 380.9366
485.7164, 372.0316
486.1985, 366.5647
486.6807, 364.3383
487.1628, 362.2297
487.6449, 357.0900
488.1270, 349.2470
488.6091, 343.5868
489.0912, 341.8504
489.5734, 339.5251
490.0555, 334.1750
490.5376, 328.0645
491.0197, 324.0268
491.5018, 322.9286
491.9839, 322.4394
492.4661, 320.1171
492.9482, 316.1592
493.4303, 312.4032
493.9124, 309.1495
494.3945, 306.0349
494.8766, 302.8086
495.3588, 299.4963
495.8409, 296.1985
496.3230, 292.9592
496.8051, 289.7153
497.2872, 286.2733
497.7693, 282.7622
498.2515, 279.5469
498.7336, 276.6577
499.2157, 274.4858
499.6978, 273.9465
500.1799, 275.8087
500.6620, 276.3128
501.1442, 274.5195
501.6263, 271.8929
502.1084, 268.7930
502.5905, 265.6960
503.0726, 263.7347
503.5547, 263.7166
504.0369, 264.9676
504.5190, 265.1528
505.0011, 263.7454
505.4832, 262.0244
505.9653, 259.5959
506.4474, 257.2487
506.9296, 255.4757
507.4117, 254.3453
507.8938, 253.7560
508.3759, 253.7913
508.8580, 254.2896
509.3401, 254.2865
509.8223, 253.6162
510.3044, 252.7981
510.7865, 251.2702
511.2686, 250.0811
511.7507, 250.7449
512.2328, 253.6863
512.7150, 256.2488
513.1971, 255.7437
513.6792, 253.3193
514.1613, 252.5789
514.6434, 254.2823
515.1255, 256.0572
515.6077, 256.0909
516.0898, 254.6949
516.5719, 253.4538
517.0540, 252.0362
517.5361, 251.2458
518.0182, 252.1365
518.5004, 253.7151
518.9825, 254.1103
519.4646, 252.8309
519.9467, 251.1489
520.4288, 250.5981
520.9109, 251.3773
521.3931, 251.9730
521.8752, 252.4680
522.3573, 252.7276
522.8394, 252.6695
523.3215, 252.3539
523.8036, 251.8292
524.2858, 251.1227
524.7679, 250.3258
525.2500, 249.6252
525.7321, 249.0765
526.2142, 248.3445
526.6964, 247.3232
527.1785, 246.2015
527.6606, 244.8804
528.1427, 243.5422
528.6248, 242.5949
529.1069, 242.3382
529.5891, 242.3261
530.0712, 241.8802
530.5533, 241.0413
531.0354, 240.5274
531.5175, 240.5835
531.9996, 240.9613
532.4818, 241.8491
532.9639, 243.1822
533.4460, 243.0452
533.9281, 239.6285
534.4102, 235.7941
534.8923, 233.6597
535.3745, 233.0268
535.8566, 232.8929
536.3387, 232.8157
536.8208, 232.8915
537.3029, 233.3851
537.7850, 235.0458
538.2672, 235.5040
538.7493, 233.8775
539.2314, 231.9498
539.7135, 230.7468
540.1956, 230.1096
540.6777, 229.2743
541.1599, 227.7234
541.6420, 225.9174
542.1241, 225.0477
542.6062, 225.2951
543.0883, 225.9065
543.5704, 227.8764
544.0526, 229.2154
544.5347, 228.4625
545.0168, 225.8391
545.4989, 222.7166
545.9810, 218.8615
546.4631, 215.4506
546.9453, 214.8494
547.4274, 216.9749
547.9095, 218.9747
548.3916, 219.8437
548.8737, 219.8064
549.3558, 219.1012
549.8380, 217.7170
550.3201, 216.0877
550.8022, 213.7252
551.2843, 211.5961
551.7664, 210.7399
552.2485, 210.8921
552.7307, 210.9600
553.2128, 210.3119
553.6949, 209.2062
554.1770, 208.3724
554.6591, 208.0451
555.1412, 207.5750
555.6234, 207.4824
556.1055, 206.8035
556.5876, 204.4106
557.0697, 200.8548
557.5518, 197.7579
558.0339, 196.0311
558.5161, 195.5105
558.9982, 196.2397
559.4803, 198.5858
559.9624, 199.9157
560.4445, 199.0588
560.9266, 197.3293
561.4088, 195.9269
561.8909, 194.8415
562.3730, 193.8169
562.8551, 192.8150
563.3372, 191.7893
563.8193, 190.5954
564.3015, 189.3007
564.7836, 188.2221
565.2657, 187.4816
565.7478, 187.0939
566.2299, 187.1850
566.7120, 188.3559
567.1942, 188.4326
567.6763, 186.5507
568.1584, 184.3860
568.6405, 182.7119
569.1226, 181.5473
569.6047, 180.6645
570.0869, 179.9475
570.5690, 179.4815
571.0511, 179.5840
571.5332, 180.5372
572.0153, 180.9662
572.4974, 180.4494
572.9796, 179.6458
573.4617, 178.9622
573.9438, 178.2775
574.4259, 177.2442
574.9080, 175.6508
575.3901, 173.7584
575.8723, 171.2367
576.3544, 168.4449
576.8365, 167.7793
577.3186, 170.4434
577.8007, 173.7892
578.2828, 174.8483
578.7650, 173.4657
579.2471, 171.9365
579.7292, 169.3343
580.2113, 167.6264
580.6934, 168.7364
581.1755, 171.0740
581.6577, 171.9195
582.1398, 170.3992
582.6219, 167.8976
583.1040, 166.2551
583.5861, 165.5919
584.0682, 164.8271
584.5504, 163.4346
585.0325, 162.5972
585.5146, 163.2162
585.9967, 164.3447
586.4788, 164.8206
