##NAMES=Abramovite
##RRUFFID=R070037
##IDEAL CHEMISTRY=Pb^2+^_2_Sn^4+^In^3+^Bi^3+^S^2-^_7_
##LOCALITY=Kudryaviy Volcano, Iturup Island, Kurilian Archipelago, Russia
##OWNER=Michael Scott
##SOURCE=Michael Scott
##DESCRIPTION=Dark gray metallic twisted and distorted fibers in a radiating aggregate, co-type sample.
##STATUS=The identification of this mineral has been confirmed only by single crystal X-ray diffraction.
##URL=rruff.info/R070037
110.1666, 941.1535
110.6487, 1026.833
111.1308, 1117.493
111.6129, 1213.535
112.0950, 1315.990
112.5771, 1419.911
113.0593, 1524.563
113.5414, 1630.764
114.0235, 1740.689
114.5056, 1834.234
114.9877, 1945.507
115.4698, 2094.806
115.9520, 2309.370
116.4341, 2527.203
116.9162, 2716.219
117.3983, 2886.266
117.8804, 3073.583
118.3625, 3299.101
118.8447, 3549.116
119.3268, 3811.287
119.8089, 4095.204
120.2910, 4377.067
120.7731, 4631.451
121.2552, 4859.019
121.7374, 5095.271
122.2195, 5371.208
122.7016, 5674.847
123.1837, 5984.042
123.6658, 6282.593
124.1479, 6579.789
124.6300, 6882.633
125.1122, 7189.051
125.5943, 7509.955
126.0764, 7866.821
126.5585, 8255.468
127.0406, 8642.086
127.5227, 9001.945
128.0049, 9347.007
128.4870, 9702.220
128.9691, 10077.97
129.4512, 10465.56
129.9333, 10859.59
130.4154, 11263.24
130.8976, 11641.07
131.3797, 11951.32
131.8618, 12201.30
132.3439, 12454.09
132.8260, 12754.53
133.3081, 13081.09
133.7903, 13323.99
134.2724, 13473.46
134.7545, 13565.42
135.2366, 13647.25
135.7187, 13720.72
136.2008, 13774.33
136.6830, 13795.06
137.1651, 13779.00
137.6472, 13774.74
138.1293, 13789.63
138.6114, 13813.32
139.0935, 13814.60
139.5757, 13783.12
140.0578, 13753.38
140.5399, 13750.13
141.0220, 13783.95
141.5041, 13811.20
141.9862, 13825.28
142.4684, 13827.40
142.9505, 13829.95
143.4326, 13830.18
143.9147, 13833.75
144.3968, 13847.20
144.8789, 13878.90
145.3610, 13906.79
145.8432, 13931.31
146.3253, 13958.07
146.8074, 13952.47
147.2895, 13901.14
147.7716, 13822.48
148.2537, 13741.75
148.7359, 13677.02
149.2180, 13594.64
149.7001, 13482.15
150.1822, 13320.54
150.6643, 13164.05
151.1464, 13026.58
151.6286, 12895.09
152.1107, 12733.64
152.5928, 12507.89
153.0749, 12274.72
153.5570, 12059.42
154.0391, 11880.83
154.5213, 11702.49
155.0034, 11516.76
155.4855, 11325.93
155.9676, 11148.18
156.4497, 10975.81
156.9318, 10822.25
157.4140, 10695.00
157.8961, 10619.03
158.3782, 10548.22
158.8603, 10468.55
159.3424, 10379.30
159.8245, 10291.17
160.3067, 10204.16
160.7888, 10122.15
161.2709, 10048.48
161.7530, 9997.441
162.2351, 9945.354
162.7172, 9877.208
163.1993, 9786.816
163.6815, 9699.622
164.1636, 9622.261
164.6457, 9556.357
165.1278, 9506.245
165.6099, 9480.943
166.0920, 9467.576
166.5742, 9459.134
167.0563, 9461.979
167.5384, 9454.982
168.0205, 9415.022
168.5026, 9349.816
168.9847, 9290.880
169.4669, 9267.542
169.9490, 9255.208
170.4311, 9224.684
170.9132, 9151.180
171.3953, 9073.196
171.8774, 9029.297
172.3596, 9016.506
172.8417, 9007.776
173.3238, 8991.521
173.8059, 8964.948
174.2880, 8923.779
174.7701, 8842.966
175.2523, 8756.791
175.7344, 8708.630
176.2165, 8700.174
176.6986, 8711.585
177.1807, 8739.265
177.6628, 8774.588
178.1449, 8794.829
178.6271, 8777.323
179.1092, 8740.155
179.5913, 8716.908
180.0734, 8712.287
180.5555, 8710.842
181.0376, 8693.023
181.5198, 8661.460
182.0019, 8627.927
182.4840, 8593.307
182.9661, 8561.659
183.4482, 8547.607
183.9303, 8557.248
184.4125, 8575.959
184.8946, 8580.479
185.3767, 8571.268
185.8588, 8559.087
186.3409, 8556.368
186.8230, 8558.934
187.3052, 8544.067
187.7873, 8498.530
188.2694, 8441.227
188.7515, 8419.150
189.2336, 8433.909
189.7157, 8461.284
190.1979, 8488.105
190.6800, 8513.303
191.1621, 8520.794
191.6442, 8498.720
192.1263, 8456.834
192.6084, 8435.063
193.0906, 8435.800
193.5727, 8445.448
194.0548, 8455.869
194.5369, 8467.307
195.0190, 8460.985
195.5011, 8420.938
195.9832, 8352.109
196.4654, 8308.810
196.9475, 8294.914
197.4296, 8297.172
197.9117, 8301.843
198.3938, 8310.189
198.8759, 8309.387
199.3581, 8291.333
199.8402, 8255.257
200.3223, 8219.997
200.8044, 8184.772
201.2865, 8151.464
201.7686, 8124.820
202.2508, 8106.632
202.7329, 8088.015
203.2150, 8061.692
203.6971, 8025.294
204.1792, 8002.472
204.6613, 7999.440
205.1435, 8006.985
205.6256, 8000.193
206.1077, 7976.309
206.5898, 7946.670
207.0719, 7915.101
207.5540, 7878.939
208.0362, 7855.194
208.5183, 7850.096
209.0004, 7857.826
209.4825, 7853.228
209.9646, 7832.276
210.4467, 7808.184
210.9288, 7792.794
211.4110, 7791.799
211.8931, 7777.409
212.3752, 7737.155
212.8573, 7676.993
213.3394, 7652.804
213.8215, 7682.114
214.3037, 7719.873
214.7858, 7722.287
215.2679, 7672.759
215.7500, 7635.299
216.2321, 7625.017
216.7142, 7641.480
217.1964, 7653.678
217.6785, 7659.972
218.1606, 7663.849
218.6427, 7670.624
219.1248, 7685.454
219.6069, 7690.741
220.0891, 7680.084
220.5712, 7651.840
221.0533, 7625.996
221.5354, 7603.602
222.0175, 7582.763
222.4996, 7560.667
222.9818, 7532.800
223.4639, 7512.128
223.9460, 7503.429
224.4281, 7509.150
224.9102, 7515.080
225.3923, 7522.396
225.8745, 7529.101
226.3566, 7531.230
226.8387, 7526.014
227.3208, 7521.271
227.8029, 7521.649
228.2850, 7532.956
228.7672, 7529.438
229.2493, 7503.500
229.7314, 7466.049
230.2135, 7439.728
230.6956, 7429.401
231.1777, 7422.537
231.6599, 7414.458
232.1420, 7404.322
232.6241, 7394.960
233.1062, 7387.467
233.5883, 7380.505
234.0704, 7368.793
234.5526, 7343.814
235.0347, 7326.800
235.5168, 7330.059
235.9989, 7369.025
236.4810, 7394.544
236.9631, 7406.047
237.4453, 7403.205
237.9274, 7381.697
238.4095, 7325.703
238.8916, 7273.439
239.3737, 7246.039
239.8558, 7257.569
240.3380, 7265.539
240.8201, 7267.786
241.3022, 7264.764
241.7843, 7258.291
242.2664, 7246.823
242.7485, 7233.854
243.2307, 7220.625
243.7128, 7204.343
244.1949, 7194.498
244.6770, 7197.870
245.1591, 7210.278
245.6412, 7200.477
246.1233, 7145.866
246.6055, 7096.981
247.0876, 7092.865
247.5697, 7169.221
248.0518, 7214.881
248.5339, 7208.665
249.0160, 7156.657
249.4982, 7119.395
249.9803, 7104.526
250.4624, 7094.992
250.9445, 7074.496
251.4266, 7026.823
251.9087, 7006.411
252.3909, 7034.917
252.8730, 7107.056
253.3551, 7133.260
253.8372, 7087.924
254.3193, 7029.359
254.8014, 7011.003
255.2836, 7057.322
255.7657, 7084.823
256.2478, 7072.236
256.7299, 7022.251
257.2120, 6995.404
257.6941, 7000.994
258.1762, 7017.782
258.6584, 7027.608
259.1405, 7029.671
259.6226, 7026.675
260.1047, 7019.752
260.5868, 7008.833
261.0689, 6986.677
261.5511, 6945.147
262.0332, 6904.265
262.5153, 6886.225
262.9974, 6900.442
263.4795, 6911.356
263.9616, 6911.670
264.4438, 6901.671
264.9259, 6886.636
265.4080, 6862.070
265.8901, 6839.695
266.3722, 6836.783
266.8543, 6863.579
267.3365, 6874.356
267.8186, 6854.203
268.3007, 6804.211
268.7828, 6761.129
269.2649, 6720.559
269.7470, 6693.910
270.2292, 6701.192
270.7113, 6754.812
271.1934, 6792.291
271.6755, 6797.219
272.1576, 6771.166
272.6397, 6734.662
273.1219, 6682.991
273.6040, 6631.171
274.0861, 6598.226
274.5682, 6587.353
275.0503, 6574.772
275.5324, 6550.699
276.0146, 6517.400
276.4967, 6502.963
276.9788, 6512.515
277.4609, 6527.247
277.9430, 6524.220
278.4251, 6501.347
278.9073, 6481.645
279.3894, 6475.159
279.8715, 6478.552
280.3536, 6465.752
280.8357, 6432.824
281.3178, 6397.305
281.8000, 6382.118
282.2821, 6387.859
282.7642, 6387.486
283.2463, 6371.269
283.7284, 6342.375
284.2105, 6313.522
284.6927, 6283.484
285.1747, 6259.409
285.6569, 6255.780
286.1390, 6271.028
286.6211, 6274.597
287.1032, 6251.612
287.5853, 6210.546
288.0674, 6181.211
288.5496, 6164.592
289.0317, 6152.333
289.5138, 6135.918
289.9959, 6116.056
290.4780, 6097.996
290.9601, 6083.432
291.4423, 6071.778
291.9244, 6061.406
292.4065, 6052.253
292.8886, 6044.509
293.3707, 6042.159
293.8528, 6042.556
294.3350, 6034.338
294.8171, 6008.083
295.2992, 5974.331
295.7813, 5952.368
296.2634, 5942.183
296.7455, 5937.538
297.2277, 5934.327
297.7098, 5932.351
298.1919, 5931.913
298.6740, 5939.426
299.1561, 5943.682
299.6382, 5921.820
300.1204, 5875.219
300.6025, 5830.354
301.0846, 5810.809
301.5667, 5807.496
302.0488, 5803.509
302.5309, 5799.644
303.0131, 5787.208
303.4952, 5744.898
303.9773, 5677.110
304.4594, 5623.034
304.9415, 5627.789
305.4236, 5658.862
305.9058, 5668.481
306.3879, 5630.280
306.8700, 5580.962
307.3521, 5552.826
307.8342, 5542.628
308.3163, 5533.176
308.7985, 5506.968
309.2806, 5478.604
309.7627, 5466.319
310.2448, 5492.650
310.7269, 5511.942
311.2090, 5479.372
311.6912, 5409.227
312.1733, 5356.730
312.6554, 5370.065
313.1375, 5402.551
313.6196, 5415.804
314.1017, 5393.691
314.5839, 5361.702
315.0660, 5325.755
315.5481, 5288.485
316.0302, 5256.973
316.5123, 5226.524
316.9944, 5207.233
317.4766, 5209.552
317.9586, 5257.837
318.4408, 5287.174
318.9229, 5261.710
319.4050, 5201.498
319.8871, 5154.565
320.3692, 5139.169
320.8513, 5135.966
321.3335, 5138.142
321.8156, 5152.839
322.2977, 5156.225
322.7798, 5134.641
323.2619, 5099.708
323.7440, 5073.916
324.2262, 5067.594
324.7083, 5064.617
325.1904, 5059.454
325.6725, 5050.409
326.1546, 5042.445
326.6367, 5040.838
327.1189, 5039.475
327.6010, 5028.306
328.0831, 4999.724
328.5652, 4969.359
329.0473, 4937.891
329.5294, 4899.443
330.0116, 4881.723
330.4937, 4895.376
330.9758, 4924.230
331.4579, 4948.705
331.9400, 4977.146
332.4221, 4988.068
332.9043, 4972.007
333.3864, 4925.460
333.8685, 4884.020
334.3506, 4843.686
334.8327, 4813.254
335.3148, 4806.492
335.7970, 4834.950
336.2791, 4855.374
336.7612, 4855.454
337.2433, 4836.722
337.7254, 4826.453
338.2076, 4828.820
338.6897, 4831.036
339.1718, 4820.463
339.6539, 4795.877
340.1360, 4767.086
340.6181, 4731.827
341.1003, 4694.726
341.5824, 4679.094
342.0645, 4687.413
342.5466, 4704.025
343.0287, 4721.529
343.5108, 4739.291
343.9930, 4743.109
344.4751, 4726.757
344.9572, 4699.668
345.4393, 4682.064
345.9214, 4674.071
346.4035, 4668.018
346.8857, 4660.675
347.3678, 4651.339
347.8499, 4635.869
348.3320, 4611.222
348.8141, 4586.126
349.2962, 4573.176
349.7784, 4571.119
350.2605, 4572.522
350.7426, 4577.140
351.2247, 4581.342
351.7068, 4576.405
352.1889, 4558.986
352.6710, 4543.167
353.1531, 4548.216
353.6353, 4566.216
354.1174, 4577.161
354.5995, 4564.976
355.0816, 4544.178
355.5637, 4530.127
356.0458, 4524.314
356.5280, 4517.576
357.0101, 4498.316
357.4922, 4475.140
357.9743, 4460.710
358.4564, 4474.468
358.9385, 4487.096
359.4207, 4477.984
359.9028, 4446.750
360.3849, 4416.715
360.8670, 4392.249
361.3491, 4376.267
361.8312, 4371.525
362.3134, 4389.445
362.7955, 4408.127
363.2776, 4428.105
363.7597, 4446.941
364.2418, 4445.350
364.7239, 4389.215
365.2061, 4329.945
365.6882, 4299.911
366.1703, 4326.601
366.6524, 4354.660
367.1345, 4384.953
367.6166, 4414.228
368.0988, 4430.336
368.5809, 4424.696
369.0630, 4413.489
369.5451, 4403.179
370.0272, 4396.245
370.5093, 4384.775
370.9915, 4362.307
371.4736, 4337.412
371.9557, 4330.526
372.4378, 4354.514
372.9199, 4373.879
373.4020, 4374.210
373.8842, 4350.880
374.3663, 4334.982
374.8484, 4328.580
375.3305, 4326.721
375.8126, 4322.692
376.2947, 4315.896
376.7769, 4309.529
377.2590, 4304.168
377.7411, 4299.941
378.2232, 4300.113
378.7053, 4307.115
379.1874, 4309.018
379.6696, 4286.380
380.1517, 4241.854
380.6338, 4211.380
381.1159, 4205.427
381.5980, 4217.630
382.0801, 4241.749
382.5623, 4277.103
383.0444, 4300.495
383.5265, 4280.548
384.0086, 4234.442
384.4907, 4207.673
384.9728, 4211.782
385.4549, 4229.697
385.9370, 4246.138
386.4192, 4260.087
386.9013, 4267.138
387.3834, 4261.840
387.8655, 4249.545
388.3476, 4235.193
388.8297, 4218.618
389.3119, 4203.782
389.7940, 4193.955
390.2761, 4187.660
390.7582, 4182.204
391.2403, 4177.141
391.7224, 4172.030
392.2046, 4167.082
392.6867, 4162.388
393.1688, 4155.984
393.6509, 4137.874
394.1330, 4121.752
394.6151, 4120.526
395.0973, 4159.582
395.5794, 4191.314
396.0615, 4198.096
396.5436, 4182.616
397.0257, 4175.783
397.5078, 4197.760
397.9900, 4218.405
398.4721, 4220.634
398.9542, 4190.190
399.4363, 4159.049
399.9184, 4118.674
400.4005, 4078.359
400.8827, 4066.794
401.3648, 4106.280
401.8469, 4142.708
402.3290, 4152.995
402.8111, 4128.638
403.2932, 4111.433
403.7754, 4103.718
404.2575, 4100.739
404.7396, 4093.826
405.2217, 4080.217
405.7038, 4075.608
406.1859, 4089.435
406.6681, 4118.597
407.1502, 4132.764
407.6323, 4129.519
408.1144, 4121.278
408.5965, 4115.595
409.0786, 4113.454
409.5608, 4126.986
410.0429, 4169.209
410.5250, 4218.118
411.0071, 4222.933
411.4892, 4186.774
411.9713, 4149.458
412.4535, 4139.410
412.9356, 4146.915
413.4177, 4154.533
413.8998, 4160.180
414.3819, 4163.804
414.8640, 4164.072
415.3462, 4162.224
415.8283, 4161.279
416.3104, 4168.777
416.7925, 4173.827
417.2746, 4162.322
417.7567, 4131.226
418.2388, 4110.167
418.7209, 4125.071
419.2031, 4155.068
419.6852, 4175.795
420.1673, 4165.878
420.6494, 4160.160
421.1315, 4177.179
421.6136, 4213.829
422.0958, 4235.848
422.5779, 4214.723
423.0600, 4192.144
423.5421, 4192.526
424.0242, 4258.249
424.5063, 4294.540
424.9885, 4287.114
425.4706, 4251.219
425.9527, 4222.836
426.4348, 4194.334
426.9169, 4184.348
427.3990, 4207.819
427.8812, 4276.719
428.3633, 4308.371
428.8454, 4288.946
429.3275, 4250.396
429.8096, 4234.871
430.2917, 4246.902
430.7739, 4254.896
431.2560, 4246.886
431.7381, 4228.570
432.2202, 4229.351
432.7023, 4251.662
433.1844, 4271.427
433.6666, 4261.844
434.1487, 4230.266
434.6308, 4212.818
435.1129, 4218.172
435.5950, 4234.917
436.0771, 4204.409
436.5593, 4239.608
437.0414, 4259.760
437.5235, 4265.422
438.0056, 4227.342
438.4877, 4234.922
438.9698, 4217.587
439.4520, 4194.696
439.9341, 4225.848
440.4162, 4246.166
440.8983, 4253.874
441.3804, 4214.899
441.8625, 4178.102
442.3447, 4172.496
442.8268, 4195.376
443.3089, 4212.824
443.7910, 4210.356
444.2731, 4201.444
444.7552, 4194.717
445.2374, 4196.222
445.7195, 4193.341
446.2016, 4183.612
446.6837, 4168.623
447.1658, 4151.600
447.6479, 4124.036
448.1301, 4105.530
448.6122, 4105.491
449.0943, 4129.256
449.5764, 4141.090
450.0585, 4135.684
450.5406, 4125.135
451.0227, 4126.495
451.5049, 4145.371
451.9870, 4147.476
452.4691, 4118.696
452.9512, 4069.856
453.4333, 4045.278
453.9154, 4046.775
454.3976, 4052.895
454.8797, 4042.228
455.3618, 4021.042
455.8439, 4024.680
456.3260, 4063.519
456.8081, 4106.321
457.2903, 4111.600
457.7724, 4087.153
458.2545, 4058.539
458.7366, 4026.846
459.2187, 4003.892
459.7008, 4011.235
460.1830, 4048.746
460.6651, 4079.290
461.1472, 4071.407
461.6293, 4046.991
462.1114, 4028.768
462.5935, 4016.018
463.0757, 4019.343
463.5578, 4064.065
464.0399, 4131.683
464.5220, 4164.799
465.0041, 4107.888
465.4862, 4046.955
465.9684, 4020.972
466.4505, 4049.418
466.9326, 4070.169
467.4147, 4080.132
467.8968, 4082.557
468.3789, 4079.993
468.8611, 4066.680
469.3432, 4059.757
469.8253, 4067.307
470.3074, 4085.930
470.7895, 4083.205
471.2716, 4050.598
471.7538, 4019.902
472.2359, 4017.660
472.7180, 4044.324
473.2001, 4063.447
473.6822, 4071.418
474.1643, 4071.394
474.6465, 4065.647
475.1286, 4055.010
475.6107, 4046.452
476.0928, 4041.519
476.5749, 4041.229
477.0570, 4052.587
477.5392, 4075.507
478.0213, 4090.885
478.5034, 4076.350
478.9855, 4047.104
479.4676, 4023.555
479.9497, 4013.018
480.4319, 4007.154
480.9140, 4000.948
481.3961, 3995.510
481.8782, 3993.715
482.3603, 4000.088
482.8424, 4007.627
483.3245, 4011.643
483.8066, 4009.421
484.2888, 4013.063
484.7709, 4037.974
485.2530, 4062.943
485.7351, 4065.474
486.2172, 4021.228
486.6993, 3990.776
487.1815, 3985.852
487.6636, 4002.071
488.1457, 4016.538
488.6278, 4031.100
489.1099, 4040.060
489.5920, 4034.769
490.0742, 4012.470
490.5563, 4013.722
491.0384, 4046.103
491.5205, 4085.883
492.0026, 4099.932
492.4847, 4089.916
492.9669, 4068.893
493.4490, 4030.856
493.9311, 3991.133
494.4132, 3979.344
494.8953, 3994.213
495.3774, 4019.417
495.8596, 4062.639
496.3417, 4101.908
496.8238, 4101.848
497.3059, 4040.014
497.7880, 3983.861
498.2701, 3982.756
498.7523, 4014.641
499.2344, 4040.339
499.7165, 4041.627
500.1986, 4039.132
500.6807, 4043.376
501.1628, 4055.269
501.6450, 4056.286
502.1271, 4024.861
502.6092, 3995.168
503.0913, 3990.095
503.5734, 4034.483
504.0555, 4058.489
504.5377, 4053.673
505.0198, 4030.511
505.5019, 4008.921
505.9840, 3986.200
506.4661, 3973.852
506.9482, 3983.667
507.4304, 4011.019
507.9125, 4006.510
508.3946, 3965.300
508.8767, 3920.941
509.3588, 3904.236
509.8409, 3911.160
510.3231, 3927.746
510.8052, 3955.450
511.2873, 3982.410
511.7694, 3993.209
512.2515, 3990.786
512.7336, 3984.045
513.2158, 3972.598
513.6979, 3962.181
514.1800, 3957.092
514.6621, 3957.671
515.1442, 3963.225
515.6263, 3989.436
516.1085, 4012.165
516.5906, 4010.781
517.0727, 3949.740
517.5548, 3900.776
518.0369, 3876.903
518.5190, 3873.436
519.0012, 3874.983
519.4833, 3884.116
519.9654, 3895.153
520.4475, 3910.042
520.9296, 3930.890
521.4117, 3928.348
521.8939, 3892.583
522.3760, 3852.012
522.8581, 3833.916
523.3402, 3838.773
523.8223, 3849.114
524.3044, 3864.318
524.7866, 3880.062
525.2687, 3887.312
525.7508, 3886.867
526.2329, 3885.064
526.7150, 3892.174
527.1971, 3897.259
527.6793, 3877.061
528.1614, 3830.528
528.6435, 3791.385
529.1256, 3788.610
529.6077, 3803.852
530.0898, 3816.803
530.5720, 3822.512
531.0541, 3824.450
531.5362, 3821.318
532.0182, 3815.418
532.5004, 3811.999
532.9825, 3818.216
533.4646, 3821.246
533.9467, 3817.948
534.4288, 3808.631
534.9109, 3788.590
535.3931, 3742.727
535.8752, 3703.661
536.3573, 3704.644
536.8394, 3763.250
537.3215, 3781.847
537.8036, 3735.817
538.2858, 3664.704
538.7679, 3655.666
539.2500, 3707.564
539.7321, 3757.526
540.2142, 3777.800
540.6964, 3776.231
541.1785, 3769.697
541.6606, 3758.128
542.1427, 3741.285
542.6248, 3714.239
543.1069, 3683.219
543.5891, 3654.930
544.0712, 3627.699
544.5533, 3611.164
545.0354, 3620.473
545.5175, 3642.585
545.9996, 3655.059
546.4818, 3645.338
546.9639, 3631.031
547.4460, 3617.036
547.9281, 3603.575
548.4102, 3588.332
548.8923, 3566.182
549.3745, 3547.501
549.8566, 3540.378
550.3387, 3554.621
550.8208, 3548.220
551.3029, 3510.599
551.7850, 3466.779
552.2672, 3460.265
552.7493, 3493.284
553.2314, 3513.618
553.7135, 3498.922
554.1956, 3466.413
554.6777, 3459.150
555.1599, 3474.583
555.6420, 3489.464
556.1241, 3490.115
556.6062, 3480.054
557.0883, 3461.134
557.5704, 3432.004
558.0526, 3405.563
558.5347, 3395.866
559.0168, 3391.361
559.4989, 3378.805
559.9810, 3334.425
560.4631, 3303.062
560.9453, 3308.480
561.4274, 3339.068
561.9095, 3351.374
562.3916, 3326.250
562.8737, 3302.563
563.3558, 3293.955
563.8380, 3302.585
564.3201, 3308.113
564.8022, 3310.730
565.2843, 3309.966
565.7664, 3303.658
566.2485, 3291.677
566.7307, 3284.192
567.2128, 3284.605
567.6949, 3285.770
568.1770, 3273.887
568.6591, 3251.409
569.1412, 3230.131
569.6234, 3214.995
570.1055, 3204.468
570.5876, 3196.888
571.0697, 3192.309
571.5518, 3190.761
572.0339, 3198.945
572.5161, 3206.093
572.9982, 3201.696
573.4803, 3176.549
573.9624, 3159.048
574.4445, 3165.792
574.9266, 3180.006
575.4088, 3179.591
575.8909, 3156.980
576.3730, 3130.095
576.8551, 3096.256
577.3372, 3060.314
577.8193, 3045.903
578.3015, 3058.266
578.7836, 3073.630
579.2657, 3080.012
579.7478, 3078.222
580.2299, 3077.520
580.7120, 3078.634
581.1942, 3075.235
581.6763, 3056.355
582.1584, 3028.557
582.6405, 3006.557
583.1226, 2994.466
583.6047, 2987.962
584.0869, 2982.246
584.5690, 2979.425
585.0511, 2984.111
585.5332, 3013.012
586.0153, 3036.030
586.4974, 3038.042
586.9796, 3018.908
587.4617, 2997.617
587.9438, 2964.062
588.4259, 2939.645
588.9080, 2938.017
589.3901, 2974.104
589.8723, 2987.922
590.3544, 2971.544
590.8365, 2944.134
591.3186, 2932.611
591.8007, 2938.039
592.2828, 2934.958
592.7650, 2912.867
593.2471, 2884.246
593.7292, 2877.698
594.2113, 2889.547
594.6934, 2900.879
595.1755, 2898.146
595.6577, 2890.727
596.1398, 2892.044
596.6219, 2902.517
597.1040, 2905.607
597.5861, 2877.331
598.0682, 2846.803
598.5503, 2839.932
599.0324, 2883.002
599.5145, 2911.708
599.9966, 2909.914
600.4788, 2890.637
600.9609, 2871.524
601.4430, 2850.051
601.9251, 2833.378
602.4072, 2823.068
602.8893, 2818.467
603.3715, 2818.489
603.8536, 2824.161
604.3357, 2827.329
604.8178, 2821.941
605.2999, 2810.087
605.7820, 2799.711
