##NAMES=Actinolite
##RRUFFID=R040063
##IDEAL CHEMISTRY=Ca_2_(Mg_4.5-2.5_Fe^2+^_0.5-2.5_)Si_8_O_22_(OH)_2_
##LOCALITY=Harford County, Maryland, USA
##OWNER=RRUFF
##SOURCE=University of Arizona Mineral Museum
##DESCRIPTION=Mass of green acicular to bladed crystals associated with chlorite
##STATUS=The identification of this mineral has been confirmed by X-ray diffraction and chemical analysis
##URL=rruff.info/R040063
##MEASURED CHEMISTRY=(Ca_1.90_Na_0.06_Mn_0.04_)_Σ=2_(Mg_4.35_Fe_0.65_)_Σ=5_(Si_7.92_Al_0.08_)_Σ=8_O_22_(OH)_2_
166.8471, 7352.268
167.3292, 7422.383
167.8113, 7483.643
168.2934, 7528.306
168.7756, 7569.459
169.2577, 7622.443
169.7398, 7688.086
170.2219, 7745.604
170.7040, 7773.655
171.1861, 7788.866
171.6683, 7821.767
172.1504, 7888.853
172.6325, 7964.076
173.1146, 8016.352
173.5967, 8043.026
174.0788, 8074.023
174.5610, 8138.450
175.0431, 8214.689
175.5252, 8269.111
176.0073, 8290.865
176.4894, 8292.275
176.9715, 8287.803
177.4537, 8278.223
177.9358, 8257.302
178.4179, 8223.927
178.9000, 8175.730
179.3821, 8104.758
179.8642, 7995.212
180.3464, 7875.354
180.8285, 7776.912
181.3106, 7698.760
181.7927, 7647.661
182.2748, 7648.222
182.7569, 7673.176
183.2391, 7692.881
183.7212, 7698.602
184.2033, 7696.063
184.6854, 7691.029
185.1675, 7682.222
185.6496, 7676.587
186.1318, 7675.571
186.6139, 7680.449
187.0960, 7695.486
187.5781, 7727.630
188.0602, 7763.274
188.5423, 7785.159
189.0245, 7792.924
189.5066, 7787.778
189.9887, 7747.480
190.4708, 7702.031
190.9529, 7686.524
191.4350, 7720.385
191.9172, 7775.609
192.3993, 7814.190
192.8814, 7833.646
193.3635, 7846.605
193.8456, 7856.120
194.3277, 7862.988
194.8099, 7866.663
195.2920, 7864.900
195.7741, 7863.670
196.2562, 7873.783
196.7383, 7898.890
197.2204, 7919.456
197.7026, 7915.506
198.1847, 7907.577
198.6668, 7918.195
199.1489, 7958.978
199.6310, 8007.883
200.1131, 8033.481
200.5953, 8030.622
201.0774, 8029.856
201.5595, 8044.828
202.0416, 8066.827
202.5237, 8088.644
203.0058, 8108.146
203.4880, 8128.263
203.9701, 8153.478
204.4522, 8184.739
204.9343, 8215.228
205.4164, 8244.881
205.8985, 8271.074
206.3807, 8287.461
206.8628, 8289.264
207.3449, 8294.799
207.8270, 8330.343
208.3091, 8400.002
208.7912, 8462.114
209.2734, 8487.983
209.7555, 8509.828
210.2376, 8557.509
210.7197, 8638.810
211.2018, 8729.476
211.6839, 8805.271
212.1660, 8865.649
212.6482, 8923.646
213.1303, 8975.492
213.6124, 9031.456
214.0945, 9098.272
214.5766, 9176.283
215.0587, 9267.696
215.5409, 9376.047
216.0230, 9501.004
216.5051, 9633.577
216.9872, 9782.611
217.4693, 9928.353
217.9514, 10051.55
218.4336, 10149.83
218.9157, 10246.92
219.3978, 10373.87
219.8799, 10525.15
220.3620, 10639.23
220.8441, 10692.64
221.3263, 10713.66
221.8084, 10729.55
222.2905, 10740.71
222.7726, 10742.44
223.2547, 10728.72
223.7368, 10701.56
224.2190, 10670.57
224.7011, 10628.09
225.1832, 10594.99
225.6653, 10585.27
226.1474, 10597.92
226.6295, 10628.35
227.1117, 10683.79
227.5938, 10755.96
228.0759, 10821.45
228.5580, 10881.39
229.0401, 10925.31
229.5222, 10948.92
230.0044, 10952.70
230.4865, 10929.96
230.9686, 10878.55
231.4507, 10798.79
231.9328, 10685.14
232.4149, 10528.54
232.8971, 10361.17
233.3792, 10206.01
233.8613, 10060.27
234.3434, 9915.863
234.8255, 9763.630
235.3076, 9614.388
235.7898, 9481.981
236.2719, 9366.808
236.7540, 9269.081
237.2361, 9191.222
237.7182, 9131.082
238.2003, 9084.262
238.6825, 9054.858
239.1646, 9035.842
239.6467, 9023.363
240.1288, 9017.713
240.6109, 9008.854
241.0930, 8986.880
241.5752, 8957.267
242.0573, 8936.190
242.5394, 8921.966
243.0215, 8919.202
243.5036, 8936.094
243.9857, 8970.843
244.4679, 9006.393
244.9500, 9032.021
245.4321, 9053.300
245.9142, 9087.264
246.3963, 9155.928
246.8784, 9208.619
247.3606, 9205.491
247.8427, 9160.792
248.3248, 9122.731
248.8069, 9113.223
249.2890, 9122.161
249.7711, 9125.866
250.2533, 9128.967
250.7354, 9119.492
251.2175, 9085.375
251.6996, 9036.304
252.1817, 8990.321
252.6638, 8953.640
253.1460, 8923.104
253.6281, 8892.074
254.1102, 8856.333
254.5923, 8830.807
255.0744, 8827.009
255.5565, 8831.595
256.0387, 8827.167
256.5208, 8809.191
257.0029, 8785.440
257.4850, 8766.350
257.9671, 8754.473
258.4492, 8740.382
258.9314, 8718.823
259.4135, 8698.229
259.8956, 8687.133
260.3777, 8686.134
260.8598, 8687.730
261.3419, 8683.497
261.8241, 8670.972
262.3062, 8667.064
262.7883, 8682.913
263.2704, 8697.019
263.7525, 8699.206
264.2346, 8688.678
264.7168, 8667.647
265.1989, 8636.885
265.6810, 8596.003
266.1631, 8557.392
266.6452, 8507.816
267.1273, 8473.336
267.6095, 8474.117
268.0916, 8496.281
268.5737, 8511.870
269.0558, 8503.156
269.5379, 8474.647
270.0201, 8453.149
270.5022, 8436.283
270.9843, 8430.240
271.4664, 8441.321
271.9485, 8461.928
272.4306, 8484.294
272.9128, 8504.899
273.3949, 8522.774
273.8770, 8535.261
274.3591, 8540.651
274.8412, 8542.773
275.3233, 8539.501
275.8055, 8534.897
276.2876, 8531.571
276.7697, 8530.396
277.2518, 8531.809
277.7339, 8535.422
278.2160, 8538.963
278.6982, 8552.188
279.1803, 8590.467
279.6624, 8626.619
280.1445, 8642.817
280.6266, 8639.896
281.1087, 8634.570
281.5909, 8645.764
282.0730, 8674.847
282.5551, 8691.725
283.0372, 8680.821
283.5193, 8674.271
284.0014, 8694.785
284.4836, 8732.518
284.9657, 8760.322
285.4478, 8756.204
285.9299, 8728.779
286.4120, 8710.807
286.8941, 8704.961
287.3763, 8703.803
287.8584, 8709.501
288.3405, 8716.210
288.8226, 8713.881
289.3047, 8694.975
289.7868, 8669.844
290.2690, 8650.504
290.7511, 8636.037
291.2332, 8635.317
291.7153, 8664.396
292.1974, 8704.364
292.6795, 8730.194
293.1617, 8736.153
293.6438, 8734.646
294.1259, 8731.885
294.6080, 8728.626
295.0901, 8729.063
295.5722, 8732.883
296.0544, 8743.196
296.5365, 8766.080
297.0186, 8803.414
297.5007, 8839.054
297.9828, 8869.563
298.4649, 8893.507
298.9471, 8904.417
299.4292, 8898.615
299.9113, 8893.590
300.3934, 8912.145
300.8755, 8956.499
301.3576, 8993.784
301.8398, 9020.211
302.3219, 9038.449
302.8040, 9051.252
303.2861, 9058.600
303.7682, 9056.663
304.2503, 9038.939
304.7325, 9006.140
305.2146, 8993.373
305.6967, 9015.794
306.1788, 9039.662
306.6609, 9053.610
307.1430, 9058.551
307.6252, 9057.926
308.1073, 9053.393
308.5894, 9045.274
309.0715, 9034.839
309.5536, 9025.382
310.0357, 9009.068
310.5179, 8975.355
311.0000, 8939.007
311.4821, 8916.138
311.9642, 8911.559
312.4463, 8917.909
312.9284, 8924.591
313.4106, 8936.148
313.8927, 8937.675
314.3748, 8918.037
314.8569, 8898.967
315.3390, 8895.368
315.8211, 8906.523
316.3033, 8920.192
316.7854, 8925.025
317.2675, 8920.801
317.7496, 8916.647
318.2317, 8913.883
318.7138, 8909.489
319.1960, 8899.714
319.6781, 8887.673
320.1602, 8878.567
320.6423, 8873.492
321.1244, 8874.616
321.6065, 8890.122
322.0887, 8925.689
322.5708, 8959.156
323.0529, 8985.426
323.5350, 9003.442
324.0171, 9007.977
324.4992, 8993.835
324.9814, 8979.700
325.4635, 8986.363
325.9456, 9012.609
326.4277, 9037.836
326.9098, 9056.918
327.3919, 9072.205
327.8741, 9088.938
328.3562, 9107.901
328.8383, 9118.321
329.3204, 9111.043
329.8025, 9093.302
330.2846, 9075.516
330.7668, 9058.439
331.2489, 9048.198
331.7310, 9053.405
332.2131, 9073.775
332.6952, 9090.890
333.1773, 9108.752
333.6595, 9118.933
334.1415, 9109.084
334.6237, 9083.783
335.1058, 9062.656
335.5879, 9057.109
336.0700, 9065.548
336.5521, 9080.457
337.0342, 9115.488
337.5164, 9139.718
337.9985, 9139.340
338.4806, 9127.186
338.9627, 9116.396
339.4448, 9112.032
339.9269, 9118.118
340.4091, 9144.043
340.8912, 9210.169
341.3733, 9253.744
341.8554, 9256.761
342.3375, 9254.816
342.8196, 9271.203
343.3018, 9305.502
343.7839, 9341.984
344.2660, 9365.692
344.7481, 9376.589
345.2302, 9392.535
345.7123, 9413.039
346.1945, 9439.743
346.6766, 9482.039
347.1587, 9528.869
347.6408, 9562.145
348.1229, 9571.351
348.6050, 9567.113
349.0872, 9571.655
349.5693, 9589.042
350.0514, 9597.912
350.5335, 9574.785
351.0156, 9550.221
351.4977, 9557.426
351.9799, 9603.936
352.4620, 9647.029
352.9441, 9651.774
353.4262, 9626.040
353.9083, 9599.325
354.3904, 9574.595
354.8726, 9554.541
355.3547, 9545.063
355.8368, 9544.327
356.3189, 9542.584
356.8010, 9532.069
357.2831, 9523.256
357.7653, 9527.058
358.2474, 9543.351
358.7295, 9565.523
359.2116, 9591.119
359.6937, 9618.898
360.1758, 9642.201
360.6580, 9650.153
361.1401, 9666.974
361.6222, 9701.749
362.1043, 9748.809
362.5864, 9797.674
363.0685, 9844.969
363.5507, 9899.710
364.0328, 9980.217
364.5149, 10115.88
364.9970, 10211.35
365.4791, 10238.80
365.9612, 10255.13
366.4434, 10302.02
366.9255, 10373.56
367.4076, 10430.83
367.8897, 10437.31
368.3718, 10397.99
368.8539, 10381.16
369.3361, 10412.62
369.8182, 10430.44
370.3003, 10418.18
370.7824, 10382.72
371.2645, 10328.94
371.7466, 10255.47
372.2288, 10178.25
372.7109, 10119.94
373.1930, 10081.63
373.6751, 10049.45
374.1572, 10021.44
374.6393, 9997.815
375.1215, 9982.870
375.6036, 9976.473
376.0857, 9959.679
376.5678, 9908.425
377.0499, 9843.930
377.5320, 9811.034
378.0142, 9817.104
378.4963, 9826.826
378.9784, 9808.432
379.4605, 9767.389
379.9426, 9750.853
380.4247, 9780.885
380.9069, 9814.347
381.3890, 9823.727
381.8711, 9819.648
382.3532, 9828.458
382.8353, 9862.062
383.3174, 9912.437
383.7996, 9962.632
384.2817, 10015.00
384.7638, 10063.74
385.2459, 10097.00
385.7280, 10135.21
386.2101, 10196.60
386.6923, 10280.65
387.1744, 10371.49
387.6565, 10454.07
388.1386, 10528.36
388.6207, 10611.27
389.1028, 10724.55
389.5850, 10818.27
390.0671, 10871.08
390.5492, 10898.58
391.0313, 10925.34
391.5134, 10963.04
391.9955, 10995.05
392.4777, 10996.78
392.9598, 10967.02
393.4419, 10915.18
393.9240, 10829.24
394.4061, 10733.95
394.8882, 10653.71
395.3704, 10588.55
395.8525, 10522.52
396.3346, 10447.03
396.8167, 10365.84
397.2988, 10282.53
397.7809, 10196.66
398.2631, 10120.28
398.7452, 10063.02
399.2273, 10023.73
399.7094, 9987.677
400.1915, 9951.421
400.6736, 9922.116
401.1558, 9906.375
401.6379, 9898.749
402.1200, 9888.853
402.6021, 9872.837
403.0842, 9856.704
403.5663, 9850.907
404.0485, 9861.144
404.5306, 9868.986
405.0127, 9869.501
405.4948, 9872.544
405.9769, 9878.941
406.4590, 9892.418
406.9412, 9922.239
407.4233, 9978.202
407.9054, 10053.80
408.3875, 10114.58
408.8696, 10155.60
409.3517, 10190.63
409.8339, 10215.47
410.3160, 10240.84
410.7981, 10279.10
411.2802, 10333.80
411.7623, 10390.27
412.2444, 10437.03
412.7266, 10474.08
413.2087, 10505.01
413.6908, 10533.34
414.1729, 10548.69
414.6550, 10529.90
415.1371, 10485.86
415.6193, 10455.05
416.1014, 10468.06
416.5835, 10478.49
417.0656, 10444.48
417.5477, 10374.18
418.0298, 10301.07
418.5120, 10239.65
418.9941, 10187.39
419.4762, 10137.21
419.9583, 10085.48
420.4404, 10042.12
420.9225, 10013.25
421.4047, 9988.828
421.8868, 9961.692
422.3689, 9930.610
422.8510, 9897.098
423.3331, 9862.590
423.8152, 9826.912
424.2974, 9790.006
424.7795, 9744.555
425.2616, 9708.804
425.7437, 9688.020
426.2258, 9678.545
426.7079, 9676.068
427.1901, 9679.229
427.6722, 9688.935
428.1543, 9710.362
428.6364, 9742.438
429.1185, 9767.029
429.6006, 9779.709
430.0828, 9785.726
430.5649, 9788.520
431.0470, 9788.618
431.5291, 9788.670
432.0112, 9783.654
432.4933, 9783.115
432.9755, 9799.674
433.4576, 9830.353
433.9397, 9859.931
434.4218, 9881.552
434.9039, 9895.731
435.3860, 9903.712
435.8682, 9905.330
436.3503, 9900.940
436.8324, 9893.591
437.3145, 9878.182
437.7966, 9845.306
438.2787, 9797.444
438.7609, 9750.543
439.2430, 9718.936
439.7251, 9701.920
440.2072, 9682.715
440.6893, 9657.612
441.1714, 9635.564
441.6536, 9613.100
442.1357, 9596.940
442.6178, 9599.191
443.0999, 9625.225
443.5820, 9651.266
444.0641, 9650.908
444.5463, 9627.264
445.0284, 9601.372
445.5105, 9571.960
445.9926, 9550.442
446.4747, 9555.575
446.9568, 9580.869
447.4390, 9595.168
447.9211, 9584.017
448.4032, 9568.485
448.8853, 9566.975
449.3674, 9573.788
449.8495, 9568.608
450.3317, 9540.972
450.8138, 9505.732
451.2959, 9493.597
451.7780, 9522.073
452.2601, 9540.960
452.7422, 9546.702
453.2244, 9546.479
453.7065, 9543.511
454.1886, 9538.521
454.6707, 9530.686
455.1528, 9517.701
455.6349, 9503.164
456.1171, 9501.999
456.5992, 9519.697
457.0813, 9536.377
457.5634, 9542.150
458.0455, 9546.608
458.5276, 9560.846
459.0098, 9586.557
459.4919, 9605.733
459.9740, 9605.271
460.4561, 9590.419
460.9382, 9566.104
461.4203, 9530.924
461.9025, 9511.662
462.3846, 9536.279
462.8667, 9594.213
463.3488, 9618.636
463.8309, 9579.358
464.3130, 9545.861
464.7952, 9541.982
465.2773, 9554.243
465.7594, 9566.234
466.2415, 9573.423
466.7236, 9579.545
467.2057, 9589.211
467.6879, 9602.981
468.1700, 9615.775
468.6521, 9636.756
469.1342, 9645.876
469.6163, 9628.568
470.0984, 9598.317
470.5806, 9572.713
471.0627, 9557.342
471.5448, 9554.771
472.0269, 9578.051
472.5090, 9624.469
472.9911, 9647.851
473.4733, 9631.299
473.9554, 9603.467
474.4375, 9593.867
474.9196, 9598.858
475.4017, 9598.424
475.8839, 9580.712
476.3660, 9563.755
476.8481, 9562.585
477.3302, 9572.829
477.8123, 9581.607
478.2944, 9583.336
478.7766, 9581.636
479.2587, 9583.389
479.7408, 9590.223
480.2229, 9597.292
480.7050, 9604.699
481.1871, 9612.356
481.6693, 9619.996
482.1514, 9627.831
482.6335, 9636.937
483.1156, 9648.961
483.5977, 9660.571
484.0798, 9661.134
484.5620, 9647.056
485.0441, 9643.445
485.5262, 9664.236
486.0083, 9691.673
486.4904, 9709.312
486.9725, 9716.952
487.4547, 9715.567
487.9368, 9687.447
488.4189, 9661.765
488.9010, 9683.653
489.3831, 9745.511
489.8652, 9789.338
490.3474, 9780.065
490.8295, 9737.521
491.3116, 9717.267
491.7937, 9746.114
492.2758, 9760.318
492.7579, 9748.087
493.2401, 9730.720
493.7222, 9723.617
494.2043, 9726.339
494.6864, 9728.960
495.1685, 9723.812
495.6506, 9713.426
496.1328, 9705.724
496.6149, 9699.593
497.0970, 9699.965
497.5791, 9715.758
498.0612, 9733.894
498.5433, 9740.317
499.0254, 9733.677
499.5075, 9727.237
499.9897, 9724.421
500.4718, 9726.779
500.9539, 9736.710
501.4360, 9754.140
501.9181, 9779.677
502.4002, 9817.638
502.8824, 9859.640
503.3645, 9875.052
503.8466, 9817.353
504.3287, 9795.063
504.8108, 9842.126
505.2929, 9903.709
505.7751, 9936.870
506.2572, 9940.501
506.7393, 9939.248
507.2214, 9951.415
507.7035, 9974.316
508.1856, 9997.909
508.6678, 10022.99
509.1499, 10046.10
509.6320, 10067.52
510.1141, 10085.21
510.5962, 10092.17
511.0783, 10086.24
511.5605, 10094.45
512.0426, 10146.51
512.5247, 10209.76
513.0068, 10237.50
513.4890, 10230.88
513.9711, 10226.98
514.4532, 10249.17
514.9353, 10288.70
515.4174, 10315.18
515.8995, 10328.35
516.3817, 10327.22
516.8638, 10294.44
517.3459, 10261.00
517.8280, 10251.89
518.3101, 10264.64
518.7922, 10278.49
519.2744, 10275.44
519.7565, 10266.08
520.2386, 10288.29
520.7207, 10352.24
521.2028, 10391.60
521.6849, 10367.40
522.1671, 10323.50
522.6492, 10313.66
523.1313, 10339.86
523.6134, 10366.45
524.0955, 10384.71
524.5776, 10396.45
525.0598, 10397.43
525.5419, 10392.15
526.0240, 10400.26
526.5061, 10434.27
526.9882, 10478.43
527.4703, 10493.21
527.9525, 10461.12
528.4346, 10432.92
528.9167, 10409.02
529.3988, 10388.98
529.8809, 10378.70
530.3630, 10372.37
530.8452, 10354.28
531.3273, 10311.26
531.8094, 10260.53
532.2915, 10229.93
532.7736, 10219.05
533.2557, 10211.91
533.7379, 10205.37
534.2200, 10199.10
534.7021, 10194.02
535.1842, 10190.06
535.6663, 10180.41
536.1484, 10155.93
536.6306, 10133.46
537.1127, 10129.83
537.5948, 10133.90
538.0769, 10120.25
538.5590, 10079.41
539.0411, 10032.63
539.5233, 10014.16
540.0054, 10030.86
540.4875, 10040.49
540.9696, 10039.08
541.4517, 10035.16
541.9338, 10033.91
542.4160, 10032.43
542.8981, 10025.63
543.3802, 10011.52
543.8623, 9993.749
544.3444, 9973.729
544.8265, 9952.611
545.3087, 9931.198
545.7908, 9909.107
546.2729, 9895.268
546.7550, 9899.403
547.2371, 9920.003
547.7192, 9932.867
548.2014, 9936.729
548.6835, 9935.287
549.1656, 9921.076
549.6477, 9906.630
550.1298, 9906.843
550.6119, 9922.253
551.0941, 9938.786
551.5762, 9943.388
552.0583, 9938.464
552.5404, 9934.058
553.0225, 9929.088
553.5046, 9929.724
553.9868, 9946.052
554.4689, 9964.055
554.9510, 9960.280
555.4331, 9929.203
555.9152, 9909.410
556.3973, 9925.466
556.8795, 9948.870
557.3616, 9952.634
557.8437, 9938.976
558.3258, 9921.910
558.8079, 9908.192
559.2900, 9899.870
559.7722, 9903.122
560.2543, 9924.891
560.7364, 9940.125
561.2185, 9938.334
561.7006, 9938.210
562.1827, 9953.134
562.6649, 9976.272
563.1470, 9989.785
563.6291, 9983.184
564.1112, 9970.944
564.5933, 9967.918
565.0754, 9971.993
565.5576, 9976.654
566.0397, 9980.858
566.5218, 9982.346
567.0039, 9979.887
567.4860, 9973.685
567.9681, 9956.196
568.4503, 9910.580
568.9324, 9875.977
569.4145, 9868.453
569.8966, 9873.376
570.3787, 9873.768
570.8608, 9867.131
571.3430, 9864.849
571.8251, 9884.111
572.3072, 9917.091
572.7893, 9927.558
573.2714, 9912.544
573.7535, 9888.581
574.2357, 9852.649
574.7178, 9819.355
575.1999, 9817.622
575.6820, 9855.797
576.1641, 9880.845
576.6462, 9866.704
577.1284, 9846.480
577.6105, 9847.640
578.0926, 9865.256
578.5747, 9879.962
579.0568, 9881.942
579.5389, 9879.188
580.0211, 9890.527
580.5032, 9922.631
580.9852, 9935.719
581.4673, 9915.165
581.9495, 9889.942
582.4316, 9876.723
582.9137, 9870.441
583.3958, 9858.855
583.8779, 9831.862
584.3600, 9813.442
584.8422, 9831.595
585.3243, 9865.626
585.8064, 9877.644
586.2885, 9861.969
586.7706, 9834.340
587.2527, 9805.540
587.7349, 9777.197
588.2170, 9762.810
588.6991, 9779.711
589.1812, 9783.034
589.6633, 9747.694
590.1454, 9713.643
590.6276, 9719.227
591.1097, 9758.271
591.5918, 9786.480
592.0739, 9769.411
592.5560, 9734.827
593.0381, 9721.640
593.5203, 9727.292
594.0024, 9735.759
594.4845, 9742.318
594.9666, 9748.852
595.4487, 9758.995
595.9308, 9774.572
596.4130, 9779.971
596.8951, 9761.421
597.3772, 9749.955
597.8593, 9767.470
598.3414, 9791.767
598.8235, 9789.660
599.3057, 9755.405
599.7878, 9723.701
600.2699, 9735.565
600.7520, 9777.291
601.2341, 9795.389
601.7162, 9785.819
602.1984, 9781.024
602.6805, 9799.248
603.1626, 9828.148
603.6447, 9843.371
604.1268, 9842.435
604.6089, 9838.499
605.0911, 9828.680
605.5732, 9819.972
606.0553, 9816.883
606.5374, 9818.182
607.0195, 9820.951
607.5016, 9823.896
607.9838, 9827.372
608.4659, 9829.472
608.9480, 9830.385
609.4301, 9846.205
609.9122, 9887.396
610.3943, 9920.052
610.8765, 9921.679
611.3586, 9899.505
611.8407, 9871.427
612.3228, 9826.189
612.8049, 9799.664
613.2870, 9814.827
613.7692, 9844.501
614.2513, 9867.230
614.7334, 9880.629
615.2155, 9887.674
615.6976, 9889.929
616.1797, 9888.721
616.6619, 9885.543
617.1440, 9879.182
617.6261, 9879.919
618.1082, 9895.852
618.5903, 9909.597
619.0724, 9899.761
619.5546, 9878.073
620.0367, 9877.510
620.5188, 9925.901
621.0009, 9961.629
621.4830, 9944.415
621.9651, 9904.224
622.4473, 9876.637
622.9294, 9867.154
623.4115, 9866.894
623.8936, 9869.819
624.3757, 9875.528
624.8578, 9882.819
625.3400, 9892.079
625.8221, 9902.234
626.3042, 9920.351
626.7863, 9931.726
627.2684, 9917.968
627.7505, 9887.025
628.2327, 9871.508
628.7148, 9886.877
629.1969, 9912.269
629.6790, 9948.910
630.1611, 9982.562
630.6432, 9982.991
631.1254, 9947.934
631.6075, 9909.324
632.0896, 9895.063
632.5717, 9901.764
633.0538, 9909.301
633.5359, 9918.601
634.0181, 9926.275
634.5002, 9933.089
634.9823, 9936.467
635.4644, 9927.644
635.9465, 9910.647
636.4286, 9910.390
636.9108, 9953.629
637.3929, 9997.467
637.8750, 10012.55
638.3571, 10006.55
638.8392, 9988.647
639.3214, 9963.077
639.8035, 9943.684
640.2856, 9945.770
640.7677, 9966.351
641.2498, 9978.812
641.7319, 9981.583
642.2141, 9979.761
642.6962, 9969.385
643.1783, 9958.958
643.6604, 9953.411
644.1425, 9953.424
644.6246, 9961.688
645.1068, 9993.961
645.5889, 10020.69
646.0710, 10010.40
646.5531, 9981.883
647.0352, 9973.942
647.5173, 9995.024
647.9995, 10020.33
648.4816, 10022.16
648.9637, 10004.79
649.4458, 10011.73
649.9279, 10055.24
650.4100, 10092.79
650.8922, 10100.46
651.3743, 10107.95
651.8564, 10145.67
652.3385, 10210.90
652.8206, 10268.45
653.3027, 10308.21
653.7849, 10336.84
654.2670, 10352.19
654.7491, 10361.42
655.2312, 10375.96
655.7133, 10398.72
656.1954, 10426.77
656.6776, 10456.90
657.1597, 10489.87
657.6418, 10528.62
658.1239, 10568.93
658.6060, 10630.64
659.0881, 10740.29
659.5703, 10853.55
660.0524, 10914.15
