##NAMES=Actinolite
##RRUFFID=R060041
##IDEAL CHEMISTRY=Ca_2_(Mg_4.5-2.5_Fe^2+^_0.5-2.5_)Si_8_O_22_(OH)_2_
##LOCALITY=Prince of Wales Island, Alaska, USA
##OWNER=RRUFF
##SOURCE=University of Arizona Mineral Museum
##DESCRIPTION=Green acicular crystals forming parallel groups in cylindrical or bladed forms
##STATUS=The identification of this mineral has been confirmed by X-ray diffraction and chemical analysis
##URL=rruff.info/R060041
##MEASURED CHEMISTRY=(Ca_0.97_Na_0.03_)_2_(Mg_0.65_Fe^2+^_0.29_Fe^3+^_0.04_Al_0.01_Mn_0.01_)_5_(Si_0.98_Al_0.02_)_8_O_22_(OH)_2_
141.4444, 128.7174
141.9265, 128.8564
142.4086, 129.4774
142.8907, 130.2533
143.3728, 131.1523
143.8550, 132.1931
144.3371, 133.1075
144.8192, 133.7898
145.3013, 134.4276
145.7834, 135.2634
146.2655, 136.3153
146.7477, 137.5541
147.2298, 139.0227
147.7119, 140.8275
148.1940, 142.5329
148.6761, 144.0527
149.1582, 145.4998
149.6404, 147.0438
150.1225, 148.6426
150.6046, 150.3936
151.0867, 152.3555
151.5688, 155.2358
152.0509, 157.3025
152.5331, 158.4468
153.0152, 158.7823
153.4973, 158.5955
153.9794, 157.9284
154.4615, 156.7252
154.9436, 154.9400
155.4258, 151.6595
155.9079, 148.8790
156.3900, 146.8661
156.8721, 145.5353
157.3542, 144.4231
157.8363, 143.6192
158.3185, 142.9165
158.8006, 142.1843
159.2827, 141.1239
159.7648, 140.3184
160.2469, 139.9431
160.7290, 139.9754
161.2112, 140.1971
161.6933, 140.6846
162.1754, 141.2672
162.6575, 141.8022
163.1396, 142.1882
163.6217, 142.5745
164.1039, 143.0230
164.5860, 143.5339
165.0681, 144.0637
165.5502, 144.4915
166.0323, 144.9556
166.5145, 145.6188
166.9966, 146.6683
167.4787, 147.8363
167.9608, 148.8704
168.4429, 149.7388
168.9250, 150.8952
169.4071, 152.7724
169.8893, 155.0974
170.3714, 157.4439
170.8535, 159.4750
171.3356, 161.5632
171.8177, 164.0012
172.2998, 166.8151
172.7820, 169.9351
173.2641, 173.8585
173.7462, 178.0733
174.2283, 181.5071
174.7104, 183.8875
175.1925, 185.1421
175.6747, 185.2260
176.1568, 184.1901
176.6389, 181.8143
177.1210, 177.1756
177.6031, 170.8401
178.0852, 164.5611
178.5674, 158.9907
179.0495, 154.1489
179.5316, 150.0125
180.0137, 146.6231
180.4958, 143.7939
180.9779, 141.3079
181.4601, 139.1528
181.9422, 137.3215
182.4243, 135.8372
182.9064, 134.6707
183.3885, 133.7624
183.8706, 133.1372
184.3528, 132.6972
184.8349, 132.2915
185.3170, 131.9262
185.7991, 131.6444
186.2812, 131.5336
186.7633, 131.5418
187.2455, 131.4777
187.7276, 131.2702
188.2097, 131.0243
188.6918, 130.9670
189.1739, 131.0975
189.6560, 131.2269
190.1382, 131.1743
190.6203, 130.9765
191.1024, 130.8654
191.5845, 130.8931
192.0666, 131.0291
192.5487, 131.2211
193.0309, 131.4749
193.5130, 131.7431
193.9951, 131.9993
194.4772, 132.2449
194.9593, 132.4522
195.4414, 132.5593
195.9236, 132.6532
196.4057, 133.0263
196.8878, 133.6949
197.3699, 134.5350
197.8520, 135.5044
198.3341, 136.6207
198.8163, 137.6023
199.2984, 138.3270
199.7805, 138.8830
200.2626, 139.7112
200.7447, 140.8579
201.2268, 142.0831
201.7090, 143.1153
202.1911, 143.9248
202.6732, 144.8354
203.1553, 145.9305
203.6374, 147.1879
204.1195, 148.4507
204.6017, 149.7424
205.0838, 150.9824
205.5659, 152.0602
206.0480, 152.9407
206.5301, 153.8478
207.0122, 154.7425
207.4944, 155.6639
207.9765, 157.1408
208.4586, 159.4160
208.9407, 161.7492
209.4228, 163.2802
209.9049, 163.7828
210.3871, 164.3714
210.8692, 165.2750
211.3513, 166.4835
211.8334, 167.9150
212.3155, 169.5812
212.7976, 171.4518
213.2798, 173.5635
213.7619, 176.0584
214.2440, 178.3667
214.7261, 180.2808
215.2082, 181.7787
215.6903, 183.7090
216.1725, 186.3227
216.6546, 188.9885
217.1367, 190.9601
217.6188, 192.0345
218.1009, 192.9558
218.5830, 193.9870
219.0651, 195.1681
219.5473, 195.7473
220.0294, 195.7132
220.5115, 195.1048
220.9936, 193.9123
221.4757, 191.9272
221.9578, 189.8025
222.4400, 187.6250
222.9221, 185.3592
223.4042, 183.2625
223.8863, 181.2870
224.3684, 179.4918
224.8505, 177.9731
225.3327, 176.9744
225.8148, 175.7663
226.2969, 174.1629
226.7790, 172.1108
227.2611, 170.0466
227.7432, 167.8918
228.2254, 165.7659
228.7075, 163.7976
229.1896, 161.9816
229.6717, 160.3089
230.1538, 158.8026
230.6359, 157.4942
231.1181, 156.0747
231.6002, 154.4545
232.0823, 152.8062
232.5644, 151.3157
233.0465, 149.9475
233.5286, 148.7742
234.0108, 147.8587
234.4929, 147.2187
234.9750, 146.4947
235.4571, 145.5826
235.9392, 144.6948
236.4213, 144.0811
236.9035, 143.9268
237.3856, 143.7082
237.8677, 143.2701
238.3498, 142.5794
238.8319, 142.1066
239.3140, 141.9925
239.7962, 141.9674
240.2783, 141.7184
240.7604, 141.0198
241.2425, 140.5282
241.7246, 140.4244
242.2067, 140.7314
242.6889, 141.0052
243.1710, 141.3788
243.6531, 141.5888
244.1352, 141.3157
244.6173, 140.1932
245.0994, 139.2910
245.5816, 138.8949
246.0637, 139.0171
246.5458, 138.9124
247.0279, 138.4565
247.5100, 137.9000
247.9921, 137.4794
248.4743, 137.2330
248.9564, 137.0493
249.4385, 136.9626
249.9206, 136.9678
250.4027, 136.7527
250.8848, 136.1711
251.3670, 135.5361
251.8491, 135.1166
252.3312, 134.9346
252.8133, 134.9291
253.2954, 135.1944
253.7775, 135.6967
254.2597, 135.8503
254.7418, 135.4863
255.2239, 134.9832
255.7060, 134.6255
256.1881, 134.4215
256.6702, 134.3399
257.1523, 134.4238
257.6345, 134.6447
258.1166, 134.7694
258.5987, 134.8186
259.0808, 134.7401
259.5629, 134.4434
260.0450, 133.7893
260.5272, 133.3114
261.0093, 133.0758
261.4914, 133.0688
261.9735, 133.2929
262.4556, 133.9452
262.9377, 134.4828
263.4199, 134.4301
263.9020, 133.4761
264.3841, 132.9803
264.8662, 133.2596
265.3483, 134.0497
265.8304, 134.3003
266.3126, 133.8086
266.7947, 133.2116
267.2768, 132.8945
267.7589, 132.9178
268.2410, 132.9866
268.7231, 133.0876
269.2053, 133.2211
269.6874, 133.3981
270.1695, 133.6416
270.6516, 133.8728
271.1337, 134.0174
271.6158, 134.0328
272.0980, 134.2152
272.5801, 134.6623
273.0622, 135.2033
273.5443, 135.3705
274.0264, 135.0428
274.5085, 134.7701
274.9907, 134.9041
275.4728, 135.5200
275.9549, 135.8309
276.4370, 135.7057
276.9191, 135.4277
277.4012, 135.5891
277.8834, 136.2877
278.3655, 136.8948
278.8476, 137.0667
279.3297, 136.7876
279.8118, 136.6831
280.2939, 136.7591
280.7761, 137.0089
281.2582, 137.5190
281.7403, 138.3273
282.2224, 138.9860
282.7045, 139.2650
283.1866, 139.2001
283.6688, 139.2061
284.1509, 139.2789
284.6330, 139.4290
285.1151, 139.7713
285.5972, 140.3027
286.0793, 140.5869
286.5615, 140.3190
287.0436, 139.6667
287.5257, 139.4478
288.0078, 139.6993
288.4899, 140.1774
288.9720, 140.7763
289.4542, 141.4619
289.9363, 141.8503
290.4184, 141.7038
290.9005, 141.2375
291.3826, 141.0720
291.8647, 141.2226
292.3469, 141.4400
292.8290, 141.4566
293.3111, 141.3325
293.7932, 141.3687
294.2753, 141.7180
294.7574, 142.1836
295.2396, 142.4082
295.7217, 142.3964
296.2038, 142.1870
296.6859, 141.6023
297.1680, 140.8326
297.6501, 140.4219
298.1323, 140.5509
298.6144, 140.9379
299.0965, 141.2380
299.5786, 141.4576
300.0607, 141.6164
300.5428, 141.7599
301.0250, 141.8499
301.5071, 141.7979
301.9892, 141.5621
302.4713, 141.2657
302.9534, 140.9935
303.4355, 140.7610
303.9177, 140.6123
304.3998, 140.7186
304.8819, 140.8678
305.3640, 140.7008
305.8461, 140.1222
306.3282, 139.6082
306.8104, 139.7162
307.2925, 140.2014
307.7746, 140.5527
308.2567, 140.3809
308.7388, 140.0587
309.2209, 139.9682
309.7031, 140.1419
310.1852, 140.2698
310.6673, 140.0327
311.1494, 139.6400
311.6315, 139.3890
312.1136, 139.4638
312.5958, 139.6618
313.0779, 139.8479
313.5600, 140.0227
314.0421, 140.2502
314.5242, 140.6374
315.0063, 141.0577
315.4885, 141.3851
315.9706, 141.5884
316.4527, 141.6828
316.9348, 141.5852
317.4169, 141.3511
317.8990, 141.2335
318.3812, 141.4018
318.8633, 141.6840
319.3454, 141.9564
319.8275, 142.1406
320.3096, 142.4028
320.7917, 142.9416
321.2739, 143.6133
321.7560, 144.0516
322.2381, 143.9046
322.7202, 143.7046
323.2023, 143.7268
323.6844, 144.1367
324.1666, 144.4477
324.6487, 144.3474
325.1308, 144.1362
325.6129, 144.2839
326.0950, 145.2337
326.5771, 146.1917
327.0593, 146.9612
327.5414, 147.5422
328.0235, 147.8851
328.5056, 147.5882
328.9877, 147.2123
329.4698, 147.3468
329.9520, 148.6552
330.4341, 149.6914
330.9162, 150.0960
331.3983, 149.8409
331.8804, 149.8756
332.3625, 150.4404
332.8447, 151.0900
333.3268, 151.4859
333.8089, 151.4281
334.2910, 151.4865
334.7731, 151.7557
335.2552, 152.1987
335.7374, 152.5993
336.2195, 152.9262
336.7016, 153.2655
337.1837, 153.6990
337.6658, 154.2997
338.1479, 154.7087
338.6301, 154.8091
339.1122, 154.7730
339.5943, 155.0332
340.0764, 155.6783
340.5585, 156.3136
341.0406, 156.7270
341.5227, 156.9048
342.0049, 157.1329
342.4870, 157.4072
342.9691, 157.7426
343.4512, 158.1812
343.9333, 158.7355
344.4154, 159.2684
344.8976, 159.6772
345.3797, 160.0217
345.8618, 160.6620
346.3439, 161.6640
346.8260, 162.5659
347.3081, 162.7591
347.7903, 162.3626
348.2724, 162.2060
348.7545, 162.5539
349.2366, 163.2046
349.7187, 163.8444
350.2008, 164.4706
350.6830, 164.9485
351.1651, 165.0052
351.6472, 164.8505
352.1293, 165.0072
352.6114, 165.6306
353.0935, 166.3955
353.5757, 166.8961
354.0578, 167.2124
354.5399, 167.6300
355.0220, 168.3721
355.5041, 169.2771
355.9862, 170.1606
356.4684, 171.0007
356.9505, 171.7924
357.4326, 172.4134
357.9147, 172.9965
358.3968, 173.7542
358.8789, 174.9963
359.3611, 176.2831
359.8432, 177.2768
360.3253, 177.9868
360.8074, 178.7020
361.2895, 179.6550
361.7716, 180.6503
362.2538, 181.5089
362.7359, 182.1519
363.2180, 182.6860
363.7001, 183.2352
364.1822, 183.7348
364.6643, 183.9322
365.1465, 183.6142
365.6286, 183.0880
366.1107, 182.4952
366.5928, 181.7798
367.0749, 181.1509
367.5570, 180.8258
368.0392, 180.5758
368.5213, 180.0028
369.0034, 178.6745
369.4855, 177.3983
369.9676, 176.3961
370.4497, 175.7222
370.9319, 175.0733
371.4140, 174.5455
371.8961, 173.9683
372.3782, 173.1175
372.8603, 171.4590
373.3424, 170.4737
373.8246, 170.6784
374.3067, 171.8752
374.7888, 172.3570
375.2709, 171.7136
375.7530, 171.0409
376.2351, 171.1626
376.7173, 172.3904
377.1994, 173.0789
377.6815, 172.9346
378.1636, 172.3827
378.6457, 172.3845
379.1278, 173.0051
379.6100, 173.8349
380.0921, 174.7188
380.5742, 175.6557
381.0563, 176.7175
381.5384, 177.9306
382.0205, 179.1538
382.5027, 180.1865
382.9848, 181.0484
383.4669, 181.8625
383.9490, 182.7738
384.4311, 183.6140
384.9132, 183.8809
385.3954, 183.5923
385.8775, 183.2899
386.3596, 183.4442
386.8417, 183.9027
387.3238, 184.4391
387.8059, 185.1909
388.2881, 185.6078
388.7702, 184.8314
389.2523, 183.1629
389.7344, 181.5314
390.2165, 180.6255
390.6986, 179.8828
391.1808, 178.6584
391.6629, 176.8057
392.1450, 175.0557
392.6271, 173.9954
393.1092, 173.2982
393.5913, 172.5448
394.0735, 171.5379
394.5556, 170.4769
395.0377, 169.4547
395.5198, 168.4687
396.0019, 167.4537
396.4840, 166.1803
396.9662, 165.0038
397.4483, 164.1635
397.9304, 163.8760
398.4125, 163.6814
398.8946, 163.6624
399.3767, 163.6926
399.8589, 163.4617
400.3410, 162.3619
400.8231, 161.5479
401.3052, 161.4828
401.7873, 162.4821
402.2694, 162.9861
402.7516, 162.7370
403.2337, 162.1819
403.7158, 161.8087
404.1979, 161.6721
404.6800, 161.6121
405.1621, 161.6534
405.6443, 161.7628
406.1264, 161.6600
406.6085, 161.2747
407.0906, 160.8692
407.5727, 160.6291
408.0548, 160.5670
408.5370, 160.5484
409.0191, 160.6045
409.5012, 160.6264
409.9833, 160.4313
410.4654, 160.0186
410.9475, 159.4173
411.4297, 158.6120
411.9118, 157.6286
412.3939, 156.4738
412.8760, 155.1451
413.3581, 153.9316
413.8402, 153.0698
414.3224, 152.5517
414.8045, 152.3837
415.2866, 152.8202
415.7687, 153.3012
416.2508, 153.1685
416.7329, 152.5023
417.2151, 151.6614
417.6972, 150.6021
418.1793, 149.6062
418.6614, 148.9760
419.1435, 148.8342
419.6256, 148.7650
420.1078, 148.6501
420.5899, 148.4363
421.0720, 148.0403
421.5541, 147.1049
422.0362, 146.2885
422.5183, 145.8703
423.0005, 145.8591
423.4826, 145.9595
423.9647, 146.2682
424.4468, 146.5642
424.9289, 146.6979
425.4110, 146.3704
425.8932, 146.2337
426.3753, 146.4166
426.8574, 146.7935
427.3395, 147.0843
427.8216, 147.3344
428.3037, 147.4197
428.7859, 147.1996
429.2680, 146.5647
429.7501, 146.4350
430.2322, 147.0616
430.7143, 147.8301
431.1964, 147.9754
431.6786, 147.3286
432.1607, 146.9778
432.6428, 147.2514
433.1249, 147.8997
433.6070, 148.0816
434.0891, 147.7651
434.5713, 147.3748
435.0534, 147.2676
435.5355, 147.3496
436.0176, 147.1171
436.4997, 146.4886
436.9818, 145.7393
437.4640, 145.1436
437.9461, 144.6888
438.4282, 144.3369
438.9103, 144.1905
439.3924, 144.0627
439.8745, 143.6483
440.3566, 142.9887
440.8387, 142.4013
441.3209, 142.2076
441.8030, 142.1389
442.2851, 141.8772
442.7672, 141.2089
443.2493, 140.6691
443.7314, 140.5201
444.2136, 140.6958
444.6957, 141.0814
445.1778, 142.1923
445.6599, 143.0061
446.1420, 142.9172
446.6241, 141.7931
447.1063, 141.0345
447.5884, 141.1656
448.0705, 141.5381
448.5526, 141.6660
449.0347, 141.2694
449.5168, 141.0123
449.9990, 140.9109
450.4811, 140.9720
450.9632, 141.2636
451.4453, 142.0054
451.9274, 142.5620
452.4095, 142.6387
452.8917, 142.1937
453.3738, 141.7906
453.8559, 141.4346
454.3380, 141.1206
454.8201, 140.8177
455.3022, 140.5275
455.7844, 140.3839
456.2665, 140.4498
456.7486, 140.6464
457.2307, 140.8187
457.7128, 140.9671
458.1949, 141.1105
458.6771, 141.2290
459.1592, 141.3557
459.6413, 141.5993
460.1234, 141.9875
460.6055, 142.3058
461.0876, 142.3187
461.5698, 142.1405
462.0519, 141.9651
462.5340, 141.8435
463.0161, 141.7657
463.4982, 141.8168
463.9803, 141.9383
464.4625, 141.8724
464.9446, 141.1619
465.4267, 140.4832
465.9088, 140.2728
466.3909, 140.7309
466.8730, 141.2466
467.3552, 141.8347
467.8373, 142.3701
468.3194, 142.6897
468.8015, 142.5599
469.2836, 142.4829
469.7657, 142.5593
470.2479, 142.7674
470.7300, 142.8840
471.2121, 142.7993
471.6942, 142.7900
472.1763, 143.1306
472.6584, 144.0031
473.1406, 144.1839
473.6227, 143.4030
474.1048, 142.3379
474.5869, 142.0676
475.0690, 142.6067
475.5511, 143.1687
476.0333, 143.5200
476.5154, 143.7164
476.9975, 143.8799
477.4796, 144.0141
477.9617, 144.1715
478.4438, 144.4993
478.9260, 144.8540
479.4081, 144.8721
479.8902, 144.3941
480.3723, 144.0549
480.8544, 144.7157
481.3365, 145.8479
481.8187, 146.5401
482.3008, 145.7670
482.7829, 145.0131
483.2650, 145.3572
483.7471, 146.6310
484.2292, 147.4622
484.7114, 147.0971
485.1935, 146.3673
485.6756, 145.7190
486.1577, 145.0486
486.6398, 144.7700
487.1219, 145.2912
487.6041, 146.0932
488.0862, 146.4773
488.5683, 146.1131
489.0504, 145.9004
489.5325, 146.1089
490.0146, 146.6553
490.4968, 146.8192
490.9789, 146.4449
491.4610, 146.0891
491.9431, 146.1732
492.4252, 146.7063
492.9073, 147.0190
493.3895, 147.0379
493.8716, 146.9540
494.3537, 146.9601
494.8358, 147.0705
495.3179, 147.3854
495.8000, 148.0811
496.2822, 148.8775
496.7643, 149.2999
497.2464, 149.4039
497.7285, 149.4824
498.2106, 149.7396
498.6927, 150.0603
499.1749, 150.2938
499.6570, 150.3799
500.1391, 150.5788
500.6212, 151.1478
501.1033, 151.8613
501.5854, 152.4618
502.0676, 152.8536
502.5497, 153.1354
503.0318, 153.3140
503.5139, 153.3977
503.9960, 153.4330
504.4781, 153.3495
504.9603, 153.2962
505.4424, 153.3415
505.9245, 153.5232
506.4066, 153.6422
506.8887, 153.6297
507.3708, 153.6449
507.8530, 153.9264
508.3351, 154.5557
508.8172, 154.9488
509.2993, 154.9368
509.7814, 154.6967
510.2635, 154.6433
510.7457, 154.7738
511.2278, 154.9710
511.7099, 155.1935
512.1920, 155.4287
512.6741, 155.6759
513.1563, 155.9358
513.6384, 156.1297
514.1205, 156.1869
514.6026, 156.1371
515.0847, 156.0273
515.5668, 155.8906
516.0490, 155.6620
516.5311, 155.0770
517.0132, 154.3851
517.4953, 154.0896
517.9774, 154.7481
518.4595, 155.4859
518.9417, 156.0285
519.4238, 156.3646
519.9059, 156.3962
520.3880, 155.5941
520.8701, 154.8852
521.3522, 154.8191
521.8344, 155.9478
522.3165, 156.5628
522.7986, 156.4663
523.2807, 156.0061
523.7628, 155.7870
524.2449, 155.8768
524.7271, 155.8171
525.2092, 155.3865
525.6913, 154.7396
526.1734, 154.4533
526.6555, 154.5336
527.1376, 154.6974
527.6198, 154.8338
528.1019, 154.8937
528.5840, 154.6942
529.0661, 154.1851
529.5482, 153.7036
530.0303, 153.6478
530.5125, 153.8023
530.9946, 153.8203
531.4767, 153.3603
531.9588, 152.9921
532.4409, 153.1959
532.9230, 153.7544
533.4052, 154.0432
533.8873, 153.7552
534.3694, 153.2500
534.8515, 152.5880
535.3336, 151.6876
535.8157, 151.1017
536.2979, 150.9665
536.7800, 151.0271
537.2621, 151.1391
537.7442, 151.4137
538.2263, 151.4238
538.7084, 151.0366
539.1906, 150.4793
539.6727, 150.2207
540.1548, 150.2813
540.6369, 150.3484
541.1190, 150.2630
541.6011, 150.1211
542.0833, 150.2814
542.5654, 150.7280
543.0475, 151.1261
543.5296, 151.2288
544.0117, 151.1230
544.4938, 150.9018
544.9760, 150.5480
545.4581, 150.2386
545.9402, 150.0874
546.4223, 150.0593
546.9044, 150.1097
547.3865, 150.3514
547.8687, 150.5302
548.3508, 150.4436
548.8329, 150.2094
549.3150, 150.2073
549.7971, 150.9319
550.2792, 151.4598
550.7614, 151.4157
551.2435, 150.7302
551.7256, 150.3621
552.2077, 150.4948
552.6898, 150.6796
553.1719, 150.4934
553.6541, 149.8524
554.1362, 149.5791
554.6183, 149.8384
555.1004, 150.2853
555.5825, 150.2904
556.0646, 149.9321
556.5468, 149.7372
557.0289, 150.0146
557.5110, 150.4585
557.9931, 150.5948
558.4752, 150.4665
558.9573, 150.3046
559.4395, 150.2494
559.9216, 150.2200
560.4037, 150.1333
560.8858, 149.9705
561.3679, 149.8412
561.8500, 149.8145
562.3322, 149.8298
562.8143, 149.8341
563.2964, 149.7759
563.7785, 149.7648
564.2606, 149.8232
564.7427, 149.9288
565.2249, 150.0570
565.7070, 150.2811
566.1891, 150.3603
566.6712, 150.1736
567.1533, 149.7765
567.6354, 149.4981
568.1176, 149.3362
568.5997, 149.3051
569.0818, 149.5156
569.5639, 149.8810
570.0460, 150.0061
570.5281, 149.8358
571.0103, 149.6646
571.4924, 149.8935
571.9745, 150.3033
572.4566, 150.4969
572.9387, 150.2318
573.4208, 149.9201
573.9030, 149.8095
574.3851, 149.8488
574.8672, 149.9234
575.3493, 150.1010
575.8314, 150.2031
576.3135, 150.1230
576.7957, 149.8573
577.2778, 149.6482
577.7599, 149.4873
578.2420, 149.3993
578.7241, 149.4269
579.2062, 149.6315
579.6884, 149.7015
580.1705, 149.6274
580.6526, 149.4397
581.1347, 149.1100
581.6168, 148.6460
582.0989, 148.3409
582.5811, 148.2955
583.0632, 148.3682
583.5453, 148.3114
584.0274, 148.1701
584.5095, 148.1104
584.9916, 148.2858
585.4738, 148.5334
585.9559, 148.7531
586.4380, 148.9270
586.9201, 148.9609
587.4022, 148.5995
587.8843, 148.2343
588.3664, 148.1732
588.8485, 148.6273
589.3306, 148.8268
589.8127, 148.3238
590.2949, 147.7431
590.7770, 147.6773
591.2591, 148.4774
591.7412, 148.9554
592.2233, 148.8860
592.7054, 148.5298
593.1876, 148.5097
593.6697, 148.8660
594.1518, 149.0564
594.6339, 148.7632
595.1160, 148.2239
595.5981, 148.0562
596.0803, 148.2289
596.5624, 148.4389
597.0445, 148.4144
597.5266, 148.3429
598.0087, 148.4954
598.4908, 148.9123
598.9730, 149.2923
599.4551, 149.5049
599.9372, 149.5829
600.4193, 149.5429
600.9014, 149.1817
601.3835, 149.0047
601.8657, 149.3569
602.3478, 149.8495
602.8299, 149.8714
603.3120, 149.0953
603.7941, 148.4740
604.2762, 148.1607
604.7584, 148.1554
605.2405, 148.5784
605.7226, 149.5157
606.2047, 150.2832
606.6868, 150.4919
607.1689, 150.2520
607.6511, 149.8131
608.1332, 149.1759
608.6153, 148.7361
609.0974, 148.9563
609.5795, 149.5076
610.0616, 149.9526
610.5438, 150.1925
611.0259, 150.3958
611.5080, 150.6877
611.9901, 150.9772
612.4722, 151.1592
612.9543, 151.1274
613.4365, 151.0788
613.9186, 151.0052
614.4007, 150.9401
614.8828, 150.9704
615.3649, 151.1338
615.8470, 151.3083
616.3292, 151.4413
616.8113, 151.5497
617.2934, 151.7907
617.7755, 152.1862
618.2576, 152.5513
618.7397, 152.7780
619.2219, 152.8790
619.7040, 152.8081
620.1861, 152.5466
620.6682, 152.4344
621.1503, 153.0085
621.6324, 153.7997
622.1146, 154.1969
622.5967, 153.8616
623.0788, 153.5555
623.5609, 153.6033
624.0430, 153.8860
624.5251, 154.2328
625.0073, 154.8238
625.4894, 155.2189
625.9715, 155.2137
626.4536, 154.9829
626.9357, 155.1265
627.4178, 155.7503
627.9000, 156.4631
628.3821, 157.1709
628.8642, 157.8493
629.3463, 158.2910
629.8284, 158.4873
630.3105, 158.6290
630.7927, 158.8433
631.2748, 159.1012
631.7569, 159.3398
632.2390, 159.5487
632.7211, 159.7952
633.2032, 160.0745
633.6854, 160.4443
