##NAMES=Actinolite
##RRUFFID=R040064
##IDEAL CHEMISTRY=Ca_2_(Mg_4.5-2.5_Fe^2+^_0.5-2.5_)Si_8_O_22_(OH)_2_
##LOCALITY=Ehime Perfecture, Uma Gun, Japan
##OWNER=RRUFF
##SOURCE=University of Arizona Mineral Museum
##DESCRIPTION=Aggregate of green acicular crystals associated with chlorite
##STATUS=The identification of this mineral has been confirmed by X-ray diffraction and chemical analysis
##URL=rruff.info/R040064
##MEASURED CHEMISTRY=(Ca_0.95_Na_0.04_Mn_0.01_)_2_(Mg_0.88_Fe_0.12_)_5_(Si_0.98_Al_0.02_)_8_O_22_(OH)_2_
208.3091, 41515.02
208.7912, 41611.30
209.2734, 41712.85
209.7555, 41814.71
210.2376, 41908.90
210.7197, 41992.65
211.2018, 42079.68
211.6839, 42179.37
212.1660, 42291.28
212.6482, 42425.67
213.1303, 42591.41
213.6124, 42778.74
214.0945, 42980.15
214.5766, 43194.95
215.0587, 43419.42
215.5409, 43641.98
216.0230, 43862.90
216.5051, 44114.39
216.9872, 44426.07
217.4693, 44753.69
217.9514, 45063.48
218.4336, 45352.67
218.9157, 45628.42
219.3978, 45897.09
219.8799, 46158.22
220.3620, 46406.20
220.8441, 46650.38
221.3263, 46868.02
221.8084, 47046.83
222.2905, 47186.60
222.7726, 47291.58
223.2547, 47365.51
223.7368, 47407.44
224.2190, 47406.27
224.7011, 47324.89
225.1832, 47246.59
225.6653, 47234.78
226.1474, 47285.74
226.6295, 47377.38
227.1117, 47512.19
227.5938, 47679.16
228.0759, 47856.20
228.5580, 48065.98
229.0401, 48234.38
229.5222, 48290.69
230.0044, 48252.64
230.4865, 48182.94
230.9686, 48130.55
231.4507, 48062.79
231.9328, 47894.74
232.4149, 47592.75
232.8971, 47261.55
233.3792, 46990.32
233.8613, 46759.27
234.3434, 46509.32
234.8255, 46179.11
235.3076, 45835.81
235.7898, 45580.87
236.2719, 45426.45
236.7540, 45320.35
237.2361, 45239.56
237.7182, 45179.10
238.2003, 45126.47
238.6825, 45073.43
239.1646, 45030.97
239.6467, 45016.45
240.1288, 45031.16
240.6109, 45049.13
241.0930, 45047.69
241.5752, 45039.26
242.0573, 45058.60
242.5394, 45139.89
243.0215, 45224.11
243.5036, 45257.41
243.9857, 45245.86
244.4679, 45241.56
244.9500, 45272.26
245.4321, 45331.13
245.9142, 45389.64
246.3963, 45438.26
246.8784, 45497.93
247.3606, 45604.68
247.8427, 45736.95
248.3248, 45820.75
248.8069, 45814.66
249.2890, 45747.74
249.7711, 45693.13
250.2533, 45661.45
250.7354, 45618.32
251.2175, 45530.04
251.6996, 45423.37
252.1817, 45355.05
252.6638, 45349.52
253.1460, 45375.18
253.6281, 45372.69
254.1102, 45331.86
254.5923, 45294.68
255.0744, 45268.00
255.5565, 45249.30
256.0387, 45236.78
256.5208, 45230.26
257.0029, 45226.81
257.4850, 45220.76
257.9671, 45205.56
258.4492, 45211.98
258.9314, 45262.41
259.4135, 45322.27
259.8956, 45364.91
260.3777, 45386.18
260.8598, 45393.20
261.3419, 45391.51
261.8241, 45378.32
262.3062, 45372.65
262.7883, 45376.23
263.2704, 45385.11
263.7525, 45403.58
264.2346, 45427.42
264.7168, 45444.21
265.1989, 45445.02
265.6810, 45429.96
266.1631, 45394.20
266.6452, 45308.96
267.1273, 45235.82
267.6095, 45194.92
268.0916, 45181.85
268.5737, 45186.28
269.0558, 45202.88
269.5379, 45230.06
270.0201, 45257.65
270.5022, 45282.75
270.9843, 45311.79
271.4664, 45356.26
271.9485, 45401.38
272.4306, 45425.94
272.9128, 45420.00
273.3949, 45396.90
273.8770, 45386.46
274.3591, 45373.38
274.8412, 45402.52
275.3233, 45505.73
275.8055, 45629.51
276.2876, 45728.82
276.7697, 45792.36
277.2518, 45840.54
277.7339, 45905.26
278.2160, 45995.80
278.6982, 46072.05
279.1803, 46111.90
279.6624, 46152.41
280.1445, 46219.23
280.6266, 46310.46
281.1087, 46400.70
281.5909, 46469.49
282.0730, 46516.93
282.5551, 46539.81
283.0372, 46505.54
283.5193, 46482.10
284.0014, 46510.97
284.4836, 46577.10
284.9657, 46638.55
285.4478, 46671.08
285.9299, 46678.54
286.4120, 46671.15
286.8941, 46641.78
287.3763, 46613.18
287.8584, 46597.95
288.3405, 46591.12
288.8226, 46584.57
289.3047, 46571.46
289.7868, 46562.69
290.2690, 46584.44
290.7511, 46644.08
291.2332, 46680.39
291.7153, 46640.11
292.1974, 46573.29
292.6795, 46545.05
293.1617, 46568.57
293.6438, 46616.83
294.1259, 46679.75
294.6080, 46753.05
295.0901, 46810.12
295.5722, 46829.49
296.0544, 46844.22
296.5365, 46909.07
297.0186, 47032.82
297.5007, 47142.59
297.9828, 47193.96
298.4649, 47215.27
298.9471, 47251.93
299.4292, 47311.46
299.9113, 47398.84
300.3934, 47538.35
300.8755, 47737.91
301.3576, 47878.24
301.8398, 47906.40
302.3219, 47896.93
302.8040, 47911.88
303.2861, 47955.02
303.7682, 47998.15
304.2503, 48015.36
304.7325, 48008.00
305.2146, 48037.21
305.6967, 48150.95
306.1788, 48247.30
306.6609, 48280.34
307.1430, 48264.86
307.6252, 48234.45
308.1073, 48206.03
308.5894, 48179.79
309.0715, 48156.90
309.5536, 48148.91
310.0357, 48129.88
310.5179, 48095.07
311.0000, 48049.77
311.4821, 47991.25
311.9642, 47920.95
312.4463, 47858.83
312.9284, 47842.19
313.4106, 47901.84
313.8927, 47941.01
314.3748, 47961.10
314.8569, 47964.20
315.3390, 47937.87
315.8211, 47890.33
316.3033, 47854.03
316.7854, 47866.05
317.2675, 47928.39
317.7496, 47964.90
318.2317, 47934.68
318.7138, 47923.91
319.1960, 47981.11
319.6781, 48077.37
320.1602, 48153.53
320.6423, 48164.54
321.1244, 48144.70
321.6065, 48193.36
322.0887, 48340.55
322.5708, 48469.03
323.0529, 48511.20
323.5350, 48519.24
324.0171, 48543.41
324.4992, 48596.67
324.9814, 48663.08
325.4635, 48722.39
325.9456, 48776.60
326.4277, 48857.64
326.9098, 49000.18
327.3919, 49143.72
327.8741, 49214.46
328.3562, 49209.52
328.8383, 49199.04
329.3204, 49221.80
329.8025, 49257.94
330.2846, 49266.86
330.7668, 49239.59
331.2489, 49209.25
331.7310, 49209.19
332.2131, 49239.05
332.6952, 49261.98
333.1773, 49277.97
333.6595, 49285.16
334.1415, 49283.21
334.6237, 49271.88
335.1058, 49247.37
335.5879, 49204.44
336.0700, 49148.85
336.5521, 49111.16
337.0342, 49094.52
337.5164, 49089.40
337.9985, 49083.60
338.4806, 49091.65
338.9627, 49141.53
339.4448, 49241.91
339.9269, 49360.98
340.4091, 49442.95
340.8912, 49465.21
341.3733, 49493.35
341.8554, 49503.84
342.3375, 49536.39
342.8196, 49637.05
343.3018, 49791.88
343.7839, 49934.82
344.2660, 49997.31
344.7481, 49979.17
345.2302, 50002.54
345.7123, 50094.98
346.1945, 50198.37
346.6766, 50311.58
347.1587, 50420.00
347.6408, 50499.48
348.1229, 50533.04
348.6050, 50544.41
349.0872, 50581.41
349.5693, 50650.98
350.0514, 50718.45
350.5335, 50783.51
351.0156, 50834.86
351.4977, 50857.77
351.9799, 50848.61
352.4620, 50831.75
352.9441, 50821.35
353.4262, 50817.59
353.9083, 50825.55
354.3904, 50854.82
354.8726, 50877.04
355.3547, 50854.22
355.8368, 50794.04
356.3189, 50736.67
356.8010, 50682.49
357.2831, 50640.85
357.7653, 50620.98
358.2474, 50623.16
358.7295, 50644.09
359.2116, 50685.20
359.6937, 50743.06
360.1758, 50797.81
360.6580, 50848.32
361.1401, 50897.78
361.6222, 50926.11
362.1043, 50959.90
362.5864, 51045.04
363.0685, 51197.72
363.5507, 51383.50
364.0328, 51544.06
364.5149, 51670.40
364.9970, 51789.40
365.4791, 51895.46
365.9612, 51999.98
366.4434, 52106.79
366.9255, 52217.79
367.4076, 52337.28
367.8897, 52478.20
368.3718, 52634.45
368.8539, 52726.54
369.3361, 52715.16
369.8182, 52689.02
370.3003, 52686.93
370.7824, 52682.82
371.2645, 52634.02
371.7466, 52516.17
372.2288, 52383.07
372.7109, 52323.11
373.1930, 52344.29
373.6751, 52334.29
374.1572, 52235.21
374.6393, 52122.33
375.1215, 52066.20
375.6036, 52067.84
376.0857, 52084.66
376.5678, 52110.97
377.0499, 52134.19
377.5320, 52124.44
378.0142, 52075.50
378.4963, 52023.23
378.9784, 51996.97
379.4605, 51993.58
379.9426, 51979.60
380.4247, 51940.36
380.9069, 51905.01
381.3890, 51885.20
381.8711, 51881.13
382.3532, 51889.26
382.8353, 51907.25
383.3174, 51943.08
383.7996, 52014.12
384.2817, 52147.45
384.7638, 52277.80
385.2459, 52409.06
385.7280, 52535.14
386.2101, 52639.11
386.6923, 52728.03
387.1744, 52834.43
387.6565, 52990.46
388.1386, 53196.11
388.6207, 53411.57
389.1028, 53677.23
389.5850, 53898.60
390.0671, 54017.96
390.5492, 54087.14
391.0313, 54188.03
391.5134, 54361.22
391.9955, 54542.43
392.4777, 54627.73
392.9598, 54607.96
393.4419, 54577.62
393.9240, 54581.57
394.4061, 54557.48
394.8882, 54437.05
395.3704, 54221.98
395.8525, 54012.77
396.3346, 53846.20
396.8167, 53720.19
397.2988, 53656.42
397.7809, 53661.87
398.2631, 53633.60
398.7452, 53473.11
399.2273, 53211.24
399.7094, 53046.62
400.1915, 53061.47
400.6736, 53081.39
401.1558, 53021.36
401.6379, 52921.55
402.1200, 52860.03
402.6021, 52865.08
403.0842, 52896.14
403.5663, 52882.04
404.0485, 52785.57
404.5306, 52736.00
405.0127, 52753.56
405.4948, 52794.94
405.9769, 52839.80
406.4590, 52887.29
406.9412, 52943.69
407.4233, 53012.68
407.9054, 53095.24
408.3875, 53195.39
408.8696, 53327.61
409.3517, 53449.44
409.8339, 53534.40
410.3160, 53611.47
410.7981, 53710.89
411.2802, 53840.72
411.7623, 53972.15
412.2444, 54075.18
412.7266, 54153.98
413.2087, 54242.79
413.6908, 54357.10
414.1729, 54458.50
414.6550, 54507.03
415.1371, 54511.09
415.6193, 54498.05
416.1014, 54461.90
416.5835, 54419.21
417.0656, 54385.21
417.5477, 54357.08
418.0298, 54325.94
418.5120, 54290.40
418.9941, 54242.15
419.4762, 54157.89
419.9583, 53989.67
420.4404, 53861.10
420.9225, 53803.35
421.4047, 53768.26
421.8868, 53716.87
422.3689, 53645.97
422.8510, 53574.78
423.3331, 53519.92
423.8152, 53480.95
424.2974, 53455.95
424.7795, 53457.18
425.2616, 53456.15
425.7437, 53453.54
426.2258, 53441.26
426.7079, 53401.17
427.1901, 53322.87
427.6722, 53249.63
428.1543, 53239.47
428.6364, 53288.74
429.1185, 53328.29
429.6006, 53335.66
430.0828, 53346.08
430.5649, 53410.48
431.0470, 53515.76
431.5291, 53581.59
432.0112, 53529.77
432.4933, 53470.87
432.9755, 53535.18
433.4576, 53697.95
433.9397, 53812.85
434.4218, 53793.87
434.9039, 53698.75
435.3860, 53690.21
435.8682, 53875.07
436.3503, 53983.34
436.8324, 53947.25
437.3145, 53865.25
437.7966, 53817.55
438.2787, 53812.05
438.7609, 53810.33
439.2430, 53773.41
439.7251, 53704.63
440.2072, 53672.75
440.6893, 53709.36
441.1714, 53736.58
441.6536, 53726.58
442.1357, 53698.46
442.6178, 53670.38
443.0999, 53645.89
443.5820, 53634.32
444.0641, 53656.34
444.5463, 53705.16
445.0284, 53727.19
445.5105, 53700.69
445.9926, 53672.74
446.4747, 53712.91
446.9568, 53800.05
447.4390, 53822.04
447.9211, 53706.95
448.4032, 53568.32
448.8853, 53467.14
449.3674, 53407.64
449.8495, 53400.93
450.3317, 53457.29
450.8138, 53545.36
451.2959, 53600.80
451.7780, 53601.85
452.2601, 53612.48
452.7422, 53640.61
453.2244, 53671.48
453.7065, 53703.60
454.1886, 53730.88
454.6707, 53737.23
455.1528, 53703.94
455.6349, 53647.95
456.1171, 53635.27
456.5992, 53678.93
457.0813, 53730.48
457.5634, 53786.47
458.0455, 53836.81
458.5276, 53876.75
459.0098, 53905.76
459.4919, 53909.36
459.9740, 53837.75
460.4561, 53742.01
460.9382, 53755.76
461.4203, 53901.86
461.9025, 54033.57
462.3846, 54039.94
462.8667, 53941.63
463.3488, 53878.59
463.8309, 53844.92
464.3130, 53851.13
464.7952, 53919.48
465.2773, 54022.55
465.7594, 54138.61
466.2415, 54257.23
466.7236, 54350.60
467.2057, 54379.61
467.6879, 54334.26
468.1700, 54304.09
468.6521, 54294.39
469.1342, 54295.07
469.6163, 54316.88
470.0984, 54342.57
470.5806, 54343.96
471.0627, 54306.14
471.5448, 54258.67
472.0269, 54239.33
472.5090, 54246.29
472.9911, 54256.87
473.4733, 54271.36
473.9554, 54280.39
474.4375, 54276.88
474.9196, 54261.49
475.4017, 54228.77
475.8839, 54146.51
476.3660, 54074.59
476.8481, 54058.54
477.3302, 54088.11
477.8123, 54134.95
478.2944, 54187.83
478.7766, 54245.73
479.2587, 54307.81
479.7408, 54391.20
480.2229, 54440.62
480.7050, 54429.81
481.1871, 54414.96
481.6693, 54423.14
482.1514, 54452.65
482.6335, 54492.00
483.1156, 54535.55
483.5977, 54581.98
484.0798, 54628.48
484.5620, 54674.96
485.0441, 54718.89
485.5262, 54743.66
486.0083, 54780.25
486.4904, 54873.62
486.9725, 55022.66
487.4547, 55136.09
487.9368, 55145.59
488.4189, 55123.95
488.9010, 55168.30
489.3831, 55267.30
489.8652, 55318.21
490.3474, 55253.48
490.8295, 55123.91
491.3116, 55071.73
491.7937, 55182.95
492.2758, 55253.98
492.7579, 55271.30
493.2401, 55260.09
493.7222, 55226.71
494.2043, 55180.23
494.6864, 55139.10
495.1685, 55117.19
495.6506, 55110.97
496.1328, 55109.85
496.6149, 55118.03
497.0970, 55117.75
497.5791, 55093.75
498.0612, 55065.22
498.5433, 55055.07
499.0254, 55065.83
499.5075, 55067.24
499.9897, 55016.41
500.4718, 54962.90
500.9539, 54989.26
501.4360, 55091.91
501.9181, 55186.33
502.4002, 55221.06
502.8824, 55208.91
503.3645, 55195.52
503.8466, 55145.80
504.3287, 55143.91
504.8108, 55225.97
505.2929, 55333.17
505.7751, 55427.29
506.2572, 55501.66
506.7393, 55563.61
507.2214, 55615.68
507.7035, 55660.60
508.1856, 55708.73
508.6678, 55761.77
509.1499, 55811.57
509.6320, 55843.32
510.1141, 55878.42
510.5962, 55936.41
511.0783, 56018.32
511.5605, 56122.55
512.0426, 56300.46
512.5247, 56472.07
513.0068, 56508.47
513.4890, 56418.81
513.9711, 56341.83
514.4532, 56364.24
514.9353, 56455.14
515.4174, 56507.71
515.8995, 56465.28
516.3817, 56462.87
516.8638, 56554.37
517.3459, 56645.15
517.8280, 56651.08
518.3101, 56585.51
518.7922, 56530.16
519.2744, 56548.50
519.7565, 56612.23
520.2386, 56644.17
520.7207, 56641.57
521.2028, 56616.90
521.6849, 56547.70
522.1671, 56480.89
522.6492, 56472.59
523.1313, 56525.54
523.6134, 56589.71
524.0955, 56657.41
524.5776, 56723.48
525.0598, 56794.08
525.5419, 56861.80
526.0240, 56894.82
526.5061, 56873.92
526.9882, 56822.40
527.4703, 56799.02
527.9525, 56838.27
528.4346, 56839.94
528.9167, 56765.77
529.3988, 56694.13
529.8809, 56675.23
530.3630, 56695.68
530.8452, 56710.93
531.3273, 56696.87
531.8094, 56666.02
532.2915, 56633.15
532.7736, 56598.32
533.2557, 56575.27
533.7379, 56570.66
534.2200, 56572.18
534.7021, 56556.05
535.1842, 56520.89
535.6663, 56527.26
536.1484, 56643.08
536.6306, 56740.51
537.1127, 56725.31
537.5948, 56641.05
538.0769, 56578.28
538.5590, 56571.43
539.0411, 56580.57
539.5233, 56534.08
540.0054, 56409.16
540.4875, 56351.35
540.9696, 56414.21
541.4517, 56483.46
541.9338, 56515.40
542.4160, 56522.00
542.8981, 56527.45
543.3802, 56546.19
543.8623, 56543.69
544.3444, 56466.77
544.8265, 56348.40
545.3087, 56276.68
545.7908, 56268.35
546.2729, 56284.36
546.7550, 56294.35
547.2371, 56298.74
547.7192, 56304.71
548.2014, 56305.14
548.6835, 56315.40
549.1656, 56359.49
549.6477, 56401.54
550.1298, 56388.18
550.6119, 56322.24
551.0941, 56276.16
551.5762, 56334.52
552.0583, 56466.91
552.5404, 56525.50
553.0225, 56495.17
553.5046, 56449.29
553.9868, 56387.93
554.4689, 56348.23
554.9510, 56392.10
555.4331, 56538.52
555.9152, 56656.54
556.3973, 56678.35
556.8795, 56674.12
557.3616, 56723.29
557.8437, 56809.54
558.3258, 56850.98
558.8079, 56799.09
559.2900, 56700.64
559.7722, 56664.75
560.2543, 56707.32
560.7364, 56770.54
561.2185, 56903.64
561.7006, 57007.82
562.1827, 57014.77
562.6649, 56956.19
563.1470, 56912.71
563.6291, 56921.20
564.1112, 56945.36
564.5933, 56946.04
565.0754, 56930.02
565.5576, 56926.46
566.0397, 56944.48
566.5218, 56956.73
567.0039, 56933.84
567.4860, 56875.04
567.9681, 56824.23
568.4503, 56787.19
568.9324, 56751.12
569.4145, 56702.85
569.8966, 56660.79
570.3787, 56647.70
570.8608, 56666.36
571.3430, 56698.92
571.8251, 56744.13
572.3072, 56790.55
572.7893, 56772.21
573.2714, 56672.13
573.7535, 56594.16
574.2357, 56583.88
574.7178, 56621.01
575.1999, 56672.77
575.6820, 56740.57
576.1641, 56812.35
576.6462, 56901.77
577.1284, 56979.83
577.6105, 57020.65
578.0926, 57030.00
578.5747, 57026.23
579.0568, 57018.01
579.5389, 57005.61
580.0211, 56984.21
580.5032, 56945.36
580.9852, 56938.91
581.4673, 56993.23
581.9495, 57048.87
582.4316, 57065.93
582.9137, 57061.80
583.3958, 57075.54
583.8779, 57128.35
584.3600, 57176.52
584.8422, 57184.55
585.3243, 57169.87
585.8064, 57161.02
586.2885, 57163.45
586.7706, 57175.39
587.2527, 57195.96
587.7349, 57224.74
588.2170, 57258.67
588.6991, 57319.89
589.1812, 57350.45
589.6633, 57339.95
590.1454, 57302.66
590.6276, 57227.77
591.1097, 57129.75
591.5918, 57065.93
592.0739, 57091.32
592.5560, 57151.39
593.0381, 57171.88
593.5203, 57156.43
594.0024, 57126.59
594.4845, 57086.18
594.9666, 57042.58
595.4487, 56997.82
595.9308, 56943.56
596.4130, 56950.87
596.8951, 57067.65
597.3772, 57182.50
597.8593, 57268.70
598.3414, 57329.31
598.8235, 57361.89
599.3057, 57369.35
599.7878, 57381.20
600.2699, 57440.77
600.7520, 57528.66
601.2341, 57565.95
601.7162, 57545.62
602.1984, 57526.56
602.6805, 57533.30
603.1626, 57560.38
603.6447, 57602.54
604.1268, 57670.75
604.6089, 57715.23
605.0911, 57701.03
605.5732, 57689.02
606.0553, 57728.91
606.5374, 57797.88
607.0195, 57841.95
607.5016, 57836.86
607.9838, 57815.84
608.4659, 57828.91
608.9480, 57874.96
609.4301, 57914.79
609.9122, 57944.11
610.3943, 57970.41
610.8765, 58001.31
611.3586, 58031.26
611.8407, 58050.12
612.3228, 58069.35
612.8049, 58053.60
613.2870, 57945.68
613.7692, 57832.62
614.2513, 57791.12
614.7334, 57822.96
615.2155, 57910.49
615.6976, 58052.05
616.1797, 58200.27
616.6619, 58227.60
617.1440, 58107.19
617.6261, 58047.23
618.1082, 58105.85
618.5903, 58185.82
619.0724, 58219.32
619.5546, 58220.04
620.0367, 58221.29
620.5188, 58223.04
621.0009, 58232.90
621.4830, 58270.66
621.9651, 58309.67
622.4473, 58300.42
622.9294, 58247.37
623.4115, 58215.05
623.8936, 58257.04
624.3757, 58349.04
624.8578, 58401.32
625.3400, 58400.34
625.8221, 58405.93
626.3042, 58447.20
626.7863, 58479.05
627.2684, 58462.75
627.7505, 58408.63
628.2327, 58358.09
628.7148, 58294.45
629.1969, 58269.12
629.6790, 58354.98
630.1611, 58485.43
630.6432, 58545.25
631.1254, 58516.16
631.6075, 58462.77
632.0896, 58440.10
632.5717, 58443.45
633.0538, 58446.31
633.5359, 58450.82
634.0181, 58448.23
634.5002, 58433.07
634.9823, 58412.07
635.4644, 58384.01
635.9465, 58351.88
636.4286, 58334.14
636.9108, 58350.80
637.3929, 58368.91
637.8750, 58372.37
638.3571, 58358.49
638.8392, 58321.48
639.3214, 58260.43
639.8035, 58178.24
640.2856, 58067.95
640.7677, 57939.78
641.2498, 57890.67
641.7319, 57963.38
642.2141, 58018.75
642.6962, 58024.54
643.1783, 57998.97
643.6604, 57937.68
644.1425, 57849.21
644.6246, 57795.98
645.1068, 57829.61
645.5889, 57876.01
646.0710, 57878.09
646.5531, 57856.09
647.0352, 57851.54
647.5173, 57874.03
647.9995, 57901.61
648.4816, 57913.63
648.9637, 57910.21
649.4458, 57882.47
649.9279, 57794.62
650.4100, 57769.76
650.8922, 57886.42
651.3743, 58042.84
651.8564, 58168.80
652.3385, 58259.27
652.8206, 58296.22
653.3027, 58217.88
653.7849, 58139.07
654.2670, 58137.98
654.7491, 58188.13
655.2312, 58244.44
655.7133, 58294.92
656.1954, 58352.05
656.6776, 58432.52
657.1597, 58529.52
657.6418, 58586.04
658.1239, 58570.06
658.6060, 58619.74
659.0881, 58828.92
659.5703, 59065.16
660.0524, 59189.03
660.5345, 59213.38
661.0166, 59261.88
661.4987, 59351.73
661.9808, 59481.65
662.4630, 59661.48
662.9451, 59877.77
663.4272, 60112.80
663.9093, 60363.24
664.3914, 60638.97
664.8735, 60947.86
665.3557, 61289.87
665.8378, 61655.00
666.3199, 62043.22
666.8020, 62456.86
667.2841, 62905.38
667.7662, 63367.22
668.2484, 63815.68
668.7305, 64253.63
669.2126, 64706.99
669.6947, 65211.97
670.1768, 65688.23
670.6589, 66161.22
671.1411, 66554.94
671.6232, 66787.29
672.1053, 66851.81
672.5874, 66796.52
673.0695, 66659.15
673.5516, 66420.30
674.0338, 66004.81
674.5159, 65411.33
674.9980, 64828.73
675.4801, 64301.16
675.9622, 63774.30
676.4443, 63183.85
676.9265, 62542.71
677.4086, 61995.48
677.8907, 61611.33
678.3728, 61215.68
678.8549, 60738.20
679.3370, 60270.30
679.8192, 59883.23
680.3013, 59575.10
680.7834, 59317.30
681.2655, 59098.34
681.7476, 58906.85
682.2297, 58723.47
682.7119, 58554.00
683.1940, 58433.96
683.6761, 58373.56
684.1582, 58312.65
684.6403, 58200.71
685.1224, 58056.68
685.6046, 57958.89
686.0867, 57956.56
686.5688, 57921.94
687.0509, 57809.23
687.5330, 57707.55
688.0151, 57676.99
688.4973, 57693.22
688.9794, 57697.91
689.4615, 57671.60
689.9436, 57629.64
690.4257, 57561.53
690.9078, 57494.81
691.3900, 57500.51
691.8721, 57569.75
692.3542, 57591.42
692.8363, 57496.33
693.3184, 57350.14
693.8005, 57304.25
694.2827, 57390.95
694.7648, 57455.46
695.2469, 57494.13
695.7290, 57512.24
696.2111, 57502.11
696.6932, 57477.68
697.1754, 57456.67
697.6575, 57440.08
698.1396, 57433.14
698.6217, 57468.16
699.1038, 57488.73
699.5859, 57423.05
700.0681, 57306.19
700.5502, 57229.37
701.0323, 57225.85
701.5144, 57235.75
701.9965, 57172.38
