##NAMES=Actinolite
##RRUFFID=R040063
##IDEAL CHEMISTRY=Ca_2_(Mg_4.5-2.5_Fe^2+^_0.5-2.5_)Si_8_O_22_(OH)_2_
##LOCALITY=Harford County, Maryland, USA
##OWNER=RRUFF
##SOURCE=University of Arizona Mineral Museum
##DESCRIPTION=Mass of green acicular to bladed crystals associated with chlorite
##STATUS=The identification of this mineral has been confirmed by X-ray diffraction and chemical analysis
##URL=rruff.info/R040063
##MEASURED CHEMISTRY=(Ca_1.90_Na_0.06_Mn_0.04_)_Σ=2_(Mg_4.35_Fe_0.65_)_Σ=5_(Si_7.92_Al_0.08_)_Σ=8_O_22_(OH)_2_
118.1473, 643.2337
118.6294, 696.1333
119.1115, 743.1394
119.5937, 787.0490
120.0758, 830.5268
120.5579, 874.3469
121.0400, 915.6421
121.5221, 958.7803
122.0042, 999.0645
122.4864, 1022.689
122.9685, 1015.137
123.4506, 988.4966
123.9327, 956.2672
124.4148, 917.1277
124.8969, 878.9847
125.3791, 852.2690
125.8612, 836.3913
126.3433, 821.5762
126.8254, 797.2689
127.3075, 767.7726
127.7896, 743.7374
128.2718, 732.2429
128.7539, 728.0718
129.2360, 721.3874
129.7181, 712.3387
130.2002, 699.9142
130.6823, 679.2267
131.1645, 651.6424
131.6466, 628.5693
132.1287, 616.6804
132.6108, 614.6559
133.0929, 614.5656
133.5750, 615.8494
134.0571, 619.0097
134.5393, 625.8595
135.0214, 636.7236
135.5035, 647.8506
135.9856, 655.5748
136.4677, 659.4999
136.9498, 667.4469
137.4320, 681.2198
137.9141, 699.8993
138.3962, 719.2888
138.8783, 741.0804
139.3604, 760.2724
139.8425, 770.8710
140.3247, 770.2062
140.8068, 770.5266
141.2889, 774.6227
141.7710, 782.7753
142.2531, 791.3441
142.7352, 801.7808
143.2174, 811.3862
143.6995, 816.2523
144.1816, 813.6744
144.6637, 810.7539
145.1458, 809.5895
145.6279, 810.5934
146.1101, 811.8843
146.5922, 811.0873
147.0743, 810.8833
147.5564, 818.0115
148.0385, 837.3279
148.5206, 859.2003
149.0028, 879.5640
149.4849, 898.6096
149.9670, 915.9834
150.4491, 929.7102
150.9312, 940.7150
151.4133, 955.0745
151.8955, 973.8096
152.3776, 995.2127
152.8597, 1018.539
153.3418, 1038.600
153.8239, 1065.755
154.3060, 1106.615
154.7881, 1161.475
155.2703, 1208.622
155.7524, 1236.063
156.2345, 1258.165
156.7166, 1287.994
157.1987, 1347.235
157.6808, 1397.830
158.1630, 1427.557
158.6451, 1433.282
159.1272, 1425.970
159.6093, 1400.989
160.0914, 1365.539
160.5735, 1330.611
161.0557, 1297.028
161.5378, 1266.742
162.0199, 1240.552
162.5020, 1218.683
162.9841, 1201.414
163.4662, 1190.890
163.9484, 1185.376
164.4305, 1180.525
164.9126, 1165.766
165.3947, 1155.442
165.8768, 1161.367
166.3589, 1193.016
166.8411, 1232.778
167.3232, 1268.821
167.8053, 1303.360
168.2874, 1346.997
168.7695, 1412.248
169.2516, 1487.935
169.7338, 1561.230
170.2159, 1621.225
170.6980, 1682.378
171.1801, 1758.448
171.6622, 1849.192
172.1443, 1942.246
172.6265, 2026.177
173.1086, 2106.800
173.5907, 2192.818
174.0728, 2288.548
174.5549, 2392.414
175.0370, 2507.885
175.5191, 2636.760
176.0013, 2756.583
176.4834, 2861.487
176.9655, 2943.516
177.4476, 2979.328
177.9297, 2954.981
178.4118, 2877.270
178.8940, 2752.390
179.3761, 2573.054
179.8582, 2370.323
180.3403, 2169.750
180.8224, 1973.219
181.3046, 1800.600
181.7867, 1665.461
182.2688, 1561.511
182.7509, 1475.979
183.2330, 1407.934
183.7151, 1354.232
184.1973, 1310.447
184.6794, 1276.547
185.1615, 1245.632
185.6436, 1211.349
186.1257, 1175.326
186.6078, 1145.680
187.0900, 1123.099
187.5721, 1108.345
188.0542, 1105.014
188.5363, 1113.598
189.0184, 1124.302
189.5005, 1130.733
189.9827, 1132.614
190.4648, 1127.341
190.9469, 1111.029
191.4290, 1087.563
191.9111, 1070.284
192.3932, 1059.606
192.8754, 1052.150
193.3575, 1044.090
193.8396, 1035.376
194.3217, 1028.685
194.8038, 1026.032
195.2859, 1026.719
195.7680, 1024.622
196.2502, 1019.202
196.7323, 1012.511
197.2144, 1007.138
197.6965, 1003.149
198.1786, 999.9724
198.6607, 995.2090
199.1429, 988.6026
199.6250, 992.9626
200.1071, 1010.761
200.5892, 1035.458
201.0713, 1055.721
201.5534, 1070.720
202.0356, 1085.219
202.5177, 1101.859
202.9998, 1121.078
203.4819, 1137.311
203.9640, 1148.048
204.4461, 1157.443
204.9283, 1175.514
205.4104, 1203.504
205.8925, 1236.027
206.3746, 1271.915
206.8567, 1312.866
207.3388, 1347.377
207.8210, 1370.635
208.3031, 1387.896
208.7852, 1415.708
209.2673, 1454.987
209.7494, 1502.726
210.2315, 1559.004
210.7137, 1626.933
211.1958, 1691.744
211.6779, 1747.854
212.1600, 1798.650
212.6421, 1860.974
213.1242, 1938.738
213.6064, 2021.425
214.0885, 2099.035
214.5706, 2168.724
215.0527, 2243.292
215.5348, 2326.543
216.0169, 2416.403
216.4990, 2504.926
216.9812, 2589.997
217.4633, 2676.587
217.9454, 2771.999
218.4275, 2882.463
218.9096, 2987.231
219.3917, 3085.003
219.8739, 3175.436
220.3560, 3251.981
220.8381, 3316.856
221.3202, 3366.337
221.8023, 3398.418
222.2844, 3416.807
222.7666, 3409.759
223.2487, 3369.641
223.7308, 3292.866
224.2129, 3216.898
224.6950, 3139.767
225.1771, 3065.132
225.6593, 2998.449
226.1414, 2937.135
226.6235, 2887.333
227.1056, 2850.398
227.5877, 2827.033
228.0698, 2815.139
228.5520, 2821.324
229.0341, 2833.984
229.5162, 2836.004
229.9983, 2826.171
230.4804, 2807.914
230.9625, 2785.721
231.4447, 2767.991
231.9268, 2714.208
232.4089, 2608.491
232.8910, 2474.511
233.3731, 2354.635
233.8552, 2257.256
234.3373, 2160.774
234.8195, 2055.985
235.3016, 1933.868
235.7837, 1829.482
236.2658, 1745.578
236.7479, 1678.349
237.2300, 1620.084
237.7122, 1572.157
238.1943, 1531.300
238.6764, 1496.614
239.1585, 1471.362
239.6406, 1444.555
240.1227, 1411.468
240.6049, 1378.223
241.0870, 1361.776
241.5691, 1370.478
242.0512, 1383.932
242.5333, 1393.012
243.0154, 1393.673
243.4976, 1398.714
243.9797, 1409.573
244.4618, 1424.615
244.9439, 1439.625
245.4260, 1455.287
245.9081, 1469.805
246.3903, 1482.366
246.8724, 1493.013
247.3545, 1501.334
247.8366, 1506.218
248.3187, 1508.831
248.8008, 1515.077
249.2830, 1534.315
249.7651, 1543.941
250.2472, 1529.818
250.7293, 1478.874
251.2114, 1434.599
251.6935, 1400.275
252.1757, 1374.323
252.6578, 1349.457
253.1399, 1326.042
253.6220, 1303.646
254.1041, 1281.945
254.5862, 1260.261
255.0683, 1240.879
255.5505, 1224.591
256.0326, 1210.508
256.5147, 1195.584
256.9968, 1179.714
257.4789, 1162.679
257.9611, 1143.660
258.4432, 1119.860
258.9253, 1101.220
259.4074, 1090.328
259.8895, 1085.329
260.3716, 1077.875
260.8538, 1066.869
261.3359, 1055.261
261.8180, 1045.154
262.3001, 1036.964
262.7822, 1028.701
263.2643, 1019.805
263.7465, 1010.679
264.2286, 1002.765
264.7107, 996.2816
265.1928, 990.8961
265.6749, 988.0776
266.1570, 990.8287
266.6391, 984.4869
267.1212, 962.5842
267.6034, 930.7324
268.0855, 915.6022
268.5676, 923.0348
269.0497, 933.9967
269.5318, 934.7388
270.0139, 922.2311
270.4961, 912.9451
270.9782, 909.3929
271.4603, 910.3332
271.9424, 910.4636
272.4245, 909.3892
272.9066, 908.5963
273.3888, 909.5374
273.8709, 912.6578
274.3530, 914.4406
274.8351, 913.9239
275.3172, 911.9054
275.7993, 910.9592
276.2815, 910.8021
276.7636, 912.6506
277.2457, 918.7769
277.7278, 929.8687
278.2099, 937.2762
278.6920, 938.9413
279.1742, 936.6877
279.6563, 934.9512
280.1384, 932.9577
280.6205, 935.0848
281.1026, 946.6348
281.5847, 967.8328
282.0669, 985.7950
282.5490, 998.1357
283.0311, 1006.801
283.5132, 1016.605
283.9953, 1027.618
284.4774, 1039.323
284.9596, 1051.552
285.4417, 1064.298
285.9238, 1076.550
286.4059, 1088.182
286.8880, 1099.263
287.3701, 1111.011
287.8523, 1123.482
288.3344, 1132.892
288.8165, 1135.256
289.2986, 1131.592
289.7807, 1128.268
290.2628, 1126.817
290.7450, 1124.918
291.2271, 1115.464
291.7092, 1098.906
292.1913, 1086.392
292.6734, 1088.687
293.1555, 1101.853
293.6377, 1110.688
294.1198, 1112.663
294.6019, 1111.270
295.0840, 1111.274
295.5661, 1112.615
296.0482, 1114.708
296.5304, 1115.736
297.0125, 1117.306
297.4946, 1124.160
297.9767, 1137.934
298.4588, 1153.967
298.9409, 1167.095
299.4231, 1177.406
299.9052, 1185.987
300.3873, 1192.660
300.8694, 1197.973
301.3515, 1204.043
301.8336, 1212.359
302.3158, 1216.395
302.7979, 1204.555
303.2800, 1181.479
303.7621, 1161.789
304.2442, 1154.589
304.7263, 1154.610
305.2085, 1156.650
305.6906, 1161.191
306.1727, 1162.738
306.6548, 1154.264
307.1369, 1139.283
307.6190, 1125.172
308.1011, 1117.762
308.5833, 1111.898
309.0654, 1102.010
309.5475, 1087.119
310.0296, 1072.700
310.5117, 1061.920
310.9938, 1054.069
311.4760, 1047.882
311.9581, 1044.156
312.4402, 1040.877
312.9223, 1036.135
313.4044, 1029.606
313.8865, 1024.422
314.3687, 1024.934
314.8508, 1027.122
315.3329, 1025.813
315.8150, 1012.329
316.2971, 1000.522
316.7792, 998.1243
317.2614, 1005.598
317.7435, 1015.400
318.2256, 1027.508
318.7077, 1039.414
319.1898, 1048.568
319.6719, 1049.036
320.1541, 1051.736
320.6362, 1063.509
321.1183, 1084.100
321.6004, 1097.953
322.0825, 1092.581
322.5646, 1083.444
323.0468, 1082.531
323.5289, 1100.846
324.0110, 1118.125
324.4931, 1130.426
324.9752, 1137.866
325.4573, 1144.247
325.9395, 1148.376
326.4216, 1152.562
326.9037, 1158.214
327.3858, 1165.314
327.8679, 1173.985
328.3500, 1184.423
328.8322, 1196.451
329.3143, 1209.974
329.7964, 1229.638
330.2785, 1246.468
330.7606, 1255.849
331.2427, 1252.273
331.7249, 1250.271
332.2070, 1251.688
332.6891, 1254.750
333.1712, 1254.220
333.6533, 1249.782
334.1354, 1242.254
334.6176, 1230.691
335.0997, 1210.576
335.5818, 1198.796
336.0639, 1198.002
336.5460, 1203.759
337.0281, 1206.390
337.5103, 1204.149
337.9924, 1203.462
338.4745, 1207.797
338.9566, 1218.168
339.4387, 1223.835
339.9208, 1221.618
340.4030, 1219.792
340.8851, 1234.031
341.3672, 1267.655
341.8493, 1295.258
342.3314, 1304.296
342.8135, 1297.143
343.2957, 1301.729
343.7778, 1319.796
344.2599, 1343.570
344.7420, 1365.526
345.2241, 1385.382
345.7062, 1404.538
346.1884, 1424.006
346.6705, 1442.783
347.1526, 1456.927
347.6347, 1466.250
348.1168, 1472.959
348.5989, 1475.734
349.0810, 1476.693
349.5631, 1484.516
350.0453, 1505.612
350.5274, 1530.170
351.0095, 1543.369
351.4916, 1545.630
351.9737, 1542.355
352.4558, 1531.510
352.9380, 1518.930
353.4201, 1515.411
353.9022, 1525.747
354.3843, 1541.012
354.8664, 1551.723
355.3485, 1559.695
355.8307, 1571.087
356.3128, 1586.375
356.7949, 1608.328
357.2770, 1641.366
357.7591, 1688.608
358.2412, 1738.740
358.7234, 1784.639
359.2055, 1828.305
359.6876, 1873.583
360.1697, 1921.909
360.6518, 1972.217
361.1339, 2024.518
361.6161, 2078.256
362.0982, 2135.662
362.5803, 2195.471
363.0624, 2259.562
363.5445, 2329.951
364.0266, 2409.973
364.5088, 2494.087
364.9909, 2584.142
365.4730, 2681.341
365.9551, 2766.184
366.4372, 2833.479
366.9193, 2888.255
367.4015, 2934.732
367.8836, 2985.953
368.3657, 3014.229
368.8478, 3015.513
369.3299, 2990.668
369.8120, 2943.161
370.2942, 2864.301
370.7763, 2771.258
371.2584, 2672.162
371.7405, 2558.612
372.2226, 2453.383
372.7047, 2356.592
373.1869, 2268.512
373.6690, 2187.072
374.1511, 2113.185
374.6332, 2045.731
375.1153, 1983.406
375.5974, 1925.483
376.0796, 1878.943
376.5617, 1845.182
377.0438, 1821.151
377.5259, 1798.851
378.0080, 1776.730
378.4901, 1767.560
378.9723, 1780.444
379.4544, 1813.030
379.9365, 1839.886
380.4186, 1859.474
380.9007, 1879.034
381.3828, 1904.069
381.8650, 1935.180
382.3471, 1975.385
382.8292, 2028.107
383.3113, 2089.186
383.7934, 2146.851
384.2755, 2201.686
384.7577, 2259.556
385.2398, 2326.247
385.7219, 2399.573
386.2040, 2474.961
386.6861, 2553.446
387.1682, 2631.375
387.6504, 2704.698
388.1325, 2774.703
388.6146, 2842.164
389.0967, 2907.426
389.5788, 2971.519
390.0609, 3037.926
390.5430, 3111.568
391.0251, 3171.406
391.5073, 3208.087
391.9894, 3221.837
392.4715, 3213.472
392.9536, 3183.097
393.4357, 3131.458
393.9178, 3057.583
394.4000, 2961.338
394.8821, 2846.815
395.3642, 2695.176
395.8463, 2534.632
396.3284, 2391.761
396.8105, 2279.645
397.2927, 2179.538
397.7748, 2090.712
398.2569, 2012.777
398.7390, 1936.499
399.2211, 1852.958
399.7032, 1777.542
400.1854, 1718.564
400.6675, 1679.588
401.1496, 1652.255
401.6317, 1641.210
402.1138, 1640.911
402.5959, 1635.534
403.0781, 1620.459
403.5602, 1608.265
404.0423, 1604.084
404.5244, 1608.768
405.0065, 1617.496
405.4886, 1630.619
405.9708, 1647.323
406.4529, 1666.903
406.9350, 1689.381
407.4171, 1713.221
407.8992, 1737.362
408.3813, 1762.458
408.8635, 1792.443
409.3456, 1827.693
409.8277, 1864.110
410.3098, 1899.559
410.7919, 1933.545
411.2740, 1962.256
411.7562, 1984.618
412.2383, 2002.193
412.7204, 2018.298
413.2025, 2032.355
413.6846, 2039.772
414.1667, 2036.394
414.6489, 2024.741
415.1310, 2009.482
415.6131, 1992.613
416.0952, 1966.825
416.5773, 1921.204
417.0594, 1862.633
417.5416, 1805.603
418.0237, 1754.672
418.5058, 1708.061
418.9879, 1666.833
419.4700, 1630.846
419.9521, 1593.730
420.4343, 1551.779
420.9164, 1507.524
421.3985, 1462.914
421.8806, 1415.610
422.3627, 1370.645
422.8448, 1326.086
423.3270, 1283.709
423.8091, 1250.658
424.2912, 1234.671
424.7733, 1223.393
425.2554, 1210.803
425.7375, 1195.276
426.2197, 1181.482
426.7018, 1169.188
427.1839, 1158.589
427.6660, 1149.945
428.1481, 1143.090
428.6302, 1138.281
429.1124, 1135.511
429.5945, 1134.764
430.0766, 1136.261
430.5587, 1140.275
431.0408, 1145.972
431.5229, 1153.261
432.0050, 1162.365
432.4872, 1169.863
432.9693, 1175.204
433.4514, 1178.396
433.9335, 1179.127
434.4156, 1177.401
434.8977, 1174.407
435.3799, 1171.117
435.8620, 1167.218
436.3441, 1162.008
436.8262, 1155.681
437.3083, 1147.182
437.7904, 1136.775
438.2726, 1123.417
438.7547, 1104.355
439.2368, 1069.955
439.7189, 1034.299
440.2010, 1011.118
440.6831, 1000.967
441.1653, 995.9928
441.6474, 998.8873
442.1295, 1001.532
442.6116, 995.4919
443.0937, 966.2344
443.5758, 941.4067
444.0580, 934.1443
444.5401, 940.2131
445.0222, 943.8134
445.5043, 936.8375
445.9864, 930.1824
446.4685, 929.8350
446.9507, 942.5202
447.4328, 947.1927
447.9149, 936.4681
448.3970, 920.5403
448.8791, 913.0735
449.3612, 919.9664
449.8434, 925.5026
450.3255, 925.5986
450.8076, 920.5407
451.2897, 918.0355
451.7718, 919.5920
452.2539, 920.5500
452.7361, 915.3829
453.2182, 902.9540
453.7003, 897.7993
454.1824, 903.7471
454.6645, 914.6218
455.1466, 917.1457
455.6288, 911.5169
456.1109, 906.6495
456.5930, 907.9409
457.0751, 913.5039
457.5572, 919.2327
458.0393, 925.1009
458.5215, 929.3813
459.0036, 931.2144
459.4857, 930.1447
459.9678, 924.7689
460.4499, 908.9616
460.9320, 894.5046
461.4142, 893.2498
461.8963, 902.7727
462.3784, 912.3720
462.8605, 914.8369
463.3426, 916.4193
463.8247, 922.7212
464.3069, 938.6057
464.7890, 949.0540
465.2711, 946.1576
465.7532, 936.0176
466.2353, 927.5453
466.7174, 922.1938
467.1996, 918.6796
467.6817, 916.4987
468.1638, 915.5561
468.6459, 917.5796
469.1280, 925.9382
469.6101, 933.6694
470.0923, 935.1298
470.5744, 926.3609
471.0565, 922.3559
471.5386, 925.3615
472.0207, 932.9377
472.5028, 939.3728
472.9849, 944.5052
473.4670, 949.8141
473.9492, 957.3022
474.4313, 966.2058
474.9134, 969.2992
475.3955, 966.0169
475.8776, 961.0536
476.3597, 959.5239
476.8419, 960.4163
477.3240, 960.0754
477.8061, 955.1932
478.2882, 951.7021
478.7703, 960.1666
479.2524, 977.6181
479.7346, 991.4948
480.2167, 990.8548
480.6988, 985.5101
481.1809, 982.6293
481.6630, 982.4317
482.1451, 988.0847
482.6273, 1008.403
483.1094, 1033.100
483.5915, 1049.143
484.0736, 1046.791
484.5557, 1042.012
485.0378, 1037.944
485.5200, 1034.648
486.0021, 1031.974
486.4842, 1032.472
486.9663, 1031.238
487.4484, 1025.431
487.9305, 1011.924
488.4127, 1001.351
488.8948, 994.2363
489.3769, 989.5681
489.8590, 985.4019
490.3411, 981.3792
490.8232, 979.5750
491.3054, 980.9163
491.7875, 985.0041
492.2696, 990.8758
492.7517, 998.9352
493.2338, 1004.798
493.7159, 1002.353
494.1981, 994.5251
494.6802, 991.0289
495.1623, 993.9868
495.6444, 1000.102
496.1265, 1007.909
496.6086, 1016.090
497.0908, 1021.052
497.5729, 1017.388
498.0550, 1012.513
498.5371, 1011.017
499.0192, 1013.209
499.5013, 1020.839
499.9835, 1040.586
500.4656, 1062.672
500.9477, 1079.618
501.4298, 1088.153
501.9119, 1093.610
502.3940, 1090.756
502.8762, 1085.593
503.3583, 1092.887
503.8404, 1125.342
504.3225, 1154.977
504.8046, 1173.206
505.2867, 1179.001
505.7689, 1186.617
506.2510, 1196.376
506.7331, 1207.336
507.2152, 1217.903
507.6973, 1227.564
508.1794, 1242.270
508.6616, 1264.285
509.1437, 1289.734
509.6258, 1311.261
510.1079, 1328.991
510.5900, 1344.536
511.0721, 1358.708
511.5543, 1371.310
512.0364, 1382.167
512.5185, 1391.289
513.0006, 1397.909
513.4827, 1399.246
513.9648, 1398.342
514.4470, 1399.795
514.9291, 1408.219
515.4112, 1413.999
515.8933, 1409.877
516.3754, 1399.061
516.8575, 1389.280
517.3397, 1382.847
517.8218, 1378.090
518.3039, 1374.091
518.7860, 1370.533
519.2681, 1369.461
519.7502, 1374.408
520.2324, 1379.206
520.7145, 1378.740
521.1966, 1369.238
521.6787, 1362.667
522.1608, 1359.962
522.6429, 1360.750
523.1251, 1365.381
523.6072, 1374.951
524.0893, 1382.183
524.5714, 1381.598
525.0535, 1375.375
525.5356, 1377.697
526.0178, 1389.149
526.4999, 1401.379
526.9820, 1406.762
527.4641, 1406.926
527.9462, 1406.451
528.4283, 1407.772
528.9105, 1405.738
529.3926, 1390.340
529.8747, 1367.658
530.3568, 1351.703
530.8389, 1361.261
531.3210, 1369.470
531.8032, 1356.813
532.2853, 1321.778
532.7673, 1293.643
533.2495, 1287.300
533.7316, 1286.481
534.2137, 1280.237
534.6958, 1257.227
535.1779, 1243.528
535.6600, 1245.308
536.1422, 1253.711
536.6243, 1251.045
537.1064, 1232.772
537.5885, 1214.835
538.0706, 1201.227
538.5527, 1191.915
539.0349, 1186.672
539.5170, 1185.882
539.9991, 1186.618
540.4812, 1186.393
540.9633, 1185.657
541.4454, 1187.021
541.9276, 1191.621
542.4097, 1195.373
542.8918, 1192.048
543.3739, 1184.252
543.8560, 1177.880
544.3381, 1178.281
544.8203, 1178.786
545.3024, 1172.041
545.7845, 1159.746
546.2666, 1152.821
546.7487, 1165.636
547.2308, 1177.886
547.7130, 1176.931
548.1951, 1154.746
548.6772, 1134.919
549.1593, 1118.821
549.6414, 1106.335
550.1235, 1097.295
550.6057, 1091.091
551.0878, 1090.127
551.5699, 1097.485
552.0520, 1109.809
552.5341, 1112.252
553.0162, 1102.879
553.4984, 1094.060
553.9805, 1095.200
554.4626, 1103.788
554.9447, 1103.378
555.4268, 1092.646
555.9089, 1081.896
556.3911, 1082.245
556.8732, 1090.120
557.3553, 1098.722
557.8374, 1109.151
558.3195, 1114.942
558.8016, 1107.039
559.2838, 1090.321
559.7659, 1076.261
560.2480, 1070.516
560.7301, 1067.893
561.2122, 1066.618
561.6943, 1066.635
562.1765, 1066.624
562.6586, 1064.459
563.1407, 1063.616
563.6228, 1066.795
564.1049, 1078.570
564.5870, 1084.004
565.0692, 1079.937
565.5513, 1071.901
566.0334, 1069.677
566.5155, 1074.233
566.9976, 1078.127
567.4797, 1078.894
567.9619, 1077.526
568.4440, 1075.498
568.9261, 1073.031
569.4082, 1074.426
569.8903, 1088.960
570.3724, 1107.236
570.8546, 1112.953
571.3367, 1102.935
571.8188, 1091.305
572.3009, 1090.636
572.7830, 1093.436
573.2651, 1090.565
573.7473, 1068.191
574.2294, 1051.591
574.7115, 1051.419
575.1936, 1063.332
575.6757, 1074.013
576.1578, 1082.890
576.6400, 1089.705
577.1221, 1094.813
577.6042, 1098.415
578.0863, 1096.630
578.5684, 1087.621
579.0505, 1077.094
579.5327, 1069.112
580.0148, 1063.731
580.4969, 1060.647
580.9790, 1060.730
581.4611, 1060.589
581.9432, 1053.780
582.4254, 1042.072
582.9075, 1031.991
583.3896, 1026.933
583.8717, 1024.114
584.3538, 1020.570
584.8359, 1016.622
585.3181, 1013.837
585.8002, 1015.937
586.2823, 1017.340
586.7644, 1013.958
587.2465, 1004.298
587.7286, 994.6378
588.2108, 983.1777
588.6929, 973.9977
589.1750, 971.1602
589.6571, 981.6153
590.1392, 985.3715
590.6213, 979.1331
591.1035, 966.5943
591.5856, 954.6079
592.0677, 942.5435
592.5498, 935.3491
593.0319, 937.9942
593.5140, 946.3707
593.9962, 943.4467
594.4783, 929.5391
594.9604, 917.2897
595.4425, 917.7527
595.9246, 925.5297
596.4067, 933.6949
596.8889, 942.0733
597.3710, 946.5581
597.8531, 940.4581
598.3352, 930.2959
598.8173, 923.7343
599.2994, 925.1214
599.7816, 927.9042
600.2637, 931.1703
600.7458, 934.7056
601.2279, 937.9634
601.7100, 941.6916
602.1921, 943.8134
602.6743, 942.3242
603.1564, 937.4092
603.6385, 940.1595
604.1206, 953.6602
604.6027, 964.5666
605.0848, 957.4796
605.5670, 936.2363
606.0491, 929.8629
606.5312, 943.1785
607.0133, 961.5353
607.4954, 970.2585
607.9775, 971.5298
608.4597, 969.8878
608.9418, 964.1566
609.4239, 959.2811
609.9060, 958.1102
610.3881, 960.3817
610.8702, 965.4283
611.3524, 977.3680
