##NAMES=Actinolite
##RRUFFID=R050336
##IDEAL CHEMISTRY=Ca_2_(Mg_4.5-2.5_Fe^2+^_0.5-2.5_)Si_8_O_22_(OH)_2_
##LOCALITY=Kragerø, Norway
##OWNER=RRUFF
##SOURCE=California Institute of Technology
##DESCRIPTION=Dark green prismatic fragment
##STATUS=The identification of this mineral has been confirmed by X-ray diffraction and chemical analysis
##URL=rruff.info/R050336
##MEASURED CHEMISTRY=([box]_0.62_Na_0.34_K_0.04_)(Ca_1.60_Na_0.40_)_Σ=2_(Mg_3.90_Fe^2+^_0.70_Al_0.20_Ti_0.10_Fe^3+^_0.10_)_Σ=5_(Si_7.52_Al_0.48_)_Σ=8_O_22_((OH)_0.97_F_0.03_)_2_
92.35352, 16.60044
92.83563, 13.90512
93.31775, 12.75700
93.79987, 14.23739
94.28198, 17.40813
94.76410, 19.46807
95.24622, 19.52135
95.72833, 18.52956
96.21045, 18.47275
96.69257, 19.38330
97.17468, 20.67208
97.65680, 21.72344
98.13892, 22.55337
98.62103, 23.84791
99.10315, 25.88051
99.58527, 28.54488
100.0674, 30.99305
100.5495, 33.11914
101.0316, 35.21550
101.5137, 37.59901
101.9958, 40.32823
102.4780, 43.19202
102.9601, 46.08938
103.4422, 48.99039
103.9243, 52.09681
104.4064, 55.39633
104.8885, 58.92437
105.3707, 62.85347
105.8528, 67.30666
106.3349, 71.94541
106.8170, 76.70468
107.2991, 82.15152
107.7813, 86.62177
108.2634, 89.55088
108.7455, 91.43902
109.2276, 93.85769
109.7097, 97.33578
110.1918, 100.9871
110.6740, 104.4503
111.1561, 107.1653
111.6382, 110.3109
112.1203, 113.8254
112.6024, 117.7913
113.0845, 122.5215
113.5667, 128.5969
114.0488, 135.1365
114.5309, 141.6181
115.0130, 147.5547
115.4951, 153.7098
115.9772, 160.6006
116.4594, 168.2563
116.9415, 175.4358
117.4236, 181.9245
117.9057, 187.6306
118.3878, 192.4355
118.8699, 195.4646
119.3521, 198.2468
119.8342, 201.8130
120.3163, 206.3030
120.7984, 210.7214
121.2805, 214.6324
121.7626, 218.0508
122.2448, 221.0019
122.7269, 224.2458
123.2090, 226.6665
123.6911, 226.6537
124.1732, 223.5155
124.6553, 220.1334
125.1375, 218.9216
125.6196, 219.6095
126.1017, 221.3394
126.5838, 224.4316
127.0659, 228.1059
127.5480, 230.7997
128.0302, 231.9626
128.5123, 232.8118
128.9944, 235.1166
129.4765, 238.7658
129.9586, 242.7197
130.4407, 246.1258
130.9229, 249.1776
131.4050, 252.7260
131.8871, 256.9676
132.3692, 261.6723
132.8513, 266.2155
133.3334, 270.1486
133.8156, 272.9703
134.2977, 275.1327
134.7798, 277.5843
135.2619, 280.5075
135.7440, 283.9981
136.2261, 287.9542
136.7083, 292.4442
137.1904, 297.7339
137.6725, 302.8163
138.1546, 306.8040
138.6367, 309.7121
139.1188, 311.6831
139.6010, 312.6599
140.0831, 312.6470
140.5652, 312.3107
141.0473, 311.3470
141.5294, 310.4607
142.0115, 310.6856
142.4937, 312.4899
142.9758, 314.2642
143.4579, 315.5138
143.9400, 316.0849
144.4221, 316.7728
144.9042, 317.3650
145.3864, 318.1689
145.8685, 319.7892
146.3506, 323.0812
146.8327, 326.0276
147.3148, 327.8880
147.7969, 327.8685
148.2791, 328.5270
148.7612, 329.9814
149.2433, 332.0826
149.7254, 334.5479
150.2075, 338.0195
150.6896, 341.2902
151.1718, 343.8523
151.6539, 344.6631
152.1360, 346.3043
152.6181, 348.6603
153.1002, 351.8439
153.5823, 356.1898
154.0645, 363.2448
154.5466, 370.3955
155.0287, 376.4146
155.5108, 380.5001
155.9929, 384.3759
156.4750, 387.9210
156.9572, 391.3236
157.4393, 395.2991
157.9214, 401.6273
158.4035, 407.6341
158.8856, 411.6763
159.3677, 413.6394
159.8499, 413.3953
160.3320, 410.0500
160.8141, 404.0609
161.2962, 398.0395
161.7783, 393.1607
162.2604, 388.5739
162.7426, 383.5772
163.2247, 376.6315
163.7068, 370.3939
164.1889, 366.1314
164.6710, 363.8086
165.1531, 362.2778
165.6353, 361.5430
166.1174, 361.1184
166.5995, 360.4810
167.0816, 358.9716
167.5637, 357.5320
168.0458, 356.6143
168.5280, 356.2359
169.0101, 356.5760
169.4922, 358.4182
169.9743, 360.9188
170.4564, 362.8895
170.9385, 363.4688
171.4207, 363.5375
171.9028, 363.7409
172.3849, 364.0948
172.8670, 364.7519
173.3491, 366.1828
173.8312, 367.9977
174.3134, 369.4542
174.7955, 369.9757
175.2776, 370.0538
175.7597, 370.4449
176.2418, 371.2820
176.7239, 371.6487
177.2061, 370.6457
177.6882, 368.4908
178.1703, 365.8051
178.6524, 362.3757
179.1345, 358.7052
179.6166, 355.9483
180.0988, 354.3377
180.5809, 352.5932
181.0630, 348.8441
181.5451, 343.5248
182.0272, 338.5400
182.5093, 334.8877
182.9915, 332.2369
183.4736, 329.9225
183.9557, 327.9185
184.4378, 326.0811
184.9199, 324.2495
185.4020, 322.4366
185.8842, 320.4958
186.3663, 318.1959
186.8484, 315.6773
187.3305, 313.6076
187.8126, 312.1104
188.2947, 310.8222
188.7769, 308.9379
189.2590, 306.5063
189.7411, 304.5399
190.2232, 303.9963
190.7053, 304.5987
191.1874, 304.3839
191.6696, 302.9266
192.1517, 301.1046
192.6338, 300.6366
193.1159, 301.5613
193.5980, 302.7696
194.0801, 303.7925
194.5623, 304.6093
195.0444, 304.8316
195.5265, 304.2195
196.0086, 303.2771
196.4907, 303.0617
196.9728, 303.6131
197.4550, 304.5291
197.9371, 305.6203
198.4192, 306.8867
198.9013, 308.3104
199.3834, 310.0036
199.8655, 311.7302
200.3477, 312.7911
200.8298, 313.0157
201.3119, 313.3409
201.7940, 314.3018
202.2761, 315.9178
202.7582, 318.0032
203.2404, 320.6686
203.7225, 323.7036
204.2046, 326.6040
204.6867, 329.4325
205.1688, 331.9354
205.6509, 333.8174
206.1331, 334.9751
206.6152, 336.2194
207.0973, 337.4794
207.5794, 338.9404
208.0615, 341.3067
208.5436, 344.8560
209.0258, 348.5925
209.5079, 351.7549
209.9900, 354.0815
210.4721, 357.0278
210.9542, 360.8627
211.4363, 365.3380
211.9185, 369.6192
212.4006, 373.6280
212.8827, 377.6383
213.3648, 381.7945
213.8469, 386.2833
214.3290, 390.3501
214.8112, 393.7619
215.2933, 396.7326
215.7754, 400.2354
216.2575, 404.5867
216.7396, 408.8809
217.2217, 412.5113
217.7038, 415.2461
218.1860, 418.0174
218.6681, 420.9716
219.1502, 423.9780
219.6323, 426.6006
220.1144, 429.0561
220.5965, 430.7293
221.0787, 431.0479
221.5608, 429.3094
222.0429, 428.2231
222.5250, 428.3989
223.0071, 429.3023
223.4892, 428.8767
223.9714, 426.5503
224.4535, 423.8081
224.9356, 421.4119
225.4177, 419.5336
225.8998, 417.6473
226.3819, 415.8221
226.8641, 413.9526
227.3462, 411.6615
227.8283, 408.5659
228.3104, 405.6286
228.7925, 403.5325
229.2746, 403.0974
229.7568, 401.5168
230.2389, 398.2887
230.7210, 393.8972
231.2031, 390.0331
231.6852, 387.1494
232.1673, 384.1255
232.6495, 380.4263
233.1316, 375.8263
233.6137, 371.0229
234.0958, 365.8867
234.5779, 360.6407
235.0600, 356.0495
235.5422, 352.4778
236.0243, 348.9606
236.5064, 345.0202
236.9885, 340.3253
237.4706, 335.9525
237.9527, 332.0500
238.4349, 328.4832
238.9170, 324.8891
239.3991, 320.8329
239.8812, 317.3993
240.3633, 315.1916
240.8454, 314.9626
241.3276, 314.0758
241.8097, 312.2862
242.2918, 309.9418
242.7739, 307.7509
243.2560, 305.4911
243.7381, 303.7343
244.2203, 302.8238
244.7024, 303.2378
245.1845, 303.1220
245.6666, 302.1856
246.1487, 300.8610
246.6308, 299.9960
247.1130, 299.9047
247.5951, 299.7553
248.0772, 299.2344
248.5593, 298.2178
249.0414, 297.2825
249.5235, 296.5087
250.0057, 295.7638
250.4878, 294.7841
250.9699, 293.3887
251.4520, 292.0769
251.9341, 291.0946
252.4162, 290.5830
252.8984, 289.6295
253.3805, 287.9534
253.8626, 286.0395
254.3447, 284.6929
254.8268, 284.2142
255.3089, 283.6508
255.7911, 282.7425
256.2732, 281.4591
256.7553, 280.0418
257.2374, 278.3987
257.7195, 276.7071
258.2017, 275.1991
258.6838, 273.9518
259.1659, 272.6776
259.6480, 271.2301
260.1301, 269.6043
260.6122, 268.3564
261.0944, 267.7744
261.5765, 267.2083
262.0586, 265.8418
262.5407, 263.2641
263.0228, 261.0379
263.5049, 259.5410
263.9871, 258.7426
264.4692, 258.2432
264.9513, 258.2985
265.4334, 258.2404
265.9155, 257.2821
266.3976, 255.0446
266.8798, 253.2508
267.3619, 252.2727
267.8440, 252.0234
268.3261, 251.9225
268.8082, 252.0481
269.2903, 252.1571
269.7725, 252.0608
270.2546, 251.7467
270.7367, 251.2752
271.2188, 250.5941
271.7009, 249.7747
272.1830, 249.0860
272.6652, 248.5204
273.1473, 248.1181
273.6294, 247.9480
274.1115, 248.0547
274.5936, 248.1044
275.0757, 248.0176
275.5579, 247.8824
276.0400, 247.9135
276.5221, 248.0815
277.0042, 248.5255
277.4863, 249.5301
277.9684, 251.1753
278.4506, 252.1980
278.9327, 252.3654
279.4148, 252.0564
279.8969, 251.9555
280.3790, 252.0369
280.8611, 252.5160
281.3433, 253.7312
281.8254, 255.6802
282.3075, 257.2005
282.7896, 258.2921
283.2717, 258.9050
283.7538, 258.7113
284.2360, 257.6727
284.7181, 256.8529
285.2002, 256.7289
285.6823, 257.2536
286.1644, 258.0892
286.6465, 259.2907
287.1287, 260.5685
287.6108, 261.5782
288.0929, 262.3232
288.5750, 262.8928
289.0571, 263.3072
289.5392, 263.5714
290.0214, 263.6253
290.5035, 263.4374
290.9856, 263.2955
291.4677, 263.4704
291.9498, 263.9513
292.4319, 264.6744
292.9141, 265.7521
293.3962, 266.9949
293.8783, 268.0812
294.3604, 269.0103
294.8425, 269.5245
295.3246, 268.9692
295.8068, 267.7424
296.2889, 267.2396
296.7710, 268.0428
297.2531, 269.4275
297.7352, 270.2155
298.2173, 270.4519
298.6995, 270.5414
299.1816, 270.7011
299.6637, 270.9260
300.1458, 271.1944
300.6279, 271.4879
301.1100, 271.8512
301.5922, 272.4628
302.0743, 273.2319
302.5564, 273.7999
303.0385, 273.9225
303.5206, 273.7213
304.0027, 273.3044
304.4849, 272.6264
304.9670, 271.9782
305.4491, 271.5611
305.9312, 271.3886
306.4133, 271.4940
306.8954, 272.3574
307.3776, 273.2655
307.8597, 273.3428
308.3418, 272.4707
308.8239, 271.5828
309.3060, 271.4086
309.7881, 271.6708
310.2703, 271.9334
310.7524, 272.0321
311.2345, 272.0635
311.7166, 272.0893
312.1987, 272.1103
312.6808, 272.1104
313.1630, 271.9063
313.6451, 271.7386
314.1272, 271.8709
314.6093, 273.0613
315.0914, 273.9296
315.5735, 273.3200
316.0557, 271.5704
316.5378, 270.4837
317.0199, 271.6873
317.5020, 273.3453
317.9841, 274.0744
318.4662, 272.8220
318.9484, 271.7005
319.4305, 271.3250
319.9126, 271.5970
320.3947, 272.2567
320.8768, 273.9990
321.3589, 275.5292
321.8411, 276.0468
322.3232, 274.8199
322.8053, 274.1261
323.2874, 274.7438
323.7695, 276.0930
324.2516, 277.2555
324.7338, 277.9917
325.2159, 278.6103
325.6980, 279.1810
326.1801, 279.6932
326.6622, 280.2292
327.1443, 280.8467
327.6265, 281.4728
328.1086, 282.0365
328.5907, 282.5558
329.0728, 282.9875
329.5549, 283.2880
330.0370, 283.4580
330.5192, 283.7118
331.0013, 284.4260
331.4834, 284.9108
331.9655, 284.6003
332.4476, 282.5004
332.9297, 281.3508
333.4119, 281.8317
333.8940, 283.4882
334.3761, 284.2702
334.8582, 283.7133
335.3403, 282.9907
335.8224, 282.6938
336.3046, 282.9585
336.7867, 283.2687
337.2688, 283.7310
337.7509, 284.1434
338.2330, 284.0470
338.7151, 283.3029
339.1973, 282.4868
339.6794, 281.7953
340.1615, 281.2391
340.6436, 280.6656
341.1257, 279.9462
341.6078, 279.5119
342.0899, 280.2178
342.5721, 282.1756
343.0542, 283.5990
343.5363, 283.6029
344.0184, 282.6762
344.5005, 283.1662
344.9826, 285.2310
345.4648, 287.5364
345.9469, 288.8033
346.4290, 289.1639
346.9111, 289.5362
347.3932, 290.1105
347.8753, 290.7665
348.3575, 291.1496
348.8396, 291.2929
349.3217, 291.6599
349.8038, 292.7689
350.2859, 294.3150
350.7680, 295.5097
351.2502, 296.1867
351.7323, 296.7767
352.2144, 297.9319
352.6965, 299.4476
353.1786, 300.6703
353.6607, 301.0081
354.1429, 301.0035
354.6250, 301.2626
355.1071, 301.8146
355.5892, 302.6694
356.0713, 304.0378
356.5534, 305.6773
357.0356, 307.2243
357.5177, 308.3312
357.9998, 309.4925
358.4819, 311.0452
358.9640, 312.9553
359.4461, 315.0042
359.9283, 316.9857
360.4104, 319.1028
360.8925, 321.5856
361.3746, 324.8392
361.8567, 327.8409
362.3388, 329.9072
362.8210, 331.3943
363.3031, 333.1627
363.7852, 336.0545
364.2673, 338.8216
364.7494, 340.8012
365.2315, 341.7014
365.7137, 342.6391
366.1958, 343.6934
366.6779, 344.9350
367.1600, 346.4566
367.6421, 349.1347
368.1242, 351.1984
368.6064, 352.2953
369.0885, 352.3959
369.5706, 351.8327
370.0527, 350.0429
370.5348, 348.0275
371.0169, 346.4292
371.4991, 345.6198
371.9812, 344.6332
372.4633, 343.3838
372.9454, 341.9115
373.4275, 340.3683
373.9096, 338.6949
374.3918, 337.0261
374.8739, 335.3986
375.3560, 333.7101
375.8381, 332.5190
376.3202, 332.0838
376.8023, 331.8255
377.2845, 330.6968
377.7666, 328.4879
378.2487, 326.5937
378.7308, 325.5581
379.2129, 325.2549
379.6950, 324.9735
380.1772, 324.7054
380.6593, 324.4800
381.1414, 324.3045
381.6235, 324.1850
382.1056, 324.1447
382.5877, 324.1368
383.0699, 324.2856
383.5520, 324.7508
384.0341, 325.5497
384.5162, 326.8029
384.9983, 329.1462
385.4804, 331.9372
385.9626, 333.7069
386.4447, 334.2028
386.9268, 334.2562
387.4089, 334.4171
387.8910, 334.7740
388.3731, 335.5251
388.8553, 337.6073
389.3374, 339.5900
389.8195, 339.9655
390.3016, 338.7771
390.7837, 337.0656
391.2658, 335.3082
391.7480, 333.4422
392.2301, 331.4043
392.7122, 329.1894
393.1943, 326.7955
393.6764, 324.3372
394.1585, 321.7224
394.6407, 318.7386
395.1228, 314.8615
395.6049, 310.9473
396.0870, 307.3610
396.5691, 304.1877
397.0512, 301.2905
397.5334, 298.6454
398.0155, 296.2499
398.4976, 294.1345
398.9797, 292.4316
399.4618, 290.8402
399.9439, 289.1637
400.4261, 287.4019
400.9082, 286.2810
401.3903, 286.2752
401.8724, 286.4512
402.3545, 286.1259
402.8366, 284.6747
403.3188, 284.1054
403.8009, 284.7042
404.2830, 286.1729
404.7651, 287.9846
405.2472, 290.5091
405.7293, 292.2648
406.2115, 292.3134
406.6936, 290.5866
407.1757, 289.6522
407.6578, 289.5811
408.1399, 290.1146
408.6220, 291.1929
409.1042, 292.7983
409.5863, 294.0665
410.0684, 294.6996
410.5505, 294.9034
411.0326, 295.1451
411.5147, 295.4261
411.9969, 295.7531
412.4790, 296.2968
412.9611, 296.8853
413.4432, 297.0666
413.9253, 296.7371
414.4074, 296.1838
414.8896, 295.6411
415.3717, 295.1110
415.8538, 294.6011
416.3359, 294.8268
416.8180, 294.6181
417.3001, 292.2730
417.7823, 287.8390
418.2644, 284.2403
418.7465, 284.2281
419.2286, 285.2972
419.7107, 284.9750
420.1928, 281.5399
420.6750, 278.0629
421.1571, 275.7740
421.6392, 274.3184
422.1213, 272.8402
422.6034, 270.5859
423.0855, 268.7157
423.5677, 267.9684
424.0498, 269.0033
424.5319, 269.0014
425.0140, 266.6733
425.4961, 263.7234
425.9782, 261.8903
426.4604, 262.1445
426.9425, 262.0888
427.4246, 261.1708
427.9067, 259.5805
428.3888, 258.7475
428.8709, 258.9945
429.3531, 259.4293
429.8352, 259.5784
430.3173, 259.4001
430.7994, 259.1621
431.2815, 258.9474
431.7636, 258.5468
432.2458, 257.4237
432.7279, 255.5115
433.2100, 253.9495
433.6921, 253.2038
434.1742, 253.1012
434.6563, 253.3098
435.1385, 253.8630
435.6206, 253.8537
436.1027, 252.0099
436.5848, 248.9828
437.0669, 246.5397
437.5490, 245.0481
438.0312, 244.1437
438.5133, 243.7926
438.9954, 243.7328
439.4775, 243.2305
439.9596, 241.3979
440.4417, 239.2845
440.9239, 237.8219
441.4060, 237.0662
441.8881, 236.5948
442.3702, 236.3701
442.8523, 236.2275
443.3344, 236.0091
443.8166, 235.7364
444.2987, 235.3041
444.7808, 234.5736
445.2629, 233.6411
445.7450, 232.7862
446.2271, 232.4391
446.7093, 231.8683
447.1914, 230.5751
447.6735, 227.9820
448.1556, 226.5749
448.6377, 227.1882
449.1198, 228.4360
449.6020, 228.9069
450.0841, 228.1952
450.5662, 227.5543
451.0483, 227.2497
451.5304, 227.1538
452.0125, 226.6118
452.4947, 225.4259
452.9768, 224.3894
453.4589, 224.0966
453.9410, 224.5710
454.4231, 224.5030
454.9052, 223.7469
455.3874, 222.8169
455.8695, 222.4484
456.3516, 222.5509
456.8337, 222.4746
457.3158, 221.9475
457.7979, 221.1689
458.2801, 220.2739
458.7622, 219.3387
459.2443, 218.8839
459.7264, 219.6392
460.2085, 220.9550
460.6906, 222.1529
461.1728, 223.2765
461.6549, 223.6258
462.1370, 222.0029
462.6191, 219.4260
463.1012, 217.4197
463.5833, 216.7532
464.0655, 216.5837
464.5476, 216.5959
465.0297, 216.7879
465.5118, 217.2520
465.9939, 218.5896
466.4760, 219.7739
466.9582, 220.2096
467.4403, 219.4088
467.9224, 218.6463
468.4045, 217.9782
468.8866, 217.3558
469.3687, 216.6383
469.8509, 215.4556
470.3330, 214.9123
470.8151, 215.5185
471.2972, 217.1132
471.7793, 217.9490
472.2614, 217.8769
472.7436, 217.4798
473.2257, 217.1622
473.7078, 216.9270
474.1899, 216.4097
474.6720, 215.4603
475.1541, 214.5493
475.6363, 214.4706
476.1184, 215.1172
476.6005, 215.8111
477.0826, 216.2798
477.5647, 216.6317
478.0468, 217.1797
478.5290, 217.8738
479.0111, 218.2571
479.4932, 217.5882
479.9753, 216.6082
480.4574, 216.2216
480.9395, 216.6944
481.4217, 217.4241
481.9038, 218.3461
482.3859, 219.2139
482.8680, 219.6486
483.3501, 218.8217
483.8322, 218.2217
484.3144, 218.6080
484.7965, 219.9009
485.2786, 220.8234
485.7607, 220.9164
486.2428, 220.7901
486.7249, 220.7338
487.2071, 220.7355
487.6892, 220.8372
488.1713, 221.0887
488.6534, 221.4084
489.1355, 221.6323
489.6176, 221.6321
490.0998, 221.9556
490.5819, 222.8312
491.0640, 224.1414
491.5461, 225.3157
492.0282, 226.3827
492.5103, 227.1899
492.9925, 227.3189
493.4746, 226.9998
493.9567, 227.4490
494.4388, 228.8170
494.9209, 230.6275
495.4030, 232.6760
495.8852, 234.7559
496.3673, 236.3806
496.8494, 236.9301
497.3315, 237.3349
497.8136, 238.6320
498.2957, 240.6139
498.7779, 242.3830
499.2600, 243.1312
499.7421, 243.7518
500.2242, 244.8881
500.7063, 246.7166
501.1884, 248.6817
501.6706, 250.7456
502.1527, 252.8029
502.6348, 254.7120
503.1169, 256.7402
503.5990, 258.2719
504.0811, 258.9569
504.5633, 259.0644
505.0454, 259.5977
505.5275, 260.6110
506.0096, 261.9485
506.4917, 263.6248
506.9738, 265.6967
507.4560, 267.5850
507.9381, 269.2838
508.4202, 270.8114
508.9023, 272.2145
509.3844, 273.4854
509.8665, 274.4226
510.3487, 274.8386
510.8308, 275.1835
511.3129, 276.4122
511.7950, 278.3256
512.2772, 279.9897
512.7593, 280.7079
513.2414, 281.0133
513.7235, 281.6732
514.2056, 282.6717
514.6877, 283.3393
515.1699, 282.7744
515.6520, 281.9254
516.1341, 281.7141
516.6162, 282.6812
517.0983, 283.6239
517.5804, 284.2192
518.0626, 284.5246
518.5447, 284.6362
519.0268, 284.2178
519.5089, 283.9846
519.9910, 284.2882
520.4731, 285.0625
520.9553, 285.1720
521.4374, 284.1107
521.9195, 283.1414
522.4016, 283.0467
522.8837, 284.0278
523.3658, 284.8947
523.8480, 285.7098
524.3301, 286.2670
524.8122, 286.0771
525.2943, 285.2047
525.7764, 284.6714
526.2585, 284.8753
526.7407, 285.4376
527.2228, 285.8146
527.7049, 285.9823
528.1870, 285.7957
528.6691, 284.5515
529.1512, 283.2199
529.6334, 283.1387
530.1155, 284.4352
530.5976, 285.7075
531.0797, 286.1909
531.5618, 286.2043
532.0439, 286.0364
532.5261, 285.4791
533.0082, 285.1395
533.4903, 285.5566
533.9724, 286.2588
534.4545, 286.2353
534.9366, 284.3902
535.4188, 282.9810
535.9009, 282.7469
536.3830, 283.6506
536.8651, 283.8793
537.3472, 283.1906
537.8293, 282.3192
538.3115, 281.9053
538.7936, 282.0415
539.2757, 281.2590
539.7578, 279.2546
540.2399, 277.0111
540.7220, 275.8551
541.2042, 275.6597
541.6863, 275.6245
542.1684, 275.5732
542.6505, 275.4700
543.1326, 275.1851
543.6147, 274.7783
544.0969, 274.4782
544.5790, 274.8846
545.0611, 275.1441
545.5432, 274.5055
546.0253, 272.8875
546.5074, 270.8949
546.9896, 267.7558
547.4717, 264.9436
547.9538, 263.6755
548.4359, 265.5255
548.9180, 267.0699
549.4001, 268.1954
549.8823, 268.8258
550.3644, 268.7391
550.8465, 267.4476
551.3286, 266.3873
551.8107, 266.1023
552.2928, 266.4000
552.7750, 265.6701
553.2571, 263.6651
553.7392, 261.8382
554.2213, 261.3896
554.7034, 262.0402
555.1855, 262.1208
555.6677, 261.5127
556.1498, 260.6186
556.6319, 259.7859
557.1140, 258.9950
557.5961, 258.1519
558.0782, 256.9597
558.5604, 256.1610
559.0425, 256.6408
559.5246, 257.9724
560.0067, 259.2115
560.4888, 260.6492
560.9709, 261.2829
561.4531, 260.1704
561.9352, 257.3070
562.4173, 255.1956
562.8994, 254.6727
563.3815, 254.5900
563.8636, 254.4379
564.3458, 254.3508
564.8279, 253.7503
565.3100, 252.2717
565.7921, 250.7337
566.2742, 250.4178
566.7563, 251.4990
567.2385, 252.0507
567.7206, 251.5658
568.2027, 250.4396
568.6848, 249.4490
569.1669, 248.5786
569.6490, 247.8177
570.1312, 247.3750
570.6133, 246.9280
571.0954, 245.8060
571.5775, 244.0441
572.0596, 242.5949
572.5417, 242.5349
573.0239, 242.7661
573.5060, 242.2827
573.9881, 240.6422
574.4702, 239.0112
574.9523, 237.5691
575.4344, 236.3719
575.9166, 235.5178
576.3987, 235.7014
576.8808, 235.2730
577.3629, 233.8789
577.8450, 231.7617
578.3271, 229.5585
578.8093, 227.0217
579.2914, 225.1609
579.7735, 224.6773
580.2556, 225.3462
580.7377, 225.4599
581.2198, 225.0071
581.7020, 224.0480
582.1841, 222.3970
582.6662, 220.3039
583.1483, 218.2177
583.6304, 216.1543
584.1125, 214.5243
584.5947, 214.1495
585.0768, 214.3320
585.5589, 214.0500
