##NAMES=Actinolite
##RRUFFID=R050025
##IDEAL CHEMISTRY=Ca_2_(Mg_4.5-2.5_Fe^2+^_0.5-2.5_)Si_8_O_22_(OH)_2_
##LOCALITY=Tyrol, Austria
##OWNER=RRUFF
##SOURCE=Eugene Schlepp
##DESCRIPTION=Green colored bladed single crystals
##STATUS=The identification of this mineral has been confirmed by X-ray diffraction and chemical analysis
##URL=rruff.info/R050025
##MEASURED CHEMISTRY=(Ca_.930_Na_.056_Mn_.010_K_.004_)_2_(Mg_.883_Fe_.117_)_5_(Si_.978_Al_.022_)_8_O_22_(OH)_2_
143.3943, 816.5643
143.8764, 823.6486
144.3585, 826.6967
144.8407, 829.8649
145.3228, 832.3588
145.8049, 835.5624
146.2870, 840.8397
146.7691, 849.6555
147.2512, 858.5118
147.7334, 866.2551
148.2155, 872.2018
148.6976, 880.4108
149.1797, 886.4225
149.6618, 896.0533
150.1439, 916.8031
150.6261, 961.1605
151.1082, 1005.189
151.5903, 1040.928
152.0724, 1059.868
152.5545, 1089.078
153.0366, 1132.067
153.5188, 1186.448
154.0009, 1247.267
154.4830, 1320.207
154.9651, 1395.328
155.4472, 1468.591
155.9293, 1534.877
156.4115, 1605.723
156.8936, 1688.419
157.3757, 1778.931
157.8578, 1864.507
158.3399, 1960.098
158.8221, 2038.688
159.3042, 2083.718
159.7863, 2084.711
160.2684, 2057.837
160.7505, 1997.417
161.2326, 1906.934
161.7148, 1817.438
162.1969, 1738.212
162.6790, 1667.301
163.1611, 1603.743
163.6432, 1549.268
164.1253, 1499.642
164.6075, 1450.008
165.0896, 1400.099
165.5717, 1361.125
166.0538, 1342.236
166.5359, 1337.790
167.0180, 1339.493
167.5002, 1343.642
167.9823, 1352.747
168.4644, 1368.493
168.9465, 1390.978
169.4286, 1420.287
169.9107, 1459.369
170.3929, 1505.301
170.8750, 1552.985
171.3571, 1596.758
171.8392, 1641.726
172.3213, 1691.966
172.8034, 1746.111
173.2856, 1810.007
173.7677, 1892.164
174.2498, 1989.910
174.7319, 2092.380
175.2140, 2203.031
175.6961, 2312.123
176.1783, 2405.243
176.6604, 2480.190
177.1425, 2535.739
177.6246, 2576.175
178.1067, 2598.711
178.5888, 2587.513
179.0710, 2521.451
179.5531, 2413.451
180.0352, 2289.290
180.5173, 2147.574
180.9994, 2001.547
181.4815, 1873.362
181.9637, 1761.870
182.4458, 1666.408
182.9279, 1588.308
183.4100, 1525.668
183.8921, 1469.677
184.3742, 1416.667
184.8564, 1369.055
185.3385, 1335.142
185.8206, 1315.122
186.3027, 1302.918
186.7848, 1294.067
187.2669, 1288.281
187.7491, 1283.021
188.2312, 1277.344
188.7133, 1271.524
189.1954, 1266.439
189.6775, 1262.145
190.1596, 1258.492
190.6418, 1256.092
191.1239, 1254.876
191.6060, 1251.909
192.0881, 1245.941
192.5702, 1237.116
193.0524, 1225.741
193.5345, 1210.840
194.0166, 1195.984
194.4987, 1188.370
194.9808, 1188.567
195.4629, 1187.393
195.9451, 1177.490
196.4272, 1159.063
196.9093, 1151.433
197.3914, 1157.393
197.8735, 1170.708
198.3556, 1179.114
198.8378, 1181.531
199.3199, 1185.665
199.8020, 1196.148
200.2841, 1213.266
200.7662, 1231.293
201.2483, 1250.409
201.7305, 1269.790
202.2126, 1286.242
202.6947, 1298.295
203.1768, 1312.909
203.6589, 1333.654
204.1410, 1360.194
204.6232, 1395.275
205.1053, 1443.391
205.5874, 1498.355
206.0695, 1536.782
206.5516, 1552.429
207.0337, 1567.935
207.5159, 1599.414
207.9980, 1648.777
208.4801, 1702.589
208.9622, 1761.059
209.4443, 1822.675
209.9264, 1879.091
210.4086, 1927.711
210.8907, 1976.572
211.3728, 2032.724
211.8549, 2100.404
212.3370, 2161.900
212.8191, 2212.082
213.3013, 2252.813
213.7834, 2304.173
214.2655, 2368.806
214.7476, 2440.126
215.2297, 2510.544
215.7118, 2576.959
216.1940, 2653.556
216.6761, 2745.003
217.1582, 2850.886
217.6403, 2953.707
218.1224, 3050.291
218.6045, 3146.449
219.0867, 3250.158
219.5688, 3368.815
220.0509, 3476.390
220.5330, 3568.962
221.0151, 3648.079
221.4972, 3697.436
221.9794, 3715.253
222.4615, 3705.895
222.9436, 3673.228
223.4257, 3614.167
223.9078, 3536.322
224.3899, 3437.881
224.8721, 3315.359
225.3542, 3199.540
225.8363, 3083.913
226.3184, 2980.145
226.8005, 2900.823
227.2827, 2851.480
227.7648, 2817.801
228.2469, 2800.807
228.7290, 2804.105
229.2111, 2796.368
229.6932, 2774.669
230.1754, 2744.419
230.6575, 2712.067
231.1396, 2678.161
231.6217, 2641.890
232.1038, 2606.796
232.5859, 2577.879
233.0681, 2521.758
233.5502, 2428.487
234.0323, 2315.584
234.5144, 2205.423
234.9965, 2096.039
235.4786, 1993.921
235.9608, 1899.096
236.4429, 1810.536
236.9250, 1740.117
237.4071, 1695.472
237.8892, 1664.785
238.3713, 1628.621
238.8535, 1579.707
239.3356, 1537.496
239.8177, 1508.661
240.2998, 1495.605
240.7819, 1486.826
241.2640, 1483.003
241.7462, 1482.917
242.2283, 1484.159
242.7104, 1485.041
243.1925, 1490.028
243.6746, 1500.668
244.1567, 1517.597
244.6389, 1538.874
245.1210, 1567.233
245.6031, 1598.249
246.0852, 1623.522
246.5673, 1639.906
247.0494, 1656.010
247.5316, 1676.775
248.0137, 1707.661
248.4958, 1723.951
248.9779, 1720.240
249.4600, 1704.845
249.9421, 1694.609
250.4243, 1697.289
250.9064, 1691.100
251.3885, 1665.693
251.8706, 1613.000
252.3527, 1567.417
252.8348, 1530.210
253.3170, 1499.376
253.7991, 1472.055
254.2812, 1450.433
254.7633, 1428.620
255.2454, 1402.624
255.7275, 1368.527
256.2097, 1346.604
256.6918, 1342.067
257.1739, 1346.361
257.6560, 1343.104
258.1381, 1328.523
258.6202, 1314.128
259.1024, 1304.195
259.5845, 1299.740
260.0666, 1296.294
260.5487, 1295.137
261.0308, 1294.018
261.5129, 1288.806
261.9951, 1279.282
262.4772, 1266.245
262.9593, 1249.084
263.4414, 1226.112
263.9235, 1206.637
264.4056, 1191.629
264.8878, 1178.992
265.3699, 1164.730
265.8520, 1148.328
266.3341, 1131.380
266.8162, 1113.064
267.2983, 1092.348
267.7805, 1078.816
268.2626, 1075.354
268.7447, 1076.002
269.2268, 1069.753
269.7089, 1054.496
270.1910, 1039.955
270.6732, 1029.960
271.1553, 1025.010
271.6374, 1020.134
272.1195, 1014.941
272.6016, 1010.390
273.0837, 1008.783
273.5659, 1010.815
274.0480, 1012.155
274.5301, 1010.108
275.0122, 1004.440
275.4943, 1003.271
275.9764, 1007.897
276.4586, 1014.584
276.9407, 1016.822
277.4228, 1013.799
277.9049, 1013.171
278.3870, 1020.387
278.8691, 1034.785
279.3513, 1039.027
279.8334, 1030.063
280.3155, 1018.784
280.7976, 1020.975
281.2798, 1037.131
281.7619, 1054.691
282.2440, 1070.173
282.7261, 1083.421
283.2082, 1091.923
283.6903, 1094.479
284.1725, 1096.711
284.6546, 1106.945
285.1367, 1124.754
285.6188, 1141.225
286.1009, 1152.809
286.5830, 1160.456
287.0652, 1167.469
287.5473, 1173.459
288.0294, 1180.754
288.5115, 1193.887
288.9936, 1211.925
289.4757, 1226.748
289.9579, 1236.068
290.4400, 1240.217
290.9221, 1238.335
291.4042, 1229.904
291.8863, 1221.910
292.3684, 1222.191
292.8506, 1229.252
293.3327, 1236.499
293.8148, 1241.254
294.2969, 1245.298
294.7790, 1254.395
295.2611, 1268.588
295.7433, 1279.364
296.2254, 1273.206
296.7075, 1257.123
297.1896, 1251.212
297.6717, 1264.399
298.1538, 1287.807
298.6360, 1310.179
299.1181, 1331.576
299.6002, 1350.283
300.0823, 1364.912
300.5644, 1376.126
301.0465, 1385.477
301.5287, 1394.120
302.0108, 1400.125
302.4929, 1401.232
302.9750, 1397.632
303.4571, 1390.366
303.9392, 1379.136
304.4214, 1364.958
304.9035, 1348.021
305.3856, 1325.521
305.8677, 1305.510
306.3498, 1297.877
306.8319, 1299.754
307.3141, 1300.881
307.7962, 1295.233
308.2783, 1285.921
308.7604, 1275.385
309.2425, 1263.267
309.7246, 1252.327
310.2068, 1244.365
310.6889, 1238.940
311.1710, 1234.787
311.6531, 1234.926
312.1352, 1233.883
312.6173, 1225.996
313.0995, 1206.911
313.5816, 1191.399
314.0637, 1187.411
314.5458, 1191.703
315.0279, 1198.063
315.5100, 1209.198
315.9922, 1217.944
316.4743, 1219.717
316.9564, 1212.553
317.4385, 1204.388
317.9206, 1194.313
318.4027, 1185.598
318.8849, 1182.813
319.3670, 1192.955
319.8491, 1204.161
320.3312, 1211.685
320.8133, 1214.423
321.2954, 1218.225
321.7776, 1225.295
322.2597, 1233.601
322.7418, 1240.976
323.2239, 1242.128
323.7060, 1247.293
324.1881, 1261.900
324.6703, 1287.368
325.1524, 1305.563
325.6345, 1306.885
326.1166, 1304.686
326.5987, 1309.749
327.0808, 1329.157
327.5630, 1347.539
328.0451, 1362.150
328.5272, 1373.281
329.0093, 1387.635
329.4914, 1409.064
329.9735, 1429.891
330.4557, 1444.277
330.9378, 1444.324
331.4199, 1452.163
331.9020, 1473.541
332.3841, 1504.734
332.8662, 1527.779
333.3484, 1541.344
333.8305, 1548.432
334.3126, 1548.202
334.7947, 1534.447
335.2768, 1533.862
335.7589, 1553.727
336.2411, 1584.191
336.7232, 1598.923
337.2053, 1592.113
337.6874, 1586.230
338.1695, 1592.714
338.6516, 1612.977
339.1338, 1633.144
339.6159, 1653.169
340.0980, 1672.495
340.5801, 1689.218
341.0622, 1703.241
341.5443, 1717.451
342.0265, 1733.779
342.5086, 1751.763
342.9907, 1767.327
343.4728, 1779.291
343.9549, 1792.964
344.4370, 1816.268
344.9192, 1848.149
345.4013, 1880.085
345.8834, 1910.044
346.3655, 1937.271
346.8476, 1958.056
347.3297, 1972.245
347.8119, 1982.707
348.2940, 1989.277
348.7761, 1993.783
349.2582, 2002.326
349.7403, 2021.475
350.2225, 2040.708
350.7046, 2042.493
351.1867, 2028.693
351.6688, 2013.547
352.1509, 2010.827
352.6331, 2012.410
353.1152, 2005.095
353.5973, 1982.281
354.0794, 1956.825
354.5615, 1939.621
355.0436, 1929.094
355.5258, 1920.455
356.0079, 1908.153
356.4900, 1898.208
356.9721, 1896.024
357.4542, 1903.117
357.9363, 1915.649
358.4185, 1931.829
358.9006, 1951.954
359.3827, 1976.539
359.8648, 2003.921
360.3469, 2037.295
360.8290, 2080.238
361.3112, 2134.588
361.7933, 2188.216
362.2754, 2232.923
362.7575, 2276.942
363.2396, 2329.441
363.7217, 2398.611
364.2039, 2469.629
364.6860, 2539.441
365.1681, 2608.204
365.6502, 2675.189
366.1323, 2735.982
366.6144, 2798.089
367.0966, 2867.140
367.5787, 2966.758
368.0608, 3043.858
368.5429, 3099.085
369.0250, 3130.453
369.5071, 3126.109
369.9893, 3069.830
370.4714, 2997.070
370.9535, 2924.769
371.4356, 2859.647
371.9177, 2780.256
372.3998, 2679.608
372.8820, 2567.560
373.3641, 2465.767
373.8462, 2373.540
374.3283, 2293.872
374.8104, 2229.391
375.2925, 2179.974
375.7747, 2142.904
376.2568, 2121.165
376.7389, 2105.222
377.2210, 2080.966
377.7031, 2047.480
378.1852, 2018.935
378.6674, 1999.269
379.1495, 1987.957
379.6316, 1982.253
380.1137, 1982.248
380.5958, 1987.479
381.0779, 1996.614
381.5601, 2010.419
382.0422, 2031.723
382.5243, 2061.919
383.0064, 2099.500
383.4885, 2145.024
383.9706, 2197.760
384.4528, 2249.105
384.9349, 2288.656
385.4170, 2324.549
385.8991, 2371.267
386.3812, 2432.320
386.8633, 2501.455
387.3455, 2577.604
387.8276, 2657.436
388.3097, 2734.667
388.7918, 2798.674
389.2739, 2862.723
389.7560, 2942.524
390.2382, 3041.392
390.7203, 3130.217
391.2024, 3197.508
391.6845, 3244.512
392.1666, 3273.323
392.6487, 3283.973
393.1309, 3276.453
393.6130, 3256.033
394.0951, 3221.086
394.5772, 3152.871
395.0593, 3022.749
395.5414, 2872.878
396.0236, 2730.744
396.5057, 2601.540
396.9878, 2477.913
397.4699, 2357.067
397.9520, 2241.620
398.4341, 2140.668
398.9163, 2056.467
399.3984, 1984.539
399.8805, 1922.987
400.3626, 1870.441
400.8447, 1833.573
401.3268, 1820.516
401.8090, 1817.174
402.2911, 1801.168
402.7732, 1763.948
403.2553, 1736.904
403.7374, 1729.668
404.2195, 1741.354
404.7017, 1757.191
405.1838, 1778.793
405.6659, 1800.368
406.1480, 1815.146
406.6301, 1823.036
407.1122, 1834.170
407.5944, 1849.574
408.0765, 1870.186
408.5586, 1899.636
409.0407, 1937.891
409.5228, 1977.794
410.0049, 2014.388
410.4871, 2048.581
410.9692, 2084.219
411.4513, 2122.556
411.9334, 2159.197
412.4155, 2189.368
412.8976, 2214.372
413.3798, 2236.894
413.8619, 2265.045
414.3440, 2287.918
414.8261, 2293.725
415.3082, 2282.190
415.7903, 2261.117
416.2725, 2235.152
416.7546, 2202.630
417.2367, 2160.675
417.7188, 2100.950
418.2009, 2040.880
418.6830, 1990.000
419.1652, 1945.815
419.6473, 1901.160
420.1294, 1849.824
420.6115, 1799.772
421.0937, 1753.675
421.5758, 1709.930
422.0579, 1676.513
422.5400, 1669.008
423.0221, 1669.394
423.5042, 1647.498
423.9864, 1574.949
424.4685, 1511.218
424.9506, 1470.868
425.4327, 1456.357
425.9148, 1440.737
426.3969, 1423.592
426.8791, 1405.824
427.3612, 1386.953
427.8433, 1363.707
428.3254, 1350.444
428.8075, 1352.236
429.2896, 1364.292
429.7718, 1370.057
430.2539, 1368.585
430.7360, 1366.011
431.2181, 1365.086
431.7002, 1365.882
432.1823, 1369.704
432.6645, 1376.924
433.1466, 1386.185
433.6287, 1398.865
434.1108, 1413.218
434.5929, 1420.154
435.0750, 1411.097
435.5572, 1394.266
436.0393, 1386.033
436.5214, 1385.846
437.0035, 1381.945
437.4856, 1363.988
437.9677, 1337.013
438.4499, 1307.229
438.9320, 1273.110
439.4141, 1241.833
439.8962, 1220.387
440.3783, 1206.060
440.8604, 1191.224
441.3426, 1169.896
441.8247, 1149.319
442.3068, 1134.505
442.7889, 1127.430
443.2710, 1119.188
443.7531, 1103.202
444.2353, 1086.512
444.7174, 1076.627
445.1995, 1084.671
445.6816, 1088.714
446.1637, 1081.428
446.6458, 1064.544
447.1280, 1056.687
447.6101, 1065.692
448.0922, 1075.091
448.5743, 1074.512
449.0564, 1056.750
449.5385, 1049.005
450.0207, 1055.680
450.5028, 1069.280
450.9849, 1075.500
451.4670, 1073.082
451.9491, 1069.237
452.4312, 1064.935
452.9134, 1060.990
453.3955, 1065.998
453.8776, 1081.356
454.3597, 1095.585
454.8418, 1095.277
455.3239, 1083.560
455.8061, 1073.109
456.2882, 1066.146
456.7703, 1062.544
457.2524, 1062.403
457.7345, 1065.511
458.2166, 1071.086
458.6988, 1083.715
459.1809, 1095.995
459.6630, 1097.392
460.1451, 1085.132
460.6272, 1074.927
461.1093, 1081.013
461.5915, 1093.652
462.0736, 1100.626
462.5557, 1090.893
463.0378, 1081.680
463.5199, 1079.510
464.0020, 1083.774
464.4842, 1089.117
464.9663, 1098.333
465.4484, 1105.430
465.9305, 1106.973
466.4126, 1098.428
466.8947, 1092.112
467.3769, 1088.332
467.8590, 1086.649
468.3411, 1086.264
468.8232, 1086.767
469.3053, 1089.552
469.7874, 1095.835
470.2696, 1105.322
470.7517, 1112.512
471.2338, 1117.054
471.7159, 1120.338
472.1980, 1124.236
472.6801, 1128.654
473.1623, 1128.310
473.6444, 1120.451
474.1265, 1111.469
474.6086, 1112.803
475.0907, 1123.411
475.5728, 1136.543
476.0550, 1149.619
476.5371, 1162.658
477.0192, 1176.652
477.5013, 1191.760
477.9834, 1203.607
478.4655, 1206.565
478.9477, 1204.941
479.4298, 1204.230
479.9119, 1205.431
480.3940, 1208.725
480.8761, 1213.665
481.3582, 1220.677
481.8404, 1230.993
482.3225, 1249.039
482.8046, 1267.159
483.2867, 1282.905
483.7688, 1297.268
484.2509, 1305.028
484.7331, 1300.220
485.2152, 1291.414
485.6973, 1286.867
486.1794, 1292.128
486.6615, 1291.928
487.1436, 1282.459
487.6258, 1265.823
488.1079, 1251.546
488.5900, 1239.644
489.0721, 1230.329
489.5542, 1223.595
490.0363, 1219.395
490.5185, 1220.024
491.0006, 1227.281
491.4827, 1233.532
491.9648, 1226.433
492.4470, 1208.371
492.9291, 1192.339
493.4112, 1183.205
493.8933, 1178.435
494.3754, 1174.728
494.8575, 1172.154
495.3397, 1171.381
495.8218, 1174.702
496.3039, 1179.145
496.7860, 1180.448
497.2681, 1176.431
497.7502, 1175.513
498.2324, 1182.666
498.7145, 1195.448
499.1966, 1210.686
499.6787, 1233.902
500.1608, 1252.809
500.6429, 1259.024
501.1251, 1253.890
501.6072, 1259.311
502.0893, 1287.350
502.5714, 1316.967
503.0535, 1337.288
503.5356, 1339.568
504.0178, 1354.134
504.4999, 1386.250
504.9820, 1425.776
505.4641, 1458.023
505.9462, 1481.906
506.4283, 1503.394
506.9105, 1522.661
507.3926, 1540.994
507.8747, 1563.053
508.3568, 1588.933
508.8389, 1618.724
509.3210, 1658.928
509.8032, 1703.519
510.2853, 1734.353
510.7674, 1746.830
511.2495, 1755.560
511.7316, 1777.753
512.2137, 1807.241
512.6959, 1831.135
513.1780, 1841.990
513.6601, 1847.468
514.1422, 1854.127
514.6243, 1860.820
515.1064, 1859.439
515.5886, 1841.316
516.0707, 1817.918
516.5528, 1796.201
517.0349, 1777.449
517.5170, 1759.145
517.9991, 1738.595
518.4813, 1719.458
518.9634, 1707.173
519.4455, 1707.727
519.9276, 1704.703
520.4097, 1693.343
520.8918, 1675.412
521.3740, 1660.906
521.8561, 1649.899
522.3382, 1642.074
522.8203, 1637.328
523.3024, 1635.675
523.7845, 1637.736
524.2667, 1644.528
524.7488, 1651.332
525.2309, 1650.531
525.7130, 1644.574
526.1951, 1642.126
526.6772, 1648.219
527.1594, 1657.323
527.6415, 1664.655
528.1236, 1669.837
528.6057, 1671.302
529.0878, 1666.771
529.5699, 1659.032
530.0521, 1651.985
530.5342, 1648.418
531.0163, 1634.798
531.4984, 1596.570
531.9805, 1550.339
532.4626, 1513.612
532.9448, 1497.683
533.4269, 1480.577
533.9090, 1457.308
534.3911, 1430.807
534.8732, 1414.058
535.3553, 1411.410
535.8375, 1410.105
536.3196, 1405.216
536.8017, 1396.635
537.2838, 1384.557
537.7659, 1367.560
538.2480, 1351.391
538.7302, 1343.557
539.2123, 1342.763
539.6944, 1340.733
540.1765, 1335.976
540.6586, 1328.654
541.1407, 1316.442
541.6229, 1301.114
542.1050, 1288.831
542.5871, 1283.098
543.0692, 1281.741
543.5513, 1285.591
544.0334, 1294.517
544.5156, 1298.605
544.9977, 1288.644
545.4798, 1274.556
545.9619, 1264.274
546.4440, 1261.716
546.9261, 1259.383
547.4083, 1256.687
547.8904, 1253.487
548.3725, 1249.413
548.8546, 1242.778
549.3367, 1238.005
549.8188, 1236.402
550.3010, 1237.761
550.7831, 1240.176
551.2652, 1244.277
551.7473, 1247.336
552.2294, 1246.877
552.7115, 1243.255
553.1937, 1240.549
553.6758, 1239.637
554.1579, 1237.336
554.6400, 1226.958
555.1221, 1211.664
555.6042, 1200.890
556.0864, 1201.326
556.5685, 1204.191
557.0506, 1199.991
557.5327, 1190.727
558.0148, 1183.907
558.4969, 1184.902
558.9791, 1188.180
559.4612, 1190.445
559.9433, 1191.072
560.4254, 1192.084
560.9075, 1196.648
561.3896, 1200.113
561.8718, 1198.406
562.3539, 1188.225
562.8360, 1178.205
563.3181, 1167.861
563.8002, 1158.677
564.2823, 1154.547
564.7645, 1156.247
565.2466, 1159.702
565.7287, 1163.557
566.2108, 1167.859
566.6929, 1174.309
567.1750, 1183.101
567.6572, 1188.416
568.1393, 1182.542
568.6214, 1170.062
569.1035, 1159.510
569.5856, 1151.544
570.0677, 1147.999
570.5499, 1154.381
571.0320, 1165.309
571.5141, 1172.302
571.9962, 1164.431
572.4783, 1159.822
572.9604, 1170.636
573.4426, 1192.855
573.9247, 1205.699
574.4068, 1196.321
574.8889, 1185.479
575.3710, 1181.468
575.8531, 1186.166
576.3353, 1187.908
576.8174, 1185.661
577.2995, 1181.962
577.7816, 1178.500
578.2637, 1175.072
578.7458, 1174.747
579.2280, 1178.776
579.7101, 1184.618
580.1922, 1188.317
580.6743, 1189.944
581.1564, 1189.894
581.6385, 1185.663
582.1207, 1181.292
582.6028, 1184.225
583.0849, 1193.286
583.5670, 1199.460
584.0491, 1195.858
584.5313, 1188.239
585.0134, 1180.514
585.4955, 1172.679
585.9776, 1166.784
586.4597, 1164.322
586.9418, 1163.719
587.4240, 1163.372
587.9061, 1165.446
588.3882, 1164.113
588.8703, 1157.012
589.3524, 1146.577
589.8345, 1140.148
590.3167, 1138.486
590.7988, 1137.916
591.2809, 1137.002
591.7630, 1135.888
592.2451, 1135.913
592.7272, 1137.165
593.2094, 1137.323
593.6915, 1133.454
594.1736, 1127.317
594.6557, 1122.179
595.1378, 1118.711
595.6199, 1116.060
596.1021, 1115.494
596.5842, 1114.863
597.0663, 1111.087
597.5485, 1094.112
598.0306, 1083.425
598.5127, 1091.046
598.9948, 1111.702
599.4769, 1122.226
599.9590, 1112.736
600.4412, 1103.457
600.9233, 1101.490
601.4054, 1107.445
601.8875, 1110.163
602.3696, 1107.979
602.8517, 1106.619
603.3339, 1113.648
603.8160, 1127.988
604.2981, 1132.516
604.7802, 1123.038
605.2623, 1111.428
605.7444, 1115.750
606.2266, 1130.516
606.7087, 1140.719
607.1908, 1137.887
607.6729, 1131.658
608.1550, 1128.992
608.6371, 1129.168
609.1193, 1129.755
609.6014, 1129.484
610.0835, 1129.666
610.5656, 1130.949
611.0477, 1133.453
611.5298, 1136.545
612.0120, 1141.354
612.4941, 1145.563
612.9762, 1146.662
613.4583, 1142.123
613.9404, 1144.501
614.4225, 1156.707
614.9047, 1171.684
615.3868, 1179.325
615.8689, 1180.116
616.3510, 1179.415
616.8331, 1177.899
617.3152, 1176.859
617.7974, 1179.604
618.2795, 1184.933
618.7616, 1188.334
619.2437, 1183.695
619.7258, 1178.872
620.2079, 1180.190
620.6901, 1187.955
621.1722, 1196.642
621.6543, 1203.647
622.1364, 1211.468
622.6185, 1221.948
623.1006, 1237.378
623.5828, 1251.041
624.0649, 1264.876
624.5470, 1275.167
625.0291, 1274.741
625.5112, 1260.002
625.9933, 1254.657
626.4755, 1265.306
626.9576, 1284.487
627.4397, 1296.492
627.9218, 1302.317
628.4039, 1309.548
628.8860, 1324.922
629.3682, 1342.329
629.8503, 1352.783
630.3324, 1357.013
630.8145, 1360.361
631.2966, 1363.691
631.7787, 1368.766
632.2609, 1376.891
632.7430, 1388.483
633.2251, 1402.191
633.7072, 1420.235
634.1893, 1438.638
634.6714, 1454.198
635.1536, 1465.932
635.6357, 1476.506
636.1178, 1484.253
636.5999, 1492.719
637.0820, 1509.986
637.5641, 1536.403
638.0463, 1560.993
638.5284, 1578.713
