##NAMES=Actinolite
##RRUFFID=R060041
##IDEAL CHEMISTRY=Ca_2_(Mg_4.5-2.5_Fe^2+^_0.5-2.5_)Si_8_O_22_(OH)_2_
##LOCALITY=Prince of Wales Island, Alaska, USA
##OWNER=RRUFF
##SOURCE=University of Arizona Mineral Museum
##DESCRIPTION=Green acicular crystals forming parallel groups in cylindrical or bladed forms
##STATUS=The identification of this mineral has been confirmed by X-ray diffraction and chemical analysis
##URL=rruff.info/R060041
##MEASURED CHEMISTRY=(Ca_0.97_Na_0.03_)_2_(Mg_0.65_Fe^2+^_0.29_Fe^3+^_0.04_Al_0.01_Mn_0.01_)_5_(Si_0.98_Al_0.02_)_8_O_22_(OH)_2_
126.2718, 88.71320
126.7540, 88.85696
127.2361, 89.68307
127.7182, 90.62275
128.2003, 91.33244
128.6824, 91.76156
129.1645, 92.16795
129.6467, 93.00957
130.1288, 94.64559
130.6109, 96.00290
131.0930, 96.85715
131.5751, 97.51094
132.0572, 98.25523
132.5394, 99.21174
133.0215, 100.2440
133.5036, 100.9224
133.9857, 100.7563
134.4678, 100.7640
134.9499, 101.2138
135.4321, 101.8784
135.9142, 102.3712
136.3963, 102.4418
136.8784, 102.1824
137.3605, 102.2143
137.8426, 102.8097
138.3248, 103.3693
138.8069, 103.5836
139.2890, 103.4993
139.7711, 103.3824
140.2532, 103.3327
140.7353, 103.4202
141.2175, 103.8096
141.6996, 104.6231
142.1817, 105.6830
142.6638, 106.8538
143.1459, 108.1483
143.6280, 109.4621
144.1102, 110.7281
144.5923, 111.9613
145.0744, 113.1860
145.5565, 114.3733
146.0386, 115.5555
146.5207, 116.8402
147.0029, 118.2484
147.4850, 119.7490
147.9671, 121.3952
148.4492, 123.1131
148.9313, 124.7495
149.4134, 126.2019
149.8955, 127.4686
150.3777, 128.5974
150.8598, 129.8204
151.3419, 130.6774
151.8240, 131.0822
152.3061, 130.9838
152.7882, 130.3235
153.2704, 129.0349
153.7525, 127.0835
154.2346, 124.5152
154.7167, 120.6477
155.1988, 116.7951
155.6809, 113.7423
156.1631, 111.5827
156.6452, 109.8880
157.1273, 108.0672
157.6094, 105.9311
158.0915, 104.0935
158.5736, 102.4667
159.0558, 101.1740
159.5379, 100.4249
160.0200, 100.2917
160.5021, 100.4817
160.9842, 100.4527
161.4663, 100.0329
161.9485, 99.96728
162.4306, 100.6419
162.9127, 101.7647
163.3948, 102.7639
163.8769, 103.4024
164.3590, 103.9314
164.8412, 104.7641
165.3233, 105.9454
165.8054, 107.1529
166.2875, 108.1672
166.7696, 109.0238
167.2517, 109.9655
167.7339, 111.1719
168.2160, 112.4153
168.6981, 113.4340
169.1802, 114.1799
169.6623, 114.8515
170.1444, 115.6225
170.6266, 116.4950
171.1087, 117.4440
171.5908, 118.7717
172.0729, 119.9965
172.5550, 120.7422
173.0371, 120.8883
173.5193, 120.6781
174.0014, 120.6556
174.4835, 121.4264
174.9656, 120.9609
175.4477, 118.6650
175.9298, 115.3832
176.4120, 111.6538
176.8941, 107.6980
177.3762, 103.6823
177.8583, 100.0938
178.3404, 97.00066
178.8225, 94.32268
179.3047, 92.07317
179.7868, 90.18347
180.2689, 88.57549
180.7510, 87.22314
181.2331, 86.09855
181.7152, 85.11667
182.1974, 84.33395
182.6795, 83.62196
183.1616, 82.89697
183.6437, 82.23210
184.1258, 81.76647
184.6079, 81.59496
185.0900, 81.67272
185.5722, 81.72085
186.0543, 81.62838
186.5364, 81.62414
187.0185, 81.83138
187.5006, 82.20422
187.9827, 82.61937
188.4649, 83.03855
188.9470, 83.42054
189.4291, 83.63290
189.9112, 83.44408
190.3933, 83.29677
190.8754, 83.48675
191.3576, 83.99937
191.8397, 84.62389
192.3218, 85.23272
192.8039, 85.88152
193.2860, 86.68617
193.7681, 87.72334
194.2503, 88.86743
194.7324, 90.00300
195.2145, 91.13532
195.6966, 92.25453
196.1787, 93.19799
196.6608, 94.17258
197.1430, 95.47861
197.6251, 97.32484
198.1072, 99.42670
198.5893, 101.3339
199.0714, 103.0462
199.5535, 104.5681
200.0357, 105.7355
200.5178, 106.7836
200.9999, 107.9913
201.4820, 109.4965
201.9641, 111.2291
202.4462, 113.0233
202.9284, 115.0481
203.4105, 116.8414
203.8926, 117.9352
204.3747, 118.8556
204.8568, 120.3214
205.3389, 122.7907
205.8211, 125.9962
206.3032, 128.6727
206.7853, 130.3957
207.2674, 132.0683
207.7495, 133.8030
208.2316, 135.6192
208.7138, 137.5491
209.1959, 139.6200
209.6780, 141.8082
210.1601, 143.8751
210.6422, 145.6602
211.1243, 147.4900
211.6065, 149.5695
212.0886, 151.7204
212.5707, 153.6014
213.0528, 154.9620
213.5349, 155.8803
214.0170, 157.0982
214.4992, 159.2602
214.9813, 160.9990
215.4634, 161.7991
215.9455, 161.8901
216.4276, 161.7967
216.9097, 161.8565
217.3919, 162.0190
217.8740, 161.7882
218.3561, 161.3194
218.8382, 160.4156
219.3203, 158.8299
219.8024, 156.7169
220.2845, 154.5279
220.7667, 152.5597
221.2488, 150.7076
221.7309, 148.4595
222.2130, 145.5109
222.6951, 142.5198
223.1772, 139.7692
223.6594, 137.2361
224.1415, 134.8186
224.6236, 132.4883
225.1057, 130.2109
225.5878, 127.8691
226.0699, 125.4138
226.5521, 122.9377
227.0342, 120.4632
227.5163, 117.9902
227.9984, 115.5613
228.4805, 113.1087
228.9626, 110.7656
229.4448, 108.7481
229.9269, 107.1705
230.4090, 105.7814
230.8911, 104.4385
231.3732, 103.1484
231.8553, 101.7257
232.3375, 99.96323
232.8196, 98.09132
233.3017, 96.37807
233.7838, 94.84518
234.2659, 93.51711
234.7480, 92.45102
235.2302, 91.65884
235.7123, 91.01676
236.1944, 90.59733
236.6765, 90.25576
237.1586, 89.88547
237.6407, 89.46763
238.1229, 89.00867
238.6050, 88.51433
239.0871, 87.98665
239.5692, 87.42536
240.0513, 86.75340
240.5334, 86.08961
241.0156, 85.55455
241.4977, 85.17809
241.9798, 84.78699
242.4619, 84.10005
242.9440, 82.98833
243.4261, 82.06931
243.9083, 81.54485
244.3904, 81.17686
244.8725, 80.91541
245.3546, 80.72268
245.8367, 80.43526
246.3188, 79.76047
246.8010, 78.49064
247.2831, 77.48487
247.7652, 76.98254
248.2473, 76.61321
248.7294, 76.18650
249.2115, 75.66322
249.6937, 75.10807
250.1758, 74.61755
250.6579, 74.24384
251.1400, 73.78246
251.6221, 73.11555
252.1042, 72.45894
252.5864, 71.93851
253.0685, 71.56261
253.5506, 71.27274
254.0327, 71.01827
254.5148, 70.86528
254.9969, 70.52525
255.4790, 69.80296
255.9612, 69.08562
256.4433, 68.57697
256.9254, 68.28971
257.4075, 68.12358
257.8896, 67.98746
258.3718, 67.90587
258.8539, 67.74088
259.3360, 67.50864
259.8181, 67.20113
260.3002, 66.73346
260.7823, 66.15874
261.2645, 65.65922
261.7466, 65.42046
262.2287, 65.48983
262.7108, 65.47332
263.1929, 65.32944
263.6750, 65.15961
264.1572, 64.96364
264.6393, 64.77188
265.1214, 64.67701
265.6035, 64.78379
266.0856, 65.10493
266.5677, 65.13386
267.0499, 64.58556
267.5320, 64.09298
268.0141, 63.98771
268.4962, 64.17714
268.9783, 64.35079
269.4604, 64.29676
269.9426, 64.03285
270.4247, 63.79604
270.9068, 63.48755
271.3889, 63.29741
271.8710, 63.38243
272.3531, 63.64761
272.8352, 63.86170
273.3174, 63.88982
273.7995, 63.76945
274.2816, 63.68111
274.7637, 63.55734
275.2458, 63.52984
275.7279, 63.74018
276.2101, 64.07440
276.6922, 64.27803
277.1743, 64.21696
277.6564, 63.99123
278.1385, 63.87854
278.6206, 63.86650
279.1028, 63.94833
279.5849, 64.17304
280.0670, 64.48321
280.5491, 64.80843
281.0312, 65.14628
281.5133, 65.41934
281.9955, 65.41658
282.4776, 65.04443
282.9597, 64.79185
283.4418, 64.81734
283.9239, 65.02304
284.4060, 65.29921
284.8882, 65.64125
285.3703, 65.93066
285.8524, 65.95625
286.3345, 65.70251
286.8166, 65.47015
287.2987, 65.31726
287.7809, 65.22112
288.2630, 65.16195
288.7451, 65.13911
289.2272, 65.12969
289.7093, 65.08950
290.1914, 65.02406
290.6736, 65.05189
291.1557, 65.35989
291.6378, 65.67987
292.1199, 65.67894
292.6020, 65.31709
293.0841, 64.88525
293.5663, 64.57283
294.0484, 64.38509
294.5305, 64.31849
295.0126, 64.49746
295.4947, 64.71333
295.9768, 64.76295
296.4590, 64.64842
296.9411, 64.53855
297.4232, 64.56226
297.9053, 64.66171
298.3874, 64.66014
298.8695, 64.50724
299.3517, 64.30124
299.8338, 64.09080
300.3159, 63.87935
300.7980, 63.70178
301.2801, 63.60446
301.7622, 63.52693
302.2444, 63.35213
302.7265, 63.05677
303.2086, 62.72448
303.6907, 62.31110
304.1728, 61.87717
304.6549, 61.68085
305.1371, 61.88883
305.6192, 62.25240
306.1013, 62.42375
306.5834, 62.40615
307.0655, 62.27182
307.5476, 61.91816
308.0298, 61.47644
308.5119, 61.29161
308.9940, 61.50878
309.4761, 61.80953
309.9582, 61.78072
310.4403, 61.47411
310.9225, 61.26070
311.4046, 61.36274
311.8867, 61.59414
312.3688, 61.64068
312.8509, 61.44193
313.3330, 61.21888
313.8152, 61.20793
314.2973, 61.33538
314.7794, 61.35723
315.2615, 61.10556
315.7436, 60.79632
316.2257, 60.65800
316.7079, 60.69755
317.1900, 60.82854
317.6721, 61.01817
318.1542, 61.26390
318.6363, 61.55985
319.1184, 61.98849
319.6006, 62.36402
320.0827, 62.54560
320.5648, 62.54458
321.0469, 62.41275
321.5290, 62.04232
322.0111, 61.66875
322.4933, 61.73274
322.9754, 62.37685
323.4575, 63.00941
323.9396, 63.29264
324.4217, 63.31188
324.9038, 63.30525
325.3860, 63.30444
325.8681, 63.36456
326.3502, 63.60347
326.8323, 64.02390
327.3144, 64.38010
327.7965, 64.47879
328.2787, 64.48627
328.7608, 64.72840
329.2429, 65.29674
329.7250, 65.88817
330.2071, 66.16106
330.6892, 66.17262
331.1714, 66.24328
331.6535, 66.39925
332.1356, 66.66047
332.6177, 67.13741
333.0998, 67.83295
333.5819, 68.40630
334.0641, 68.58683
334.5462, 68.44716
335.0283, 68.35750
335.5104, 68.26740
335.9925, 68.28828
336.4746, 68.55818
336.9568, 69.02775
337.4389, 69.47143
337.9210, 69.80368
338.4031, 70.03356
338.8852, 70.16866
339.3673, 70.12940
339.8495, 70.19205
340.3316, 70.59154
340.8137, 71.15471
341.2958, 71.50536
341.7779, 71.49830
342.2600, 71.37158
342.7421, 71.49736
343.2242, 71.90658
343.7064, 72.23402
344.1885, 72.34949
344.6706, 72.38115
345.1527, 72.46291
345.6348, 72.61509
346.1169, 72.80647
346.5991, 73.01620
347.0812, 73.24619
347.5633, 73.46802
348.0454, 73.69556
348.5275, 73.90578
349.0096, 74.07923
349.4918, 74.21982
349.9739, 74.34409
350.4560, 74.46162
350.9381, 74.57131
351.4202, 74.66956
351.9023, 74.65067
352.3845, 74.73955
352.8666, 75.13686
353.3487, 75.67095
353.8308, 75.99201
354.3129, 75.94444
354.7950, 75.73786
355.2772, 75.78678
355.7593, 76.19872
356.2414, 76.63122
356.7235, 77.08363
357.2056, 77.52879
357.6877, 77.95033
358.1699, 78.34258
358.6520, 78.67809
359.1341, 78.91753
359.6162, 79.03310
360.0983, 79.20226
360.5804, 79.46965
361.0626, 79.74483
361.5447, 79.99018
362.0268, 80.20304
362.5089, 80.39948
362.9910, 80.59818
363.4731, 80.78803
363.9553, 80.85355
364.4374, 80.61435
364.9195, 80.47078
365.4016, 80.66759
365.8837, 80.96172
366.3658, 80.97250
366.8480, 80.54341
367.3301, 79.89441
367.8122, 79.49866
368.2943, 79.48215
368.7764, 79.55364
369.2585, 79.81482
369.7407, 80.08741
370.2228, 80.20765
370.7049, 80.17088
371.1870, 80.12325
371.6691, 80.24864
372.1512, 80.60735
372.6334, 80.76690
373.1155, 80.53517
373.5976, 80.30630
374.0797, 80.14425
374.5618, 80.10040
375.0439, 80.25707
375.5261, 80.68824
376.0082, 81.33609
376.4903, 81.91395
376.9724, 82.43346
377.4545, 82.85570
377.9366, 83.05889
378.4188, 83.22675
378.9009, 83.57289
379.3830, 84.16407
379.8651, 84.85349
380.3472, 85.40215
380.8293, 85.78463
381.3115, 86.11980
381.7936, 86.39647
382.2757, 86.64548
382.7578, 86.93022
383.2399, 87.22124
383.7220, 87.39101
384.2042, 87.29543
384.6863, 86.95338
385.1684, 86.66377
385.6505, 86.51330
386.1326, 86.28349
386.6147, 85.90810
387.0969, 85.40209
387.5790, 84.78273
388.0611, 84.03365
388.5432, 83.20500
389.0253, 82.38369
389.5074, 81.57321
389.9896, 80.73750
390.4717, 79.81396
390.9538, 78.88896
391.4359, 78.04576
391.9180, 77.29749
392.4001, 76.58315
392.8823, 75.85027
393.3644, 75.10729
393.8465, 74.38136
394.3286, 73.63921
394.8107, 72.99332
395.2928, 72.60674
395.7750, 72.40632
396.2571, 72.12460
396.7392, 71.58128
397.2213, 70.93577
397.7034, 70.41024
398.1855, 70.01645
398.6677, 69.66738
399.1498, 69.31329
399.6319, 68.97453
400.1140, 68.68584
400.5961, 68.42720
401.0782, 68.25645
401.5604, 68.29577
402.0425, 68.45736
402.5246, 68.47047
403.0067, 68.22947
403.4888, 67.86640
403.9709, 67.55361
404.4531, 67.28144
404.9352, 67.08381
405.4173, 67.14146
405.8994, 67.17088
406.3815, 66.83831
406.8636, 66.14017
407.3458, 65.36506
407.8279, 64.73882
408.3100, 64.25317
408.7921, 63.74883
409.2742, 63.13997
409.7563, 62.61025
410.2385, 62.26738
410.7206, 62.04645
411.2027, 61.86363
411.6848, 61.68856
412.1669, 61.46328
412.6490, 61.05794
413.1311, 60.26673
413.6133, 59.65133
414.0954, 59.37318
414.5775, 59.14688
415.0596, 58.70832
415.5417, 58.07571
416.0238, 57.50594
416.5060, 57.25814
416.9881, 57.34433
417.4702, 57.31467
417.9523, 57.08475
418.4344, 56.82441
418.9165, 56.54870
419.3987, 56.27295
419.8808, 55.99097
420.3629, 55.69932
420.8450, 55.45050
421.3271, 55.38953
421.8092, 55.63683
422.2914, 55.76688
422.7735, 55.63044
423.2556, 55.44854
423.7377, 55.34313
424.2198, 55.32721
424.7019, 55.35439
425.1841, 55.39275
425.6662, 55.44175
426.1483, 55.48924
426.6304, 55.50346
427.1125, 55.57196
427.5946, 55.77137
428.0768, 56.03469
428.5589, 56.26535
429.0410, 56.43650
429.5231, 56.55164
430.0052, 56.61345
430.4873, 56.62208
430.9695, 56.58918
431.4516, 56.55686
431.9337, 56.43646
432.4158, 56.14753
432.8979, 55.68913
433.3800, 55.14758
433.8622, 54.48219
434.3443, 53.78410
434.8264, 53.22198
435.3085, 52.82330
435.7906, 52.47939
436.2727, 52.13444
436.7549, 51.77654
437.2370, 51.36963
437.7191, 50.89692
438.2012, 50.39106
438.6833, 49.76278
439.1654, 49.11173
439.6476, 48.74311
440.1297, 48.81350
440.6118, 49.01979
441.0939, 48.81923
441.5760, 47.99918
442.0581, 47.35321
442.5403, 46.97213
443.0224, 46.73743
443.5045, 46.59206
443.9866, 46.51398
444.4687, 46.47485
444.9508, 46.45696
445.4330, 46.45784
445.9151, 46.44782
446.3972, 46.43732
446.8793, 46.40323
447.3614, 46.35461
447.8435, 46.27490
448.3257, 46.11898
448.8078, 45.88199
449.2899, 45.64538
449.7720, 45.54454
450.2541, 45.63653
450.7362, 45.66707
451.2184, 45.54714
451.7005, 45.44810
452.1826, 45.48197
452.6647, 45.59350
453.1468, 45.63544
453.6289, 45.49215
454.1111, 45.25300
454.5932, 45.16461
455.0753, 45.25791
455.5574, 45.40677
456.0395, 45.73272
456.5216, 46.00044
457.0038, 45.94310
457.4859, 45.52124
457.9680, 45.11140
458.4501, 45.08229
458.9322, 45.31183
459.4143, 45.31042
459.8965, 44.94675
460.3786, 44.56769
460.8607, 44.45560
461.3428, 44.54106
461.8249, 44.66735
462.3070, 44.88424
462.7892, 45.05832
463.2713, 45.05434
463.7534, 44.91305
464.2355, 44.80035
464.7176, 44.79493
465.1997, 44.80278
465.6819, 44.61749
466.1640, 44.13445
466.6461, 43.87451
467.1282, 44.12341
467.6103, 44.45396
468.0924, 44.42371
468.5746, 44.08607
469.0567, 43.90416
469.5388, 44.25918
470.0209, 45.03319
470.5030, 45.41270
470.9851, 44.97542
471.4673, 44.64674
471.9494, 44.56514
472.4315, 44.62122
472.9136, 44.71184
473.3957, 44.80724
473.8778, 44.93114
474.3600, 45.14132
474.8421, 45.47170
475.3242, 45.63387
475.8063, 45.48027
476.2884, 45.30468
476.7705, 45.16484
477.2527, 45.07677
477.7348, 45.07790
478.2169, 45.20820
478.6990, 45.35595
479.1811, 45.25852
479.6632, 44.85655
480.1454, 44.73333
480.6275, 45.28666
481.1096, 45.91235
481.5917, 46.07035
482.0738, 45.79851
482.5559, 45.53110
483.0380, 45.51201
483.5201, 45.60897
484.0023, 45.58557
484.4844, 45.42826
484.9665, 45.32598
485.4486, 45.38621
485.9307, 45.57618
486.4128, 45.81280
486.8950, 46.17987
487.3771, 46.41590
487.8592, 46.31197
488.3413, 46.07326
488.8234, 45.99550
489.3055, 46.12940
489.7877, 46.29193
490.2698, 46.27958
490.7519, 46.07198
491.2340, 46.10181
491.7161, 46.63521
492.1982, 47.06067
492.6804, 47.07829
493.1625, 46.90624
493.6446, 46.89196
494.1267, 47.15965
494.6088, 47.52227
495.0909, 47.64760
495.5731, 47.41753
496.0552, 47.32646
496.5373, 47.39950
497.0194, 47.59471
497.5015, 48.04266
497.9836, 48.59618
498.4658, 48.92962
498.9479, 48.80911
499.4300, 48.48331
499.9121, 48.45155
500.3942, 48.75630
500.8763, 49.09924
501.3585, 49.43102
501.8406, 49.74027
502.3227, 49.99773
502.8048, 50.20741
503.2869, 50.46844
503.7690, 50.89849
504.2512, 51.37897
504.7333, 51.69554
505.2154, 51.83954
505.6975, 52.00305
506.1796, 52.29755
506.6617, 52.69395
507.1439, 53.10850
507.6260, 53.63027
508.1081, 54.01272
508.5902, 54.03110
509.0723, 53.95724
509.5544, 54.13757
510.0366, 54.61023
510.5187, 55.14678
511.0008, 55.54901
511.4829, 55.81716
511.9650, 55.95711
512.4471, 55.79483
512.9293, 55.71124
513.4114, 55.80412
513.8935, 56.00181
514.3756, 56.25386
514.8577, 56.53361
515.3398, 56.77201
515.8220, 56.82540
516.3041, 56.65788
516.7862, 56.71002
517.2683, 57.20248
517.7504, 57.63229
518.2325, 57.76549
518.7147, 57.69196
519.1968, 57.52660
519.6789, 57.24084
520.1610, 57.05004
520.6431, 57.32450
521.1252, 57.98713
521.6074, 58.39281
522.0895, 58.33588
522.5716, 58.08564
523.0537, 57.87294
523.5358, 57.69842
524.0179, 57.61357
524.5001, 57.84570
524.9822, 57.97753
525.4643, 57.59487
525.9464, 56.85200
526.4285, 56.24502
526.9106, 55.99878
527.3928, 55.89963
527.8749, 55.53176
528.3570, 54.65083
528.8391, 54.06918
529.3212, 54.10899
529.8033, 54.13070
530.2855, 53.69003
530.7676, 52.92936
531.2497, 52.27853
531.7318, 52.00275
532.2139, 51.94537
532.6960, 51.67787
533.1782, 51.09835
533.6603, 50.59904
534.1424, 50.33076
534.6245, 50.09262
535.1066, 49.74656
535.5887, 49.31583
536.0709, 48.93196
536.5530, 48.67120
537.0351, 48.50886
537.5172, 48.42460
537.9993, 48.42390
538.4814, 48.38977
538.9636, 48.25909
539.4457, 48.08244
539.9278, 47.94436
540.4099, 47.85170
540.8920, 47.75283
541.3741, 47.56532
541.8563, 47.40974
542.3384, 47.48184
542.8205, 47.73687
543.3026, 47.87277
543.7847, 47.67745
544.2668, 47.26310
544.7490, 47.04412
545.2311, 47.34185
545.7132, 47.38818
546.1953, 46.86368
546.6774, 46.31980
547.1595, 46.21640
547.6417, 46.51730
548.1238, 46.85753
548.6059, 46.96914
549.0880, 46.89575
549.5701, 46.79549
550.0522, 46.63243
550.5344, 46.53732
551.0165, 46.62633
551.4986, 46.75108
551.9807, 46.79203
552.4628, 46.74248
552.9449, 46.69177
553.4271, 46.68493
553.9092, 46.71354
554.3913, 46.79293
554.8734, 46.92412
555.3555, 46.98984
555.8376, 46.93580
556.3198, 46.76881
556.8019, 46.46334
557.2840, 45.88448
557.7661, 45.52471
558.2482, 45.67290
558.7303, 45.94384
559.2125, 45.98176
559.6946, 45.78844
560.1767, 45.58624
560.6588, 45.53719
561.1409, 45.58884
561.6230, 45.50428
562.1052, 45.13432
562.5873, 44.88326
563.0694, 44.86478
563.5515, 44.90360
564.0336, 44.89551
564.5157, 44.82717
564.9979, 44.71687
565.4800, 44.54493
565.9621, 44.35808
566.4442, 44.31984
566.9263, 44.46944
567.4084, 44.48751
567.8906, 44.13545
568.3727, 43.69765
568.8548, 43.59609
569.3369, 43.85772
569.8190, 43.99573
570.3011, 43.77441
570.7833, 43.40229
571.2654, 43.04226
571.7475, 42.71831
572.2296, 42.48276
572.7117, 42.37097
573.1938, 42.33165
573.6760, 42.23486
574.1581, 41.99585
574.6402, 41.85995
575.1223, 41.88034
575.6044, 41.94781
576.0865, 42.05790
576.5687, 42.15902
577.0508, 42.14171
577.5329, 41.93140
578.0150, 41.61622
578.4971, 41.39108
578.9792, 41.27505
579.4614, 41.14116
579.9435, 40.91127
580.4256, 40.72105
580.9077, 40.73832
581.3898, 40.89231
581.8719, 40.90526
582.3541, 40.56122
582.8362, 40.14251
583.3183, 39.94131
583.8004, 39.90371
584.2825, 39.82866
584.7646, 39.64735
585.2468, 39.42112
585.7289, 39.20536
586.2110, 38.97967
586.6931, 38.92561
587.1752, 39.16520
587.6573, 39.43217
588.1394, 39.65930
588.6215, 39.83076
589.1036, 39.93509
589.5858, 39.96872
590.0679, 39.94008
590.5500, 39.82917
591.0321, 39.61752
591.5142, 39.53297
591.9963, 39.70525
592.4785, 39.81084
592.9606, 39.63171
593.4427, 39.33578
593.9248, 39.16094
594.4069, 39.17229
594.8890, 39.24760
595.3712, 39.33471
595.8533, 39.41255
596.3354, 39.41510
596.8175, 39.33020
597.2996, 39.25509
597.7817, 39.26440
598.2639, 39.34153
598.7460, 39.39687
599.2281, 39.41792
599.7102, 39.43836
600.1923, 39.51606
600.6744, 39.55940
601.1566, 39.44152
601.6387, 39.18969
602.1208, 38.95298
602.6029, 38.82854
603.0850, 38.83034
603.5671, 39.05433
604.0493, 39.63094
604.5314, 40.08169
605.0135, 40.25209
605.4956, 40.29668
605.9777, 40.28373
606.4598, 40.22726
606.9420, 40.16606
607.4241, 40.15578
607.9062, 40.12487
608.3883, 39.89978
608.8704, 39.54109
609.3525, 39.42930
609.8347, 39.74322
610.3168, 40.18964
610.7989, 40.34341
611.2810, 40.10604
611.7631, 40.07603
612.2452, 40.51844
612.7274, 40.87260
613.2095, 40.82420
613.6916, 40.56036
614.1737, 40.36983
614.6558, 40.35174
615.1379, 40.40948
615.6201, 40.41315
616.1022, 40.35913
616.5843, 40.38779
617.0664, 40.56316
617.5485, 40.70583
618.0306, 40.66322
618.5128, 40.57135
