##NAMES=Actinolite
##RRUFFID=R060045
##IDEAL CHEMISTRY=Ca_2_(Mg_4.5-2.5_Fe^2+^_0.5-2.5_)Si_8_O_22_(OH)_2_
##LOCALITY=Colorado, USA
##OWNER=RRUFF
##SOURCE=University of Arizona Mineral Museum
##DESCRIPTION=Green prismatic crystals in a radial arrangement
##STATUS=The identification of this mineral has been confirmed by X-ray diffraction and chemical analysis
##URL=rruff.info/R060045
##MEASURED CHEMISTRY=(Ca_1.99_Na_0.01_)_Σ=2_(Mg_4.20_Fe^2+^_0.59_Al_0.09_Fe^3+^_0.08_Mn_0.02_Ti_0.01_)_Σ=5_(Si_7.82_Al_0.18_)_Σ=8_O_22_(OH)_2_
149.6404, 1230.789
150.1225, 1231.607
150.6046, 1232.263
151.0867, 1233.313
151.5688, 1234.262
152.0509, 1236.328
152.5331, 1239.988
153.0152, 1244.798
153.4973, 1249.404
153.9794, 1252.528
154.4615, 1256.207
154.9436, 1261.341
155.4258, 1270.102
155.9079, 1277.719
156.3900, 1284.090
156.8721, 1289.070
157.3542, 1292.173
157.8363, 1292.645
158.3185, 1291.615
158.8006, 1289.757
159.2827, 1286.628
159.7648, 1283.314
160.2469, 1279.803
160.7290, 1276.197
161.2112, 1273.265
161.6933, 1271.197
162.1754, 1269.948
162.6575, 1269.474
163.1396, 1270.614
163.6217, 1271.786
164.1039, 1271.976
164.5860, 1271.208
165.0681, 1271.239
165.5502, 1273.705
166.0323, 1277.125
166.5145, 1279.844
166.9966, 1280.388
167.4787, 1280.687
167.9608, 1281.664
168.4429, 1283.347
168.9250, 1285.994
169.4071, 1290.796
169.8893, 1296.535
170.3714, 1301.315
170.8535, 1303.402
171.3356, 1304.803
171.8177, 1307.015
172.2998, 1310.133
172.7820, 1314.146
173.2641, 1319.552
173.7462, 1325.864
174.2283, 1332.056
174.7104, 1336.857
175.1925, 1341.646
175.6747, 1348.768
176.1568, 1359.262
176.6389, 1368.676
177.1210, 1372.945
177.6031, 1372.609
178.0852, 1369.497
178.5674, 1363.645
179.0495, 1355.932
179.5316, 1347.246
180.0137, 1337.212
180.4958, 1327.585
180.9779, 1320.365
181.4601, 1315.305
181.9422, 1311.295
182.4243, 1308.032
182.9064, 1305.300
183.3885, 1302.408
183.8706, 1298.954
184.3528, 1295.884
184.8349, 1294.945
185.3170, 1295.948
185.7991, 1297.063
186.2812, 1296.833
186.7633, 1295.600
187.2455, 1294.580
187.7276, 1293.893
188.2097, 1293.559
188.6918, 1293.628
189.1739, 1294.096
189.6560, 1294.898
190.1382, 1296.239
190.6203, 1298.006
191.1024, 1299.552
191.5845, 1301.018
192.0666, 1302.017
192.5487, 1301.083
193.0309, 1298.070
193.5130, 1295.251
193.9951, 1294.752
194.4772, 1296.475
194.9593, 1298.058
195.4414, 1299.058
195.9236, 1299.614
196.4057, 1299.982
196.8878, 1300.071
197.3699, 1300.413
197.8520, 1301.497
198.3341, 1303.336
198.8163, 1305.405
199.2984, 1307.518
199.7805, 1309.762
200.2626, 1312.900
200.7447, 1317.216
201.2268, 1321.260
201.7090, 1323.366
202.1911, 1323.330
202.6732, 1323.318
203.1553, 1323.729
203.6374, 1324.565
204.1195, 1325.909
204.6017, 1327.885
205.0838, 1330.072
205.5659, 1331.830
206.0480, 1332.924
206.5301, 1335.086
207.0122, 1339.323
207.4944, 1345.285
207.9765, 1348.576
208.4586, 1348.322
208.9407, 1347.175
209.4228, 1348.016
209.9049, 1351.367
210.3871, 1354.570
210.8692, 1356.632
211.3513, 1357.654
211.8334, 1360.769
212.3155, 1367.052
212.7976, 1373.673
213.2798, 1377.161
213.7619, 1376.275
214.2440, 1376.085
214.7261, 1377.693
215.2082, 1381.091
215.6903, 1385.931
216.1725, 1392.609
216.6546, 1400.095
217.1367, 1407.552
217.6188, 1415.667
218.1009, 1421.894
218.5830, 1424.967
219.0651, 1424.624
219.5473, 1426.545
220.0294, 1431.894
220.5115, 1438.089
220.9936, 1442.036
221.4757, 1442.986
221.9578, 1443.495
222.4400, 1444.516
222.9221, 1446.266
223.4042, 1445.358
223.8863, 1440.618
224.3684, 1434.495
224.8505, 1429.779
225.3327, 1427.246
225.8148, 1424.553
226.2969, 1420.819
226.7790, 1415.751
227.2611, 1412.962
227.7432, 1413.521
228.2254, 1415.276
228.7075, 1415.559
229.1896, 1413.042
229.6717, 1411.823
230.1538, 1413.611
230.6359, 1418.959
231.1181, 1421.096
231.6002, 1418.760
232.0823, 1414.401
232.5644, 1410.695
233.0465, 1407.803
233.5286, 1405.119
234.0108, 1402.394
234.4929, 1399.520
234.9750, 1397.444
235.4571, 1396.493
235.9392, 1396.027
236.4213, 1395.362
236.9035, 1394.335
237.3856, 1393.425
237.8677, 1392.721
238.3498, 1392.227
238.8319, 1391.955
239.3140, 1391.798
239.7962, 1391.985
240.2783, 1392.930
240.7604, 1395.566
241.2425, 1397.144
241.7246, 1396.541
242.2067, 1393.526
242.6889, 1392.684
243.1710, 1395.309
243.6531, 1398.848
244.1352, 1400.729
244.6173, 1399.967
245.0994, 1399.356
245.5816, 1399.245
246.0637, 1399.619
246.5458, 1401.021
247.0279, 1403.943
247.5100, 1407.404
247.9921, 1410.625
248.4743, 1414.197
248.9564, 1416.362
249.4385, 1416.316
249.9206, 1414.135
250.4027, 1413.251
250.8848, 1414.297
251.3670, 1415.934
251.8491, 1417.054
252.3312, 1417.694
252.8133, 1417.740
253.2954, 1416.999
253.7775, 1415.525
254.2597, 1414.180
254.7418, 1412.617
255.2239, 1411.595
255.7060, 1411.849
256.1881, 1414.026
256.6702, 1415.937
257.1523, 1417.448
257.6345, 1418.498
258.1166, 1418.358
258.5987, 1416.095
259.0808, 1414.036
259.5629, 1414.118
260.0450, 1417.338
260.5272, 1419.996
261.0093, 1421.647
261.4914, 1422.389
261.9735, 1422.556
262.4556, 1421.841
262.9377, 1421.105
263.4199, 1420.972
263.9020, 1421.648
264.3841, 1422.293
264.8662, 1422.853
265.3483, 1423.339
265.8304, 1423.869
266.3126, 1424.627
266.7947, 1425.075
267.2768, 1424.576
267.7589, 1422.518
268.2410, 1422.072
268.7231, 1424.069
269.2053, 1427.513
269.6874, 1429.290
270.1695, 1428.766
270.6516, 1428.308
271.1337, 1429.355
271.6158, 1432.287
272.0980, 1434.712
272.5801, 1436.395
273.0622, 1437.590
273.5443, 1438.995
274.0264, 1440.774
274.5085, 1441.990
274.9907, 1441.614
275.4728, 1439.223
275.9549, 1438.972
276.4370, 1441.679
276.9191, 1445.534
277.4012, 1447.008
277.8834, 1445.699
278.3655, 1444.352
278.8476, 1443.967
279.3297, 1444.563
279.8118, 1446.741
280.2939, 1451.144
280.7761, 1455.880
281.2582, 1457.497
281.7403, 1455.671
282.2224, 1454.714
282.7045, 1456.944
283.1866, 1461.972
283.6688, 1465.054
284.1509, 1465.900
284.6330, 1465.645
285.1151, 1465.465
285.5972, 1465.340
286.0793, 1465.353
286.5615, 1465.318
287.0436, 1465.395
287.5257, 1466.571
288.0078, 1468.969
288.4899, 1471.768
288.9720, 1474.659
289.4542, 1477.521
289.9363, 1478.950
290.4184, 1477.956
290.9005, 1475.509
291.3826, 1474.177
291.8647, 1473.983
292.3469, 1474.623
292.8290, 1476.172
293.3111, 1478.428
293.7932, 1480.534
294.2753, 1482.292
294.7574, 1483.786
295.2396, 1485.378
295.7217, 1487.036
296.2038, 1488.012
296.6859, 1487.062
297.1680, 1484.942
297.6501, 1483.714
298.1323, 1483.863
298.6144, 1484.903
299.0965, 1486.492
299.5786, 1488.547
300.0607, 1490.358
300.5428, 1491.391
301.0250, 1491.915
301.5071, 1492.381
301.9892, 1492.778
302.4713, 1493.311
302.9534, 1494.250
303.4355, 1495.509
303.9177, 1496.890
304.3998, 1498.597
304.8819, 1500.191
305.3640, 1501.028
305.8461, 1501.012
306.3282, 1500.506
306.8104, 1499.350
307.2925, 1497.953
307.7746, 1497.183
308.2567, 1497.986
308.7388, 1499.319
309.2209, 1500.311
309.7031, 1500.928
310.1852, 1501.331
310.6673, 1501.236
311.1494, 1501.098
311.6315, 1501.551
312.1136, 1503.589
312.5958, 1505.715
313.0779, 1506.665
313.5600, 1506.518
314.0421, 1506.694
314.5242, 1508.499
315.0063, 1510.733
315.4885, 1512.188
315.9706, 1511.796
316.4527, 1511.239
316.9348, 1510.803
317.4169, 1510.674
317.8990, 1511.725
318.3812, 1515.878
318.8633, 1520.418
319.3454, 1523.422
319.8275, 1524.048
320.3096, 1523.878
320.7917, 1522.790
321.2739, 1521.277
321.7560, 1520.531
322.2381, 1521.636
322.7202, 1523.047
323.2023, 1523.992
323.6844, 1524.059
324.1666, 1524.481
324.6487, 1525.293
325.1308, 1526.604
325.6129, 1528.582
326.0950, 1532.980
326.5771, 1536.388
327.0593, 1537.097
327.5414, 1533.826
328.0235, 1532.852
328.5056, 1536.519
328.9877, 1541.771
329.4698, 1545.391
329.9520, 1546.395
330.4341, 1546.935
330.9162, 1547.198
331.3983, 1547.176
331.8804, 1547.365
332.3625, 1547.978
332.8447, 1548.658
333.3268, 1549.093
333.8089, 1548.843
334.2910, 1549.245
334.7731, 1550.719
335.2552, 1553.038
335.7374, 1554.969
336.2195, 1556.741
336.7016, 1557.782
337.1837, 1557.280
337.6658, 1554.024
338.1479, 1553.489
338.6301, 1556.933
339.1122, 1562.487
339.5943, 1565.807
340.0764, 1566.367
340.5585, 1566.270
341.0406, 1566.085
341.5227, 1565.713
342.0049, 1566.840
342.4870, 1569.966
342.9691, 1573.569
343.4512, 1575.275
343.9333, 1574.988
344.4154, 1574.604
344.8976, 1574.978
345.3797, 1575.832
345.8618, 1575.609
346.3439, 1574.201
346.8260, 1572.500
347.3081, 1571.114
347.7903, 1570.109
348.2724, 1569.889
348.7545, 1570.756
349.2366, 1572.285
349.7187, 1573.799
350.2008, 1575.302
350.6830, 1576.545
351.1651, 1577.193
351.6472, 1577.462
352.1293, 1577.780
352.6114, 1578.133
353.0935, 1578.761
353.5757, 1580.323
354.0578, 1582.505
354.5399, 1584.244
355.0220, 1584.350
355.5041, 1583.943
355.9862, 1584.271
356.4684, 1585.427
356.9505, 1587.402
357.4326, 1590.727
357.9147, 1594.774
358.3968, 1598.519
358.8789, 1602.336
359.3611, 1605.125
359.8432, 1605.144
360.3253, 1602.557
360.8074, 1601.305
361.2895, 1604.984
361.7716, 1610.182
362.2538, 1613.728
362.7359, 1612.453
363.2180, 1611.955
363.7001, 1615.266
364.1822, 1621.323
364.6643, 1626.072
365.1465, 1626.527
365.6286, 1626.764
366.1107, 1629.272
366.5928, 1636.600
367.0749, 1641.862
367.5570, 1642.661
368.0392, 1640.991
368.5213, 1640.281
369.0034, 1642.303
369.4855, 1643.891
369.9676, 1644.030
370.4497, 1642.384
370.9319, 1640.775
371.4140, 1638.889
371.8961, 1637.144
372.3782, 1635.989
372.8603, 1635.758
373.3424, 1635.498
373.8246, 1635.281
374.3067, 1635.003
374.7888, 1633.563
375.2709, 1630.114
375.7530, 1626.963
376.2351, 1625.891
376.7173, 1627.683
377.1994, 1628.425
377.6815, 1627.521
378.1636, 1625.843
378.6457, 1625.226
379.1278, 1625.725
379.6100, 1627.127
380.0921, 1630.296
380.5742, 1635.053
381.0563, 1636.070
381.5384, 1632.433
382.0205, 1628.436
382.5027, 1629.984
382.9848, 1636.536
383.4669, 1643.131
383.9490, 1648.409
384.4311, 1652.555
384.9132, 1655.900
385.3954, 1658.436
385.8775, 1660.638
386.3596, 1662.477
386.8417, 1664.254
387.3238, 1666.752
387.8059, 1670.371
388.2881, 1674.223
388.7702, 1677.281
389.2523, 1679.744
389.7344, 1682.219
390.2165, 1685.490
390.6986, 1688.707
391.1808, 1691.200
391.6629, 1692.980
392.1450, 1693.648
392.6271, 1692.195
393.1092, 1689.697
393.5913, 1687.583
394.0735, 1687.892
394.5556, 1687.330
395.0377, 1684.149
395.5198, 1678.511
396.0019, 1672.296
396.4840, 1663.883
396.9662, 1656.536
397.4483, 1652.538
397.9304, 1655.509
398.4125, 1657.370
398.8946, 1656.177
399.3767, 1653.012
399.8589, 1650.560
400.3410, 1648.778
400.8231, 1647.912
401.3052, 1648.328
401.7873, 1650.644
402.2694, 1651.732
402.7516, 1651.038
403.2337, 1649.505
403.7158, 1648.053
404.1979, 1646.301
404.6800, 1645.496
405.1621, 1646.077
405.6443, 1647.880
406.1264, 1649.592
406.6085, 1651.214
407.0906, 1652.842
407.5727, 1654.404
408.0548, 1655.848
408.5370, 1658.217
409.0191, 1661.999
409.5012, 1665.948
409.9833, 1667.434
410.4654, 1666.471
410.9475, 1665.415
411.4297, 1665.881
411.9118, 1667.163
412.3939, 1666.207
412.8760, 1662.828
413.3581, 1659.812
413.8402, 1661.189
414.3224, 1665.092
414.8045, 1666.672
415.2866, 1663.220
415.7687, 1658.450
416.2508, 1656.785
416.7329, 1657.675
417.2151, 1658.594
417.6972, 1658.265
418.1793, 1657.134
418.6614, 1655.494
419.1435, 1653.286
419.6256, 1651.100
420.1078, 1648.819
420.5899, 1646.887
421.0720, 1645.878
421.5541, 1647.568
422.0362, 1648.781
422.5183, 1647.263
423.0005, 1643.074
423.4826, 1641.208
423.9647, 1645.303
424.4468, 1650.573
424.9289, 1653.827
425.4110, 1653.567
425.8932, 1652.738
426.3753, 1650.732
426.8574, 1648.252
427.3395, 1647.002
427.8216, 1647.700
428.3037, 1648.600
428.7859, 1648.799
429.2680, 1647.877
429.7501, 1649.350
430.2322, 1654.447
430.7143, 1660.137
431.1964, 1663.047
431.6786, 1662.816
432.1607, 1661.598
432.6428, 1659.457
433.1249, 1656.840
433.6070, 1655.079
434.0891, 1654.202
434.5713, 1654.141
435.0534, 1655.544
435.5355, 1657.951
436.0176, 1658.910
436.4997, 1658.043
436.9818, 1656.648
437.4640, 1656.143
437.9461, 1656.395
438.4282, 1656.989
438.9103, 1658.536
439.3924, 1659.832
439.8745, 1658.637
440.3566, 1655.304
440.8387, 1652.719
441.3209, 1653.018
441.8030, 1654.901
442.2851, 1657.305
442.7672, 1660.695
443.2493, 1662.938
443.7314, 1661.126
444.2136, 1657.537
444.6957, 1656.351
445.1778, 1663.032
445.6599, 1668.604
446.1420, 1668.201
446.6241, 1660.851
447.1063, 1656.474
447.5884, 1659.047
448.0705, 1663.566
448.5526, 1666.285
449.0347, 1665.650
449.5168, 1665.380
449.9990, 1666.019
450.4811, 1667.103
450.9632, 1667.213
451.4453, 1665.849
451.9274, 1664.463
452.4095, 1663.396
452.8917, 1662.591
453.3738, 1663.402
453.8559, 1666.361
454.3380, 1669.685
454.8201, 1671.332
455.3022, 1671.281
455.7844, 1671.186
456.2665, 1671.583
456.7486, 1671.978
457.2307, 1670.556
457.7128, 1667.542
458.1949, 1665.728
458.6771, 1668.252
459.1592, 1672.960
459.6413, 1675.315
460.1234, 1674.797
460.6055, 1673.497
461.0876, 1672.949
461.5698, 1672.935
462.0519, 1673.087
462.5340, 1673.309
463.0161, 1673.625
463.4982, 1674.354
463.9803, 1675.309
464.4625, 1675.633
464.9446, 1673.661
465.4267, 1671.913
465.9088, 1672.046
466.3909, 1674.910
466.8730, 1677.875
467.3552, 1681.281
467.8373, 1684.216
468.3194, 1685.489
468.8015, 1683.035
469.2836, 1681.280
469.7657, 1680.906
470.2479, 1681.805
470.7300, 1683.141
471.2121, 1685.167
471.6942, 1687.183
472.1763, 1688.891
472.6584, 1690.341
473.1406, 1691.071
473.6227, 1690.948
474.1048, 1690.321
474.5869, 1689.445
475.0690, 1688.320
475.5511, 1687.942
476.0333, 1688.869
476.5154, 1690.670
476.9975, 1692.664
477.4796, 1694.813
477.9617, 1696.000
478.4438, 1694.313
478.9260, 1691.333
479.4081, 1689.977
479.8902, 1690.777
480.3723, 1692.667
480.8544, 1695.953
481.3365, 1699.509
481.8187, 1701.404
482.3008, 1698.936
482.7829, 1696.225
483.2650, 1695.621
483.7471, 1696.944
484.2292, 1698.514
484.7114, 1699.579
485.1935, 1700.877
485.6756, 1703.082
486.1577, 1707.776
486.6398, 1710.358
487.1219, 1708.565
487.6041, 1705.143
488.0862, 1703.741
488.5683, 1705.988
489.0504, 1707.477
489.5325, 1706.983
490.0146, 1704.838
490.4968, 1703.797
490.9789, 1704.138
491.4610, 1704.823
491.9431, 1705.113
492.4252, 1704.981
492.9073, 1705.623
493.3895, 1707.374
493.8716, 1709.111
494.3537, 1708.796
494.8358, 1706.881
495.3179, 1705.998
495.8000, 1707.783
496.2822, 1710.518
496.7643, 1711.168
497.2464, 1710.127
497.7285, 1709.587
498.2106, 1711.743
498.6927, 1714.693
499.1749, 1716.251
499.6570, 1715.779
500.1391, 1715.586
500.6212, 1716.848
501.1033, 1719.069
501.5854, 1721.698
502.0676, 1725.141
502.5497, 1728.289
503.0318, 1731.211
503.5139, 1733.731
503.9960, 1734.952
504.4781, 1733.857
504.9603, 1732.465
505.4424, 1731.287
505.9245, 1729.995
506.4066, 1730.611
506.8887, 1734.323
507.3708, 1738.485
507.8530, 1740.072
508.3351, 1738.573
508.8172, 1737.292
509.2993, 1736.692
509.7814, 1736.768
510.2635, 1737.760
510.7457, 1739.650
511.2278, 1741.439
511.7099, 1742.409
512.1920, 1742.863
512.6741, 1743.668
513.1563, 1744.845
513.6384, 1745.840
514.1205, 1745.850
514.6026, 1745.478
515.0847, 1745.630
515.5668, 1746.750
516.0490, 1748.080
516.5311, 1749.298
517.0132, 1750.400
517.4953, 1751.368
517.9774, 1752.929
518.4595, 1753.702
518.9417, 1752.400
519.4238, 1748.820
519.9059, 1747.104
520.3880, 1749.895
520.8701, 1752.957
521.3522, 1753.864
521.8344, 1750.753
522.3165, 1749.439
522.7986, 1751.025
523.2807, 1753.504
523.7628, 1752.914
524.2449, 1748.321
524.7271, 1745.807
525.2092, 1747.983
525.6913, 1753.273
526.1734, 1755.810
526.6555, 1755.552
527.1376, 1754.967
527.6198, 1755.942
528.1019, 1757.876
528.5840, 1759.351
529.0661, 1760.175
529.5482, 1760.942
530.0303, 1762.849
530.5125, 1764.885
530.9946, 1765.434
531.4767, 1762.326
531.9588, 1759.426
532.4409, 1759.497
532.9230, 1761.487
533.4052, 1762.364
533.8873, 1759.345
534.3694, 1756.601
534.8515, 1756.270
535.3336, 1759.108
535.8157, 1760.737
536.2979, 1760.454
536.7800, 1759.506
537.2621, 1758.688
537.7442, 1757.772
538.2263, 1757.763
538.7084, 1759.198
539.1906, 1761.147
539.6727, 1761.676
540.1548, 1760.715
540.6369, 1759.524
541.1190, 1758.327
541.6011, 1757.321
542.0833, 1757.398
542.5654, 1758.502
543.0475, 1759.462
543.5296, 1758.561
544.0117, 1757.213
544.4938, 1757.921
544.9760, 1761.240
545.4581, 1764.812
545.9402, 1767.130
546.4223, 1768.544
546.9044, 1769.510
547.3865, 1770.042
547.8687, 1770.241
548.3508, 1769.892
548.8329, 1769.186
549.3150, 1768.751
549.7971, 1767.857
550.2792, 1768.159
550.7614, 1771.150
551.2435, 1777.394
551.7256, 1779.392
552.2077, 1774.909
552.6898, 1769.652
553.1719, 1768.506
553.6541, 1772.200
554.1362, 1774.203
554.6183, 1773.543
555.1004, 1771.958
555.5825, 1772.469
556.0646, 1774.731
556.5468, 1776.509
557.0289, 1776.485
557.5110, 1775.908
557.9931, 1777.058
558.4752, 1779.550
558.9573, 1781.419
559.4395, 1780.950
559.9216, 1779.665
560.4037, 1778.745
560.8858, 1778.314
561.3679, 1778.306
561.8500, 1779.146
562.3322, 1780.177
562.8143, 1780.843
563.2964, 1781.383
563.7785, 1781.129
564.2606, 1779.317
564.7427, 1776.928
565.2249, 1775.914
565.7070, 1776.701
566.1891, 1778.011
566.6712, 1779.824
567.1533, 1781.901
567.6354, 1782.681
568.1176, 1781.968
568.5997, 1781.149
569.0818, 1781.257
569.5639, 1782.071
570.0460, 1782.699
570.5281, 1783.059
571.0103, 1783.365
571.4924, 1784.130
571.9745, 1784.931
572.4566, 1784.873
572.9387, 1782.719
573.4208, 1781.222
573.9030, 1782.918
574.3851, 1786.561
574.8672, 1789.416
575.3493, 1790.038
575.8314, 1790.221
576.3135, 1790.436
576.7957, 1790.696
577.2778, 1791.231
577.7599, 1792.495
578.2420, 1793.507
578.7241, 1793.507
579.2062, 1791.883
579.6884, 1792.053
580.1705, 1794.784
580.6526, 1797.821
581.1347, 1798.109
581.6168, 1795.772
582.0989, 1794.000
582.5811, 1793.557
583.0632, 1793.865
583.5453, 1794.108
584.0274, 1794.328
584.5095, 1794.653
584.9916, 1794.727
585.4738, 1795.221
585.9559, 1797.615
586.4380, 1801.501
586.9201, 1803.708
587.4022, 1800.856
587.8843, 1797.210
588.3664, 1795.499
588.8485, 1796.454
589.3306, 1798.047
589.8127, 1801.507
590.2949, 1804.605
590.7770, 1805.158
591.2591, 1801.666
591.7412, 1799.134
592.2233, 1798.211
592.7054, 1798.389
593.1876, 1798.674
593.6697, 1799.091
594.1518, 1799.576
594.6339, 1800.509
595.1160, 1801.302
595.5981, 1799.767
596.0803, 1796.194
596.5624, 1793.352
597.0445, 1793.379
597.5266, 1795.071
598.0087, 1797.276
598.4908, 1799.953
598.9730, 1802.066
599.4551, 1802.594
599.9372, 1802.496
600.4193, 1802.584
600.9014, 1802.134
601.3835, 1803.146
601.8657, 1808.030
602.3478, 1813.848
602.8299, 1816.060
603.3120, 1812.594
603.7941, 1809.525
604.2762, 1807.978
604.7584, 1807.796
605.2405, 1808.686
605.7226, 1810.903
606.2047, 1812.478
606.6868, 1812.108
607.1689, 1810.300
607.6511, 1808.641
608.1332, 1807.143
608.6153, 1805.750
609.0974, 1803.687
609.5795, 1801.971
610.0616, 1802.194
610.5438, 1805.074
611.0259, 1808.219
611.5080, 1810.623
611.9901, 1812.416
612.4722, 1813.779
612.9543, 1814.773
613.4365, 1815.278
613.9186, 1814.864
614.4007, 1813.984
614.8828, 1813.624
615.3649, 1813.696
615.8470, 1814.490
616.3292, 1816.397
616.8113, 1819.147
617.2934, 1820.947
617.7755, 1821.757
618.2576, 1821.986
618.7397, 1821.689
619.2219, 1821.042
619.7040, 1820.392
620.1861, 1819.733
620.6682, 1819.548
621.1503, 1820.508
621.6324, 1822.083
622.1146, 1823.765
622.5967, 1825.788
623.0788, 1827.134
623.5609, 1826.621
624.0430, 1825.423
624.5251, 1825.209
625.0073, 1828.034
625.4894, 1829.743
625.9715, 1829.237
626.4536, 1827.266
626.9357, 1826.234
627.4178, 1826.280
627.9000, 1826.886
628.3821, 1827.926
628.8642, 1829.346
629.3463, 1830.812
629.8284, 1832.285
630.3105, 1833.928
630.7927, 1835.932
631.2748, 1838.132
631.7569, 1840.568
632.2390, 1843.336
632.7211, 1845.046
633.2032, 1843.577
633.6854, 1841.016
634.1675, 1839.642
634.6496, 1840.471
635.1317, 1841.718
635.6138, 1843.277
636.0959, 1844.934
636.5781, 1846.293
637.0602, 1846.913
637.5423, 1848.095
638.0244, 1850.456
638.5065, 1853.384
638.9886, 1854.665
639.4708, 1853.934
639.9529, 1853.845
640.4350, 1856.040
640.9171, 1859.611
641.3992, 1861.399
641.8813, 1861.503
642.3635, 1861.641
642.8456, 1862.795
