##NAMES=Actinolite
##RRUFFID=R050025
##IDEAL CHEMISTRY=Ca_2_(Mg_4.5-2.5_Fe^2+^_0.5-2.5_)Si_8_O_22_(OH)_2_
##LOCALITY=Tyrol, Austria
##OWNER=RRUFF
##SOURCE=Eugene Schlepp
##DESCRIPTION=Green colored bladed single crystals
##STATUS=The identification of this mineral has been confirmed by X-ray diffraction and chemical analysis
##URL=rruff.info/R050025
##MEASURED CHEMISTRY=(Ca_.930_Na_.056_Mn_.010_K_.004_)_2_(Mg_.883_Fe_.117_)_5_(Si_.978_Al_.022_)_8_O_22_(OH)_2_
171.6417, 17737.23
172.1238, 17883.15
172.6059, 18011.39
173.0880, 18111.50
173.5701, 18215.09
174.0522, 18340.30
174.5344, 18477.62
175.0165, 18611.42
175.4986, 18732.58
175.9807, 18847.05
176.4628, 18976.96
176.9449, 19141.02
177.4271, 19284.70
177.9092, 19400.62
178.3913, 19484.16
178.8734, 19527.18
179.3555, 19524.15
179.8376, 19479.96
180.3197, 19403.81
180.8019, 19270.79
181.2840, 19149.73
181.7661, 19064.33
182.2482, 19000.39
182.7303, 18939.21
183.2124, 18868.77
183.6946, 18799.91
184.1767, 18767.04
184.6588, 18793.59
185.1409, 18816.96
185.6230, 18822.60
186.1051, 18815.68
186.5873, 18795.84
187.0694, 18758.13
187.5515, 18720.95
188.0336, 18739.13
188.5157, 18857.93
188.9978, 18954.66
189.4800, 18988.11
189.9621, 18995.33
190.4442, 19015.96
190.9263, 19067.96
191.4084, 19137.44
191.8905, 19191.03
192.3727, 19223.63
192.8548, 19247.96
193.3369, 19264.20
193.8190, 19275.94
194.3011, 19283.11
194.7832, 19285.44
195.2654, 19291.12
195.7475, 19320.29
196.2296, 19392.00
196.7117, 19452.19
197.1938, 19485.00
197.6759, 19510.16
198.1581, 19546.08
198.6402, 19598.85
199.1223, 19658.03
199.6044, 19703.00
200.0865, 19722.95
200.5686, 19750.34
201.0508, 19791.92
201.5329, 19838.26
202.0150, 19884.00
202.4971, 19927.21
202.9792, 19965.42
203.4613, 19993.19
203.9435, 20002.79
204.4256, 20019.29
204.9077, 20040.57
205.3898, 20070.03
205.8719, 20113.40
206.3540, 20170.35
206.8362, 20231.83
207.3183, 20287.98
207.8004, 20342.38
208.2825, 20379.68
208.7646, 20371.88
209.2467, 20370.42
209.7289, 20410.90
210.2110, 20493.78
210.6931, 20590.53
211.1752, 20667.85
211.6573, 20718.82
212.1395, 20773.93
212.6216, 20828.97
213.1037, 20890.92
213.5858, 20964.78
214.0679, 21049.35
214.5500, 21138.97
215.0322, 21226.46
215.5143, 21308.80
215.9964, 21408.54
216.4785, 21546.23
216.9606, 21682.50
217.4427, 21798.58
217.9249, 21899.65
218.4070, 22005.08
218.8891, 22133.23
219.3712, 22285.13
219.8533, 22422.67
220.3354, 22541.82
220.8176, 22649.45
221.2997, 22758.17
221.7818, 22856.35
222.2639, 22921.59
222.7460, 22936.63
223.2281, 22904.41
223.7103, 22855.76
224.1924, 22781.60
224.6745, 22698.62
225.1566, 22598.77
225.6387, 22494.36
226.1208, 22402.71
226.6030, 22334.56
227.0851, 22285.71
227.5672, 22236.92
228.0493, 22163.21
228.5314, 22126.65
229.0135, 22166.67
229.4957, 22236.16
229.9778, 22284.11
230.4599, 22287.68
230.9420, 22256.32
231.4241, 22210.92
231.9062, 22142.32
232.3884, 22074.94
232.8705, 22019.65
233.3526, 21962.98
233.8347, 21888.09
234.3168, 21790.52
234.7989, 21686.30
235.2811, 21604.25
235.7632, 21552.45
236.2453, 21504.11
236.7274, 21458.44
237.2095, 21413.51
237.6916, 21363.75
238.1738, 21309.93
238.6559, 21262.71
239.1380, 21234.55
239.6201, 21226.67
240.1022, 21234.20
240.5843, 21276.13
241.0665, 21317.78
241.5486, 21344.74
242.0307, 21355.48
242.5128, 21354.15
242.9949, 21336.53
243.4770, 21298.69
243.9592, 21292.31
244.4413, 21340.16
244.9234, 21400.82
245.4055, 21476.42
245.8876, 21554.23
246.3697, 21605.54
246.8519, 21599.73
247.3340, 21545.71
247.8161, 21525.63
248.2982, 21563.81
248.7803, 21605.47
249.2624, 21640.17
249.7446, 21664.02
250.2267, 21669.45
250.7088, 21647.75
251.1909, 21610.18
251.6730, 21594.09
252.1551, 21622.29
252.6373, 21624.14
253.1194, 21546.28
253.6015, 21445.99
254.0836, 21390.65
254.5657, 21410.83
255.0478, 21460.21
255.5300, 21456.73
256.0121, 21379.41
256.4942, 21329.28
256.9763, 21362.07
257.4584, 21418.13
257.9406, 21456.35
258.4227, 21467.92
258.9048, 21469.79
259.3869, 21477.69
259.8690, 21491.74
260.3511, 21510.10
260.8333, 21541.86
261.3154, 21569.21
261.7975, 21577.55
262.2796, 21567.29
262.7617, 21553.67
263.2438, 21547.60
263.7260, 21547.61
264.2081, 21545.46
264.6902, 21540.89
265.1723, 21532.85
265.6544, 21520.13
266.1365, 21503.58
266.6187, 21486.00
267.1008, 21461.28
267.5829, 21437.75
268.0650, 21436.97
268.5471, 21465.87
269.0292, 21496.41
269.5114, 21504.22
269.9935, 21500.74
270.4756, 21506.45
270.9577, 21540.42
271.4398, 21574.38
271.9219, 21571.27
272.4041, 21530.00
272.8862, 21486.70
273.3683, 21447.04
273.8504, 21424.03
274.3325, 21443.21
274.8146, 21535.13
275.2968, 21615.99
275.7789, 21612.20
276.2610, 21544.74
276.7431, 21500.97
277.2252, 21515.50
277.7073, 21562.82
278.1895, 21603.32
278.6716, 21638.42
279.1537, 21663.74
279.6358, 21667.35
280.1179, 21662.35
280.6000, 21671.68
281.0822, 21701.08
281.5643, 21741.05
282.0464, 21784.43
282.5285, 21832.07
283.0106, 21869.43
283.4927, 21893.59
283.9749, 21907.50
284.4570, 21905.05
284.9391, 21888.69
285.4212, 21884.97
285.9033, 21919.27
286.3854, 21991.04
286.8676, 22046.37
287.3497, 22078.52
287.8318, 22102.56
288.3139, 22126.28
288.7960, 22147.97
289.2781, 22160.64
289.7603, 22159.24
290.2424, 22147.86
290.7245, 22143.80
291.2066, 22148.29
291.6887, 22157.93
292.1708, 22180.89
292.6530, 22205.73
293.1351, 22215.25
293.6172, 22203.74
294.0993, 22184.27
294.5814, 22180.66
295.0635, 22207.97
295.5457, 22222.74
296.0278, 22214.67
296.5099, 22202.40
296.9920, 22195.50
297.4741, 22196.97
297.9562, 22209.60
298.4384, 22239.60
298.9205, 22292.58
299.4026, 22323.46
299.8847, 22304.90
300.3668, 22292.23
300.8489, 22304.26
301.3311, 22337.27
301.8131, 22382.48
302.2953, 22437.40
302.7774, 22496.35
303.2595, 22529.35
303.7416, 22523.09
304.2237, 22508.25
304.7058, 22483.64
305.1880, 22458.04
305.6701, 22440.66
306.1522, 22434.92
306.6343, 22437.27
307.1164, 22442.81
307.5985, 22452.30
308.0807, 22462.04
308.5628, 22466.92
309.0449, 22475.11
309.5270, 22495.80
310.0091, 22528.26
310.4912, 22557.22
310.9734, 22568.71
311.4555, 22563.98
311.9376, 22554.66
312.4197, 22532.64
312.9018, 22519.65
313.3839, 22540.06
313.8661, 22580.06
314.3482, 22602.94
314.8303, 22585.32
315.3124, 22543.51
315.7945, 22501.46
316.2766, 22457.29
316.7588, 22424.39
317.2409, 22414.54
317.7230, 22420.07
318.2051, 22427.55
318.6872, 22432.01
319.1693, 22444.25
319.6515, 22482.98
320.1336, 22539.86
320.6157, 22576.93
321.0978, 22577.95
321.5799, 22558.57
322.0620, 22537.40
322.5442, 22509.93
323.0263, 22503.04
323.5084, 22531.65
323.9905, 22581.96
324.4726, 22643.28
324.9547, 22713.82
325.4369, 22775.77
325.9190, 22811.69
326.4011, 22818.54
326.8832, 22818.48
327.3653, 22793.29
327.8474, 22777.98
328.3296, 22802.33
328.8117, 22854.71
329.2938, 22897.13
329.7759, 22905.55
330.2580, 22890.33
330.7401, 22898.12
331.2223, 22957.33
331.7044, 23004.52
332.1865, 23031.11
332.6686, 23043.54
333.1507, 23049.42
333.6328, 23050.86
334.1150, 23043.69
334.5971, 23016.33
335.0792, 22945.46
335.5613, 22919.98
336.0434, 22980.14
336.5255, 23044.48
337.0077, 23066.36
337.4898, 23053.02
337.9719, 23042.33
338.4540, 23067.33
338.9361, 23122.23
339.4182, 23154.50
339.9004, 23153.49
340.3825, 23143.63
340.8646, 23121.31
341.3467, 23099.29
341.8288, 23092.88
342.3109, 23107.81
342.7931, 23140.08
343.2752, 23191.44
343.7573, 23267.13
344.2394, 23323.99
344.7215, 23331.87
345.2036, 23333.05
345.6858, 23365.38
346.1679, 23429.89
346.6500, 23492.09
347.1321, 23532.62
347.6142, 23554.24
348.0963, 23559.54
348.5785, 23541.59
349.0606, 23529.61
349.5427, 23553.93
350.0248, 23603.71
350.5069, 23647.69
350.9890, 23677.81
351.4712, 23702.44
351.9533, 23733.94
352.4354, 23768.54
352.9175, 23784.16
353.3996, 23765.62
353.8817, 23727.19
354.3639, 23704.41
354.8460, 23690.30
355.3281, 23700.56
355.8102, 23765.17
356.2923, 23844.18
356.7744, 23888.59
357.2566, 23888.66
357.7387, 23866.57
358.2208, 23845.72
358.7029, 23826.18
359.1850, 23807.45
359.6671, 23763.02
360.1493, 23744.97
360.6314, 23790.15
361.1135, 23879.57
361.5956, 23972.34
362.0777, 24045.36
362.5598, 24102.16
363.0420, 24155.09
363.5241, 24195.43
364.0062, 24246.51
364.4883, 24312.88
364.9704, 24388.48
365.4525, 24470.74
365.9347, 24557.85
366.4168, 24645.72
366.8989, 24731.56
367.3810, 24816.63
367.8631, 24888.40
368.3452, 24936.81
368.8274, 24983.18
369.3095, 25058.93
369.7916, 25142.06
370.2737, 25177.91
370.7558, 25122.36
371.2379, 25020.33
371.7201, 24948.60
372.2022, 24910.79
372.6843, 24868.35
373.1664, 24796.51
373.6485, 24716.75
374.1306, 24665.28
374.6128, 24653.34
375.0949, 24633.05
375.5770, 24562.82
376.0591, 24469.77
376.5412, 24412.04
377.0233, 24403.92
377.5055, 24412.15
377.9876, 24404.29
378.4697, 24378.27
378.9518, 24354.67
379.4339, 24336.78
379.9160, 24318.68
380.3982, 24292.07
380.8803, 24261.98
381.3624, 24242.43
381.8445, 24241.16
382.3266, 24254.87
382.8087, 24274.06
383.2909, 24312.71
383.7730, 24337.74
384.2551, 24326.15
384.7372, 24315.27
385.2193, 24341.35
385.7014, 24406.41
386.1836, 24480.23
386.6657, 24528.83
387.1478, 24549.76
387.6299, 24588.39
388.1120, 24641.05
388.5941, 24718.98
389.0763, 24837.84
389.5584, 24980.26
390.0405, 25123.88
390.5226, 25266.53
391.0047, 25388.61
391.4868, 25446.85
391.9690, 25432.12
392.4511, 25441.81
392.9332, 25536.79
393.4153, 25632.60
393.8974, 25647.01
394.3795, 25579.67
394.8617, 25493.88
395.3438, 25423.15
395.8259, 25352.99
396.3080, 25253.82
396.7901, 25121.90
397.2722, 24985.87
397.7544, 24862.93
398.2365, 24753.22
398.7186, 24650.09
399.2007, 24537.25
399.6828, 24449.72
400.1649, 24417.65
400.6471, 24416.19
401.1292, 24405.21
401.6113, 24371.40
402.0934, 24322.56
402.5755, 24264.53
403.0576, 24175.67
403.5398, 24149.82
404.0219, 24254.12
404.5040, 24349.92
404.9861, 24353.58
405.4682, 24288.19
405.9503, 24221.84
406.4325, 24196.09
406.9146, 24204.66
407.3967, 24228.64
407.8788, 24278.63
408.3609, 24322.17
408.8430, 24344.46
409.3252, 24364.19
409.8073, 24397.43
410.2894, 24446.14
410.7715, 24498.09
411.2536, 24541.20
411.7357, 24578.03
412.2179, 24620.99
412.7000, 24672.28
413.1821, 24726.04
413.6642, 24789.34
414.1463, 24851.48
414.6284, 24886.17
415.1106, 24877.97
415.5927, 24854.30
416.0748, 24830.95
416.5569, 24808.02
417.0390, 24788.13
417.5211, 24774.11
418.0033, 24756.38
418.4854, 24719.74
418.9675, 24658.69
419.4496, 24595.81
419.9317, 24519.12
420.4138, 24451.70
420.8960, 24414.24
421.3781, 24400.70
421.8602, 24388.32
422.3423, 24361.56
422.8244, 24326.05
423.3065, 24307.81
423.7887, 24333.07
424.2708, 24333.79
424.7529, 24286.99
425.2350, 24226.01
425.7171, 24177.25
426.1992, 24144.54
426.6814, 24116.03
427.1635, 24076.46
427.6456, 24027.78
428.1277, 23996.28
428.6098, 23980.73
429.0919, 23985.40
429.5741, 24034.39
430.0562, 24098.68
430.5383, 24131.14
431.0204, 24108.36
431.5025, 24078.44
431.9846, 24082.20
432.4668, 24112.08
432.9489, 24142.75
433.4310, 24169.26
433.9131, 24190.03
434.3952, 24204.87
434.8773, 24214.21
435.3595, 24206.51
435.8416, 24162.28
436.3237, 24117.75
436.8058, 24096.46
437.2879, 24093.21
437.7701, 24092.35
438.2522, 24086.10
438.7343, 24075.63
439.2164, 24063.15
439.6985, 24041.34
440.1806, 24031.21
440.6628, 24046.65
441.1449, 24061.23
441.6270, 24058.07
442.1091, 24037.68
442.5912, 24008.33
443.0733, 23969.09
443.5555, 23928.66
444.0376, 23926.52
444.5197, 23978.78
445.0018, 24024.28
445.4839, 24035.42
445.9660, 24030.43
446.4482, 24025.08
446.9303, 24021.24
447.4124, 24017.23
447.8945, 24007.63
448.3766, 23997.95
448.8587, 24009.51
449.3409, 24048.09
449.8230, 24064.31
450.3051, 24005.94
450.7872, 23884.66
451.2693, 23820.50
451.7514, 23842.79
452.2336, 23883.05
452.7157, 23932.88
453.1978, 23982.30
453.6799, 24022.70
454.1620, 24050.25
454.6441, 24055.26
455.1263, 24019.07
455.6084, 23929.13
456.0905, 23869.37
456.5726, 23849.36
457.0547, 23852.44
457.5368, 23889.23
458.0190, 23942.63
458.5011, 23987.32
458.9832, 24012.52
459.4653, 24026.22
459.9474, 24041.55
460.4295, 24058.65
460.9117, 24061.22
461.3938, 24034.43
461.8759, 24008.28
462.3580, 24013.28
462.8401, 24043.76
463.3222, 24071.01
463.8044, 24093.55
464.2865, 24104.80
464.7686, 24090.24
465.2507, 24057.06
465.7328, 24032.81
466.2149, 24029.36
466.6971, 24041.53
467.1792, 24061.07
467.6613, 24101.87
468.1434, 24119.04
468.6255, 24080.76
469.1076, 24046.82
469.5898, 24061.89
470.0719, 24114.99
470.5540, 24168.69
471.0361, 24201.24
471.5182, 24214.03
472.0003, 24209.24
472.4825, 24181.20
472.9646, 24151.11
473.4467, 24110.86
473.9288, 24079.44
474.4109, 24071.06
474.8930, 24085.49
475.3752, 24110.96
475.8573, 24150.92
476.3394, 24193.57
476.8215, 24218.46
477.3036, 24224.96
477.7857, 24221.77
478.2679, 24210.29
478.7500, 24194.24
479.2321, 24182.17
479.7142, 24173.70
480.1963, 24169.31
480.6784, 24162.25
481.1606, 24163.90
481.6427, 24192.07
482.1248, 24242.46
482.6069, 24289.21
483.0890, 24312.44
483.5711, 24316.77
484.0533, 24328.63
484.5354, 24353.40
485.0175, 24377.09
485.4996, 24408.81
485.9817, 24431.17
486.4638, 24424.64
486.9460, 24390.21
487.4281, 24352.79
487.9102, 24324.46
488.3923, 24308.36
488.8744, 24322.62
489.3565, 24374.94
489.8387, 24412.29
490.3208, 24398.37
490.8029, 24357.05
491.2850, 24338.92
491.7671, 24348.91
492.2492, 24366.97
492.7314, 24392.37
493.2135, 24418.94
493.6956, 24439.06
494.1777, 24452.40
494.6598, 24464.69
495.1419, 24480.89
495.6241, 24499.33
496.1062, 24509.66
496.5883, 24515.36
497.0704, 24506.66
497.5525, 24465.05
498.0346, 24421.40
498.5168, 24399.91
498.9989, 24403.70
499.4810, 24422.91
499.9631, 24459.47
500.4452, 24504.67
500.9273, 24521.66
501.4095, 24504.35
501.8916, 24483.43
502.3737, 24460.36
502.8558, 24449.19
503.3379, 24476.29
503.8200, 24554.68
504.3022, 24617.45
504.7843, 24637.90
505.2664, 24630.41
505.7485, 24593.86
506.2306, 24537.57
506.7127, 24509.85
507.1949, 24547.00
507.6770, 24632.53
508.1591, 24693.16
508.6412, 24689.68
509.1233, 24719.81
509.6054, 24838.41
510.0876, 24952.76
510.5697, 24982.83
511.0518, 24936.52
511.5339, 24885.07
512.0161, 24877.95
512.4982, 24903.43
512.9803, 24935.29
513.4624, 24976.82
513.9445, 25002.29
514.4266, 24992.93
514.9088, 24971.22
515.3909, 24966.96
515.8730, 24981.30
516.3551, 24996.88
516.8372, 25017.10
517.3193, 25029.98
517.8015, 25014.70
518.2836, 24979.48
518.7657, 24957.95
519.2478, 24968.55
519.7299, 25000.92
520.2120, 25031.54
520.6942, 25066.37
521.1763, 25087.51
521.6584, 25090.99
522.1405, 25086.33
522.6226, 25073.98
523.1047, 25057.77
523.5869, 25044.97
524.0690, 25038.99
524.5511, 25039.02
525.0332, 25041.01
525.5153, 25045.07
525.9974, 25067.88
526.4796, 25123.64
526.9617, 25182.79
527.4438, 25211.19
527.9259, 25212.58
528.4080, 25213.41
528.8901, 25215.89
529.3723, 25220.21
529.8544, 25236.03
530.3365, 25251.96
530.8186, 25238.91
531.3007, 25188.03
531.7828, 25133.24
532.2650, 25128.65
532.7471, 25190.94
533.2292, 25198.01
533.7113, 25079.54
534.1934, 24985.86
534.6755, 24968.67
535.1577, 25000.47
535.6398, 25054.63
536.1219, 25128.75
536.6040, 25175.95
537.0861, 25120.39
537.5682, 25001.67
538.0504, 24961.75
538.5325, 25027.28
539.0146, 25094.47
539.4967, 25089.68
539.9788, 25025.69
540.4609, 24968.66
540.9431, 24900.35
541.4252, 24861.95
541.9073, 24877.88
542.3894, 24916.92
542.8715, 24963.14
543.3536, 25005.69
543.8358, 25018.90
544.3179, 24975.87
544.8000, 24893.44
545.2821, 24848.15
545.7642, 24854.22
546.2463, 24858.51
546.7285, 24840.94
547.2106, 24821.95
547.6927, 24819.45
548.1748, 24832.57
548.6569, 24843.54
549.1390, 24849.09
549.6211, 24845.47
550.1032, 24815.77
550.5853, 24769.72
551.0674, 24755.24
551.5496, 24795.88
552.0317, 24852.58
552.5138, 24859.01
552.9959, 24790.32
553.4780, 24755.61
553.9601, 24785.64
554.4423, 24811.49
554.9244, 24794.96
555.4065, 24759.24
555.8886, 24742.70
556.3707, 24759.54
556.8528, 24792.80
557.3350, 24827.47
557.8171, 24862.36
558.2992, 24888.21
558.7813, 24904.29
559.2634, 24910.10
559.7455, 24896.17
560.2277, 24872.89
560.7098, 24874.60
561.1919, 24929.18
561.6740, 24960.35
562.1561, 24915.87
562.6382, 24853.50
563.1204, 24841.60
563.6025, 24879.72
564.0846, 24915.63
564.5667, 24908.89
565.0488, 24874.74
565.5309, 24877.68
566.0131, 24940.99
566.4952, 24982.54
566.9773, 24983.04
567.4594, 24960.66
567.9415, 24906.46
568.4236, 24833.38
568.9058, 24794.30
569.3879, 24842.43
569.8700, 24906.33
570.3521, 24898.36
570.8342, 24843.17
571.3163, 24834.83
571.7985, 24906.41
572.2806, 24986.82
572.7627, 24984.30
573.2448, 24885.12
573.7269, 24833.14
574.2090, 24866.94
574.6912, 24898.75
575.1733, 24898.55
575.6554, 24889.32
576.1375, 24902.08
576.6196, 24941.79
577.1017, 24980.51
577.5839, 24993.37
578.0660, 24985.02
578.5481, 24966.81
579.0302, 24936.99
579.5123, 24914.96
579.9944, 24911.33
580.4766, 24919.17
580.9587, 24927.63
581.4408, 24939.75
581.9229, 24941.13
582.4050, 24917.25
582.8871, 24893.37
583.3693, 24892.79
583.8514, 24904.83
584.3335, 24903.23
584.8156, 24875.93
585.2977, 24836.10
585.7798, 24800.05
586.2620, 24766.57
586.7441, 24754.85
587.2262, 24779.02
587.7083, 24803.12
588.1904, 24807.67
588.6725, 24798.48
589.1547, 24782.04
589.6368, 24753.88
590.1189, 24732.56
590.6010, 24728.26
591.0831, 24735.12
591.5652, 24748.54
592.0474, 24766.43
592.5295, 24785.78
593.0116, 24806.31
593.4937, 24821.70
593.9758, 24807.84
594.4579, 24740.00
594.9401, 24701.97
595.4222, 24714.49
595.9043, 24746.72
596.3864, 24804.01
596.8685, 24868.65
597.3506, 24896.55
597.8328, 24855.05
598.3149, 24803.74
598.7970, 24803.64
599.2791, 24835.07
599.7612, 24843.74
600.2433, 24819.14
600.7255, 24792.75
601.2076, 24792.57
601.6897, 24814.31
602.1718, 24822.72
602.6539, 24797.86
603.1360, 24786.96
603.6182, 24811.57
604.1003, 24837.00
604.5824, 24833.85
605.0645, 24805.73
605.5466, 24777.57
606.0287, 24761.85
606.5109, 24756.14
606.9930, 24757.08
607.4751, 24764.72
607.9572, 24783.59
608.4393, 24819.85
608.9214, 24847.21
609.4036, 24832.66
609.8857, 24775.99
610.3678, 24752.02
610.8499, 24788.25
611.3320, 24819.05
611.8141, 24823.99
612.2963, 24819.65
612.7784, 24828.68
613.2605, 24849.31
613.7426, 24853.75
614.2247, 24810.36
614.7068, 24744.75
615.1890, 24720.53
615.6711, 24738.80
616.1532, 24779.76
616.6353, 24855.53
617.1174, 24919.57
617.5995, 24905.81
618.0817, 24812.27
618.5638, 24756.68
619.0459, 24772.48
619.5280, 24793.46
620.0101, 24788.14
620.4922, 24776.63
620.9744, 24790.68
621.4565, 24832.56
621.9386, 24870.90
622.4207, 24871.67
622.9028, 24848.85
623.3849, 24865.30
623.8671, 24931.72
624.3492, 24972.35
624.8313, 24948.57
625.3134, 24907.34
625.7955, 24908.98
626.2776, 24950.61
626.7598, 24981.12
627.2419, 24983.32
627.7240, 24983.79
628.2061, 25004.84
628.6882, 25028.88
629.1703, 25024.21
629.6525, 24986.84
630.1346, 24945.10
630.6167, 24921.19
631.0988, 24917.73
631.5809, 24960.09
632.0630, 25068.80
632.5452, 25143.16
633.0273, 25144.81
633.5094, 25106.33
633.9915, 25048.27
634.4736, 24972.98
634.9557, 24938.28
635.4379, 24988.06
635.9200, 25047.54
636.4021, 25079.68
636.8842, 25092.17
637.3663, 25094.33
637.8484, 25090.72
638.3306, 25090.74
638.8127, 25103.77
639.2948, 25128.57
639.7769, 25158.83
640.2590, 25197.14
640.7411, 25232.53
641.2233, 25267.28
641.7054, 25292.11
642.1875, 25292.87
642.6696, 25271.87
643.1517, 25257.95
643.6339, 25244.53
644.1160, 25253.00
644.5981, 25317.77
645.0802, 25403.09
645.5623, 25451.37
646.0444, 25452.79
646.5266, 25441.48
647.0087, 25445.76
647.4908, 25465.60
647.9729, 25503.64
648.4550, 25563.68
648.9371, 25626.87
649.4193, 25696.65
649.9014, 25758.78
650.3835, 25788.64
650.8656, 25793.37
651.3477, 25826.76
651.8298, 25948.15
652.3120, 26043.03
652.7941, 26022.71
653.2762, 25961.28
653.7583, 25955.36
654.2404, 26020.22
654.7225, 26119.66
655.2047, 26232.16
655.6868, 26346.47
656.1689, 26415.80
656.6510, 26429.82
657.1331, 26462.10
657.6152, 26525.87
658.0974, 26614.41
658.5795, 26729.77
659.0616, 26866.92
659.5437, 27002.77
660.0258, 27124.15
660.5079, 27258.27
660.9901, 27415.48
661.4722, 27589.17
661.9543, 27773.24
662.4364, 27966.96
662.9185, 28173.71
663.4006, 28394.61
663.8828, 28633.66
664.3649, 28907.50
664.8470, 29217.51
665.3291, 29511.52
665.8112, 29768.47
666.2933, 30043.14
666.7755, 30382.88
