##NAMES=Actinolite
##RRUFFID=R060045
##IDEAL CHEMISTRY=Ca_2_(Mg_4.5-2.5_Fe^2+^_0.5-2.5_)Si_8_O_22_(OH)_2_
##LOCALITY=Colorado, USA
##OWNER=RRUFF
##SOURCE=University of Arizona Mineral Museum
##DESCRIPTION=Green prismatic crystals in a radial arrangement
##STATUS=The identification of this mineral has been confirmed by X-ray diffraction and chemical analysis
##URL=rruff.info/R060045
##MEASURED CHEMISTRY=(Ca_1.99_Na_0.01_)_Σ=2_(Mg_4.20_Fe^2+^_0.59_Al_0.09_Fe^3+^_0.08_Mn_0.02_Ti_0.01_)_Σ=5_(Si_7.82_Al_0.18_)_Σ=8_O_22_(OH)_2_
143.1459, 267.0518
143.6280, 267.4473
144.1102, 267.3849
144.5923, 267.0968
145.0744, 266.9737
145.5565, 267.2710
146.0386, 267.8486
146.5207, 268.3031
147.0029, 268.6319
147.4850, 268.8110
147.9671, 268.6934
148.4492, 268.4273
148.9313, 268.3280
149.4134, 268.6519
149.8955, 269.4088
150.3777, 270.2174
150.8598, 271.2356
151.3419, 272.1712
151.8240, 272.8796
152.3061, 273.3973
152.7882, 273.8647
153.2704, 274.4195
153.7525, 275.0554
154.2346, 275.8251
154.7167, 276.7779
155.1988, 277.8024
155.6809, 278.9873
156.1631, 280.2808
156.6452, 281.3859
157.1273, 281.8966
157.6094, 281.5822
158.0915, 281.0157
158.5736, 279.9591
159.0558, 278.7729
159.5379, 277.8189
160.0200, 277.2085
160.5021, 276.7646
160.9842, 276.1967
161.4663, 275.4939
161.9485, 274.7402
162.4306, 273.8575
162.9127, 272.9426
163.3948, 272.1367
163.8769, 271.4374
164.3590, 270.9712
164.8412, 270.9476
165.3233, 271.4071
165.8054, 271.9713
166.2875, 272.4743
166.7696, 272.9171
167.2517, 273.2861
167.7339, 273.5540
168.2160, 273.7556
168.6981, 273.9080
169.1802, 274.0005
169.6623, 274.1110
170.1444, 274.2323
170.6266, 274.3077
171.1087, 274.7451
171.5908, 276.1248
172.0729, 277.6573
172.5550, 278.7538
173.0371, 279.2278
173.5193, 279.4741
174.0014, 280.2177
174.4835, 281.8389
174.9656, 283.1250
175.4477, 284.1005
175.9298, 284.6234
176.4120, 284.5419
176.8941, 283.7926
177.3762, 282.4624
177.8583, 280.7850
178.3404, 278.4843
178.8225, 276.1573
179.3047, 273.7484
179.7868, 271.3752
180.2689, 269.0894
180.7510, 266.9229
181.2331, 264.9315
181.7152, 263.4353
182.1974, 262.7415
182.6795, 262.1799
183.1616, 261.6776
183.6437, 261.2303
184.1258, 260.8454
184.6079, 260.5298
185.0900, 260.2764
185.5722, 260.0562
186.0543, 259.9339
186.5364, 259.7679
187.0185, 259.4778
187.5006, 259.0945
187.9827, 258.6906
188.4649, 258.2668
188.9470, 257.8841
189.4291, 257.7451
189.9112, 258.1317
190.3933, 258.5028
190.8754, 258.4891
191.3576, 258.1119
191.8397, 257.6261
192.3218, 257.0182
192.8039, 256.4659
193.2860, 256.3417
193.7681, 256.9632
194.2503, 257.7872
194.7324, 258.2036
195.2145, 258.1510
195.6966, 258.1194
196.1787, 258.5317
196.6608, 259.0962
197.1430, 259.4484
197.6251, 259.3725
198.1072, 259.1392
198.5893, 259.2564
199.0714, 259.9054
199.5535, 260.4283
200.0357, 260.3259
200.5178, 260.0187
200.9999, 260.0164
201.4820, 260.6019
201.9641, 261.5625
202.4462, 262.3040
202.9284, 262.7257
203.4105, 263.0782
203.8926, 263.4225
204.3747, 263.7580
204.8568, 264.0713
205.3389, 264.3419
205.8211, 264.6009
206.3032, 264.9809
206.7853, 265.5245
207.2674, 266.1618
207.7495, 266.9809
208.2316, 267.8619
208.7138, 268.6429
209.1959, 269.2211
209.6780, 269.6257
210.1601, 270.0474
210.6422, 270.6078
211.1243, 271.0555
211.6065, 271.1915
212.0886, 271.2002
212.5707, 271.4016
213.0528, 272.0158
213.5349, 272.9862
214.0170, 273.7506
214.4992, 274.2238
214.9813, 274.6041
215.4634, 274.8171
215.9455, 274.9685
216.4276, 275.2885
216.9097, 275.9481
217.3919, 276.8942
217.8740, 277.6120
218.3561, 277.9397
218.8382, 278.2606
219.3203, 278.8210
219.8024, 279.5101
220.2845, 280.0207
220.7667, 280.1922
221.2488, 280.0025
221.7309, 279.4809
222.2130, 278.4196
222.6951, 277.2756
223.1772, 276.2023
223.6594, 275.2111
224.1415, 274.3700
224.6236, 273.7933
225.1057, 273.3598
225.5878, 272.6696
226.0699, 271.5332
226.5521, 270.3553
227.0342, 269.4443
227.5163, 268.7689
227.9984, 268.0241
228.4805, 267.0241
228.9626, 265.8581
229.4448, 264.6794
229.9269, 263.3474
230.4090, 262.2407
230.8911, 261.8373
231.3732, 262.1438
231.8553, 262.3412
232.3375, 262.1523
232.8196, 261.5920
233.3017, 260.6067
233.7838, 259.0402
234.2659, 257.4267
234.7480, 256.3355
235.2302, 255.8040
235.7123, 255.4404
236.1944, 255.2341
236.6765, 255.0757
237.1586, 254.9071
237.6407, 254.7320
238.1229, 254.4610
238.6050, 253.9179
239.0871, 253.0301
239.5692, 252.2739
240.0513, 251.8168
240.5334, 251.5174
241.0156, 251.3128
241.4977, 251.1894
241.9798, 251.1159
242.4619, 251.0709
242.9440, 251.0751
243.4261, 251.0223
243.9083, 250.7635
244.3904, 250.5287
244.8725, 250.4966
245.3546, 250.6916
245.8367, 250.9621
246.3188, 251.1372
246.8010, 251.2537
247.2831, 251.1431
247.7652, 250.5251
248.2473, 249.8860
248.7294, 249.5545
249.2115, 249.5625
249.6937, 249.6814
250.1758, 249.6356
250.6579, 249.4174
251.1400, 249.0341
251.6221, 248.3122
252.1042, 247.5796
252.5864, 247.0066
253.0685, 246.6161
253.5506, 246.3600
254.0327, 246.2202
254.5148, 246.3331
254.9969, 246.1052
255.4790, 245.2388
255.9612, 244.3379
256.4433, 243.6445
256.9254, 243.2211
257.4075, 243.0704
257.8896, 243.2202
258.3718, 243.7354
258.8539, 244.2781
259.3360, 245.1101
259.8181, 245.7427
260.3002, 245.9236
260.7823, 245.6604
261.2645, 245.0654
261.7466, 244.1692
262.2287, 242.8498
262.7108, 242.2050
263.1929, 242.8022
263.6750, 243.3911
264.1572, 243.3521
264.6393, 242.7594
265.1214, 242.0448
265.6035, 241.5255
266.0856, 241.2057
266.5677, 241.0916
267.0499, 241.4509
267.5320, 241.7068
268.0141, 241.5212
268.4962, 241.0076
268.9783, 240.5185
269.4604, 240.2873
269.9426, 240.2999
270.4247, 240.3777
270.9068, 240.5172
271.3889, 240.7079
271.8710, 241.0722
272.3531, 241.4949
272.8352, 241.6574
273.3174, 241.3200
273.7995, 240.6381
274.2816, 240.3887
274.7637, 240.9888
275.2458, 241.4470
275.7279, 241.2934
276.2101, 240.7866
276.6922, 240.4696
277.1743, 240.5979
277.6564, 241.0501
278.1385, 241.5485
278.6206, 242.3355
279.1028, 242.7512
279.5849, 242.3270
280.0670, 241.4482
280.5491, 240.7781
281.0312, 240.5540
281.5133, 240.6391
281.9955, 240.8246
282.4776, 241.1419
282.9597, 241.4213
283.4418, 241.6875
283.9239, 241.8752
284.4060, 241.8549
284.8882, 241.5745
285.3703, 241.1712
285.8524, 240.7887
286.3345, 240.4024
286.8166, 240.1806
287.2987, 240.2707
287.7809, 240.5010
288.2630, 240.6440
288.7451, 240.6536
289.2272, 240.6465
289.7093, 240.7931
290.1914, 241.0797
290.6736, 241.1983
291.1557, 240.9316
291.6378, 240.5695
292.1199, 240.4613
292.6020, 240.6489
293.0841, 240.8518
293.5663, 240.8481
294.0484, 240.6620
294.5305, 240.4500
295.0126, 240.0718
295.4947, 239.7793
295.9768, 239.8809
296.4590, 240.3639
296.9411, 240.8088
297.4232, 240.9251
297.9053, 240.8041
298.3874, 240.7789
298.8695, 240.9824
299.3517, 241.1430
299.8338, 240.9681
300.3159, 240.5185
300.7980, 240.2434
301.2801, 240.4599
301.7622, 240.8905
302.2444, 240.9773
302.7265, 240.6565
303.2086, 240.1651
303.6907, 239.4391
304.1728, 238.6056
304.6549, 238.1887
305.1371, 238.4977
305.6192, 239.0993
306.1013, 239.3593
306.5834, 239.2654
307.0655, 239.0794
307.5476, 238.8389
308.0298, 238.5914
308.5119, 238.4786
308.9940, 238.5806
309.4761, 238.6924
309.9582, 238.5330
310.4403, 238.1428
310.9225, 237.8023
311.4046, 237.5473
311.8867, 237.4106
312.3688, 237.5399
312.8509, 238.0177
313.3330, 238.3887
313.8152, 238.1074
314.2973, 237.3703
314.7794, 236.8148
315.2615, 236.6229
315.7436, 236.6349
316.2257, 236.7379
316.7079, 236.9350
317.1900, 237.0716
317.6721, 236.9956
318.1542, 236.8057
318.6363, 236.7455
319.1184, 236.8990
319.6006, 237.1058
320.0827, 237.2784
320.5648, 237.4119
321.0469, 237.4688
321.5290, 237.4229
322.0111, 237.2914
322.4933, 237.0897
322.9754, 236.7525
323.4575, 236.5359
323.9396, 236.6739
324.4217, 237.0527
324.9038, 237.3250
325.3860, 237.3884
325.8681, 237.3228
326.3502, 237.2148
326.8323, 237.0635
327.3144, 236.9169
327.7965, 236.8038
328.2787, 236.7027
328.7608, 235.7275
329.2429, 236.7299
329.7250, 237.2931
330.2071, 237.4407
330.6892, 235.9280
331.1714, 236.5592
331.6535, 236.3313
332.1356, 236.0681
332.6177, 237.0011
333.0998, 235.7299
333.5819, 236.6439
334.0641, 236.6856
334.5462, 237.1266
335.0283, 236.7030
335.5104, 236.5465
335.9925, 237.2547
336.4746, 237.4841
336.9568, 236.9610
337.4389, 237.4274
337.9210, 236.1259
338.4031, 236.3757
338.8852, 237.2948
339.3673, 236.8152
339.8495, 237.2974
340.3316, 237.4132
340.8137, 235.8645
341.2958, 237.2106
341.7779, 237.3048
342.2600, 236.1135
342.7421, 237.3605
343.2242, 236.3465
343.7064, 236.1395
344.1885, 236.5398
344.6706, 236.3070
345.1527, 237.0724
345.6348, 236.8762
346.1169, 236.5940
346.5991, 236.6868
347.0812, 237.5560
347.5633, 238.0860
348.0454, 237.5759
348.5275, 236.9811
349.0096, 237.0589
349.4918, 237.6851
349.9739, 238.1055
350.4560, 237.7504
350.9381, 236.8808
351.4202, 236.8045
351.9023, 238.2652
352.3845, 239.5177
352.8666, 239.9790
353.3487, 239.8799
353.8308, 239.5723
354.3129, 239.1696
354.7950, 238.7551
355.2772, 238.4974
355.7593, 238.4580
356.2414, 238.4439
356.7235, 238.3909
357.2056, 238.3841
357.6877, 238.5340
358.1699, 238.8519
358.6520, 239.2321
359.1341, 239.5737
359.6162, 239.8829
360.0983, 240.0896
360.5804, 240.0136
361.0626, 240.0090
361.5447, 240.3375
362.0268, 240.9263
362.5089, 241.5003
362.9910, 241.8681
363.4731, 242.0519
363.9553, 242.2422
364.4374, 242.4328
364.9195, 242.6368
365.4016, 242.7708
365.8837, 242.9442
366.3658, 243.3858
366.8480, 244.1892
367.3301, 245.0999
367.8122, 245.5679
368.2943, 245.3997
368.7764, 245.0307
369.2585, 244.1562
369.7407, 243.3042
370.2228, 242.9359
370.7049, 243.0761
371.1870, 243.3806
371.6691, 243.4984
372.1512, 243.4379
372.6334, 243.1279
373.1155, 242.4037
373.5976, 241.6128
374.0797, 240.7664
374.5618, 239.9556
375.0439, 239.3028
375.5261, 238.8781
376.0082, 238.6926
376.4903, 238.8382
376.9724, 239.8635
377.4545, 240.4213
377.9366, 240.0124
378.4188, 239.2062
378.9009, 238.5463
379.3830, 238.2229
379.8651, 238.1300
380.3472, 238.1265
380.8293, 238.2390
381.3115, 238.3529
381.7936, 238.3119
382.2757, 238.3890
382.7578, 238.8340
383.2399, 239.5861
383.7220, 240.3072
384.2042, 240.6693
384.6863, 240.7052
385.1684, 240.8940
385.6505, 241.2746
386.1326, 241.7738
386.6147, 242.6172
387.0969, 243.4940
387.5790, 243.8252
388.0611, 243.1762
388.5432, 242.1973
389.0253, 242.2231
389.5074, 243.5574
389.9896, 244.5547
390.4717, 244.6526
390.9538, 244.1604
391.4359, 243.0739
391.9180, 241.3618
392.4001, 239.8250
392.8823, 239.3496
393.3644, 239.7292
393.8465, 239.6561
394.3286, 238.8062
394.8107, 237.6645
395.2928, 236.5753
395.7750, 235.5331
396.2571, 234.5225
396.7392, 233.4816
397.2213, 232.4964
397.7034, 231.6940
398.1855, 231.0867
398.6677, 230.5703
399.1498, 230.0841
399.6319, 229.6589
400.1140, 229.3618
400.5961, 229.2843
401.0782, 229.1818
401.5604, 228.8186
402.0425, 228.3077
402.5246, 228.0393
403.0067, 228.2151
403.4888, 228.4584
403.9709, 228.0654
404.4531, 226.9157
404.9352, 226.2114
405.4173, 226.6568
405.8994, 227.3469
406.3815, 227.2366
406.8636, 226.3053
407.3458, 225.4324
407.8279, 225.3390
408.3100, 225.9837
408.7921, 226.5054
409.2742, 226.9311
409.7563, 227.2242
410.2385, 227.3656
410.7206, 227.3633
411.2027, 227.2302
411.6848, 226.9723
412.1669, 226.5852
412.6490, 226.0466
413.1311, 225.1535
413.6133, 224.4654
414.0954, 224.0125
414.5775, 223.7327
415.0596, 223.6831
415.5417, 223.8035
416.0238, 223.8679
416.5060, 223.6584
416.9881, 223.1694
417.4702, 222.6666
417.9523, 222.1838
418.4344, 221.6450
418.9165, 220.8694
419.3987, 220.0723
419.8808, 219.6088
420.3629, 219.6535
420.8450, 219.9225
421.3271, 219.7815
421.8092, 219.0075
422.2914, 218.3864
422.7735, 218.0198
423.2556, 217.8082
423.7377, 217.7966
424.2198, 217.9290
424.7019, 217.9737
425.1841, 217.6636
425.6662, 217.0426
426.1483, 216.5791
426.6304, 216.2771
427.1125, 216.1462
427.5946, 216.3646
428.0768, 216.6922
428.5589, 216.7260
429.0410, 216.0774
429.5231, 216.5009
430.0052, 216.7049
430.4873, 216.7010
430.9695, 215.8670
431.4516, 216.1049
431.9337, 215.9133
432.4158, 215.7040
432.8979, 216.0928
433.3800, 215.3796
433.8622, 215.7589
434.3443, 215.7021
434.8264, 215.8449
435.3085, 215.5555
435.7906, 215.3995
436.2727, 215.6760
436.7549, 215.7130
437.2370, 215.3738
437.7191, 215.5293
438.2012, 214.8009
438.6833, 214.3710
439.1654, 214.0352
439.6476, 213.8061
440.1297, 213.7260
440.6118, 213.6976
441.0939, 213.5439
441.5760, 213.1837
442.0581, 212.9247
442.5403, 212.9602
443.0224, 212.9706
443.5045, 212.5951
443.9866, 211.9070
444.4687, 211.3754
444.9508, 211.4175
445.4330, 211.9448
445.9151, 211.9514
446.3972, 210.7307
446.8793, 209.8257
447.3614, 209.6299
447.8435, 209.7978
448.3257, 209.9350
448.8078, 209.9153
449.2899, 209.8660
449.7720, 210.0224
450.2541, 210.5294
450.7362, 210.7344
451.2184, 210.2981
451.7005, 209.8705
452.1826, 209.7388
452.6647, 209.8280
453.1468, 209.9009
453.6289, 209.7917
454.1111, 209.6002
454.5932, 209.6402
455.0753, 210.0303
455.5574, 210.2934
456.0395, 210.2410
456.5216, 210.0061
457.0038, 209.6160
457.4859, 209.0711
457.9680, 208.5838
458.4501, 208.2549
458.9322, 208.5249
459.4143, 208.6484
459.8965, 208.6334
460.3786, 208.0649
460.8607, 208.2111
461.3428, 208.0709
461.8249, 207.9190
462.3070, 208.1658
462.7892, 207.6778
463.2713, 207.9183
463.7534, 207.8680
464.2355, 207.9508
464.7176, 207.7454
465.1997, 207.6290
465.6819, 207.8009
466.1640, 207.8131
466.6461, 207.5746
467.1282, 207.6658
467.6103, 207.1678
468.0924, 207.1353
468.5746, 207.1257
469.0567, 207.2061
469.5388, 207.5034
470.0209, 207.9424
470.5030, 207.9973
470.9851, 207.0941
471.4673, 206.5041
471.9494, 206.6187
472.4315, 206.9808
472.9136, 207.1628
473.3957, 207.0464
473.8778, 206.7388
474.3600, 206.3175
474.8421, 205.7366
475.3242, 205.3851
475.8063, 205.4476
476.2884, 205.5569
476.7705, 205.5665
477.2527, 205.5446
477.7348, 205.6624
478.2169, 206.0504
478.6990, 206.4284
479.1811, 206.1929
479.6632, 205.2293
480.1454, 204.6283
480.6275, 204.7880
481.1096, 205.2724
481.5917, 205.8247
482.0738, 206.4062
482.5559, 206.7747
483.0380, 206.8254
483.5201, 206.5909
484.0023, 205.9629
484.4844, 204.9203
484.9665, 204.1367
485.4486, 204.0354
485.9307, 204.4398
486.4128, 204.8791
486.8950, 205.5577
487.3771, 205.8485
487.8592, 205.1042
488.3413, 204.0237
488.8234, 203.6598
489.3055, 204.1819
489.7877, 204.8303
490.2698, 204.8239
490.7519, 204.1124
491.2340, 203.7388
491.7161, 204.0922
492.1982, 204.2758
492.6804, 203.7796
493.1625, 203.0141
493.6446, 202.5410
494.1267, 202.5739
494.6088, 203.0056
495.0909, 203.8132
495.5731, 205.3776
496.0552, 206.0956
496.5373, 205.0043
497.0194, 203.9551
497.5015, 203.7867
497.9836, 204.2430
498.4658, 204.6365
498.9479, 204.5623
499.4300, 204.2907
499.9121, 204.4467
500.3942, 205.1461
500.8763, 205.5359
501.3585, 205.1452
501.8406, 204.5404
502.3227, 204.2054
502.8048, 204.1510
503.2869, 204.2428
503.7690, 204.4397
504.2512, 204.7328
504.7333, 205.1944
505.2154, 205.8290
505.6975, 206.2710
506.1796, 206.2556
506.6617, 205.9182
507.1439, 205.6823
507.6260, 205.4733
508.1081, 205.4752
508.5902, 206.0215
509.0723, 206.6583
509.5544, 206.7778
510.0366, 206.3239
510.5187, 205.7845
511.0008, 205.6030
511.4829, 205.7791
511.9650, 206.0450
512.4471, 206.8491
512.9293, 207.2104
513.4114, 206.5654
513.8935, 205.5539
514.3756, 204.8518
514.8577, 204.6707
515.3398, 204.8559
515.8220, 205.3334
516.3041, 206.1588
516.7862, 206.6606
517.2683, 206.7057
517.7504, 206.5678
518.2325, 206.3277
518.7147, 206.0193
519.1968, 205.6657
519.6789, 205.2151
520.1610, 204.8749
520.6431, 205.0520
521.1252, 205.6493
521.6074, 205.8043
522.0895, 205.1369
522.5716, 204.3257
523.0537, 204.1511
523.5358, 204.5276
524.0179, 204.9141
524.5001, 205.4562
524.9822, 205.7753
525.4643, 205.3304
525.9464, 204.4124
526.4285, 203.9615
526.9106, 204.4277
527.3928, 205.2620
527.8749, 205.4255
528.3570, 204.5120
528.8391, 203.8409
529.3212, 203.4412
529.8033, 203.2362
530.2855, 203.3419
530.7676, 203.6032
531.2497, 203.6778
531.7318, 203.3510
532.2139, 202.7650
532.6960, 202.2866
533.1782, 201.9433
533.6603, 201.6295
534.1424, 201.4308
534.6245, 201.1749
535.1066, 200.6583
535.5887, 199.9571
536.0709, 199.4111
536.5530, 199.2533
537.0351, 199.3630
537.5172, 199.6391
537.9993, 200.1039
538.4814, 200.2070
538.9636, 199.4958
539.4457, 198.5073
539.9278, 198.1635
540.4099, 198.5593
540.8920, 198.9228
541.3741, 199.0789
541.8563, 199.0819
542.3384, 198.9599
542.8205, 198.7293
543.3026, 198.4151
543.7847, 198.0114
544.2668, 197.5810
544.7490, 197.3649
545.2311, 197.6361
545.7132, 197.7486
546.1953, 197.6031
546.6774, 197.3642
547.1595, 197.1572
547.6417, 196.9799
548.1238, 196.7351
548.6059, 196.3060
549.0880, 195.7847
549.5701, 195.5768
550.0522, 195.8412
550.5344, 196.0101
551.0165, 195.7903
551.4986, 195.4845
551.9807, 195.3380
552.4628, 194.9332
552.9449, 195.3023
553.4271, 195.4517
553.9092, 195.3934
554.3913, 194.5049
554.8734, 194.6884
555.3555, 194.4423
555.8376, 194.1785
556.3198, 194.5128
556.8019, 193.7451
557.2840, 194.0700
557.7661, 193.9587
558.2482, 194.0470
558.7303, 193.7031
559.2125, 193.4927
559.6946, 193.7147
560.1767, 193.6972
560.6588, 193.3035
561.1409, 193.4046
561.6230, 192.6217
562.1052, 192.6144
562.5873, 192.9418
563.0694, 192.5699
563.5515, 192.6788
564.0336, 192.6046
564.5157, 191.6981
564.9979, 192.2390
565.4800, 192.1540
565.9621, 191.4262
566.4442, 191.9175
566.9263, 191.2784
567.4084, 191.0427
567.8906, 191.1107
568.3727, 190.8622
568.8548, 191.1127
569.3369, 190.8825
569.8190, 190.6093
570.3011, 190.5235
570.7833, 189.9065
571.2654, 190.2751
571.7475, 189.9704
572.2296, 190.0004
572.7117, 190.2071
573.1938, 190.6917
573.6760, 190.9077
574.1581, 190.8199
574.6402, 190.4911
575.1223, 189.4595
575.6044, 188.6157
576.0865, 188.6701
576.5687, 189.3550
577.0508, 189.9161
577.5329, 189.9173
578.0150, 189.5744
578.4971, 189.3361
578.9792, 189.2204
579.4614, 189.1134
579.9435, 189.0479
580.4256, 188.9249
580.9077, 188.6297
581.3898, 188.2122
581.8719, 187.8585
582.3541, 187.5755
582.8362, 187.4409
583.3183, 187.7460
583.8004, 188.3095
584.2825, 188.3481
584.7646, 187.5343
585.2468, 186.5015
585.7289, 186.0771
586.2110, 186.4028
586.6931, 186.5658
587.1752, 186.5531
587.6573, 186.4056
588.1394, 185.9746
588.6215, 185.4732
589.1036, 185.2534
589.5858, 185.4252
590.0679, 185.7298
590.5500, 185.8291
591.0321, 185.7091
591.5142, 185.5032
591.9963, 185.0537
592.4785, 184.7553
592.9606, 184.9263
593.4427, 185.2788
593.9248, 185.3783
594.4069, 185.0770
594.8890, 184.7574
595.3712, 184.7567
595.8533, 184.9368
596.3354, 184.9908
596.8175, 184.8777
597.2996, 184.6082
597.7817, 184.0814
598.2639, 183.4201
598.7460, 183.3244
599.2281, 184.5929
599.7102, 185.2648
600.1923, 184.4670
600.6744, 183.3557
601.1566, 183.0178
601.6387, 183.4665
602.1208, 184.0214
602.6029, 184.1712
603.0850, 184.0156
603.5671, 183.9676
604.0493, 184.1278
604.5314, 184.1250
605.0135, 183.6937
605.4956, 183.2119
605.9777, 182.9099
606.4598, 182.7909
606.9420, 182.7716
607.4241, 182.8952
607.9062, 183.0419
608.3883, 183.0529
608.8704, 182.9492
609.3525, 182.8382
609.8347, 182.7471
610.3168, 182.7025
610.7989, 182.7567
611.2810, 182.9470
611.7631, 183.0486
612.2452, 183.0471
612.7274, 182.9792
613.2095, 182.8500
613.6916, 182.6689
614.1737, 182.4256
614.6558, 182.1246
615.1379, 181.8321
615.6201, 181.6037
616.1022, 181.4363
616.5843, 181.5031
617.0664, 182.0468
617.5485, 182.3848
618.0306, 181.8527
618.5128, 181.0915
618.9949, 180.9698
619.4770, 181.7300
619.9591, 182.4517
620.4412, 182.5360
620.9233, 182.2937
621.4055, 182.1785
621.8876, 182.2252
622.3697, 182.3035
622.8518, 182.3505
623.3339, 182.3468
623.8160, 182.2232
624.2982, 181.6803
624.7803, 181.5251
625.2624, 182.1451
625.7445, 182.7916
626.2266, 182.9313
626.7087, 182.7207
627.1909, 182.6515
627.6730, 183.0144
628.1551, 183.4820
628.6372, 183.3952
629.1193, 182.7304
629.6014, 182.3710
630.0836, 182.5601
630.5657, 182.8881
631.0478, 183.0999
631.5299, 183.2036
632.0120, 183.1898
632.4941, 182.9656
632.9763, 182.7569
633.4584, 182.6605
633.9405, 182.6564
634.4226, 182.7237
634.9047, 182.8554
635.3868, 183.0357
635.8690, 183.2447
636.3511, 183.4942
