##NAMES=Adamite
##RRUFFID=R060593
##IDEAL CHEMISTRY=Zn^2+^_2_As^5+^O_4_(OH)
##LOCALITY=Tsumeb mine, Tsumeb, Otavi District, Oshikoto, Namibia
##OWNER=Michael Scott
##SOURCE=Michael Scott
##DESCRIPTION=Bluish-green prismatic crystals
##STATUS=The identification of this mineral has been confirmed by X-ray diffraction and chemical analysis
##URL=rruff.info/R060593
##MEASURED CHEMISTRY=(Zn_1.65_Cu_0.35_)_Î£=2_(As_1.00_O_4_)(OH) ; H not measured but estimated by difference and stoichiometry
164.8853, 211.9319
165.3674, 212.5186
165.8495, 214.0774
166.3316, 216.9397
166.8137, 220.2591
167.2958, 223.3387
167.7780, 226.2233
168.2601, 229.0042
168.7422, 231.6705
169.2243, 234.2556
169.7064, 236.8345
170.1885, 239.3642
170.6707, 241.9586
171.1528, 245.1453
171.6349, 248.6392
172.1170, 251.3281
172.5991, 252.2791
173.0812, 251.4461
173.5634, 249.8919
174.0455, 247.5355
174.5276, 244.4398
175.0097, 240.5668
175.4918, 235.9341
175.9739, 230.6160
176.4561, 224.4834
176.9382, 216.9463
177.4203, 210.4852
177.9024, 205.2511
178.3845, 200.8291
178.8666, 197.1994
179.3488, 194.2882
179.8309, 191.8458
180.3130, 189.5204
180.7951, 186.8796
181.2772, 185.5337
181.7593, 186.0421
182.2415, 187.2903
182.7236, 188.4663
183.2057, 189.3792
183.6878, 190.3804
184.1699, 191.9993
184.6520, 194.4476
185.1342, 197.2458
185.6163, 200.2382
186.0984, 203.6369
186.5805, 207.9952
187.0626, 213.5495
187.5447, 219.2515
188.0269, 222.9395
188.5090, 223.8905
188.9911, 226.0864
189.4732, 231.4054
189.9553, 238.3885
190.4374, 244.3581
190.9196, 248.3972
191.4017, 251.6459
191.8838, 255.8412
192.3659, 260.9874
192.8480, 266.1820
193.3301, 270.7870
193.8123, 275.0437
194.2944, 279.9542
194.7765, 286.1005
195.2586, 292.5842
195.7407, 298.3242
196.2228, 303.2908
196.7050, 308.3971
197.1871, 314.3740
197.6692, 321.1862
198.1513, 328.0381
198.6334, 334.7149
199.1155, 341.4572
199.5977, 348.3256
200.0798, 355.3621
200.5619, 362.7055
201.0440, 370.3993
201.5261, 378.4209
202.0082, 387.2903
202.4904, 397.9425
202.9725, 408.9184
203.4546, 419.6726
203.9367, 430.0893
204.4188, 440.2722
204.9009, 450.3378
205.3831, 460.3699
205.8652, 469.9492
206.3473, 479.4727
206.8294, 488.2906
207.3115, 496.2545
207.7936, 503.1872
208.2758, 508.7017
208.7579, 512.2479
209.2400, 513.8248
209.7221, 513.0068
210.2042, 509.5140
210.6863, 504.3303
211.1685, 497.4821
211.6506, 489.2504
212.1327, 480.7282
212.6148, 473.4623
213.0969, 468.2943
213.5790, 462.8591
214.0612, 455.9455
214.5433, 449.5234
215.0254, 445.0484
215.5075, 442.9035
215.9896, 442.4996
216.4717, 443.1044
216.9539, 445.0450
217.4360, 447.4738
217.9181, 449.7301
218.4002, 452.7897
218.8823, 457.5060
219.3644, 464.0738
219.8466, 472.4860
220.3287, 483.0717
220.8108, 496.1686
221.2929, 509.7496
221.7750, 523.3020
222.2571, 537.3033
222.7393, 552.0384
223.2214, 567.3929
223.7035, 584.3457
224.1856, 604.7863
224.6677, 628.3240
225.1498, 652.3069
225.6320, 676.3171
226.1141, 700.2941
226.5962, 724.4770
227.0783, 749.3643
227.5604, 773.1516
228.0425, 795.2289
228.5247, 815.3690
229.0068, 831.2725
229.4889, 842.3671
229.9710, 848.4385
230.4531, 849.0775
230.9352, 844.3178
231.4174, 833.4316
231.8995, 814.5364
232.3816, 789.5276
232.8637, 763.0071
233.3458, 735.7697
233.8279, 708.5809
234.3101, 683.4392
234.7922, 660.7188
235.2743, 640.1202
235.7564, 620.5010
236.2385, 602.5133
236.7206, 587.4985
237.2028, 576.6159
237.6849, 569.4265
238.1670, 563.7708
238.6491, 559.0070
239.1312, 557.1526
239.6133, 559.1969
240.0955, 564.1525
240.5776, 570.3908
241.0597, 576.9114
241.5418, 583.9567
242.0239, 592.5428
242.5060, 602.9686
242.9882, 614.8381
243.4703, 628.1888
243.9524, 642.7208
244.4345, 658.1223
244.9166, 674.2499
245.3987, 691.0609
245.8809, 708.0858
246.3630, 725.9854
246.8451, 743.1823
247.3272, 759.1317
247.8093, 774.3173
248.2914, 789.3766
248.7736, 804.7239
249.2557, 820.0267
249.7378, 833.8170
250.2199, 846.5942
250.7020, 856.9396
251.1841, 864.6414
251.6663, 869.8732
252.1484, 872.7596
252.6305, 873.3810
253.1126, 871.7822
253.5947, 868.0530
254.0768, 861.6732
254.5590, 853.4371
255.0411, 842.9865
255.5232, 830.9083
256.0053, 817.3210
256.4874, 802.3360
256.9695, 786.7492
257.4517, 772.5130
257.9338, 761.5939
258.4159, 749.6571
258.8980, 736.5560
259.3801, 722.4491
259.8622, 706.9855
260.3444, 690.0991
260.8265, 672.7819
261.3086, 656.9216
261.7907, 642.8704
262.2728, 629.8218
262.7549, 618.5767
263.2371, 607.8689
263.7192, 596.1741
264.2013, 583.1020
264.6834, 570.0442
265.1655, 559.0674
265.6476, 550.9762
266.1298, 543.4779
266.6119, 536.5450
267.0940, 530.1436
267.5761, 524.2537
268.0582, 518.8493
268.5403, 514.0267
269.0225, 509.8983
269.5046, 506.5801
269.9867, 503.8206
270.4688, 501.3699
270.9509, 499.6457
271.4330, 499.2248
271.9152, 500.1221
272.3973, 501.5750
272.8794, 503.1189
273.3615, 504.7301
273.8436, 505.2485
274.3257, 504.3557
274.8079, 502.5776
275.2900, 500.6679
275.7721, 498.5544
276.2542, 495.0627
276.7363, 489.4391
277.2184, 481.3911
277.7006, 471.2234
278.1827, 457.9780
278.6648, 443.4327
279.1469, 428.6311
279.6290, 413.6352
280.1111, 398.4000
280.5933, 382.7694
281.0754, 366.9293
281.5575, 351.3093
282.0396, 335.2355
282.5217, 320.2155
283.0038, 307.0685
283.4860, 295.7334
283.9681, 285.8405
284.4502, 277.5672
284.9323, 270.4543
285.4144, 263.2737
285.8965, 255.7526
286.3787, 248.7980
286.8608, 242.9201
287.3429, 238.0347
287.8250, 233.8947
288.3071, 230.8093
288.7892, 227.9153
289.2714, 223.8433
289.7535, 218.4774
290.2356, 213.1907
290.7177, 208.4977
291.1998, 204.3595
291.6819, 200.6543
292.1641, 197.4221
292.6462, 194.4981
293.1283, 191.6689
293.6104, 188.9378
294.0925, 186.4451
294.5746, 184.4764
295.0568, 182.7551
295.5389, 180.6321
296.0210, 177.8729
296.5031, 175.1969
296.9852, 173.2073
297.4673, 171.7707
297.9495, 170.6551
298.4316, 170.2152
298.9137, 169.8945
299.3958, 168.6721
299.8779, 166.3152
300.3600, 164.0818
300.8422, 162.7488
301.3243, 162.1318
301.8064, 162.0532
302.2885, 162.6557
302.7706, 163.6060
303.2527, 164.6399
303.7349, 165.7821
304.2170, 166.6956
304.6991, 166.9781
305.1812, 167.0538
305.6633, 167.5720
306.1454, 168.8105
306.6276, 169.9952
307.1097, 170.1062
307.5918, 169.2418
308.0739, 169.2363
308.5560, 171.3374
309.0381, 173.9964
309.5203, 175.3261
310.0024, 175.1645
310.4845, 174.9458
310.9666, 175.7199
311.4487, 177.2962
311.9308, 178.7157
312.4130, 179.6828
312.8951, 180.6019
313.3772, 181.9859
313.8593, 183.7396
314.3414, 185.1613
314.8235, 185.5508
315.3057, 185.3660
315.7878, 185.9104
316.2699, 187.5753
316.7520, 189.2753
317.2341, 190.5215
317.7162, 191.2297
318.1984, 191.0292
318.6805, 189.1537
319.1626, 186.5824
319.6447, 184.8967
320.1268, 184.2366
320.6089, 183.7696
321.0911, 183.2729
321.5732, 182.6025
322.0553, 181.4895
322.5374, 179.7215
323.0195, 177.7495
323.5016, 176.2338
323.9838, 175.1745
324.4659, 173.4917
324.9480, 170.3665
325.4301, 166.6734
325.9122, 163.5482
326.3943, 161.1032
326.8765, 158.7986
327.3586, 156.2699
327.8407, 153.5403
328.3228, 150.7553
328.8049, 147.8079
329.2870, 145.0267
329.7692, 142.6771
330.2513, 140.7455
330.7334, 139.2031
331.2155, 138.2044
331.6976, 137.5774
332.1797, 136.9792
332.6619, 136.4401
333.1440, 135.7434
333.6261, 134.7191
334.1082, 133.4126
334.5903, 131.8292
335.0724, 129.2523
335.5546, 126.7677
336.0367, 126.1549
336.5188, 127.6123
337.0009, 128.9063
337.4830, 128.6854
337.9651, 127.4509
338.4473, 126.1016
338.9294, 124.4288
339.4115, 123.1365
339.8936, 123.1001
340.3757, 124.1363
340.8578, 124.8637
341.3400, 124.7285
341.8221, 124.0618
342.3042, 123.3031
342.7863, 122.3581
343.2684, 121.7831
343.7505, 122.1606
344.2327, 123.0982
344.7148, 123.6421
345.1969, 123.5512
345.6790, 123.1411
346.1611, 122.5006
346.6432, 121.6906
347.1254, 121.4525
347.6075, 122.4777
348.0896, 123.9362
348.5717, 124.6228
349.0538, 124.4049
349.5359, 124.4183
350.0181, 125.6819
350.5002, 127.9209
350.9823, 129.7413
351.4644, 130.9300
351.9465, 131.7902
352.4286, 132.4766
352.9108, 132.9949
353.3929, 133.2467
353.8750, 132.8693
354.3571, 132.5308
354.8392, 134.0105
355.3214, 138.1430
355.8035, 141.9162
356.2856, 143.9845
356.7677, 145.0117
357.2498, 146.0602
357.7319, 147.3828
358.2141, 149.0683
358.6962, 151.4116
359.1783, 154.5656
359.6604, 157.3957
360.1425, 159.3383
360.6246, 161.1864
361.1068, 163.8146
361.5889, 167.2700
362.0710, 170.7035
362.5531, 173.3705
363.0352, 175.2870
363.5173, 177.4961
363.9995, 179.8203
364.4816, 182.5842
364.9637, 186.0941
365.4458, 190.1718
365.9279, 194.3564
366.4100, 198.3892
366.8922, 202.4008
367.3743, 206.7731
367.8564, 211.6813
368.3385, 216.6764
368.8206, 221.2285
369.3027, 226.0448
369.7849, 232.3596
370.2670, 240.3974
370.7491, 248.6383
371.2312, 254.9576
371.7133, 258.6974
372.1954, 262.1397
372.6776, 265.2444
373.1597, 268.1015
373.6418, 271.3456
374.1239, 274.5689
374.6060, 276.4161
375.0881, 275.7723
375.5703, 272.6795
376.0524, 268.7093
376.5345, 264.2188
377.0166, 258.4688
377.4987, 250.8082
377.9808, 241.8737
378.4630, 232.3557
378.9451, 222.5653
379.4272, 212.7763
379.9093, 203.6580
380.3914, 195.3957
380.8735, 187.5009
381.3557, 179.6345
381.8378, 172.2993
382.3199, 165.8708
382.8020, 160.3557
383.2841, 155.5067
383.7662, 151.0869
384.2484, 147.0809
384.7305, 143.4984
385.2126, 140.6649
385.6947, 137.9458
386.1768, 135.0788
386.6589, 132.1809
387.1411, 129.4993
387.6232, 127.1750
388.1053, 125.1624
388.5874, 123.2343
389.0695, 120.9519
389.5516, 119.6606
390.0338, 120.6406
390.5159, 122.0661
390.9980, 122.0754
391.4801, 120.1688
391.9622, 117.7331
392.4443, 116.4914
392.9265, 116.5683
393.4086, 116.6415
393.8907, 116.4116
394.3728, 116.2935
394.8549, 116.6765
395.3370, 117.4223
395.8192, 117.9843
396.3013, 117.7937
396.7834, 117.1579
397.2655, 117.1243
397.7476, 117.8446
398.2297, 118.7759
398.7119, 119.5095
399.1940, 120.3191
399.6761, 121.6823
400.1582, 123.9557
400.6403, 126.2812
401.1224, 127.5662
401.6046, 127.9009
402.0867, 128.6751
402.5688, 130.4179
403.0509, 132.6713
403.5330, 134.8653
404.0151, 136.9940
404.4973, 139.2112
404.9794, 141.8539
405.4615, 144.5530
405.9436, 146.6267
406.4257, 147.9505
406.9078, 148.9001
407.3900, 149.3328
407.8721, 149.5662
408.3542, 151.1006
408.8363, 155.5100
409.3184, 159.9257
409.8005, 161.9674
410.2827, 162.3330
410.7648, 163.5576
411.2469, 166.9371
411.7290, 171.4383
412.2111, 174.6208
412.6932, 175.8504
413.1754, 177.5548
413.6575, 180.4269
414.1396, 183.8167
414.6217, 187.1299
415.1038, 190.2371
415.5859, 193.2312
416.0681, 196.1978
416.5502, 199.1353
417.0323, 202.0317
417.5144, 205.4005
417.9965, 208.2112
418.4786, 209.8946
418.9608, 210.7267
419.4429, 211.3202
419.9250, 211.9991
420.4071, 212.5491
420.8892, 212.3741
421.3713, 211.2681
421.8535, 209.6582
422.3356, 208.0050
422.8177, 205.5972
423.2998, 201.5580
423.7819, 195.9767
424.2640, 190.0060
424.7462, 184.8626
425.2283, 180.6024
425.7104, 176.0378
426.1925, 171.2602
426.6746, 166.0278
427.1567, 159.5418
427.6389, 152.7205
428.1210, 146.9974
428.6031, 143.0822
429.0852, 140.4630
429.5673, 138.3310
430.0494, 136.9155
430.5316, 135.1497
431.0137, 132.2870
431.4958, 129.3421
431.9779, 126.9163
432.4600, 125.0620
432.9421, 123.5893
433.4243, 122.4886
433.9064, 121.6801
434.3885, 120.7805
434.8706, 119.6866
435.3527, 118.6947
435.8348, 117.8804
436.3170, 117.3067
436.7991, 117.1833
437.2812, 117.8730
437.7633, 118.5908
438.2454, 118.2986
438.7275, 117.2065
439.2097, 116.8577
439.6918, 117.9778
440.1739, 119.7800
440.6560, 121.2267
441.1381, 122.3789
441.6202, 123.0304
442.1024, 122.6095
442.5845, 121.9366
443.0666, 121.7419
443.5487, 122.1433
444.0308, 123.5040
444.5129, 126.4544
444.9951, 130.6775
445.4772, 133.2823
445.9593, 133.6108
446.4414, 133.3471
446.9235, 132.4720
447.4056, 131.4734
447.8878, 130.9874
448.3699, 131.2369
448.8520, 132.1856
449.3341, 133.8947
449.8162, 136.9211
450.2983, 139.0819
450.7805, 139.6232
451.2626, 140.1264
451.7447, 141.5452
452.2268, 143.6451
452.7089, 145.5757
453.1910, 146.7038
453.6732, 147.3319
454.1553, 148.8198
454.6374, 152.1244
455.1195, 154.6387
455.6016, 155.2148
456.0837, 155.4040
456.5659, 156.6032
457.0480, 159.0296
457.5301, 161.7075
458.0122, 163.6470
458.4943, 164.8680
458.9764, 166.0055
459.4586, 166.9631
459.9407, 168.0135
460.4228, 169.2881
460.9049, 170.7373
461.3870, 172.2477
461.8691, 173.6766
462.3513, 175.3192
462.8334, 177.8029
463.3155, 181.0765
463.7976, 183.6885
464.2797, 184.7390
464.7618, 185.4796
465.2440, 187.4396
465.7261, 190.5982
466.2082, 194.2914
466.6903, 199.0374
467.1724, 203.8170
467.6545, 206.9290
468.1367, 208.3703
468.6188, 210.3889
469.1009, 214.6554
469.5830, 220.6510
470.0651, 225.8462
470.5472, 229.4770
471.0294, 233.3468
471.5115, 238.2249
471.9936, 243.4537
472.4757, 248.2678
472.9578, 252.4495
473.4399, 256.1864
473.9221, 259.6105
474.4042, 262.5493
474.8863, 266.1942
475.3684, 271.1149
475.8505, 276.0786
476.3326, 280.9956
476.8148, 285.5581
477.2969, 289.2301
477.7790, 291.7097
478.2611, 293.4917
478.7432, 295.5575
479.2253, 297.9605
479.7075, 300.4780
480.1896, 303.9301
480.6717, 306.7791
481.1538, 307.8689
481.6359, 307.4464
482.1180, 306.7623
482.6002, 306.3849
483.0823, 306.4413
483.5644, 307.5367
484.0465, 310.0388
484.5286, 312.2057
485.0107, 312.9948
485.4929, 313.1612
485.9750, 313.4474
486.4571, 313.8297
486.9392, 314.8195
487.4213, 316.9514
487.9034, 319.8868
488.3856, 322.8647
488.8677, 325.7769
489.3498, 328.8341
489.8319, 332.4092
490.3140, 336.3865
490.7961, 339.4690
491.2783, 341.5448
491.7604, 342.8855
492.2425, 343.9540
492.7246, 344.3242
493.2067, 343.3043
493.6888, 340.6668
494.1710, 336.3559
494.6531, 330.2201
495.1352, 321.7354
495.6173, 312.9542
496.0994, 304.3194
496.5815, 295.0195
497.0637, 284.5392
497.5458, 273.1227
498.0279, 261.1694
498.5100, 248.8066
498.9921, 236.4847
499.4742, 225.0352
499.9564, 214.3560
500.4385, 204.9087
500.9206, 197.2882
501.4027, 190.4208
501.8848, 183.6734
502.3669, 177.0799
502.8491, 171.2581
503.3312, 166.9421
503.8133, 163.6265
504.2954, 159.9710
504.7775, 155.9273
505.2596, 151.8059
505.7418, 147.3026
506.2239, 143.1098
506.7060, 140.3045
507.1881, 139.2610
507.6702, 138.2883
508.1523, 136.3087
508.6345, 133.9275
509.1166, 132.1823
509.5987, 131.2218
510.0808, 130.5750
510.5629, 129.8829
511.0450, 129.1646
511.5272, 128.5954
512.0093, 128.2200
512.4914, 127.9141
512.9735, 127.2701
513.4556, 126.8220
513.9377, 127.5057
514.4199, 129.4748
514.9020, 131.7213
515.3841, 132.8693
515.8662, 132.6425
516.3483, 133.2114
516.8304, 135.3466
517.3126, 137.4822
517.7947, 139.3384
518.2768, 140.8713
518.7589, 141.8667
519.2410, 142.1946
519.7231, 142.6500
520.2053, 144.5858
520.6874, 148.1195
521.1695, 151.3333
521.6516, 153.7064
522.1337, 156.0594
522.6158, 158.9622
523.0980, 162.2871
523.5801, 165.6794
524.0622, 168.9333
524.5443, 172.2671
525.0264, 175.8873
525.5085, 179.7958
525.9907, 183.8069
526.4728, 187.8524
526.9549, 192.0473
527.4370, 196.6249
527.9191, 201.7036
528.4012, 206.6477
528.8834, 211.0402
529.3655, 215.5873
529.8476, 221.3242
530.3297, 227.6882
530.8118, 232.8726
531.2939, 235.8422
531.7761, 237.4937
532.2582, 240.1483
532.7403, 244.6871
533.2224, 248.6015
533.7045, 252.1518
534.1866, 254.8817
534.6688, 256.4548
535.1509, 256.9673
535.6330, 256.7749
536.1151, 256.1219
536.5972, 254.9027
537.0793, 252.7253
537.5615, 249.4419
538.0436, 245.8750
538.5257, 242.4693
539.0078, 238.7054
539.4899, 234.2143
539.9720, 228.9755
540.4542, 223.0518
540.9363, 215.9880
541.4184, 208.5191
541.9005, 201.6997
542.3826, 195.5488
542.8647, 189.5749
543.3469, 183.4260
543.8290, 177.3449
544.3111, 172.0393
544.7932, 168.0222
545.2753, 163.5089
545.7574, 157.6226
546.2396, 151.5554
546.7217, 146.3000
547.2038, 141.8726
547.6859, 137.8432
548.1680, 133.8733
548.6501, 130.0709
549.1323, 126.9590
549.6144, 125.0494
550.0965, 122.9808
550.5786, 120.7091
551.0607, 118.1595
551.5428, 114.9255
552.0250, 111.2300
552.5071, 108.1455
552.9892, 106.9276
553.4713, 106.7319
553.9534, 104.7706
554.4355, 100.5875
554.9177, 96.97090
555.3998, 95.30363
555.8819, 94.59120
556.3640, 93.41425
556.8461, 91.68871
557.3282, 90.06128
557.8104, 88.80520
558.2925, 87.75678
558.7746, 86.82153
559.2567, 85.94582
559.7388, 84.89709
560.2209, 83.47538
560.7031, 81.85947
561.1852, 80.61589
561.6673, 79.93563
562.1494, 79.36781
562.6315, 79.11638
563.1136, 78.81221
563.5958, 78.09232
564.0779, 77.04102
564.5600, 76.09232
565.0421, 75.60271
565.5242, 75.34854
566.0063, 74.37717
566.4885, 72.10094
566.9706, 70.84164
567.4527, 72.37708
567.9348, 74.21194
568.4169, 74.51411
568.8990, 73.37061
569.3812, 72.20301
569.8633, 72.06496
570.3454, 72.17480
570.8275, 71.11666
571.3096, 68.99561
571.7917, 67.41508
572.2739, 67.07805
572.7560, 67.57619
573.2381, 68.32633
573.7202, 69.53535
574.2023, 70.19215
574.6844, 70.00080
575.1666, 69.40771
575.6487, 68.43733
576.1308, 67.32632
576.6129, 66.61930
577.0950, 66.61562
577.5771, 66.95775
578.0593, 66.79232
578.5414, 65.77811
579.0235, 65.19024
579.5056, 65.43093
579.9877, 65.79762
580.4698, 66.14028
580.9520, 66.35419
581.4341, 66.24841
581.9162, 65.66923
582.3983, 64.87589
582.8804, 64.11030
583.3625, 63.39264
583.8447, 62.98666
584.3268, 62.98997
584.8089, 63.24133
585.2910, 63.73137
585.7731, 64.40860
586.2552, 64.70936
586.7374, 64.26234
587.2195, 63.76571
587.7016, 63.53461
588.1837, 63.51287
588.6658, 63.58131
589.1479, 63.70554
589.6301, 63.96251
590.1122, 64.51594
590.5943, 65.44798
591.0764, 65.87779
591.5585, 65.90105
592.0406, 65.25201
592.5228, 63.06758
593.0049, 60.55803
593.4870, 59.17094
593.9691, 59.26218
594.4512, 60.00790
594.9333, 60.88702
595.4155, 61.80615
595.8976, 62.32643
596.3797, 62.38218
596.8618, 62.19053
597.3439, 61.55801
597.8260, 60.90012
598.3082, 61.30801
598.7903, 63.53070
599.2724, 64.92551
599.7545, 63.78901
600.2366, 61.93447
600.7188, 61.37658
601.2009, 62.15120
601.6830, 63.07637
602.1651, 63.34987
602.6472, 63.17918
603.1293, 63.38491
603.6115, 64.56847
604.0936, 64.99560
604.5757, 64.04099
605.0578, 62.83148
605.5399, 61.78913
606.0220, 61.08386
606.5042, 61.03251
606.9863, 62.13482
607.4684, 63.49724
607.9505, 63.51062
608.4326, 62.21061
608.9147, 61.01051
609.3969, 60.15374
609.8790, 59.74369
610.3611, 60.14842
610.8432, 61.28019
611.3253, 61.99011
611.8074, 61.82168
612.2896, 61.55569
612.7717, 61.54673
613.2538, 61.73418
613.7359, 62.06331
614.2180, 62.49713
614.7001, 62.84194
615.1823, 62.81821
615.6644, 62.39147
616.1465, 62.33134
616.6286, 63.07727
617.1107, 63.58144
617.5928, 63.39225
618.0750, 62.95351
618.5571, 62.64087
619.0392, 62.54243
619.5213, 62.74121
620.0034, 63.70469
620.4855, 64.91246
620.9677, 64.99548
621.4498, 63.85957
621.9319, 62.85854
622.4140, 62.70361
622.8961, 63.03851
623.3782, 63.09999
623.8604, 62.76886
624.3425, 62.57865
624.8246, 62.65742
625.3067, 62.83471
625.7888, 63.10200
626.2709, 63.36521
626.7531, 63.43703
627.2352, 63.22297
627.7173, 62.82796
628.1994, 62.36454
628.6815, 61.74653
629.1636, 61.56527
629.6458, 62.31104
630.1279, 62.90149
630.6100, 62.50615
631.0921, 61.67683
631.5742, 61.50431
632.0563, 62.53919
632.5385, 63.40934
633.0206, 62.73802
633.5027, 61.30073
633.9848, 60.66317
634.4669, 61.04836
634.9490, 61.81638
635.4312, 62.57607
635.9133, 63.29434
636.3954, 63.81915
636.8775, 64.23934
637.3596, 64.31791
637.8417, 63.68215
638.3239, 62.99903
638.8060, 62.66356
639.2881, 62.71297
639.7702, 63.13703
640.2523, 64.04942
640.7344, 65.01943
641.2166, 65.05504
641.6987, 64.10251
642.1808, 63.46122
642.6629, 63.46560
643.1450, 63.70589
643.6271, 63.92042
644.1093, 64.08747
644.5914, 64.09279
645.0735, 63.77700
645.5556, 63.46137
646.0377, 63.22394
646.5198, 63.10773
647.0020, 63.30534
647.4841, 63.78428
647.9662, 64.08057
648.4483, 63.72018
648.9304, 62.84172
649.4125, 62.45316
649.8947, 62.90772
650.3768, 63.19468
650.8589, 62.68196
651.3410, 62.31321
651.8231, 63.11691
652.3052, 64.81660
652.7874, 65.87476
653.2695, 65.04893
653.7516, 63.65507
654.2337, 63.33689
654.7158, 63.89655
655.1979, 64.44151
655.6801, 64.72478
656.1622, 64.89444
656.6443, 65.13052
657.1264, 65.44662
657.6085, 65.54384
658.0906, 65.27702
658.5728, 65.00662
659.0549, 64.68596
