##NAMES=Adamite
##RRUFFID=R060593
##IDEAL CHEMISTRY=Zn^2+^_2_As^5+^O_4_(OH)
##LOCALITY=Tsumeb mine, Tsumeb, Otavi District, Oshikoto, Namibia
##OWNER=Michael Scott
##SOURCE=Michael Scott
##DESCRIPTION=Bluish-green prismatic crystals
##STATUS=The identification of this mineral has been confirmed by X-ray diffraction and chemical analysis
##URL=rruff.info/R060593
##MEASURED CHEMISTRY=(Zn_1.65_Cu_0.35_)_Î£=2_(As_1.00_O_4_)(OH) ; H not measured but estimated by difference and stoichiometry
177.7553, 936.2067
178.2374, 935.4492
178.7195, 934.4993
179.2017, 936.0396
179.6838, 939.1089
180.1659, 942.3464
180.6480, 945.7860
181.1301, 949.3973
181.6122, 953.5250
182.0944, 957.9657
182.5765, 961.8925
183.0586, 963.6545
183.5407, 964.8571
184.0228, 969.4545
184.5049, 977.7680
184.9871, 987.5380
185.4692, 996.8221
185.9513, 1005.525
186.4334, 1012.562
186.9155, 1015.851
187.3976, 1016.931
187.8798, 1021.548
188.3619, 1030.411
188.8440, 1040.620
189.3261, 1048.435
189.8082, 1053.993
190.2903, 1058.001
190.7725, 1059.911
191.2546, 1060.260
191.7367, 1062.234
192.2188, 1066.294
192.7009, 1071.173
193.1830, 1074.533
193.6652, 1076.355
194.1473, 1078.378
194.6294, 1081.151
195.1115, 1084.714
195.5936, 1090.309
196.0757, 1098.761
196.5579, 1107.946
197.0400, 1113.044
197.5221, 1113.631
198.0042, 1114.695
198.4863, 1119.367
198.9684, 1127.668
199.4506, 1135.919
199.9327, 1143.874
200.4148, 1151.556
200.8969, 1158.425
201.3790, 1164.181
201.8611, 1171.102
202.3433, 1181.613
202.8254, 1196.277
203.3075, 1207.649
203.7896, 1214.276
204.2717, 1217.996
204.7538, 1223.112
205.2360, 1229.637
205.7181, 1237.396
206.2002, 1247.114
206.6823, 1259.491
207.1644, 1269.023
207.6465, 1274.826
208.1287, 1277.729
208.6108, 1280.222
209.0929, 1282.239
209.5750, 1284.009
210.0571, 1286.005
210.5392, 1288.725
211.0214, 1289.342
211.5035, 1287.168
211.9856, 1282.917
212.4677, 1278.811
212.9498, 1274.747
213.4319, 1271.112
213.9140, 1267.888
214.3962, 1264.708
214.8783, 1263.441
215.3604, 1264.787
215.8425, 1268.103
216.3246, 1270.505
216.8067, 1271.119
217.2889, 1272.512
217.7710, 1276.140
218.2531, 1282.036
218.7352, 1290.184
219.2173, 1301.250
219.6994, 1314.673
220.1816, 1327.192
220.6637, 1338.540
221.1458, 1349.718
221.6279, 1360.747
222.1100, 1370.399
222.5921, 1383.493
223.0743, 1401.493
223.5564, 1423.260
224.0385, 1444.342
224.5206, 1463.591
225.0027, 1483.272
225.4848, 1504.758
225.9670, 1528.260
226.4491, 1552.880
226.9312, 1579.595
227.4133, 1607.496
227.8954, 1633.853
228.3775, 1659.283
228.8597, 1681.589
229.3418, 1699.223
229.8239, 1712.068
230.3060, 1720.618
230.7881, 1725.510
231.2702, 1726.151
231.7524, 1719.316
232.2345, 1703.552
232.7166, 1682.521
233.1987, 1658.034
233.6808, 1628.566
234.1629, 1598.956
234.6451, 1568.700
235.1272, 1538.335
235.6093, 1509.351
236.0914, 1480.309
236.5735, 1454.617
237.0556, 1434.199
237.5378, 1419.772
238.0199, 1409.248
238.5020, 1403.635
238.9841, 1401.875
239.4662, 1399.736
239.9483, 1396.162
240.4305, 1393.732
240.9126, 1393.750
241.3947, 1396.454
241.8768, 1401.140
242.3589, 1407.846
242.8410, 1416.475
243.3232, 1427.078
243.8053, 1440.580
244.2874, 1454.721
244.7695, 1468.130
245.2516, 1480.127
245.7337, 1493.008
246.2159, 1506.861
246.6980, 1521.654
247.1801, 1537.100
247.6622, 1553.687
248.1443, 1570.354
248.6264, 1586.449
249.1086, 1601.984
249.5907, 1617.240
250.0728, 1632.854
250.5549, 1648.033
251.0370, 1660.691
251.5191, 1670.782
252.0013, 1678.518
252.4834, 1684.033
252.9655, 1687.109
253.4476, 1688.420
253.9297, 1687.453
254.4118, 1684.985
254.8940, 1682.867
255.3761, 1681.922
255.8582, 1679.844
256.3403, 1675.495
256.8224, 1668.187
257.3046, 1660.868
257.7867, 1653.782
258.2688, 1646.549
258.7509, 1638.205
259.2330, 1627.844
259.7151, 1618.332
260.1973, 1610.798
260.6794, 1605.703
261.1615, 1601.247
261.6436, 1598.043
262.1257, 1595.023
262.6078, 1590.046
263.0900, 1582.043
263.5721, 1574.850
264.0542, 1570.114
264.5363, 1568.242
265.0184, 1565.838
265.5005, 1562.387
265.9827, 1559.018
266.4648, 1557.187
266.9469, 1556.911
267.4290, 1558.220
267.9111, 1561.385
268.3932, 1566.482
268.8754, 1571.738
269.3575, 1576.951
269.8396, 1582.554
270.3217, 1588.882
270.8038, 1595.740
271.2859, 1603.890
271.7681, 1613.831
272.2502, 1625.421
272.7323, 1636.590
273.2144, 1647.351
273.6965, 1657.248
274.1786, 1665.754
274.6608, 1672.929
275.1429, 1679.035
275.6250, 1685.154
276.1071, 1690.570
276.5892, 1689.670
277.0714, 1682.123
277.5535, 1669.239
278.0356, 1651.626
278.5177, 1629.067
278.9998, 1603.837
279.4819, 1575.817
279.9641, 1545.500
280.4462, 1515.953
280.9283, 1487.000
281.4104, 1459.174
281.8925, 1432.311
282.3746, 1406.401
282.8568, 1382.518
283.3389, 1360.681
283.8210, 1341.143
284.3031, 1325.131
284.7852, 1312.879
285.2673, 1301.996
285.7495, 1290.380
286.2316, 1278.225
286.7137, 1268.083
287.1958, 1260.601
287.6779, 1254.816
288.1600, 1248.999
288.6422, 1243.145
289.1243, 1237.111
289.6064, 1230.578
290.0885, 1223.708
290.5706, 1217.672
291.0527, 1212.531
291.5349, 1208.284
292.0170, 1205.293
292.4991, 1203.460
292.9812, 1201.580
293.4633, 1199.270
293.9454, 1196.431
294.4276, 1192.290
294.9097, 1186.481
295.3918, 1181.016
295.8739, 1178.814
296.3560, 1179.394
296.8381, 1180.354
297.3203, 1180.960
297.8024, 1181.105
298.2845, 1180.336
298.7666, 1178.563
299.2487, 1176.715
299.7308, 1175.193
300.2130, 1174.255
300.6951, 1174.659
301.1772, 1177.186
301.6593, 1180.971
302.1414, 1185.206
302.6235, 1189.832
303.1057, 1194.028
303.5878, 1196.144
304.0699, 1197.407
304.5520, 1200.109
305.0341, 1205.840
305.5162, 1212.535
305.9984, 1217.816
306.4805, 1221.905
306.9626, 1226.655
307.4447, 1233.771
307.9268, 1242.131
308.4089, 1250.199
308.8911, 1257.552
309.3732, 1264.570
309.8553, 1271.001
310.3374, 1277.172
310.8195, 1284.360
311.3016, 1293.667
311.7838, 1304.002
312.2659, 1314.721
312.7480, 1326.102
313.2301, 1336.724
313.7122, 1345.115
314.1943, 1352.244
314.6765, 1359.971
315.1586, 1369.554
315.6407, 1379.683
316.1228, 1389.916
316.6049, 1400.391
317.0870, 1409.905
317.5692, 1417.884
318.0513, 1424.532
318.5334, 1430.071
319.0155, 1432.953
319.4976, 1436.145
319.9797, 1441.694
320.4619, 1450.073
320.9440, 1456.416
321.4261, 1458.592
321.9082, 1458.291
322.3903, 1457.084
322.8724, 1458.256
323.3546, 1455.559
323.8367, 1446.294
324.3188, 1430.640
324.8009, 1414.272
325.2830, 1399.154
325.7651, 1383.138
326.2473, 1364.878
326.7294, 1342.227
327.2115, 1319.732
327.6936, 1296.816
328.1757, 1274.186
328.6578, 1254.229
329.1400, 1238.507
329.6221, 1224.178
330.1042, 1209.901
330.5863, 1194.905
331.0684, 1181.135
331.5505, 1168.189
332.0327, 1156.585
332.5148, 1147.805
332.9969, 1143.667
333.4790, 1139.811
333.9611, 1134.373
334.4432, 1126.401
334.9254, 1120.655
335.4075, 1118.287
335.8896, 1117.176
336.3717, 1114.304
336.8538, 1108.914
337.3359, 1103.589
337.8180, 1098.935
338.3001, 1094.972
338.7823, 1091.861
339.2644, 1089.977
339.7465, 1088.328
340.2286, 1086.012
340.7107, 1083.034
341.1928, 1079.533
341.6750, 1075.345
342.1571, 1070.779
342.6392, 1067.309
343.1213, 1065.028
343.6034, 1063.245
344.0855, 1061.590
344.5677, 1060.067
345.0498, 1058.194
345.5319, 1055.686
346.0140, 1053.212
346.4961, 1052.413
346.9782, 1053.217
347.4604, 1053.797
347.9425, 1052.339
348.4246, 1049.693
348.9067, 1049.397
349.3888, 1051.991
349.8709, 1055.174
350.3531, 1056.098
350.8352, 1055.213
351.3173, 1054.202
351.7994, 1053.781
352.2815, 1053.669
352.7636, 1053.004
353.2458, 1051.779
353.7279, 1051.474
354.2100, 1054.323
354.6921, 1058.788
355.1742, 1062.214
355.6563, 1063.633
356.1385, 1063.865
356.6206, 1063.050
357.1027, 1061.465
357.5848, 1060.523
358.0669, 1061.710
358.5490, 1063.613
359.0312, 1064.703
359.5133, 1064.072
359.9954, 1064.049
360.4775, 1066.956
360.9596, 1071.479
361.4417, 1074.776
361.9239, 1074.506
362.4060, 1073.673
362.8881, 1073.869
363.3702, 1075.362
363.8523, 1077.373
364.3344, 1080.297
364.8166, 1083.383
365.2987, 1085.787
365.7808, 1086.232
366.2629, 1087.000
366.7450, 1088.792
367.2271, 1091.614
367.7093, 1094.505
368.1914, 1096.928
368.6735, 1099.636
369.1556, 1103.159
369.6377, 1108.859
370.1198, 1113.550
370.6020, 1116.719
371.0841, 1118.721
371.5662, 1120.872
372.0483, 1123.343
372.5304, 1125.701
373.0125, 1127.887
373.4947, 1130.239
373.9768, 1131.294
374.4589, 1130.576
374.9410, 1128.952
375.4231, 1127.978
375.9052, 1128.196
376.3874, 1127.606
376.8695, 1125.757
377.3516, 1122.633
377.8337, 1117.936
378.3158, 1111.301
378.7979, 1104.036
379.2801, 1097.380
379.7622, 1091.294
380.2443, 1085.727
380.7264, 1080.779
381.2085, 1076.176
381.6906, 1070.668
382.1728, 1064.225
382.6549, 1058.772
383.1370, 1056.339
383.6191, 1056.135
384.1012, 1055.206
384.5833, 1053.167
385.0655, 1050.506
385.5476, 1047.476
386.0297, 1044.249
386.5118, 1041.645
386.9939, 1040.815
387.4760, 1040.514
387.9582, 1038.464
388.4403, 1034.593
388.9224, 1031.289
389.4045, 1031.188
389.8866, 1032.729
390.3687, 1033.698
390.8509, 1033.054
391.3330, 1031.983
391.8151, 1031.336
392.2972, 1030.995
392.7793, 1030.444
393.2614, 1028.562
393.7436, 1026.929
394.2257, 1026.800
394.7078, 1029.002
395.1899, 1031.207
395.6720, 1032.816
396.1541, 1033.852
396.6363, 1034.361
397.1184, 1033.240
397.6005, 1032.613
398.0826, 1033.266
398.5647, 1035.348
399.0468, 1037.761
399.5290, 1041.365
400.0111, 1044.717
400.4932, 1046.647
400.9753, 1045.717
401.4574, 1045.290
401.9395, 1045.597
402.4217, 1046.624
402.9038, 1048.367
403.3859, 1051.214
403.8680, 1054.218
404.3501, 1057.062
404.8322, 1059.930
405.3144, 1061.813
405.7965, 1062.369
406.2786, 1062.321
406.7607, 1062.640
407.2428, 1063.244
407.7249, 1064.710
408.2071, 1067.635
408.6892, 1071.666
409.1713, 1074.369
409.6534, 1075.615
410.1355, 1076.292
410.6176, 1077.096
411.0998, 1078.007
411.5819, 1078.883
412.0640, 1079.614
412.5461, 1080.427
413.0282, 1081.897
413.5103, 1083.893
413.9925, 1085.696
414.4746, 1086.685
414.9567, 1087.291
415.4388, 1088.326
415.9209, 1089.942
416.4030, 1091.252
416.8852, 1091.452
417.3673, 1090.877
417.8494, 1090.084
418.3315, 1088.872
418.8136, 1087.870
419.2957, 1087.881
419.7779, 1088.688
420.2600, 1088.814
420.7421, 1086.914
421.2242, 1084.502
421.7063, 1082.777
422.1884, 1082.459
422.6706, 1081.850
423.1527, 1080.591
423.6348, 1078.759
424.1169, 1076.500
424.5990, 1073.931
425.0811, 1070.799
425.5633, 1066.853
426.0454, 1061.944
426.5275, 1057.158
427.0096, 1051.896
427.4917, 1047.145
427.9738, 1043.657
428.4560, 1041.436
428.9381, 1040.578
429.4202, 1041.915
429.9023, 1044.449
430.3844, 1044.601
430.8665, 1041.695
431.3487, 1038.314
431.8308, 1035.706
432.3129, 1033.920
432.7950, 1032.207
433.2771, 1030.584
433.7592, 1029.021
434.2414, 1027.336
434.7235, 1025.575
435.2056, 1024.190
435.6877, 1023.152
436.1698, 1022.712
436.6519, 1024.086
437.1341, 1027.139
437.6162, 1029.390
438.0983, 1027.896
438.5804, 1024.650
439.0625, 1023.178
439.5446, 1024.307
440.0268, 1026.437
440.5089, 1028.742
440.9910, 1030.985
441.4731, 1032.654
441.9552, 1033.147
442.4373, 1033.291
442.9195, 1033.054
443.4016, 1032.503
443.8837, 1033.467
444.3658, 1038.765
444.8479, 1044.715
445.3300, 1048.336
445.8122, 1047.115
446.2943, 1046.088
446.7764, 1045.936
447.2585, 1046.569
447.7406, 1047.761
448.2227, 1049.993
448.7049, 1052.307
449.1870, 1054.632
449.6691, 1057.112
450.1512, 1058.469
450.6333, 1057.391
451.1154, 1056.620
451.5976, 1059.408
452.0797, 1067.513
452.5618, 1073.070
453.0439, 1073.997
453.5260, 1072.070
454.0081, 1073.120
454.4903, 1077.608
454.9724, 1082.173
455.4545, 1084.381
455.9366, 1084.735
456.4187, 1087.251
456.9008, 1092.243
457.3830, 1098.185
457.8651, 1102.925
458.3472, 1107.011
458.8293, 1112.189
459.3114, 1120.311
459.7935, 1128.502
460.2757, 1132.199
460.7578, 1132.297
461.2399, 1133.480
461.7220, 1139.868
462.2041, 1148.038
462.6862, 1154.580
463.1684, 1158.669
463.6505, 1162.638
464.1326, 1167.448
464.6147, 1172.869
465.0968, 1178.697
465.5789, 1184.756
466.0611, 1191.204
466.5432, 1198.379
467.0253, 1206.187
467.5074, 1213.762
467.9895, 1219.971
468.4716, 1226.802
468.9538, 1235.349
469.4359, 1247.006
469.9180, 1257.066
470.4001, 1265.121
470.8822, 1271.934
471.3643, 1278.438
471.8465, 1284.133
472.3286, 1291.062
472.8107, 1300.544
473.2928, 1311.676
473.7749, 1319.597
474.2570, 1323.787
474.7392, 1327.201
475.2213, 1332.248
475.7034, 1338.596
476.1855, 1344.134
476.6676, 1348.781
477.1497, 1352.164
477.6319, 1353.335
478.1140, 1352.728
478.5961, 1351.689
479.0782, 1350.466
479.5603, 1349.336
480.0424, 1349.319
480.5246, 1350.118
481.0067, 1349.389
481.4888, 1345.162
481.9709, 1339.033
482.4530, 1332.179
482.9352, 1324.305
483.4173, 1317.003
483.8994, 1311.442
484.3815, 1306.687
484.8636, 1301.377
485.3457, 1295.025
485.8279, 1288.280
486.3100, 1281.016
486.7921, 1273.229
487.2742, 1266.219
487.7563, 1259.954
488.2384, 1254.459
488.7206, 1249.844
489.2027, 1246.345
489.6848, 1243.309
490.1669, 1241.148
490.6490, 1239.019
491.1311, 1235.183
491.6133, 1229.346
492.0954, 1224.152
492.5775, 1220.782
493.0596, 1218.564
493.5417, 1215.013
494.0238, 1210.126
494.5060, 1204.391
494.9881, 1198.111
495.4702, 1191.269
495.9523, 1183.826
496.4344, 1175.933
496.9165, 1166.806
497.3987, 1154.506
497.8808, 1140.478
498.3629, 1127.691
498.8450, 1117.847
499.3271, 1109.229
499.8092, 1101.122
500.2914, 1093.399
500.7735, 1086.049
501.2556, 1078.955
501.7377, 1072.159
502.2198, 1065.613
502.7019, 1058.998
503.1841, 1053.328
503.6662, 1049.731
504.1483, 1046.729
504.6304, 1042.607
505.1125, 1036.472
505.5946, 1030.709
506.0768, 1025.361
506.5589, 1020.610
507.0410, 1017.432
507.5231, 1016.196
508.0052, 1015.465
508.4873, 1014.533
508.9695, 1013.401
509.4516, 1012.306
509.9337, 1011.232
510.4158, 1010.222
510.8979, 1009.264
511.3800, 1008.384
511.8622, 1007.840
512.3443, 1007.987
512.8264, 1008.068
513.3085, 1006.476
513.7906, 1003.787
514.2728, 1002.058
514.7549, 1004.064
515.2370, 1006.492
515.7191, 1005.753
516.2012, 1001.378
516.6833, 998.3771
517.1655, 1000.394
517.6476, 1004.096
518.1297, 1006.638
518.6118, 1006.695
519.0939, 1006.489
519.5760, 1005.875
520.0582, 1005.255
520.5403, 1005.539
521.0224, 1007.084
521.5045, 1009.035
521.9866, 1011.302
522.4688, 1013.887
522.9509, 1015.944
523.4330, 1017.100
523.9151, 1018.592
524.3972, 1021.756
524.8793, 1026.624
525.3615, 1030.375
525.8436, 1032.536
526.3257, 1034.181
526.8078, 1037.068
527.2899, 1040.910
527.7720, 1044.292
528.2542, 1046.134
528.7363, 1047.574
529.2184, 1050.146
529.7005, 1053.717
530.1826, 1057.689
530.6647, 1063.066
531.1469, 1067.849
531.6290, 1069.778
532.1111, 1067.761
532.5932, 1066.785
533.0753, 1070.370
533.5574, 1075.336
534.0396, 1078.320
534.5217, 1077.148
535.0038, 1075.892
535.4859, 1075.188
535.9680, 1074.828
536.4501, 1074.270
536.9323, 1074.327
537.4144, 1072.757
537.8965, 1067.984
538.3786, 1059.886
538.8607, 1054.867
539.3428, 1053.766
539.8250, 1053.237
540.3071, 1049.896
540.7892, 1044.108
541.2713, 1039.069
541.7534, 1035.499
542.2355, 1032.222
542.7177, 1027.437
543.1998, 1021.515
543.6819, 1015.771
544.1640, 1011.315
544.6461, 1007.037
545.1282, 1001.223
545.6104, 994.3043
546.0925, 988.7670
546.5746, 987.6589
547.0567, 987.1599
547.5388, 984.2908
548.0209, 977.5255
548.5031, 972.2424
548.9852, 970.7740
549.4673, 970.7097
549.9494, 969.4573
550.4315, 965.6541
550.9136, 962.7450
551.3958, 961.5166
551.8779, 961.2823
552.3600, 959.8028
552.8421, 956.5160
553.3242, 953.9606
553.8063, 954.0274
554.2885, 956.0734
554.7706, 954.2815
555.2527, 948.3187
555.7348, 942.0791
556.2169, 938.9206
556.6990, 938.1377
557.1812, 938.0905
557.6633, 938.7855
558.1454, 939.1783
558.6275, 937.8662
559.1096, 935.6145
559.5917, 933.7365
560.0739, 933.4451
560.5560, 933.0411
561.0381, 931.1500
561.5202, 928.2631
562.0023, 926.4845
562.4844, 927.8109
562.9666, 929.0858
563.4487, 928.5737
563.9308, 925.6104
564.4129, 924.1221
564.8950, 924.8894
565.3771, 926.2625
565.8593, 926.9866
566.3414, 927.0502
566.8235, 926.3494
567.3056, 924.5791
567.7877, 922.4760
568.2698, 921.3649
568.7520, 921.2065
569.2341, 921.4943
569.7162, 922.5493
570.1983, 923.6044
570.6804, 923.1097
571.1625, 921.2233
571.6447, 918.9815
572.1268, 916.0663
572.6089, 913.7100
573.0910, 913.4334
573.5731, 915.6326
574.0552, 918.0735
574.5374, 920.6844
575.0195, 922.5991
575.5016, 923.0203
575.9837, 919.5636
576.4658, 917.3464
576.9479, 917.5350
577.4301, 919.0396
577.9122, 919.6999
578.3943, 918.9391
578.8764, 918.4229
579.3585, 918.5902
579.8406, 919.3666
580.3228, 920.5563
580.8049, 922.3199
581.2870, 923.4407
581.7691, 922.8430
582.2512, 920.8942
582.7333, 918.8920
583.2155, 916.8721
583.6975, 915.2943
584.1796, 914.8508
584.6617, 915.0693
585.1439, 915.1198
585.6260, 914.5956
586.1081, 914.2164
586.5902, 914.7523
587.0723, 915.7166
587.5544, 916.1571
588.0366, 915.0873
588.5187, 914.1668
589.0008, 913.9358
589.4829, 914.3721
589.9650, 914.8500
590.4471, 915.0306
590.9293, 915.6656
591.4114, 917.5733
591.8935, 921.2926
592.3756, 922.0076
592.8577, 918.9114
593.3398, 914.9672
593.8220, 913.3869
594.3041, 913.8720
594.7862, 914.0247
595.2683, 913.3221
595.7504, 912.4191
596.2325, 912.1120
596.7147, 912.2893
597.1968, 912.6446
597.6789, 913.4287
598.1610, 914.0409
598.6431, 913.7703
599.1252, 912.8555
599.6074, 912.3845
600.0895, 913.4489
600.5716, 914.4447
601.0537, 914.4563
601.5358, 913.1080
602.0179, 912.3124
602.5001, 912.8557
602.9822, 913.1915
603.4643, 911.8548
603.9464, 907.9832
604.4285, 905.9584
604.9106, 906.4550
605.3928, 908.0853
605.8749, 908.5577
606.3570, 908.0076
606.8391, 908.2709
607.3212, 910.3113
607.8033, 912.9233
608.2855, 914.5075
608.7676, 915.1189
609.2497, 915.0330
609.7318, 913.9569
610.2139, 912.5436
610.6960, 910.9650
611.1782, 909.2795
611.6603, 908.5706
612.1424, 910.0294
612.6245, 911.9875
613.1066, 913.5179
613.5887, 914.8458
614.0709, 915.0207
614.5530, 913.3036
615.0351, 911.1251
615.5172, 909.9374
615.9993, 909.8659
616.4814, 910.3232
616.9636, 911.4714
617.4457, 912.7398
617.9278, 913.0031
618.4099, 912.3117
618.8920, 911.2496
619.3741, 909.4748
619.8563, 907.8609
620.3384, 908.2361
620.8205, 910.1748
621.3026, 911.5815
621.7847, 910.4677
622.2668, 908.9129
622.7490, 908.5098
623.2311, 909.4851
623.7132, 910.6205
624.1953, 912.7194
624.6774, 914.1162
625.1595, 913.5101
625.6417, 908.9644
626.1238, 906.3887
626.6059, 906.7068
627.0880, 908.0452
627.5701, 907.5858
628.0522, 905.0170
628.5344, 903.8841
629.0165, 905.3438
629.4986, 908.0125
629.9807, 909.3943
630.4628, 909.6003
630.9449, 909.2424
631.4271, 907.6962
631.9092, 906.3209
632.3913, 907.1832
632.8734, 909.8664
633.3555, 911.7651
633.8376, 911.0362
634.3198, 909.5410
634.8019, 908.1959
635.2840, 906.9771
635.7661, 906.5172
636.2482, 907.2382
636.7303, 908.4235
637.2125, 909.7077
637.6946, 911.3871
638.1767, 912.2525
638.6588, 912.0354
639.1409, 911.4103
639.6230, 911.5098
640.1052, 912.2607
640.5873, 912.2955
641.0694, 910.8961
641.5515, 909.2817
642.0336, 909.6600
642.5157, 911.4083
642.9979, 912.7145
643.4800, 912.3404
643.9621, 911.4735
644.4442, 910.7039
644.9263, 910.0887
645.4084, 909.8762
645.8906, 910.4474
646.3727, 911.1858
646.8548, 911.9001
647.3369, 912.6408
647.8190, 912.8850
648.3011, 912.2153
648.7833, 911.6764
649.2654, 912.1791
649.7475, 913.8388
650.2296, 915.2244
650.7117, 916.2701
651.1938, 917.0025
651.6760, 917.5198
652.1581, 917.7451
652.6402, 917.2240
653.1223, 915.2368
653.6044, 913.7307
654.0865, 915.4360
654.5687, 918.7488
655.0508, 920.5972
655.5329, 918.1331
656.0150, 915.7694
656.4971, 915.4525
656.9792, 916.7553
657.4614, 917.2469
657.9435, 915.9431
658.4256, 915.0716
658.9077, 915.5765
659.3898, 917.3710
659.8719, 918.2975
660.3541, 918.2390
660.8362, 917.8535
661.3183, 917.4020
661.8004, 916.9841
662.2825, 917.0591
662.7646, 917.6778
663.2468, 918.3624
663.7289, 918.8527
664.2110, 919.1000
664.6931, 919.0109
665.1752, 918.4831
665.6573, 917.8626
666.1395, 917.1360
666.6216, 916.4735
667.1037, 916.0816
667.5858, 915.6621
668.0679, 916.0175
668.5500, 917.6445
669.0322, 919.8871
669.5143, 921.3564
669.9964, 922.0506
670.4785, 921.8698
670.9606, 920.1719
671.4427, 917.9935
671.9249, 918.7772
