##NAMES=Adamite
##RRUFFID=R040130
##IDEAL CHEMISTRY=Zn^2+^_2_As^5+^O_4_(OH)
##LOCALITY=Mina Ojuela, Mapimi, Durango, Mexico
##OWNER=RRUFF
##SOURCE=Bob Downs
##DESCRIPTION=Pale yellow spherical aggregate of bladed crystals
##STATUS=The identification of this mineral has been confirmed by X-ray diffraction and chemical analysis
##URL=rruff.info/R040130
##MEASURED CHEMISTRY=Zn_1.97_(As_1.01_O_4_)(OH)
117.1625, 102.4842
117.6446, 109.1547
118.1267, 116.7127
118.6088, 125.0714
119.0909, 135.1595
119.5731, 148.5857
120.0552, 166.3734
120.5373, 185.8412
121.0194, 202.5294
121.5015, 214.9472
121.9836, 228.8216
122.4658, 245.1265
122.9479, 263.9672
123.4300, 285.9500
123.9121, 311.7006
124.3942, 339.9409
124.8763, 367.0467
125.3585, 391.0917
125.8406, 417.9853
126.3227, 449.1649
126.8048, 483.3786
127.2869, 520.0560
127.7690, 558.9794
128.2512, 599.3880
128.7333, 636.5569
129.2154, 665.2754
129.6975, 697.1984
130.1796, 737.2220
130.6617, 781.0107
131.1439, 822.2560
131.6260, 857.0397
132.1081, 886.1617
132.5902, 915.8497
133.0723, 953.8854
133.5544, 984.2358
134.0366, 1001.415
134.5187, 1008.692
135.0008, 1011.705
135.4829, 1014.053
135.9650, 1015.706
136.4471, 1015.701
136.9293, 1011.975
137.4114, 1008.863
137.8935, 1006.879
138.3756, 1006.487
138.8577, 1009.038
139.3398, 1016.327
139.8220, 1028.462
140.3041, 1032.614
140.7862, 1020.878
141.2683, 1010.561
141.7504, 1011.506
142.2325, 1021.392
142.7147, 1030.911
143.1968, 1033.647
143.6789, 1029.056
144.1610, 1017.935
144.6431, 997.3372
145.1252, 973.6343
145.6074, 949.4634
146.0895, 925.2106
146.5716, 901.0977
147.0537, 876.7709
147.5358, 852.5367
148.0179, 831.9644
148.5001, 816.5031
148.9822, 803.5424
149.4643, 791.7115
149.9464, 780.7707
150.4285, 770.0870
150.9106, 758.8238
151.3928, 747.2212
151.8749, 736.9378
152.3570, 725.3091
152.8391, 716.7299
153.3212, 716.5159
153.8033, 725.2464
154.2855, 736.2080
154.7676, 744.1545
155.2497, 749.9583
155.7318, 757.2825
156.2139, 768.8924
156.6960, 781.2208
157.1782, 790.7767
157.6603, 797.5151
158.1424, 800.7134
158.6245, 799.5475
159.1066, 794.3123
159.5887, 784.5879
160.0709, 763.0729
160.5530, 739.6683
161.0351, 729.9678
161.5172, 736.6534
161.9993, 748.4677
162.4814, 757.2224
162.9636, 765.2499
163.4457, 777.7377
163.9278, 800.1284
164.4099, 827.0147
164.8920, 847.1855
165.3741, 857.6221
165.8563, 869.7507
166.3384, 891.8895
166.8205, 920.3341
167.3026, 949.4213
167.7847, 977.0306
168.2668, 1003.895
168.7490, 1031.852
169.2311, 1061.627
169.7132, 1091.139
170.1953, 1121.640
170.6774, 1151.001
171.1595, 1175.574
171.6417, 1193.944
172.1238, 1206.359
172.6059, 1214.315
173.0880, 1220.555
173.5701, 1215.711
174.0522, 1193.319
174.5344, 1159.206
175.0165, 1121.349
175.4986, 1083.084
175.9807, 1043.744
176.4628, 999.8143
176.9449, 946.3962
177.4271, 897.6678
177.9092, 860.1624
178.3913, 829.6376
178.8734, 799.9478
179.3555, 766.2618
179.8376, 732.7543
180.3197, 711.7748
180.8019, 707.5167
181.2840, 709.5536
181.7661, 718.6776
182.2482, 729.7457
182.7303, 735.2234
183.2124, 729.8588
183.6946, 719.1826
184.1767, 719.8162
184.6588, 738.5742
185.1409, 757.2575
185.6230, 770.2837
186.1051, 780.6962
186.5873, 791.5797
187.0694, 804.0718
187.5515, 818.6708
188.0336, 837.0717
188.5157, 859.6152
188.9978, 885.7504
189.4800, 915.7830
189.9621, 948.2314
190.4442, 982.8811
190.9263, 1019.727
191.4084, 1056.537
191.8905, 1086.058
192.3727, 1097.011
192.8548, 1121.920
193.3369, 1173.860
193.8190, 1236.334
194.3011, 1293.445
194.7832, 1338.839
195.2654, 1378.235
195.7475, 1423.412
196.2296, 1477.083
196.7117, 1532.635
197.1938, 1588.045
197.6759, 1645.218
198.1581, 1706.170
198.6402, 1771.667
199.1223, 1839.369
199.6044, 1905.008
200.0865, 1968.040
200.5686, 2030.105
201.0508, 2089.419
201.5329, 2149.329
202.0150, 2211.754
202.4971, 2277.546
202.9792, 2345.521
203.4613, 2413.541
203.9435, 2479.241
204.4256, 2550.408
204.9077, 2631.059
205.3898, 2713.956
205.8719, 2795.065
206.3540, 2873.287
206.8362, 2949.055
207.3183, 3025.839
207.8004, 3111.038
208.2825, 3175.406
208.7646, 3224.418
209.2467, 3251.809
209.7289, 3249.710
210.2110, 3219.223
210.6931, 3170.319
211.1752, 3113.645
211.6573, 3049.777
212.1395, 2976.487
212.6216, 2884.183
213.1037, 2791.736
213.5858, 2705.212
214.0679, 2626.927
214.5500, 2558.618
215.0322, 2503.055
215.5143, 2461.915
215.9964, 2423.770
216.4785, 2382.558
216.9606, 2349.673
217.4427, 2330.211
217.9249, 2323.178
218.4070, 2324.044
218.8891, 2328.319
219.3712, 2335.716
219.8533, 2357.292
220.3354, 2406.860
220.8176, 2458.065
221.2997, 2499.995
221.7818, 2538.193
222.2639, 2584.337
222.7460, 2646.098
223.2281, 2723.304
223.7103, 2808.104
224.1924, 2890.887
224.6745, 2994.487
225.1566, 3131.917
225.6387, 3291.561
226.1208, 3456.619
226.6030, 3616.762
227.0851, 3775.133
227.5672, 3945.681
228.0493, 4146.486
228.5314, 4336.014
229.0135, 4510.266
229.4957, 4668.707
229.9778, 4816.530
230.4599, 4956.978
230.9420, 5075.954
231.4241, 5138.600
231.9062, 5130.982
232.3884, 5082.797
232.8705, 5002.422
233.3526, 4888.709
233.8347, 4727.386
234.3168, 4516.305
234.7989, 4287.842
235.2811, 4099.250
235.7632, 3962.904
236.2453, 3837.877
236.7274, 3706.023
237.2095, 3591.249
237.6916, 3509.226
238.1738, 3463.079
238.6559, 3444.498
239.1380, 3444.652
239.6201, 3464.812
240.1022, 3500.032
240.5843, 3554.228
241.0665, 3620.056
241.5486, 3692.185
242.0307, 3772.240
242.5128, 3867.788
242.9949, 3988.985
243.4770, 4138.021
243.9592, 4289.315
244.4413, 4447.641
244.9234, 4605.231
245.4055, 4758.957
245.8876, 4909.805
246.3697, 5059.617
246.8519, 5210.866
247.3340, 5363.758
247.8161, 5513.043
248.2982, 5671.633
248.7803, 5807.659
249.2624, 5915.029
249.7446, 5995.108
250.2267, 6050.748
250.7088, 6085.390
251.1909, 6095.112
251.6730, 6067.168
252.1551, 5992.665
252.6373, 5895.707
253.1194, 5785.769
253.6015, 5660.295
254.0836, 5512.788
254.5657, 5338.380
255.0478, 5151.180
255.5300, 4971.537
256.0121, 4801.135
256.4942, 4633.750
256.9763, 4465.770
257.4584, 4301.654
257.9406, 4142.497
258.4227, 3988.685
258.9048, 3842.433
259.3869, 3706.656
259.8690, 3581.463
260.3511, 3458.801
260.8333, 3333.387
261.3154, 3212.804
261.7975, 3099.437
262.2796, 2994.059
262.7617, 2899.535
263.2438, 2821.334
263.7260, 2756.830
264.2081, 2691.097
264.6902, 2619.688
265.1723, 2551.775
265.6544, 2494.680
266.1365, 2446.079
266.6187, 2399.512
267.1008, 2353.212
267.5829, 2306.617
268.0650, 2257.591
268.5471, 2204.821
269.0292, 2153.977
269.5114, 2111.268
269.9935, 2073.258
270.4756, 2033.891
270.9577, 1989.607
271.4398, 1945.002
271.9219, 1905.674
272.4041, 1871.678
272.8862, 1838.505
273.3683, 1802.727
273.8504, 1767.158
274.3325, 1737.731
274.8146, 1719.057
275.2968, 1698.528
275.7789, 1667.897
276.2610, 1628.403
276.7431, 1583.594
277.2252, 1531.976
277.7073, 1479.251
278.1895, 1434.661
278.6716, 1398.690
279.1537, 1366.000
279.6358, 1337.331
280.1179, 1310.198
280.6000, 1280.198
281.0822, 1246.028
281.5643, 1210.499
282.0464, 1176.434
282.5285, 1144.063
283.0106, 1112.484
283.4927, 1077.300
283.9749, 1045.634
284.4570, 1026.080
284.9391, 1018.475
285.4212, 1012.637
285.9033, 1000.120
286.3854, 981.0983
286.8676, 965.9871
287.3497, 957.9620
287.8318, 950.3624
288.3139, 938.8332
288.7960, 924.9561
289.2781, 913.7731
289.7603, 908.5228
290.2424, 907.3176
290.7245, 902.2664
291.2066, 889.1535
291.6887, 877.6746
292.1708, 872.1140
292.6530, 867.9623
293.1351, 857.8496
293.6172, 839.3772
294.0993, 819.1329
294.5814, 809.1274
295.0635, 816.2556
295.5457, 821.2191
296.0278, 825.2435
296.5099, 826.4163
296.9920, 821.1969
297.4741, 810.5167
297.9562, 800.3269
298.4384, 796.9573
298.9205, 801.4221
299.4026, 805.8127
299.8847, 810.1757
300.3668, 814.4185
300.8489, 819.2806
301.3311, 824.0005
301.8131, 826.1567
302.2953, 823.0795
302.7774, 817.3178
303.2595, 822.8125
303.7416, 850.5831
304.2237, 873.5696
304.7058, 882.7261
305.1880, 886.2841
305.6701, 892.9960
306.1522, 906.1227
306.6343, 922.8358
307.1164, 938.7224
307.5985, 953.4351
308.0807, 968.3848
308.5628, 986.6789
309.0449, 1003.177
309.5270, 1012.524
310.0091, 1015.074
310.4912, 1018.522
310.9734, 1030.400
311.4555, 1049.930
311.9376, 1068.704
312.4197, 1087.243
312.9018, 1103.095
313.3839, 1111.405
313.8661, 1115.841
314.3482, 1126.147
314.8303, 1150.241
315.3124, 1181.343
315.7945, 1207.457
316.2766, 1227.816
316.7588, 1247.371
317.2409, 1266.644
317.7230, 1287.421
318.2051, 1312.957
318.6872, 1345.558
319.1693, 1379.335
319.6515, 1412.014
320.1336, 1442.621
320.6157, 1466.304
321.0978, 1478.921
321.5799, 1487.524
322.0620, 1506.242
322.5442, 1538.119
323.0263, 1560.275
323.5084, 1567.433
323.9905, 1560.859
324.4726, 1539.548
324.9547, 1503.319
325.4369, 1461.086
325.9190, 1422.031
326.4011, 1386.721
326.8832, 1341.107
327.3653, 1274.440
327.8474, 1207.526
328.3296, 1150.753
328.8117, 1103.325
329.2938, 1061.507
329.7759, 1023.322
330.2580, 988.1528
330.7401, 954.4442
331.2223, 919.3225
331.7044, 889.0887
332.1865, 866.7770
332.6686, 848.4992
333.1507, 829.6470
333.6328, 809.0105
334.1150, 789.3109
334.5971, 774.6515
335.0792, 766.5894
335.5613, 759.7542
336.0434, 756.3194
336.5255, 752.0735
337.0077, 744.2723
337.4898, 733.5847
337.9719, 722.4186
338.4540, 712.1975
338.9361, 703.1685
339.4182, 697.7238
339.9004, 697.6418
340.3825, 698.8163
340.8646, 701.0705
341.3467, 703.3457
341.8288, 704.1736
342.3109, 702.8634
342.7931, 700.6310
343.2752, 699.0191
343.7573, 697.9663
344.2394, 698.0020
344.7215, 699.7515
345.2036, 702.3194
345.6858, 703.8600
346.1679, 704.4753
346.6500, 708.5737
347.1321, 722.2537
347.6142, 741.4821
348.0963, 754.7753
348.5785, 760.0037
349.0606, 762.4363
349.5427, 764.3647
350.0248, 766.5770
350.5069, 771.8036
350.9890, 782.6074
351.4712, 794.9839
351.9533, 805.9113
352.4354, 815.6017
352.9175, 824.6529
353.3996, 832.2250
353.8817, 840.6158
354.3639, 857.1035
354.8460, 885.6230
355.3281, 911.8978
355.8102, 929.3967
356.2923, 944.4838
356.7744, 964.1064
357.2566, 989.8901
357.7387, 1019.766
358.2208, 1051.785
358.7029, 1086.530
359.1850, 1120.648
359.6671, 1151.772
360.1493, 1184.535
360.6314, 1219.807
361.1135, 1258.393
361.5956, 1301.252
362.0777, 1349.127
362.5598, 1401.945
363.0420, 1460.225
363.5241, 1529.124
364.0062, 1595.262
364.4883, 1649.849
364.9704, 1705.691
365.4525, 1775.603
365.9347, 1861.161
366.4168, 1951.829
366.8989, 2031.400
367.3810, 2098.817
367.8631, 2183.855
368.3452, 2295.914
368.8274, 2417.545
369.3095, 2542.592
369.7916, 2669.975
370.2737, 2797.125
370.7558, 2924.453
371.2379, 3049.743
371.7201, 3169.593
372.2022, 3284.269
372.6843, 3390.052
373.1664, 3491.549
373.6485, 3577.093
374.1306, 3634.687
374.6128, 3664.682
375.0949, 3663.888
375.5770, 3628.348
376.0591, 3561.079
376.5412, 3466.269
377.0233, 3344.055
377.5055, 3198.971
377.9876, 3029.985
378.4697, 2834.429
378.9518, 2648.518
379.4339, 2470.555
379.9160, 2304.819
380.3982, 2157.031
380.8803, 2024.810
381.3624, 1903.067
381.8445, 1788.799
382.3266, 1683.699
382.8087, 1591.146
383.2909, 1517.253
383.7730, 1450.339
384.2551, 1391.354
384.7372, 1338.440
385.2193, 1288.903
385.7014, 1243.011
386.1836, 1204.011
386.6657, 1176.066
387.1478, 1159.747
387.6299, 1145.602
388.1120, 1134.724
388.5941, 1124.835
389.0763, 1112.471
389.5584, 1101.194
390.0405, 1097.173
390.5226, 1103.865
391.0047, 1116.307
391.4868, 1127.287
391.9690, 1136.673
392.4511, 1145.195
392.9332, 1150.256
393.4153, 1157.188
393.8974, 1171.480
394.3795, 1193.155
394.8617, 1215.630
395.3438, 1232.449
395.8259, 1249.078
396.3080, 1275.699
396.7901, 1313.463
397.2722, 1355.385
397.7544, 1397.555
398.2365, 1439.880
398.7186, 1482.536
399.2007, 1523.185
399.6828, 1566.277
400.1649, 1614.490
400.6471, 1665.966
401.1292, 1717.566
401.6113, 1768.544
402.0934, 1820.603
402.5755, 1876.957
403.0576, 1938.498
403.5398, 2001.354
404.0219, 2065.128
404.5040, 2130.965
404.9861, 2200.864
405.4682, 2273.584
405.9503, 2345.887
406.4325, 2415.989
406.9146, 2483.669
407.3967, 2546.325
407.8788, 2600.058
408.3609, 2656.676
408.8430, 2722.592
409.3252, 2789.649
409.8073, 2852.951
410.2894, 2911.340
410.7715, 2963.646
411.2536, 3007.131
411.7357, 3043.170
412.2179, 3076.916
412.7000, 3107.563
413.1821, 3138.327
413.6642, 3169.979
414.1463, 3203.435
414.6284, 3240.843
415.1106, 3288.801
415.5927, 3333.519
416.0748, 3365.854
416.5569, 3386.913
417.0390, 3399.070
417.5211, 3402.418
418.0033, 3399.461
418.4854, 3393.276
418.9675, 3382.767
419.4496, 3372.577
419.9317, 3369.333
420.4138, 3361.153
420.8960, 3348.703
421.3781, 3325.333
421.8602, 3273.453
422.3423, 3179.781
422.8244, 3051.865
423.3065, 2922.249
423.7887, 2785.789
424.2708, 2655.390
424.7529, 2535.135
425.2350, 2418.830
425.7171, 2302.609
426.1992, 2185.175
426.6814, 2067.802
427.1635, 1947.577
427.6456, 1825.190
428.1277, 1720.712
428.6098, 1637.720
429.0919, 1566.402
429.5741, 1506.927
430.0562, 1453.666
430.5383, 1397.708
431.0204, 1333.319
431.5025, 1273.675
431.9846, 1232.709
432.4668, 1206.078
432.9489, 1177.765
433.4310, 1142.950
433.9131, 1107.908
434.3952, 1079.705
434.8773, 1058.953
435.3595, 1042.054
435.8416, 1031.108
436.3237, 1022.039
436.8058, 1012.740
437.2879, 1003.228
437.7701, 994.1850
438.2522, 986.0627
438.7343, 977.9728
439.2164, 967.2221
439.6985, 948.2875
440.1806, 936.9255
440.6628, 935.4902
441.1449, 938.8742
441.6270, 946.7899
442.1091, 957.0242
442.5912, 963.8484
443.0733, 961.1993
443.5555, 952.4254
444.0376, 951.3487
444.5197, 960.9645
445.0018, 969.9031
445.4839, 974.2472
445.9660, 975.5373
446.4482, 972.9021
446.9303, 965.0218
447.4124, 962.9829
447.8945, 978.3430
448.3766, 1003.456
448.8587, 1022.717
449.3409, 1034.057
449.8230, 1040.495
450.3051, 1042.212
450.7872, 1040.462
451.2693, 1046.547
451.7514, 1068.969
452.2336, 1088.703
452.7157, 1097.212
453.1978, 1100.083
453.6799, 1106.226
454.1620, 1117.864
454.6441, 1128.592
455.1263, 1129.679
455.6084, 1119.355
456.0905, 1109.449
456.5726, 1101.363
457.0547, 1092.323
457.5368, 1080.650
458.0190, 1067.659
458.5011, 1055.104
458.9832, 1043.466
459.4653, 1033.713
459.9474, 1028.690
460.4295, 1028.540
460.9117, 1024.537
461.3938, 1013.707
461.8759, 1000.267
462.3580, 987.7385
462.8401, 975.9132
463.3222, 963.5120
463.8044, 947.7112
464.2865, 933.0582
464.7686, 924.2863
465.2507, 920.4276
465.7328, 917.7018
466.2149, 914.6816
466.6971, 911.1708
467.1792, 906.5931
467.6613, 898.6069
468.1434, 894.8058
468.6255, 893.5185
469.1076, 897.7178
469.5898, 914.2578
470.0719, 938.2858
470.5540, 956.4209
471.0361, 959.5400
471.5182, 953.1898
472.0003, 953.9902
472.4825, 964.7084
472.9646, 975.0294
473.4467, 981.4236
473.9288, 987.7043
474.4109, 997.0498
474.8930, 1009.194
475.3752, 1020.393
475.8573, 1027.805
476.3394, 1033.174
476.8215, 1037.221
477.3036, 1039.925
477.7857, 1050.452
478.2679, 1075.185
478.7500, 1109.142
479.2321, 1141.299
479.7142, 1172.589
480.1963, 1199.838
480.6784, 1216.911
481.1606, 1233.381
481.6427, 1258.063
482.1248, 1291.286
482.6069, 1328.310
483.0890, 1365.940
483.5711, 1404.318
484.0533, 1444.932
484.5354, 1486.482
485.0175, 1532.925
485.4996, 1586.738
485.9817, 1643.622
486.4638, 1698.849
486.9460, 1752.687
487.4281, 1809.966
487.9102, 1874.168
488.3923, 1944.783
488.8744, 2020.195
489.3565, 2100.117
489.8387, 2186.470
490.3208, 2286.073
490.8029, 2389.344
491.2850, 2476.347
491.7671, 2543.220
492.2492, 2605.888
492.7314, 2675.371
493.2135, 2739.641
493.6956, 2790.354
494.1777, 2823.742
494.6598, 2829.558
495.1419, 2798.421
495.6241, 2733.911
496.1062, 2657.962
496.5883, 2568.769
497.0704, 2469.947
497.5525, 2356.907
498.0346, 2237.927
498.5168, 2118.655
498.9989, 2000.519
499.4810, 1883.833
499.9631, 1765.366
500.4452, 1648.474
500.9273, 1549.670
501.4095, 1472.073
501.8916, 1398.664
502.3737, 1318.786
502.8558, 1240.845
503.3379, 1178.070
503.8200, 1133.123
504.3022, 1094.106
504.7843, 1059.064
505.2664, 1026.356
505.7485, 993.1260
506.2306, 959.9102
506.7127, 932.3745
507.1949, 914.6496
507.6770, 904.8115
508.1591, 894.5989
508.6412, 881.9905
509.1233, 872.0384
509.6054, 866.4980
510.0876, 862.4120
510.5697, 856.7332
511.0518, 850.0950
511.5339, 846.3071
512.0161, 848.7806
512.4982, 855.6287
512.9803, 861.0286
513.4624, 864.0667
513.9445, 871.3575
514.4266, 887.8544
514.9088, 907.5170
515.3909, 922.2173
515.8730, 931.6098
516.3551, 941.1218
516.8372, 950.8589
517.3193, 962.5783
517.8015, 978.1918
518.2836, 997.4153
518.7657, 1018.962
519.2478, 1042.023
519.7299, 1067.209
520.2120, 1095.872
520.6942, 1127.966
521.1763, 1164.129
521.6584, 1205.567
522.1405, 1249.300
522.6226, 1293.288
523.1047, 1338.419
523.5869, 1385.854
524.0690, 1435.560
524.5511, 1489.904
525.0332, 1555.131
525.5153, 1631.158
525.9974, 1703.768
526.4796, 1766.776
526.9617, 1830.094
527.4438, 1905.252
527.9259, 1990.982
528.4080, 2076.402
528.8901, 2158.447
529.3723, 2241.496
529.8544, 2325.963
530.3365, 2413.921
530.8186, 2509.031
531.3007, 2612.874
531.7828, 2721.569
532.2650, 2831.644
532.7471, 2945.979
533.2292, 3046.047
533.7113, 3121.559
534.1934, 3194.491
534.6755, 3280.525
535.1577, 3364.458
535.6398, 3425.062
536.1219, 3455.614
536.6040, 3470.816
537.0861, 3483.421
537.5682, 3491.659
538.0504, 3491.732
538.5325, 3484.365
539.0146, 3460.419
539.4967, 3413.420
539.9788, 3344.129
540.4609, 3259.153
540.9431, 3149.180
541.4252, 3037.171
541.9073, 2922.560
542.3894, 2811.415
542.8715, 2713.932
543.3536, 2627.350
543.8358, 2535.311
544.3179, 2423.354
544.8000, 2296.578
545.2821, 2176.227
545.7642, 2061.273
546.2463, 1955.950
546.7285, 1865.983
547.2106, 1783.582
547.6927, 1701.933
548.1748, 1621.402
548.6569, 1547.241
549.1390, 1485.038
549.6211, 1428.702
550.1032, 1371.926
550.5853, 1315.216
551.0674, 1263.344
551.5496, 1218.255
552.0317, 1175.669
552.5138, 1127.371
552.9959, 1067.434
553.4780, 1021.821
553.9601, 1001.274
554.4423, 981.1861
554.9244, 951.1862
555.4065, 915.2577
555.8886, 879.9439
556.3707, 847.4318
556.8528, 817.8390
557.3350, 790.9029
557.8171, 766.7841
558.2992, 747.3477
558.7813, 733.7449
559.2634, 721.7451
559.7455, 708.7070
560.2277, 695.1621
560.7098, 683.1667
561.1919, 675.5385
561.6740, 664.4932
562.1561, 642.0555
562.6382, 618.3820
563.1204, 606.4308
563.6025, 605.4854
564.0846, 603.1877
564.5667, 589.6579
565.0488, 569.1461
565.5309, 559.6827
566.0131, 568.4641
566.4952, 570.0840
566.9773, 551.2147
567.4594, 531.0178
567.9415, 523.5092
568.4236, 526.2313
568.9058, 525.3813
569.3879, 510.7502
569.8700, 493.9445
570.3521, 488.6463
570.8342, 491.2961
571.3163, 488.6572
571.7985, 476.1744
572.2806, 462.7233
572.7627, 459.9125
573.2448, 469.5936
573.7269, 472.2227
574.2090, 460.2328
574.6912, 450.6197
575.1733, 451.0476
575.6554, 454.2551
576.1375, 450.9314
576.6196, 439.4923
577.1017, 427.6616
577.5839, 422.1346
578.0660, 421.8110
578.5481, 424.4245
579.0302, 430.6476
579.5123, 433.1920
579.9944, 427.1996
580.4766, 416.9287
580.9587, 410.5521
581.4408, 408.5200
581.9229, 407.3417
582.4050, 409.1971
582.8871, 409.3996
583.3693, 402.5437
583.8514, 391.8456
584.3335, 384.9360
584.8156, 385.3886
585.2977, 388.4492
585.7798, 385.7693
586.2620, 376.5738
586.7441, 371.1584
587.2262, 372.2335
587.7083, 373.3936
588.1904, 368.9144
588.6725, 362.6582
589.1547, 361.8113
589.6368, 370.0661
590.1189, 376.4382
590.6010, 374.5577
591.0831, 368.4108
591.5652, 361.3368
592.0474, 354.6098
592.5295, 351.7661
593.0116, 355.7577
593.4937, 363.5924
593.9758, 365.6909
594.4579, 359.0347
594.9401, 353.8017
595.4222, 351.8151
595.9043, 350.5635
596.3864, 348.1629
596.8685, 345.5442
597.3506, 345.6794
597.8328, 351.7929
598.3149, 356.8166
598.7970, 351.9321
599.2791, 341.1774
599.7612, 335.4462
600.2433, 336.8295
600.7255, 340.0131
601.2076, 340.7107
601.6897, 339.1759
602.1718, 337.4886
602.6539, 336.5071
603.1360, 334.1238
603.6182, 327.7470
604.1003, 321.8517
604.5824, 319.6730
605.0645, 321.1809
605.5466, 324.8445
606.0287, 330.9053
606.5109, 337.1348
606.9930, 340.5340
607.4751, 341.1512
607.9572, 338.5718
608.4393, 331.7719
608.9214, 325.3329
609.4036, 324.1286
609.8857, 328.1948
610.3678, 331.3929
610.8499, 334.3271
611.3320, 335.7213
611.8141, 333.8090
612.2963, 331.1379
612.7784, 330.6087
613.2605, 332.2456
613.7426, 333.5468
