##NAMES=Adamite
##RRUFFID=R050020
##IDEAL CHEMISTRY=Zn^2+^_2_As^5+^O_4_(OH)
##LOCALITY=Mina Ojuela, Mapimi, Durango, Mexico
##OWNER=RRUFF
##SOURCE=Eugene Schlepp
##DESCRIPTION=Light green prismatic crystal
##STATUS=The identification of this mineral has been confirmed by X-ray diffraction and chemical analysis
##URL=rruff.info/R050020
##MEASURED CHEMISTRY=(Zn_1.97_Cu_0.03_)_Σ=2_((As_0.98_P_0.02_)_Σ=1_O_4_)(OH)
100.2884, 6.920293
100.7705, 4.903803
101.2526, 3.923966
101.7347, 4.819325
102.2169, 6.197635
102.6990, 6.878495
103.1811, 6.576571
103.6632, 5.846480
104.1453, 5.567822
104.6274, 5.949675
105.1096, 6.256825
105.5917, 6.496573
106.0738, 6.599402
106.5559, 6.349394
107.0380, 5.589860
107.5201, 4.747006
108.0023, 4.766733
108.4844, 5.821498
108.9665, 6.788595
109.4486, 7.342436
109.9307, 7.523264
110.4128, 7.406513
110.8950, 6.950178
111.3771, 6.271307
111.8592, 5.438323
112.3413, 4.188706
112.8234, 3.542580
113.3055, 4.300537
113.7877, 6.357862
114.2698, 8.865860
114.7519, 12.35548
115.2340, 15.51709
115.7161, 16.72738
116.1982, 15.39634
116.6804, 13.29888
117.1625, 11.83036
117.6446, 10.92596
118.1267, 11.13875
118.6088, 13.82001
119.0909, 17.26054
119.5731, 20.11085
120.0552, 21.93121
120.5373, 23.25626
121.0194, 24.72622
121.5015, 26.13434
121.9836, 28.32775
122.4658, 31.70016
122.9479, 35.85395
123.4300, 40.55107
123.9121, 45.78434
124.3942, 51.32615
124.8763, 56.43526
125.3585, 60.28679
125.8406, 65.30719
126.3227, 72.63766
126.8048, 81.03773
127.2869, 89.03126
127.7690, 95.69038
128.2512, 101.6537
128.7333, 109.2330
129.2154, 118.5856
129.6975, 129.6874
130.1796, 143.5047
130.6617, 158.7585
131.1439, 173.8193
131.6260, 187.7892
132.1081, 200.6505
132.5902, 212.2348
133.0723, 222.6347
133.5544, 231.5210
134.0366, 238.9894
134.5187, 244.8281
135.0008, 248.4823
135.4829, 249.3728
135.9650, 247.6631
136.4471, 246.7811
136.9293, 248.8160
137.4114, 249.4905
137.8935, 246.6507
138.3756, 241.3072
138.8577, 235.9719
139.3398, 232.5690
139.8220, 231.1274
140.3041, 228.3647
140.7862, 223.6188
141.2683, 218.5211
141.7504, 213.2125
142.2325, 208.0368
142.7147, 204.1021
143.1968, 202.6998
143.6789, 203.8476
144.1610, 201.8434
144.6431, 193.7055
145.1252, 185.3281
145.6074, 181.0647
146.0895, 180.4029
146.5716, 178.5988
147.0537, 171.0763
147.5358, 157.8587
148.0179, 149.2712
148.5001, 148.9362
148.9822, 150.4561
149.4643, 149.8245
149.9464, 146.7361
150.4285, 141.6894
150.9106, 134.0116
151.3928, 124.1846
151.8749, 116.9509
152.3570, 114.0255
152.8391, 112.9382
153.3212, 111.6046
153.8033, 109.8829
154.2855, 108.1436
154.7676, 106.2768
155.2497, 104.5645
155.7318, 104.2369
156.2139, 106.8169
156.6960, 110.2276
157.1782, 112.0736
157.6603, 112.1224
158.1424, 111.4239
158.6245, 109.9044
159.1066, 108.1685
159.5887, 107.9128
160.0709, 110.6730
160.5530, 114.7449
161.0351, 117.1366
161.5172, 117.0288
161.9993, 118.0490
162.4814, 125.2453
162.9636, 135.4049
163.4457, 142.5422
163.9278, 141.5847
164.4099, 137.1297
164.8920, 138.0696
165.3741, 146.1402
165.8563, 154.7612
166.3384, 158.8266
166.8205, 160.6861
167.3026, 164.3980
167.7847, 172.4181
168.2668, 183.0890
168.7490, 192.7582
169.2311, 200.9484
169.7132, 209.3219
170.1953, 218.7794
170.6774, 228.9803
171.1595, 239.5604
171.6417, 250.9982
172.1238, 262.4429
172.6059, 272.2233
173.0880, 281.5014
173.5701, 286.3516
174.0522, 284.7959
174.5344, 278.4499
175.0165, 269.1297
175.4986, 256.7944
175.9807, 242.5877
176.4628, 229.4145
176.9449, 217.3319
177.4271, 206.3026
177.9092, 196.6119
178.3913, 187.7281
178.8734, 178.9341
179.3555, 169.6819
179.8376, 160.3522
180.3197, 151.7728
180.8019, 143.2581
181.2840, 136.9685
181.7661, 134.3248
182.2482, 133.6291
182.7303, 132.9259
183.2124, 131.3507
183.6946, 129.0325
184.1767, 126.0893
184.6588, 121.3539
185.1409, 118.1910
185.6230, 117.5186
186.1051, 118.5957
186.5873, 120.8420
187.0694, 124.1894
187.5515, 127.9888
188.0336, 130.4810
188.5157, 130.7413
188.9978, 131.2033
189.4800, 132.3549
189.9621, 133.9491
190.4442, 135.7030
190.9263, 137.4650
191.4084, 139.4267
191.8905, 141.8656
192.3727, 143.8860
192.8548, 148.2613
193.3369, 157.7268
193.8190, 168.3045
194.3011, 175.7845
194.7832, 178.4547
195.2654, 178.6972
195.7475, 181.7519
196.2296, 189.6232
196.7117, 196.6820
197.1938, 201.2957
197.6759, 205.4090
198.1581, 210.7586
198.6402, 217.9327
199.1223, 226.0855
199.6044, 233.6661
200.0865, 240.4084
200.5686, 247.0966
201.0508, 253.6942
201.5329, 260.3584
202.0150, 267.2202
202.4971, 274.3267
202.9792, 281.4164
203.4613, 287.6934
203.9435, 291.3823
204.4256, 298.4482
204.9077, 312.0433
205.3898, 326.5645
205.8719, 338.8161
206.3540, 347.9265
206.8362, 354.3507
207.3183, 357.8151
207.8004, 355.2459
208.2825, 357.7390
208.7646, 372.6139
209.2467, 386.3997
209.7289, 390.6025
210.2110, 384.6659
210.6931, 374.2137
211.1752, 365.6308
211.6573, 359.8603
212.1395, 352.6341
212.6216, 342.5922
213.1037, 332.4057
213.5858, 323.7976
214.0679, 316.5206
214.5500, 308.8398
215.0322, 298.5914
215.5143, 284.9883
215.9964, 274.3217
216.4785, 268.2608
216.9606, 263.4861
217.4427, 258.9004
217.9249, 254.5347
218.4070, 250.8945
218.8891, 248.4428
219.3712, 247.2018
219.8533, 246.3625
220.3354, 246.5105
220.8176, 246.5062
221.2997, 245.3660
221.7818, 243.8405
222.2639, 243.2913
222.7460, 244.5770
223.2281, 247.7117
223.7103, 252.7299
224.1924, 261.9587
224.6745, 270.6721
225.1566, 277.0015
225.6387, 282.3859
226.1208, 288.9839
226.6030, 298.0285
227.0851, 309.1732
227.5672, 321.1429
228.0493, 336.4128
228.5314, 349.0503
229.0135, 356.8360
229.4957, 362.0624
229.9778, 367.5202
230.4599, 374.5055
230.9420, 381.8193
231.4241, 386.8183
231.9062, 390.6290
232.3884, 389.5055
232.8705, 379.7196
233.3526, 367.4077
233.8347, 358.7491
234.3168, 355.6327
234.7989, 353.5425
235.2811, 343.8462
235.7632, 321.4477
236.2453, 303.5040
236.7274, 291.9560
237.2095, 284.1951
237.6916, 279.6156
238.1738, 277.6423
238.6559, 276.2448
239.1380, 272.0555
239.6201, 263.1237
240.1022, 258.7517
240.5843, 261.2345
241.0665, 266.7203
241.5486, 275.1898
242.0307, 285.6551
242.5128, 295.1883
242.9949, 299.8717
243.4770, 298.9578
243.9592, 302.3737
244.4413, 313.9961
244.9234, 326.6657
245.4055, 338.1472
245.8876, 348.5400
246.3697, 358.6703
246.8519, 369.5038
247.3340, 380.8088
247.8161, 389.6718
248.2982, 393.5229
248.7803, 398.3848
249.2624, 408.9242
249.7446, 421.3998
250.2267, 429.3684
250.7088, 428.4890
251.1909, 421.9165
251.6730, 419.2247
252.1551, 423.3450
252.6373, 425.3117
253.1194, 420.9485
253.6015, 413.7557
254.0836, 408.1736
254.5657, 406.4967
255.0478, 404.3245
255.5300, 392.8856
256.0121, 368.8649
256.4942, 348.3050
256.9763, 338.6734
257.4584, 332.6827
257.9406, 325.0738
258.4227, 314.7204
258.9048, 304.3763
259.3869, 297.7458
259.8690, 295.0742
260.3511, 289.9143
260.8333, 278.2145
261.3154, 266.0865
261.7975, 257.7165
262.2796, 253.2166
262.7617, 250.4574
263.2438, 249.2846
263.7260, 249.0651
264.2081, 245.5925
264.6902, 236.0759
265.1723, 226.9203
265.6544, 223.5015
266.1365, 224.3588
266.6187, 224.7957
267.1008, 221.9503
267.5829, 217.3030
268.0650, 213.9701
268.5471, 212.2177
269.0292, 211.1572
269.5114, 211.3586
269.9935, 211.7619
270.4756, 210.2708
270.9577, 205.3948
271.4398, 199.1837
271.9219, 193.3008
272.4041, 187.7006
272.8862, 183.9199
273.3683, 183.5996
273.8504, 185.2812
274.3325, 186.0540
274.8146, 185.6525
275.2968, 184.5798
275.7789, 183.3552
276.2610, 181.8050
276.7431, 178.9814
277.2252, 174.0432
277.7073, 168.3530
278.1895, 163.9731
278.6716, 160.7727
279.1537, 158.8865
279.6358, 159.6660
280.1179, 161.5146
280.6000, 161.5460
281.0822, 159.0031
281.5643, 155.3571
282.0464, 151.9637
282.5285, 148.7707
283.0106, 146.7300
283.4927, 146.7224
283.9749, 147.4310
284.4570, 148.1273
284.9391, 148.6119
285.4212, 147.9563
285.9033, 144.9980
286.3854, 139.8254
286.8676, 136.5389
287.3497, 135.4259
287.8318, 135.7081
288.3139, 137.8701
288.7960, 141.2086
289.2781, 144.0199
289.7603, 145.3600
290.2424, 145.4683
290.7245, 145.2807
291.2066, 144.5168
291.6887, 143.8254
292.1708, 143.6767
292.6530, 143.5197
293.1351, 142.1091
293.6172, 139.0666
294.0993, 136.1594
294.5814, 136.7797
295.0635, 144.7468
295.5457, 148.9414
296.0278, 146.0602
296.5099, 142.0650
296.9920, 141.7433
297.4741, 145.2092
297.9562, 148.7214
298.4384, 147.8730
298.9205, 141.3840
299.4026, 139.5757
299.8847, 146.9673
300.3668, 154.3710
300.8489, 158.8022
301.3310, 160.7798
301.8131, 161.8674
302.2953, 162.9344
302.7774, 164.1215
303.2595, 166.3131
303.7416, 171.2292
304.2237, 174.5213
304.7058, 172.1160
305.1880, 169.1695
305.6701, 171.8922
306.1522, 182.7116
306.6343, 197.2470
307.1164, 208.2559
307.5985, 214.6179
308.0807, 221.4665
308.5628, 230.6279
309.0449, 239.8737
309.5270, 248.1503
310.0091, 255.2661
310.4912, 260.9164
310.9734, 263.4919
311.4555, 263.5149
311.9376, 266.8452
312.4197, 274.7274
312.9018, 284.9603
313.3839, 298.2893
313.8661, 312.8735
314.3482, 323.4896
314.8303, 323.4349
315.3124, 319.8913
315.7945, 327.3188
316.2766, 347.7776
316.7588, 366.9554
317.2409, 374.5985
317.7230, 376.7938
318.2051, 383.8207
318.6872, 398.7675
319.1693, 415.2762
319.6515, 428.8178
320.1336, 439.8517
320.6157, 450.8375
321.0978, 462.8443
321.5799, 474.6246
322.0620, 484.4886
322.5442, 492.6296
323.0263, 498.7239
323.5084, 503.7023
323.9905, 506.1746
324.4726, 504.4480
324.9547, 498.2258
325.4369, 487.7728
325.9190, 472.4899
326.4011, 451.7720
326.8832, 432.9596
327.3653, 417.6805
327.8474, 402.6479
328.3296, 386.2817
328.8117, 368.5874
329.2938, 349.6719
329.7759, 329.1938
330.2580, 308.0329
330.7401, 290.8570
331.2223, 280.3721
331.7044, 270.4645
332.1865, 260.2933
332.6686, 250.4618
333.1507, 242.0531
333.6328, 235.2866
334.1150, 228.7584
334.5971, 219.9561
335.0792, 206.9259
335.5613, 197.1306
336.0434, 191.9625
336.5255, 188.3811
337.0077, 184.8147
337.4898, 181.4413
337.9719, 179.5525
338.4540, 180.7644
338.9361, 184.4779
339.4182, 185.0140
339.9004, 179.3961
340.3825, 174.9678
340.8646, 174.2887
341.3467, 175.7241
341.8288, 177.5243
342.3109, 179.2308
342.7931, 180.1596
343.2752, 178.6021
343.7573, 173.9794
344.2394, 170.9615
344.7215, 170.6434
345.2036, 172.5132
345.6858, 177.0494
346.1679, 184.1319
346.6500, 190.3142
347.1321, 193.0019
347.6142, 193.1402
348.0963, 192.9673
348.5785, 192.2634
349.0606, 192.6270
349.5427, 196.2691
350.0248, 202.1236
350.5069, 207.0456
350.9890, 210.4241
351.4712, 212.7430
351.9533, 213.5403
352.4354, 213.2884
352.9175, 214.3873
353.3996, 217.9649
353.8817, 223.5899
354.3639, 230.4984
354.8460, 239.3584
355.3281, 247.7431
355.8102, 254.1915
356.2923, 260.2875
356.7744, 268.1252
357.2566, 278.0947
357.7387, 288.3559
358.2208, 296.5119
358.7029, 301.5792
359.1850, 310.4479
359.6671, 324.9780
360.1493, 340.7873
360.6314, 356.8686
361.1135, 372.6543
361.5956, 386.6791
362.0777, 397.7360
362.5598, 407.8658
363.0420, 425.0891
363.5241, 455.9322
364.0062, 483.5021
364.4883, 503.9291
364.9704, 521.8082
365.4525, 539.9204
365.9347, 559.2042
366.4168, 581.0846
366.8989, 606.6707
367.3810, 636.1430
367.8631, 670.1595
368.3452, 713.4552
368.8274, 755.8942
369.3095, 791.2657
369.7916, 822.0477
370.2737, 854.0849
370.7558, 890.4322
371.2379, 929.3828
371.7201, 968.5030
372.2022, 1007.942
372.6843, 1045.998
373.1664, 1085.906
373.6485, 1120.764
374.1306, 1141.275
374.6128, 1145.401
375.0949, 1141.444
375.5770, 1135.676
376.0591, 1124.491
376.5412, 1099.673
377.0233, 1058.999
377.5055, 1008.678
377.9876, 953.0343
378.4697, 891.5201
378.9518, 832.7188
379.4339, 777.4976
379.9160, 724.5093
380.3982, 672.3733
380.8803, 622.0312
381.3624, 576.9881
381.8445, 539.3306
382.3266, 507.4895
382.8087, 476.0206
383.2909, 440.0042
383.7730, 411.7350
384.2551, 396.5493
384.7372, 385.8192
385.2193, 371.9682
385.7014, 354.1809
386.1836, 337.1592
386.6657, 326.1738
387.1478, 321.6116
387.6299, 316.4318
388.1120, 309.6272
388.5941, 303.3392
389.0763, 297.7634
389.5584, 293.2578
390.0405, 290.5571
390.5226, 290.1882
391.0047, 291.0155
391.4868, 290.5738
391.9690, 288.4238
392.4511, 289.3203
392.9332, 295.8212
393.4153, 304.8590
393.8974, 313.9164
394.3795, 322.9418
394.8617, 330.8773
395.3438, 335.8545
395.8259, 339.8651
396.3080, 345.8943
396.7901, 354.1504
397.2722, 365.2889
397.7544, 381.2363
398.2365, 400.5252
398.7186, 415.6932
399.2007, 421.1855
399.6828, 428.6951
400.1649, 443.7449
400.6471, 463.5242
401.1292, 483.6830
401.6113, 502.9085
402.0934, 521.8133
402.5755, 541.7631
403.0576, 563.9620
403.5398, 583.0651
404.0219, 594.8167
404.5040, 608.0277
404.9861, 630.7141
405.4682, 658.8386
405.9503, 680.8062
406.4325, 688.0678
406.9146, 686.5553
407.3967, 698.3696
407.8788, 732.2874
408.3609, 761.5129
408.8430, 779.6688
409.3252, 792.4847
409.8073, 804.1454
410.2894, 815.3353
410.7715, 824.4316
411.2536, 828.8188
411.7357, 829.5386
412.2179, 832.2700
412.7000, 838.5987
413.1821, 843.9725
413.6642, 844.9243
414.1463, 842.6719
414.6284, 839.2087
415.1106, 835.4442
415.5927, 829.8820
416.0748, 821.0671
416.5569, 809.5193
417.0390, 796.2634
417.5211, 781.1813
418.0033, 766.5005
418.4854, 756.7093
418.9675, 755.6408
419.4496, 745.6022
419.9317, 717.1295
420.4138, 686.8425
420.8960, 666.8506
421.3781, 655.2841
421.8602, 643.1260
422.3423, 624.3743
422.8244, 600.6384
423.3065, 579.1496
423.7887, 563.4360
424.2708, 544.2348
424.7529, 517.7396
425.2350, 489.6056
425.7171, 464.3514
426.1992, 442.5848
426.6814, 422.4566
427.1635, 402.0706
427.6456, 381.4525
428.1277, 362.8974
428.6098, 346.8534
429.0919, 332.0970
429.5741, 317.5219
430.0562, 303.8088
430.5383, 292.3283
431.0204, 283.8944
431.5025, 276.6709
431.9846, 269.3110
432.4668, 261.9285
432.9489, 254.9478
433.4310, 248.5026
433.9131, 242.3844
434.3952, 236.1672
434.8773, 229.7861
435.3595, 224.6859
435.8416, 222.9320
436.3237, 220.7157
436.8058, 215.6173
437.2879, 208.1210
437.7701, 198.7820
438.2522, 187.5469
438.7343, 176.9374
439.2164, 173.9280
439.6985, 185.4993
440.1806, 192.2814
440.6628, 191.7071
441.1449, 188.6921
441.6270, 185.6204
442.1091, 183.0032
442.5912, 180.8906
443.0733, 179.5861
443.5555, 178.7285
444.0376, 176.4277
444.5197, 171.4509
445.0018, 168.5015
445.4839, 171.4227
445.9660, 176.2392
446.4482, 179.1623
446.9303, 179.5821
447.4124, 179.2129
447.8945, 178.8983
448.3766, 178.5722
448.8587, 177.6208
449.3409, 175.8230
449.8230, 175.4670
450.3051, 179.1353
450.7872, 186.1892
451.2693, 190.0828
451.7514, 189.0337
452.2336, 187.1736
452.7157, 185.0136
453.1978, 183.1521
453.6799, 182.5784
454.1620, 183.5134
454.6441, 185.1264
455.1263, 186.7013
455.6084, 188.7686
456.0905, 187.7843
456.5726, 178.9111
457.0547, 171.9036
457.5368, 171.3605
458.0190, 174.2604
458.5011, 175.4888
458.9832, 172.7165
459.4653, 168.3896
459.9474, 166.0185
460.4295, 165.6437
460.9117, 165.1287
461.3938, 164.3586
461.8759, 162.9190
462.3580, 159.4911
462.8401, 154.6886
463.3222, 151.9903
463.8044, 154.2579
464.2865, 157.5047
464.7686, 158.0769
465.2507, 156.4764
465.7328, 154.9411
466.2149, 154.4431
466.6971, 154.5103
467.1792, 154.2358
467.6613, 153.3772
468.1434, 152.6735
468.6255, 152.0415
469.1076, 151.6300
469.5898, 151.5114
470.0719, 151.6982
470.5540, 152.1342
471.0361, 152.7363
471.5182, 153.6955
472.0003, 155.8628
472.4825, 160.0325
472.9646, 163.1994
473.4467, 164.7682
473.9288, 165.0262
474.4109, 163.0372
474.8930, 159.2451
475.3752, 156.9635
475.8573, 159.6456
476.3394, 164.4277
476.8215, 166.2840
477.3036, 165.0751
477.7857, 163.1741
478.2679, 161.3829
478.7500, 159.9584
479.2321, 159.7878
479.7142, 161.8727
480.1963, 162.5703
480.6784, 158.7761
481.1606, 154.9180
481.6427, 156.1782
482.1248, 161.9813
482.6069, 166.9974
483.0890, 167.0268
483.5711, 163.1940
484.0533, 161.9488
484.5354, 166.1301
485.0175, 168.1982
485.4996, 165.7305
485.9817, 161.9560
486.4638, 159.0167
486.9460, 157.3257
487.4281, 156.7811
487.9102, 157.3172
488.3923, 158.9340
488.8744, 162.4455
489.3565, 168.5395
489.8387, 172.2955
490.3208, 169.2492
490.8029, 163.2978
491.2850, 162.8529
491.7671, 170.0108
492.2492, 176.4897
492.7314, 179.6597
493.2135, 180.5764
493.6956, 180.0822
494.1777, 178.4276
494.6598, 175.9341
495.1419, 172.6986
495.6241, 168.9357
496.1062, 165.9735
496.5883, 164.6568
497.0704, 162.9943
497.5525, 161.1769
498.0346, 158.6856
498.5168, 154.9667
498.9989, 150.0495
499.4810, 144.5373
499.9631, 138.4238
500.4452, 132.1212
500.9273, 127.3635
501.4095, 124.3336
501.8916, 122.0921
502.3737, 120.5150
502.8558, 119.3460
503.3379, 118.1576
503.8200, 116.9167
504.3022, 115.7861
504.7843, 114.2816
505.2664, 113.2354
505.7485, 114.1550
506.2306, 116.8229
506.7127, 119.2291
507.1949, 120.0930
507.6770, 119.5557
508.1591, 118.1666
508.6412, 114.0614
509.1233, 111.8972
509.6054, 113.7442
510.0876, 116.1156
510.5697, 115.8010
511.0518, 113.2483
511.5339, 111.8260
512.0161, 114.5977
512.4982, 119.8208
512.9803, 122.0742
513.4624, 120.5060
513.9445, 121.2073
514.4266, 127.5902
514.9088, 136.2036
515.3909, 142.7008
515.8730, 147.0275
516.3551, 150.3247
516.8372, 152.8431
517.3193, 154.5703
517.8015, 154.2506
518.2836, 152.8520
518.7657, 154.2970
519.2478, 160.9209
519.7299, 170.4553
520.2120, 177.4534
520.6942, 180.3954
521.1763, 183.6809
521.6584, 186.1312
522.1405, 189.9528
522.6226, 197.1877
523.1047, 206.7998
523.5869, 215.8760
524.0690, 222.6483
524.5511, 228.7670
525.0332, 236.8364
525.5153, 246.8505
525.9974, 258.0996
526.4796, 271.3499
526.9617, 284.2805
527.4438, 292.9174
527.9259, 298.0110
528.4080, 306.7419
528.8901, 322.7679
529.3723, 340.0977
529.8544, 355.7803
530.3365, 370.1284
530.8186, 384.1044
531.3007, 398.0656
531.7828, 410.6512
532.2650, 419.0685
532.7471, 421.6352
533.2292, 430.8868
533.7113, 455.5193
534.1934, 476.9915
534.6755, 487.5652
535.1577, 492.5005
535.6398, 499.5272
536.1219, 511.1584
536.6040, 522.3834
537.0861, 529.9525
537.5682, 533.4159
538.0504, 529.9757
538.5325, 518.5941
539.0146, 505.9427
539.4967, 496.9112
539.9788, 490.5307
540.4609, 482.1188
540.9431, 469.6069
541.4252, 458.0278
541.9073, 449.2689
542.3894, 441.3385
542.8715, 433.4142
543.3536, 424.6354
543.8358, 412.7632
544.3179, 395.5752
544.8000, 374.2659
545.2821, 353.4592
545.7642, 331.8903
546.2463, 314.4048
546.7285, 306.3987
547.2106, 299.9885
547.6926, 288.1576
548.1747, 271.2890
548.6569, 256.3706
549.1390, 249.1072
549.6211, 243.5431
550.1032, 231.9437
550.5853, 215.8479
551.0674, 202.7635
551.5496, 195.7356
552.0317, 192.2137
552.5138, 188.1574
552.9959, 183.3882
553.4780, 178.6252
553.9601, 173.7574
554.4423, 168.9898
554.9244, 163.8351
555.4065, 159.0068
555.8886, 156.2695
556.3707, 156.3526
556.8528, 155.8698
557.3350, 149.1965
557.8171, 137.4433
558.2992, 130.1659
558.7813, 129.2924
559.2634, 129.5622
559.7455, 127.6823
560.2277, 124.2857
560.7098, 121.6030
561.1919, 120.2928
561.6740, 118.5596
562.1561, 115.2473
562.6382, 111.5994
563.1204, 108.6830
563.6025, 106.7371
564.0846, 105.9352
564.5667, 106.5926
565.0488, 108.1356
565.5309, 108.3165
566.0131, 106.8873
566.4952, 104.7165
566.9773, 100.1830
567.4594, 96.39186
567.9415, 96.16465
568.4236, 98.73394
568.9058, 100.2877
569.3879, 98.64076
569.8700, 95.80360
570.3521, 93.54576
570.8342, 91.78430
571.3163, 90.37473
571.7985, 89.32039
572.2806, 88.08026
572.7627, 85.82327
573.2448, 82.27608
573.7269, 80.26383
574.2090, 81.29688
574.6912, 81.95604
575.1733, 80.51807
575.6554, 78.72124
576.1375, 78.91215
576.6196, 81.44273
577.1017, 84.01344
577.5839, 84.35876
578.0660, 83.07948
578.5481, 82.04436
579.0302, 81.24576
579.5123, 81.15662
579.9944, 82.66373
580.4766, 84.42034
580.9587, 83.62512
581.4408, 79.92651
581.9229, 75.84028
582.4050, 69.01543
582.8871, 64.36372
583.3693, 67.45079
583.8514, 75.03759
584.3335, 79.87302
584.8156, 78.60129
585.2977, 74.12895
585.7798, 70.34920
586.2620, 67.12728
586.7441, 66.62619
587.2262, 70.59653
587.7083, 74.58257
588.1904, 76.65435
588.6725, 76.92310
589.1547, 74.90659
589.6368, 69.12368
590.1189, 64.81971
590.6010, 65.39235
591.0831, 68.38678
591.5652, 71.48192
592.0474, 74.05114
592.5295, 74.82690
593.0116, 72.68961
593.4937, 68.94817
593.9758, 67.88496
594.4579, 71.27811
594.9401, 73.12937
595.4222, 71.82685
595.9043, 69.86465
596.3864, 68.20607
