##NAMES=Adamite
##RRUFFID=R040130
##IDEAL CHEMISTRY=Zn^2+^_2_As^5+^O_4_(OH)
##LOCALITY=Mina Ojuela, Mapimi, Durango, Mexico
##OWNER=RRUFF
##SOURCE=Bob Downs
##DESCRIPTION=Pale yellow spherical aggregate of bladed crystals
##STATUS=The identification of this mineral has been confirmed by X-ray diffraction and chemical analysis
##URL=rruff.info/R040130
##MEASURED CHEMISTRY=Zn_1.97_(As_1.01_O_4_)(OH)
134.7162, 8595.391
135.1983, 8834.937
135.6804, 9079.439
136.1626, 9336.593
136.6447, 9584.360
137.1268, 9777.060
137.6089, 9906.229
138.0910, 10004.66
138.5731, 10085.34
139.0553, 10149.81
139.5374, 10192.99
140.0195, 10208.96
140.5016, 10204.10
140.9837, 10201.05
141.4658, 10197.07
141.9480, 10199.14
142.4301, 10214.34
142.9122, 10253.68
143.3943, 10282.04
143.8764, 10289.64
144.3585, 10277.12
144.8407, 10280.58
145.3228, 10304.89
145.8049, 10341.52
146.2870, 10382.01
146.7691, 10417.06
147.2512, 10467.34
147.7334, 10537.72
148.2155, 10632.08
148.6976, 10732.25
149.1797, 10834.20
149.6618, 10943.47
150.1439, 11066.24
150.6261, 11215.91
151.1082, 11365.63
151.5903, 11507.79
152.0724, 11640.05
152.5545, 11768.80
153.0366, 11898.99
153.5188, 12025.14
154.0009, 12135.97
154.4830, 12231.53
154.9651, 12311.35
155.4472, 12375.73
155.9293, 12419.57
156.4115, 12455.39
156.8936, 12480.23
157.3757, 12497.67
157.8578, 12520.38
158.3399, 12561.78
158.8221, 12603.96
159.3042, 12635.65
159.7863, 12645.58
160.2684, 12652.96
160.7505, 12660.55
161.2326, 12669.23
161.7148, 12685.32
162.1969, 12707.29
162.6790, 12739.74
163.1611, 12786.67
163.6432, 12867.55
164.1253, 12949.19
164.6075, 13008.57
165.0896, 13044.68
165.5717, 13088.94
166.0538, 13166.44
166.5359, 13261.91
167.0180, 13353.56
167.5002, 13432.68
167.9823, 13505.17
168.4644, 13575.45
168.9465, 13644.02
169.4286, 13709.03
169.9107, 13768.12
170.3929, 13822.32
170.8750, 13875.38
171.3571, 13934.92
171.8392, 13991.16
172.3213, 14033.96
172.8034, 14061.62
173.2856, 14075.74
173.7677, 14073.89
174.2498, 14058.35
174.7319, 14037.14
175.2140, 14006.22
175.6961, 13974.69
176.1783, 13958.76
176.6604, 13966.92
177.1425, 13981.81
177.6246, 13978.60
178.1067, 13960.42
178.5888, 13947.48
179.0710, 13959.74
179.5531, 13988.09
180.0352, 14011.74
180.5173, 14022.29
180.9994, 14029.18
181.4815, 14049.69
181.9637, 14083.59
182.4458, 14117.70
182.9279, 14138.65
183.4100, 14149.98
183.8921, 14165.17
184.3742, 14187.17
184.8564, 14215.94
185.3385, 14252.98
185.8206, 14299.20
186.3027, 14346.65
186.7848, 14386.06
187.2669, 14418.68
187.7491, 14455.52
188.2312, 14501.96
188.7133, 14555.45
189.1954, 14607.66
189.6775, 14658.07
190.1596, 14708.19
190.6418, 14766.04
191.1239, 14830.82
191.6060, 14881.44
192.0881, 14895.01
192.5702, 14878.87
193.0524, 14900.91
193.5345, 14966.78
194.0166, 15055.71
194.4987, 15138.99
194.9808, 15216.60
195.4629, 15289.00
195.9451, 15353.37
196.4272, 15410.71
196.9093, 15472.41
197.3914, 15542.74
197.8735, 15611.27
198.3556, 15653.46
198.8378, 15664.86
199.3199, 15677.35
199.8020, 15709.37
200.2841, 15761.97
200.7662, 15812.87
201.2483, 15858.10
201.7305, 15903.38
202.2126, 15966.72
202.6947, 16053.68
203.1768, 16138.01
203.6589, 16197.83
204.1410, 16226.27
204.6232, 16276.61
205.1053, 16358.88
205.5874, 16463.69
206.0695, 16563.85
206.5516, 16663.59
207.0337, 16747.60
207.5159, 16803.88
207.9980, 16827.84
208.4801, 16841.34
208.9622, 16847.23
209.4443, 16844.64
209.9264, 16829.96
210.4086, 16804.50
210.8907, 16764.08
211.3728, 16701.70
211.8549, 16608.15
212.3370, 16522.21
212.8191, 16448.96
213.3013, 16388.13
213.7834, 16330.18
214.2655, 16269.51
214.7476, 16220.61
215.2297, 16201.85
215.7118, 16228.93
216.1940, 16240.02
216.6761, 16212.68
217.1582, 16150.31
217.6403, 16137.63
218.1224, 16195.63
218.6045, 16275.35
219.0867, 16329.34
219.5688, 16345.89
220.0509, 16362.87
220.5330, 16384.98
221.0151, 16412.33
221.4972, 16454.38
221.9794, 16518.20
222.4615, 16589.20
222.9436, 16649.47
223.4257, 16684.25
223.9078, 16740.30
224.3899, 16831.95
224.8721, 16963.61
225.3542, 17088.25
225.8363, 17203.14
226.3184, 17314.61
226.8005, 17435.09
227.2827, 17577.31
227.7648, 17701.90
228.2469, 17792.45
228.7290, 17841.53
229.2111, 17915.72
229.6932, 18039.96
230.1754, 18168.25
230.6575, 18241.38
231.1396, 18245.64
231.6217, 18216.88
232.1038, 18157.75
232.5859, 18060.44
233.0681, 17976.80
233.5502, 17920.93
234.0323, 17868.96
234.5144, 17780.10
234.9965, 17622.33
235.4786, 17482.68
235.9608, 17387.05
236.4429, 17341.83
236.9250, 17316.47
237.4071, 17316.53
237.8892, 17333.29
238.3713, 17352.99
238.8535, 17373.35
239.3356, 17400.45
239.8177, 17435.53
240.2998, 17477.85
240.7819, 17532.27
241.2640, 17604.31
241.7462, 17686.09
242.2283, 17762.58
242.7104, 17821.83
243.1925, 17895.58
243.6746, 17996.71
244.1567, 18134.24
244.6389, 18272.21
245.1210, 18419.24
245.6031, 18561.36
246.0852, 18668.53
246.5673, 18717.35
247.0494, 18771.35
247.5316, 18858.29
248.0137, 18997.15
248.4958, 19104.63
248.9779, 19173.47
249.4600, 19214.33
249.9421, 19245.76
250.4243, 19271.84
250.9064, 19281.73
251.3885, 19270.17
251.8706, 19232.78
252.3527, 19188.01
252.8348, 19137.30
253.3170, 19078.57
253.7991, 19006.23
254.2812, 18914.33
254.7633, 18821.80
255.2454, 18737.97
255.7275, 18670.48
256.2097, 18583.20
256.6918, 18463.04
257.1739, 18333.08
257.6560, 18235.83
258.1381, 18180.36
258.6202, 18139.00
259.1024, 18106.41
259.5845, 18091.00
260.0666, 18046.74
260.5487, 17955.47
261.0308, 17849.25
261.5129, 17785.87
261.9951, 17779.07
262.4772, 17783.83
262.9593, 17787.46
263.4414, 17793.99
263.9235, 17777.27
264.4056, 17726.71
264.8878, 17662.53
265.3699, 17618.72
265.8520, 17598.06
266.3341, 17588.93
266.8162, 17590.65
267.2983, 17606.64
267.7805, 17610.74
268.2626, 17599.89
268.7447, 17580.46
269.2268, 17563.42
269.7089, 17549.81
270.1910, 17534.81
270.6732, 17514.61
271.1553, 17488.03
271.6374, 17469.74
272.1195, 17462.23
272.6016, 17459.35
273.0837, 17453.29
273.5659, 17445.00
274.0480, 17428.56
274.5301, 17394.66
275.0122, 17342.12
275.4943, 17316.82
275.9764, 17327.22
276.4586, 17348.98
276.9407, 17342.26
277.4228, 17303.49
277.9049, 17268.38
278.3870, 17255.16
278.8691, 17262.36
279.3513, 17254.21
279.8334, 17227.31
280.3155, 17193.76
280.7976, 17168.38
281.2798, 17151.53
281.7619, 17140.05
282.2440, 17132.86
282.7261, 17130.07
283.2082, 17134.02
283.6903, 17146.20
284.1725, 17159.71
284.6546, 17165.14
285.1367, 17162.78
285.6188, 17160.59
286.1009, 17158.93
286.5830, 17159.47
287.0652, 17175.76
287.5473, 17211.29
288.0294, 17240.80
288.5115, 17227.79
288.9936, 17177.58
289.4757, 17135.01
289.9579, 17117.88
290.4400, 17118.26
290.9221, 17108.74
291.4042, 17087.57
291.8863, 17078.43
292.3684, 17122.86
292.8506, 17205.73
293.3327, 17260.41
293.8148, 17247.33
294.2969, 17204.22
294.7790, 17213.58
295.2611, 17275.60
295.7433, 17335.99
296.2254, 17340.65
296.7075, 17305.69
297.1896, 17275.77
297.6717, 17260.71
298.1538, 17259.30
298.6360, 17275.99
299.1181, 17309.36
299.6002, 17340.90
300.0823, 17348.53
300.5644, 17345.41
301.0465, 17357.59
301.5287, 17398.09
302.0108, 17448.76
302.4929, 17490.07
302.9750, 17523.42
303.4571, 17554.43
303.9392, 17594.95
304.4214, 17633.35
304.9035, 17652.50
305.3856, 17638.66
305.8677, 17619.44
306.3498, 17616.86
306.8319, 17628.67
307.3141, 17647.10
307.7962, 17671.58
308.2783, 17698.38
308.7604, 17723.21
309.2425, 17741.88
309.7246, 17764.82
310.2068, 17806.00
310.6889, 17857.69
311.1710, 17900.29
311.6531, 17920.83
312.1352, 17930.88
312.6173, 17937.00
313.0995, 17937.82
313.5816, 17941.78
314.0637, 17951.22
314.5458, 17966.69
315.0279, 17989.16
315.5100, 18026.10
315.9922, 18064.83
316.4743, 18098.45
316.9564, 18125.21
317.4385, 18150.89
317.9206, 18174.12
318.4027, 18198.16
318.8849, 18227.58
319.3670, 18273.57
319.8491, 18316.39
320.3312, 18346.25
320.8133, 18359.67
321.2954, 18377.82
321.7776, 18413.86
322.2597, 18453.32
322.7418, 18480.73
323.2239, 18498.84
323.7060, 18499.78
324.1881, 18472.38
324.6703, 18412.87
325.1524, 18371.33
325.6345, 18368.23
326.1166, 18375.86
326.5987, 18372.11
327.0808, 18365.91
327.5630, 18337.32
328.0451, 18269.12
328.5272, 18164.42
329.0093, 18091.75
329.4914, 18069.06
329.9735, 18063.55
330.4557, 18054.25
330.9378, 18033.78
331.4199, 18022.98
331.9020, 18029.10
332.3841, 18047.05
332.8662, 18051.03
333.3484, 18034.17
333.8305, 18013.72
334.3126, 17997.04
334.7947, 17981.25
335.2768, 17980.63
335.7589, 18004.53
336.2411, 18039.23
336.7232, 18047.41
337.2053, 18020.18
337.6874, 17992.22
338.1695, 17978.30
338.6516, 17978.98
339.1338, 17991.12
339.6159, 18017.26
340.0980, 18050.59
340.5801, 18082.02
341.0622, 18112.69
341.5443, 18133.50
342.0265, 18135.07
342.5086, 18120.52
342.9907, 18123.32
343.4728, 18147.50
343.9549, 18173.17
344.4370, 18167.29
344.9192, 18134.29
345.4013, 18117.77
345.8834, 18146.02
346.3655, 18198.30
346.8476, 18210.99
347.3297, 18182.61
347.8119, 18156.46
348.2940, 18179.39
348.7761, 18238.26
349.2582, 18294.33
349.7403, 18342.63
350.2225, 18378.29
350.7046, 18386.50
351.1867, 18370.86
351.6688, 18358.38
352.1509, 18369.74
352.6331, 18396.36
353.1152, 18426.87
353.5973, 18462.45
354.0794, 18494.34
354.5615, 18508.66
355.0436, 18511.55
355.5258, 18521.68
356.0079, 18551.41
356.4900, 18591.70
356.9721, 18636.69
357.4542, 18687.90
357.9363, 18735.55
358.4185, 18768.15
358.9006, 18794.09
359.3827, 18827.89
359.8648, 18879.05
360.3469, 18936.50
360.8290, 18997.63
361.3112, 19064.00
361.7933, 19121.88
362.2754, 19164.61
362.7575, 19198.00
363.2396, 19228.49
363.7217, 19236.74
364.2039, 19262.60
364.6860, 19317.63
365.1681, 19402.55
365.6502, 19502.04
366.1323, 19637.15
366.6144, 19773.17
367.0966, 19886.44
367.5787, 19948.79
368.0608, 20020.52
368.5429, 20106.56
369.0250, 20205.70
369.5071, 20309.41
369.9893, 20417.63
370.4714, 20529.96
370.9535, 20649.97
371.4356, 20793.63
371.9177, 20904.64
372.3998, 20973.34
372.8820, 21013.79
373.3641, 21057.15
373.8462, 21108.38
374.3283, 21150.09
374.8104, 21185.84
375.2925, 21221.17
375.7747, 21180.01
376.2568, 21046.46
376.7389, 20867.36
377.2210, 20702.81
377.7031, 20553.69
378.1852, 20405.67
378.6674, 20242.95
379.1495, 20078.09
379.6316, 19968.03
380.1137, 19918.59
380.5958, 19879.71
381.0779, 19804.54
381.5601, 19698.83
382.0422, 19594.79
382.5243, 19490.85
383.0064, 19400.31
383.4885, 19349.99
383.9706, 19336.04
384.4528, 19333.54
384.9349, 19334.56
385.4170, 19333.54
385.8991, 19318.56
386.3812, 19283.48
386.8633, 19248.15
387.3455, 19223.77
387.8276, 19212.90
388.3097, 19221.31
388.7918, 19276.13
389.2739, 19335.97
389.7560, 19364.04
390.2382, 19355.10
390.7203, 19343.39
391.2024, 19339.36
391.6845, 19345.36
392.1666, 19364.16
392.6487, 19415.32
393.1309, 19462.05
393.6130, 19481.90
394.0951, 19478.13
394.5772, 19488.84
395.0593, 19539.05
395.5414, 19597.16
396.0236, 19642.86
396.5057, 19646.46
396.9878, 19669.74
397.4699, 19731.22
397.9520, 19818.16
398.4341, 19890.05
398.9163, 19943.58
399.3984, 19985.08
399.8805, 20009.72
400.3626, 19995.86
400.8447, 20033.07
401.3268, 20150.29
401.8090, 20297.18
402.2911, 20403.31
402.7732, 20453.84
403.2553, 20499.22
403.7374, 20549.99
404.2195, 20606.28
404.7017, 20671.02
405.1838, 20744.87
405.6659, 20826.29
406.1480, 20920.27
406.6301, 21027.67
407.1122, 21114.92
407.5944, 21167.39
408.0765, 21205.46
408.5586, 21280.89
409.0407, 21393.28
409.5228, 21508.84
410.0049, 21613.46
410.4871, 21703.16
410.9692, 21760.30
411.4513, 21775.75
411.9334, 21788.83
412.4155, 21848.21
412.8976, 21943.31
413.3798, 22040.60
413.8619, 22142.70
414.3440, 22230.64
414.8261, 22276.87
415.3082, 22281.33
415.7903, 22285.68
416.2725, 22322.40
416.7546, 22372.32
417.2367, 22414.79
417.7188, 22442.60
418.2009, 22461.30
418.6830, 22469.86
419.1652, 22470.25
419.6473, 22469.44
420.1294, 22504.00
420.6115, 22512.86
421.0937, 22457.01
421.5758, 22299.43
422.0579, 22148.00
422.5400, 22024.23
423.0221, 21913.12
423.5042, 21787.34
423.9864, 21639.09
424.4685, 21485.13
424.9506, 21319.91
425.4327, 21142.52
425.9148, 20994.26
426.3969, 20881.95
426.8791, 20790.98
427.3612, 20713.65
427.8433, 20656.89
428.3254, 20591.42
428.8075, 20508.58
429.2896, 20416.28
429.7718, 20342.18
430.2539, 20286.73
430.7360, 20245.39
431.2181, 20224.28
431.7002, 20221.04
432.1823, 20198.56
432.6645, 20151.58
433.1466, 20096.54
433.6287, 20051.42
434.1108, 20016.72
434.5929, 19995.94
435.0750, 20001.52
435.5572, 20017.48
436.0393, 20011.03
436.5214, 19983.40
437.0035, 19960.60
437.4856, 19971.35
437.9677, 19997.29
438.4499, 20012.78
438.9320, 20009.19
439.4141, 19997.32
439.8962, 19974.01
440.3783, 19947.46
440.8604, 19938.12
441.3426, 19970.31
441.8247, 20010.89
442.3068, 20041.16
442.7889, 20057.09
443.2710, 20072.18
443.7531, 20100.04
444.2353, 20124.91
444.7174, 20129.79
445.1995, 20074.81
445.6816, 20040.58
446.1637, 20044.98
446.6458, 20084.92
447.1280, 20132.22
447.6101, 20204.12
448.0922, 20264.47
448.5743, 20290.39
449.0564, 20267.13
449.5385, 20246.38
450.0207, 20221.41
450.5028, 20206.80
450.9849, 20240.38
451.4670, 20333.69
451.9491, 20415.27
452.4312, 20457.12
452.9134, 20462.63
453.3955, 20458.00
453.8776, 20442.52
454.3597, 20422.24
454.8418, 20399.25
455.3239, 20375.47
455.8061, 20360.67
456.2882, 20359.68
456.7703, 20364.18
457.2524, 20363.00
457.7345, 20357.09
458.2166, 20350.20
458.6988, 20341.40
459.1809, 20334.44
459.6630, 20336.80
460.1451, 20351.39
460.6272, 20359.30
461.1093, 20343.16
461.5915, 20315.05
462.0736, 20290.25
462.5557, 20265.61
463.0378, 20253.15
463.5199, 20266.74
464.0020, 20301.66
464.4842, 20323.45
464.9663, 20308.11
465.4484, 20290.07
465.9305, 20289.57
466.4126, 20336.38
466.8947, 20348.52
467.3769, 20303.50
467.8590, 20233.74
468.3411, 20191.56
468.8232, 20185.83
469.3053, 20190.87
469.7874, 20200.11
470.2696, 20213.84
470.7517, 20241.00
471.2338, 20286.91
471.7159, 20329.63
472.1980, 20344.32
472.6801, 20331.90
473.1623, 20332.05
473.6444, 20353.58
474.1265, 20383.68
474.6086, 20401.88
475.0907, 20409.10
475.5728, 20411.35
476.0550, 20398.90
476.5371, 20388.01
477.0192, 20410.50
477.5013, 20467.81
477.9834, 20529.59
478.4655, 20587.76
478.9477, 20631.66
479.4298, 20644.42
479.9119, 20589.49
480.3940, 20542.53
480.8761, 20555.16
481.3582, 20608.67
481.8404, 20649.28
482.3225, 20646.43
482.8046, 20637.45
483.2867, 20633.37
483.7688, 20626.13
484.2509, 20655.29
484.7331, 20770.72
485.2152, 20899.83
485.6973, 20973.73
486.1794, 20945.61
486.6615, 20942.99
487.1436, 20990.07
487.6258, 21076.55
488.1079, 21157.61
488.5900, 21236.44
489.0721, 21299.39
489.5542, 21328.91
490.0363, 21324.65
490.5185, 21347.22
491.0006, 21400.83
491.4827, 21471.86
491.9648, 21554.20
492.4470, 21642.82
492.9291, 21708.32
493.4112, 21738.48
493.8933, 21740.57
494.3754, 21724.01
494.8575, 21688.35
495.3397, 21632.01
495.8218, 21523.65
496.3039, 21407.72
496.7860, 21339.45
497.2681, 21337.20
497.7502, 21337.11
498.2324, 21313.33
498.7145, 21268.85
499.1966, 21207.17
499.6787, 21097.22
500.1608, 21003.02
500.6429, 20944.10
501.1251, 20919.85
501.6072, 20913.58
502.0893, 20959.16
502.5714, 20991.29
503.0535, 20975.37
503.5356, 20881.29
504.0178, 20810.49
504.4999, 20763.87
504.9820, 20740.54
505.4641, 20744.69
505.9462, 20782.79
506.4283, 20814.28
506.9105, 20825.80
507.3926, 20822.03
507.8747, 20820.42
508.3568, 20820.98
508.8389, 20823.18
509.3210, 20820.06
509.8032, 20818.30
510.2853, 20841.81
510.7674, 20899.41
511.2495, 20957.19
511.7316, 20972.09
512.2137, 20961.93
512.6959, 20962.69
513.1780, 20995.29
513.6601, 21038.96
514.1422, 21085.53
514.6243, 21133.46
515.1064, 21173.86
515.5886, 21203.15
516.0707, 21223.97
516.5528, 21235.24
517.0349, 21224.48
517.5170, 21230.25
517.9991, 21264.12
518.4813, 21313.36
518.9634, 21362.30
519.4455, 21408.03
519.9276, 21458.55
520.4097, 21516.76
520.8918, 21580.83
521.3740, 21645.96
521.8561, 21712.33
522.3382, 21779.21
522.8203, 21842.07
523.3024, 21901.54
523.7845, 21979.06
524.2667, 22077.99
524.7488, 22188.91
525.2309, 22311.71
525.7130, 22441.45
526.1951, 22557.17
526.6772, 22639.06
527.1594, 22717.26
527.6415, 22826.29
528.1236, 22961.63
528.6057, 23106.58
529.0878, 23260.09
529.5699, 23412.68
530.0521, 23552.40
530.5342, 23675.03
531.0163, 23803.29
531.4984, 23948.80
531.9805, 24103.08
532.4626, 24257.69
532.9448, 24452.96
533.4269, 24596.84
533.9090, 24650.33
534.3911, 24641.84
534.8732, 24685.49
535.3553, 24818.49
535.8375, 24935.07
536.3196, 24985.00
536.8017, 24966.01
537.2838, 24942.87
537.7659, 24915.87
538.2480, 24883.04
538.7302, 24855.88
539.2123, 24827.29
539.6944, 24743.86
540.1765, 24577.67
540.6586, 24381.74
541.1407, 24220.29
541.6229, 24088.26
542.1050, 23964.76
542.5871, 23840.63
543.0692, 23718.48
543.5513, 23605.92
544.0334, 23504.05
544.5156, 23392.96
544.9977, 23255.14
545.4798, 23109.01
545.9619, 22970.59
546.4440, 22847.58
546.9261, 22725.22
547.4083, 22594.27
547.8904, 22463.76
548.3725, 22351.79
548.8546, 22260.54
549.3367, 22183.02
549.8188, 22118.74
550.3010, 22067.26
550.7831, 22023.93
551.2652, 21989.17
551.7473, 21961.03
552.2294, 21944.17
552.7115, 21936.22
553.1937, 21913.65
553.6758, 21873.97
554.1579, 21822.22
554.6400, 21752.66
555.1221, 21674.59
555.6042, 21616.16
556.0864, 21593.68
556.5685, 21587.81
557.0506, 21588.24
557.5327, 21591.81
558.0148, 21586.67
558.4969, 21554.85
558.9791, 21521.66
559.4612, 21503.83
559.9433, 21506.01
560.4254, 21508.56
560.9075, 21511.20
561.3896, 21510.81
561.8718, 21504.61
562.3539, 21488.06
562.8360, 21472.26
563.3181, 21451.95
563.8002, 21435.87
564.2823, 21454.38
564.7645, 21520.05
565.2466, 21562.23
565.7287, 21541.69
566.2108, 21473.81
566.6929, 21435.13
567.1750, 21426.88
567.6572, 21427.73
568.1393, 21413.99
568.6214, 21397.71
569.1035, 21410.10
569.5856, 21464.54
570.0677, 21513.09
570.5499, 21512.86
571.0320, 21481.45
571.5141, 21446.93
571.9962, 21408.50
572.4783, 21379.88
572.9604, 21368.66
573.4426, 21372.99
573.9247, 21382.91
574.4068, 21408.67
574.8889, 21428.66
575.3710, 21430.44
575.8531, 21406.61
576.3353, 21406.43
576.8174, 21444.71
577.2995, 21484.67
577.7816, 21483.35
578.2637, 21434.69
578.7458, 21413.09
579.2280, 21436.34
579.7101, 21478.31
580.1922, 21491.01
580.6743, 21479.21
581.1564, 21469.76
581.6385, 21476.46
582.1207, 21491.83
582.6028, 21513.57
583.0849, 21538.97
583.5670, 21548.41
584.0491, 21506.39
584.5313, 21458.99
585.0134, 21445.71
585.4955, 21484.39
585.9776, 21517.99
586.4597, 21522.85
586.9418, 21519.07
587.4240, 21530.65
587.9061, 21587.41
588.3882, 21613.79
588.8703, 21593.08
589.3524, 21539.20
589.8345, 21486.54
590.3167, 21428.51
590.7988, 21398.08
591.2809, 21422.67
591.7630, 21488.70
592.2451, 21521.70
592.7272, 21520.41
593.2094, 21516.73
593.6915, 21543.74
594.1736, 21585.94
594.6557, 21610.85
595.1378, 21608.43
595.6199, 21607.28
596.1021, 21637.76
596.5842, 21680.59
597.0663, 21708.33
597.5485, 21718.02
598.0306, 21704.24
598.5127, 21640.89
598.9948, 21545.94
599.4769, 21496.79
599.9590, 21529.08
600.4412, 21568.52
600.9233, 21589.18
601.4054, 21588.92
601.8875, 21607.99
602.3696, 21653.48
602.8517, 21700.63
603.3339, 21730.13
603.8160, 21742.58
604.2981, 21736.49
604.7802, 21707.42
605.2623, 21675.12
605.7444, 21662.80
606.2266, 21667.77
606.7087, 21683.84
607.1908, 21722.32
607.6729, 21756.98
608.1550, 21757.05
608.6371, 21734.36
609.1193, 21727.35
609.6014, 21770.82
610.0835, 21817.04
610.5656, 21840.15
611.0477, 21834.51
611.5298, 21838.53
612.0120, 21866.43
612.4941, 21891.40
612.9762, 21892.49
613.4583, 21859.19
613.9404, 21841.50
614.4225, 21845.82
614.9047, 21858.49
615.3868, 21859.54
615.8689, 21849.83
616.3510, 21840.33
616.8331, 21832.16
617.3152, 21828.50
617.7974, 21835.12
618.2795, 21850.80
618.7616, 21870.88
619.2437, 21902.08
619.7258, 21929.70
620.2079, 21939.60
620.6901, 21931.21
621.1722, 21925.51
621.6543, 21929.64
622.1364, 21938.97
622.6185, 21950.64
623.1006, 21964.39
623.5828, 21980.70
624.0649, 22000.34
624.5470, 22021.84
625.0291, 22048.67
625.5112, 22086.81
625.9933, 22094.05
626.4755, 22052.01
626.9576, 21989.64
627.4397, 21966.34
627.9218, 21978.97
628.4039, 22003.78
628.8860, 22038.18
629.3682, 22073.33
629.8503, 22097.02
630.3324, 22109.96
630.8145, 22116.82
631.2966, 22125.58
