##NAMES=Adamite
##RRUFFID=R050020
##IDEAL CHEMISTRY=Zn^2+^_2_As^5+^O_4_(OH)
##LOCALITY=Mina Ojuela, Mapimi, Durango, Mexico
##OWNER=RRUFF
##SOURCE=Eugene Schlepp
##DESCRIPTION=Light green prismatic crystal
##STATUS=The identification of this mineral has been confirmed by X-ray diffraction and chemical analysis
##URL=rruff.info/R050020
##MEASURED CHEMISTRY=(Zn_1.97_Cu_0.03_)_Σ=2_((As_0.98_P_0.02_)_Σ=1_O_4_)(OH)
127.4844, 588.7494
127.9666, 626.5703
128.4487, 667.8958
128.9308, 709.0532
129.4129, 745.0684
129.8950, 777.3468
130.3772, 811.0049
130.8593, 846.3937
131.3414, 884.6074
131.8235, 930.7643
132.3056, 985.3386
132.7877, 1043.848
133.2699, 1103.785
133.7520, 1165.776
134.2341, 1219.697
134.7162, 1259.716
135.1983, 1286.027
135.6804, 1310.508
136.1626, 1332.901
136.6447, 1353.433
137.1268, 1373.772
137.6089, 1395.458
138.0910, 1410.924
138.5731, 1415.738
139.0553, 1409.092
139.5374, 1395.879
140.0195, 1375.344
140.5016, 1348.567
140.9837, 1320.167
141.4658, 1288.924
141.9480, 1257.543
142.4301, 1228.900
142.9122, 1206.871
143.3943, 1179.212
143.8764, 1141.807
144.3585, 1095.267
144.8407, 1053.182
145.3228, 1013.091
145.8049, 979.6506
146.2870, 958.2664
146.7691, 959.3288
147.2512, 959.1055
147.7334, 951.9169
148.2155, 934.6955
148.6976, 924.0552
149.1797, 922.7855
149.6618, 927.3181
150.1439, 932.8987
150.6261, 940.4957
151.1082, 948.2078
151.5903, 955.2773
152.0724, 960.6508
152.5545, 967.6813
153.0366, 979.2076
153.5188, 992.4276
154.0009, 1001.794
154.4830, 1001.357
154.9651, 1000.837
155.4472, 1004.880
155.9293, 1018.816
156.4115, 1030.298
156.8936, 1035.806
157.3757, 1036.703
157.8578, 1037.841
158.3399, 1038.747
158.8221, 1041.410
159.3042, 1047.163
159.7863, 1062.568
160.2684, 1074.998
160.7505, 1078.358
161.2326, 1073.821
161.7148, 1070.190
162.1969, 1068.025
162.6790, 1069.771
163.1611, 1077.757
163.6432, 1101.727
164.1253, 1125.033
164.6075, 1136.376
165.0896, 1135.265
165.5717, 1136.507
166.0538, 1151.494
166.5359, 1173.516
167.0180, 1192.972
167.5002, 1201.120
167.9823, 1208.342
168.4644, 1222.203
168.9465, 1243.474
169.4286, 1269.857
169.9107, 1306.802
170.3929, 1347.802
170.8750, 1380.105
171.3571, 1394.146
171.8392, 1397.118
172.3213, 1395.959
172.8034, 1391.221
173.2856, 1383.413
173.7677, 1373.106
174.2498, 1360.094
174.7319, 1343.908
175.2140, 1322.723
175.6961, 1298.555
176.1783, 1274.191
176.6604, 1249.814
177.1425, 1226.479
177.6246, 1204.796
178.1067, 1185.146
178.5888, 1168.568
179.0710, 1156.621
179.5531, 1148.547
180.0352, 1143.273
180.5173, 1141.629
180.9994, 1141.615
181.4815, 1139.483
181.9637, 1135.307
182.4458, 1132.059
182.9279, 1132.679
183.4100, 1136.447
183.8921, 1140.580
184.3742, 1143.879
184.8564, 1147.218
185.3385, 1153.442
185.8206, 1162.889
186.3027, 1171.747
186.7848, 1173.838
187.2669, 1170.471
187.7491, 1171.640
188.2312, 1181.709
188.7133, 1198.990
189.1954, 1219.840
189.6775, 1245.490
190.1596, 1268.546
190.6418, 1277.242
191.1239, 1271.924
191.6060, 1268.613
192.0881, 1275.869
192.5702, 1292.119
193.0524, 1301.501
193.5345, 1301.269
194.0166, 1301.210
194.4987, 1319.858
194.9808, 1358.631
195.4629, 1394.835
195.9451, 1412.910
196.4272, 1413.653
196.9093, 1428.995
197.3914, 1463.663
197.8735, 1507.076
198.3556, 1539.777
198.8378, 1560.770
199.3199, 1576.893
199.8020, 1589.548
200.2841, 1598.098
200.7662, 1610.727
201.2483, 1627.456
201.7305, 1648.918
202.2126, 1678.727
202.6947, 1719.321
203.1768, 1759.151
203.6589, 1790.296
204.1410, 1810.991
204.6232, 1833.505
205.1053, 1858.974
205.5874, 1886.912
206.0695, 1916.404
206.5516, 1948.504
207.0337, 1979.396
207.5159, 2007.542
207.9980, 2033.182
208.4801, 2052.829
208.9622, 2066.882
209.4443, 2074.579
209.9264, 2071.422
210.4086, 2055.469
210.8907, 2032.447
211.3728, 2005.849
211.8549, 1973.952
212.3370, 1943.814
212.8191, 1917.314
213.3013, 1893.837
213.7834, 1864.402
214.2655, 1823.688
214.7476, 1785.467
215.2297, 1763.984
215.7118, 1766.292
216.1940, 1764.807
216.6761, 1752.235
217.1582, 1729.399
217.6403, 1716.243
218.1224, 1714.577
218.6045, 1720.332
219.0867, 1730.909
219.5688, 1749.126
220.0509, 1764.957
220.5330, 1773.447
221.0151, 1774.305
221.4972, 1787.460
221.9794, 1817.550
222.4615, 1854.859
222.9436, 1889.328
223.4257, 1918.799
223.9078, 1950.108
224.3899, 1982.839
224.8721, 2016.762
225.3542, 2061.268
225.8363, 2120.705
226.3184, 2186.938
226.8005, 2252.294
227.2827, 2318.286
227.7648, 2379.662
228.2469, 2435.116
228.7290, 2484.284
229.2111, 2529.400
229.6932, 2572.217
230.1754, 2609.041
230.6575, 2636.241
231.1396, 2656.352
231.6217, 2661.845
232.1038, 2650.496
232.5859, 2621.710
233.0681, 2578.173
233.5502, 2514.086
234.0323, 2439.696
234.5144, 2367.407
234.9965, 2293.264
235.4786, 2228.851
235.9608, 2177.888
236.4429, 2142.288
236.9250, 2113.959
237.4071, 2093.733
237.8892, 2080.509
238.3713, 2072.044
238.8535, 2065.512
239.3356, 2068.703
239.8177, 2087.314
240.2998, 2128.661
240.7819, 2155.717
241.2640, 2156.892
241.7462, 2150.947
242.2283, 2171.696
242.7104, 2232.824
243.1925, 2298.160
243.6746, 2355.450
244.1567, 2401.119
244.6389, 2452.098
245.1210, 2510.824
245.6031, 2573.256
246.0852, 2631.716
246.5673, 2684.327
247.0494, 2736.235
247.5316, 2790.578
248.0137, 2851.081
248.4958, 2901.327
248.9779, 2938.760
249.4600, 2967.082
249.9421, 2993.780
250.4243, 3025.903
250.9064, 3044.131
251.3885, 3038.766
251.8706, 3001.397
252.3527, 2968.808
252.8348, 2945.817
253.3170, 2924.729
253.7991, 2890.317
254.2812, 2838.464
254.7633, 2781.850
255.2454, 2723.461
255.7275, 2661.542
256.2097, 2606.553
256.6918, 2560.710
257.1739, 2520.889
257.6560, 2481.127
258.1381, 2441.447
258.6202, 2401.532
259.1024, 2359.266
259.5845, 2312.205
260.0666, 2275.418
260.5487, 2252.721
261.0308, 2237.487
261.5129, 2216.642
261.9951, 2189.012
262.4772, 2158.911
262.9593, 2126.223
263.4414, 2087.809
263.9235, 2061.684
264.4056, 2052.053
264.8878, 2050.521
265.3699, 2040.851
265.8520, 2018.893
266.3341, 2000.452
266.8162, 1993.407
267.2983, 2000.560
267.7805, 2000.645
268.2626, 1990.601
268.7447, 1976.881
269.2268, 1970.639
269.7089, 1973.079
270.1910, 1978.748
270.6732, 1987.877
271.1553, 2001.627
271.6374, 2005.233
272.1195, 1995.095
272.6016, 1980.081
273.0837, 1976.245
273.5659, 1986.081
274.0480, 1994.205
274.5301, 1994.330
275.0122, 1986.177
275.4943, 1978.388
275.9764, 1972.708
276.4586, 1964.106
276.9407, 1943.076
277.4228, 1908.556
277.9049, 1873.292
278.3870, 1841.691
278.8691, 1813.723
279.3513, 1789.692
279.8334, 1770.781
280.3155, 1752.764
280.7976, 1728.510
281.2798, 1697.862
281.7619, 1669.532
282.2440, 1647.025
282.7261, 1629.840
283.2082, 1614.466
283.6903, 1601.067
284.1725, 1588.876
284.6546, 1575.821
285.1367, 1562.182
285.6188, 1552.637
286.1009, 1551.074
286.5830, 1555.175
287.0652, 1553.968
287.5473, 1546.635
288.0294, 1538.944
288.5115, 1539.280
288.9936, 1546.379
289.4757, 1549.707
289.9579, 1543.811
290.4400, 1532.119
290.9221, 1524.310
291.4042, 1520.657
291.8863, 1517.476
292.3684, 1508.939
292.8506, 1496.990
293.3327, 1490.323
293.8148, 1495.666
294.2969, 1505.631
294.7790, 1504.307
295.2611, 1491.647
295.7433, 1477.690
296.2254, 1469.365
296.7075, 1466.368
297.1896, 1468.434
297.6717, 1478.572
298.1538, 1491.036
298.6360, 1495.871
299.1181, 1493.734
299.6002, 1491.877
300.0823, 1497.392
300.5644, 1506.970
301.0465, 1514.105
301.5287, 1515.399
302.0108, 1515.685
302.4929, 1520.737
302.9750, 1529.943
303.4571, 1539.495
303.9392, 1544.426
304.4214, 1548.921
304.9035, 1559.572
305.3856, 1581.002
305.8677, 1603.663
306.3498, 1619.682
306.8319, 1629.811
307.3141, 1636.982
307.7962, 1638.455
308.2783, 1639.744
308.7604, 1647.081
309.2425, 1664.006
309.7246, 1681.775
310.2068, 1692.347
310.6889, 1699.142
311.1710, 1711.116
311.6531, 1739.552
312.1352, 1770.598
312.6173, 1793.412
313.0995, 1804.066
313.5816, 1812.172
314.0637, 1820.387
314.5458, 1829.327
315.0279, 1840.204
315.5100, 1856.918
315.9922, 1873.100
316.4743, 1884.152
316.9564, 1887.587
317.4385, 1894.038
317.9206, 1913.204
318.4027, 1936.084
318.8849, 1950.100
319.3670, 1942.741
319.8491, 1933.979
320.3312, 1931.179
320.8133, 1935.688
321.2954, 1941.348
321.7776, 1951.651
322.2597, 1960.773
322.7418, 1962.508
323.2239, 1945.903
323.7060, 1931.870
324.1881, 1930.078
324.6703, 1942.880
325.1524, 1940.435
325.6345, 1908.649
326.1166, 1867.228
326.5987, 1831.727
327.0808, 1807.329
327.5630, 1782.896
328.0451, 1756.588
328.5272, 1728.584
329.0093, 1702.576
329.4914, 1679.041
329.9735, 1657.653
330.4557, 1638.581
330.9378, 1623.663
331.4199, 1607.647
331.9020, 1588.607
332.3841, 1567.834
332.8662, 1551.606
333.3484, 1540.772
333.8305, 1533.435
334.3126, 1528.878
334.7947, 1527.927
335.2768, 1527.776
335.7589, 1529.890
336.2411, 1531.843
336.7232, 1525.554
337.2053, 1507.062
337.6874, 1492.055
338.1695, 1490.180
338.6516, 1503.645
339.1338, 1510.117
339.6159, 1506.849
340.0980, 1500.192
340.5801, 1502.149
341.0622, 1513.858
341.5443, 1523.909
342.0265, 1527.594
342.5086, 1525.379
342.9907, 1520.979
343.4728, 1513.775
343.9549, 1506.971
344.4370, 1504.891
344.9192, 1507.191
345.4013, 1510.803
345.8834, 1516.234
346.3655, 1521.750
346.8476, 1519.970
347.3297, 1510.548
347.8119, 1503.805
348.2940, 1514.411
348.7761, 1536.237
349.2582, 1550.244
349.7403, 1547.781
350.2225, 1538.736
350.7046, 1536.360
351.1867, 1540.172
351.6688, 1546.639
352.1509, 1553.705
352.6331, 1561.672
353.1152, 1571.204
353.5973, 1583.095
354.0794, 1595.366
354.5615, 1608.228
355.0436, 1620.442
355.5258, 1628.241
356.0079, 1620.051
356.4900, 1611.807
356.9721, 1619.613
357.4542, 1650.514
357.9363, 1681.940
358.4185, 1700.185
358.9006, 1710.503
359.3827, 1721.982
359.8648, 1736.289
360.3469, 1754.156
360.8290, 1777.651
361.3112, 1808.144
361.7933, 1835.858
362.2754, 1851.667
362.7575, 1865.557
363.2396, 1888.480
363.7217, 1928.218
364.2039, 1971.609
364.6860, 2017.229
365.1681, 2065.175
365.6502, 2109.381
366.1323, 2146.174
366.6144, 2181.168
367.0966, 2218.299
367.5787, 2250.919
368.0608, 2293.697
368.5429, 2353.430
369.0250, 2426.171
369.5071, 2490.293
369.9893, 2543.264
370.4714, 2590.357
370.9535, 2632.840
371.4356, 2664.656
371.9177, 2705.715
372.3998, 2762.452
372.8820, 2825.614
373.3641, 2876.343
373.8462, 2917.618
374.3283, 2938.538
374.8104, 2931.790
375.2925, 2895.448
375.7747, 2853.210
376.2568, 2805.702
376.7389, 2750.373
377.2210, 2683.232
377.7031, 2603.824
378.1852, 2518.668
378.6674, 2423.356
379.1495, 2324.083
379.6316, 2245.793
380.1137, 2190.592
380.5958, 2143.259
381.0779, 2090.545
381.5601, 2033.563
382.0422, 1981.454
382.5243, 1934.364
383.0064, 1893.937
383.4885, 1864.318
383.9706, 1844.438
384.4528, 1828.454
384.9349, 1813.619
385.4170, 1799.606
385.8991, 1784.916
386.3812, 1768.317
386.8633, 1753.884
387.3455, 1748.109
387.8276, 1747.531
388.3097, 1744.116
388.7918, 1726.914
389.2739, 1709.719
389.7560, 1704.074
390.2382, 1711.403
390.7203, 1723.719
391.2024, 1740.843
391.6845, 1759.129
392.1666, 1774.585
392.6487, 1787.731
393.1309, 1795.910
393.6130, 1792.255
394.0951, 1778.670
394.5772, 1776.452
395.0593, 1803.479
395.5414, 1835.696
396.0236, 1857.784
396.5057, 1847.224
396.9878, 1850.781
397.4699, 1882.852
397.9520, 1933.508
398.4341, 1971.189
398.9163, 1987.607
399.3984, 1999.514
399.8805, 2011.513
400.3626, 2020.914
400.8447, 2038.956
401.3268, 2069.950
401.8090, 2106.385
402.2911, 2137.311
402.7732, 2158.451
403.2553, 2184.723
403.7374, 2222.099
404.2195, 2269.691
404.7017, 2311.040
405.1838, 2345.252
405.6659, 2376.004
406.1480, 2405.562
406.6301, 2434.001
407.1122, 2464.889
407.5944, 2500.249
408.0765, 2537.127
408.5586, 2567.087
409.0407, 2590.375
409.5228, 2612.853
410.0049, 2639.441
410.4871, 2667.990
410.9692, 2693.385
411.4513, 2715.518
411.9334, 2733.018
412.4155, 2742.724
412.8976, 2746.536
413.3798, 2749.653
413.8619, 2752.876
414.3440, 2757.607
414.8261, 2766.497
415.3082, 2779.590
415.7903, 2791.911
416.2725, 2799.155
416.7546, 2804.314
417.2367, 2811.235
417.7188, 2829.271
418.2009, 2840.101
418.6830, 2833.632
419.1652, 2812.485
419.6473, 2786.502
420.1294, 2755.981
420.6115, 2723.556
421.0937, 2691.228
421.5758, 2664.714
422.0579, 2627.747
422.5400, 2569.581
423.0221, 2501.457
423.5042, 2440.553
423.9864, 2391.767
424.4685, 2346.050
424.9506, 2301.247
425.4327, 2257.967
425.9148, 2215.675
426.3969, 2176.264
426.8791, 2135.718
427.3612, 2088.905
427.8433, 2030.393
428.3254, 1983.506
428.8075, 1953.944
429.2896, 1937.484
429.7718, 1921.481
430.2539, 1906.269
430.7360, 1889.668
431.2181, 1868.453
431.7002, 1843.311
432.1823, 1824.492
432.6645, 1812.869
433.1466, 1806.326
433.6287, 1805.672
434.1108, 1809.085
434.5929, 1807.096
435.0750, 1790.048
435.5572, 1767.660
436.0393, 1757.310
436.5214, 1758.656
437.0035, 1764.465
437.4856, 1775.126
437.9677, 1784.933
438.4499, 1784.353
438.9320, 1763.911
439.4141, 1744.565
439.8962, 1744.369
440.3783, 1757.226
440.8604, 1767.412
441.3426, 1766.863
441.8247, 1762.420
442.3068, 1756.592
442.7889, 1748.553
443.2710, 1744.531
443.7531, 1748.407
444.2353, 1756.288
444.7174, 1763.933
445.1995, 1775.692
445.6816, 1781.630
446.1637, 1774.396
446.6458, 1756.276
447.1280, 1752.241
447.6101, 1772.916
448.0922, 1796.016
448.5743, 1808.300
449.0564, 1803.519
449.5385, 1805.440
450.0207, 1817.368
450.5028, 1833.781
450.9849, 1843.259
451.4670, 1843.992
451.9491, 1846.780
452.4312, 1858.730
452.9134, 1877.459
453.3955, 1882.232
453.8776, 1871.328
454.3597, 1858.751
454.8418, 1860.400
455.3239, 1872.742
455.8061, 1880.501
456.2882, 1878.323
456.7703, 1873.162
457.2524, 1876.546
457.7345, 1886.246
458.2166, 1893.220
458.6988, 1889.879
459.1809, 1882.039
459.6630, 1874.934
460.1451, 1868.668
460.6272, 1865.953
461.1093, 1872.546
461.5915, 1882.452
462.0736, 1888.080
462.5557, 1880.357
463.0378, 1874.372
463.5199, 1875.671
464.0020, 1883.778
464.4842, 1894.598
464.9663, 1910.817
465.4484, 1926.860
465.9305, 1939.821
466.4126, 1948.403
466.8947, 1956.235
467.3769, 1963.038
467.8590, 1969.185
468.3411, 1975.245
468.8232, 1980.730
469.3053, 1987.124
469.7874, 1995.291
470.2696, 2005.070
470.7517, 2012.730
471.2338, 2017.132
471.7159, 2022.836
472.1980, 2036.205
472.6801, 2056.958
473.1623, 2069.865
473.6444, 2070.881
474.1265, 2067.101
474.6086, 2070.132
475.0907, 2079.334
475.5728, 2090.569
476.0550, 2105.820
476.5371, 2120.297
477.0192, 2124.385
477.5013, 2117.691
477.9834, 2109.541
478.4655, 2104.806
478.9477, 2103.655
479.4298, 2106.750
479.9119, 2119.619
480.3940, 2130.062
480.8761, 2131.831
481.3582, 2126.160
481.8404, 2116.463
482.3225, 2094.946
482.8046, 2077.003
483.2867, 2070.531
483.7688, 2079.484
484.2509, 2088.497
484.7331, 2098.896
485.2152, 2107.395
485.6973, 2110.219
486.1794, 2099.133
486.6615, 2096.824
487.1436, 2109.138
487.6258, 2132.760
488.1079, 2152.188
488.5900, 2166.513
489.0721, 2178.807
489.5542, 2189.623
490.0363, 2198.965
490.5185, 2212.094
491.0006, 2229.908
491.4827, 2248.594
491.9648, 2263.922
492.4470, 2275.902
492.9291, 2283.830
493.4112, 2284.848
493.8933, 2283.765
494.3754, 2292.188
494.8575, 2307.662
495.3397, 2314.257
495.8218, 2298.583
496.3039, 2269.921
496.7860, 2237.604
497.2681, 2201.727
497.7502, 2165.745
498.2324, 2132.882
498.7145, 2100.427
499.1966, 2064.042
499.6787, 2011.854
500.1608, 1966.625
500.6429, 1939.301
501.1251, 1928.608
501.6072, 1912.435
502.0893, 1879.722
502.5714, 1849.404
503.0535, 1831.162
503.5356, 1832.309
504.0178, 1827.605
504.4999, 1813.482
504.9820, 1796.803
505.4641, 1789.197
505.9462, 1793.017
506.4283, 1793.341
506.9105, 1783.516
507.3926, 1767.483
507.8747, 1761.681
508.3568, 1766.495
508.8389, 1774.478
509.3210, 1782.175
509.8032, 1788.819
510.2853, 1792.683
510.7674, 1793.758
511.2495, 1791.161
511.7316, 1777.706
512.2137, 1760.192
512.6959, 1752.575
513.1780, 1772.564
513.6601, 1794.364
514.1422, 1797.285
514.6243, 1784.518
515.1064, 1778.883
515.5886, 1796.973
516.0707, 1819.631
516.5528, 1834.786
517.0349, 1836.932
517.5170, 1840.178
517.9991, 1843.929
518.4813, 1850.207
518.9634, 1861.923
519.4455, 1881.654
519.9276, 1902.525
520.4097, 1924.010
520.8918, 1945.477
521.3740, 1963.899
521.8561, 1977.219
522.3382, 1994.306
522.8203, 2024.229
523.3024, 2065.650
523.7845, 2098.859
524.2667, 2121.774
524.7488, 2140.937
525.2309, 2163.313
525.7130, 2189.090
526.1951, 2218.193
526.6772, 2249.568
527.1594, 2285.694
527.6415, 2332.759
528.1236, 2387.982
528.6057, 2440.370
529.0878, 2479.877
529.5699, 2516.095
530.0521, 2556.180
530.5342, 2602.766
531.0163, 2647.109
531.4984, 2686.170
531.9805, 2722.122
532.4626, 2757.467
532.9448, 2791.027
533.4269, 2825.734
533.9090, 2861.218
534.3911, 2898.002
534.8732, 2939.060
535.3553, 2994.975
535.8375, 3035.912
536.3196, 3043.847
536.8017, 3016.885
537.2838, 3002.467
537.7659, 3004.702
538.2480, 3005.450
538.7302, 2981.688
539.2123, 2936.757
539.6944, 2895.890
540.1765, 2866.521
540.6586, 2839.925
541.1407, 2803.277
541.6229, 2758.178
542.1050, 2709.951
542.5871, 2660.631
543.0692, 2609.937
543.5513, 2555.209
544.0334, 2496.913
544.5156, 2445.979
544.9977, 2417.604
545.4798, 2392.921
545.9619, 2356.607
546.4440, 2290.298
546.9261, 2235.302
547.4083, 2205.782
547.8904, 2189.299
548.3725, 2163.365
548.8546, 2118.479
549.3367, 2079.795
549.8188, 2056.281
550.3010, 2046.021
550.7831, 2024.195
551.2652, 1986.527
551.7473, 1951.464
552.2294, 1937.053
552.7115, 1940.377
553.1937, 1931.422
553.6758, 1906.065
554.1579, 1875.693
554.6400, 1851.900
555.1221, 1834.209
555.6042, 1821.712
556.0864, 1815.173
556.5685, 1812.329
557.0506, 1813.234
557.5327, 1816.621
558.0148, 1817.744
558.4969, 1816.477
558.9791, 1810.550
559.4612, 1796.244
559.9433, 1770.531
560.4254, 1750.784
560.9075, 1747.151
561.3896, 1746.945
561.8718, 1738.199
562.3539, 1708.661
562.8360, 1692.400
563.3181, 1698.938
563.8002, 1717.037
564.2823, 1716.559
564.7645, 1691.942
565.2466, 1674.124
565.7287, 1679.569
566.2108, 1702.197
566.6929, 1711.359
567.1750, 1706.580
567.6572, 1697.478
568.1393, 1691.326
568.6214, 1686.822
569.1035, 1680.687
569.5856, 1671.257
570.0677, 1664.682
570.5499, 1667.730
571.0320, 1676.594
571.5141, 1685.235
571.9962, 1696.886
572.4783, 1702.492
572.9604, 1693.789
573.4426, 1674.125
573.9247, 1660.558
574.4068, 1661.626
574.8889, 1664.136
575.3710, 1662.706
575.8531, 1655.996
576.3353, 1652.769
576.8174, 1654.616
577.2995, 1657.634
577.7816, 1657.986
578.2637, 1655.402
578.7458, 1652.986
579.2280, 1651.209
579.7101, 1649.754
580.1922, 1647.432
580.6743, 1644.633
581.1564, 1643.573
581.6385, 1649.045
582.1207, 1654.822
582.6028, 1649.692
583.0849, 1635.375
583.5670, 1624.964
584.0491, 1628.581
584.5313, 1637.679
585.0134, 1646.917
585.4955, 1657.323
585.9776, 1661.708
586.4597, 1650.959
586.9418, 1636.244
587.4240, 1630.671
587.9061, 1643.662
588.3882, 1651.296
588.8703, 1648.334
589.3524, 1639.113
589.8345, 1637.052
590.3167, 1643.998
590.7988, 1651.106
591.2809, 1655.159
591.7630, 1656.254
592.2451, 1653.752
592.7272, 1647.530
593.2094, 1640.724
593.6915, 1634.614
594.1736, 1630.044
594.6557, 1629.328
595.1378, 1633.692
595.6199, 1638.300
596.1021, 1639.302
596.5842, 1638.317
597.0663, 1637.653
597.5485, 1636.569
598.0306, 1637.534
598.5127, 1644.182
598.9948, 1654.306
599.4769, 1658.232
599.9590, 1647.834
600.4412, 1640.577
600.9233, 1644.765
601.4054, 1661.908
601.8875, 1664.890
602.3696, 1648.481
602.8517, 1630.688
603.3339, 1629.104
603.8160, 1642.225
604.2981, 1650.811
604.7802, 1652.334
605.2623, 1650.079
605.7444, 1646.336
606.2266, 1642.030
606.7087, 1639.735
607.1908, 1639.648
607.6729, 1642.617
608.1550, 1654.673
608.6371, 1671.297
609.1193, 1678.216
609.6014, 1656.228
610.0835, 1634.663
610.5656, 1630.411
611.0477, 1647.731
611.5298, 1656.208
612.0120, 1647.515
612.4941, 1636.993
612.9762, 1635.411
613.4583, 1646.042
613.9404, 1653.571
614.4225, 1656.632
614.9047, 1657.750
615.3868, 1660.886
615.8689, 1665.834
616.3510, 1669.512
616.8331, 1670.933
617.3152, 1670.746
617.7974, 1668.521
618.2795, 1665.167
618.7616, 1664.064
619.2437, 1670.635
619.7258, 1677.514
620.2079, 1678.012
620.6901, 1671.861
621.1722, 1667.557
621.6543, 1667.410
622.1364, 1670.524
622.6185, 1677.170
623.1006, 1692.107
623.5828, 1699.713
