##NAMES=Adanite
##RRUFFID=R190033
##IDEAL CHEMISTRY=Pb^2+^_2_(Te^4+^O_3_)(S^6+^O_4_)
##LOCALITY=Tombstone, Cochise County, Arizona, USA
##OWNER=RRUFF
##SOURCE=John Callahan
##DESCRIPTION=White massive crystalline aggregates on small euhedral jarosite crystals coating the surface of the matrix
##STATUS=The identification of this mineral is confirmed by single-crystal X-ray diffraction and chemical analysis.
##URL=rruff.info/R190033
##MEASURED CHEMISTRY=Pb_2.02_(Te_1.01_O_3_)(S_0.99_O_4_)
8.758203e+001, 1.385290e+003
8.806415e+001, 1.364259e+003
8.854626e+001, 1.360593e+003
8.902838e+001, 1.381271e+003
8.951050e+001, 1.407965e+003
8.999261e+001, 1.433951e+003
9.047473e+001, 1.459029e+003
9.095685e+001, 1.485646e+003
9.143896e+001, 1.516570e+003
9.192108e+001, 1.552022e+003
9.240320e+001, 1.586575e+003
9.288531e+001, 1.599207e+003
9.336743e+001, 1.581961e+003
9.384955e+001, 1.546362e+003
9.433167e+001, 1.517369e+003
9.481378e+001, 1.486249e+003
9.529590e+001, 1.456778e+003
9.577802e+001, 1.429550e+003
9.626013e+001, 1.405496e+003
9.674225e+001, 1.385619e+003
9.722437e+001, 1.369163e+003
9.770648e+001, 1.352255e+003
9.818860e+001, 1.334028e+003
9.867072e+001, 1.314938e+003
9.915283e+001, 1.295246e+003
9.963495e+001, 1.274819e+003
1.001171e+002, 1.253335e+003
1.005992e+002, 1.229856e+003
1.010813e+002, 1.201239e+003
1.015634e+002, 1.177105e+003
1.020455e+002, 1.157261e+003
1.025277e+002, 1.140474e+003
1.030098e+002, 1.126284e+003
1.034919e+002, 1.114344e+003
1.039740e+002, 1.103865e+003
1.044561e+002, 1.092656e+003
1.049382e+002, 1.080363e+003
1.054204e+002, 1.067417e+003
1.059025e+002, 1.053200e+003
1.063846e+002, 1.038294e+003
1.068667e+002, 1.023565e+003
1.073488e+002, 1.009256e+003
1.078309e+002, 9.956869e+002
1.083131e+002, 9.848544e+002
1.087952e+002, 9.767225e+002
1.092773e+002, 9.706890e+002
1.097594e+002, 9.669144e+002
1.102415e+002, 9.652873e+002
1.107236e+002, 9.647114e+002
1.112058e+002, 9.648145e+002
1.116879e+002, 9.653641e+002
1.121700e+002, 9.656222e+002
1.126521e+002, 9.658615e+002
1.131342e+002, 9.656329e+002
1.136163e+002, 9.640957e+002
1.140985e+002, 9.609520e+002
1.145806e+002, 9.569791e+002
1.150627e+002, 9.527523e+002
1.155448e+002, 9.482456e+002
1.160269e+002, 9.432764e+002
1.165090e+002, 9.374964e+002
1.169912e+002, 9.309385e+002
1.174733e+002, 9.247629e+002
1.179554e+002, 9.194137e+002
1.184375e+002, 9.140999e+002
1.189196e+002, 9.077334e+002
1.194017e+002, 9.007311e+002
1.198839e+002, 8.947951e+002
1.203660e+002, 8.924632e+002
1.208481e+002, 8.964622e+002
1.213302e+002, 8.971583e+002
1.218123e+002, 8.927378e+002
1.222944e+002, 8.869871e+002
1.227766e+002, 8.825980e+002
1.232587e+002, 8.802135e+002
1.237408e+002, 8.782258e+002
1.242229e+002, 8.736190e+002
1.247050e+002, 8.633410e+002
1.251871e+002, 8.541953e+002
1.256693e+002, 8.476736e+002
1.261514e+002, 8.419591e+002
1.266335e+002, 8.344201e+002
1.271156e+002, 8.236010e+002
1.275977e+002, 8.110469e+002
1.280798e+002, 8.015288e+002
1.285620e+002, 7.962817e+002
1.290441e+002, 7.911437e+002
1.295262e+002, 7.838683e+002
1.300083e+002, 7.750608e+002
1.304904e+002, 7.673522e+002
1.309725e+002, 7.620582e+002
1.314547e+002, 7.589620e+002
1.319368e+002, 7.573304e+002
1.324189e+002, 7.587894e+002
1.329010e+002, 7.597319e+002
1.333831e+002, 7.555309e+002
1.338652e+002, 7.450697e+002
1.343474e+002, 7.355554e+002
1.348295e+002, 7.317383e+002
1.353116e+002, 7.306542e+002
1.357937e+002, 7.291177e+002
1.362758e+002, 7.251918e+002
1.367579e+002, 7.205677e+002
1.372401e+002, 7.199886e+002
1.377222e+002, 7.259649e+002
1.382043e+002, 7.324410e+002
1.386864e+002, 7.383356e+002
1.391685e+002, 7.432289e+002
1.396507e+002, 7.464823e+002
1.401328e+002, 7.474417e+002
1.406149e+002, 7.461873e+002
1.410970e+002, 7.451649e+002
1.415791e+002, 7.443468e+002
1.420612e+002, 7.438075e+002
1.425434e+002, 7.437936e+002
1.430255e+002, 7.441256e+002
1.435076e+002, 7.442956e+002
1.439897e+002, 7.436808e+002
1.444718e+002, 7.418228e+002
1.449539e+002, 7.420424e+002
1.454361e+002, 7.454261e+002
1.459182e+002, 7.495145e+002
1.464003e+002, 7.535023e+002
1.468824e+002, 7.570729e+002
1.473645e+002, 7.596622e+002
1.478466e+002, 7.605150e+002
1.483288e+002, 7.590480e+002
1.488109e+002, 7.574674e+002
1.492930e+002, 7.568705e+002
1.497751e+002, 7.556891e+002
1.502572e+002, 7.523632e+002
1.507393e+002, 7.465305e+002
1.512215e+002, 7.386159e+002
1.517036e+002, 7.284395e+002
1.521857e+002, 7.162239e+002
1.526678e+002, 7.035500e+002
1.531499e+002, 6.903899e+002
1.536320e+002, 6.771473e+002
1.541142e+002, 6.649840e+002
1.545963e+002, 6.546202e+002
1.550784e+002, 6.449427e+002
1.555605e+002, 6.344965e+002
1.560426e+002, 6.233290e+002
1.565247e+002, 6.124197e+002
1.570069e+002, 6.022001e+002
1.574890e+002, 5.926840e+002
1.579711e+002, 5.846081e+002
1.584532e+002, 5.792661e+002
1.589353e+002, 5.746974e+002
1.594174e+002, 5.695871e+002
1.598996e+002, 5.637688e+002
1.603817e+002, 5.581003e+002
1.608638e+002, 5.539501e+002
1.613459e+002, 5.522046e+002
1.618280e+002, 5.489304e+002
1.623102e+002, 5.415727e+002
1.627923e+002, 5.338856e+002
1.632744e+002, 5.285339e+002
1.637565e+002, 5.262277e+002
1.642386e+002, 5.256445e+002
1.647207e+002, 5.242768e+002
1.652029e+002, 5.215067e+002
1.656850e+002, 5.189092e+002
1.661671e+002, 5.166398e+002
1.666492e+002, 5.145651e+002
1.671313e+002, 5.124060e+002
1.676134e+002, 5.100675e+002
1.680956e+002, 5.078405e+002
1.685777e+002, 5.065890e+002
1.690598e+002, 5.081626e+002
1.695419e+002, 5.086152e+002
1.700240e+002, 5.066285e+002
1.705061e+002, 5.035604e+002
1.709883e+002, 5.014108e+002
1.714704e+002, 5.012616e+002
1.719525e+002, 5.025489e+002
1.724346e+002, 5.028697e+002
1.729167e+002, 5.018513e+002
1.733988e+002, 5.005440e+002
1.738810e+002, 4.987892e+002
1.743631e+002, 4.969136e+002
1.748452e+002, 4.958914e+002
1.753273e+002, 4.965154e+002
1.758094e+002, 4.982474e+002
1.762915e+002, 4.990327e+002
1.767737e+002, 4.982135e+002
1.772558e+002, 4.972660e+002
1.777379e+002, 4.972379e+002
1.782200e+002, 4.980386e+002
1.787021e+002, 4.986301e+002
1.791842e+002, 4.982644e+002
1.796664e+002, 4.973505e+002
1.801485e+002, 4.966917e+002
1.806306e+002, 4.963386e+002
1.811127e+002, 4.962961e+002
1.815948e+002, 4.967852e+002
1.820769e+002, 4.979563e+002
1.825591e+002, 4.987838e+002
1.830412e+002, 4.981034e+002
1.835233e+002, 4.969527e+002
1.840054e+002, 4.965278e+002
1.844875e+002, 4.975533e+002
1.849696e+002, 4.991123e+002
1.854518e+002, 4.991566e+002
1.859339e+002, 4.964335e+002
1.864160e+002, 4.951070e+002
1.868981e+002, 4.980121e+002
1.873802e+002, 5.025675e+002
1.878623e+002, 5.058434e+002
1.883445e+002, 5.063231e+002
1.888266e+002, 5.046613e+002
1.893087e+002, 5.029557e+002
1.897908e+002, 5.007700e+002
1.902729e+002, 4.992101e+002
1.907550e+002, 4.984984e+002
1.912372e+002, 4.985076e+002
1.917193e+002, 4.992228e+002
1.922014e+002, 5.007513e+002
1.926835e+002, 5.028646e+002
1.931656e+002, 5.039694e+002
1.936477e+002, 5.023393e+002
1.941299e+002, 5.014078e+002
1.946120e+002, 5.020274e+002
1.950941e+002, 5.037198e+002
1.955762e+002, 5.056773e+002
1.960583e+002, 5.073781e+002
1.965404e+002, 5.088367e+002
1.970226e+002, 5.103113e+002
1.975047e+002, 5.118591e+002
1.979868e+002, 5.133521e+002
1.984689e+002, 5.146394e+002
1.989510e+002, 5.158282e+002
1.994331e+002, 5.171520e+002
1.999153e+002, 5.187919e+002
2.003974e+002, 5.207384e+002
2.008795e+002, 5.226493e+002
2.013616e+002, 5.241898e+002
2.018437e+002, 5.260063e+002
2.023258e+002, 5.287800e+002
2.028080e+002, 5.322079e+002
2.032901e+002, 5.351633e+002
2.037722e+002, 5.367670e+002
2.042543e+002, 5.370842e+002
2.047364e+002, 5.378051e+002
2.052185e+002, 5.391396e+002
2.057007e+002, 5.406650e+002
2.061828e+002, 5.419514e+002
2.066649e+002, 5.430598e+002
2.071470e+002, 5.446418e+002
2.076291e+002, 5.473486e+002
2.081112e+002, 5.509691e+002
2.085934e+002, 5.542545e+002
2.090755e+002, 5.567923e+002
2.095576e+002, 5.592178e+002
2.100397e+002, 5.623123e+002
2.105218e+002, 5.661330e+002
2.110039e+002, 5.694613e+002
2.114861e+002, 5.708509e+002
2.119682e+002, 5.712625e+002
2.124503e+002, 5.726995e+002
2.129324e+002, 5.757735e+002
2.134145e+002, 5.798496e+002
2.138967e+002, 5.843698e+002
2.143788e+002, 5.894657e+002
2.148609e+002, 5.943967e+002
2.153430e+002, 5.982863e+002
2.158251e+002, 6.018655e+002
2.163072e+002, 6.060782e+002
2.167894e+002, 6.113801e+002
2.172715e+002, 6.173627e+002
2.177536e+002, 6.234517e+002
2.182357e+002, 6.297473e+002
2.187178e+002, 6.358345e+002
2.191999e+002, 6.416483e+002
2.196821e+002, 6.471766e+002
2.201642e+002, 6.523438e+002
2.206463e+002, 6.571204e+002
2.211284e+002, 6.615361e+002
2.216105e+002, 6.658429e+002
2.220926e+002, 6.705482e+002
2.225748e+002, 6.740117e+002
2.230569e+002, 6.758494e+002
2.235390e+002, 6.763843e+002
2.240211e+002, 6.759465e+002
2.245032e+002, 6.746788e+002
2.249853e+002, 6.725538e+002
2.254675e+002, 6.692950e+002
2.259496e+002, 6.639496e+002
2.264317e+002, 6.590095e+002
2.269138e+002, 6.550735e+002
2.273959e+002, 6.517481e+002
2.278780e+002, 6.484741e+002
2.283602e+002, 6.449279e+002
2.288423e+002, 6.415256e+002
2.293244e+002, 6.396588e+002
2.298065e+002, 6.406224e+002
2.302886e+002, 6.414552e+002
2.307707e+002, 6.413508e+002
2.312529e+002, 6.410486e+002
2.317350e+002, 6.414550e+002
2.322171e+002, 6.430106e+002
2.326992e+002, 6.453741e+002
2.331813e+002, 6.474439e+002
2.336634e+002, 6.484348e+002
2.341456e+002, 6.501024e+002
2.346277e+002, 6.534998e+002
2.351098e+002, 6.573142e+002
2.355919e+002, 6.597445e+002
2.360740e+002, 6.599523e+002
2.365561e+002, 6.589717e+002
2.370383e+002, 6.598656e+002
2.375204e+002, 6.644483e+002
2.380025e+002, 6.689354e+002
2.384846e+002, 6.730363e+002
2.389667e+002, 6.769849e+002
2.394488e+002, 6.810739e+002
2.399310e+002, 6.854559e+002
2.404131e+002, 6.899944e+002
2.408952e+002, 6.943351e+002
2.413773e+002, 6.977872e+002
2.418594e+002, 7.020446e+002
2.423415e+002, 7.079525e+002
2.428237e+002, 7.145338e+002
2.433058e+002, 7.203970e+002
2.437879e+002, 7.250026e+002
2.442700e+002, 7.290799e+002
2.447521e+002, 7.343768e+002
2.452342e+002, 7.419906e+002
2.457164e+002, 7.485288e+002
2.461985e+002, 7.526719e+002
2.466806e+002, 7.556972e+002
2.471627e+002, 7.593263e+002
2.476448e+002, 7.641620e+002
2.481269e+002, 7.696369e+002
2.486091e+002, 7.747526e+002
2.490912e+002, 7.792002e+002
2.495733e+002, 7.843763e+002
2.500554e+002, 7.911832e+002
2.505375e+002, 7.987639e+002
2.510196e+002, 8.056002e+002
2.515018e+002, 8.111170e+002
2.519839e+002, 8.166124e+002
2.524660e+002, 8.243864e+002
2.529481e+002, 8.345865e+002
2.534302e+002, 8.442503e+002
2.539123e+002, 8.524349e+002
2.543945e+002, 8.597018e+002
2.548766e+002, 8.667446e+002
2.553587e+002, 8.735807e+002
2.558408e+002, 8.807294e+002
2.563229e+002, 8.898903e+002
2.568051e+002, 9.007520e+002
2.572872e+002, 9.091490e+002
2.577693e+002, 9.125705e+002
2.582514e+002, 9.131938e+002
2.587335e+002, 9.145040e+002
2.592156e+002, 9.170594e+002
2.596978e+002, 9.198781e+002
2.601799e+002, 9.229860e+002
2.606620e+002, 9.259465e+002
2.611441e+002, 9.263234e+002
2.616262e+002, 9.221486e+002
2.621083e+002, 9.153098e+002
2.625905e+002, 9.089216e+002
2.630726e+002, 9.035287e+002
2.635547e+002, 8.973979e+002
2.640368e+002, 8.885247e+002
2.645189e+002, 8.779432e+002
2.650010e+002, 8.676595e+002
2.654832e+002, 8.588422e+002
2.659653e+002, 8.505016e+002
2.664474e+002, 8.410425e+002
2.669295e+002, 8.303102e+002
2.674116e+002, 8.191495e+002
2.678937e+002, 8.071597e+002
2.683759e+002, 7.952596e+002
2.688580e+002, 7.848640e+002
2.693401e+002, 7.768958e+002
2.698222e+002, 7.702555e+002
2.703043e+002, 7.635945e+002
2.707864e+002, 7.570494e+002
2.712686e+002, 7.499144e+002
2.717507e+002, 7.402401e+002
2.722328e+002, 7.302842e+002
2.727149e+002, 7.229202e+002
2.731970e+002, 7.196929e+002
2.736791e+002, 7.175780e+002
2.741613e+002, 7.120756e+002
2.746434e+002, 7.022844e+002
2.751255e+002, 6.935167e+002
2.756076e+002, 6.890398e+002
2.760897e+002, 6.858221e+002
2.765718e+002, 6.813676e+002
2.770540e+002, 6.749663e+002
2.775361e+002, 6.682241e+002
2.780182e+002, 6.632208e+002
2.785003e+002, 6.602943e+002
2.789824e+002, 6.568405e+002
2.794645e+002, 6.513351e+002
2.799467e+002, 6.456227e+002
2.804288e+002, 6.410206e+002
2.809109e+002, 6.377186e+002
2.813930e+002, 6.348768e+002
2.818751e+002, 6.315720e+002
2.823572e+002, 6.277369e+002
2.828394e+002, 6.243312e+002
2.833215e+002, 6.213068e+002
2.838036e+002, 6.189992e+002
2.842857e+002, 6.178594e+002
2.847678e+002, 6.177831e+002
2.852499e+002, 6.179784e+002
2.857321e+002, 6.179149e+002
2.862142e+002, 6.175961e+002
2.866963e+002, 6.167289e+002
2.871784e+002, 6.149184e+002
2.876605e+002, 6.128818e+002
2.881426e+002, 6.106337e+002
2.886248e+002, 6.083818e+002
2.891069e+002, 6.067051e+002
2.895890e+002, 6.064740e+002
2.900711e+002, 6.074819e+002
2.905532e+002, 6.069618e+002
2.910353e+002, 6.028802e+002
2.915175e+002, 5.997866e+002
2.919996e+002, 6.001835e+002
2.924817e+002, 6.027228e+002
2.929638e+002, 6.047380e+002
2.934459e+002, 6.042936e+002
2.939280e+002, 6.021729e+002
2.944102e+002, 6.021454e+002
2.948923e+002, 6.063905e+002
2.953744e+002, 6.092916e+002
2.958565e+002, 6.082603e+002
2.963386e+002, 6.053602e+002
2.968207e+002, 6.031284e+002
2.973029e+002, 6.027444e+002
2.977850e+002, 6.038246e+002
2.982671e+002, 6.056049e+002
2.987492e+002, 6.086897e+002
2.992313e+002, 6.112664e+002
2.997134e+002, 6.129586e+002
3.001956e+002, 6.140338e+002
3.006777e+002, 6.145201e+002
3.011598e+002, 6.144189e+002
3.016419e+002, 6.142272e+002
3.021240e+002, 6.148948e+002
3.026061e+002, 6.168468e+002
3.030883e+002, 6.184452e+002
3.035704e+002, 6.187420e+002
3.040525e+002, 6.190962e+002
3.045346e+002, 6.205120e+002
3.050167e+002, 6.231371e+002
3.054988e+002, 6.262733e+002
3.059810e+002, 6.291843e+002
3.064631e+002, 6.318931e+002
3.069452e+002, 6.342167e+002
3.074273e+002, 6.352062e+002
3.079094e+002, 6.365438e+002
3.083915e+002, 6.392633e+002
3.088737e+002, 6.432017e+002
3.093558e+002, 6.473826e+002
3.098379e+002, 6.507582e+002
3.103200e+002, 6.532704e+002
3.108021e+002, 6.564061e+002
3.112842e+002, 6.605816e+002
3.117664e+002, 6.650327e+002
3.122485e+002, 6.696739e+002
3.127306e+002, 6.743676e+002
3.132127e+002, 6.789615e+002
3.136948e+002, 6.833829e+002
3.141769e+002, 6.875851e+002
3.146591e+002, 6.912714e+002
3.151412e+002, 6.938602e+002
3.156233e+002, 6.967526e+002
3.161054e+002, 7.002328e+002
3.165875e+002, 7.042562e+002
3.170696e+002, 7.088431e+002
3.175518e+002, 7.140653e+002
3.180339e+002, 7.196501e+002
3.185160e+002, 7.247833e+002
3.189981e+002, 7.290818e+002
3.194802e+002, 7.337445e+002
3.199623e+002, 7.397900e+002
3.204445e+002, 7.458879e+002
3.209266e+002, 7.504757e+002
3.214087e+002, 7.531179e+002
3.218908e+002, 7.553045e+002
3.223729e+002, 7.593621e+002
3.228550e+002, 7.658466e+002
3.233372e+002, 7.722825e+002
3.238193e+002, 7.787020e+002
3.243014e+002, 7.847159e+002
3.247835e+002, 7.898303e+002
3.252656e+002, 7.941069e+002
3.257477e+002, 7.983969e+002
3.262299e+002, 8.036234e+002
3.267120e+002, 8.098599e+002
3.271941e+002, 8.160970e+002
3.276762e+002, 8.236302e+002
3.281583e+002, 8.297697e+002
3.286404e+002, 8.324796e+002
3.291226e+002, 8.327014e+002
3.296047e+002, 8.331553e+002
3.300868e+002, 8.360067e+002
3.305689e+002, 8.408130e+002
3.310510e+002, 8.446665e+002
3.315331e+002, 8.476034e+002
3.320153e+002, 8.493835e+002
3.324974e+002, 8.492435e+002
3.329795e+002, 8.482534e+002
3.334616e+002, 8.481241e+002
3.339437e+002, 8.499727e+002
3.344258e+002, 8.525917e+002
3.349080e+002, 8.529720e+002
3.353901e+002, 8.500636e+002
3.358722e+002, 8.476970e+002
3.363543e+002, 8.475902e+002
3.368365e+002, 8.481945e+002
3.373186e+002, 8.480594e+002
3.378007e+002, 8.467523e+002
3.382828e+002, 8.453505e+002
3.387649e+002, 8.455355e+002
3.392470e+002, 8.476520e+002
3.397292e+002, 8.487246e+002
3.402113e+002, 8.470884e+002
3.406934e+002, 8.450213e+002
3.411755e+002, 8.437147e+002
3.416576e+002, 8.432864e+002
3.421397e+002, 8.435838e+002
3.426219e+002, 8.447983e+002
3.431040e+002, 8.468091e+002
3.435861e+002, 8.483456e+002
3.440682e+002, 8.487572e+002
3.445503e+002, 8.494585e+002
3.450324e+002, 8.518140e+002
3.455146e+002, 8.550910e+002
3.459967e+002, 8.574255e+002
3.464788e+002, 8.572000e+002
3.469609e+002, 8.555658e+002
3.474430e+002, 8.554907e+002
3.479251e+002, 8.575695e+002
3.484073e+002, 8.595720e+002
3.488894e+002, 8.603990e+002
3.493715e+002, 8.605243e+002
3.498536e+002, 8.603872e+002
3.503357e+002, 8.599943e+002
3.508178e+002, 8.596356e+002
3.513000e+002, 8.595809e+002
3.517821e+002, 8.598304e+002
3.522642e+002, 8.605929e+002
3.527463e+002, 8.626689e+002
3.532284e+002, 8.647515e+002
3.537105e+002, 8.654860e+002
3.541927e+002, 8.647242e+002
3.546748e+002, 8.633698e+002
3.551569e+002, 8.618976e+002
3.556390e+002, 8.603157e+002
3.561211e+002, 8.587076e+002
3.566032e+002, 8.572786e+002
3.570854e+002, 8.554740e+002
3.575675e+002, 8.521837e+002
3.580496e+002, 8.477980e+002
3.585317e+002, 8.445332e+002
3.590138e+002, 8.438914e+002
3.594959e+002, 8.446452e+002
3.599781e+002, 8.450280e+002
3.604602e+002, 8.449885e+002
3.609423e+002, 8.442446e+002
3.614244e+002, 8.417781e+002
3.619065e+002, 8.385288e+002
3.623886e+002, 8.368605e+002
3.628708e+002, 8.377573e+002
3.633529e+002, 8.396412e+002
3.638350e+002, 8.409161e+002
3.643171e+002, 8.418315e+002
3.647992e+002, 8.444088e+002
3.652813e+002, 8.503456e+002
3.657635e+002, 8.576417e+002
3.662456e+002, 8.624824e+002
3.667277e+002, 8.645980e+002
3.672098e+002, 8.653765e+002
3.676919e+002, 8.648105e+002
3.681740e+002, 8.633747e+002
3.686562e+002, 8.617342e+002
3.691383e+002, 8.599210e+002
3.696204e+002, 8.586074e+002
3.701025e+002, 8.589604e+002
3.705846e+002, 8.611151e+002
3.710667e+002, 8.626330e+002
3.715489e+002, 8.630578e+002
3.720310e+002, 8.628389e+002
3.725131e+002, 8.618454e+002
3.729952e+002, 8.602689e+002
3.734773e+002, 8.595978e+002
3.739594e+002, 8.611478e+002
3.744416e+002, 8.647072e+002
3.749237e+002, 8.674452e+002
3.754058e+002, 8.696324e+002
3.758879e+002, 8.708387e+002
3.763700e+002, 8.700653e+002
3.768521e+002, 8.682318e+002
3.773343e+002, 8.671487e+002
3.778164e+002, 8.676055e+002
3.782985e+002, 8.693464e+002
3.787806e+002, 8.719191e+002
3.792627e+002, 8.769551e+002
3.797448e+002, 8.800208e+002
3.802270e+002, 8.791696e+002
3.807091e+002, 8.771176e+002
3.811912e+002, 8.768658e+002
3.816733e+002, 8.787932e+002
3.821554e+002, 8.805023e+002
3.826375e+002, 8.790684e+002
3.831197e+002, 8.734675e+002
3.836018e+002, 8.699209e+002
3.840839e+002, 8.710195e+002
3.845660e+002, 8.713003e+002
3.850481e+002, 8.676517e+002
3.855302e+002, 8.610825e+002
3.860124e+002, 8.544244e+002
3.864945e+002, 8.495003e+002
3.869766e+002, 8.460358e+002
3.874587e+002, 8.425139e+002
3.879408e+002, 8.386478e+002
3.884229e+002, 8.350858e+002
3.889051e+002, 8.317855e+002
3.893872e+002, 8.288757e+002
3.898693e+002, 8.265884e+002
3.903514e+002, 8.249746e+002
3.908335e+002, 8.236553e+002
3.913156e+002, 8.220791e+002
3.917978e+002, 8.202572e+002
3.922799e+002, 8.181282e+002
3.927620e+002, 8.148458e+002
3.932441e+002, 8.119904e+002
3.937262e+002, 8.101147e+002
3.942083e+002, 8.093661e+002
3.946905e+002, 8.099022e+002
3.951726e+002, 8.121671e+002
3.956547e+002, 8.159344e+002
3.961368e+002, 8.187796e+002
3.966189e+002, 8.197322e+002
3.971010e+002, 8.211413e+002
3.975832e+002, 8.244821e+002
3.980653e+002, 8.284133e+002
3.985474e+002, 8.308096e+002
3.990295e+002, 8.305552e+002
3.995116e+002, 8.298424e+002
3.999937e+002, 8.325609e+002
4.004759e+002, 8.393972e+002
4.009580e+002, 8.460643e+002
4.014401e+002, 8.511160e+002
4.019222e+002, 8.559658e+002
4.024043e+002, 8.617701e+002
4.028864e+002, 8.685309e+002
4.033686e+002, 8.750845e+002
4.038507e+002, 8.805193e+002
4.043328e+002, 8.850198e+002
4.048149e+002, 8.893077e+002
4.052970e+002, 8.932124e+002
4.057791e+002, 8.973214e+002
4.062613e+002, 9.019999e+002
4.067434e+002, 9.071588e+002
4.072255e+002, 9.129039e+002
4.077076e+002, 9.205994e+002
4.081897e+002, 9.276100e+002
4.086718e+002, 9.306033e+002
4.091540e+002, 9.296911e+002
4.096361e+002, 9.277323e+002
4.101182e+002, 9.260421e+002
4.106003e+002, 9.237731e+002
4.110824e+002, 9.194294e+002
