##NAMES=Adelite
##RRUFFID=R060687
##IDEAL CHEMISTRY=CaMgAs^5+^O_4_(OH)
##LOCALITY=Jakobsberg mine,  Nordmark,  Filipstad,  Varmland,  Sweden
##OWNER=Michael Scott
##SOURCE=Michael Scott
##DESCRIPTION=Colorless irregular shaped crystals, associated with colorless tilasite and berzeliite (R061084).
##STATUS=The identification of this mineral is confirmed by single-crystal X-ray diffraction and chemical analysis.
##URL=rruff.info/R060687
##MEASURED CHEMISTRY=(Ca_0.55_Na_0.38_Mn_0.07_)_Σ=1_(Mg_0.74_Ca_0.26_)_Σ=1_(As_1.00_O_4_)(OH)
148.6279, 1569.763
149.1100, 1580.882
149.5921, 1575.331
150.0742, 1561.769
150.5564, 1555.105
151.0385, 1559.154
151.5206, 1565.653
152.0027, 1566.395
152.4848, 1561.900
152.9669, 1552.248
153.4491, 1528.648
153.9312, 1499.535
154.4133, 1488.397
154.8954, 1506.317
155.3775, 1529.730
155.8596, 1534.445
156.3418, 1521.599
156.8239, 1502.791
157.3060, 1478.694
157.7881, 1452.072
158.2702, 1433.128
158.7523, 1424.620
159.2345, 1423.520
159.7166, 1425.418
160.1987, 1430.253
160.6808, 1440.145
161.1629, 1458.847
161.6451, 1484.834
162.1272, 1508.778
162.6093, 1528.589
163.0914, 1546.968
163.5735, 1568.992
164.0556, 1594.504
164.5378, 1613.243
165.0199, 1613.230
165.5020, 1596.813
165.9841, 1588.359
166.4662, 1594.986
166.9483, 1608.315
167.4305, 1625.108
167.9126, 1644.653
168.3947, 1659.719
168.8768, 1664.108
169.3589, 1657.956
169.8410, 1647.179
170.3232, 1628.474
170.8053, 1608.764
171.2874, 1592.264
171.7695, 1579.250
172.2516, 1567.486
172.7337, 1555.182
173.2158, 1542.236
173.6980, 1529.254
174.1801, 1518.206
174.6622, 1505.221
175.1443, 1486.649
175.6264, 1462.585
176.1085, 1438.195
176.5907, 1418.021
177.0728, 1401.925
177.5549, 1389.384
178.0370, 1383.671
178.5191, 1379.152
179.0012, 1372.415
179.4834, 1363.340
179.9655, 1354.890
180.4476, 1351.311
180.9297, 1353.799
181.4118, 1352.353
181.8939, 1338.553
182.3761, 1325.877
182.8582, 1322.549
183.3403, 1328.603
183.8224, 1336.460
184.3045, 1336.942
184.7866, 1328.155
185.2688, 1324.579
185.7509, 1338.347
186.2330, 1349.536
186.7151, 1345.095
187.1972, 1325.798
187.6793, 1305.604
188.1615, 1299.972
188.6436, 1311.890
189.1257, 1321.122
189.6078, 1327.244
190.0899, 1329.734
190.5720, 1326.297
191.0542, 1317.801
191.5363, 1308.744
192.0184, 1302.573
192.5005, 1298.677
192.9826, 1301.249
193.4647, 1319.770
193.9469, 1337.550
194.4290, 1347.403
194.9111, 1349.228
195.3932, 1347.394
195.8753, 1345.893
196.3574, 1344.934
196.8396, 1343.001
197.3217, 1334.054
197.8038, 1329.220
198.2859, 1336.720
198.7680, 1354.226
199.2501, 1371.311
199.7323, 1377.058
200.2144, 1369.915
200.6965, 1365.134
201.1786, 1366.475
201.6607, 1367.086
202.1428, 1364.333
202.6250, 1358.454
203.1071, 1351.115
203.5892, 1342.734
204.0713, 1332.943
204.5534, 1327.315
205.0355, 1331.275
205.5177, 1334.671
205.9998, 1335.067
206.4819, 1332.014
206.9640, 1324.949
207.4461, 1310.539
207.9282, 1288.768
208.4103, 1279.682
208.8925, 1294.895
209.3746, 1312.108
209.8567, 1325.249
210.3388, 1334.442
210.8209, 1341.668
211.3030, 1348.635
211.7852, 1355.075
212.2673, 1357.655
212.7494, 1353.153
213.2315, 1348.121
213.7136, 1342.326
214.1957, 1337.658
214.6779, 1337.691
215.1600, 1346.114
215.6421, 1361.122
216.1242, 1370.955
216.6063, 1373.612
217.0884, 1373.205
217.5706, 1371.529
218.0527, 1367.912
218.5348, 1360.601
219.0169, 1347.421
219.4990, 1330.847
219.9811, 1320.700
220.4633, 1320.552
220.9454, 1321.702
221.4275, 1320.671
221.9096, 1319.542
222.3917, 1321.429
222.8738, 1328.379
223.3560, 1338.102
223.8381, 1345.029
224.3202, 1350.043
224.8023, 1349.922
225.2844, 1337.101
225.7665, 1322.173
226.2487, 1317.722
226.7308, 1329.844
227.2129, 1349.727
227.6950, 1359.729
228.1771, 1355.477
228.6592, 1352.612
229.1414, 1355.188
229.6235, 1360.644
230.1056, 1367.851
230.5877, 1376.689
231.0698, 1384.823
231.5519, 1387.085
232.0341, 1380.366
232.5162, 1380.077
232.9983, 1397.205
233.4804, 1417.495
233.9625, 1431.811
234.4446, 1438.178
234.9268, 1440.499
235.4089, 1440.841
235.8910, 1438.239
236.3731, 1442.647
236.8552, 1468.075
237.3373, 1492.037
237.8195, 1497.045
238.3016, 1482.349
238.7837, 1465.472
239.2658, 1462.319
239.7479, 1472.526
240.2300, 1482.692
240.7122, 1492.468
241.1943, 1500.209
241.6764, 1504.596
242.1585, 1505.923
242.6406, 1506.159
243.1227, 1505.827
243.6048, 1505.263
244.0870, 1506.819
244.5691, 1512.892
245.0512, 1517.687
245.5333, 1516.611
246.0154, 1510.980
246.4975, 1505.220
246.9797, 1501.466
247.4618, 1499.201
247.9439, 1497.440
248.4260, 1496.746
248.9081, 1495.077
249.3902, 1488.890
249.8724, 1480.687
250.3545, 1475.989
250.8366, 1478.976
251.3187, 1485.628
251.8008, 1489.633
252.2829, 1490.499
252.7651, 1491.364
253.2472, 1495.159
253.7293, 1500.039
254.2114, 1502.424
254.6935, 1499.018
255.1756, 1495.464
255.6578, 1497.976
256.1399, 1506.469
256.6220, 1515.700
257.1041, 1524.467
257.5862, 1531.545
258.0684, 1534.661
258.5505, 1530.378
259.0326, 1527.767
259.5147, 1535.930
259.9968, 1551.964
260.4789, 1562.764
260.9610, 1562.708
261.4431, 1555.607
261.9253, 1547.976
262.4074, 1538.348
262.8895, 1532.373
263.3716, 1533.488
263.8537, 1539.711
264.3358, 1547.909
264.8180, 1557.851
265.3001, 1567.263
265.7822, 1571.841
266.2643, 1570.662
266.7464, 1570.911
267.2285, 1573.459
267.7107, 1578.344
268.1928, 1585.723
268.6749, 1595.591
269.1570, 1607.766
269.6391, 1622.775
270.1212, 1641.753
270.6034, 1656.814
271.0855, 1667.590
271.5676, 1674.721
272.0497, 1674.878
272.5318, 1669.791
273.0139, 1669.611
273.4961, 1684.169
273.9782, 1713.830
274.4603, 1733.442
274.9424, 1735.507
275.4245, 1736.540
275.9066, 1742.964
276.3888, 1753.961
276.8709, 1766.483
277.3530, 1778.826
277.8351, 1791.131
278.3172, 1804.326
278.7993, 1817.239
279.2815, 1832.505
279.7636, 1854.852
280.2457, 1878.567
280.7278, 1895.601
281.2099, 1902.479
281.6920, 1903.403
282.1742, 1908.010
282.6563, 1917.354
283.1384, 1929.340
283.6205, 1948.334
284.1026, 1967.035
284.5847, 1979.412
285.0669, 1984.140
285.5490, 1984.369
286.0311, 1983.779
286.5132, 1981.597
286.9953, 1980.932
287.4774, 1984.023
287.9596, 1986.640
288.4417, 1983.921
288.9238, 1977.724
289.4059, 1975.815
289.8880, 1987.788
290.3701, 2013.844
290.8523, 2029.131
291.3344, 2024.938
291.8165, 2018.716
292.2986, 2012.943
292.7807, 2009.959
293.2628, 2014.163
293.7450, 2030.786
294.2271, 2054.475
294.7092, 2068.108
295.1913, 2068.233
295.6734, 2065.616
296.1555, 2061.860
296.6377, 2058.626
297.1198, 2058.162
297.6019, 2061.603
298.0840, 2066.718
298.5661, 2069.903
299.0482, 2070.705
299.5304, 2074.640
300.0125, 2085.562
300.4946, 2099.005
300.9767, 2109.966
301.4588, 2117.585
301.9409, 2126.953
302.4231, 2144.732
302.9052, 2167.970
303.3873, 2183.732
303.8694, 2186.740
304.3515, 2186.855
304.8336, 2195.582
305.3158, 2211.933
305.7979, 2226.638
306.2800, 2233.905
306.7621, 2239.035
307.2442, 2248.645
307.7263, 2263.336
308.2085, 2282.862
308.6906, 2308.661
309.1727, 2340.191
309.6548, 2369.240
310.1369, 2396.037
310.6190, 2419.729
311.1012, 2435.720
311.5833, 2446.997
312.0654, 2465.294
312.5475, 2497.963
313.0296, 2541.504
313.5117, 2581.155
313.9939, 2612.308
314.4760, 2645.871
314.9581, 2686.038
315.4402, 2729.140
315.9223, 2770.350
316.4044, 2807.986
316.8866, 2843.135
317.3687, 2876.882
317.8508, 2902.142
318.3329, 2941.225
318.8150, 3003.790
319.2971, 3071.663
319.7793, 3131.725
320.2614, 3183.401
320.7435, 3236.967
321.2256, 3303.409
321.7077, 3384.928
322.1898, 3457.880
322.6720, 3518.003
323.1541, 3574.486
323.6362, 3626.083
324.1183, 3676.374
324.6004, 3732.328
325.0826, 3798.979
325.5647, 3872.183
326.0468, 3936.839
326.5289, 3991.708
327.0110, 4039.923
327.4931, 4081.489
327.9753, 4118.373
328.4574, 4153.745
328.9395, 4189.018
329.4216, 4217.089
329.9037, 4228.973
330.3858, 4224.171
330.8679, 4210.877
331.3500, 4186.717
331.8322, 4157.415
332.3143, 4128.894
332.7964, 4100.764
333.2785, 4067.454
333.7606, 4022.624
334.2427, 3970.315
334.7249, 3920.721
335.2070, 3874.765
335.6891, 3830.364
336.1712, 3785.580
336.6533, 3740.823
337.1354, 3697.450
337.6176, 3660.015
338.0997, 3620.707
338.5818, 3571.860
339.0639, 3514.318
339.5460, 3454.574
340.0281, 3392.308
340.5103, 3332.859
340.9924, 3292.704
341.4745, 3280.693
341.9566, 3269.911
342.4387, 3255.730
342.9208, 3237.512
343.4030, 3212.019
343.8851, 3178.281
344.3672, 3144.311
344.8493, 3121.698
345.3314, 3114.933
345.8135, 3107.568
346.2957, 3101.796
346.7778, 3093.733
347.2599, 3077.037
347.7420, 3054.941
348.2241, 3039.231
348.7062, 3040.887
349.1884, 3057.904
349.6705, 3060.639
350.1526, 3028.407
350.6347, 3005.618
351.1168, 3008.140
351.5989, 3021.946
352.0811, 3028.965
352.5632, 3021.629
353.0453, 3007.372
353.5274, 3000.267
354.0095, 3003.693
354.4916, 3001.963
354.9738, 2982.916
355.4559, 2964.518
355.9380, 2959.149
356.4201, 2966.811
356.9022, 2976.102
357.3843, 2978.759
357.8665, 2975.840
358.3486, 2969.217
358.8307, 2952.554
359.3128, 2946.574
359.7949, 2987.286
360.2770, 3049.751
360.7592, 3076.259
361.2413, 3026.909
361.7234, 2955.891
362.2055, 2915.112
362.6876, 2901.166
363.1697, 2887.587
363.6519, 2862.729
364.1340, 2830.655
364.6161, 2801.582
365.0982, 2777.934
365.5803, 2751.011
366.0624, 2715.054
366.5446, 2675.908
367.0267, 2641.114
367.5088, 2612.454
367.9909, 2585.865
368.4730, 2557.256
368.9551, 2526.126
369.4373, 2494.877
369.9194, 2458.597
370.4015, 2426.899
370.8836, 2407.514
371.3657, 2396.597
371.8478, 2384.742
372.3300, 2365.847
372.8121, 2342.578
373.2942, 2325.461
373.7763, 2320.613
374.2584, 2312.271
374.7405, 2299.962
375.2227, 2282.780
375.7048, 2257.731
376.1869, 2224.823
376.6690, 2190.872
377.1511, 2161.903
377.6332, 2137.937
378.1154, 2122.566
378.5975, 2122.359
379.0796, 2123.233
379.5617, 2116.186
380.0438, 2103.280
380.5259, 2090.528
381.0081, 2079.827
381.4902, 2071.212
381.9723, 2063.887
382.4544, 2057.708
382.9365, 2056.598
383.4186, 2065.798
383.9008, 2079.414
384.3829, 2083.790
384.8650, 2073.315
385.3471, 2065.980
385.8292, 2071.795
386.3113, 2085.031
386.7935, 2096.594
387.2756, 2104.359
387.7577, 2109.325
388.2398, 2112.003
388.7219, 2111.341
389.2040, 2114.318
389.6862, 2127.007
390.1683, 2137.450
390.6504, 2135.141
391.1325, 2125.382
391.6146, 2122.535
392.0967, 2135.969
392.5789, 2159.864
393.0610, 2172.885
393.5431, 2166.992
394.0252, 2163.030
394.5073, 2160.774
394.9894, 2162.743
395.4716, 2172.771
395.9537, 2190.765
396.4358, 2210.371
396.9179, 2223.235
397.4000, 2229.545
397.8821, 2245.396
398.3643, 2281.864
398.8464, 2311.948
399.3285, 2319.909
399.8106, 2311.539
400.2927, 2298.051
400.7748, 2278.795
401.2569, 2260.981
401.7390, 2254.192
402.2212, 2257.702
402.7033, 2262.813
403.1854, 2268.413
403.6675, 2271.217
404.1496, 2265.351
404.6317, 2250.988
405.1139, 2230.276
405.5960, 2198.231
406.0781, 2163.174
406.5602, 2134.016
407.0423, 2111.894
407.5244, 2092.678
408.0066, 2072.948
408.4887, 2052.703
408.9708, 2034.984
409.4529, 2025.592
409.9350, 2011.858
410.4171, 1984.095
410.8993, 1952.225
411.3814, 1930.634
411.8635, 1924.646
412.3456, 1926.891
412.8277, 1925.037
413.3098, 1917.262
413.7920, 1911.958
414.2741, 1913.038
414.7562, 1913.988
415.2383, 1909.988
415.7204, 1902.752
416.2025, 1898.814
416.6847, 1905.321
417.1668, 1916.285
417.6489, 1916.801
418.1310, 1904.744
418.6131, 1895.138
419.0952, 1894.431
419.5774, 1900.928
420.0595, 1912.019
420.5416, 1930.693
421.0237, 1945.619
421.5058, 1949.964
421.9879, 1947.499
422.4701, 1942.408
422.9522, 1935.479
423.4343, 1932.409
423.9164, 1939.924
424.3985, 1959.423
424.8806, 1974.611
425.3628, 1981.764
425.8449, 1989.131
426.3270, 1999.826
426.8091, 2013.003
427.2912, 2026.567
427.7733, 2039.484
428.2555, 2053.405
428.7376, 2073.071
429.2197, 2103.225
429.7018, 2126.525
430.1839, 2139.810
430.6660, 2147.788
431.1482, 2150.299
431.6303, 2148.992
432.1124, 2148.597
432.5945, 2151.716
433.0766, 2158.136
433.5587, 2167.669
434.0409, 2180.588
434.5230, 2195.599
435.0051, 2216.097
435.4872, 2236.145
435.9693, 2245.804
436.4514, 2240.583
436.9336, 2236.968
437.4157, 2240.880
437.8978, 2252.229
438.3799, 2274.557
438.8620, 2308.522
439.3441, 2340.423
439.8263, 2356.236
440.3084, 2354.732
440.7905, 2360.908
441.2726, 2377.456
441.7547, 2397.414
442.2368, 2423.528
442.7190, 2450.022
443.2011, 2467.486
443.6832, 2472.354
444.1653, 2471.455
444.6474, 2476.674
445.1295, 2490.415
445.6117, 2501.584
446.0938, 2506.738
446.5759, 2511.842
447.0580, 2520.514
447.5401, 2531.436
448.0222, 2540.527
448.5044, 2544.869
448.9865, 2546.797
449.4686, 2551.430
449.9507, 2559.082
450.4328, 2561.219
450.9149, 2549.912
451.3971, 2535.831
451.8792, 2537.902
452.3613, 2559.974
452.8434, 2576.984
453.3255, 2576.109
453.8076, 2569.821
454.2898, 2574.609
454.7719, 2589.902
455.2540, 2599.886
455.7361, 2592.511
456.2182, 2569.756
456.7003, 2546.142
457.1825, 2510.635
457.6646, 2488.046
458.1467, 2487.551
458.6288, 2497.420
459.1109, 2509.927
459.5930, 2521.884
460.0752, 2528.139
460.5573, 2519.015
461.0394, 2494.931
461.5215, 2484.474
462.0036, 2497.530
462.4857, 2507.324
462.9679, 2495.200
463.4500, 2472.901
463.9321, 2459.275
464.4142, 2462.354
464.8963, 2467.299
465.3784, 2461.133
465.8606, 2447.113
466.3427, 2436.146
466.8248, 2431.646
467.3069, 2426.823
467.7890, 2414.178
468.2711, 2392.614
468.7533, 2369.001
469.2354, 2332.149
469.7175, 2304.611
470.1996, 2304.010
470.6817, 2319.209
471.1638, 2329.588
471.6459, 2326.082
472.1281, 2312.884
472.6102, 2296.498
473.0923, 2274.400
473.5744, 2256.617
474.0565, 2247.659
474.5386, 2239.578
475.0208, 2230.678
475.5029, 2219.736
475.9850, 2204.219
476.4671, 2181.333
476.9492, 2154.729
477.4313, 2129.323
477.9135, 2105.028
478.3956, 2082.516
478.8777, 2061.409
479.3598, 2042.912
479.8419, 2029.984
480.3240, 2022.978
480.8062, 2015.745
481.2883, 2006.163
481.7704, 1996.610
482.2525, 1988.168
482.7346, 1981.418
483.2167, 1978.486
483.6989, 1981.469
484.1810, 1986.893
484.6631, 1982.302
485.1452, 1955.582
485.6273, 1940.310
486.1094, 1948.198
486.5916, 1959.315
487.0737, 1960.486
487.5558, 1951.531
488.0379, 1939.581
488.5200, 1926.724
489.0021, 1915.699
489.4843, 1916.935
489.9664, 1933.255
490.4485, 1943.967
490.9306, 1934.727
491.4127, 1918.985
491.8948, 1919.714
492.3770, 1941.084
492.8591, 1960.353
493.3412, 1971.546
493.8233, 1975.756
494.3054, 1971.977
494.7875, 1961.356
495.2697, 1948.762
495.7518, 1936.375
496.2339, 1926.030
496.7160, 1927.553
497.1981, 1951.652
497.6802, 1973.020
498.1624, 1994.556
498.6445, 2009.260
499.1266, 2007.261
499.6087, 1990.376
500.0908, 1974.025
500.5729, 1973.017
501.0551, 1982.441
501.5372, 1981.762
502.0193, 1967.147
502.5014, 1958.931
502.9835, 1972.421
503.4656, 1994.142
503.9478, 2002.479
504.4299, 1994.964
504.9120, 1981.883
505.3941, 1965.552
505.8762, 1946.671
506.3583, 1924.009
506.8405, 1898.528
507.3226, 1876.366
507.8047, 1862.158
508.2868, 1854.646
508.7689, 1847.348
509.2510, 1841.013
509.7332, 1833.777
510.2153, 1829.908
510.6974, 1822.073
511.1795, 1799.298
511.6616, 1763.971
512.1437, 1734.383
512.6259, 1729.784
513.1080, 1741.141
513.5901, 1737.478
514.0722, 1715.778
514.5543, 1696.527
515.0364, 1691.208
515.5186, 1691.765
516.0007, 1683.433
516.4828, 1663.215
516.9649, 1646.546
517.4470, 1640.416
517.9291, 1638.583
518.4113, 1634.996
518.8934, 1629.423
519.3755, 1624.171
519.8576, 1620.701
520.3397, 1618.803
520.8218, 1618.029
521.3040, 1621.736
521.7861, 1620.346
522.2682, 1607.993
522.7503, 1595.026
523.2324, 1588.992
523.7145, 1589.273
524.1967, 1589.904
524.6788, 1586.779
525.1609, 1581.829
525.6430, 1579.137
526.1251, 1578.762
526.6072, 1577.915
527.0894, 1576.587
527.5715, 1573.011
528.0536, 1562.045
528.5357, 1541.315
529.0178, 1528.109
529.4999, 1531.210
529.9821, 1537.057
530.4642, 1535.263
530.9463, 1528.133
531.4284, 1523.561
531.9105, 1525.730
532.3926, 1531.553
532.8748, 1534.213
533.3569, 1532.388
533.8390, 1531.896
534.3211, 1535.620
534.8032, 1538.326
535.2853, 1535.834
535.7675, 1530.163
536.2496, 1526.995
536.7317, 1530.314
537.2138, 1534.585
537.6959, 1534.706
538.1780, 1530.938
538.6602, 1522.424
539.1423, 1507.724
539.6244, 1495.208
540.1065, 1495.791
540.5886, 1511.885
541.0707, 1521.364
541.5529, 1522.471
542.0350, 1519.671
542.5171, 1512.135
542.9992, 1502.517
543.4813, 1491.773
543.9634, 1480.815
544.4456, 1476.283
544.9277, 1491.715
545.4098, 1526.014
545.8919, 1544.120
546.3740, 1541.046
546.8561, 1530.732
547.3383, 1515.010
547.8204, 1498.676
548.3025, 1491.415
548.7846, 1499.355
549.2667, 1503.561
549.7488, 1489.461
550.2310, 1469.546
550.7131, 1461.329
551.1952, 1466.120
551.6773, 1474.224
552.1594, 1478.631
552.6415, 1479.901
553.1237, 1480.986
553.6058, 1482.610
554.0879, 1482.782
554.5700, 1480.239
555.0521, 1477.188
555.5342, 1474.336
556.0164, 1472.260
556.4985, 1472.619
556.9806, 1477.804
557.4627, 1485.164
557.9448, 1490.654
558.4269, 1494.328
558.9091, 1496.492
559.3912, 1496.912
559.8733, 1496.606
560.3554, 1497.294
560.8375, 1499.701
561.3196, 1499.976
561.8018, 1497.345
562.2839, 1493.298
562.7660, 1488.293
563.2481, 1482.436
563.7302, 1474.733
564.2123, 1464.805
564.6945, 1456.463
565.1766, 1456.462
565.6587, 1465.095
566.1408, 1470.901
566.6229, 1472.791
567.1050, 1472.643
567.5872, 1469.696
568.0693, 1465.832
568.5514, 1464.536
569.0335, 1466.291
569.5156, 1470.511
569.9977, 1479.460
570.4799, 1489.461
570.9620, 1496.294
571.4441, 1499.128
571.9262, 1497.476
572.4083, 1490.222
572.8904, 1479.075
573.3726, 1472.611
573.8547, 1473.917
574.3368, 1474.151
574.8189, 1468.766
575.3010, 1464.620
575.7831, 1469.438
576.2653, 1481.023
576.7473, 1487.148
577.2294, 1476.525
577.7115, 1461.203
578.1937, 1455.904
578.6758, 1459.370
579.1579, 1466.630
579.6400, 1476.916
580.1221, 1486.213
580.6042, 1489.151
581.0864, 1484.805
581.5685, 1479.335
582.0506, 1470.174
582.5327, 1462.958
583.0148, 1463.457
583.4969, 1465.227
583.9791, 1457.795
584.4612, 1438.850
584.9433, 1420.779
585.4254, 1418.939
585.9075, 1428.779
586.3896, 1429.069
586.8718, 1416.826
587.3539, 1408.664
587.8360, 1415.855
588.3181, 1430.872
588.8002, 1435.835
589.2823, 1426.926
589.7645, 1419.816
590.2466, 1420.693
590.7287, 1421.136
591.2108, 1412.953
591.6929, 1398.911
592.1750, 1386.578
592.6572, 1379.680
593.1393, 1378.583
593.6214, 1386.925
594.1035, 1406.524
594.5856, 1416.750
595.0677, 1412.243
595.5499, 1402.893
596.0320, 1394.284
596.5141, 1386.068
596.9962, 1377.350
597.4783, 1365.172
597.9604, 1356.934
598.4426, 1360.636
598.9247, 1368.075
599.4068, 1368.192
599.8889, 1359.898
600.3710, 1348.331
600.8531, 1336.745
601.3353, 1326.338
601.8174, 1323.343
602.2995, 1331.711
602.7816, 1337.722
603.2637, 1336.439
603.7458, 1334.075
604.2280, 1335.604
604.7101, 1340.106
605.1922, 1342.248
605.6743, 1340.902
606.1564, 1335.656
606.6385, 1321.332
607.1207, 1303.300
607.6028, 1296.363
608.0849, 1304.403
608.5670, 1314.796
609.0491, 1313.240
609.5313, 1299.614
610.0134, 1292.835
610.4955, 1300.309
610.9776, 1303.811
611.4597, 1296.093
611.9418, 1285.430
612.4240, 1278.519
612.9061, 1276.307
613.3882, 1277.489
613.8703, 1283.559
614.3524, 1291.244
614.8345, 1297.047
615.3167, 1300.669
615.7988, 1301.138
616.2809, 1298.025
616.7630, 1291.711
617.2451, 1281.469
617.7272, 1264.706
618.2094, 1258.305
618.6915, 1275.197
619.1736, 1287.495
619.6557, 1282.963
620.1378, 1272.027
620.6199, 1267.303
621.1021, 1271.651
621.5842, 1278.836
622.0663, 1284.961
622.5484, 1290.288
623.0305, 1295.725
623.5126, 1301.186
623.9948, 1305.337
624.4769, 1308.131
624.9590, 1307.821
625.4411, 1300.351
625.9232, 1281.039
626.4053, 1268.494
626.8875, 1263.770
627.3696, 1263.822
627.8517, 1271.458
628.3338, 1281.612
628.8159, 1286.685
629.2980, 1284.281
629.7802, 1279.501
630.2623, 1276.684
630.7444, 1275.214
631.2265, 1272.597
631.7086, 1268.643
632.1907, 1268.386
632.6729, 1275.772
633.1550, 1286.646
633.6371, 1291.211
634.1192, 1284.735
634.6013, 1282.169
635.0834, 1288.878
635.5656, 1293.914
636.0477, 1289.920
636.5298, 1280.998
637.0119, 1274.420
637.4940, 1272.890
637.9761, 1274.038
638.4583, 1275.959
638.9404, 1278.596
639.4225, 1282.259
639.9046, 1287.059
640.3867, 1290.425
640.8688, 1289.940
641.3510, 1288.110
641.8331, 1291.691
