##NAMES=Adelite
##RRUFFID=R060687
##IDEAL CHEMISTRY=CaMgAs^5+^O_4_(OH)
##LOCALITY=Jakobsberg mine,  Nordmark,  Filipstad,  Varmland,  Sweden
##OWNER=Michael Scott
##SOURCE=Michael Scott
##DESCRIPTION=Colorless irregular shaped crystals, associated with colorless tilasite and berzeliite (R061084).
##STATUS=The identification of this mineral is confirmed by single-crystal X-ray diffraction and chemical analysis.
##URL=rruff.info/R060687
##MEASURED CHEMISTRY=(Ca_0.55_Na_0.38_Mn_0.07_)_Σ=1_(Mg_0.74_Ca_0.26_)_Σ=1_(As_1.00_O_4_)(OH)
137.4746, 894.9817
137.9567, 899.4521
138.4389, 900.5562
138.9210, 900.8524
139.4031, 904.4445
139.8852, 912.8884
140.3673, 920.0956
140.8494, 924.6014
141.3316, 927.2195
141.8137, 924.1643
142.2958, 911.5652
142.7779, 895.2321
143.2600, 890.6708
143.7421, 904.8473
144.2243, 920.2070
144.7064, 927.0267
145.1885, 916.7120
145.6706, 914.4023
146.1527, 925.6615
146.6348, 948.3618
147.1170, 962.6954
147.5991, 964.7838
148.0812, 961.4658
148.5633, 957.4647
149.0454, 945.2510
149.5275, 940.7704
150.0097, 948.6183
150.4918, 971.1762
150.9739, 990.3770
151.4560, 1005.238
151.9381, 1016.853
152.4202, 1026.605
152.9024, 1031.251
153.3845, 1036.801
153.8666, 1045.850
154.3487, 1061.507
154.8308, 1072.922
155.3129, 1074.930
155.7950, 1071.961
156.2772, 1072.623
156.7593, 1083.561
157.2414, 1095.038
157.7235, 1101.785
158.2056, 1094.560
158.6877, 1094.249
159.1699, 1111.232
159.6520, 1141.217
160.1341, 1166.809
160.6162, 1180.125
161.0983, 1187.983
161.5804, 1195.511
162.0626, 1200.590
162.5447, 1208.726
163.0268, 1224.700
163.5089, 1247.999
163.9910, 1268.420
164.4731, 1279.145
164.9553, 1284.961
165.4374, 1291.449
165.9195, 1304.635
166.4016, 1316.402
166.8837, 1321.359
167.3658, 1318.725
167.8480, 1312.830
168.3301, 1303.864
168.8122, 1293.572
169.2943, 1285.233
169.7764, 1286.716
170.2585, 1287.797
170.7407, 1277.317
171.2228, 1251.084
171.7049, 1221.556
172.1870, 1198.994
172.6691, 1181.663
173.1512, 1164.309
173.6334, 1141.414
174.1155, 1116.920
174.5976, 1097.268
175.0797, 1086.503
175.5618, 1077.153
176.0439, 1058.206
176.5260, 1031.150
177.0082, 1008.047
177.4903, 1002.204
177.9724, 1006.615
178.4545, 1006.066
178.9366, 993.3850
179.4187, 975.2110
179.9009, 960.7909
180.3830, 949.9896
180.8651, 943.5797
181.3472, 946.5373
181.8293, 955.6104
182.3114, 959.2676
182.7936, 948.9756
183.2757, 930.6399
183.7578, 917.7729
184.2399, 910.8326
184.7220, 907.1635
185.2041, 905.6323
185.6863, 905.6352
186.1684, 903.1128
186.6505, 892.2469
187.1326, 876.3666
187.6147, 868.3962
188.0968, 869.3271
188.5790, 876.9026
189.0611, 891.5814
189.5432, 913.1279
190.0253, 929.7450
190.5074, 932.4552
190.9895, 922.8156
191.4717, 913.0952
191.9538, 903.5010
192.4359, 895.6956
192.9180, 894.4369
193.4001, 900.2874
193.8822, 907.0496
194.3644, 910.5512
194.8465, 910.8650
195.3286, 909.5924
195.8107, 905.6331
196.2928, 900.8850
196.7749, 903.5278
197.2570, 915.1783
197.7392, 926.6829
198.2213, 927.6339
198.7034, 916.8047
199.1855, 910.7164
199.6676, 914.7205
200.1497, 926.8981
200.6319, 933.9252
201.1140, 935.0345
201.5961, 932.9551
202.0782, 929.6682
202.5603, 924.5644
203.0424, 921.7621
203.5246, 923.1932
204.0067, 928.7945
204.4888, 933.2850
204.9709, 936.8900
205.4530, 939.0347
205.9352, 937.6078
206.4173, 930.7206
206.8994, 927.2862
207.3815, 932.4754
207.8636, 947.9898
208.3457, 956.2017
208.8279, 954.3890
209.3100, 948.1254
209.7921, 947.4822
210.2742, 953.5078
210.7563, 962.4178
211.2384, 973.7853
211.7206, 989.6450
212.2027, 999.4175
212.6848, 1001.008
213.1669, 997.5972
213.6490, 997.2619
214.1311, 1001.221
214.6133, 1005.616
215.0954, 1008.840
215.5775, 1011.245
216.0596, 1010.867
216.5417, 1006.352
217.0238, 999.1937
217.5059, 995.2372
217.9881, 997.1265
218.4702, 997.7917
218.9523, 991.1921
219.4344, 971.3447
219.9165, 960.9505
220.3986, 966.3458
220.8808, 983.8513
221.3629, 989.6940
221.8450, 976.8680
222.3271, 962.0145
222.8092, 957.6155
223.2913, 968.6569
223.7735, 979.1772
224.2556, 987.4609
224.7377, 993.5485
225.2198, 997.0228
225.7019, 996.5898
226.1840, 994.9904
226.6662, 994.4747
227.1483, 995.1542
227.6304, 996.7529
228.1125, 1000.109
228.5946, 1005.307
229.0767, 1006.599
229.5589, 1001.242
230.0410, 994.6227
230.5231, 992.2814
231.0052, 995.9755
231.4873, 1000.854
231.9694, 1006.190
232.4516, 1012.011
232.9337, 1018.185
233.4158, 1025.811
233.8979, 1032.945
234.3800, 1036.602
234.8621, 1033.562
235.3443, 1032.798
235.8264, 1037.937
236.3085, 1051.085
236.7906, 1058.024
237.2727, 1056.262
237.7548, 1050.040
238.2369, 1044.859
238.7191, 1039.440
239.2012, 1037.253
239.6833, 1040.383
240.1654, 1051.152
240.6475, 1057.760
241.1296, 1058.473
241.6118, 1055.997
242.0939, 1054.643
242.5760, 1054.168
243.0581, 1055.190
243.5402, 1057.899
244.0223, 1062.223
244.5045, 1068.932
244.9866, 1081.397
245.4687, 1094.682
245.9508, 1098.033
246.4329, 1084.212
246.9150, 1071.827
247.3972, 1068.429
247.8793, 1077.882
248.3614, 1086.263
248.8435, 1094.077
249.3256, 1100.664
249.8077, 1103.582
250.2899, 1098.836
250.7720, 1096.769
251.2541, 1103.160
251.7362, 1124.528
252.2183, 1137.640
252.7004, 1138.060
253.1826, 1131.412
253.6647, 1133.021
254.1468, 1147.693
254.6289, 1162.916
255.1110, 1173.152
255.5931, 1177.621
256.0753, 1178.407
256.5574, 1172.913
257.0395, 1164.463
257.5216, 1164.001
258.0037, 1175.954
258.4858, 1188.125
258.9680, 1194.240
259.4501, 1193.042
259.9322, 1189.306
260.4143, 1182.458
260.8964, 1173.434
261.3785, 1165.416
261.8607, 1158.637
262.3428, 1152.356
262.8249, 1145.991
263.3070, 1139.307
263.7891, 1133.293
264.2712, 1127.118
264.7534, 1121.998
265.2355, 1123.451
265.7176, 1134.842
266.1997, 1145.631
266.6818, 1148.507
267.1639, 1140.361
267.6461, 1136.387
268.1282, 1138.812
268.6103, 1145.821
269.0924, 1151.658
269.5745, 1156.224
270.0566, 1159.658
270.5387, 1161.877
271.0208, 1162.629
271.5030, 1163.435
271.9851, 1165.166
272.4672, 1166.706
272.9493, 1163.784
273.4314, 1155.351
273.9135, 1145.838
274.3957, 1136.656
274.8778, 1126.918
275.3599, 1124.795
275.8420, 1132.667
276.3241, 1147.891
276.8062, 1164.265
277.2884, 1183.328
277.7705, 1197.327
278.2526, 1197.771
278.7347, 1183.486
279.2168, 1175.596
279.6989, 1177.643
280.1811, 1186.805
280.6632, 1196.103
281.1453, 1205.703
281.6274, 1214.295
282.1095, 1220.674
282.5916, 1224.832
283.0738, 1228.791
283.5559, 1233.007
284.0380, 1236.921
284.5201, 1238.035
285.0022, 1235.973
285.4843, 1235.557
285.9665, 1241.057
286.4486, 1251.944
286.9307, 1262.693
287.4128, 1273.073
287.8949, 1282.234
288.3770, 1286.732
288.8592, 1286.581
289.3413, 1287.540
289.8234, 1295.362
290.3055, 1308.515
290.7876, 1317.676
291.2697, 1320.046
291.7519, 1320.581
292.2340, 1328.597
292.7161, 1343.798
293.1982, 1360.945
293.6803, 1376.861
294.1624, 1392.120
294.6446, 1408.918
295.1267, 1428.767
295.6088, 1447.892
296.0909, 1458.669
296.5730, 1462.120
297.0551, 1466.911
297.5373, 1477.293
298.0194, 1492.969
298.5015, 1515.005
298.9836, 1545.761
299.4657, 1576.980
299.9478, 1596.323
300.4300, 1606.083
300.9121, 1614.551
301.3942, 1623.333
301.8763, 1634.872
302.3584, 1654.301
302.8405, 1684.606
303.3227, 1716.144
303.8048, 1738.690
304.2869, 1754.358
304.7690, 1770.903
305.2511, 1794.649
305.7332, 1820.418
306.2154, 1840.987
306.6975, 1853.121
307.1796, 1868.198
307.6617, 1899.094
308.1438, 1939.785
308.6259, 1978.203
309.1081, 2008.785
309.5901, 2033.581
310.0723, 2052.389
310.5544, 2063.067
311.0365, 2077.105
311.5186, 2103.964
312.0007, 2139.312
312.4828, 2174.941
312.9650, 2205.350
313.4471, 2236.685
313.9292, 2271.509
314.4113, 2309.566
314.8934, 2354.434
315.3755, 2412.493
315.8577, 2477.922
316.3398, 2540.621
316.8219, 2590.232
317.3040, 2642.642
317.7861, 2704.918
318.2682, 2777.917
318.7504, 2857.753
319.2325, 2950.169
319.7146, 3047.496
320.1967, 3139.989
320.6788, 3214.358
321.1609, 3294.507
321.6431, 3390.147
322.1252, 3502.909
322.6073, 3616.185
323.0894, 3732.923
323.5715, 3845.958
324.0536, 3949.072
324.5358, 4031.067
325.0179, 4112.165
325.5000, 4197.365
325.9821, 4286.250
326.4642, 4371.353
326.9464, 4456.543
327.4285, 4535.241
327.9106, 4602.942
328.3927, 4656.753
328.8748, 4702.600
329.3569, 4745.921
329.8391, 4785.407
330.3212, 4797.930
330.8033, 4775.203
331.2854, 4733.248
331.7675, 4682.972
332.2496, 4627.458
332.7318, 4557.472
333.2139, 4468.828
333.6960, 4364.892
334.1781, 4257.097
334.6602, 4142.527
335.1423, 4028.279
335.6245, 3920.607
336.1066, 3827.669
336.5887, 3711.701
337.0708, 3558.961
337.5529, 3384.913
338.0350, 3239.096
338.5172, 3126.536
338.9993, 3023.629
339.4814, 2915.011
339.9635, 2799.083
340.4456, 2696.796
340.9277, 2610.208
341.4099, 2534.647
341.8920, 2457.205
342.3741, 2377.230
342.8562, 2307.162
343.3383, 2258.557
343.8204, 2229.448
344.3026, 2193.681
344.7847, 2150.321
345.2668, 2103.472
345.7489, 2057.786
346.2310, 2013.228
346.7131, 1973.936
347.1953, 1942.784
347.6774, 1918.151
348.1595, 1896.636
348.6416, 1878.753
349.1237, 1862.037
349.6058, 1844.287
350.0880, 1825.984
350.5700, 1808.053
351.0522, 1787.968
351.5343, 1770.123
352.0164, 1763.906
352.4985, 1768.969
352.9806, 1773.927
353.4627, 1769.172
353.9449, 1758.216
354.4270, 1746.367
354.9091, 1730.505
355.3912, 1719.008
355.8733, 1725.176
356.3554, 1745.640
356.8376, 1760.404
357.3197, 1742.371
357.8018, 1719.234
358.2839, 1721.877
358.7660, 1782.772
359.2481, 1833.062
359.7303, 1822.238
360.2124, 1768.954
360.6945, 1727.605
361.1766, 1735.590
361.6587, 1753.356
362.1408, 1754.329
362.6230, 1724.498
363.1051, 1699.825
363.5872, 1696.579
364.0693, 1705.085
364.5514, 1706.554
365.0335, 1688.052
365.5157, 1669.512
365.9978, 1659.147
366.4799, 1660.838
366.9620, 1660.060
367.4441, 1653.204
367.9262, 1643.710
368.4084, 1636.233
368.8905, 1633.734
369.3726, 1629.669
369.8547, 1620.341
370.3368, 1604.018
370.8189, 1598.611
371.3011, 1613.976
371.7832, 1631.905
372.2653, 1633.729
372.7474, 1605.472
373.2295, 1591.556
373.7116, 1606.279
374.1938, 1644.187
374.6759, 1657.694
375.1580, 1636.980
375.6401, 1612.149
376.1222, 1607.922
376.6043, 1629.099
377.0865, 1640.335
377.5686, 1635.168
378.0507, 1619.656
378.5328, 1608.957
379.0149, 1603.137
379.4970, 1600.895
379.9792, 1598.189
380.4613, 1596.378
380.9434, 1612.461
381.4255, 1652.006
381.9076, 1697.945
382.3897, 1724.962
382.8719, 1734.961
383.3540, 1740.426
383.8361, 1741.539
384.3182, 1743.380
384.8003, 1759.754
385.2824, 1792.032
385.7646, 1827.398
386.2467, 1854.411
386.7288, 1875.492
387.2109, 1896.193
387.6930, 1918.717
388.1751, 1942.107
388.6573, 1966.595
389.1394, 1992.160
389.6215, 2016.027
390.1036, 2034.123
390.5857, 2050.498
391.0678, 2070.052
391.5499, 2098.475
392.0320, 2124.872
392.5142, 2140.603
392.9963, 2148.848
393.4784, 2160.108
393.9605, 2183.670
394.4426, 2207.785
394.9247, 2224.715
395.4069, 2228.285
395.8890, 2234.955
396.3711, 2244.887
396.8532, 2260.580
397.3353, 2286.568
397.8174, 2348.813
398.2996, 2397.945
398.7817, 2415.784
399.2638, 2393.842
399.7459, 2372.006
400.2280, 2343.254
400.7101, 2318.781
401.1923, 2311.608
401.6744, 2335.849
402.1565, 2352.737
402.6386, 2353.912
403.1207, 2340.383
403.6028, 2327.697
404.0850, 2317.670
404.5671, 2305.191
405.0492, 2286.285
405.5313, 2260.519
406.0134, 2229.913
406.4955, 2192.944
406.9777, 2153.142
407.4598, 2120.543
407.9419, 2095.631
408.4240, 2072.564
408.9061, 2048.645
409.3882, 2023.752
409.8704, 1996.527
410.3525, 1965.576
410.8346, 1936.616
411.3167, 1919.240
411.7988, 1911.003
412.2809, 1901.075
412.7631, 1879.560
413.2452, 1854.881
413.7273, 1842.987
414.2094, 1843.883
414.6915, 1845.663
415.1736, 1839.331
415.6558, 1827.403
416.1379, 1813.662
416.6200, 1795.032
417.1021, 1779.409
417.5842, 1773.599
418.0663, 1775.961
418.5485, 1779.294
419.0306, 1779.175
419.5127, 1779.363
419.9948, 1783.040
420.4769, 1793.066
420.9590, 1801.655
421.4412, 1805.814
421.9233, 1807.157
422.4054, 1808.784
422.8875, 1811.666
423.3696, 1814.530
423.8517, 1817.242
424.3339, 1820.085
424.8160, 1821.213
425.2981, 1818.785
425.7802, 1815.802
426.2623, 1814.966
426.7444, 1816.482
427.2266, 1819.975
427.7087, 1826.245
428.1908, 1834.723
428.6729, 1842.760
429.1550, 1852.428
429.6371, 1857.269
430.1193, 1850.671
430.6014, 1830.614
431.0835, 1815.155
431.5656, 1805.479
432.0477, 1801.189
432.5298, 1802.637
433.0119, 1809.858
433.4940, 1818.730
433.9762, 1827.437
434.4583, 1836.165
434.9404, 1848.134
435.4225, 1864.355
435.9046, 1875.009
436.3867, 1864.708
436.8689, 1840.611
437.3510, 1820.141
437.8331, 1807.265
438.3152, 1802.578
438.7973, 1811.031
439.2794, 1830.426
439.7616, 1848.075
440.2437, 1856.620
440.7258, 1859.314
441.2079, 1857.921
441.6900, 1849.501
442.1721, 1844.594
442.6543, 1850.636
443.1364, 1863.392
443.6185, 1874.849
444.1006, 1883.580
444.5827, 1889.506
445.0648, 1892.066
445.5470, 1890.680
446.0291, 1889.283
446.5112, 1885.828
446.9933, 1883.892
447.4754, 1886.839
447.9576, 1900.421
448.4397, 1910.313
448.9218, 1912.971
449.4039, 1910.124
449.8860, 1912.016
450.3681, 1921.515
450.8503, 1930.299
451.3324, 1932.944
451.8145, 1927.974
452.2966, 1925.522
452.7787, 1926.477
453.2608, 1929.013
453.7430, 1929.703
454.2251, 1928.508
454.7072, 1929.202
455.1893, 1936.544
455.6714, 1946.696
456.1535, 1943.690
456.6357, 1927.130
457.1178, 1912.041
457.5999, 1914.968
458.0820, 1929.440
458.5641, 1940.221
459.0462, 1939.506
459.5284, 1940.433
460.0105, 1957.373
460.4926, 1987.253
460.9747, 2020.126
461.4568, 2056.578
461.9389, 2090.445
462.4211, 2116.121
462.9032, 2131.901
463.3853, 2145.993
463.8674, 2162.411
464.3495, 2178.693
464.8316, 2191.958
465.3138, 2191.682
465.7959, 2198.592
466.2780, 2225.119
466.7601, 2269.475
467.2422, 2295.995
467.7243, 2288.852
468.2065, 2277.893
468.6886, 2278.892
469.1707, 2298.809
469.6528, 2315.996
470.1349, 2331.236
470.6170, 2342.898
471.0992, 2347.161
471.5813, 2342.792
472.0634, 2335.994
472.5455, 2330.612
473.0276, 2325.421
473.5097, 2306.536
473.9918, 2271.382
474.4739, 2236.239
474.9561, 2222.170
475.4382, 2223.499
475.9203, 2211.745
476.4024, 2175.609
476.8845, 2132.415
477.3666, 2106.549
477.8488, 2095.139
478.3309, 2086.521
478.8130, 2075.620
479.2951, 2063.112
479.7772, 2048.007
480.2593, 2029.422
480.7415, 2015.408
481.2236, 2016.079
481.7057, 2022.060
482.1878, 2022.300
482.6699, 2008.821
483.1520, 1993.634
483.6342, 1976.808
484.1163, 1959.875
484.5984, 1952.363
485.0805, 1965.619
485.5626, 1980.537
486.0447, 1987.733
486.5269, 1980.224
487.0090, 1981.108
487.4911, 1996.937
487.9732, 2016.630
488.4553, 2021.822
488.9374, 2004.941
489.4196, 1996.638
489.9017, 2008.313
490.3838, 2035.769
490.8659, 2052.760
491.3480, 2058.312
491.8301, 2058.328
492.3123, 2054.383
492.7944, 2047.882
493.2765, 2045.902
493.7586, 2048.976
494.2407, 2058.016
494.7228, 2079.645
495.2050, 2109.315
495.6871, 2132.483
496.1692, 2138.709
496.6513, 2137.451
497.1334, 2137.667
497.6155, 2139.512
498.0977, 2140.839
498.5798, 2135.266
499.0619, 2131.195
499.5440, 2137.505
500.0261, 2169.426
500.5082, 2192.014
500.9904, 2188.053
501.4725, 2167.890
501.9546, 2154.465
502.4367, 2161.694
502.9188, 2165.534
503.4009, 2158.284
503.8831, 2138.437
504.3652, 2118.682
504.8473, 2098.755
505.3294, 2079.098
505.8115, 2060.329
506.2936, 2042.509
506.7758, 2025.569
507.2579, 2010.638
507.7400, 1995.488
508.2221, 1973.013
508.7042, 1942.956
509.1863, 1914.710
509.6685, 1894.733
510.1506, 1880.474
510.6327, 1864.207
511.1148, 1845.796
511.5969, 1826.338
512.0790, 1809.183
512.5612, 1791.342
513.0433, 1766.506
513.5254, 1726.200
514.0075, 1687.818
514.4896, 1666.135
514.9717, 1657.068
515.4539, 1648.403
515.9360, 1631.578
516.4181, 1616.557
516.9002, 1609.654
517.3823, 1613.275
517.8644, 1615.108
518.3466, 1614.200
518.8287, 1609.951
519.3108, 1601.623
519.7929, 1583.352
520.2750, 1570.539
520.7571, 1567.247
521.2393, 1569.975
521.7214, 1566.051
522.2035, 1551.735
522.6856, 1541.709
523.1677, 1546.384
523.6498, 1564.925
524.1320, 1571.787
524.6141, 1565.634
525.0962, 1554.238
525.5783, 1543.078
526.0604, 1532.991
526.5425, 1528.170
527.0247, 1532.790
527.5068, 1538.266
527.9889, 1529.668
528.4710, 1512.000
528.9531, 1501.526
529.4352, 1517.742
529.9174, 1537.585
530.3995, 1540.871
530.8816, 1524.404
531.3637, 1509.824
531.8458, 1508.752
532.3279, 1511.976
532.8101, 1511.521
533.2922, 1497.962
533.7743, 1490.279
534.2564, 1492.248
534.7385, 1501.363
535.2206, 1512.414
535.7027, 1529.396
536.1848, 1541.322
536.6669, 1542.359
537.1490, 1531.884
537.6312, 1529.412
538.1133, 1537.426
538.5954, 1546.431
539.0775, 1546.918
539.5596, 1539.550
540.0417, 1531.544
540.5239, 1523.290
541.0060, 1516.474
541.4881, 1514.847
541.9702, 1517.215
542.4523, 1519.018
542.9344, 1516.957
543.4166, 1513.819
543.8987, 1511.688
544.3808, 1510.715
544.8629, 1512.306
545.3450, 1521.056
545.8271, 1530.535
546.3093, 1535.313
546.7914, 1531.893
547.2735, 1527.776
547.7556, 1522.948
548.2377, 1518.642
548.7198, 1517.049
549.2020, 1518.553
549.6841, 1522.343
550.1662, 1529.481
550.6483, 1539.466
551.1304, 1545.826
551.6125, 1548.114
552.0947, 1547.758
552.5768, 1543.315
553.0589, 1534.891
553.5410, 1535.773
554.0231, 1549.226
554.5052, 1564.153
554.9874, 1561.744
555.4695, 1547.142
555.9516, 1539.195
556.4337, 1549.925
556.9158, 1565.889
557.3979, 1572.006
557.8801, 1569.942
558.3622, 1567.139
558.8443, 1565.592
559.3264, 1566.257
559.8085, 1571.148
560.2906, 1582.289
560.7728, 1589.618
561.2549, 1588.629
561.7370, 1583.505
562.2191, 1578.580
562.7012, 1576.640
563.1833, 1570.709
563.6655, 1555.177
564.1476, 1536.156
564.6297, 1535.107
565.1118, 1559.170
565.5939, 1579.927
566.0760, 1583.412
566.5582, 1571.481
567.0403, 1564.710
567.5224, 1563.456
568.0045, 1564.895
568.4866, 1566.931
568.9688, 1569.614
569.4509, 1573.176
569.9330, 1577.735
570.4151, 1582.816
570.8972, 1590.637
571.3793, 1598.456
571.8615, 1600.573
572.3436, 1583.936
572.8257, 1570.395
573.3078, 1575.533
573.7899, 1597.652
574.2720, 1613.347
574.7542, 1612.660
575.2363, 1607.871
575.7184, 1605.573
576.2005, 1607.752
576.6826, 1607.197
577.1647, 1601.788
577.6469, 1595.727
578.1290, 1594.552
578.6111, 1599.006
579.0932, 1604.593
579.5753, 1611.580
580.0574, 1618.078
580.5396, 1618.389
581.0217, 1612.837
581.5038, 1606.760
581.9859, 1600.541
582.4680, 1596.728
582.9501, 1602.004
583.4323, 1616.515
583.9144, 1629.779
584.3965, 1627.448
584.8786, 1623.137
585.3607, 1634.193
585.8428, 1681.956
586.3250, 1711.455
586.8071, 1686.214
587.2892, 1634.771
587.7713, 1605.445
588.2534, 1626.973
588.7355, 1644.560
589.2177, 1647.819
589.6998, 1638.500
590.1819, 1629.795
590.6640, 1621.589
591.1461, 1614.332
591.6282, 1606.682
592.1104, 1598.714
592.5925, 1599.980
593.0746, 1611.817
593.5567, 1626.885
594.0388, 1638.080
594.5209, 1645.867
595.0031, 1651.471
595.4852, 1655.157
595.9673, 1656.657
596.4494, 1654.332
596.9315, 1649.535
597.4136, 1645.580
597.8958, 1643.443
598.3779, 1642.969
598.8600, 1645.815
599.3421, 1651.932
599.8242, 1653.938
600.3063, 1648.255
600.7885, 1640.127
601.2706, 1631.136
601.7527, 1616.895
602.2348, 1614.762
602.7169, 1628.970
603.1990, 1649.402
603.6812, 1665.277
604.1633, 1676.615
604.6454, 1678.339
605.1275, 1664.796
605.6096, 1646.989
606.0917, 1648.453
606.5739, 1665.800
607.0560, 1681.453
607.5381, 1684.725
608.0202, 1681.700
608.5023, 1677.757
608.9844, 1673.203
609.4666, 1669.255
609.9487, 1666.367
610.4308, 1664.484
610.9129, 1663.877
611.3950, 1666.154
611.8771, 1666.528
612.3593, 1661.669
612.8414, 1656.097
613.3235, 1655.226
613.8056, 1661.557
614.2877, 1666.707
614.7698, 1668.575
615.2520, 1668.765
615.7341, 1672.550
616.2162, 1680.143
616.6983, 1687.614
617.1804, 1691.289
617.6625, 1693.511
618.1446, 1699.274
618.6267, 1708.597
619.1088, 1724.366
619.5909, 1763.233
620.0731, 1803.098
620.5552, 1815.861
621.0373, 1790.939
621.5194, 1759.260
622.0015, 1723.327
622.4836, 1691.925
622.9658, 1675.532
623.4479, 1691.040
623.9300, 1703.619
624.4121, 1707.863
624.8942, 1706.490
625.3763, 1707.688
625.8585, 1712.815
626.3406, 1716.586
626.8227, 1715.577
627.3048, 1711.098
627.7869, 1713.924
628.2690, 1724.614
628.7512, 1734.132
629.2333, 1734.582
629.7154, 1728.958
630.1975, 1722.795
630.6796, 1716.535
