##NAMES=Aegirine
##RRUFFID=R040054
##IDEAL CHEMISTRY=NaFe^3+^Si_2_O_6_
##LOCALITY=Mont Saint-Hilaire, Rouville County, Quebec, Canada
##OWNER=RRUFF
##SOURCE=Bob Downs
##DESCRIPTION=Black cleavage fragments
##STATUS=The identification of this mineral has been confirmed by X-ray diffraction and chemical analysis
##URL=rruff.info/R040054
##MEASURED CHEMISTRY=(Na_0.96_Ca_0.04_)(Fe_0.86_Ti_0.07_Mn_0.06_Mg_0.02_)(Si_0.97_Al_0.03_)_2_O_6_
126.3493, 1122.105
126.8314, 1189.229
127.3135, 1254.082
127.7956, 1320.239
128.2778, 1386.247
128.7599, 1449.352
129.2420, 1509.196
129.7241, 1570.512
130.2062, 1603.673
130.6883, 1599.388
131.1705, 1578.405
131.6526, 1544.945
132.1347, 1502.302
132.6168, 1455.511
133.0989, 1410.197
133.5810, 1364.493
134.0632, 1325.669
134.5453, 1290.163
135.0274, 1262.449
135.5095, 1245.831
135.9916, 1240.649
136.4737, 1244.196
136.9559, 1252.379
137.4380, 1262.106
137.9201, 1284.821
138.4022, 1324.614
138.8843, 1373.874
139.3664, 1427.612
139.8486, 1483.928
140.3307, 1542.517
140.8128, 1602.049
141.2949, 1658.539
141.7770, 1723.769
142.2591, 1807.417
142.7413, 1895.840
143.2234, 1973.584
143.7055, 2034.823
144.1876, 2087.409
144.6697, 2148.033
145.1518, 2222.975
145.6340, 2294.618
146.1161, 2365.493
146.5982, 2430.688
147.0803, 2482.239
147.5624, 2516.722
148.0445, 2538.454
148.5267, 2557.671
149.0088, 2580.977
149.4909, 2592.026
149.9730, 2578.780
150.4551, 2550.726
150.9372, 2526.727
151.4194, 2514.797
151.9015, 2511.012
152.3836, 2504.771
152.8657, 2493.328
153.3478, 2484.348
153.8299, 2477.045
154.3121, 2473.910
154.7942, 2485.182
155.2763, 2522.256
155.7584, 2569.647
156.2405, 2586.931
156.7226, 2553.823
157.2048, 2525.310
157.6869, 2534.827
158.1690, 2574.786
158.6511, 2612.344
159.1332, 2631.127
159.6153, 2637.933
160.0975, 2650.346
160.5796, 2669.157
161.0617, 2692.100
161.5438, 2719.961
162.0259, 2751.873
162.5080, 2782.272
162.9902, 2809.676
163.4723, 2832.690
163.9544, 2849.534
164.4365, 2855.630
164.9186, 2861.611
165.4007, 2876.832
165.8829, 2900.941
166.3650, 2924.700
166.8471, 2942.157
167.3292, 2957.223
167.8113, 2977.168
168.2934, 3006.119
168.7756, 3035.377
169.2577, 3053.731
169.7398, 3060.733
170.2219, 3074.302
170.7040, 3112.640
171.1861, 3158.810
171.6683, 3187.974
172.1504, 3191.094
172.6325, 3183.539
173.1146, 3177.754
173.5967, 3173.222
174.0788, 3176.334
174.5610, 3195.607
175.0431, 3222.804
175.5252, 3248.119
176.0073, 3270.533
176.4894, 3289.393
176.9715, 3301.583
177.4537, 3305.504
177.9358, 3313.786
178.4179, 3342.823
178.9000, 3375.627
179.3821, 3392.194
179.8642, 3384.433
180.3464, 3363.933
180.8285, 3339.146
181.3106, 3306.306
181.7927, 3289.649
182.2748, 3311.652
182.7569, 3352.354
183.2391, 3393.318
183.7212, 3427.788
184.2033, 3463.780
184.6854, 3512.162
185.1675, 3574.179
185.6496, 3642.063
186.1318, 3724.319
186.6139, 3806.042
187.0960, 3871.913
187.5781, 3915.629
188.0602, 3946.317
188.5423, 3979.339
189.0245, 4018.406
189.5066, 4042.388
189.9887, 4032.543
190.4708, 4007.269
190.9529, 3983.113
191.4350, 3967.696
191.9172, 3948.121
192.3993, 3905.535
192.8814, 3836.910
193.3635, 3759.229
193.8456, 3671.232
194.3277, 3579.823
194.8099, 3488.857
195.2920, 3397.567
195.7741, 3312.418
196.2562, 3242.928
196.7383, 3190.619
197.2204, 3145.566
197.7026, 3108.713
198.1847, 3075.740
198.6668, 3042.733
199.1489, 3007.892
199.6310, 2975.307
200.1131, 2950.429
200.5953, 2934.374
201.0774, 2920.450
201.5595, 2906.397
202.0416, 2893.797
202.5237, 2886.413
203.0058, 2886.382
203.4880, 2884.037
203.9701, 2861.996
204.4522, 2814.999
204.9343, 2783.079
205.4164, 2786.038
205.8985, 2805.384
206.3807, 2832.031
206.8628, 2865.383
207.3449, 2896.989
207.8270, 2918.195
208.3091, 2928.632
208.7912, 2931.818
209.2734, 2919.991
209.7555, 2906.582
210.2376, 2902.641
210.7197, 2910.059
211.2018, 2920.251
211.6839, 2926.025
212.1660, 2927.417
212.6482, 2924.660
213.1303, 2918.697
213.6124, 2907.285
214.0945, 2889.815
214.5766, 2866.298
215.0587, 2834.838
215.5409, 2790.028
216.0230, 2732.362
216.5051, 2679.294
216.9872, 2631.883
217.4693, 2593.313
217.9514, 2567.213
218.4336, 2553.343
218.9157, 2542.486
219.3978, 2528.743
219.8799, 2512.239
220.3620, 2493.991
220.8441, 2472.661
221.3263, 2451.085
221.8084, 2429.802
222.2905, 2409.216
222.7726, 2392.906
223.2547, 2385.004
223.7368, 2383.934
224.2190, 2381.604
224.7011, 2377.660
225.1832, 2371.294
225.6653, 2359.948
226.1474, 2345.040
226.6295, 2333.329
227.1117, 2330.148
227.5938, 2333.141
228.0759, 2335.218
228.5580, 2335.817
229.0401, 2335.512
229.5222, 2333.572
230.0044, 2330.851
230.4865, 2330.189
230.9686, 2338.235
231.4507, 2348.258
231.9328, 2343.663
232.4149, 2318.666
232.8971, 2293.555
233.3792, 2280.561
233.8613, 2277.721
234.3434, 2283.398
234.8255, 2304.866
235.3076, 2331.437
235.7898, 2347.948
236.2719, 2353.610
236.7540, 2352.996
237.2361, 2344.650
237.7182, 2332.349
238.2003, 2323.477
238.6825, 2320.473
239.1646, 2320.813
239.6467, 2321.925
240.1288, 2323.791
240.6109, 2327.594
241.0930, 2334.484
241.5752, 2343.858
242.0573, 2354.625
242.5394, 2371.906
243.0215, 2384.479
243.5036, 2380.569
243.9857, 2362.072
244.4679, 2343.712
244.9500, 2329.966
245.4321, 2322.513
245.9142, 2323.268
246.3963, 2334.827
246.8784, 2349.541
247.3606, 2366.913
247.8427, 2384.745
248.3248, 2394.570
248.8069, 2389.593
249.2890, 2379.835
249.7711, 2387.000
250.2533, 2418.323
250.7354, 2442.541
251.2175, 2444.023
251.6996, 2431.285
252.1817, 2417.690
252.6638, 2405.562
253.1460, 2399.694
253.6281, 2411.439
254.1102, 2445.893
254.5923, 2473.117
255.0744, 2484.114
255.5565, 2486.608
256.0387, 2488.529
256.5208, 2491.511
257.0029, 2496.582
257.4850, 2505.873
257.9671, 2521.325
258.4492, 2531.955
258.9314, 2539.064
259.4135, 2540.150
259.8956, 2526.374
260.3777, 2499.677
260.8598, 2480.758
261.3419, 2491.200
261.8241, 2535.731
262.3062, 2563.796
262.7883, 2568.948
263.2704, 2565.393
263.7525, 2558.004
264.2346, 2548.027
264.7168, 2536.251
265.1989, 2522.598
265.6810, 2507.372
266.1631, 2498.558
266.6452, 2503.426
267.1273, 2505.806
267.6095, 2498.151
268.0916, 2484.944
268.5737, 2473.730
269.0558, 2468.384
269.5379, 2468.938
270.0201, 2475.542
270.5022, 2505.927
270.9843, 2521.642
271.4664, 2504.594
271.9485, 2477.187
272.4306, 2467.166
272.9128, 2485.085
273.3949, 2516.128
273.8770, 2528.915
274.3591, 2508.206
274.8412, 2495.397
275.3233, 2493.203
275.8055, 2497.664
276.2876, 2507.503
276.7697, 2521.705
277.2518, 2537.250
277.7339, 2550.275
278.2160, 2559.846
278.6982, 2569.755
279.1803, 2588.765
279.6624, 2600.723
280.1445, 2590.960
280.6266, 2564.118
281.1087, 2540.606
281.5909, 2541.509
282.0730, 2566.958
282.5551, 2581.608
283.0372, 2573.626
283.5193, 2568.167
284.0014, 2577.121
284.4836, 2595.714
284.9657, 2614.021
285.4478, 2627.409
285.9299, 2635.735
286.4120, 2636.912
286.8941, 2627.173
287.3763, 2596.232
287.8584, 2633.610
288.3405, 2658.031
288.8226, 2670.191
289.3047, 2633.370
289.7868, 2659.799
290.2690, 2660.882
290.7511, 2660.923
291.2332, 2696.254
291.7153, 2666.557
292.1974, 2701.328
292.6795, 2710.365
293.1617, 2731.181
293.6438, 2726.492
294.1259, 2729.679
294.6080, 2758.380
295.0901, 2772.954
295.5722, 2751.877
296.0544, 2767.143
296.5365, 2768.663
297.0186, 2755.798
297.5007, 2747.803
297.9828, 2758.760
298.4649, 2777.675
298.9471, 2783.126
299.4292, 2769.798
299.9113, 2755.618
300.3934, 2757.788
300.8755, 2776.094
301.3576, 2799.478
301.8398, 2843.429
302.3219, 2880.234
302.8040, 2877.039
303.2861, 2838.249
303.7682, 2806.262
304.2503, 2812.996
304.7325, 2853.260
305.2146, 2874.203
305.6967, 2857.653
306.1788, 2844.319
306.6609, 2850.434
307.1430, 2870.396
307.6252, 2893.614
308.1073, 2915.464
308.5894, 2935.265
309.0715, 2950.792
309.5536, 2971.255
310.0357, 2975.111
310.5179, 2947.031
311.0000, 2909.637
311.4821, 2886.131
311.9642, 2881.790
312.4463, 2884.291
312.9284, 2875.883
313.4106, 2851.314
313.8927, 2830.540
314.3748, 2816.405
314.8569, 2802.923
315.3390, 2784.160
315.8211, 2762.283
316.3033, 2746.395
316.7854, 2746.912
317.2675, 2762.964
317.7496, 2763.852
318.2317, 2732.362
318.7138, 2705.329
319.1960, 2693.923
319.6781, 2693.916
320.1602, 2698.369
320.6423, 2704.009
321.1244, 2711.693
321.6065, 2723.573
322.0887, 2740.297
322.5708, 2759.118
323.0529, 2779.517
323.5350, 2801.451
324.0171, 2825.246
324.4992, 2851.095
324.9814, 2877.678
325.4635, 2899.800
325.9456, 2918.756
326.4277, 2952.058
326.9098, 3010.700
327.3919, 3076.174
327.8741, 3128.954
328.3562, 3169.938
328.8383, 3214.098
329.3204, 3270.340
329.8025, 3333.276
330.2846, 3393.840
330.7668, 3450.590
331.2489, 3506.525
331.7310, 3562.457
332.2131, 3618.947
332.6952, 3680.062
333.1773, 3748.069
333.6595, 3818.974
334.1415, 3892.633
334.6237, 3967.416
335.1058, 4035.785
335.5879, 4092.941
336.0700, 4142.066
336.5521, 4193.809
337.0342, 4262.367
337.5164, 4314.458
337.9985, 4335.443
338.4806, 4340.559
338.9627, 4347.317
339.4448, 4360.899
339.9269, 4376.609
340.4091, 4388.170
340.8912, 4396.908
341.3733, 4396.722
341.8554, 4385.889
342.3375, 4369.030
342.8196, 4345.230
343.3018, 4317.070
343.7839, 4291.980
344.2660, 4279.053
344.7481, 4276.157
345.2302, 4248.018
345.7123, 4174.848
346.1945, 4099.976
346.6766, 4027.847
347.1587, 3962.155
347.6408, 3909.535
348.1229, 3874.488
348.6050, 3844.539
349.0872, 3796.749
349.5693, 3727.214
350.0514, 3656.235
350.5335, 3581.964
351.0156, 3512.912
351.4977, 3456.705
351.9799, 3413.762
352.4620, 3376.808
352.9441, 3342.574
353.4262, 3310.272
353.9083, 3274.764
354.3904, 3230.634
354.8726, 3194.471
355.3547, 3186.463
355.8368, 3199.688
356.3189, 3214.634
356.8010, 3232.193
357.2831, 3245.975
357.7653, 3244.069
358.2474, 3229.160
358.7295, 3224.474
359.2116, 3245.807
359.6937, 3284.576
360.1758, 3309.873
360.6580, 3307.699
361.1401, 3313.956
361.6222, 3344.307
362.1043, 3386.161
362.5864, 3423.950
363.0685, 3453.135
363.5507, 3475.355
364.0328, 3492.667
364.5149, 3504.362
364.9970, 3512.662
365.4791, 3520.375
365.9612, 3522.817
366.4434, 3514.925
366.9255, 3499.026
367.4076, 3482.698
367.8897, 3472.300
368.3718, 3465.849
368.8539, 3448.865
369.3361, 3414.000
369.8182, 3378.885
370.3003, 3346.389
370.7824, 3316.417
371.2645, 3288.557
371.7466, 3262.687
372.2288, 3239.818
372.7109, 3220.637
373.1930, 3205.001
373.6751, 3195.626
374.1572, 3194.851
374.6393, 3199.217
375.1215, 3207.427
375.6036, 3218.776
376.0857, 3228.355
376.5678, 3233.201
377.0499, 3234.801
377.5320, 3233.899
378.0142, 3229.800
378.4963, 3230.402
378.9784, 3242.108
379.4605, 3263.215
379.9426, 3284.122
380.4247, 3311.887
380.9069, 3331.657
381.3890, 3328.055
381.8711, 3311.945
382.3532, 3311.294
382.8353, 3338.287
383.3174, 3370.063
383.7996, 3365.465
384.2817, 3291.507
384.7638, 3250.901
385.2459, 3275.610
385.7280, 3308.139
386.2101, 3311.109
386.6923, 3283.299
387.1744, 3241.425
387.6565, 3197.902
388.1386, 3152.822
388.6207, 3107.468
389.1028, 3059.377
389.5850, 3014.694
390.0671, 2979.198
390.5492, 2946.036
391.0313, 2906.279
391.5134, 2856.772
391.9955, 2803.022
392.4777, 2752.995
392.9598, 2707.136
393.4419, 2658.705
393.9240, 2601.198
394.4061, 2546.683
394.8882, 2504.496
395.3704, 2473.810
395.8525, 2448.018
396.3346, 2427.114
396.8167, 2407.910
397.2988, 2384.014
397.7809, 2354.792
398.2631, 2328.704
398.7452, 2314.186
399.2273, 2305.750
399.7094, 2284.221
400.1915, 2236.264
400.6736, 2193.991
401.1558, 2174.108
401.6379, 2166.611
402.1200, 2154.440
402.6021, 2132.497
403.0842, 2109.652
403.5663, 2099.104
404.0485, 2107.296
404.5306, 2106.009
405.0127, 2087.554
405.4948, 2068.233
405.9769, 2053.171
406.4590, 2044.129
406.9412, 2014.449
407.4233, 2038.683
407.9054, 2049.961
408.3875, 2048.979
408.8696, 1999.015
409.3517, 2012.300
409.8339, 2000.238
410.3160, 1987.136
410.7981, 2009.324
411.2802, 1966.484
411.7623, 1988.112
412.2444, 1984.006
412.7266, 1991.677
413.2087, 1973.844
413.6908, 1963.890
414.1729, 1966.284
414.6550, 1963.659
415.1371, 1958.169
415.6193, 1955.582
416.1014, 1960.500
416.5835, 1965.728
417.0656, 1965.686
417.5477, 1961.413
418.0298, 1956.832
418.5120, 1953.885
418.9941, 1950.122
419.4762, 1939.975
419.9583, 1915.858
420.4404, 1901.892
420.9225, 1906.450
421.4047, 1915.727
421.8868, 1919.325
422.3689, 1917.236
422.8510, 1915.534
423.3331, 1919.300
423.8152, 1927.735
424.2974, 1933.270
424.7795, 1931.288
425.2616, 1933.160
425.7437, 1946.606
426.2258, 1961.899
426.7079, 1969.308
427.1901, 1966.090
427.6722, 1956.170
428.1543, 1937.984
428.6364, 1913.050
429.1185, 1905.976
429.6006, 1929.900
430.0828, 1955.177
430.5649, 1956.054
431.0470, 1939.593
431.5291, 1926.401
432.0112, 1922.803
432.4933, 1924.025
432.9755, 1925.869
433.4576, 1928.843
433.9397, 1936.803
434.4218, 1953.318
434.9039, 1971.345
435.3860, 1975.510
435.8682, 1956.030
436.3503, 1943.707
436.8324, 1947.579
437.3145, 1953.713
437.7966, 1949.766
438.2787, 1936.804
438.7609, 1924.665
439.2430, 1920.744
439.7251, 1924.454
440.2072, 1931.559
440.6893, 1948.757
441.1714, 1958.723
441.6536, 1951.411
442.1357, 1939.678
442.6178, 1937.923
443.0999, 1949.331
443.5820, 1960.884
444.0641, 1956.522
444.5463, 1939.446
445.0284, 1932.448
445.5105, 1940.614
445.9926, 1952.650
446.4747, 1961.952
446.9568, 1968.584
447.4390, 1972.009
447.9211, 1970.770
448.4032, 1967.621
448.8853, 1953.933
449.3674, 1974.629
449.8495, 1987.921
450.3317, 1994.208
450.8138, 1972.505
451.2959, 1986.944
451.7780, 1986.900
452.2601, 1986.260
452.7422, 2005.787
453.2244, 1988.155
453.7065, 2007.362
454.1886, 2002.969
454.6707, 2008.124
455.1528, 2008.254
455.6349, 2004.979
456.1171, 2002.361
456.5992, 1999.086
457.0813, 1999.955
457.5634, 2007.038
458.0455, 2018.082
458.5276, 2033.135
459.0098, 2051.748
459.4919, 2069.779
459.9740, 2087.483
460.4561, 2102.134
460.9382, 2106.660
461.4203, 2100.195
461.9025, 2090.935
462.3846, 2082.307
462.8667, 2074.933
463.3488, 2070.646
463.8309, 2070.272
464.3130, 2071.422
464.7952, 2075.593
465.2773, 2079.935
465.7594, 2080.771
466.2415, 2077.566
466.7236, 2071.030
467.2057, 2058.037
467.6879, 2010.313
468.1700, 2039.191
468.6521, 2055.112
469.1342, 2058.772
469.6163, 2013.451
470.0984, 2031.380
470.5806, 2023.960
471.0627, 2015.502
471.5448, 2042.332
472.0269, 2004.135
472.5090, 2030.406
472.9911, 2030.942
473.4733, 2043.257
473.9554, 2030.067
474.4375, 2024.755
474.9196, 2044.955
475.4017, 2038.330
475.8839, 2044.104
476.3660, 2049.236
476.8481, 2059.492
477.3302, 2071.827
477.8123, 2078.163
478.2944, 2075.491
478.7766, 2067.938
479.2587, 2060.998
479.7408, 2052.301
480.2229, 2052.384
480.7050, 2068.454
481.1871, 2084.880
481.6693, 2092.465
482.1514, 2095.132
482.6335, 2102.684
483.1156, 2121.012
483.5977, 2142.436
484.0798, 2147.802
484.5620, 2131.976
485.0441, 2134.343
485.5262, 2175.226
486.0083, 2223.503
486.4904, 2252.152
486.9725, 2263.683
487.4547, 2276.599
487.9368, 2299.909
488.4189, 2326.202
488.9010, 2345.333
489.3831, 2359.195
489.8652, 2379.484
490.3474, 2412.731
490.8295, 2452.066
491.3116, 2483.482
491.7937, 2496.862
492.2758, 2521.931
492.7579, 2572.572
493.2401, 2622.835
493.7222, 2657.754
494.2043, 2677.815
494.6864, 2691.118
495.1685, 2703.311
495.6506, 2711.031
496.1328, 2702.943
496.6149, 2673.935
497.0970, 2646.838
497.5791, 2632.524
498.0612, 2617.289
498.5433, 2590.429
499.0254, 2551.885
499.5075, 2508.819
499.9897, 2456.750
500.4718, 2406.403
500.9539, 2373.660
501.4360, 2357.360
501.9181, 2344.394
502.4002, 2329.537
502.8824, 2311.717
503.3645, 2287.952
503.8466, 2253.019
504.3287, 2221.310
504.8108, 2188.521
505.2929, 2162.885
505.7751, 2154.180
506.2572, 2158.500
506.7393, 2162.850
507.2214, 2158.824
507.7035, 2147.887
508.1856, 2132.676
508.6678, 2109.923
509.1499, 2094.630
509.6320, 2101.565
510.1141, 2108.797
510.5962, 2091.307
511.0783, 2050.383
511.5605, 2024.208
512.0426, 2046.448
512.5247, 2081.878
513.0068, 2083.365
513.4890, 2054.449
513.9711, 2030.980
514.4532, 2031.610
514.9353, 2046.716
515.4174, 2053.482
515.8995, 2043.036
516.3817, 2039.913
516.8638, 2048.958
517.3459, 2061.029
517.8280, 2070.585
518.3101, 2077.998
518.7922, 2086.371
519.2744, 2098.071
519.7565, 2111.008
520.2386, 2119.789
520.7207, 2123.410
521.2028, 2128.512
521.6849, 2137.555
522.1671, 2147.693
522.6492, 2152.917
523.1313, 2154.398
523.6134, 2166.642
524.0955, 2208.109
524.5776, 2251.266
525.0598, 2268.460
525.5419, 2265.422
526.0240, 2264.408
526.5061, 2274.990
526.9882, 2292.113
527.4703, 2305.722
527.9525, 2309.781
528.4346, 2326.752
528.9167, 2372.781
529.3988, 2413.985
529.8809, 2431.550
530.3630, 2433.091
530.8452, 2433.170
531.3273, 2436.169
531.8094, 2449.631
532.2915, 2494.091
532.7736, 2567.884
533.2557, 2615.301
533.7379, 2610.397
534.2200, 2606.938
534.7021, 2666.750
535.1842, 2779.016
535.6663, 2866.880
536.1484, 2895.544
536.6306, 2896.359
537.1127, 2977.478
537.5948, 3045.647
538.0769, 3101.556
538.5590, 3108.484
539.0411, 3178.654
539.5233, 3223.497
540.0054, 3267.281
540.4875, 3346.361
540.9696, 3360.413
541.4517, 3438.934
541.9338, 3491.714
542.4160, 3495.544
542.8981, 3507.591
543.3802, 3511.594
543.8623, 3507.203
544.3444, 3487.878
544.8265, 3460.815
545.3087, 3445.309
545.7908, 3444.075
546.2729, 3444.258
546.7550, 3438.183
547.2371, 3425.816
547.7192, 3406.612
548.2014, 3371.158
548.6835, 3341.892
549.1656, 3320.029
549.6477, 3306.673
550.1298, 3308.506
550.6119, 3321.750
551.0941, 3330.425
551.5762, 3321.124
552.0583, 3298.469
552.5404, 3277.011
553.0225, 3255.564
553.5046, 3241.032
553.9868, 3239.878
554.4689, 3243.268
554.9510, 3238.826
555.4331, 3226.382
555.9152, 3222.594
556.3973, 3241.678
556.8795, 3264.272
557.3616, 3275.603
557.8437, 3276.089
558.3258, 3268.366
558.8079, 3253.172
559.2900, 3234.722
559.7722, 3220.691
560.2543, 3213.219
560.7364, 3203.466
561.2185, 3191.238
561.7006, 3176.669
562.1827, 3158.957
562.6649, 3139.047
563.1470, 3118.960
563.6291, 3099.539
564.1112, 3078.742
564.5933, 3039.495
565.0754, 2964.222
565.5576, 2976.768
566.0397, 2976.363
566.5218, 2963.696
567.0039, 2902.047
567.4860, 2903.647
567.9681, 2879.903
568.4503, 2855.112
568.9324, 2865.617
569.4145, 2811.093
569.8966, 2821.036
570.3787, 2843.404
570.8608, 2837.342
571.3430, 2819.396
571.8251, 2795.942
572.3072, 2769.873
572.7893, 2751.861
573.2714, 2743.382
573.7535, 2735.133
574.2357, 2723.115
574.7178, 2711.061
575.1999, 2707.011
575.6820, 2711.788
576.1641, 2704.740
576.6462, 2666.872
577.1284, 2628.421
577.6105, 2614.067
578.0926, 2616.197
578.5747, 2616.167
579.0568, 2606.377
579.5389, 2590.072
580.0211, 2569.232
580.5032, 2540.142
580.9852, 2529.680
581.4673, 2559.637
581.9495, 2578.874
582.4316, 2558.627
582.9137, 2517.940
583.3958, 2485.361
583.8779, 2468.406
584.3600, 2454.323
584.8422, 2432.043
585.3243, 2408.259
585.8064, 2397.860
586.2885, 2400.854
586.7706, 2399.831
587.2527, 2383.043
587.7349, 2352.994
588.2170, 2318.757
588.6991, 2267.809
589.1812, 2234.325
589.6633, 2236.196
590.1454, 2240.210
590.6276, 2222.238
591.1097, 2187.953
591.5918, 2159.987
592.0739, 2153.914
592.5560, 2153.146
593.0381, 2132.219
593.5203, 2095.430
594.0024, 2067.550
594.4845, 2055.435
594.9666, 2048.618
595.4487, 2037.350
595.9308, 2021.618
596.4130, 2003.908
596.8951, 1985.264
597.3772, 1963.615
597.8593, 1930.641
598.3414, 1899.118
598.8235, 1885.604
599.3057, 1890.432
599.7878, 1895.813
600.2699, 1884.906
600.7520, 1863.559
601.2341, 1851.180
601.7162, 1848.981
602.1984, 1843.474
602.6805, 1828.636
603.1626, 1809.644
603.6447, 1792.388
604.1268, 1776.027
604.6089, 1767.073
605.0911, 1772.917
605.5732, 1779.548
606.0553, 1781.499
606.5374, 1778.196
607.0195, 1767.283
607.5016, 1748.478
607.9838, 1729.848
608.4659, 1723.754
608.9480, 1729.600
609.4301, 1726.548
609.9122, 1710.026
610.3943, 1696.652
610.8765, 1698.081
611.3586, 1705.752
611.8407, 1704.487
612.3228, 1691.300
612.8049, 1679.895
613.2870, 1671.156
613.7692, 1668.290
614.2513, 1678.462
614.7334, 1697.141
615.2155, 1711.785
615.6976, 1716.274
616.1797, 1713.550
616.6619, 1707.772
617.1440, 1698.233
617.6261, 1691.028
618.1082, 1688.551
618.5903, 1685.311
619.0724, 1674.439
619.5546, 1661.654
620.0367, 1657.916
620.5188, 1668.315
621.0009, 1678.754
621.4830, 1683.475
621.9651, 1684.375
