##NAMES=Aegirine
##RRUFFID=R061093
##IDEAL CHEMISTRY=NaFe^3+^Si_2_O_6_
##LOCALITY=Lacotal Breccia, Alto Chapere, Cochabamba, Bolivia
##OWNER=Michael Scott
##SOURCE=Michael Scott
##DESCRIPTION=Aggregates of light green prismatic crystals associated with dark rutile
##STATUS=The identification of this mineral is confirmed by single-crystal X-ray diffraction and chemical analysis.
##URL=rruff.info/R061093
##MEASURED CHEMISTRY=Na_1.00_(Fe^3+^_0.97_Al_0.02_Cr_0.01_)_Σ=1_Si_2.00_O_6_ ; = light phase, while the darker phase is (Na_0.96_Ca_0.02_[box]_0.02_)_Σ=1_(Fe^3+^_0.89_Al_0.11_)_Σ=1_Si_2.00_O_6_
123.0111, 2915.046
123.4933, 3089.894
123.9754, 3279.919
124.4575, 3470.772
124.9396, 3644.552
125.4217, 3799.128
125.9038, 3948.845
126.3860, 4085.108
126.8681, 4171.108
127.3502, 4216.019
127.8323, 4241.898
128.3144, 4256.040
128.7965, 4271.221
129.2787, 4286.613
129.7608, 4306.530
130.2429, 4334.985
130.7250, 4371.479
131.2071, 4418.859
131.6892, 4484.101
132.1714, 4563.898
132.6535, 4640.332
133.1356, 4720.550
133.6177, 4789.525
134.0998, 4800.511
134.5819, 4750.909
135.0640, 4664.181
135.5462, 4551.975
136.0283, 4411.238
136.5104, 4275.047
136.9925, 4149.037
137.4746, 4032.092
137.9567, 3925.738
138.4389, 3826.092
138.9210, 3739.802
139.4031, 3680.459
139.8852, 3654.311
140.3673, 3633.370
140.8494, 3607.215
141.3316, 3572.937
141.8137, 3545.725
142.2958, 3526.762
142.7779, 3514.261
143.2600, 3502.913
143.7421, 3491.999
144.2243, 3483.937
144.7064, 3479.486
145.1885, 3475.284
145.6706, 3481.381
146.1527, 3505.825
146.6348, 3545.133
147.1170, 3565.054
147.5991, 3544.634
148.0812, 3520.204
148.5633, 3518.568
149.0454, 3553.099
149.5275, 3594.128
150.0097, 3638.439
150.4918, 3686.491
150.9739, 3733.658
151.4560, 3777.456
151.9381, 3820.425
152.4202, 3865.984
152.9024, 3915.357
153.3845, 3965.484
153.8666, 4017.310
154.3487, 4073.331
154.8308, 4122.453
155.3129, 4153.822
155.7950, 4177.785
156.2772, 4213.976
156.7593, 4270.705
157.2414, 4337.371
157.7235, 4409.632
158.2056, 4488.477
158.6877, 4569.172
159.1699, 4660.893
159.6520, 4756.961
160.1341, 4829.592
160.6162, 4877.679
161.0983, 4895.381
161.5804, 4878.326
162.0626, 4811.931
162.5447, 4723.572
163.0268, 4610.473
163.5089, 4474.870
163.9910, 4357.065
164.4731, 4274.939
164.9553, 4220.941
165.4374, 4186.290
165.9195, 4175.126
166.4016, 4176.750
166.8837, 4180.990
167.3658, 4185.234
167.8480, 4207.138
168.3301, 4256.735
168.8122, 4331.638
169.2943, 4427.532
169.7764, 4541.716
170.2585, 4676.351
170.7407, 4835.929
171.2228, 5025.702
171.7049, 5228.146
172.1870, 5437.530
172.6691, 5650.774
173.1512, 5853.188
173.6334, 6028.673
174.1155, 6192.644
174.5976, 6363.874
175.0797, 6543.349
175.5618, 6734.589
176.0439, 6930.975
176.5260, 7136.761
177.0082, 7375.638
177.4903, 7659.932
177.9724, 7994.843
178.4545, 8382.134
178.9366, 8850.254
179.4187, 9361.576
179.9009, 9880.961
180.3830, 10414.41
180.8651, 10878.93
181.3472, 11183.51
181.8293, 11356.30
182.3114, 11488.90
182.7936, 11563.00
183.2757, 11627.39
183.7578, 11816.36
184.2399, 12138.68
184.7220, 12524.54
185.2041, 12874.68
185.6863, 13202.20
186.1684, 13578.91
186.6505, 14064.26
187.1326, 14631.52
187.6147, 15196.30
188.0968, 15754.14
188.5790, 16320.12
189.0611, 16946.15
189.5432, 17628.16
190.0253, 18294.68
190.5074, 18966.54
190.9895, 19614.86
191.4717, 20101.51
191.9538, 20454.27
192.4359, 20595.59
192.9180, 20333.45
193.4001, 19652.12
193.8822, 18727.64
194.3644, 17600.18
194.8465, 16275.42
195.3286, 15020.38
195.8107, 13862.13
196.2928, 12808.09
196.7749, 11891.14
197.2570, 11119.63
197.7392, 10452.87
198.2213, 9872.593
198.7034, 9378.059
199.1855, 8950.524
199.6676, 8581.510
200.1497, 8272.193
200.6319, 8037.529
201.1140, 7884.631
201.5961, 7787.464
202.0782, 7718.454
202.5603, 7674.361
203.0424, 7678.106
203.5246, 7749.768
204.0067, 7888.530
204.4888, 8004.362
204.9709, 8088.611
205.4530, 8164.145
205.9352, 8263.602
206.4173, 8391.652
206.8994, 8527.772
207.3815, 8662.603
207.8636, 8796.979
208.3457, 8932.254
208.8279, 9063.028
209.3100, 9200.404
209.7921, 9370.092
210.2742, 9585.262
210.7563, 9799.336
211.2384, 9997.652
211.7206, 10193.86
212.2027, 10333.07
212.6848, 10431.22
213.1669, 10463.08
213.6490, 10363.59
214.1311, 10118.59
214.6133, 9772.957
215.0954, 9325.487
215.5775, 8744.127
216.0596, 8191.131
216.5417, 7664.709
217.0238, 7176.275
217.5059, 6751.167
217.9881, 6397.698
218.4702, 6092.807
218.9523, 5819.337
219.4344, 5578.880
219.9165, 5372.316
220.3986, 5202.841
220.8808, 5068.203
221.3629, 4945.694
221.8450, 4835.341
222.3271, 4736.982
222.8092, 4649.646
223.2913, 4575.866
223.7735, 4508.424
224.2556, 4445.572
224.7377, 4387.083
225.2198, 4340.632
225.7019, 4311.513
226.1840, 4287.523
226.6662, 4256.969
227.1483, 4214.060
227.6304, 4176.330
228.1125, 4147.797
228.5946, 4128.964
229.0767, 4105.964
229.5589, 4074.580
230.0410, 4043.422
230.5231, 4022.081
231.0052, 4018.223
231.4873, 4010.420
231.9694, 3991.756
232.4516, 3960.378
232.9337, 3938.375
233.4158, 3928.158
233.8979, 3925.448
234.3800, 3926.209
234.8621, 3934.786
235.3443, 3939.321
235.8264, 3934.660
236.3085, 3917.536
236.7906, 3910.602
237.2727, 3920.242
237.7548, 3935.626
238.2369, 3940.815
238.7191, 3928.974
239.2012, 3917.651
239.6833, 3911.494
240.1654, 3910.427
240.6475, 3914.933
241.1296, 3928.802
241.6118, 3946.002
242.0939, 3955.822
242.5760, 3952.767
243.0581, 3951.001
243.5402, 3954.651
244.0223, 3963.194
244.5045, 3980.072
244.9866, 4013.535
245.4687, 4051.532
245.9508, 4067.873
246.4329, 4045.305
246.9150, 4028.294
247.3972, 4037.293
247.8793, 4089.473
248.3614, 4119.755
248.8435, 4114.750
249.3256, 4092.605
249.8077, 4097.042
250.2899, 4141.123
250.7720, 4190.906
251.2541, 4231.195
251.7362, 4253.881
252.2183, 4286.345
252.7004, 4332.396
253.1826, 4386.744
253.6647, 4434.933
254.1468, 4473.952
254.6289, 4511.458
255.1110, 4550.883
255.5931, 4591.963
256.0753, 4636.591
256.5574, 4688.249
257.0395, 4743.155
257.5216, 4786.873
258.0037, 4810.496
258.4858, 4839.189
258.9680, 4886.796
259.4501, 4960.701
259.9322, 5034.686
260.4143, 5109.207
260.8964, 5183.007
261.3785, 5247.412
261.8607, 5296.467
262.3428, 5348.880
262.8249, 5419.918
263.3070, 5520.527
263.7891, 5603.118
264.2712, 5663.825
264.7534, 5704.305
265.2355, 5723.226
265.7176, 5712.767
266.1997, 5698.171
266.6818, 5692.433
267.1639, 5695.051
267.6461, 5709.743
268.1282, 5740.478
268.6103, 5781.983
269.0924, 5815.300
269.5745, 5834.870
270.0566, 5859.005
270.5387, 5901.240
271.0208, 5964.924
271.5030, 6028.989
271.9851, 6092.013
272.4672, 6153.739
272.9493, 6214.324
273.4314, 6274.613
273.9135, 6330.502
274.3957, 6381.282
274.8778, 6428.591
275.3599, 6458.144
275.8420, 6465.730
276.3241, 6456.389
276.8062, 6446.682
277.2884, 6438.791
277.7705, 6422.124
278.2526, 6385.223
278.7347, 6326.540
279.2168, 6274.839
279.6989, 6235.470
280.1811, 6203.122
280.6632, 6158.284
281.1453, 6098.075
281.6274, 6041.967
282.1095, 6007.162
282.5916, 5993.325
283.0738, 5971.623
283.5559, 5933.931
284.0380, 5890.261
284.5201, 5868.000
285.0022, 5868.188
285.4843, 5874.368
285.9665, 5870.677
286.4486, 5859.420
286.9307, 5868.808
287.4128, 5908.969
287.8949, 5963.578
288.3770, 5993.388
288.8592, 5998.527
289.3413, 6006.638
289.8234, 6044.481
290.3055, 6105.220
290.7876, 6148.401
291.2697, 6164.046
291.7519, 6168.047
292.2340, 6193.013
292.7161, 6237.459
293.1982, 6275.693
293.6803, 6289.902
294.1624, 6284.280
294.6446, 6273.313
295.1267, 6260.530
295.6088, 6239.421
296.0909, 6193.794
296.5730, 6127.457
297.0551, 6061.649
297.5373, 6007.873
298.0194, 5965.063
298.5015, 5931.020
298.9836, 5904.918
299.4657, 5889.571
299.9478, 5895.319
300.4300, 5917.662
300.9121, 5938.734
301.3942, 5933.381
301.8763, 5923.545
302.3584, 5948.154
302.8405, 6019.932
303.3227, 6103.431
303.8048, 6162.938
304.2869, 6204.662
304.7690, 6250.927
305.2511, 6319.632
305.7332, 6396.354
306.2154, 6464.511
306.6975, 6519.307
307.1796, 6573.396
307.6617, 6641.260
308.1438, 6715.349
308.6259, 6781.672
309.1081, 6834.625
309.5901, 6874.769
310.0723, 6902.833
310.5544, 6918.448
311.0365, 6922.617
311.5186, 6915.030
312.0007, 6896.445
312.4828, 6868.608
312.9650, 6824.249
313.4471, 6776.432
313.9292, 6732.869
314.4113, 6694.149
314.8934, 6660.884
315.3755, 6628.994
315.8577, 6603.457
316.3398, 6592.253
316.8219, 6602.867
317.3040, 6624.201
317.7861, 6648.090
318.2682, 6671.960
318.7504, 6714.779
319.2325, 6792.192
319.7146, 6889.451
320.1967, 6988.447
320.6788, 7075.497
321.1609, 7172.851
321.6431, 7283.915
322.1252, 7407.988
322.6073, 7557.675
323.0894, 7746.956
323.5715, 7957.668
324.0536, 8173.866
324.5358, 8357.986
325.0179, 8580.687
325.5000, 8868.180
325.9821, 9220.554
326.4642, 9570.984
326.9464, 9898.618
327.4285, 10232.39
327.9106, 10595.23
328.3927, 10963.37
328.8748, 11385.63
329.3569, 11877.64
329.8391, 12436.29
330.3212, 12992.32
330.8033, 13535.92
331.2854, 14088.82
331.7675, 14659.38
332.2496, 15260.52
332.7318, 15865.76
333.2139, 16475.93
333.6960, 17089.11
334.1781, 17723.25
334.6602, 18387.20
335.1423, 19061.40
335.6245, 19749.57
336.1066, 20479.06
336.5887, 21150.08
337.0708, 21754.94
337.5529, 22310.20
338.0350, 22867.78
338.5172, 23461.05
338.9993, 23971.24
339.4814, 24339.87
339.9635, 24558.06
340.4456, 24688.95
340.9277, 24744.24
341.4099, 24701.47
341.8920, 24507.23
342.3741, 24156.46
342.8562, 23711.76
343.3383, 23186.28
343.8204, 22587.48
344.3026, 21962.96
344.7847, 21320.75
345.2668, 20666.97
345.7489, 20038.95
346.2310, 19427.11
346.7131, 18782.44
347.1953, 18057.18
347.6774, 17278.00
348.1595, 16546.67
348.6416, 15874.49
349.1237, 15233.15
349.6058, 14595.15
350.0880, 13974.77
350.5700, 13402.88
351.0522, 12885.65
351.5343, 12432.95
352.0164, 12063.60
352.4985, 11776.99
352.9806, 11554.66
353.4627, 11392.86
353.9449, 11283.35
354.4270, 11212.77
354.9091, 11178.21
355.3912, 11178.95
355.8733, 11215.67
356.3554, 11287.52
356.8376, 11392.55
357.3197, 11545.54
357.8018, 11723.40
358.2839, 11901.43
358.7660, 12059.14
359.2481, 12237.31
359.7303, 12463.50
360.2124, 12726.63
360.6945, 13005.46
361.1766, 13301.32
361.6587, 13602.27
362.1408, 13897.99
362.6230, 14188.40
363.1051, 14476.76
363.5872, 14768.95
364.0693, 15061.46
364.5514, 15342.24
365.0335, 15626.07
365.5157, 15886.25
365.9978, 16122.90
366.4799, 16355.27
366.9620, 16501.62
367.4441, 16541.67
367.9262, 16492.73
368.4084, 16376.40
368.8905, 16183.13
369.3726, 15930.84
369.8547, 15609.22
370.3368, 15206.97
370.8189, 14823.95
371.3011, 14458.77
371.7832, 14114.35
372.2653, 13782.39
372.7474, 13440.63
373.2295, 13166.08
373.7116, 12981.51
374.1938, 12879.40
374.6759, 12807.20
375.1580, 12767.24
375.6401, 12755.14
376.1222, 12767.02
376.6043, 12801.42
377.0865, 12870.89
377.5686, 12979.98
378.0507, 13122.57
378.5328, 13281.76
379.0149, 13459.11
379.4970, 13647.28
379.9792, 13841.69
380.4613, 14044.26
380.9434, 14248.92
381.4255, 14460.13
381.9076, 14668.19
382.3897, 14863.08
382.8719, 15045.39
383.3540, 15208.04
383.8361, 15365.89
384.3182, 15499.88
384.8003, 15573.09
385.2824, 15584.55
385.7646, 15532.41
386.2467, 15402.70
386.7288, 15207.53
387.2109, 14974.23
387.6930, 14716.74
388.1751, 14422.07
388.6573, 14057.30
389.1394, 13625.30
389.6215, 13191.23
390.1036, 12794.19
390.5857, 12419.54
391.0678, 12046.72
391.5499, 11670.80
392.0320, 11298.09
392.5142, 10933.39
392.9963, 10577.77
393.4784, 10232.04
393.9605, 9892.653
394.4426, 9569.633
394.9247, 9270.625
395.4069, 9005.703
395.8890, 8745.182
396.3711, 8475.728
396.8532, 8208.782
397.3353, 7967.180
397.8174, 7771.077
398.2996, 7584.555
398.7817, 7398.589
399.2638, 7210.855
399.7459, 7030.408
400.2280, 6850.570
400.7101, 6682.198
401.1923, 6535.101
401.6744, 6421.561
402.1565, 6310.442
402.6386, 6195.503
403.1207, 6077.427
403.6028, 5965.678
404.0850, 5858.364
404.5671, 5760.546
405.0492, 5675.461
405.5313, 5604.020
406.0134, 5540.860
406.4955, 5487.998
406.9777, 5441.535
407.4598, 5392.784
407.9419, 5341.502
408.4240, 5288.021
408.9061, 5227.048
409.3882, 5161.612
409.8704, 5115.202
410.3525, 5092.508
410.8346, 5076.950
411.3167, 5044.021
411.7988, 4997.225
412.2809, 4955.521
412.7631, 4926.806
413.2452, 4907.649
413.7273, 4897.996
414.2094, 4897.713
414.6915, 4890.333
415.1736, 4855.370
415.6558, 4805.966
416.1379, 4763.651
416.6200, 4738.852
417.1021, 4718.136
417.5842, 4691.325
418.0663, 4659.923
418.5485, 4631.211
419.0306, 4603.094
419.5127, 4582.237
419.9948, 4576.238
420.4769, 4600.065
420.9590, 4610.365
421.4412, 4578.234
421.9233, 4526.223
422.4054, 4495.447
422.8875, 4517.483
423.3696, 4540.497
423.8517, 4547.384
424.3339, 4533.744
424.8160, 4519.158
425.2981, 4500.319
425.7802, 4482.951
426.2623, 4472.945
426.7444, 4477.278
427.2266, 4476.654
427.7087, 4463.562
428.1908, 4441.743
428.6729, 4439.498
429.1550, 4466.619
429.6371, 4492.280
430.1193, 4491.672
430.6014, 4459.879
431.0835, 4442.392
431.5656, 4445.337
432.0477, 4459.930
432.5298, 4471.026
433.0119, 4478.540
433.4940, 4483.341
433.9762, 4483.563
434.4583, 4481.015
434.9404, 4483.934
435.4225, 4493.060
435.9046, 4501.476
436.3867, 4500.359
436.8689, 4492.806
437.3510, 4486.263
437.8331, 4481.525
438.3152, 4480.605
438.7973, 4490.795
439.2794, 4509.382
439.7616, 4520.616
440.2437, 4503.274
440.7258, 4479.817
441.2079, 4473.253
441.6900, 4496.917
442.1721, 4518.068
442.6543, 4517.610
443.1364, 4504.435
443.6185, 4495.417
444.1006, 4499.920
444.5827, 4506.055
445.0648, 4509.653
445.5470, 4510.271
446.0291, 4509.503
446.5112, 4506.884
446.9933, 4503.317
447.4754, 4499.080
447.9576, 4486.137
448.4397, 4485.081
448.9218, 4506.293
449.4039, 4543.224
449.8860, 4556.200
450.3681, 4532.467
450.8503, 4508.071
451.3324, 4504.933
451.8145, 4527.663
452.2966, 4542.582
452.7787, 4544.631
453.2608, 4545.513
453.7430, 4570.557
454.2251, 4620.085
454.7072, 4658.144
455.1893, 4659.237
455.6714, 4639.117
456.1535, 4655.286
456.6357, 4708.678
457.1178, 4767.332
457.5999, 4809.770
458.0820, 4835.445
458.5641, 4837.940
459.0462, 4800.478
459.5284, 4763.844
460.0105, 4779.768
460.4926, 4833.014
460.9747, 4876.944
461.4568, 4877.447
461.9389, 4865.346
462.4211, 4864.873
462.9032, 4881.296
463.3853, 4895.485
463.8674, 4899.220
464.3495, 4896.395
464.8316, 4891.648
465.3138, 4888.186
465.7959, 4880.631
466.2780, 4865.416
466.7601, 4843.167
467.2422, 4824.683
467.7243, 4807.262
468.2065, 4796.412
468.6886, 4796.643
469.1707, 4819.328
469.6528, 4827.522
470.1349, 4813.821
470.6170, 4790.505
471.0992, 4781.144
471.5813, 4788.250
472.0634, 4800.208
472.5455, 4815.061
473.0276, 4831.999
473.5097, 4841.271
473.9918, 4841.017
474.4739, 4844.032
474.9561, 4866.915
475.4382, 4905.361
475.9203, 4937.405
476.4024, 4956.159
476.8845, 4970.555
477.3666, 4990.370
477.8488, 5015.958
478.3309, 5048.792
478.8130, 5092.953
479.2951, 5143.205
479.7772, 5192.828
480.2593, 5240.732
480.7415, 5295.113
481.2236, 5359.810
481.7057, 5433.930
482.1878, 5516.418
482.6699, 5604.585
483.1520, 5703.827
483.6342, 5819.425
484.1163, 5949.370
484.5984, 6079.173
485.0805, 6205.177
485.5626, 6331.549
486.0447, 6460.177
486.5269, 6585.504
487.0090, 6725.992
487.4911, 6884.107
487.9732, 7054.086
488.4553, 7231.418
488.9374, 7416.988
489.4196, 7602.081
489.9017, 7783.572
490.3838, 7961.653
490.8659, 8150.104
491.3480, 8349.797
491.8301, 8549.509
492.3123, 8736.269
492.7944, 8913.594
493.2765, 9114.101
493.7586, 9344.848
494.2407, 9585.976
494.7228, 9813.537
495.2050, 10027.53
495.6871, 10227.18
496.1692, 10437.52
496.6513, 10619.42
497.1334, 10736.40
497.6155, 10787.49
498.0977, 10792.28
498.5798, 10767.44
499.0619, 10698.15
499.5440, 10570.16
500.0261, 10361.50
500.5082, 10122.21
500.9904, 9856.979
501.4725, 9573.295
501.9546, 9283.119
502.4367, 8972.760
502.9188, 8673.396
503.4009, 8393.528
503.8831, 8133.777
504.3652, 7885.970
504.8473, 7645.600
505.3294, 7422.225
505.8115, 7228.299
506.2936, 7067.533
506.7758, 6920.807
507.2579, 6786.626
507.7400, 6664.337
508.2221, 6552.204
508.7042, 6450.295
509.1863, 6359.936
509.6685, 6282.088
510.1506, 6216.603
510.6327, 6162.793
511.1148, 6120.840
511.5969, 6090.602
512.0790, 6080.115
512.5612, 6080.050
513.0433, 6072.857
513.5254, 6046.068
514.0075, 6021.211
514.4896, 6013.838
514.9717, 6021.119
515.4539, 6034.808
515.9360, 6051.870
516.4181, 6073.813
516.9002, 6099.703
517.3823, 6127.441
517.8644, 6168.076
518.3466, 6225.421
518.8287, 6295.537
519.3108, 6374.340
519.7929, 6470.020
520.2750, 6560.954
520.7571, 6639.179
521.2393, 6712.062
521.7214, 6806.564
522.2035, 6927.067
522.6856, 7057.282
523.1677, 7184.295
523.6498, 7308.598
524.1320, 7461.996
524.6141, 7645.880
525.0962, 7855.490
525.5783, 8099.108
526.0604, 8368.904
526.5425, 8631.887
527.0247, 8860.076
527.5068, 9099.327
527.9889, 9413.240
528.4710, 9784.704
528.9531, 10168.45
529.4352, 10539.09
529.9174, 10907.41
530.3995, 11278.27
530.8816, 11644.31
531.3637, 12032.98
531.8458, 12460.85
532.3279, 12910.36
532.8101, 13359.68
533.2922, 13783.69
533.7743, 14238.00
534.2564, 14745.91
534.7385, 15285.93
535.2206, 15829.77
535.7027, 16352.05
536.1848, 16912.45
536.6669, 17549.49
537.1490, 18261.26
537.6312, 18943.46
538.1133, 19584.70
538.5954, 20216.96
539.0775, 20893.02
539.5596, 21603.31
540.0417, 22235.75
540.5239, 22775.84
541.0060, 23236.26
541.4881, 23664.79
541.9702, 24041.36
542.4523, 24289.17
542.9344, 24390.83
543.4166, 24331.74
543.8987, 24089.43
544.3808, 23663.85
544.8629, 23095.21
545.3450, 22343.85
545.8271, 21493.79
546.3093, 20602.73
546.7914, 19646.62
547.2735, 18730.79
547.7556, 17881.78
548.2377, 17092.44
548.7198, 16347.29
549.2020, 15631.75
549.6841, 14977.53
550.1662, 14389.80
550.6483, 13872.37
551.1304, 13417.44
551.6125, 13035.23
552.0947, 12688.99
552.5768, 12350.60
553.0589, 12020.31
553.5410, 11732.94
554.0231, 11493.11
554.5052, 11288.02
554.9874, 11100.06
555.4695, 10933.17
555.9516, 10807.80
556.4337, 10765.64
556.9158, 10737.29
557.3979, 10630.43
557.8801, 10461.56
558.3622, 10308.21
558.8443, 10222.58
559.3264, 10159.00
559.8085, 10091.02
560.2906, 10018.17
560.7728, 9927.702
561.2549, 9821.576
561.7370, 9693.861
562.2191, 9537.616
562.7012, 9333.485
563.1833, 9126.801
563.6655, 8920.308
564.1476, 8715.123
564.6297, 8518.488
565.1118, 8336.394
565.5939, 8149.956
566.0760, 7944.031
566.5582, 7725.252
567.0403, 7527.580
567.5224, 7353.263
568.0045, 7194.525
568.4866, 7046.660
568.9688, 6910.346
569.4509, 6790.805
569.9330, 6695.494
570.4151, 6605.966
570.8972, 6498.602
571.3793, 6384.938
571.8615, 6290.836
572.3436, 6238.875
572.8257, 6197.639
573.3078, 6150.843
573.7899, 6098.243
574.2720, 6051.092
574.7542, 6010.645
575.2363, 5976.295
575.7184, 5950.077
576.2005, 5941.984
576.6826, 5913.637
577.1647, 5853.855
577.6469, 5784.650
578.1290, 5736.292
578.6111, 5713.080
579.0932, 5685.186
579.5753, 5642.354
580.0574, 5595.855
580.5396, 5581.158
581.0217, 5596.020
581.5038, 5602.544
581.9859, 5571.490
582.4680, 5520.760
582.9501, 5478.326
583.4323, 5444.791
583.9144, 5418.885
584.3965, 5405.216
584.8786, 5395.851
585.3607, 5382.763
585.8428, 5364.685
586.3250, 5341.890
586.8071, 5310.646
587.2892, 5275.578
587.7713, 5244.500
588.2534, 5220.122
588.7355, 5198.082
589.2177, 5178.104
589.6998, 5160.253
590.1819, 5143.235
590.6640, 5127.353
591.1461, 5111.730
591.6282, 5096.375
592.1104, 5081.219
592.5925, 5062.556
593.0746, 5039.225
593.5567, 5017.116
594.0388, 5005.520
594.5209, 5000.595
595.0031, 4991.089
595.4852, 4971.159
595.9673, 4950.888
596.4494, 4942.022
596.9315, 4940.407
597.4136, 4936.168
597.8958, 4921.211
598.3779, 4906.149
598.8600, 4897.791
599.3421, 4896.320
599.8242, 4890.851
600.3063, 4876.865
600.7885, 4860.814
601.2706, 4846.034
601.7527, 4832.217
602.2348, 4819.712
602.7169, 4807.045
603.1990, 4797.841
603.6812, 4799.878
604.1633, 4813.975
604.6454, 4820.345
605.1275, 4812.246
605.6096, 4796.660
606.0917, 4784.481
606.5739, 4775.864
607.0560, 4771.485
607.5381, 4776.580
608.0202, 4783.223
608.5023, 4783.305
608.9844, 4776.655
609.4666, 4765.687
609.9487, 4751.524
610.4308, 4733.761
610.9129, 4710.330
611.3950, 4671.185
611.8771, 4647.529
612.3593, 4658.513
612.8414, 4679.426
613.3235, 4681.629
613.8056, 4655.772
614.2877, 4632.610
614.7698, 4615.385
