##NAMES=Aegirine
##RRUFFID=R070253
##IDEAL CHEMISTRY=NaFe^3+^Si_2_O_6_
##LOCALITY=Lovozero Massif, Kola Peninsula, Murmanskaya Oblast'; Northern Region, Russia
##OWNER=RRUFF
##SOURCE=Michael Scott
##DESCRIPTION=Dark green to black prismatic aegirine associated with a brown mica and microcline
##STATUS=The identification of this mineral has been confirmed by single-crystal X-ray diffraction.
##URL=rruff.info/R070253
90.49219, 183.8613
90.97430, 192.8946
91.45642, 196.1131
91.93854, 188.3516
92.42065, 176.2732
92.90277, 169.9287
93.38489, 170.4853
93.86700, 174.0165
94.34912, 177.0157
94.83124, 179.3546
95.31335, 180.1708
95.79547, 177.8842
96.27759, 173.3417
96.75970, 170.0307
97.24182, 168.7010
97.72394, 168.5229
98.20605, 166.9068
98.68817, 163.4588
99.17029, 161.8124
99.65240, 166.6843
100.1345, 178.7848
100.6166, 186.9931
101.0988, 188.8022
101.5809, 184.7261
102.0630, 178.1839
102.5451, 166.9875
103.0272, 157.1046
103.5093, 156.5794
103.9915, 170.1280
104.4736, 180.7288
104.9557, 182.5130
105.4378, 173.0717
105.9199, 168.4918
106.4020, 170.7786
106.8842, 176.9114
107.3663, 182.0064
107.8484, 187.9699
108.3305, 190.6051
108.8126, 187.8443
109.2947, 173.2621
109.7769, 163.9668
110.2590, 161.8245
110.7411, 165.2930
111.2232, 169.6301
111.7053, 178.8728
112.1874, 186.0882
112.6696, 188.0786
113.1517, 178.2578
113.6338, 169.9651
114.1159, 165.7175
114.5980, 165.0024
115.0801, 163.9363
115.5623, 158.9855
116.0444, 154.6286
116.5265, 154.3269
117.0086, 165.0732
117.4907, 174.6923
117.9728, 177.2605
118.4550, 172.3947
118.9371, 168.6400
119.4192, 171.8164
119.9013, 177.8538
120.3834, 181.5128
120.8655, 178.2857
121.3477, 173.4198
121.8298, 170.5569
122.3119, 170.1324
122.7940, 170.8497
123.2761, 172.1574
123.7582, 173.9510
124.2404, 175.9977
124.7225, 179.5598
125.2046, 182.8329
125.6867, 183.0406
126.1688, 178.8279
126.6509, 173.8645
127.1331, 172.3940
127.6152, 173.8694
128.0973, 175.5720
128.5794, 174.8100
129.0615, 172.8691
129.5436, 172.9016
130.0258, 175.9862
130.5079, 180.9260
130.9900, 185.8385
131.4721, 190.6817
131.9542, 195.7390
132.4363, 201.4766
132.9185, 207.7633
133.4006, 213.5802
133.8827, 218.0625
134.3648, 221.9277
134.8469, 228.2981
135.3290, 237.4451
135.8112, 247.9514
136.2933, 257.9467
136.7754, 267.3769
137.2575, 277.8589
137.7396, 290.6413
138.2217, 305.4083
138.7039, 317.8336
139.1860, 326.5207
139.6681, 335.1064
140.1502, 350.5814
140.6323, 375.2340
141.1144, 398.6391
141.5966, 416.4567
142.0787, 427.2732
142.5608, 438.0914
143.0429, 448.2122
143.5250, 458.6893
144.0071, 472.0503
144.4893, 489.1251
144.9714, 507.5560
145.4535, 526.1570
145.9356, 545.2797
146.4177, 564.2088
146.8998, 582.6328
147.3820, 600.8610
147.8641, 620.8259
148.3462, 640.3980
148.8283, 663.4455
149.3104, 692.5607
149.7925, 734.4222
150.2747, 773.4602
150.7568, 807.0826
151.2389, 835.7800
151.7210, 865.4062
152.2031, 897.5253
152.6852, 929.3193
153.1674, 959.3950
153.6495, 982.7277
154.1316, 1009.261
154.6137, 1042.665
155.0958, 1083.140
155.5779, 1119.436
156.0601, 1144.186
156.5422, 1166.996
157.0243, 1195.800
157.5064, 1236.689
157.9885, 1279.372
158.4706, 1321.423
158.9528, 1362.689
159.4349, 1403.293
159.9170, 1444.491
160.3991, 1484.682
160.8812, 1522.018
161.3633, 1561.231
161.8455, 1593.261
162.3276, 1614.135
162.8097, 1622.717
163.2918, 1622.673
163.7739, 1609.518
164.2560, 1587.550
164.7382, 1556.684
165.2203, 1529.943
165.7024, 1506.918
166.1845, 1484.178
166.6666, 1459.489
167.1487, 1440.449
167.6309, 1431.941
168.1130, 1431.695
168.5951, 1435.144
169.0772, 1442.504
169.5593, 1451.201
170.0414, 1458.506
170.5236, 1462.566
171.0057, 1468.405
171.4878, 1479.946
171.9699, 1496.344
172.4520, 1514.836
172.9341, 1534.592
173.4163, 1555.413
173.8984, 1576.574
174.3805, 1596.497
174.8626, 1619.116
175.3447, 1650.920
175.8268, 1690.183
176.3090, 1729.127
176.7911, 1758.901
177.2732, 1785.191
177.7553, 1817.934
178.2374, 1864.536
178.7195, 1913.256
179.2017, 1953.089
179.6838, 1984.009
180.1659, 2000.937
180.6480, 1992.796
181.1301, 1967.884
181.6122, 1945.093
182.0944, 1928.885
182.5765, 1918.351
183.0586, 1910.419
183.5407, 1905.210
184.0228, 1907.055
184.5049, 1920.275
184.9871, 1943.939
185.4692, 1974.601
185.9513, 2013.960
186.4334, 2058.600
186.9155, 2101.326
187.3976, 2141.716
187.8798, 2182.874
188.3619, 2229.688
188.8440, 2281.360
189.3261, 2329.645
189.8082, 2371.630
190.2903, 2408.449
190.7725, 2446.917
191.2546, 2489.055
191.7367, 2524.914
192.2188, 2543.923
192.7009, 2546.612
193.1830, 2538.516
193.6652, 2519.720
194.1473, 2491.201
194.6294, 2459.659
195.1115, 2424.954
195.5936, 2387.742
196.0757, 2348.375
196.5579, 2306.804
197.0400, 2264.625
197.5221, 2221.636
198.0042, 2178.216
198.4863, 2136.851
198.9684, 2097.204
199.4506, 2060.799
199.9327, 2030.753
200.4148, 2007.176
200.8969, 1987.230
201.3790, 1970.654
201.8611, 1957.670
202.3433, 1942.239
202.8254, 1922.339
203.3075, 1903.061
203.7896, 1894.945
204.2717, 1900.083
204.7538, 1905.172
205.2360, 1902.553
205.7181, 1890.451
206.2002, 1887.491
206.6823, 1895.908
207.1644, 1910.703
207.6465, 1922.308
208.1287, 1929.214
208.6108, 1937.840
209.0929, 1952.343
209.5750, 1974.788
210.0571, 1992.231
210.5392, 2003.913
211.0214, 2011.514
211.5035, 2019.299
211.9856, 2029.116
212.4677, 2034.046
212.9498, 2030.580
213.4319, 2017.640
213.9140, 2001.189
214.3962, 1981.219
214.8783, 1957.703
215.3604, 1930.867
215.8425, 1900.057
216.3246, 1866.817
216.8067, 1830.786
217.2889, 1790.986
217.7710, 1752.931
218.2531, 1717.104
218.7352, 1682.881
219.2173, 1647.548
219.6994, 1609.333
220.1816, 1573.094
220.6637, 1540.575
221.1458, 1512.589
221.6279, 1485.861
222.1100, 1460.380
222.5921, 1436.049
223.0743, 1411.793
223.5564, 1387.618
224.0385, 1363.847
224.5206, 1341.001
225.0027, 1318.389
225.4848, 1297.751
225.9670, 1279.263
226.4491, 1262.912
226.9312, 1248.647
227.4133, 1237.757
227.8954, 1226.989
228.3775, 1214.815
228.8597, 1199.541
229.3418, 1186.540
229.8239, 1176.628
230.3060, 1168.727
230.7881, 1160.287
231.2702, 1151.209
231.7524, 1141.473
232.2345, 1130.819
232.7166, 1117.443
233.1987, 1107.160
233.6808, 1101.797
234.1629, 1099.102
234.6451, 1092.496
235.1272, 1078.890
235.6093, 1066.103
236.0914, 1057.840
236.5735, 1056.445
237.0556, 1054.441
237.5378, 1052.402
238.0199, 1049.642
238.5020, 1043.640
238.9841, 1029.963
239.4662, 1019.536
239.9483, 1018.305
240.4305, 1033.630
240.9126, 1040.538
241.3947, 1035.693
241.8768, 1023.468
242.3589, 1014.656
242.8410, 1011.102
243.3232, 1008.071
243.8053, 1002.930
244.2874, 992.1617
244.7695, 988.1699
245.2516, 994.0073
245.7337, 1005.374
246.2159, 1012.895
246.6980, 1016.150
247.1801, 1016.214
247.6622, 1012.657
248.1443, 1002.697
248.6264, 997.1298
249.1086, 997.4595
249.5907, 1001.404
250.0728, 1004.351
250.5549, 1005.943
251.0370, 1007.129
251.5191, 1008.166
252.0013, 1008.879
252.4834, 1010.142
252.9655, 1012.880
253.4476, 1015.582
253.9297, 1014.938
254.4118, 1008.591
254.8940, 1003.273
255.3761, 1001.360
255.8582, 1003.344
256.3403, 1006.964
256.8224, 1012.812
257.3046, 1019.851
257.7867, 1026.208
258.2688, 1031.594
258.7509, 1037.116
259.2330, 1043.754
259.7151, 1052.431
260.1973, 1056.576
260.6794, 1053.644
261.1615, 1048.612
261.6436, 1049.095
262.1257, 1057.068
262.6078, 1065.787
263.0900, 1073.526
263.5721, 1080.414
264.0542, 1085.411
264.5363, 1087.794
265.0184, 1089.177
265.5005, 1091.564
265.9827, 1094.876
266.4648, 1099.454
266.9469, 1106.391
267.4290, 1115.804
267.9111, 1120.342
268.3932, 1118.224
268.8754, 1113.910
269.3575, 1112.518
269.8396, 1114.775
270.3217, 1117.237
270.8038, 1118.929
271.2859, 1119.957
271.7681, 1122.203
272.2502, 1126.165
272.7323, 1130.333
273.2144, 1132.023
273.6965, 1130.025
274.1786, 1132.285
274.6608, 1141.704
275.1429, 1157.129
275.6250, 1170.859
276.1071, 1183.051
276.5892, 1193.101
277.0714, 1199.286
277.5535, 1201.095
278.0356, 1204.276
278.5177, 1210.432
278.9998, 1218.640
279.4819, 1224.575
279.9641, 1227.667
280.4462, 1231.154
280.9283, 1238.634
281.4104, 1250.256
281.8925, 1259.133
282.3746, 1263.122
282.8568, 1264.534
283.3389, 1270.242
283.8210, 1280.642
284.3031, 1292.195
284.7852, 1302.604
285.2673, 1311.831
285.7495, 1320.887
286.2316, 1329.580
286.7137, 1338.541
287.1958, 1349.810
287.6779, 1363.470
288.1600, 1376.271
288.6422, 1386.460
289.1243, 1394.144
289.6064, 1399.055
290.0885, 1400.512
290.5706, 1401.074
291.0527, 1404.550
291.5349, 1410.884
292.0170, 1419.163
292.4991, 1430.136
292.9812, 1442.880
293.4633, 1453.886
293.9454, 1463.188
294.4276, 1470.276
294.9097, 1472.977
295.3918, 1472.148
295.8739, 1472.225
296.3560, 1475.478
296.8381, 1481.149
297.3203, 1488.201
297.8024, 1496.823
298.2845, 1504.474
298.7666, 1507.429
299.2487, 1506.957
299.7308, 1507.039
300.2130, 1507.969
300.6951, 1510.959
301.1772, 1519.198
301.6593, 1532.634
302.1414, 1546.585
302.6235, 1556.793
303.1057, 1564.514
303.5878, 1571.954
304.0699, 1579.572
304.5520, 1587.646
305.0341, 1596.134
305.5162, 1605.118
305.9984, 1615.696
306.4805, 1630.347
306.9626, 1646.573
307.4447, 1660.486
307.9268, 1670.251
308.4089, 1678.650
308.8911, 1689.022
309.3732, 1700.481
309.8553, 1709.432
310.3374, 1711.732
310.8195, 1711.409
311.3016, 1713.064
311.7838, 1719.793
312.2659, 1724.075
312.7480, 1719.948
313.2301, 1709.494
313.7122, 1697.818
314.1943, 1685.567
314.6765, 1673.983
315.1586, 1664.510
315.6407, 1658.376
316.1228, 1650.850
316.6049, 1638.176
317.0870, 1622.834
317.5692, 1609.105
318.0513, 1598.281
318.5334, 1589.423
319.0155, 1581.942
319.4976, 1575.565
319.9797, 1571.469
320.4619, 1571.980
320.9440, 1574.249
321.4261, 1575.090
321.9082, 1568.285
322.3903, 1565.158
322.8724, 1570.835
323.3546, 1585.607
323.8367, 1599.252
324.3188, 1606.797
324.8009, 1614.232
325.2830, 1626.038
325.7651, 1645.490
326.2473, 1666.445
326.7294, 1687.065
327.2115, 1707.902
327.6936, 1733.342
328.1757, 1766.949
328.6578, 1802.571
329.1400, 1837.221
329.6221, 1866.042
330.1042, 1899.886
330.5863, 1939.965
331.0684, 1985.314
331.5505, 2032.319
332.0327, 2082.176
332.5148, 2132.649
332.9969, 2183.461
333.4790, 2234.136
333.9611, 2283.789
334.4432, 2333.505
334.9254, 2381.719
335.4075, 2425.131
335.8896, 2463.645
336.3717, 2498.375
336.8538, 2530.008
337.3359, 2559.253
337.8180, 2580.723
338.3001, 2594.045
338.7823, 2600.246
339.2644, 2601.075
339.7465, 2597.675
340.2286, 2583.845
340.7107, 2556.800
341.1928, 2517.531
341.6750, 2475.307
342.1571, 2428.810
342.6392, 2382.031
343.1213, 2337.999
343.6034, 2297.123
344.0855, 2254.872
344.5677, 2210.277
345.0498, 2164.552
345.5319, 2121.452
346.0140, 2080.988
346.4961, 2042.960
346.9782, 2008.928
347.4604, 1977.582
347.9425, 1943.109
348.4246, 1903.384
348.9067, 1864.224
349.3888, 1834.682
349.8709, 1813.531
350.3531, 1793.895
350.8352, 1772.603
351.3173, 1750.515
351.7994, 1727.912
352.2815, 1704.650
352.7636, 1684.211
353.2458, 1670.840
353.7279, 1662.784
354.2100, 1656.256
354.6921, 1649.453
355.1742, 1643.721
355.6563, 1640.563
356.1385, 1639.891
356.6206, 1640.633
357.1027, 1641.956
357.5848, 1644.304
358.0669, 1648.063
358.5490, 1652.493
359.0312, 1659.549
359.5133, 1671.740
359.9954, 1687.848
360.4775, 1704.233
360.9596, 1721.339
361.4417, 1736.647
361.9239, 1747.870
362.4060, 1752.892
362.8881, 1758.991
363.3702, 1771.466
363.8523, 1786.242
364.3344, 1797.072
364.8166, 1799.603
365.2987, 1800.248
365.7808, 1801.113
366.2629, 1802.394
366.7450, 1803.618
367.2271, 1808.520
367.7093, 1811.511
368.1914, 1807.679
368.6735, 1788.037
369.1556, 1771.014
369.6377, 1762.180
370.1198, 1759.969
370.6020, 1750.873
371.0841, 1728.494
371.5662, 1705.102
372.0483, 1687.428
372.5304, 1677.624
373.0125, 1669.227
373.4947, 1662.248
373.9768, 1656.615
374.4589, 1651.939
374.9410, 1647.666
375.4231, 1645.491
375.9052, 1646.280
376.3874, 1650.339
376.8695, 1654.869
377.3516, 1659.380
377.8337, 1665.278
378.3158, 1675.006
378.7979, 1689.087
379.2801, 1703.405
379.7622, 1716.874
380.2443, 1729.730
380.7264, 1743.875
381.2085, 1759.403
381.6906, 1775.027
382.1728, 1789.176
382.6549, 1802.301
383.1370, 1816.751
383.6191, 1833.704
384.1012, 1850.998
384.5833, 1866.120
385.0655, 1878.942
385.5476, 1888.640
386.0297, 1894.455
386.5118, 1897.085
386.9939, 1897.958
387.4760, 1897.232
387.9582, 1894.341
388.4403, 1889.779
388.9224, 1882.565
389.4045, 1870.823
389.8866, 1853.951
390.3687, 1832.035
390.8509, 1804.080
391.3330, 1770.586
391.8151, 1735.232
392.2972, 1701.087
392.7793, 1666.051
393.2614, 1627.917
393.7436, 1586.062
394.2257, 1541.862
394.7078, 1495.053
395.1899, 1446.559
395.6720, 1398.788
396.1541, 1351.190
396.6363, 1305.557
397.1184, 1262.962
397.6005, 1224.154
398.0826, 1186.378
398.5647, 1148.082
399.0468, 1110.985
399.5290, 1077.168
400.0111, 1049.478
400.4932, 1022.159
400.9753, 993.4940
401.4574, 963.3876
401.9395, 936.9407
402.4217, 915.1771
402.9038, 895.7243
403.3859, 877.1041
403.8680, 859.3459
404.3501, 842.0654
404.8322, 824.5272
405.3144, 807.8609
405.7965, 795.8237
406.2786, 789.0720
406.7607, 784.5335
407.2428, 782.1170
407.7249, 781.9846
408.2071, 777.2158
408.6892, 766.9326
409.1713, 754.5489
409.6534, 744.2357
410.1355, 735.9310
410.6176, 727.2430
411.0998, 716.2526
411.5819, 705.1292
412.0640, 700.3810
412.5461, 701.8063
413.0282, 703.2001
413.5103, 699.4432
413.9925, 692.3002
414.4746, 684.9181
414.9567, 677.2658
415.4388, 671.0759
415.9209, 669.6680
416.4030, 671.2101
416.8852, 671.1074
417.3673, 666.0051
417.8494, 658.9958
418.3315, 652.2798
418.8136, 646.0417
419.2957, 640.1853
419.7779, 635.6962
420.2600, 631.1776
420.7421, 625.3021
421.2242, 614.0347
421.7063, 605.1186
422.1884, 601.7146
422.6706, 602.7928
423.1527, 604.3086
423.6348, 607.6258
424.1169, 609.3544
424.5990, 607.8463
425.0811, 602.0226
425.5633, 595.0779
426.0454, 584.6132
426.5275, 574.1739
427.0096, 568.3724
427.4917, 570.5776
427.9738, 572.3513
428.4560, 571.4948
428.9381, 568.1984
429.4202, 567.3699
429.9023, 570.3445
430.3844, 573.3262
430.8665, 573.4003
431.3487, 570.1342
431.8308, 566.3305
432.3129, 561.7495
432.7950, 557.3636
433.2771, 555.4998
433.7592, 556.2402
434.2414, 557.6778
434.7235, 559.5873
435.2056, 561.5588
435.6877, 561.5185
436.1698, 559.3205
436.6519, 556.9120
437.1341, 556.1605
437.6162, 556.7394
438.0983, 557.7492
438.5804, 558.8094
439.0625, 560.4024
439.5446, 564.4398
440.0268, 569.8904
440.5089, 572.9750
440.9910, 570.1180
441.4731, 564.7335
441.9552, 559.3550
442.4373, 554.1339
442.9195, 550.1467
443.4016, 548.5340
443.8837, 548.2841
444.3658, 548.1672
444.8479, 548.1583
445.3300, 547.8893
445.8122, 546.1099
446.2943, 543.3099
446.7764, 543.5551
447.2585, 552.5486
447.7406, 560.8019
448.2227, 563.2177
448.7049, 555.3782
449.1870, 550.1159
449.6691, 548.1329
450.1512, 548.4073
450.6333, 549.3947
451.1154, 551.0093
451.5976, 553.6208
452.0797, 557.8737
452.5618, 563.5481
453.0439, 566.9064
453.5260, 567.4151
454.0081, 567.0856
454.4903, 567.4192
454.9724, 568.4031
455.4545, 569.3417
455.9366, 570.1692
456.4187, 570.8691
456.9008, 571.2399
457.3830, 571.3544
457.8651, 571.7291
458.3472, 572.8582
458.8293, 574.3376
459.3114, 575.6806
459.7935, 576.8621
460.2757, 577.3449
460.7578, 574.9093
461.2399, 572.0348
461.7220, 572.7689
462.2041, 581.2530
462.6862, 588.2829
463.1684, 585.9156
463.6505, 577.4876
464.1326, 570.7687
464.6147, 570.4210
465.0968, 571.2639
465.5789, 570.4189
466.0611, 567.2842
466.5432, 565.4676
467.0253, 567.6400
467.5074, 570.3846
467.9895, 570.8290
468.4716, 566.6654
468.9538, 562.9000
469.4359, 559.6317
469.9180, 557.0013
470.4001, 555.5132
470.8822, 555.4229
471.3643, 556.0968
471.8465, 557.7598
472.3286, 560.7097
472.8107, 561.3141
473.2928, 559.0049
473.7749, 555.7763
474.2570, 553.1935
474.7392, 551.2706
475.2213, 552.0875
475.7034, 557.0093
476.1855, 563.8175
476.6676, 567.9420
477.1497, 569.5858
477.6319, 570.5541
478.1140, 570.6363
478.5961, 571.1595
479.0782, 574.5609
479.5603, 581.0933
480.0424, 589.1066
480.5246, 598.8057
481.0067, 608.7322
481.4888, 616.7504
481.9709, 619.9642
482.4530, 623.7404
482.9352, 631.6733
483.4173, 642.5528
483.8994, 652.5568
484.3815, 659.3624
484.8636, 665.8714
485.3457, 673.1224
485.8279, 680.8806
486.3100, 690.7572
486.7921, 704.4562
487.2742, 719.4645
487.7563, 733.7438
488.2384, 746.8422
488.7206, 760.0433
489.2027, 773.2001
489.6848, 786.6041
490.1669, 800.9482
490.6490, 815.7698
491.1311, 832.6059
491.6133, 852.7376
492.0954, 876.1779
492.5775, 897.9442
493.0596, 917.4906
493.5417, 937.2441
494.0238, 960.3574
494.5060, 986.1931
494.9881, 1011.576
495.4702, 1035.765
495.9523, 1058.687
496.4344, 1081.419
496.9165, 1102.909
497.3987, 1119.148
497.8808, 1127.377
498.3629, 1129.764
498.8450, 1128.037
499.3271, 1122.277
499.8092, 1113.362
500.2914, 1101.870
500.7735, 1087.365
501.2556, 1069.061
501.7377, 1044.062
502.2198, 1018.772
502.7019, 994.4803
503.1841, 970.7941
503.6662, 946.4644
504.1483, 918.9874
504.6304, 892.9453
505.1125, 869.6396
505.5946, 849.0516
506.0768, 831.1415
506.5589, 816.8675
507.0410, 804.0696
507.5231, 790.4799
508.0052, 775.5154
508.4873, 764.2126
508.9695, 758.1153
509.4516, 754.7084
509.9337, 749.3641
510.4158, 742.1931
510.8979, 735.2734
511.3800, 728.1483
511.8622, 722.2626
512.3443, 721.6751
512.8264, 726.1686
513.3085, 731.6972
513.7906, 734.9554
514.2728, 737.4962
514.7549, 741.8787
515.2370, 749.6769
515.7191, 756.0043
516.2012, 753.8358
516.6833, 749.0630
517.1655, 750.6935
517.6476, 766.1789
518.1297, 784.0294
518.6118, 801.5997
519.0939, 818.6111
519.5760, 833.4188
520.0582, 844.3430
520.5403, 854.1129
521.0224, 862.7276
521.5045, 866.9697
521.9866, 880.3171
522.4688, 907.2180
522.9509, 938.3179
523.4330, 961.0687
523.9151, 973.0179
524.3972, 990.6398
524.8793, 1018.924
525.3615, 1053.546
525.8436, 1083.245
526.3257, 1108.217
526.8078, 1133.621
527.2899, 1164.276
527.7720, 1197.598
528.2542, 1226.546
528.7363, 1250.584
529.2184, 1274.764
529.7005, 1303.749
530.1826, 1335.028
530.6647, 1364.891
531.1469, 1390.187
531.6290, 1416.960
532.1111, 1448.638
532.5932, 1483.978
533.0753, 1520.298
533.5574, 1556.213
534.0396, 1593.861
534.5217, 1633.657
535.0038, 1675.178
535.4859, 1722.128
535.9680, 1779.049
536.4501, 1836.488
536.9323, 1887.568
537.4144, 1926.742
537.8965, 1977.675
538.3786, 2044.804
538.8607, 2118.249
539.3428, 2182.741
539.8250, 2238.599
540.3071, 2288.959
540.7892, 2333.921
541.2713, 2374.208
541.7534, 2410.502
542.2355, 2442.640
542.7177, 2468.570
543.1998, 2486.310
543.6819, 2497.565
544.1640, 2505.729
544.6461, 2511.318
545.1282, 2509.956
545.6104, 2496.483
546.0925, 2475.135
546.5746, 2450.374
547.0567, 2420.419
547.5388, 2391.425
548.0209, 2367.231
548.5031, 2345.639
548.9852, 2321.281
549.4673, 2288.578
549.9494, 2258.139
550.4315, 2233.660
550.9136, 2215.108
551.3958, 2193.553
551.8779, 2166.922
552.3600, 2140.729
552.8421, 2118.046
553.3242, 2098.997
553.8063, 2082.797
554.2885, 2070.093
554.7706, 2058.359
555.2527, 2043.171
555.7348, 2025.385
556.2169, 2010.420
556.6990, 2000.671
557.1812, 1993.759
557.6633, 1987.609
558.1454, 1981.770
558.6275, 1974.516
559.1096, 1964.776
559.5917, 1953.331
560.0739, 1941.082
560.5560, 1928.061
561.0381, 1913.314
561.5202, 1897.120
562.0023, 1878.807
562.4844, 1857.763
562.9666, 1831.019
563.4487, 1805.794
563.9308, 1783.872
564.4129, 1763.066
564.8950, 1740.127
565.3771, 1714.926
565.8593, 1688.218
566.3414, 1659.308
566.8235, 1629.225
567.3056, 1602.418
567.7877, 1579.735
568.2698, 1555.066
568.7520, 1521.571
569.2341, 1482.719
569.7162, 1451.146
570.1983, 1427.777
570.6804, 1407.202
571.1625, 1385.913
571.6447, 1363.991
572.1268, 1341.340
572.6089, 1316.767
573.0910, 1293.596
573.5731, 1275.195
574.0552, 1259.334
574.5374, 1241.691
575.0195, 1219.418
575.5016, 1196.834
575.9837, 1174.764
576.4658, 1153.468
576.9479, 1134.005
577.4301, 1117.365
577.9122, 1101.656
578.3943, 1085.888
578.8764, 1069.982
579.3585, 1055.278
579.8406, 1042.561
580.3228, 1029.286
580.8049, 1011.058
581.2870, 988.4442
581.7691, 971.4249
582.2512, 963.4162
582.7333, 957.8571
583.2155, 944.5964
583.6975, 925.6010
584.1796, 906.3734
584.6617, 889.1243
585.1439, 873.2137
585.6260, 859.1058
586.1081, 846.2324
586.5902, 831.7660
