##NAMES=Aegirine
##RRUFFID=R070125
##IDEAL CHEMISTRY=NaFe^3+^Si_2_O_6_
##LOCALITY=Ice River Alkaline Complex, Golden, British Columbia, Canada
##OWNER=RRUFF
##SOURCE=Mark Mauthner
##DESCRIPTION=Fragmented prismatic dark gray crystals associated with white microcline
##STATUS=The identification of this mineral is confirmed by single-crystal X-ray diffraction and chemical analysis.
##URL=rruff.info/R070125
##MEASURED CHEMISTRY=Na_1.00_(Fe^3+^_0.91_Al_0.07_Mg_0.01_Ti_0.01_)_Î£=1_Si_2.00_O_6_
168.5575, 919.5945
169.0396, 920.8214
169.5217, 925.0748
170.0038, 942.7982
170.4859, 972.4306
170.9680, 996.6328
171.4502, 1008.748
171.9323, 1016.080
172.4144, 1026.941
172.8965, 1042.393
173.3786, 1059.118
173.8607, 1073.604
174.3429, 1086.709
174.8250, 1102.321
175.3071, 1122.831
175.7892, 1145.626
176.2713, 1167.282
176.7534, 1187.234
177.2356, 1207.521
177.7177, 1230.796
178.1998, 1255.791
178.6819, 1278.785
179.1640, 1298.740
179.6461, 1316.141
180.1283, 1331.138
180.6104, 1343.416
181.0925, 1354.998
181.5746, 1368.517
182.0567, 1382.462
182.5388, 1393.547
183.0210, 1398.416
183.5031, 1400.912
183.9852, 1405.887
184.4673, 1413.024
184.9494, 1424.055
185.4315, 1442.187
185.9137, 1464.730
186.3958, 1488.570
186.8779, 1514.764
187.3600, 1540.588
187.8421, 1560.921
188.3242, 1573.864
188.8064, 1588.633
189.2885, 1612.995
189.7706, 1641.744
190.2527, 1668.357
190.7348, 1690.631
191.2169, 1710.165
191.6991, 1730.026
192.1812, 1751.375
192.6633, 1768.017
193.1454, 1778.379
193.6275, 1781.694
194.1096, 1775.448
194.5918, 1757.786
195.0739, 1732.287
195.5560, 1702.279
196.0381, 1666.819
196.5202, 1631.410
197.0023, 1593.560
197.4845, 1558.926
197.9666, 1535.680
198.4487, 1529.096
198.9308, 1525.177
199.4129, 1503.444
199.8950, 1459.944
200.3772, 1419.497
200.8593, 1390.662
201.3414, 1368.418
201.8235, 1350.273
202.3056, 1336.131
202.7877, 1323.627
203.2699, 1310.646
203.7520, 1297.257
204.2341, 1282.052
204.7162, 1259.965
205.1983, 1238.849
205.6804, 1225.400
206.1626, 1220.811
206.6447, 1218.794
207.1268, 1212.132
207.6089, 1200.182
208.0910, 1190.887
208.5731, 1189.309
209.0553, 1188.331
209.5374, 1182.251
210.0195, 1170.834
210.5016, 1160.016
210.9837, 1157.175
211.4658, 1162.738
211.9480, 1163.296
212.4301, 1154.105
212.9122, 1141.745
213.3943, 1129.611
213.8764, 1117.877
214.3585, 1106.319
214.8407, 1095.460
215.3228, 1085.155
215.8049, 1072.239
216.2870, 1054.346
216.7691, 1036.050
217.2512, 1019.014
217.7334, 1003.613
218.2155, 990.5242
218.6976, 981.4572
219.1797, 975.8589
219.6618, 968.4403
220.1439, 956.8652
220.6261, 946.7314
221.1082, 941.3344
221.5903, 939.3188
222.0724, 937.6384
222.5545, 934.7853
223.0366, 930.8581
223.5188, 925.8601
224.0009, 918.0546
224.4830, 912.3372
224.9651, 915.1014
225.4472, 920.4508
225.9293, 917.7032
226.4115, 896.8713
226.8936, 868.7427
227.3757, 861.8516
227.8578, 886.6801
228.3399, 907.9664
228.8220, 909.6998
229.3041, 901.2195
229.7863, 891.9329
230.2684, 884.2686
230.7505, 879.0693
231.2326, 878.3626
231.7147, 883.2858
232.1968, 888.5432
232.6790, 893.7689
233.1611, 897.7734
233.6432, 898.8243
234.1253, 896.1029
234.6074, 892.4731
235.0895, 890.9133
235.5717, 891.3822
236.0538, 894.3245
236.5359, 903.9980
237.0180, 913.4318
237.5001, 916.5240
237.9822, 912.3682
238.4644, 906.8981
238.9465, 905.5057
239.4286, 908.1046
239.9107, 910.8956
240.3928, 912.7797
240.8749, 915.1803
241.3571, 919.8003
241.8392, 926.3842
242.3213, 932.0933
242.8034, 934.9827
243.2855, 935.3157
243.7676, 933.8832
244.2498, 928.1395
244.7319, 924.7314
245.2140, 929.5707
245.6961, 940.6755
246.1782, 951.2031
246.6603, 958.5407
247.1425, 962.8232
247.6246, 964.5549
248.1067, 964.0134
248.5888, 960.1492
249.0709, 947.7037
249.5530, 931.7802
250.0352, 922.3385
250.5173, 926.2016
250.9994, 936.2841
251.4815, 943.0935
251.9636, 946.5494
252.4457, 946.9506
252.9279, 941.6047
253.4100, 934.0469
253.8921, 929.9421
254.3742, 932.3447
254.8563, 935.2896
255.3384, 933.2836
255.8206, 926.4031
256.3027, 916.6445
256.7848, 901.9498
257.2669, 886.9465
257.7490, 878.2050
258.2311, 876.6088
258.7133, 878.9912
259.1954, 887.2358
259.6775, 898.8259
260.1596, 902.8271
260.6417, 893.4788
261.1238, 879.3343
261.6060, 872.0748
262.0881, 871.9936
262.5702, 871.4855
263.0523, 865.8501
263.5344, 858.1433
264.0165, 855.1420
264.4987, 859.1469
264.9808, 863.2311
265.4629, 857.1211
265.9450, 842.0919
266.4271, 834.2499
266.9092, 844.7452
267.3914, 859.2886
267.8735, 861.0522
268.3556, 848.8126
268.8377, 835.7538
269.3198, 832.2605
269.8019, 837.6379
270.2841, 839.9014
270.7662, 835.3822
271.2483, 830.9302
271.7304, 831.4877
272.2125, 836.1329
272.6946, 840.5046
273.1768, 842.1190
273.6589, 841.7768
274.1410, 842.6904
274.6231, 846.2607
275.1052, 849.0789
275.5873, 851.4914
276.0695, 852.2602
276.5516, 847.2253
277.0337, 833.9120
277.5158, 819.0939
277.9979, 816.8804
278.4800, 835.2830
278.9622, 849.8301
279.4443, 857.1475
279.9264, 860.3608
280.4085, 863.1138
280.8906, 865.9850
281.3727, 865.6918
281.8549, 856.8031
282.3370, 834.0608
282.8191, 824.7773
283.3012, 837.3935
283.7833, 854.8051
284.2654, 869.0385
284.7476, 879.0801
285.2297, 886.5752
285.7118, 892.7861
286.1939, 897.7214
286.6760, 899.8531
287.1581, 896.3048
287.6403, 893.3031
288.1224, 892.2822
288.6045, 892.9811
289.0866, 894.9537
289.5687, 898.0143
290.0508, 901.8207
290.5330, 905.1993
291.0151, 907.8493
291.4972, 910.4599
291.9793, 913.3900
292.4614, 916.1544
292.9435, 918.0304
293.4257, 918.8946
293.9078, 919.6251
294.3899, 921.6606
294.8720, 925.6066
295.3541, 929.1580
295.8362, 932.1843
296.3184, 934.8698
296.8005, 938.1968
297.2826, 941.5784
297.7647, 942.7134
298.2468, 938.3495
298.7289, 928.5645
299.2111, 922.8876
299.6932, 924.5810
300.1753, 926.6896
300.6574, 926.8424
301.1395, 925.5362
301.6216, 923.6465
302.1038, 921.2074
302.5859, 918.9695
303.0680, 919.1522
303.5501, 922.8907
304.0322, 926.0093
304.5143, 926.7349
304.9964, 926.2847
305.4785, 925.4298
305.9607, 924.1976
306.4428, 923.5090
306.9249, 924.9340
307.4070, 928.4458
307.8891, 930.7281
308.3712, 929.9950
308.8534, 928.7712
309.3355, 929.1088
309.8176, 931.0291
310.2997, 934.2828
310.7818, 940.6636
311.2639, 948.1745
311.7461, 951.4174
312.2282, 948.9696
312.7103, 945.0030
313.1924, 943.4036
313.6745, 943.2062
314.1566, 941.0916
314.6388, 932.9691
315.1209, 924.9898
315.6030, 922.6833
316.0851, 925.9700
316.5672, 933.5287
317.0493, 947.1689
317.5315, 963.2087
318.0136, 970.2280
318.4957, 963.8944
318.9778, 956.0800
319.4599, 950.2200
319.9420, 946.1585
320.4242, 942.7153
320.9063, 939.1862
321.3884, 938.6398
321.8705, 947.0622
322.3526, 970.1129
322.8347, 986.8865
323.3169, 990.8594
323.7990, 992.0045
324.2811, 997.3812
324.7632, 1008.023
325.2453, 1022.614
325.7274, 1040.697
326.2096, 1062.638
326.6917, 1080.214
327.1738, 1094.248
327.6559, 1103.886
328.1380, 1103.296
328.6201, 1098.951
329.1023, 1101.835
329.5844, 1117.785
330.0665, 1143.406
330.5486, 1168.221
331.0307, 1190.199
331.5128, 1214.990
331.9950, 1245.648
332.4771, 1277.272
332.9592, 1305.752
333.4413, 1330.204
333.9234, 1352.386
334.4055, 1374.008
334.8877, 1394.992
335.3698, 1415.528
335.8519, 1436.648
336.3340, 1456.006
336.8161, 1471.075
337.2982, 1483.477
337.7804, 1497.974
338.2625, 1520.915
338.7446, 1546.065
339.2267, 1552.030
339.7088, 1529.669
340.1909, 1513.094
340.6731, 1527.067
341.1552, 1550.230
341.6373, 1559.165
342.1194, 1546.827
342.6015, 1526.971
343.0836, 1512.495
343.5658, 1502.460
344.0479, 1488.946
344.5300, 1468.629
345.0121, 1445.985
345.4942, 1426.776
345.9763, 1410.956
346.4585, 1391.859
346.9406, 1361.779
347.4227, 1329.382
347.9048, 1308.216
348.3869, 1299.595
348.8690, 1291.779
349.3512, 1275.607
349.8333, 1252.119
350.3154, 1232.015
350.7975, 1218.860
351.2796, 1205.183
351.7617, 1185.825
352.2439, 1163.464
352.7260, 1143.870
353.2081, 1129.614
353.6902, 1119.149
354.1723, 1109.535
354.6544, 1101.071
355.1366, 1093.177
355.6187, 1083.413
356.1008, 1075.877
356.5829, 1076.368
357.0650, 1083.864
357.5471, 1089.841
358.0293, 1085.219
358.5114, 1069.160
358.9935, 1060.356
359.4756, 1064.458
359.9577, 1070.220
360.4398, 1075.011
360.9220, 1079.742
361.4041, 1086.902
361.8862, 1097.979
362.3683, 1109.796
362.8504, 1114.787
363.3326, 1109.872
363.8147, 1107.111
364.2968, 1109.916
364.7789, 1114.586
365.2610, 1118.897
365.7431, 1122.651
366.2253, 1127.068
366.7074, 1134.226
367.1895, 1143.230
367.6716, 1149.654
368.1537, 1153.703
368.6358, 1154.151
369.1180, 1146.594
369.6001, 1135.283
370.0822, 1128.591
370.5643, 1132.397
371.0464, 1137.503
371.5285, 1134.115
372.0107, 1123.412
372.4928, 1113.348
372.9749, 1106.589
373.4570, 1102.542
373.9391, 1100.906
374.4212, 1102.676
374.9034, 1102.361
375.3855, 1095.180
375.8676, 1086.944
376.3497, 1084.729
376.8318, 1089.315
377.3139, 1096.543
377.7961, 1103.461
378.2782, 1110.093
378.7603, 1113.021
379.2424, 1108.906
379.7245, 1105.497
380.2066, 1105.643
380.6888, 1108.131
381.1709, 1111.174
381.6530, 1113.988
382.1351, 1116.171
382.6172, 1116.550
383.0993, 1113.063
383.5815, 1112.166
384.0636, 1113.944
384.5457, 1118.048
385.0278, 1127.496
385.5099, 1140.069
385.9920, 1148.225
386.4742, 1146.385
386.9563, 1135.033
387.4384, 1115.661
387.9205, 1081.801
388.4026, 1052.038
388.8847, 1037.837
389.3669, 1029.922
389.8490, 1017.485
390.3311, 997.0726
390.8132, 973.8311
391.2953, 952.2866
391.7774, 932.2615
392.2596, 912.8135
392.7417, 893.1334
393.2238, 875.0670
393.7059, 862.7853
394.1880, 855.4850
394.6701, 844.6409
395.1523, 824.3841
395.6344, 802.1356
396.1165, 786.3982
396.5986, 776.5568
397.0807, 765.2062
397.5628, 747.3350
398.0450, 725.2748
398.5271, 707.6563
399.0092, 696.4505
399.4913, 686.4713
399.9734, 675.7023
400.4555, 666.4677
400.9377, 662.3213
401.4197, 663.4896
401.9019, 665.5361
402.3840, 663.2926
402.8661, 656.0826
403.3482, 649.7794
403.8303, 646.0433
404.3124, 641.4660
404.7946, 634.2040
405.2767, 625.5788
405.7588, 617.7702
406.2409, 611.7474
406.7230, 606.8805
407.2051, 601.2603
407.6873, 593.9047
408.1694, 590.4775
408.6515, 595.8360
409.1336, 602.5110
409.6157, 605.8801
410.0978, 605.7762
410.5800, 603.4999
411.0621, 597.6705
411.5442, 590.7484
412.0263, 588.0932
412.5084, 590.3267
412.9905, 593.3039
413.4727, 595.5618
413.9548, 596.4329
414.4369, 594.5249
414.9190, 587.9382
415.4011, 581.7576
415.8832, 578.1127
416.3654, 576.2112
416.8475, 574.9835
417.3296, 574.1413
417.8117, 573.4916
418.2938, 573.0278
418.7759, 573.1074
419.2581, 570.9235
419.7402, 562.5649
420.2223, 556.3104
420.7044, 557.3745
421.1865, 562.6945
421.6686, 565.9727
422.1508, 563.9976
422.6329, 560.1667
423.1150, 562.6236
423.5971, 574.9556
424.0792, 584.0677
424.5613, 589.0013
425.0435, 590.0966
425.5256, 585.5657
426.0077, 576.6132
426.4898, 567.8466
426.9719, 561.5748
427.4540, 557.8368
427.9362, 557.1284
428.4183, 559.9871
428.9004, 563.3936
429.3825, 566.3301
429.8646, 568.7945
430.3467, 570.4265
430.8289, 570.4701
431.3110, 572.0554
431.7931, 580.0648
432.2752, 589.7142
432.7573, 591.1656
433.2394, 582.5757
433.7216, 572.8305
434.2037, 570.3001
434.6858, 575.1701
435.1679, 577.7988
435.6500, 575.1268
436.1321, 573.9030
436.6143, 577.2322
437.0964, 583.2294
437.5785, 589.6822
438.0606, 595.6320
438.5427, 600.0828
439.0248, 600.7928
439.5070, 595.8118
439.9891, 593.4240
440.4712, 594.1837
440.9533, 597.1382
441.4354, 603.8391
441.9175, 612.3943
442.3997, 619.4124
442.8818, 623.9640
443.3639, 624.6343
443.8460, 615.7109
444.3281, 595.6612
444.8102, 583.5745
445.2924, 588.9151
445.7745, 601.1456
446.2566, 608.5626
446.7387, 611.1093
447.2208, 611.4722
447.7029, 608.9574
448.1851, 605.7257
448.6672, 605.0119
449.1493, 606.6217
449.6314, 606.5771
450.1135, 601.5627
450.5956, 593.8838
451.0778, 592.4122
451.5599, 601.4287
452.0420, 610.5971
452.5241, 623.6395
453.0062, 633.4769
453.4883, 630.2533
453.9705, 615.0356
454.4526, 600.5018
454.9347, 598.8536
455.4168, 609.3245
455.8989, 618.8022
456.3810, 628.0521
456.8632, 635.0247
457.3453, 639.7230
457.8274, 641.9214
458.3095, 640.1422
458.7916, 633.8222
459.2737, 628.5007
459.7559, 631.2511
460.2380, 639.9222
460.7201, 643.9072
461.2022, 640.9126
461.6843, 636.3328
462.1664, 633.4633
462.6486, 632.3461
463.1307, 633.0458
463.6128, 636.1404
464.0949, 640.4547
464.5770, 646.1861
465.0591, 652.5574
465.5413, 658.6913
466.0234, 664.3074
466.5055, 667.8604
466.9876, 667.0092
467.4697, 660.5621
467.9518, 655.4374
468.4340, 652.5811
468.9161, 649.8582
469.3982, 645.0542
469.8803, 640.2125
470.3624, 639.3923
470.8445, 644.4886
471.3267, 651.4276
471.8088, 652.9083
472.2909, 647.9680
472.7730, 645.3414
473.2551, 646.1768
473.7372, 649.6343
474.2194, 656.8991
474.7015, 666.3123
475.1836, 672.5302
475.6657, 673.0089
476.1478, 670.1005
476.6299, 665.9893
477.1121, 660.5469
477.5942, 652.2244
478.0763, 639.2977
478.5584, 626.6367
479.0405, 621.6000
479.5226, 625.7296
480.0048, 633.4428
480.4869, 651.8312
480.9690, 667.2742
481.4511, 669.5087
481.9332, 662.2564
482.4153, 654.6670
482.8975, 651.4447
483.3796, 651.6560
483.8617, 652.9888
484.3438, 654.6399
484.8259, 659.6971
485.3080, 674.1592
485.7902, 687.2687
486.2723, 692.8460
486.7544, 692.1236
487.2365, 689.9611
487.7186, 687.3248
488.2007, 685.9958
488.6829, 688.8058
489.1650, 695.6838
489.6471, 705.3071
490.1292, 718.5700
490.6113, 732.5586
491.0934, 742.8340
491.5756, 749.5199
492.0577, 753.7836
492.5398, 750.1199
493.0219, 748.8138
493.5040, 760.0134
493.9861, 780.3400
494.4683, 799.6760
494.9504, 812.6560
495.4325, 820.3278
495.9146, 824.0114
496.3967, 818.8787
496.8788, 820.5579
497.3610, 838.7537
497.8431, 855.3807
498.3252, 860.0190
498.8073, 854.6303
499.2894, 846.9666
499.7715, 840.8839
500.2536, 835.2784
500.7357, 827.8176
501.2179, 818.4697
501.7000, 810.2498
502.1821, 804.5276
502.6642, 799.6779
503.1463, 794.1425
503.6284, 788.0751
504.1106, 779.7242
504.5927, 764.8002
505.0748, 750.9130
505.5569, 744.6559
506.0390, 744.1043
506.5211, 743.8702
507.0033, 741.5961
507.4854, 736.6739
507.9675, 727.1846
508.4496, 709.1725
508.9317, 696.2549
509.4138, 689.8740
509.8960, 686.8907
510.3781, 688.2235
510.8602, 691.7167
511.3423, 692.9615
511.8244, 689.1605
512.3066, 684.1700
512.7887, 684.4992
513.2708, 689.8608
513.7529, 693.0237
514.2350, 691.5192
514.7172, 689.0256
515.1993, 689.8956
515.6814, 693.5314
516.1635, 695.2080
516.6456, 691.4440
517.1277, 688.3925
517.6099, 688.8380
518.0920, 692.7008
518.5741, 701.1724
519.0562, 714.4576
519.5383, 727.5175
520.0204, 732.9302
520.5026, 728.8864
520.9847, 727.3570
521.4668, 729.0594
521.9489, 732.7357
522.4310, 738.2302
522.9131, 745.4229
523.3953, 754.3885
523.8774, 765.1932
524.3595, 777.0992
524.8416, 792.7084
525.3237, 809.6168
525.8058, 812.9597
526.2880, 796.7558
526.7701, 784.5230
527.2522, 796.3945
527.7343, 827.3124
528.2164, 849.3503
528.6985, 854.6751
529.1807, 861.8609
529.6628, 879.9515
530.1449, 901.2914
530.6270, 914.6384
531.1091, 919.7318
531.5912, 928.0231
532.0734, 951.4445
532.5555, 987.3291
533.0376, 1009.994
533.5197, 1009.229
534.0018, 1013.532
534.4839, 1032.963
534.9661, 1057.333
535.4482, 1077.543
535.9303, 1092.931
536.4124, 1110.650
536.8945, 1138.372
537.3766, 1169.802
537.8588, 1192.451
538.3409, 1206.416
538.8230, 1223.489
539.3051, 1250.808
539.7872, 1282.347
540.2693, 1305.905
540.7515, 1319.436
541.2336, 1330.039
541.7157, 1335.300
542.1978, 1340.247
542.6799, 1351.838
543.1620, 1365.511
543.6442, 1369.188
544.1263, 1356.059
544.6084, 1335.620
545.0905, 1327.690
545.5726, 1334.888
546.0547, 1336.053
546.5369, 1326.018
547.0190, 1312.970
547.5011, 1302.555
547.9832, 1293.612
548.4653, 1282.866
548.9474, 1267.557
549.4296, 1252.995
549.9116, 1246.920
550.3937, 1243.630
550.8759, 1228.374
551.3580, 1198.118
551.8401, 1168.579
552.3222, 1155.996
552.8043, 1160.323
553.2864, 1162.241
553.7686, 1157.572
554.2507, 1155.526
554.7328, 1162.074
555.2149, 1169.008
555.6970, 1167.570
556.1791, 1157.030
556.6613, 1144.455
557.1434, 1133.015
557.6255, 1124.302
558.1076, 1125.309
558.5897, 1137.289
559.0718, 1145.577
559.5540, 1141.864
560.0361, 1133.190
560.5182, 1133.990
561.0003, 1147.328
561.4824, 1152.658
561.9645, 1140.365
562.4467, 1124.792
562.9288, 1116.061
563.4109, 1112.311
563.8930, 1107.696
564.3751, 1099.533
564.8572, 1088.534
565.3394, 1075.451
565.8215, 1059.607
566.3036, 1045.101
566.7857, 1031.889
567.2678, 1020.421
567.7499, 1011.340
568.2321, 1003.912
568.7142, 996.9739
569.1963, 990.6033
569.6784, 983.7767
570.1605, 975.9138
570.6426, 967.0929
571.1248, 956.9296
571.6069, 945.5511
572.0890, 934.9548
572.5711, 927.0768
573.0532, 920.9839
573.5353, 911.5040
574.0175, 894.0932
574.4996, 879.9578
574.9817, 872.4590
575.4638, 866.0198
575.9459, 855.5082
576.4280, 842.0391
576.9102, 831.3499
577.3923, 828.1689
577.8744, 827.6541
578.3565, 821.0125
578.8386, 808.6738
579.3207, 797.5156
579.8029, 789.7462
580.2850, 782.6169
580.7671, 772.7004
581.2492, 759.7986
581.7313, 749.6464
582.2134, 744.8548
582.6956, 739.8792
583.1777, 732.5685
583.6598, 724.0054
584.1419, 715.4791
584.6240, 707.3614
585.1061, 699.3232
585.5883, 690.9890
586.0704, 682.4709
586.5525, 674.1370
587.0346, 665.7382
587.5167, 658.5093
587.9988, 654.3947
588.4810, 650.4983
588.9631, 643.4225
589.4452, 633.0350
589.9273, 621.5665
590.4094, 606.7574
590.8915, 593.5561
591.3737, 587.2180
591.8558, 585.7072
592.3379, 583.7197
592.8200, 579.1245
593.3021, 573.0815
593.7842, 567.0471
594.2664, 560.8441
594.7485, 555.7568
595.2306, 551.0443
595.7127, 548.5350
596.1948, 552.1632
596.6769, 556.5901
597.1591, 554.1425
597.6412, 542.8085
598.1233, 531.4812
598.6054, 526.2308
599.0875, 524.1570
599.5696, 519.6406
600.0518, 513.1941
600.5339, 512.6278
601.0160, 523.6019
601.4981, 537.7596
601.9802, 535.8437
602.4623, 506.1066
602.9445, 488.7341
603.4266, 492.8195
603.9087, 498.7669
604.3908, 499.1397
604.8729, 495.3385
605.3550, 490.3090
605.8372, 484.9070
606.3193, 479.7013
606.8014, 474.2843
607.2835, 469.5749
607.7656, 469.2445
608.2477, 473.9215
608.7299, 478.3345
609.2120, 479.6777
609.6941, 478.0260
610.1762, 473.3619
610.6583, 459.6320
611.1404, 453.1631
611.6226, 462.1836
612.1047, 471.3997
612.5868, 469.1374
613.0689, 459.6053
613.5510, 454.2094
614.0331, 458.7258
614.5153, 466.6225
614.9974, 467.8982
615.4795, 463.7820
615.9616, 465.1592
616.4437, 475.3360
616.9258, 482.8387
617.4080, 478.4639
617.8901, 465.3907
618.3722, 456.2337
618.8543, 451.8643
619.3364, 449.4608
619.8185, 450.8997
620.3007, 452.2644
620.7828, 448.6617
621.2649, 442.1273
621.7470, 439.6096
622.2291, 445.4041
622.7112, 454.7672
623.1934, 459.2111
623.6755, 458.7376
624.1576, 459.2070
624.6397, 461.9314
625.1218, 464.3347
625.6039, 464.3632
626.0861, 462.6041
626.5682, 461.3986
627.0503, 461.5740
627.5324, 460.9562
628.0145, 456.9709
628.4966, 453.3945
628.9788, 455.2364
629.4609, 461.0605
629.9430, 464.4252
630.4251, 461.1064
630.9072, 455.2212
631.3893, 456.8089
631.8715, 466.9492
632.3536, 469.0070
632.8357, 456.1150
633.3178, 444.0022
633.7999, 446.3187
634.2820, 457.7573
634.7642, 463.7726
635.2463, 461.6033
635.7284, 457.4019
636.2105, 448.4513
636.6926, 441.6401
637.1747, 446.8745
637.6569, 461.3853
638.1390, 473.3929
638.6211, 475.8834
639.1032, 471.8825
639.5853, 465.9427
640.0674, 457.2533
640.5496, 455.2803
641.0317, 464.5460
641.5138, 474.3840
641.9959, 477.3556
642.4780, 475.7414
642.9601, 474.2995
643.4423, 471.7629
643.9244, 472.7421
644.4065, 484.3737
644.8886, 496.2137
645.3707, 495.9886
645.8528, 486.1486
646.3350, 478.4124
646.8171, 479.3669
647.2992, 484.3126
647.7813, 483.9460
648.2634, 477.7240
648.7455, 473.8344
649.2277, 473.5746
649.7098, 474.3834
650.1919, 473.5777
650.6740, 473.1612
651.1561, 478.3045
651.6382, 493.5517
652.1204, 502.8722
652.6025, 496.8971
653.0846, 486.9485
653.5667, 479.7147
654.0488, 477.1088
654.5309, 483.2028
655.0131, 500.2184
655.4952, 518.4562
655.9773, 520.6646
656.4594, 506.6695
656.9415, 498.5053
657.4236, 498.4567
657.9058, 500.5193
658.3879, 502.0313
658.8700, 503.5103
659.3521, 505.8735
659.8342, 509.1578
660.3163, 513.1594
660.7985, 517.4875
661.2806, 522.8311
661.7627, 530.0783
662.2448, 538.5589
662.7269, 548.0718
