##NAMES=Aegirine
##RRUFFID=R070253
##IDEAL CHEMISTRY=NaFe^3+^Si_2_O_6_
##LOCALITY=Lovozero Massif, Kola Peninsula, Murmanskaya Oblast'; Northern Region, Russia
##OWNER=RRUFF
##SOURCE=Michael Scott
##DESCRIPTION=Dark green to black prismatic aegirine associated with a brown mica and microcline
##STATUS=The identification of this mineral has been confirmed by single-crystal X-ray diffraction.
##URL=rruff.info/R070253
91.53320, 2419.522
92.01532, 2408.499
92.49744, 2397.978
92.97955, 2422.892
93.46167, 2452.622
93.94379, 2462.947
94.42590, 2469.077
94.90802, 2472.224
95.39014, 2468.602
95.87225, 2458.802
96.35437, 2442.438
96.83649, 2418.499
97.31860, 2391.821
97.80072, 2366.606
98.28284, 2341.669
98.76495, 2315.512
99.24707, 2293.334
99.72919, 2277.977
100.2113, 2264.412
100.6934, 2252.145
101.1755, 2240.200
101.6577, 2227.187
102.1398, 2211.195
102.6219, 2190.635
103.1040, 2175.271
103.5861, 2163.163
104.0682, 2155.437
104.5504, 2154.833
105.0325, 2160.807
105.5146, 2168.030
105.9967, 2168.401
106.4788, 2157.689
106.9609, 2150.393
107.4431, 2149.083
107.9252, 2151.010
108.4073, 2153.205
108.8894, 2155.343
109.3715, 2155.629
109.8536, 2150.467
110.3358, 2138.993
110.8179, 2127.198
111.3000, 2118.061
111.7821, 2111.406
112.2642, 2105.740
112.7463, 2101.940
113.2285, 2097.986
113.7106, 2091.518
114.1927, 2081.599
114.6748, 2070.646
115.1569, 2062.306
115.6390, 2057.667
116.1212, 2052.672
116.6033, 2043.360
117.0854, 2034.025
117.5675, 2029.637
118.0496, 2033.220
118.5317, 2042.658
119.0139, 2047.812
119.4960, 2044.724
119.9781, 2040.983
120.4602, 2036.324
120.9423, 2032.013
121.4244, 2030.019
121.9066, 2032.043
122.3887, 2038.428
122.8708, 2044.209
123.3529, 2049.510
123.8350, 2054.305
124.3171, 2057.819
124.7993, 2060.382
125.2814, 2063.774
125.7635, 2070.236
126.2456, 2080.774
126.7277, 2088.798
127.2098, 2090.499
127.6920, 2091.276
128.1741, 2097.313
128.6562, 2110.259
129.1383, 2126.120
129.6204, 2139.142
130.1025, 2149.599
130.5847, 2163.328
131.0668, 2185.752
131.5489, 2213.994
132.0310, 2237.912
132.5131, 2254.603
132.9952, 2266.938
133.4774, 2279.352
133.9595, 2291.845
134.4416, 2299.980
134.9237, 2299.346
135.4058, 2289.230
135.8879, 2275.269
136.3701, 2254.665
136.8522, 2232.982
137.3343, 2212.770
137.8164, 2194.658
138.2985, 2178.907
138.7806, 2166.036
139.2628, 2157.886
139.7449, 2149.474
140.2270, 2136.627
140.7091, 2124.910
141.1912, 2120.598
141.6733, 2126.502
142.1555, 2138.965
142.6376, 2145.376
143.1197, 2138.108
143.6018, 2132.819
144.0839, 2131.627
144.5660, 2133.395
145.0482, 2136.296
145.5303, 2139.371
146.0124, 2142.583
146.4945, 2145.801
146.9766, 2149.983
147.4587, 2153.243
147.9409, 2155.078
148.4230, 2155.410
148.9051, 2153.529
149.3872, 2146.931
149.8693, 2137.723
150.3514, 2135.887
150.8336, 2148.626
151.3157, 2164.491
151.7978, 2172.482
152.2799, 2171.479
152.7620, 2169.443
153.2441, 2172.635
153.7263, 2178.962
154.2084, 2185.293
154.6905, 2189.340
155.1726, 2192.835
155.6547, 2200.109
156.1368, 2213.057
156.6190, 2226.456
157.1011, 2237.134
157.5832, 2246.127
158.0653, 2255.660
158.5474, 2268.215
159.0295, 2283.289
159.5117, 2294.316
159.9938, 2302.112
160.4759, 2304.153
160.9580, 2297.397
161.4401, 2283.832
161.9222, 2268.279
162.4044, 2255.161
162.8865, 2245.102
163.3686, 2233.286
163.8507, 2217.653
164.3328, 2202.074
164.8149, 2187.424
165.2971, 2174.161
165.7792, 2163.317
166.2613, 2156.201
166.7434, 2154.433
167.2255, 2152.186
167.7076, 2145.409
168.1898, 2140.850
168.6719, 2144.688
169.1540, 2157.720
169.6361, 2174.289
170.1182, 2186.491
170.6003, 2192.083
171.0825, 2198.670
171.5646, 2204.844
172.0467, 2212.821
172.5288, 2226.240
173.0109, 2246.647
173.4930, 2269.558
173.9752, 2287.822
174.4573, 2301.553
174.9394, 2313.466
175.4215, 2321.965
175.9036, 2329.276
176.3857, 2342.129
176.8679, 2366.920
177.3500, 2390.730
177.8321, 2395.994
178.3142, 2381.949
178.7963, 2363.971
179.2784, 2351.157
179.7606, 2342.632
180.2427, 2331.992
180.7248, 2315.686
181.2069, 2298.201
181.6890, 2281.570
182.1711, 2265.687
182.6533, 2255.650
183.1354, 2259.649
183.6175, 2280.083
184.0996, 2295.578
184.5817, 2294.678
185.0638, 2291.283
185.5460, 2293.210
186.0281, 2302.146
186.5102, 2314.725
186.9923, 2326.493
187.4744, 2337.112
187.9565, 2347.772
188.4387, 2360.561
188.9208, 2372.344
189.4029, 2380.102
189.8850, 2383.113
190.3671, 2383.802
190.8492, 2387.003
191.3314, 2395.363
191.8135, 2401.902
192.2956, 2405.486
192.7777, 2407.644
193.2598, 2410.006
193.7419, 2413.158
194.2241, 2416.094
194.7062, 2416.375
195.1883, 2409.583
195.6704, 2405.145
196.1525, 2404.819
196.6346, 2406.455
197.1168, 2407.556
197.5989, 2407.026
198.0810, 2405.494
198.5631, 2404.786
199.0452, 2405.754
199.5273, 2406.361
200.0095, 2405.828
200.4916, 2404.787
200.9737, 2403.727
201.4558, 2402.398
201.9379, 2402.164
202.4200, 2408.007
202.9022, 2425.491
203.3843, 2438.396
203.8664, 2435.416
204.3485, 2422.639
204.8306, 2417.403
205.3128, 2428.753
205.7949, 2450.634
206.2770, 2468.623
206.7591, 2481.395
207.2412, 2493.740
207.7233, 2508.758
208.2055, 2526.029
208.6876, 2542.829
209.1697, 2559.305
209.6518, 2573.479
210.1339, 2583.216
210.6160, 2588.044
211.0982, 2589.389
211.5803, 2588.278
212.0624, 2584.729
212.5445, 2578.493
213.0266, 2570.986
213.5087, 2559.342
213.9909, 2539.965
214.4730, 2511.646
214.9551, 2479.832
215.4372, 2451.032
215.9193, 2425.871
216.4014, 2399.168
216.8836, 2367.644
217.3657, 2334.877
217.8478, 2302.642
218.3299, 2271.502
218.8120, 2241.344
219.2941, 2212.234
219.7763, 2184.146
220.2584, 2157.301
220.7405, 2131.120
221.2226, 2106.292
221.7047, 2083.876
222.1868, 2064.054
222.6690, 2045.193
223.1511, 2024.074
223.6332, 1997.500
224.1153, 1976.057
224.5974, 1965.084
225.0795, 1956.060
225.5617, 1942.168
226.0438, 1921.740
226.5259, 1898.931
227.0080, 1880.807
227.4901, 1868.926
227.9722, 1859.727
228.4544, 1856.747
228.9365, 1853.809
229.4186, 1844.960
229.9007, 1828.999
230.3828, 1810.554
230.8649, 1797.879
231.3471, 1795.083
231.8292, 1791.928
232.3113, 1789.271
232.7934, 1785.820
233.2755, 1779.386
233.7576, 1769.720
234.2398, 1759.836
234.7219, 1755.082
235.2040, 1760.847
235.6861, 1762.094
236.1682, 1755.157
236.6503, 1745.787
237.1325, 1738.769
237.6146, 1735.452
238.0967, 1734.864
238.5788, 1736.036
239.0609, 1741.095
239.5430, 1742.576
240.0252, 1735.709
240.5073, 1727.362
240.9894, 1725.614
241.4715, 1732.347
241.9536, 1741.135
242.4357, 1743.160
242.9179, 1736.735
243.4000, 1730.756
243.8821, 1726.453
244.3642, 1722.801
244.8463, 1718.002
245.3284, 1711.550
245.8106, 1706.228
246.2927, 1705.832
246.7748, 1710.491
247.2569, 1715.675
247.7390, 1724.395
248.2211, 1731.745
248.7033, 1730.561
249.1854, 1719.061
249.6675, 1704.541
250.1496, 1693.067
250.6317, 1684.389
251.1138, 1678.764
251.5960, 1679.061
252.0781, 1681.256
252.5602, 1679.390
253.0423, 1672.264
253.5244, 1665.086
254.0065, 1665.351
254.4887, 1669.697
254.9708, 1667.963
255.4529, 1652.344
255.9350, 1631.348
256.4171, 1617.093
256.8992, 1610.860
257.3813, 1607.101
257.8635, 1602.212
258.3456, 1597.078
258.8277, 1593.423
259.3098, 1593.434
259.7919, 1594.203
260.2740, 1591.984
260.7562, 1586.845
261.2383, 1578.390
261.7204, 1560.793
262.2025, 1541.025
262.6846, 1528.393
263.1667, 1528.066
263.6489, 1532.938
264.1310, 1533.464
264.6131, 1529.227
265.0952, 1522.426
265.5773, 1510.824
266.0594, 1498.440
266.5416, 1489.344
267.0237, 1485.106
267.5058, 1483.205
267.9879, 1480.602
268.4700, 1477.373
268.9521, 1473.153
269.4343, 1466.134
269.9164, 1458.949
270.3985, 1453.836
270.8806, 1451.417
271.3627, 1450.201
271.8448, 1448.515
272.3270, 1446.320
272.8091, 1443.802
273.2912, 1440.518
273.7733, 1437.203
274.2554, 1433.777
274.7375, 1430.303
275.2197, 1428.136
275.7018, 1429.283
276.1839, 1434.296
276.6660, 1438.944
277.1481, 1444.309
277.6302, 1447.819
278.1124, 1446.671
278.5945, 1441.351
279.0766, 1436.000
279.5587, 1435.481
280.0408, 1440.589
280.5229, 1443.329
281.0051, 1439.771
281.4872, 1436.843
281.9693, 1438.591
282.4514, 1443.943
282.9335, 1448.612
283.4156, 1447.957
283.8978, 1441.784
284.3799, 1439.619
284.8620, 1445.527
285.3441, 1451.629
285.8262, 1455.376
286.3083, 1457.183
286.7905, 1458.193
287.2726, 1458.699
287.7547, 1459.009
288.2368, 1462.388
288.7189, 1472.613
289.2010, 1481.501
289.6832, 1488.635
290.1653, 1492.722
290.6474, 1490.978
291.1295, 1480.726
291.6116, 1465.264
292.0938, 1458.373
292.5759, 1465.974
293.0580, 1474.418
293.5401, 1482.165
294.0222, 1488.783
294.5043, 1493.816
294.9865, 1497.059
295.4686, 1498.771
295.9507, 1499.398
296.4328, 1497.950
296.9149, 1497.190
297.3970, 1496.617
297.8792, 1497.201
298.3613, 1501.223
298.8434, 1508.989
299.3255, 1516.492
299.8076, 1515.711
300.2897, 1499.361
300.7719, 1491.495
301.2540, 1498.326
301.7361, 1508.825
302.2182, 1516.988
302.7003, 1521.386
303.1824, 1523.355
303.6646, 1524.237
304.1467, 1523.674
304.6288, 1523.293
305.1109, 1524.244
305.5930, 1524.374
306.0751, 1521.126
306.5573, 1515.651
307.0394, 1512.135
307.5215, 1515.397
308.0036, 1526.334
308.4857, 1530.892
308.9678, 1520.257
309.4500, 1511.676
309.9321, 1512.723
310.4142, 1519.624
310.8963, 1523.866
311.3784, 1519.232
311.8605, 1507.154
312.3427, 1499.103
312.8248, 1499.842
313.3069, 1499.190
313.7890, 1495.584
314.2711, 1489.468
314.7532, 1480.096
315.2354, 1466.813
315.7175, 1453.046
316.1996, 1449.818
316.6817, 1469.037
317.1638, 1479.862
317.6459, 1474.465
318.1281, 1462.625
318.6102, 1451.664
319.0923, 1444.269
319.5744, 1440.725
320.0565, 1442.310
320.5386, 1452.465
321.0208, 1459.791
321.5029, 1463.847
321.9850, 1465.428
322.4671, 1462.769
322.9492, 1456.957
323.4313, 1453.112
323.9135, 1457.943
324.3956, 1474.025
324.8777, 1485.641
325.3598, 1487.141
325.8419, 1489.416
326.3240, 1497.682
326.8062, 1510.547
327.2883, 1523.080
327.7704, 1530.952
328.2525, 1534.641
328.7346, 1543.030
329.2168, 1561.562
329.6989, 1578.958
330.1810, 1591.247
330.6631, 1600.977
331.1452, 1611.960
331.6273, 1626.306
332.1095, 1643.089
332.5916, 1659.690
333.0737, 1677.375
333.5558, 1692.475
334.0379, 1702.720
334.5201, 1711.419
335.0022, 1722.744
335.4843, 1737.908
335.9664, 1752.293
336.4485, 1757.496
336.9306, 1749.935
337.4128, 1743.821
337.8949, 1740.670
338.3770, 1739.129
338.8591, 1739.500
339.3412, 1741.237
339.8233, 1742.223
340.3055, 1741.674
340.7876, 1740.209
341.2697, 1730.699
341.7518, 1702.125
342.2339, 1676.135
342.7160, 1663.338
343.1982, 1659.981
343.6803, 1655.900
344.1624, 1643.557
344.6445, 1625.073
345.1266, 1611.269
345.6087, 1604.601
346.0909, 1598.902
346.5730, 1591.970
347.0551, 1584.677
347.5372, 1578.495
348.0193, 1574.268
348.5014, 1570.330
348.9836, 1562.690
349.4657, 1549.412
349.9478, 1539.093
350.4299, 1535.200
350.9120, 1534.367
351.3941, 1535.051
351.8763, 1536.873
352.3584, 1538.722
352.8405, 1538.333
353.3226, 1535.534
353.8047, 1536.962
354.2868, 1547.026
354.7690, 1558.001
355.2511, 1564.105
355.7332, 1566.444
356.2153, 1570.119
356.6974, 1578.752
357.1795, 1591.436
357.6617, 1605.084
358.1438, 1620.562
358.6259, 1634.937
359.1080, 1644.046
359.5901, 1651.369
360.0722, 1663.033
360.5544, 1682.971
361.0365, 1706.113
361.5186, 1726.076
362.0007, 1742.650
362.4828, 1756.885
362.9649, 1769.198
363.4471, 1779.182
363.9292, 1785.889
364.4113, 1788.548
364.8934, 1790.986
365.3755, 1796.583
365.8576, 1804.722
366.3398, 1811.755
366.8219, 1816.019
367.3040, 1820.263
367.7861, 1829.085
368.2682, 1841.856
368.7503, 1850.598
369.2325, 1847.602
369.7146, 1839.919
370.1967, 1840.956
370.6788, 1853.142
371.1609, 1866.026
371.6430, 1870.129
372.1252, 1868.343
372.6073, 1870.315
373.0894, 1880.379
373.5715, 1892.138
374.0536, 1899.470
374.5357, 1903.337
375.0179, 1910.067
375.5000, 1923.535
375.9821, 1940.953
376.4642, 1955.748
376.9463, 1967.188
377.4284, 1978.030
377.9106, 1988.980
378.3927, 2000.015
378.8748, 2010.672
379.3569, 2020.667
379.8390, 2031.685
380.3211, 2047.266
380.8033, 2069.150
381.2854, 2084.489
381.7675, 2087.924
382.2496, 2087.594
382.7317, 2089.800
383.2138, 2094.769
383.6960, 2099.675
384.1781, 2102.983
384.6602, 2104.424
385.1423, 2100.559
385.6244, 2090.842
386.1065, 2077.568
386.5887, 2060.513
387.0708, 2040.619
387.5529, 2019.278
388.0350, 1997.064
388.5171, 1973.689
388.9992, 1948.518
389.4814, 1923.090
389.9635, 1892.985
390.4456, 1854.190
390.9277, 1813.452
391.4098, 1775.818
391.8919, 1742.241
392.3741, 1710.759
392.8562, 1679.734
393.3383, 1649.299
393.8204, 1617.343
394.3025, 1583.299
394.7846, 1548.424
395.2668, 1511.584
395.7489, 1474.268
396.2310, 1438.706
396.7131, 1406.026
397.1952, 1376.428
397.6773, 1350.716
398.1595, 1331.574
398.6416, 1311.911
399.1237, 1288.939
399.6058, 1266.204
400.0879, 1246.464
400.5700, 1230.430
401.0522, 1217.389
401.5343, 1207.510
402.0164, 1201.943
402.4985, 1192.818
402.9806, 1175.660
403.4627, 1158.770
403.9449, 1146.246
404.4270, 1136.953
404.9091, 1127.309
405.3912, 1114.239
405.8733, 1099.621
406.3554, 1089.477
406.8376, 1084.442
407.3197, 1082.220
407.8018, 1085.681
408.2839, 1089.707
408.7660, 1088.503
409.2481, 1080.165
409.7303, 1069.448
410.2124, 1061.187
410.6945, 1055.173
411.1766, 1047.286
411.6587, 1033.783
412.1408, 1022.016
412.6230, 1020.420
413.1051, 1027.561
413.5872, 1032.879
414.0693, 1031.264
414.5514, 1025.363
415.0335, 1018.393
415.5157, 1010.283
415.9978, 1003.920
416.4799, 1001.972
416.9620, 1003.182
417.4441, 1003.349
417.9262, 1002.561
418.4084, 1000.386
418.8905, 995.4307
419.3726, 988.8594
419.8547, 984.1014
420.3368, 982.7121
420.8189, 982.2310
421.3011, 977.8711
421.7832, 967.6184
422.2653, 962.2719
422.7474, 965.7096
423.2295, 972.6927
423.7116, 980.8922
424.1938, 989.0502
424.6759, 993.2087
425.1580, 989.6539
425.6401, 978.9080
426.1222, 970.5727
426.6043, 964.0696
427.0865, 960.2064
427.5686, 960.0861
428.0507, 962.4326
428.5328, 965.8965
429.0149, 969.9169
429.4970, 973.9214
429.9792, 976.9031
430.4613, 978.4236
430.9434, 979.8411
431.4255, 982.5068
431.9076, 983.9534
432.3897, 981.7394
432.8719, 976.8215
433.3540, 972.4424
433.8361, 971.2017
434.3182, 972.7158
434.8003, 974.2842
435.2824, 976.3346
435.7646, 977.7350
436.2467, 977.1425
436.7288, 976.3431
437.2109, 977.6182
437.6930, 981.7072
438.1751, 986.3643
438.6573, 988.1479
439.1394, 986.7000
439.6215, 987.7477
440.1036, 995.4906
440.5857, 1001.983
441.0678, 1001.214
441.5500, 994.6896
442.0321, 988.3647
442.5142, 985.1266
442.9963, 984.0143
443.4784, 983.2584
443.9605, 982.7910
444.4427, 983.3092
444.9248, 986.2003
445.4069, 989.7699
445.8890, 990.4313
446.3711, 986.1190
446.8532, 984.2899
447.3354, 992.5212
447.8175, 1005.813
448.2996, 1012.784
448.7817, 1010.483
449.2638, 1004.323
449.7459, 999.1426
450.2281, 995.0052
450.7102, 993.4017
451.1923, 995.1317
451.6744, 998.7471
452.1565, 1004.940
452.6386, 1012.453
453.1208, 1017.661
453.6029, 1018.512
454.0850, 1016.492
454.5671, 1015.710
455.0492, 1016.740
455.5313, 1018.353
456.0135, 1021.635
456.4956, 1024.761
456.9777, 1025.977
457.4598, 1025.274
457.9419, 1024.111
458.4240, 1023.732
458.9062, 1024.138
459.3883, 1025.817
459.8704, 1032.257
460.3525, 1035.949
460.8346, 1031.209
461.3167, 1024.302
461.7989, 1024.385
462.2810, 1035.078
462.7631, 1048.917
463.2452, 1053.777
463.7273, 1047.994
464.2094, 1043.064
464.6916, 1040.901
465.1737, 1039.487
465.6558, 1037.511
466.1379, 1035.210
466.6200, 1033.604
467.1021, 1033.509
467.5843, 1034.348
468.0664, 1035.118
468.5485, 1035.861
469.0306, 1036.215
469.5127, 1035.811
469.9948, 1035.032
470.4770, 1034.133
470.9591, 1032.638
471.4412, 1032.899
471.9233, 1038.357
472.4054, 1045.831
472.8875, 1049.250
473.3697, 1047.445
473.8518, 1043.049
474.3339, 1037.255
474.8160, 1030.338
475.2981, 1028.176
475.7802, 1035.298
476.2624, 1042.275
476.7445, 1045.083
477.2266, 1044.723
477.7087, 1042.537
478.1908, 1038.984
478.6729, 1035.970
479.1551, 1037.149
479.6372, 1045.130
480.1193, 1051.289
480.6014, 1056.225
481.0835, 1059.102
481.5656, 1056.768
482.0478, 1051.786
482.5299, 1050.932
483.0120, 1059.281
483.4941, 1073.888
483.9762, 1083.354
484.4583, 1085.932
484.9405, 1086.756
485.4226, 1084.651
485.9047, 1082.819
486.3868, 1083.257
486.8689, 1086.410
487.3510, 1092.533
487.8332, 1103.601
488.3153, 1118.245
488.7974, 1129.806
489.2795, 1137.101
489.7616, 1143.584
490.2437, 1150.402
490.7259, 1157.995
491.2080, 1167.609
491.6901, 1180.449
492.1722, 1193.242
492.6543, 1203.099
493.1364, 1210.958
493.6186, 1219.585
494.1007, 1229.870
494.5828, 1240.661
495.0649, 1250.914
495.5470, 1260.630
496.0291, 1269.144
496.5113, 1278.562
496.9934, 1284.844
497.4755, 1285.268
497.9576, 1280.675
498.4397, 1272.903
498.9218, 1262.785
499.4040, 1250.976
499.8861, 1238.920
500.3682, 1225.622
500.8503, 1214.153
501.3324, 1204.545
501.8145, 1196.448
502.2967, 1191.697
502.7788, 1188.492
503.2609, 1181.545
503.7430, 1166.197
504.2251, 1145.367
504.7072, 1130.747
505.1894, 1124.325
505.6715, 1119.514
506.1536, 1116.744
506.6357, 1113.485
507.1178, 1106.273
507.5999, 1095.099
508.0821, 1086.219
508.5642, 1086.951
509.0463, 1093.491
509.5284, 1093.911
510.0105, 1086.400
510.4926, 1077.706
510.9748, 1070.227
511.4569, 1065.108
511.9390, 1064.966
512.4211, 1072.818
512.9032, 1080.401
513.3853, 1082.837
513.8674, 1082.515
514.3495, 1084.034
514.8317, 1088.420
515.3138, 1092.012
515.7959, 1090.122
516.2780, 1081.941
516.7601, 1081.412
517.2422, 1092.575
517.7244, 1105.532
518.2065, 1118.895
518.6886, 1131.336
519.1707, 1141.739
519.6528, 1149.608
520.1349, 1154.281
520.6171, 1152.199
521.0992, 1138.217
521.5813, 1138.589
522.0634, 1170.305
522.5455, 1200.019
523.0276, 1212.645
523.5098, 1215.053
523.9919, 1221.310
524.4740, 1238.491
524.9561, 1259.699
525.4382, 1274.067
525.9203, 1281.328
526.4025, 1292.481
526.8846, 1311.256
527.3667, 1333.045
527.8488, 1353.167
528.3309, 1372.039
528.8130, 1393.312
529.2952, 1420.785
529.7773, 1448.969
530.2594, 1471.177
530.7415, 1489.056
531.2236, 1511.001
531.7057, 1541.213
532.1879, 1576.008
532.6700, 1608.266
533.1521, 1636.482
533.6342, 1665.988
534.1163, 1695.858
534.5984, 1727.753
535.0806, 1765.784
535.5627, 1806.979
536.0448, 1842.590
536.5269, 1866.385
537.0090, 1883.654
537.4911, 1910.567
537.9733, 1952.551
538.4554, 1992.872
538.9375, 2034.950
539.4196, 2070.495
539.9017, 2092.335
540.3839, 2102.145
540.8660, 2108.531
541.3481, 2117.474
541.8302, 2126.501
542.3123, 2129.579
542.7944, 2126.220
543.2766, 2121.556
543.7587, 2119.195
544.2408, 2114.976
544.7229, 2103.070
545.2050, 2082.976
545.6871, 2060.712
546.1693, 2034.417
546.6514, 2009.472
547.1335, 1993.875
547.6156, 1986.564
548.0977, 1977.287
548.5798, 1959.308
549.0620, 1935.655
549.5441, 1916.720
550.0262, 1908.273
550.5083, 1896.961
550.9904, 1880.824
551.4725, 1863.207
551.9547, 1845.245
552.4368, 1827.996
552.9189, 1813.600
553.4010, 1804.275
553.8831, 1798.479
554.3652, 1789.981
554.8474, 1777.640
555.3295, 1765.614
555.8116, 1754.891
556.2937, 1744.932
556.7758, 1735.374
557.2579, 1726.265
557.7401, 1717.969
558.2222, 1712.178
558.7043, 1706.798
559.1864, 1696.932
559.6685, 1682.489
560.1506, 1670.181
560.6328, 1664.887
561.1149, 1662.268
561.5970, 1651.519
562.0791, 1629.431
562.5612, 1611.281
563.0433, 1601.752
563.5255, 1595.855
564.0076, 1590.552
564.4897, 1585.033
564.9718, 1578.301
565.4539, 1569.639
565.9360, 1559.566
566.4182, 1550.207
566.9003, 1544.004
567.3824, 1533.631
567.8645, 1512.940
568.3466, 1493.186
568.8287, 1482.739
569.3109, 1480.031
569.7930, 1477.846
570.2751, 1472.221
570.7572, 1463.697
571.2393, 1452.363
571.7214, 1437.837
572.2036, 1425.822
572.6857, 1420.126
573.1678, 1415.650
573.6499, 1405.676
574.1320, 1390.421
574.6141, 1376.250
575.0963, 1365.562
575.5784, 1356.176
576.0605, 1346.375
576.5427, 1336.258
577.0248, 1326.212
577.5069, 1316.379
577.9890, 1307.276
578.4711, 1300.367
578.9532, 1299.013
579.4354, 1290.977
579.9175, 1267.430
580.3996, 1246.840
580.8817, 1242.495
581.3638, 1247.016
581.8459, 1245.171
582.3281, 1229.416
582.8102, 1207.171
583.2923, 1190.401
583.7744, 1179.599
584.2565, 1167.554
584.7386, 1152.775
585.2208, 1137.159
585.7029, 1120.099
586.1850, 1103.188
586.6671, 1091.024
587.1492, 1087.353
587.6313, 1085.065
