##NAMES=Aegirine
##RRUFFID=R040054
##IDEAL CHEMISTRY=NaFe^3+^Si_2_O_6_
##LOCALITY=Mont Saint-Hilaire, Rouville County, Quebec, Canada
##OWNER=RRUFF
##SOURCE=Bob Downs
##DESCRIPTION=Black cleavage fragments
##STATUS=The identification of this mineral has been confirmed by X-ray diffraction and chemical analysis
##URL=rruff.info/R040054
##MEASURED CHEMISTRY=(Na_0.96_Ca_0.04_)(Fe_0.86_Ti_0.07_Mn_0.06_Mg_0.02_)(Si_0.97_Al_0.03_)_2_O_6_
127.3076, 522.8441
127.7897, 540.5234
128.2718, 557.7137
128.7539, 574.2596
129.2360, 589.7773
129.7182, 604.3912
130.2003, 617.8013
130.6824, 629.7238
131.1645, 640.2479
131.6466, 648.7380
132.1287, 652.6225
132.6109, 652.5322
133.0930, 655.5488
133.5751, 668.3795
134.0572, 687.9160
134.5393, 692.0197
135.0215, 677.5819
135.5036, 655.9730
135.9857, 643.0540
136.4678, 639.6026
136.9499, 638.8817
137.4320, 638.1851
137.9142, 637.4368
138.3963, 638.0215
138.8784, 641.0522
139.3605, 644.6265
139.8426, 643.0134
140.3247, 634.0797
140.8069, 625.2154
141.2890, 620.9008
141.7711, 622.1799
142.2532, 624.9313
142.7353, 629.6469
143.2174, 635.8408
143.6996, 639.2408
144.1817, 637.6884
144.6638, 635.7853
145.1459, 637.1741
145.6280, 642.7255
146.1101, 650.2606
146.5923, 661.1798
147.0744, 676.4623
147.5565, 684.3207
148.0386, 678.6076
148.5207, 668.4671
149.0028, 664.6196
149.4850, 670.3376
149.9671, 679.0275
150.4492, 689.6023
150.9313, 703.5083
151.4134, 716.2048
151.8955, 726.1278
152.3777, 735.1445
152.8598, 746.2667
153.3419, 761.9419
153.8240, 777.9308
154.3061, 792.8314
154.7882, 804.4675
155.2704, 817.8941
155.7525, 835.6378
156.2346, 856.0907
156.7167, 873.8080
157.1988, 883.3549
157.6809, 892.5231
158.1631, 905.6984
158.6452, 929.3442
159.1273, 951.3892
159.6094, 969.3704
160.0915, 983.2908
160.5736, 993.5807
161.0558, 1003.838
161.5379, 1008.910
162.0200, 1004.345
162.5021, 979.6566
162.9842, 952.8183
163.4663, 931.0026
163.9485, 914.5172
164.4306, 901.0822
164.9127, 888.6281
165.3948, 878.8538
165.8769, 873.9512
166.3591, 876.0030
166.8412, 882.4924
167.3233, 892.4811
167.8054, 906.3548
168.2875, 921.1934
168.7696, 931.4352
169.2518, 941.3382
169.7339, 959.1459
170.2160, 997.4455
170.6981, 1041.375
171.1802, 1077.141
171.6623, 1100.789
172.1445, 1120.544
172.6266, 1141.905
173.1087, 1164.573
173.5908, 1187.684
174.0729, 1207.190
174.5550, 1227.671
175.0372, 1255.578
175.5193, 1294.915
176.0014, 1338.284
176.4835, 1378.762
176.9656, 1416.661
177.4477, 1454.208
177.9299, 1497.217
178.4120, 1540.818
178.8941, 1574.124
179.3762, 1592.822
179.8583, 1600.821
180.3404, 1602.048
180.8226, 1596.597
181.3047, 1587.110
181.7868, 1572.050
182.2689, 1553.984
182.7510, 1541.347
183.2331, 1533.235
183.7153, 1533.501
184.1974, 1555.009
184.6795, 1599.211
185.1616, 1648.727
185.6437, 1680.462
186.1258, 1698.323
186.6080, 1723.100
187.0901, 1769.892
187.5722, 1831.182
188.0543, 1882.875
188.5364, 1923.310
189.0185, 1958.306
189.5007, 2000.681
189.9828, 2049.048
190.4649, 2084.705
190.9470, 2098.076
191.4291, 2090.267
191.9112, 2067.088
192.3934, 2027.381
192.8755, 1975.808
193.3576, 1917.694
193.8397, 1853.101
194.3218, 1785.699
194.8039, 1715.289
195.2861, 1641.339
195.7682, 1574.210
196.2503, 1514.466
196.7324, 1461.553
197.2145, 1414.715
197.6967, 1373.684
198.1788, 1337.714
198.6609, 1304.517
199.1430, 1273.607
199.6251, 1254.355
200.1072, 1249.507
200.5894, 1256.014
201.0715, 1264.150
201.5536, 1273.402
202.0357, 1285.881
202.5178, 1304.882
202.9999, 1331.722
203.4821, 1355.031
203.9642, 1370.633
204.4463, 1381.052
204.9284, 1401.841
205.4105, 1435.482
205.8926, 1473.300
206.3748, 1508.135
206.8569, 1539.924
207.3390, 1569.196
207.8211, 1596.227
208.3032, 1621.101
208.7853, 1640.457
209.2675, 1652.801
209.7496, 1662.820
210.2317, 1675.319
210.7138, 1690.585
211.1959, 1708.096
211.6780, 1730.566
212.1602, 1758.264
212.6423, 1772.631
213.1244, 1771.988
213.6065, 1760.229
214.0886, 1743.422
214.5707, 1725.208
215.0529, 1692.214
215.5350, 1637.010
216.0171, 1556.573
216.4992, 1479.054
216.9813, 1403.636
217.4634, 1330.870
217.9456, 1261.899
218.4277, 1194.357
218.9098, 1134.676
219.3919, 1086.092
219.8740, 1050.135
220.3561, 1018.443
220.8383, 990.9763
221.3204, 967.5103
221.8025, 948.6835
222.2846, 936.8901
222.7667, 924.9427
223.2488, 909.3847
223.7310, 888.4439
224.2131, 870.6868
224.6952, 856.4838
225.1773, 845.3750
225.6594, 836.6978
226.1415, 830.2603
226.6237, 826.4058
227.1058, 825.8216
227.5879, 830.8496
228.0700, 833.3881
228.5521, 833.2188
229.0343, 830.6096
229.5164, 825.6194
229.9985, 815.5851
230.4806, 807.2628
230.9627, 804.4202
231.4448, 810.4181
231.9270, 814.4557
232.4091, 816.8836
232.8912, 817.1529
233.3733, 812.7264
233.8554, 799.4998
234.3375, 787.2504
234.8197, 781.3881
235.3018, 785.2426
235.7839, 788.2855
236.2660, 789.7175
236.7481, 789.9738
237.2302, 790.5483
237.7124, 790.7383
238.1945, 792.2007
238.6766, 796.5038
239.1587, 807.1232
239.6408, 813.1175
240.1229, 811.5840
240.6051, 804.5302
241.0872, 802.0908
241.5693, 807.6226
242.0514, 813.4064
242.5335, 813.9362
243.0156, 803.6860
243.4978, 799.5777
243.9799, 805.1218
244.4620, 818.5209
244.9441, 829.2433
245.4262, 836.4764
245.9083, 841.9747
246.3905, 846.7610
246.8726, 850.3860
247.3547, 854.3026
247.8368, 859.3828
248.3189, 865.1047
248.8010, 867.4302
249.2832, 862.8605
249.7653, 859.4710
250.2474, 863.5298
250.7295, 878.8370
251.2116, 893.1755
251.6937, 905.4588
252.1759, 915.7032
252.6580, 924.6627
253.1401, 932.3417
253.6222, 938.6882
254.1043, 942.3796
254.5864, 938.7929
255.0686, 943.8720
255.5507, 963.0219
256.0328, 994.1416
256.5149, 1016.881
256.9970, 1027.646
257.4792, 1035.121
257.9613, 1045.828
258.4434, 1060.768
258.9255, 1076.178
259.4076, 1092.586
259.8897, 1109.367
260.3719, 1121.095
260.8540, 1124.551
261.3361, 1127.986
261.8182, 1139.251
262.3003, 1163.104
262.7824, 1180.878
263.2646, 1188.432
263.7467, 1187.042
264.2288, 1187.019
264.7109, 1190.445
265.1930, 1191.562
265.6751, 1184.391
266.1573, 1165.531
266.6394, 1150.562
267.1215, 1143.011
267.6036, 1141.501
268.0857, 1135.665
268.5678, 1123.142
269.0500, 1111.597
269.5321, 1108.306
270.0142, 1115.851
270.4963, 1120.099
270.9784, 1117.235
271.4605, 1109.273
271.9427, 1107.084
272.4248, 1111.546
272.9069, 1119.512
273.3890, 1129.028
273.8711, 1140.442
274.3532, 1151.919
274.8354, 1163.543
275.3175, 1174.935
275.7996, 1184.631
276.2817, 1192.879
276.7638, 1198.886
277.2459, 1200.743
277.7281, 1197.792
278.2102, 1198.134
278.6923, 1203.680
279.1744, 1213.124
279.6565, 1221.428
280.1386, 1228.246
280.6208, 1235.555
281.1029, 1244.259
281.5850, 1254.325
282.0671, 1268.519
282.5492, 1289.279
283.0313, 1312.938
283.5135, 1327.844
283.9956, 1333.015
284.4777, 1337.458
284.9598, 1345.488
285.4419, 1357.431
285.9240, 1379.118
286.4062, 1414.258
286.8883, 1456.535
287.3704, 1492.371
287.8525, 1521.711
288.3346, 1546.257
288.8167, 1563.885
289.2989, 1576.258
289.7810, 1592.666
290.2631, 1615.774
290.7452, 1641.400
291.2273, 1661.622
291.7094, 1676.414
292.1916, 1689.570
292.6737, 1705.385
293.1558, 1721.966
293.6379, 1731.082
294.1200, 1730.212
294.6021, 1725.016
295.0843, 1724.101
295.5664, 1727.014
296.0485, 1729.943
296.5306, 1728.257
297.0127, 1724.984
297.4948, 1727.995
297.9770, 1739.629
298.4591, 1753.963
298.9412, 1763.917
299.4233, 1770.192
299.9054, 1775.828
300.3875, 1780.574
300.8697, 1786.221
301.3518, 1796.478
301.8339, 1812.313
302.3160, 1829.936
302.7981, 1843.844
303.2803, 1855.873
303.7624, 1871.008
304.2445, 1897.678
304.7266, 1926.433
305.2087, 1945.166
305.6909, 1951.196
306.1730, 1955.614
306.6551, 1970.920
307.1372, 1991.457
307.6193, 2005.890
308.1014, 2004.018
308.5836, 1996.286
309.0657, 1993.146
309.5478, 1996.074
310.0299, 1996.150
310.5120, 1989.776
310.9941, 1976.323
311.4763, 1954.610
311.9584, 1916.748
312.4405, 1876.027
312.9226, 1840.473
313.4047, 1810.278
313.8868, 1782.599
314.3690, 1758.795
314.8511, 1735.814
315.3332, 1709.799
315.8153, 1674.807
316.2974, 1640.565
316.7795, 1610.534
317.2617, 1584.751
317.7438, 1565.684
318.2259, 1556.687
318.7080, 1553.687
319.1901, 1553.199
319.6722, 1557.162
320.1544, 1560.678
320.6365, 1558.309
321.1186, 1551.450
321.6007, 1554.739
322.0828, 1578.096
322.5649, 1609.054
323.0471, 1639.092
323.5292, 1663.440
324.0113, 1690.440
324.4934, 1722.445
324.9755, 1758.508
325.4576, 1794.679
325.9398, 1827.081
326.4219, 1861.890
326.9040, 1902.394
327.3861, 1950.448
327.8682, 2001.573
328.3503, 2055.892
328.8325, 2113.001
329.3146, 2173.360
329.7967, 2236.043
330.2788, 2302.876
330.7609, 2373.080
331.2430, 2432.896
331.7252, 2516.820
332.2073, 2538.413
332.6894, 2675.596
333.1715, 2797.212
333.6536, 2904.085
334.1357, 2952.089
334.6179, 3076.131
335.1000, 3169.692
335.5821, 3261.998
336.0642, 3396.727
336.5463, 3453.288
337.0284, 3587.345
337.5106, 3690.482
337.9927, 3765.139
338.4748, 3833.369
338.9569, 3887.687
339.4390, 3933.266
339.9211, 3968.021
340.4033, 3997.467
340.8854, 4029.658
341.3675, 4066.722
341.8496, 4091.957
342.3317, 4100.091
342.8138, 4092.793
343.2960, 4079.698
343.7781, 4061.799
344.2602, 4034.346
344.7423, 3987.233
345.2244, 3922.475
345.7065, 3866.328
346.1887, 3831.292
346.6708, 3803.298
347.1529, 3748.858
347.6350, 3668.325
348.1171, 3576.021
348.5992, 3480.210
349.0814, 3381.689
349.5635, 3282.275
350.0456, 3180.326
350.5277, 3081.458
351.0098, 2994.393
351.4919, 2917.750
351.9741, 2841.604
352.4562, 2752.508
352.9383, 2662.531
353.4204, 2593.068
353.9025, 2549.021
354.3846, 2518.479
354.8668, 2493.225
355.3489, 2473.126
355.8310, 2458.412
356.3131, 2447.889
356.7952, 2443.622
357.2773, 2449.827
357.7595, 2468.149
358.2416, 2485.679
358.7237, 2488.388
359.2058, 2486.740
359.6879, 2495.370
360.1700, 2528.703
360.6522, 2566.451
361.1343, 2599.503
361.6164, 2627.406
362.0985, 2652.131
362.5806, 2671.744
363.0627, 2689.718
363.5449, 2709.115
364.0270, 2735.576
364.5091, 2758.592
364.9912, 2776.330
365.4734, 2788.781
365.9555, 2795.123
366.4376, 2792.081
366.9197, 2785.145
367.4018, 2777.358
367.8839, 2777.782
368.3661, 2766.433
368.8482, 2739.253
369.3303, 2699.682
369.8124, 2656.874
370.2945, 2601.734
370.7766, 2553.033
371.2588, 2518.015
371.7409, 2501.089
372.2230, 2485.974
372.7051, 2471.380
373.1872, 2459.535
373.6693, 2455.079
374.1515, 2460.754
374.6336, 2467.403
375.1157, 2470.593
375.5978, 2469.712
376.0799, 2479.147
376.5620, 2500.941
377.0442, 2529.555
377.5263, 2561.551
378.0084, 2597.489
378.4905, 2629.700
378.9726, 2655.308
379.4547, 2675.953
379.9369, 2699.919
380.4190, 2727.714
380.9011, 2754.818
381.3832, 2777.070
381.8653, 2795.264
382.3474, 2812.625
382.8296, 2829.363
383.3117, 2846.357
383.7938, 2868.100
384.2759, 2893.501
384.7580, 2913.497
385.2401, 2923.210
385.7223, 2923.722
386.2044, 2918.374
386.6865, 2908.324
387.1686, 2888.130
387.6507, 2851.024
388.1328, 2799.010
388.6150, 2737.819
389.0971, 2666.535
389.5792, 2588.999
390.0613, 2510.212
390.5434, 2430.552
391.0255, 2345.678
391.5077, 2240.913
391.9898, 2132.925
392.4719, 2040.171
392.9540, 1988.607
393.4361, 1936.366
393.9182, 1860.870
394.4004, 1766.269
394.8825, 1681.565
395.3646, 1619.263
395.8467, 1567.907
396.3288, 1520.356
396.8109, 1478.308
397.2931, 1436.781
397.7752, 1394.997
398.2573, 1353.417
398.7394, 1313.272
399.2215, 1273.472
399.7036, 1236.184
400.1858, 1201.506
400.6679, 1168.552
401.1500, 1142.492
401.6321, 1128.675
402.1142, 1118.351
402.5963, 1099.405
403.0785, 1065.866
403.5606, 1035.700
404.0427, 1013.170
404.5248, 997.9873
405.0069, 984.5803
405.4890, 973.1657
405.9712, 962.8282
406.4533, 952.0818
406.9354, 940.4660
407.4175, 933.6408
407.8996, 935.1893
408.3817, 939.5001
408.8639, 928.9400
409.3460, 902.7437
409.8281, 878.7078
410.3102, 871.8358
410.7923, 877.1158
411.2744, 872.3278
411.7566, 853.6092
412.2387, 832.7772
412.7208, 826.8246
413.2029, 831.9340
413.6850, 835.4322
414.1671, 828.7640
414.6493, 818.4225
415.1314, 813.9250
415.6135, 815.3962
416.0956, 815.1082
416.5777, 804.8810
417.0598, 790.3244
417.5420, 778.3800
418.0241, 771.8412
418.5062, 767.9536
418.9883, 766.3707
419.4704, 766.5157
419.9525, 766.2555
420.4347, 764.3646
420.9168, 762.0797
421.3989, 760.4703
421.8810, 761.2050
422.3631, 759.3525
422.8452, 749.8987
423.3274, 737.9953
423.8095, 731.8357
424.2916, 737.3693
424.7737, 743.9255
425.2558, 749.5427
425.7379, 754.3409
426.2201, 756.7502
426.7022, 755.7729
427.1843, 753.2098
427.6664, 750.5521
428.1486, 747.8525
428.6307, 744.7700
429.1128, 741.0079
429.5949, 736.8468
430.0770, 732.6266
430.5591, 727.3058
431.0413, 725.2965
431.5234, 731.3069
432.0055, 745.5413
432.4876, 754.6347
432.9697, 757.0142
433.4518, 755.9194
433.9340, 756.0107
434.4161, 757.1304
434.8982, 757.5112
435.3803, 756.8555
435.8624, 754.8547
436.3445, 749.1160
436.8267, 739.6625
437.3088, 732.3290
437.7909, 733.8430
438.2730, 740.6753
438.7551, 746.5186
439.2372, 749.1776
439.7194, 751.0296
440.2015, 755.6801
440.6836, 761.5759
441.1657, 763.6968
441.6478, 756.0546
442.1299, 746.1008
442.6121, 738.4135
443.0942, 733.2747
443.5763, 731.7722
444.0584, 735.5651
444.5405, 742.8411
445.0226, 751.3678
445.5048, 765.6023
445.9869, 775.9221
446.4690, 777.5718
446.9511, 770.3679
447.4332, 767.8429
447.9153, 774.0108
448.3975, 781.7687
448.8796, 786.7332
449.3617, 785.2998
449.8438, 788.6534
450.3259, 800.0078
450.8080, 815.1678
451.2902, 822.9055
451.7723, 820.4030
452.2544, 819.1703
452.7365, 824.7140
453.2186, 836.9281
453.7007, 846.3715
454.1829, 852.7007
454.6650, 857.7542
455.1471, 863.8137
455.6292, 870.6780
456.1113, 875.9517
456.5934, 878.3538
457.0756, 879.5747
457.5577, 880.9343
458.0398, 882.9490
458.5219, 889.5280
459.0040, 908.0439
459.4861, 931.2271
459.9683, 949.1158
460.4504, 961.3262
460.9325, 965.5721
461.4146, 951.7682
461.8967, 930.1561
462.3788, 917.7753
462.8610, 928.7375
463.3431, 944.1245
463.8252, 956.4297
464.3073, 965.2213
464.7894, 968.8705
465.2715, 961.1750
465.7537, 951.8102
466.2358, 947.3264
466.7179, 958.5303
467.2000, 961.3197
467.6821, 947.4202
468.1642, 925.1165
468.6464, 911.8406
469.1285, 913.1594
469.6106, 915.2399
470.0927, 913.5079
470.5748, 907.4098
471.0569, 903.7786
471.5391, 903.5256
472.0212, 904.0555
472.5033, 903.0706
472.9854, 900.5956
473.4675, 896.1320
473.9496, 888.3049
474.4318, 879.8140
474.9139, 878.8598
475.3960, 885.1935
475.8781, 890.0067
476.3602, 884.9456
476.8423, 874.7800
477.3245, 870.6447
477.8066, 873.6903
478.2887, 879.8071
478.7708, 886.6193
479.2529, 893.6132
479.7350, 899.6869
480.2172, 900.6754
480.6993, 903.9520
481.1814, 915.7493
481.6635, 934.7374
482.1456, 954.3537
482.6277, 975.5856
483.1099, 993.8011
483.5920, 1004.418
484.0741, 999.5402
484.5562, 1003.130
485.0383, 1025.809
485.5204, 1057.514
486.0026, 1083.564
486.4847, 1099.397
486.9668, 1114.398
487.4489, 1128.939
487.9310, 1143.106
488.4131, 1164.005
488.8953, 1195.186
489.3774, 1227.162
489.8595, 1253.354
490.3416, 1272.766
490.8238, 1293.611
491.3059, 1316.093
491.7880, 1341.401
492.2701, 1372.732
492.7522, 1410.084
493.2343, 1444.987
493.7165, 1475.403
494.1986, 1500.833
494.6807, 1518.181
495.1628, 1527.727
495.6449, 1534.898
496.1270, 1547.451
496.6092, 1559.650
497.0913, 1562.792
497.5734, 1553.281
498.0555, 1537.833
498.5376, 1521.396
499.0197, 1502.372
499.5019, 1477.334
499.9840, 1440.331
500.4661, 1401.210
500.9482, 1362.591
501.4303, 1324.761
501.9124, 1291.580
502.3946, 1264.686
502.8767, 1242.482
503.3588, 1224.042
503.8409, 1215.131
504.3230, 1200.576
504.8051, 1176.061
505.2873, 1146.573
505.7694, 1125.098
506.2515, 1113.734
506.7336, 1104.996
507.2157, 1096.301
507.6978, 1087.720
508.1800, 1080.878
508.6621, 1076.002
509.1442, 1071.907
509.6263, 1066.100
510.1084, 1059.580
510.5905, 1058.411
511.0727, 1065.643
511.5548, 1075.017
512.0369, 1076.865
512.5190, 1073.243
513.0011, 1071.239
513.4832, 1073.445
513.9653, 1079.781
514.4474, 1093.008
514.9296, 1113.351
515.4117, 1129.063
515.8938, 1127.658
516.3759, 1122.223
516.8580, 1124.425
517.3401, 1140.899
517.8223, 1160.100
518.3044, 1181.415
518.7865, 1203.836
519.2687, 1224.849
519.7508, 1241.736
520.2329, 1260.499
520.7150, 1282.685
521.1971, 1308.355
521.6793, 1337.479
522.1614, 1371.439
522.6435, 1405.944
523.1256, 1435.513
523.6077, 1458.934
524.0898, 1489.934
524.5720, 1531.534
525.0541, 1579.535
525.5362, 1628.892
526.0183, 1678.647
526.5004, 1724.039
526.9825, 1757.296
527.4647, 1786.273
527.9468, 1827.241
528.4289, 1880.126
528.9110, 1933.997
529.3931, 1978.095
529.8752, 2020.776
530.3574, 2071.323
530.8395, 2135.049
531.3216, 2201.438
531.8037, 2266.661
532.2858, 2331.908
532.7679, 2400.769
533.2501, 2477.449
533.7322, 2553.955
534.2143, 2624.743
534.6964, 2690.563
535.1785, 2764.409
535.6606, 2848.672
536.1428, 2939.585
536.6249, 3037.694
537.1070, 3146.138
537.5891, 3248.514
538.0712, 3343.869
538.5533, 3435.136
539.0355, 3527.980
539.5176, 3622.428
539.9997, 3715.227
540.4818, 3812.528
540.9639, 3904.058
541.4460, 3961.882
541.9282, 3987.850
542.4103, 4005.003
542.8924, 4039.598
543.3745, 4070.747
543.8566, 4067.540
544.3387, 4022.198
544.8209, 3961.958
545.3030, 3902.259
545.7851, 3839.079
546.2672, 3766.947
546.7493, 3668.062
547.2314, 3578.118
547.7136, 3514.090
548.1957, 3470.924
548.6778, 3421.477
549.1599, 3349.646
549.6420, 3285.447
550.1241, 3241.873
550.6063, 3223.991
551.0884, 3200.203
551.5705, 3167.374
552.0526, 3133.477
552.5347, 3106.056
553.0168, 3085.185
553.4990, 3070.311
553.9811, 3062.881
554.4632, 3059.074
554.9453, 3052.738
555.4274, 3043.781
555.9095, 3031.526
556.3917, 3009.012
556.8738, 2985.945
557.3559, 2980.093
557.8380, 2991.251
558.3201, 3000.132
558.8022, 2994.215
559.2844, 2979.580
559.7665, 2962.807
560.2486, 2950.177
560.7307, 2925.573
561.2128, 2867.082
561.6949, 2796.552
562.1771, 2749.536
562.6592, 2764.045
563.1413, 2766.617
563.6234, 2743.063
564.1055, 2695.406
564.5876, 2639.779
565.0698, 2571.045
565.5519, 2504.363
566.0340, 2448.458
566.5161, 2404.163
566.9982, 2360.958
567.4803, 2318.902
567.9625, 2275.944
568.4446, 2228.368
568.9267, 2177.378
569.4088, 2130.195
569.8909, 2089.029
570.3730, 2051.513
570.8552, 2012.063
571.3373, 1972.704
571.8194, 1938.527
572.3015, 1914.544
572.7836, 1895.319
573.2657, 1880.444
573.7479, 1870.077
574.2300, 1852.592
574.7121, 1816.632
575.1942, 1777.143
575.6763, 1745.347
576.1584, 1726.923
576.6406, 1708.583
577.1227, 1690.629
577.6048, 1672.604
578.0869, 1654.544
578.5690, 1637.653
579.0511, 1616.868
579.5333, 1588.685
580.0154, 1555.963
580.4975, 1531.301
580.9796, 1514.772
581.4617, 1497.596
581.9438, 1470.843
582.4260, 1439.528
582.9081, 1414.246
583.3902, 1395.749
583.8723, 1381.259
584.3544, 1371.545
584.8365, 1363.314
585.3187, 1352.320
585.8008, 1339.287
586.2829, 1320.739
586.7650, 1288.566
587.2471, 1250.148
587.7292, 1221.719
588.2114, 1217.267
588.6935, 1212.372
589.1756, 1200.216
589.6577, 1180.670
590.1398, 1161.296
590.6219, 1142.683
591.1041, 1123.010
591.5862, 1099.475
592.0683, 1071.654
592.5504, 1050.949
593.0325, 1039.553
593.5146, 1030.040
593.9968, 1011.631
594.4789, 986.5071
594.9610, 963.1195
595.4431, 942.5924
595.9252, 926.8431
596.4073, 922.8806
596.8895, 926.4714
597.3716, 924.8047
597.8537, 905.0720
598.3358, 883.1362
598.8179, 869.1312
599.3000, 863.9397
599.7822, 858.8258
600.2643, 853.9893
600.7464, 847.0590
601.2285, 836.2038
601.7106, 817.8687
602.1927, 802.8170
602.6749, 791.0001
603.1570, 782.3406
603.6391, 777.6763
604.1212, 777.5862
604.6033, 776.7963
605.0854, 773.7335
605.5676, 769.3886
606.0497, 766.0641
606.5318, 763.6400
607.0139, 761.3702
607.4960, 758.4330
607.9781, 755.5583
608.4603, 754.3426
608.9424, 754.8022
609.4245, 753.8160
609.9066, 750.0933
610.3887, 743.7875
610.8708, 734.2648
611.3530, 716.6261
611.8351, 705.1064
612.3172, 706.6970
612.7993, 714.3916
613.2814, 718.5587
613.7635, 716.7628
614.2457, 716.3951
614.7278, 720.0356
615.2099, 725.5328
615.6920, 724.3665
616.1741, 715.4581
616.6563, 707.3875
617.1384, 703.7834
617.6205, 704.4426
618.1026, 709.8877
618.5847, 720.0377
619.0668, 729.6923
619.5490, 735.3658
620.0311, 737.5474
620.5132, 736.4241
620.9953, 731.3260
621.4774, 725.4666
621.9595, 718.7365
622.4417, 712.7736
622.9238, 709.6064
