##NAMES=Aegirine
##RRUFFID=R050074
##IDEAL CHEMISTRY=NaFe^3+^Si_2_O_6_
##LOCALITY=Mt. Malosa, Zomba, Chilwa, Alkaline Area, Malawi
##OWNER=RRUFF
##SOURCE=Rock Currier
##DESCRIPTION=Black prismatic single crystal
##STATUS=The identification of this mineral has been confirmed by X-ray diffraction and chemical analysis
##URL=rruff.info/R050074
##MEASURED CHEMISTRY=(Na_0.98_Ca_0.02_)_Σ=1_(Fe^3+^_0.96_Ti_0.01_Mn_0.03_)_Σ=1_Si_2.00_O_6_
124.5917, 217.7270
125.0739, 232.1084
125.5560, 248.5438
126.0381, 265.9966
126.5202, 282.6935
127.0023, 297.8893
127.4844, 312.5326
127.9666, 327.2381
128.4487, 342.0336
128.9308, 359.1840
129.4129, 381.2187
129.8950, 407.6769
130.3772, 435.3349
130.8593, 466.1413
131.3414, 497.4393
131.8235, 518.8009
132.3056, 528.9061
132.7877, 533.9553
133.2699, 541.1624
133.7520, 550.6862
134.2341, 559.4187
134.7162, 566.1647
135.1983, 570.9603
135.6804, 574.3145
136.1626, 575.6388
136.6447, 576.2734
137.1268, 578.5735
137.6089, 582.5164
138.0910, 588.1693
138.5731, 596.0564
139.0553, 607.0530
139.5374, 616.7444
140.0195, 625.2883
140.5016, 632.2590
140.9837, 634.4246
141.4658, 627.3871
141.9480, 622.4958
142.4301, 628.4304
142.9122, 651.2128
143.3943, 671.8466
143.8764, 687.0206
144.3585, 696.7863
144.8407, 710.8550
145.3228, 733.7180
145.8049, 757.3731
146.2870, 773.8411
146.7691, 775.9383
147.2512, 780.0122
147.7334, 789.5719
148.2155, 806.2762
148.6976, 821.3806
149.1797, 829.4517
149.6618, 837.5433
150.1439, 854.8151
150.6261, 894.4249
151.1082, 931.2059
151.5903, 956.6732
152.0724, 961.4017
152.5545, 975.4984
153.0366, 1006.400
153.5188, 1047.858
154.0009, 1087.414
154.4830, 1125.835
154.9651, 1160.525
155.4472, 1190.380
155.9293, 1211.482
156.4115, 1233.215
156.8936, 1259.517
157.3757, 1288.492
157.8578, 1313.985
158.3399, 1336.586
158.8221, 1353.729
159.3042, 1364.038
159.7863, 1373.257
160.2684, 1369.620
160.7505, 1342.263
161.2326, 1294.131
161.7148, 1249.863
162.1969, 1220.204
162.6790, 1199.098
163.1611, 1181.013
163.6432, 1166.033
164.1253, 1151.840
164.6075, 1133.702
165.0896, 1111.330
165.5717, 1098.616
166.0538, 1108.637
166.5359, 1132.342
167.0180, 1156.680
167.5002, 1173.111
167.9823, 1190.268
168.4644, 1217.321
168.9465, 1256.720
169.4286, 1293.641
169.9107, 1309.990
170.3929, 1315.441
170.8750, 1330.829
171.3571, 1374.038
171.8392, 1429.252
172.3213, 1479.561
172.8034, 1521.395
173.2856, 1561.437
173.7677, 1604.618
174.2498, 1650.933
174.7319, 1699.501
175.2140, 1750.419
175.6961, 1803.144
176.1783, 1858.626
176.6604, 1920.671
177.1425, 1977.803
177.6246, 2015.286
178.1067, 2034.078
178.5888, 2042.794
179.0710, 2044.813
179.5531, 2041.141
180.0352, 2032.926
180.5173, 2017.475
180.9994, 2000.748
181.4815, 1988.008
181.9637, 1979.495
182.4458, 1985.960
182.9279, 2021.332
183.4100, 2080.705
183.8921, 2146.055
184.3742, 2212.349
184.8564, 2281.416
185.3385, 2354.249
185.8206, 2431.191
186.3027, 2515.302
186.7848, 2617.315
187.2669, 2733.919
187.7491, 2843.257
188.2312, 2935.941
188.7133, 3015.003
189.1954, 3096.962
189.6775, 3184.081
190.1596, 3261.446
190.6418, 3316.307
191.1239, 3348.115
191.6060, 3350.749
192.0881, 3320.301
192.5702, 3257.656
193.0524, 3166.432
193.5345, 3042.689
194.0166, 2901.434
194.4987, 2762.917
194.9808, 2626.701
195.4629, 2499.319
195.9451, 2384.305
196.4272, 2280.181
196.9093, 2191.453
197.3914, 2119.768
197.8735, 2061.094
198.3556, 2007.396
198.8378, 1958.099
199.3199, 1918.276
199.8020, 1895.221
200.2841, 1890.709
200.7662, 1877.410
201.2483, 1848.701
201.7305, 1814.992
202.2126, 1803.210
202.6947, 1816.801
203.1768, 1839.467
203.6589, 1861.140
204.1410, 1880.401
204.6232, 1908.161
205.1053, 1948.116
205.5874, 1995.990
206.0695, 2036.434
206.5516, 2066.462
207.0337, 2096.900
207.5159, 2137.486
207.9980, 2190.956
208.4801, 2237.627
208.9622, 2273.451
209.4443, 2300.639
209.9264, 2332.821
210.4086, 2376.946
210.8907, 2412.169
211.3728, 2423.622
211.8549, 2411.392
212.3370, 2374.527
212.8191, 2308.378
213.3013, 2216.138
213.7834, 2118.354
214.2655, 2013.324
214.7476, 1905.024
215.2297, 1796.416
215.7118, 1682.921
216.1940, 1578.627
216.6761, 1485.251
217.1582, 1402.483
217.6403, 1335.094
218.1224, 1289.269
218.6045, 1251.564
219.0867, 1207.892
219.5688, 1152.277
220.0509, 1105.747
220.5330, 1074.874
221.0151, 1059.542
221.4972, 1046.113
221.9794, 1035.536
222.4615, 1025.677
222.9436, 1013.779
223.4257, 998.0485
223.9078, 983.7441
224.3899, 971.7164
224.8721, 961.6548
225.3542, 956.3773
225.8363, 958.9293
226.3184, 963.3350
226.8005, 962.3668
227.2827, 953.9726
227.7648, 943.8872
228.2469, 931.7773
228.7290, 916.3079
229.2111, 910.2660
229.6932, 919.5779
230.1754, 933.5823
230.6575, 937.2172
231.1396, 921.9595
231.6217, 911.5347
232.1038, 914.4772
232.5859, 934.7053
233.0681, 947.0620
233.5502, 949.1870
234.0323, 945.1447
234.5144, 939.9651
234.9965, 930.7557
235.4786, 925.4809
235.9608, 927.8057
236.4429, 940.1735
236.9250, 948.3661
237.4071, 950.1559
237.8892, 949.0867
238.3713, 951.1526
238.8535, 959.3654
239.3356, 965.6267
239.8177, 966.5850
240.2998, 960.0303
240.7819, 956.5193
241.2640, 955.6939
241.7462, 958.0585
242.2283, 965.1461
242.7104, 980.6193
243.1925, 994.7695
243.6746, 1003.905
244.1567, 1006.050
244.6389, 1010.314
245.1210, 1018.688
245.6031, 1027.992
246.0852, 1032.121
246.5673, 1028.151
247.0494, 1023.960
247.5316, 1021.979
248.0137, 1022.075
248.4958, 1024.977
248.9779, 1031.281
249.4600, 1040.056
249.9421, 1049.575
250.4243, 1060.316
250.9064, 1071.049
251.3885, 1081.142
251.8706, 1090.081
252.3527, 1100.346
252.8348, 1112.408
253.3170, 1125.470
253.7991, 1137.804
254.2812, 1148.429
254.7633, 1159.967
255.2454, 1173.899
255.7275, 1191.294
256.2097, 1206.196
256.6918, 1216.234
257.1739, 1225.235
257.6560, 1241.490
258.1381, 1269.356
258.6202, 1295.514
259.1024, 1313.344
259.5845, 1318.408
260.0666, 1334.271
260.5487, 1367.679
261.0308, 1406.719
261.5129, 1429.657
261.9951, 1430.806
262.4772, 1428.965
262.9593, 1432.168
263.4414, 1442.837
263.9235, 1446.860
264.4056, 1442.841
264.8878, 1433.483
265.3699, 1423.439
265.8520, 1413.031
266.3341, 1400.719
266.8162, 1384.028
267.2983, 1361.266
267.7805, 1346.202
268.2626, 1340.272
268.7447, 1340.635
269.2268, 1342.774
269.7089, 1346.720
270.1910, 1352.313
270.6732, 1359.645
271.1553, 1368.746
271.6374, 1379.014
272.1195, 1390.305
272.6016, 1403.003
273.0837, 1418.854
273.5659, 1439.393
274.0480, 1455.506
274.5301, 1459.415
275.0122, 1450.173
275.4943, 1459.406
275.9764, 1492.855
276.4586, 1533.979
276.9407, 1556.557
277.4228, 1558.198
277.9049, 1559.745
278.3870, 1568.310
278.8691, 1583.763
279.3513, 1604.541
279.8334, 1632.409
280.3155, 1661.066
280.7976, 1678.958
281.2798, 1685.187
281.7619, 1698.145
282.2440, 1728.290
282.7261, 1772.755
283.2082, 1807.855
283.6903, 1831.295
284.1725, 1853.811
284.6546, 1894.451
285.1367, 1951.790
285.6188, 1996.843
286.1009, 2011.361
286.5830, 2004.475
287.0652, 2017.578
287.5473, 2052.781
288.0294, 2094.613
288.5115, 2127.394
288.9936, 2151.869
289.4757, 2173.220
289.9579, 2195.277
290.4400, 2215.094
290.9221, 2223.856
291.4042, 2221.082
291.8863, 2213.274
292.3684, 2206.127
292.8506, 2199.295
293.3327, 2191.299
293.8148, 2182.183
294.2969, 2171.283
294.7790, 2155.845
295.2611, 2135.791
295.7433, 2115.957
296.2254, 2101.327
296.7075, 2090.066
297.1896, 2076.816
297.6717, 2054.592
298.1538, 2033.915
298.6360, 2032.591
299.1181, 2049.580
299.6002, 2072.667
300.0823, 2094.107
300.5644, 2114.995
301.0465, 2137.583
301.5287, 2162.542
302.0108, 2189.303
302.4929, 2214.703
302.9750, 2240.033
303.4571, 2271.220
303.9392, 2320.514
304.4214, 2375.817
304.9035, 2421.341
305.3856, 2449.192
305.8677, 2471.297
306.3498, 2498.183
306.8319, 2527.752
307.3141, 2553.152
307.7962, 2572.473
308.2783, 2584.302
308.7604, 2586.641
309.2425, 2576.877
309.7246, 2562.215
310.2068, 2549.868
310.6889, 2536.474
311.1710, 2513.293
311.6531, 2471.856
312.1352, 2421.580
312.6173, 2367.771
313.0995, 2309.045
313.5816, 2255.219
314.0637, 2210.794
314.5458, 2174.250
315.0279, 2142.292
315.5100, 2117.075
315.9922, 2093.536
316.4743, 2067.045
316.9564, 2034.253
317.4385, 2010.239
317.9206, 2003.179
318.4027, 2007.148
318.8849, 2013.872
319.3670, 2013.391
319.8491, 2022.094
320.3312, 2049.120
320.8133, 2098.492
321.2954, 2146.153
321.7776, 2183.269
322.2597, 2218.294
322.7418, 2260.243
323.2239, 2308.975
323.7060, 2366.179
324.1881, 2432.475
324.6703, 2507.993
325.1524, 2591.516
325.6345, 2687.559
326.1166, 2788.235
326.5987, 2887.987
327.0808, 2978.914
327.5630, 3078.022
328.0451, 3187.305
328.5272, 3306.653
329.0093, 3435.350
329.4914, 3578.094
329.9735, 3722.859
330.4557, 3860.977
330.9378, 3988.957
331.4199, 4116.566
331.9020, 4243.903
332.3841, 4371.842
332.8662, 4506.519
333.3484, 4653.700
333.8305, 4796.882
334.3126, 4930.002
334.7947, 5054.049
335.2768, 5161.850
335.7589, 5255.817
336.2411, 5331.559
336.7232, 5377.461
337.2053, 5387.246
337.6874, 5384.445
338.1695, 5379.312
338.6516, 5372.303
339.1338, 5360.267
339.6159, 5344.839
340.0980, 5321.813
340.5801, 5281.642
341.0622, 5222.050
341.5443, 5161.440
342.0265, 5105.209
342.5086, 5053.687
342.9907, 5007.402
343.4728, 4968.649
343.9549, 4927.654
344.4370, 4875.140
344.9192, 4811.327
345.4013, 4734.338
345.8834, 4643.231
346.3655, 4539.479
346.8476, 4428.822
347.3297, 4311.648
347.8119, 4190.066
348.2940, 4065.250
348.7761, 3938.010
349.2582, 3813.139
349.7403, 3686.209
350.2225, 3564.841
350.7046, 3457.354
351.1867, 3363.084
351.6688, 3284.462
352.1509, 3224.377
352.6331, 3180.454
353.1152, 3149.928
353.5973, 3134.351
354.0794, 3127.947
354.5615, 3128.218
355.0436, 3133.996
355.5258, 3141.722
356.0079, 3142.323
356.4900, 3147.966
356.9721, 3171.211
357.4542, 3217.903
357.9363, 3268.925
358.4185, 3314.614
358.9006, 3357.271
359.3827, 3400.876
359.8648, 3446.708
360.3469, 3494.102
360.8290, 3543.202
361.3112, 3594.510
361.7933, 3645.160
362.2754, 3700.117
362.7575, 3752.188
363.2396, 3793.725
363.7217, 3826.612
364.2039, 3844.612
364.6860, 3844.314
365.1681, 3825.564
365.6502, 3797.536
366.1323, 3764.800
366.6144, 3720.931
367.0966, 3661.019
367.5787, 3563.583
368.0608, 3477.016
368.5429, 3403.136
369.0250, 3341.899
369.5071, 3295.483
369.9893, 3274.438
370.4714, 3256.080
370.9535, 3227.948
371.4356, 3179.592
371.9177, 3146.244
372.3998, 3131.595
372.8820, 3130.520
373.3641, 3130.833
373.8462, 3129.129
374.3283, 3137.663
374.8104, 3163.770
375.2925, 3209.453
375.7747, 3251.009
376.2568, 3286.620
376.7389, 3322.394
377.2210, 3367.936
377.7031, 3424.088
378.1852, 3477.324
378.6674, 3521.188
379.1495, 3559.014
379.6316, 3610.153
380.1137, 3675.706
380.5958, 3740.707
381.0779, 3794.528
381.5601, 3836.870
382.0422, 3862.762
382.5243, 3871.395
383.0064, 3863.699
383.4885, 3840.147
383.9706, 3801.009
384.4528, 3750.054
384.9349, 3688.762
385.4170, 3617.230
385.8991, 3534.254
386.3812, 3438.430
386.8633, 3332.460
387.3455, 3215.024
387.8276, 3089.460
388.3097, 2961.227
388.7918, 2827.384
389.2739, 2697.039
389.7560, 2579.503
390.2382, 2476.430
390.7203, 2374.693
391.2024, 2261.848
391.6845, 2148.686
392.1666, 2046.225
392.6487, 1963.941
393.1309, 1888.468
393.6130, 1817.760
394.0951, 1750.947
394.5772, 1683.302
395.0593, 1610.461
395.5414, 1538.302
396.0236, 1471.191
396.5057, 1406.578
396.9878, 1350.492
397.4699, 1307.902
397.9520, 1275.130
398.4341, 1240.762
398.9163, 1196.899
399.3984, 1159.729
399.8805, 1136.849
400.3626, 1135.509
400.8447, 1126.733
401.3268, 1107.582
401.8090, 1083.169
402.2911, 1059.875
402.7732, 1037.699
403.2553, 1017.034
403.7374, 996.7731
404.2195, 977.3124
404.7017, 967.3990
405.1838, 969.6146
405.6659, 974.3727
406.1480, 973.6689
406.6301, 967.4913
407.1122, 957.3767
407.5944, 942.2296
408.0765, 924.6620
408.5586, 911.6859
409.0407, 903.1580
409.5228, 894.6582
410.0049, 882.4155
410.4871, 868.0259
410.9692, 855.4366
411.4513, 844.7983
411.9334, 836.8892
412.4155, 834.7653
412.8976, 836.3174
413.3798, 835.5778
413.8619, 826.6799
414.3440, 815.9239
414.8261, 810.4938
415.3082, 810.5040
415.7903, 810.4973
416.2725, 808.5095
416.7546, 803.9190
417.2367, 795.7738
417.7188, 779.6911
418.2009, 764.6932
418.6830, 755.3464
419.1652, 750.6295
419.6473, 747.1699
420.1294, 746.8186
420.6115, 745.1824
421.0937, 739.2530
421.5758, 725.6756
422.0579, 714.4505
422.5400, 707.3998
423.0221, 703.3298
423.5042, 700.1256
423.9864, 695.5138
424.4685, 694.3812
424.9506, 701.0419
425.4327, 716.9470
425.9148, 719.2736
426.3969, 698.1606
426.8791, 674.7120
427.3612, 669.1866
427.8433, 689.0916
428.3254, 703.1194
428.8075, 705.6147
429.2896, 699.7752
429.7718, 696.1606
430.2539, 695.0211
430.7360, 694.6827
431.2181, 694.6166
431.7002, 694.7411
432.1823, 693.6036
432.6645, 690.8470
433.1466, 687.7711
433.6287, 686.7079
434.1108, 687.1605
434.5929, 686.5327
435.0750, 681.3426
435.5572, 675.4615
436.0393, 677.6307
436.5214, 687.4292
437.0035, 695.9466
437.4856, 694.3640
437.9677, 687.6567
438.4499, 682.7011
438.9320, 681.6512
439.4141, 682.0597
439.8962, 681.5320
440.3783, 681.0458
440.8604, 683.1086
441.3426, 691.6341
441.8247, 700.8730
442.3068, 708.2498
442.7889, 713.9093
443.2710, 715.5956
443.7531, 706.2232
444.2353, 695.0999
444.7174, 692.3599
445.1995, 708.3926
445.6816, 723.1471
446.1637, 732.2068
446.6458, 736.2041
447.1280, 743.1701
447.6101, 756.8773
448.0922, 769.4240
448.5743, 775.8724
449.0564, 773.2474
449.5385, 772.6063
450.0207, 774.6227
450.5028, 778.3842
450.9849, 780.9944
451.4670, 781.1118
451.9491, 786.9702
452.4312, 804.8208
452.9134, 832.3375
453.3955, 852.2350
453.8776, 864.2550
454.3597, 870.2603
454.8418, 867.5514
455.3239, 859.0546
455.8061, 857.7686
456.2882, 869.1993
456.7703, 885.0934
457.2524, 894.0803
457.7345, 897.2860
458.2166, 899.4733
458.6988, 903.4925
459.1809, 907.9171
459.6630, 911.3115
460.1451, 913.5920
460.6272, 914.6095
461.1093, 914.8160
461.5915, 913.5460
462.0736, 909.9400
462.5557, 901.2268
463.0378, 892.5726
463.5199, 886.6755
464.0020, 883.0540
464.4842, 877.6796
464.9663, 864.3260
465.4484, 853.0654
465.9305, 849.8925
466.4126, 864.6736
466.8947, 870.3462
467.3769, 863.1488
467.8590, 848.5319
468.3411, 834.2380
468.8232, 817.3674
469.3053, 807.1963
469.7874, 808.7277
470.2696, 820.9739
470.7517, 824.2326
471.2338, 815.8365
471.7159, 806.6557
472.1980, 807.9279
472.6801, 819.3221
473.1623, 825.0518
473.6444, 820.9588
474.1265, 814.1370
474.6086, 818.8073
475.0907, 833.0911
475.5728, 844.8361
476.0550, 843.1107
476.5371, 836.3276
477.0192, 838.1793
477.5013, 849.1613
477.9834, 864.1883
478.4655, 881.3521
478.9477, 899.6525
479.4298, 917.5527
479.9119, 934.6447
480.3940, 951.4741
480.8761, 964.7485
481.3582, 977.3943
481.8404, 997.7600
482.3225, 1036.715
482.8046, 1077.281
483.2867, 1110.737
483.7688, 1132.520
484.2509, 1160.476
484.7331, 1198.504
485.2152, 1242.059
485.6973, 1288.215
486.1794, 1339.173
486.6615, 1389.096
487.1436, 1437.225
487.6258, 1483.937
488.1079, 1531.126
488.5900, 1578.563
489.0721, 1626.388
489.5542, 1674.359
490.0363, 1722.669
490.5185, 1772.505
491.0006, 1823.936
491.4827, 1875.363
491.9648, 1925.652
492.4470, 1974.200
492.9291, 2016.634
493.4112, 2049.747
493.8933, 2076.470
494.3754, 2104.813
494.8575, 2132.656
495.3397, 2145.014
495.8218, 2129.728
496.3039, 2094.955
496.7860, 2048.317
497.2681, 1988.515
497.7502, 1924.418
498.2324, 1859.855
498.7145, 1793.766
499.1966, 1723.437
499.6787, 1638.760
500.1608, 1559.865
500.6429, 1495.560
501.1251, 1444.948
501.6072, 1392.092
502.0893, 1323.204
502.5714, 1262.305
503.0535, 1221.373
503.5356, 1208.377
504.0178, 1196.864
504.4999, 1187.770
504.9820, 1179.403
505.4641, 1168.533
505.9462, 1154.455
506.4283, 1141.777
506.9105, 1132.206
507.3926, 1125.049
507.8747, 1117.060
508.3568, 1108.076
508.8389, 1100.889
509.3210, 1096.857
509.8032, 1096.121
510.2853, 1099.719
510.7674, 1108.501
511.2495, 1118.521
511.7316, 1123.789
512.2137, 1127.438
512.6959, 1135.707
513.1780, 1154.177
513.6601, 1175.717
514.1422, 1195.708
514.6243, 1214.500
515.1064, 1234.881
515.5886, 1257.139
516.0707, 1281.988
516.5528, 1309.474
517.0349, 1339.134
517.5170, 1372.898
517.9991, 1415.888
518.4813, 1460.941
518.9634, 1498.337
519.4455, 1522.243
519.9276, 1548.154
520.4097, 1577.430
520.8918, 1610.568
521.3740, 1656.499
521.8561, 1718.484
522.3382, 1782.468
522.8203, 1835.990
523.3024, 1879.946
523.7845, 1938.759
524.2667, 2015.744
524.7488, 2101.753
525.2309, 2191.041
525.7130, 2282.814
526.1951, 2371.853
526.6772, 2452.228
527.1594, 2534.388
527.6415, 2632.193
528.1236, 2742.368
528.6057, 2853.195
529.0878, 2954.559
529.5699, 3055.185
530.0521, 3157.438
530.5342, 3259.805
531.0163, 3376.509
531.4984, 3516.885
531.9805, 3673.005
532.4626, 3836.956
532.9448, 4020.542
533.4269, 4196.344
533.9090, 4357.081
534.3911, 4507.326
534.8732, 4657.993
535.3553, 4809.787
535.8375, 4964.419
536.3196, 5122.980
536.8017, 5288.168
537.2838, 5441.246
537.7659, 5581.394
538.2480, 5716.902
538.7302, 5867.348
539.2123, 6027.641
539.6944, 6153.186
540.1765, 6233.068
540.6586, 6276.626
541.1407, 6297.935
541.6229, 6295.516
542.1050, 6264.981
542.5871, 6196.094
543.0692, 6103.185
543.5513, 5996.363
544.0334, 5877.163
544.5156, 5750.103
544.9977, 5608.259
545.4798, 5464.617
545.9619, 5330.893
546.4440, 5211.701
546.9261, 5098.737
547.4083, 4989.140
547.8904, 4885.141
548.3725, 4791.903
548.8546, 4706.337
549.3367, 4635.927
549.8188, 4586.021
550.3010, 4554.762
550.7831, 4517.554
551.2652, 4469.447
551.7473, 4431.827
552.2294, 4425.821
552.7115, 4447.948
553.1937, 4465.150
553.6758, 4475.299
554.1579, 4478.488
554.6400, 4471.305
555.1221, 4456.845
555.6042, 4444.376
556.0864, 4440.875
556.5685, 4436.888
557.0506, 4425.477
557.5327, 4406.480
558.0148, 4379.285
558.4969, 4344.905
558.9791, 4301.047
559.4612, 4246.721
559.9433, 4182.142
560.4254, 4106.835
560.9075, 4010.081
561.3896, 3908.665
561.8718, 3817.009
562.3539, 3749.076
562.8360, 3666.091
563.3181, 3559.650
563.8002, 3440.028
564.2823, 3330.111
564.7645, 3232.503
565.2466, 3137.037
565.7287, 3041.463
566.2108, 2945.465
566.6929, 2845.552
567.1750, 2741.976
567.6572, 2646.995
568.1393, 2580.517
568.6214, 2529.960
569.1035, 2471.302
569.5856, 2398.127
570.0677, 2325.238
570.5499, 2264.628
571.0320, 2211.688
571.5141, 2158.692
571.9962, 2099.023
572.4783, 2042.523
572.9604, 1993.788
573.4426, 1952.323
573.9247, 1913.944
574.4068, 1881.155
574.8889, 1848.841
575.3710, 1814.286
575.8531, 1776.286
576.3353, 1746.044
576.8174, 1730.149
577.2995, 1712.669
577.7816, 1673.351
578.2637, 1609.107
578.7458, 1559.517
579.2280, 1533.530
579.7101, 1518.698
580.1922, 1491.882
580.6743, 1455.505
581.1564, 1423.241
581.6385, 1407.713
582.1207, 1396.461
582.6028, 1373.865
583.0849, 1340.778
583.5670, 1302.447
584.0491, 1252.963
584.5313, 1205.282
585.0134, 1170.178
585.4955, 1152.066
585.9776, 1137.585
586.4597, 1127.415
586.9418, 1117.577
587.4240, 1103.689
587.9061, 1084.844
588.3882, 1062.868
588.8703, 1035.467
589.3524, 1005.734
589.8345, 984.0520
590.3167, 972.9109
590.7988, 960.0975
591.2809, 940.3118
591.7630, 914.6068
592.2451, 888.2474
592.7272, 861.1602
593.2094, 835.2170
593.6915, 809.2617
594.1736, 786.1078
594.6557, 772.8788
595.1378, 773.1952
595.6199, 773.9205
596.1021, 764.9862
596.5842, 750.3628
597.0663, 735.6522
597.5485, 719.7861
598.0306, 707.4449
598.5127, 702.6423
598.9948, 703.3231
599.4769, 700.4518
599.9590, 691.4119
600.4412, 681.2407
600.9233, 671.4746
601.4054, 662.0966
601.8875, 652.5016
602.3696, 642.4172
602.8517, 632.9480
603.3339, 625.3503
603.8160, 619.4714
604.2981, 614.2659
604.7802, 609.6611
605.2623, 605.7191
605.7444, 602.7263
606.2266, 600.5040
606.7087, 598.7900
607.1908, 598.8762
607.6729, 597.9343
608.1550, 592.0216
608.6371, 582.9191
609.1193, 576.2122
609.6014, 578.5028
610.0835, 580.0093
610.5656, 574.9409
611.0477, 561.6943
611.5298, 551.8157
612.0120, 545.8713
612.4941, 543.2395
612.9762, 544.7834
613.4583, 553.3043
613.9404, 554.9668
614.4225, 546.8421
614.9047, 535.9086
615.3868, 532.8375
615.8689, 536.9913
616.3510, 540.2580
616.8331, 540.0104
617.3152, 538.0042
617.7974, 536.0846
618.2795, 534.5412
618.7616, 534.3691
619.2437, 539.4945
619.7258, 543.6894
620.2079, 540.4796
