##NAMES=Aegirine
##RRUFFID=R050074
##IDEAL CHEMISTRY=NaFe^3+^Si_2_O_6_
##LOCALITY=Mt. Malosa, Zomba, Chilwa, Alkaline Area, Malawi
##OWNER=RRUFF
##SOURCE=Rock Currier
##DESCRIPTION=Black prismatic single crystal
##STATUS=The identification of this mineral has been confirmed by X-ray diffraction and chemical analysis
##URL=rruff.info/R050074
##MEASURED CHEMISTRY=(Na_0.98_Ca_0.02_)_Σ=1_(Fe^3+^_0.96_Ti_0.01_Mn_0.03_)_Σ=1_Si_2.00_O_6_
145.1252, 956.1522
145.6074, 991.1234
146.0895, 1031.823
146.5716, 1081.726
147.0537, 1146.497
147.5358, 1226.208
148.0179, 1295.642
148.5001, 1353.111
148.9822, 1401.842
149.4643, 1443.745
149.9464, 1479.249
150.4285, 1509.329
150.9106, 1538.487
151.3928, 1563.563
151.8749, 1566.469
152.3570, 1545.007
152.8391, 1501.517
153.3212, 1427.117
153.8033, 1320.122
154.2855, 1217.550
154.7676, 1149.992
155.2497, 1112.186
155.7318, 1081.964
156.2139, 1056.448
156.6960, 1036.725
157.1782, 1024.708
157.6603, 1020.907
158.1424, 1021.928
158.6245, 1023.272
159.1066, 1027.337
159.5887, 1041.970
160.0709, 1080.717
160.5530, 1126.855
161.0351, 1155.773
161.5172, 1164.719
161.9993, 1164.153
162.4814, 1157.729
162.9636, 1147.243
163.4457, 1135.071
163.9278, 1117.586
164.4099, 1100.185
164.8920, 1094.559
165.3741, 1104.561
165.8563, 1115.623
166.3384, 1117.843
166.8205, 1114.973
167.3026, 1113.101
167.7847, 1115.032
168.2668, 1119.405
168.7490, 1123.552
169.2311, 1127.871
169.7132, 1131.007
170.1953, 1130.432
170.6774, 1128.532
171.1595, 1129.057
171.6417, 1133.279
172.1238, 1141.201
172.6059, 1154.158
173.0880, 1176.305
173.5701, 1194.976
174.0522, 1203.845
174.5344, 1206.417
175.0165, 1206.600
175.4986, 1203.859
175.9807, 1201.445
176.4628, 1209.948
176.9449, 1237.061
177.4271, 1260.999
177.9092, 1275.577
178.3913, 1281.999
178.8734, 1280.872
179.3555, 1270.776
179.8376, 1254.892
180.3197, 1242.367
180.8019, 1233.892
181.2840, 1227.964
181.7661, 1222.751
182.2482, 1219.613
182.7303, 1221.416
183.2124, 1231.024
183.6946, 1244.074
184.1767, 1246.471
184.6588, 1227.798
185.1409, 1216.916
185.6230, 1222.703
186.1051, 1238.583
186.5873, 1258.301
187.0694, 1279.806
187.5515, 1301.089
188.0336, 1316.568
188.5157, 1321.334
188.9978, 1328.487
189.4800, 1345.105
189.9621, 1363.390
190.4442, 1375.270
190.9263, 1376.924
191.4084, 1371.229
191.8905, 1364.903
192.3727, 1357.917
192.8548, 1350.195
193.3369, 1342.055
193.8190, 1333.158
194.3011, 1322.723
194.7832, 1310.405
195.2654, 1297.476
195.7475, 1286.983
196.2296, 1280.642
196.7117, 1273.423
197.1938, 1265.300
197.6759, 1255.860
198.1581, 1243.567
198.6402, 1228.042
199.1223, 1212.558
199.6044, 1203.911
200.0865, 1207.196
200.5686, 1207.217
201.0508, 1201.043
201.5329, 1192.713
202.0150, 1184.399
202.4971, 1176.951
202.9792, 1171.435
203.4613, 1170.854
203.9435, 1181.141
204.4256, 1182.548
204.9077, 1167.185
205.3898, 1148.966
205.8719, 1135.129
206.3540, 1128.021
206.8362, 1128.164
207.3183, 1138.184
207.8004, 1164.550
208.2825, 1184.016
208.7646, 1193.293
209.2467, 1199.073
209.7289, 1203.233
210.2110, 1206.986
210.6931, 1212.679
211.1752, 1224.958
211.6573, 1248.779
212.1395, 1260.231
212.6216, 1258.129
213.1037, 1245.830
213.5858, 1219.597
214.0679, 1182.747
214.5500, 1145.198
215.0322, 1117.297
215.5143, 1101.007
215.9964, 1081.846
216.4785, 1059.441
216.9606, 1034.483
217.4427, 1003.206
217.9249, 968.7916
218.4070, 939.2944
218.8891, 922.7723
219.3712, 919.7619
219.8533, 910.1970
220.3354, 882.5174
220.8176, 859.3213
221.2997, 848.4203
221.7818, 846.7972
222.2639, 847.9698
222.7460, 847.9357
223.2281, 846.5795
223.7103, 842.6694
224.1924, 833.3460
224.6745, 824.3832
225.1566, 814.0139
225.6387, 805.2872
226.1208, 803.5865
226.6030, 812.8799
227.0851, 829.5624
227.5672, 838.2176
228.0493, 831.7205
228.5314, 826.3260
229.0135, 824.6127
229.4957, 825.4810
229.9778, 827.9191
230.4599, 831.5321
230.9420, 835.6954
231.4241, 838.7313
231.9062, 839.1808
232.3884, 841.0662
232.8705, 846.7455
233.3526, 852.8583
233.8347, 856.3323
234.3168, 856.1783
234.7989, 854.0347
235.2811, 853.0240
235.7632, 854.8462
236.2453, 853.5892
236.7274, 841.6447
237.2095, 831.6688
237.6916, 834.9077
238.1738, 852.2640
238.6559, 872.5884
239.1380, 881.2634
239.6201, 874.4360
240.1022, 870.1893
240.5843, 868.9502
241.0665, 870.5690
241.5486, 876.0892
242.0307, 884.9588
242.5128, 894.9661
242.9949, 905.2047
243.4770, 916.1555
243.9592, 921.4698
244.4413, 914.0950
244.9234, 907.5286
245.4055, 906.2368
245.8876, 909.8626
246.3697, 916.7502
246.8519, 927.4525
247.3340, 940.9814
247.8161, 947.3783
248.2982, 940.1940
248.7803, 934.2746
249.2624, 937.2042
249.7446, 944.3295
250.2267, 947.5529
250.7088, 941.3547
251.1909, 929.7618
251.6730, 924.5718
252.1551, 928.1268
252.6373, 933.5980
253.1194, 943.6642
253.6015, 952.3593
254.0836, 951.1301
254.5657, 935.1187
255.0478, 914.9694
255.5300, 909.9993
256.0121, 925.7907
256.4942, 935.5562
256.9763, 923.5903
257.4584, 907.2519
257.9406, 899.6853
258.4227, 903.8437
258.9048, 911.0462
259.3869, 912.1223
259.8690, 906.7823
260.3511, 901.9696
260.8333, 899.3627
261.3154, 897.3057
261.7975, 895.7448
262.2796, 894.3558
262.7617, 890.1016
263.2438, 879.0571
263.7260, 862.5236
264.2081, 848.1089
264.6902, 836.4484
265.1723, 827.4222
265.6544, 820.9010
266.1365, 816.5963
266.6187, 813.8655
267.1008, 815.0532
267.5829, 817.1335
268.0650, 811.9472
268.5471, 796.5234
269.0292, 782.9653
269.5114, 781.9801
269.9935, 788.4485
270.4756, 794.3318
270.9577, 797.2210
271.4398, 798.9692
271.9219, 801.4893
272.4041, 804.7991
272.8862, 808.7449
273.3683, 814.9790
273.8504, 820.8305
274.3325, 821.1117
274.8146, 812.4270
275.2968, 803.8970
275.7789, 802.1415
276.2610, 805.8474
276.7431, 809.1048
277.2252, 808.5772
277.7073, 808.5447
278.1895, 818.2626
278.6716, 840.8519
279.1537, 857.1093
279.6358, 855.1666
280.1179, 843.4642
280.6000, 836.0869
281.0822, 836.1531
281.5643, 840.3608
282.0464, 844.4557
282.5285, 847.9458
283.0106, 857.3560
283.4927, 880.3527
283.9749, 905.2030
284.4570, 921.3927
284.9391, 928.2055
285.4212, 930.7208
285.9033, 932.4196
286.3854, 933.2792
286.8676, 933.9943
287.3497, 929.0812
287.8318, 929.2633
288.3139, 944.5360
288.7960, 969.6416
289.2781, 990.4592
289.7603, 998.9988
290.2424, 997.6748
290.7245, 996.2035
291.2066, 996.1105
291.6887, 994.0298
292.1708, 986.1301
292.6530, 977.1419
293.1351, 974.6625
293.6172, 981.1721
294.0993, 989.9736
294.5814, 988.5613
295.0635, 966.1735
295.5457, 954.0842
296.0278, 961.6039
296.5099, 971.9630
296.9920, 972.2373
297.4741, 961.8366
297.9562, 949.6337
298.4384, 945.1830
298.9205, 950.1190
299.4026, 951.3980
299.8847, 944.2518
300.3668, 938.3196
300.8489, 938.2610
301.3311, 942.0130
301.8131, 944.1838
302.2953, 940.4568
302.7774, 933.1132
303.2595, 934.3875
303.7416, 951.7527
304.2237, 967.0201
304.7058, 975.6854
305.1880, 980.8936
305.6701, 986.4414
306.1522, 993.8000
306.6343, 1000.541
307.1164, 1001.748
307.5985, 995.3315
308.0807, 991.1602
308.5628, 993.3947
309.0449, 996.7494
309.5270, 998.3848
310.0091, 997.9746
310.4912, 996.5552
310.9734, 996.1477
311.4555, 996.2819
311.9376, 991.0495
312.4197, 976.5887
312.9018, 961.6235
313.3839, 951.3708
313.8661, 944.8281
314.3482, 939.7108
314.8303, 937.5587
315.3124, 935.0737
315.7945, 923.7532
316.2766, 901.2560
316.7588, 883.8794
317.2409, 884.4434
317.7230, 894.7059
318.2051, 901.1240
318.6872, 901.3524
319.1693, 898.8666
319.6515, 893.9317
320.1336, 887.7292
320.6157, 886.1425
321.0978, 892.6299
321.5799, 902.3022
322.0620, 907.3242
322.5442, 907.3162
323.0263, 906.7255
323.5084, 900.7350
323.9905, 897.4224
324.4726, 910.7604
324.9547, 943.0413
325.4369, 977.7361
325.9190, 998.5917
326.4011, 1003.867
326.8832, 1013.452
327.3653, 1029.627
327.8474, 1047.858
328.3296, 1065.318
328.8117, 1082.679
329.2938, 1101.959
329.7759, 1124.252
330.2580, 1149.733
330.7401, 1178.516
331.2223, 1218.170
331.7044, 1251.892
332.1865, 1273.552
332.6686, 1290.536
333.1507, 1310.127
333.6328, 1334.675
334.1150, 1362.994
334.5971, 1394.106
335.0792, 1430.061
335.5613, 1462.819
336.0434, 1494.969
336.5255, 1522.086
337.0077, 1538.016
337.4898, 1545.919
337.9719, 1556.279
338.4540, 1579.757
338.9361, 1613.426
339.4182, 1629.391
339.9004, 1611.452
340.3825, 1599.385
340.8646, 1606.098
341.3467, 1624.153
341.8288, 1645.843
342.3109, 1669.451
342.7931, 1690.415
343.2752, 1701.188
343.7573, 1700.718
344.2394, 1697.568
344.7215, 1694.633
345.2036, 1688.626
345.6858, 1676.406
346.1679, 1657.911
346.6500, 1637.288
347.1321, 1620.189
347.6142, 1602.971
348.0963, 1573.242
348.5785, 1526.319
349.0606, 1477.497
349.5427, 1440.745
350.0248, 1411.934
350.5069, 1379.002
350.9890, 1333.599
351.4712, 1288.092
351.9533, 1252.578
352.4354, 1225.906
352.9175, 1202.033
353.3996, 1178.499
353.8817, 1155.589
354.3639, 1133.931
354.8460, 1112.703
355.3281, 1094.091
355.8102, 1079.584
356.2923, 1067.536
356.7744, 1055.317
357.2566, 1042.552
357.7387, 1032.952
358.2208, 1031.391
358.7029, 1040.105
359.1850, 1044.419
359.6671, 1040.616
360.1493, 1036.786
360.6314, 1034.787
361.1135, 1035.669
361.5956, 1042.027
362.0777, 1056.155
362.5598, 1074.367
363.0420, 1082.496
363.5241, 1069.870
364.0062, 1064.327
364.4883, 1073.860
364.9704, 1088.033
365.4525, 1099.406
365.9347, 1105.885
366.4168, 1108.005
366.8989, 1104.468
367.3810, 1094.670
367.8631, 1089.143
368.3452, 1091.295
368.8274, 1094.309
369.3095, 1091.951
369.7916, 1087.617
370.2737, 1089.931
370.7558, 1106.861
371.2379, 1129.509
371.7201, 1141.556
372.2022, 1141.785
372.6843, 1143.126
373.1664, 1152.687
373.6485, 1165.351
374.1306, 1172.844
374.6128, 1173.386
375.0949, 1174.290
375.5770, 1176.238
376.0591, 1181.712
376.5412, 1197.783
377.0233, 1226.900
377.5055, 1258.790
377.9876, 1282.818
378.4697, 1297.874
378.9518, 1315.207
379.4339, 1340.266
379.9160, 1362.779
380.3982, 1375.862
380.8803, 1381.106
381.3624, 1383.157
381.8445, 1384.312
382.3266, 1384.793
382.8087, 1385.286
383.2909, 1386.402
383.7730, 1386.657
384.2551, 1392.683
384.7372, 1393.581
385.2193, 1379.041
385.7014, 1348.356
386.1836, 1309.062
386.6657, 1266.511
387.1478, 1220.138
387.6299, 1184.958
388.1120, 1172.819
388.5941, 1158.264
389.0763, 1135.063
389.5584, 1103.691
390.0405, 1063.586
390.5226, 1011.481
391.0047, 958.3868
391.4868, 923.2637
391.9690, 908.2502
392.4511, 892.1305
392.9332, 869.1360
393.4153, 843.2014
393.8974, 816.8788
394.3795, 790.2370
394.8617, 767.6168
395.3438, 754.9224
395.8259, 746.3266
396.3080, 730.8816
396.7901, 707.3022
397.2722, 683.7295
397.7544, 664.9421
398.2365, 651.1667
398.7186, 641.0855
399.2007, 637.9774
399.6828, 634.8958
400.1649, 627.6472
400.6471, 619.0228
401.1292, 614.6887
401.6113, 616.5181
402.0934, 619.5743
402.5755, 616.3146
403.0576, 604.0121
403.5398, 593.5003
404.0219, 583.7960
404.5040, 576.4012
404.9861, 572.5070
405.4682, 571.5541
405.9503, 572.7733
406.4325, 576.2091
406.9146, 580.2433
407.3967, 578.3845
407.8788, 566.4134
408.3609, 557.2391
408.8430, 554.7056
409.3252, 554.7559
409.8073, 555.6317
410.2894, 556.6441
410.7715, 554.9147
411.2536, 545.1553
411.7357, 529.6479
412.2179, 520.8868
412.7000, 521.2083
413.1821, 524.6589
413.6642, 527.7657
414.1463, 531.0641
414.6284, 536.0513
415.1106, 547.1059
415.5927, 554.9389
416.0748, 550.4248
416.5569, 536.8726
417.0390, 523.7546
417.5211, 513.7479
418.0033, 507.5126
418.4854, 506.9069
418.9675, 514.5533
419.4496, 518.8994
419.9317, 516.2546
420.4138, 512.8921
420.8960, 513.7279
421.3781, 517.7918
421.8602, 520.7801
422.3423, 519.7673
422.8244, 515.8531
423.3065, 513.8351
423.7887, 515.1163
424.2708, 516.1763
424.7529, 515.4723
425.2350, 515.1923
425.7171, 518.0788
426.1992, 524.0124
426.6814, 529.2885
427.1635, 529.7796
427.6456, 525.9443
428.1277, 523.0602
428.6098, 520.7947
429.0919, 520.1769
429.5741, 523.1922
430.0562, 527.7547
430.5383, 530.8033
431.0204, 531.5337
431.5025, 530.8043
431.9846, 529.0887
432.4668, 526.4628
432.9489, 522.4761
433.4310, 516.2399
433.9131, 511.2372
434.3952, 511.5634
434.8773, 517.5942
435.3595, 526.5456
435.8416, 545.8344
436.3237, 561.1927
436.8058, 561.4131
437.2879, 550.4680
437.7701, 538.9490
438.2522, 532.1771
438.7343, 528.7761
439.2164, 525.2928
439.6985, 520.9241
440.1806, 518.0034
440.6628, 516.2539
441.1449, 515.9851
441.6270, 518.0020
442.1091, 521.8241
442.5912, 525.8595
443.0733, 528.9461
443.5555, 531.2842
444.0376, 533.1634
444.5197, 533.5443
445.0018, 536.4133
445.4839, 546.4832
445.9660, 558.2217
446.4482, 565.8645
446.9303, 568.2332
447.4124, 570.0701
447.8945, 576.3384
448.3766, 583.7213
448.8587, 584.2087
449.3409, 576.3470
449.8230, 567.0594
450.3051, 561.1779
450.7872, 558.6614
451.2693, 557.7261
451.7514, 558.8486
452.2336, 560.8514
452.7157, 563.1650
453.1978, 566.1957
453.6799, 570.8968
454.1620, 577.4215
454.6441, 584.4916
455.1263, 591.0356
455.6084, 597.9215
456.0905, 599.3267
456.5726, 585.6145
457.0547, 576.2399
457.5368, 579.3174
458.0190, 590.1525
458.5011, 601.6953
458.9832, 611.5251
459.4653, 618.4266
459.9474, 619.2898
460.4295, 613.9937
460.9117, 610.7385
461.3938, 611.5137
461.8759, 614.2264
462.3580, 618.3351
462.8401, 623.2293
463.3222, 625.2869
463.8044, 619.7419
464.2865, 613.9283
464.7686, 616.3671
465.2507, 624.7791
465.7328, 629.8542
466.2149, 627.4741
466.6971, 619.8879
467.1792, 611.0966
467.6613, 598.3475
468.1434, 590.5579
468.6255, 590.2654
469.1076, 592.5988
469.5898, 596.8286
470.0719, 601.1603
470.5540, 601.5123
471.0361, 594.6584
471.5182, 583.8799
472.0003, 578.8478
472.4825, 581.2596
472.9646, 584.9009
473.4467, 590.1982
473.9288, 595.0781
474.4109, 598.0037
474.8930, 599.0089
475.3752, 599.4436
475.8573, 599.8197
476.3394, 600.2181
476.8215, 601.3577
477.3036, 603.2633
477.7857, 603.1183
478.2679, 598.4995
478.7500, 591.7750
479.2321, 588.8608
479.7142, 590.8821
480.1963, 593.1760
480.6784, 594.5902
481.1606, 596.0822
481.6427, 599.1831
482.1248, 603.5107
482.6069, 606.5974
483.0890, 606.3133
483.5711, 603.5818
484.0533, 603.7891
484.5354, 610.2192
485.0175, 614.1492
485.4996, 610.6245
485.9817, 607.0129
486.4638, 609.2775
486.9460, 617.9341
487.4281, 629.3920
487.9102, 643.7766
488.3923, 658.6872
488.8744, 665.8489
489.3565, 664.0963
489.8387, 660.6964
490.3208, 657.2102
490.8029, 655.5458
491.2850, 659.5218
491.7671, 671.1847
492.2492, 682.4532
492.7314, 687.8423
493.2135, 692.8907
493.6956, 706.9228
494.1777, 728.9714
494.6598, 747.0336
495.1419, 751.7217
495.6241, 744.6951
496.1062, 736.6747
496.5883, 726.4340
497.0704, 716.9705
497.5525, 709.1027
498.0346, 701.6879
498.5168, 693.4357
498.9989, 684.4397
499.4810, 676.3649
499.9631, 672.2905
500.4452, 670.1628
500.9273, 660.3998
501.4095, 640.1453
501.8916, 624.4287
502.3737, 621.8134
502.8558, 626.5143
503.3379, 629.5878
503.8200, 631.0553
504.3022, 630.0916
504.7843, 622.2193
505.2664, 614.1328
505.7485, 615.8290
506.2306, 626.5731
506.7127, 636.2482
507.1949, 638.3085
507.6770, 633.6747
508.1591, 626.0975
508.6412, 607.9364
509.1233, 598.3328
509.6054, 605.1566
510.0876, 615.1599
510.5697, 619.2408
511.0518, 616.9103
511.5339, 612.1479
512.0161, 606.5646
512.4982, 601.3975
512.9803, 599.9837
513.4624, 602.4811
513.9445, 608.2924
514.4266, 620.3839
514.9088, 632.9510
515.3909, 636.9475
515.8730, 631.3907
516.3551, 630.2114
516.8372, 642.0507
517.3193, 656.8281
517.8015, 666.8900
518.2836, 671.5504
518.7657, 669.6537
519.2478, 659.5629
519.7299, 647.1534
520.2120, 646.8854
520.6942, 666.3330
521.1763, 683.7772
521.6584, 699.5988
522.1405, 713.2908
522.6226, 724.4389
523.1047, 733.2699
523.5869, 739.3506
524.0690, 740.9142
524.5511, 743.1542
525.0332, 756.6336
525.5153, 781.2621
525.9974, 802.4579
526.4796, 816.0971
526.9617, 826.3839
527.4438, 835.8492
527.9259, 844.8674
528.4080, 858.2054
528.8901, 877.4902
529.3723, 900.3705
529.8544, 930.1135
530.3365, 961.6202
530.8186, 982.5332
531.3007, 989.1272
531.7828, 993.5580
532.2650, 1013.527
532.7471, 1052.338
533.2292, 1086.616
533.7113, 1114.466
534.1934, 1139.833
534.6755, 1160.981
535.1577, 1181.500
535.6398, 1206.869
536.1219, 1239.137
536.6040, 1272.735
537.0861, 1300.502
537.5682, 1325.300
538.0504, 1359.000
538.5325, 1404.511
539.0146, 1445.906
539.4967, 1471.599
539.9788, 1483.473
540.4609, 1491.214
540.9431, 1490.670
541.4252, 1492.249
541.9073, 1500.284
542.3894, 1509.925
542.8715, 1520.822
543.3536, 1529.964
543.8358, 1527.054
544.3179, 1501.805
544.8000, 1459.962
545.2821, 1426.074
545.7642, 1400.558
546.2463, 1382.097
546.7285, 1380.034
547.2106, 1377.836
547.6927, 1360.004
548.1748, 1327.625
548.6569, 1298.356
549.1390, 1282.014
549.6211, 1271.302
550.1032, 1257.633
550.5853, 1242.270
551.0674, 1232.279
551.5496, 1230.868
552.0317, 1233.586
552.5138, 1233.057
552.9959, 1227.412
553.4780, 1224.902
553.9601, 1230.419
554.4423, 1233.380
554.9244, 1226.315
555.4065, 1214.889
555.8886, 1208.526
556.3707, 1210.755
556.8528, 1215.974
557.3350, 1218.963
557.8171, 1219.464
558.2992, 1214.389
558.7813, 1201.720
559.2634, 1188.936
559.7455, 1180.947
560.2277, 1176.673
560.7098, 1172.469
561.1919, 1170.050
561.6740, 1164.624
562.1561, 1154.379
562.6382, 1140.585
563.1204, 1122.443
563.6025, 1101.368
564.0846, 1082.648
564.5667, 1070.144
565.0488, 1062.616
565.5309, 1055.725
566.0131, 1051.768
566.4952, 1042.640
566.9773, 1020.935
567.4594, 998.3372
567.9415, 983.7664
568.4236, 975.4555
568.9058, 963.8312
569.3879, 940.6736
569.8700, 916.1296
570.3521, 899.8668
570.8342, 890.7224
571.3163, 886.0199
571.7985, 885.3720
572.2806, 884.8051
572.7627, 879.9762
573.2448, 870.9410
573.7269, 856.7011
574.2090, 826.7050
574.6912, 804.1625
575.1733, 801.0283
575.6554, 805.1372
576.1375, 802.6257
576.6196, 790.5743
577.1017, 776.2078
577.5839, 765.2640
578.0660, 757.2443
578.5481, 750.8943
579.0302, 746.4000
579.5123, 742.0525
579.9944, 737.9431
580.4766, 732.7871
580.9587, 723.7280
581.4408, 710.2382
581.9229, 696.0569
582.4050, 674.8280
582.8871, 659.3768
583.3693, 666.3672
583.8514, 684.9653
584.3335, 689.9081
584.8156, 669.4924
585.2977, 638.4197
585.7798, 619.2440
586.2620, 612.7961
586.7441, 609.6127
587.2262, 611.1316
587.7083, 612.7379
588.1904, 614.2209
588.6725, 613.4365
589.1547, 605.5617
589.6368, 586.9200
590.1189, 569.1880
590.6010, 557.5056
591.0831, 550.1194
591.5652, 546.7060
592.0474, 546.0604
592.5295, 542.8813
593.0116, 533.0162
593.4937, 520.0532
593.9758, 516.0079
594.4579, 527.2865
594.9401, 532.2808
595.4222, 523.3468
595.9043, 513.0093
596.3864, 508.3972
596.8685, 507.3243
597.3506, 503.1181
597.8328, 491.2361
598.3149, 479.6003
598.7970, 476.1371
599.2791, 478.4199
599.7612, 481.2913
600.2433, 483.7790
600.7255, 482.7047
601.2076, 474.0908
601.6897, 459.5923
602.1718, 452.8080
602.6539, 461.9999
603.1360, 467.8019
603.6182, 465.4901
604.1003, 461.9160
604.5824, 463.8149
605.0645, 469.7442
605.5466, 471.8344
606.0287, 463.7383
606.5109, 451.8696
606.9930, 446.4111
607.4751, 446.4824
607.9572, 445.2872
608.4393, 441.2126
608.9214, 434.8679
609.4036, 425.1301
609.8857, 412.0040
610.3678, 408.5013
610.8499, 425.7734
611.3320, 437.6090
611.8141, 432.7423
612.2963, 422.8376
612.7784, 419.0124
613.2605, 422.7790
613.7426, 430.3122
614.2247, 441.3498
614.7068, 451.9402
615.1890, 450.0964
615.6711, 435.1516
616.1532, 422.5797
616.6353, 416.4708
617.1174, 415.0443
617.5995, 417.9910
618.0817, 425.4262
618.5638, 429.2077
619.0459, 427.4352
619.5280, 423.8052
620.0101, 416.7195
620.4922, 410.0724
620.9744, 409.4690
621.4565, 415.3571
621.9386, 422.7914
622.4207, 428.1279
622.9028, 431.1194
623.3849, 429.4279
623.8671, 421.7000
624.3492, 417.6216
624.8313, 422.6830
625.3134, 429.6950
625.7955, 429.8029
626.2776, 423.4563
626.7598, 416.4405
627.2419, 406.0469
627.7240, 398.9500
628.2061, 398.4723
628.6882, 403.5128
629.1703, 414.9324
629.6525, 431.5079
630.1346, 445.7130
630.6167, 449.8271
631.0988, 445.2459
631.5809, 438.5122
632.0630, 427.6327
632.5452, 422.8953
633.0273, 432.9756
633.5094, 445.1399
633.9915, 442.9033
634.4736, 427.2298
634.9557, 417.2477
635.4379, 419.9341
635.9200, 425.9256
636.4021, 432.5594
636.8842, 438.1074
637.3663, 438.9220
637.8484, 434.8254
638.3306, 431.1945
638.8127, 433.8039
639.2948, 441.4698
639.7769, 446.9432
640.2590, 449.9305
640.7411, 451.8495
