##NAMES=Aegirine
##RRUFFID=R061093
##IDEAL CHEMISTRY=NaFe^3+^Si_2_O_6_
##LOCALITY=Lacotal Breccia, Alto Chapere, Cochabamba, Bolivia
##OWNER=Michael Scott
##SOURCE=Michael Scott
##DESCRIPTION=Aggregates of light green prismatic crystals associated with dark rutile
##STATUS=The identification of this mineral is confirmed by single-crystal X-ray diffraction and chemical analysis.
##URL=rruff.info/R061093
##MEASURED CHEMISTRY=Na_1.00_(Fe^3+^_0.97_Al_0.02_Cr_0.01_)_Σ=1_Si_2.00_O_6_ ; = light phase, while the darker phase is (Na_0.96_Ca_0.02_[box]_0.02_)_Σ=1_(Fe^3+^_0.89_Al_0.11_)_Σ=1_Si_2.00_O_6_
141.3961, 2756.532
141.8783, 2885.607
142.3604, 3024.747
142.8425, 3159.396
143.3246, 3287.312
143.8067, 3412.366
144.2888, 3539.268
144.7710, 3668.566
145.2531, 3795.752
145.7352, 3911.026
146.2173, 3973.860
146.6994, 3986.007
147.1815, 3995.756
147.6637, 3989.772
148.1458, 3939.438
148.6279, 3849.991
149.1100, 3779.999
149.5921, 3751.395
150.0742, 3747.507
150.5564, 3743.270
151.0385, 3734.794
151.5206, 3722.430
152.0027, 3698.735
152.4848, 3663.895
152.9669, 3645.870
153.4491, 3667.391
153.9312, 3712.134
154.4133, 3738.961
154.8954, 3731.285
155.3775, 3718.969
155.8596, 3735.959
156.3418, 3779.688
156.8239, 3821.320
157.3060, 3843.792
157.7881, 3851.744
158.2702, 3861.758
158.7523, 3873.572
159.2345, 3893.009
159.7166, 3929.051
160.1987, 3980.682
160.6808, 4026.485
161.1629, 4058.295
161.6451, 4075.806
162.1272, 4074.162
162.6093, 4053.240
163.0914, 4011.754
163.5735, 3941.642
164.0556, 3844.956
164.5378, 3761.802
165.0199, 3727.193
165.5020, 3736.612
165.9841, 3743.101
166.4662, 3739.089
166.9483, 3730.409
167.4305, 3716.535
167.9126, 3698.567
168.3947, 3690.216
168.8768, 3700.709
169.3589, 3729.831
169.8410, 3777.646
170.3232, 3857.155
170.8053, 3945.082
171.2874, 4016.153
171.7695, 4071.038
172.2516, 4148.521
172.7337, 4287.332
173.2159, 4489.465
173.6980, 4708.074
174.1801, 4946.614
174.6622, 5193.700
175.1443, 5438.112
175.6264, 5680.427
176.1085, 5933.206
176.5907, 6206.470
177.0728, 6503.017
177.5549, 6812.590
178.0370, 7134.701
178.5191, 7470.296
179.0012, 7842.160
179.4834, 8244.876
179.9655, 8612.816
180.4476, 8917.006
180.9297, 9174.720
181.4118, 9234.709
181.8939, 8955.292
182.3761, 8549.271
182.8582, 8052.450
183.3403, 7492.883
183.8224, 6970.290
184.3045, 6582.078
184.7866, 6336.023
185.2688, 6181.830
185.7509, 6157.923
186.2330, 6201.242
186.7151, 6303.058
187.1972, 6455.310
187.6793, 6631.274
188.1615, 6807.996
188.6436, 6984.895
189.1257, 7165.771
189.6078, 7339.744
190.0899, 7526.972
190.5720, 7764.738
191.0542, 8039.805
191.5363, 8284.499
192.0184, 8440.866
192.5005, 8513.359
192.9826, 8474.488
193.4647, 8265.854
193.9469, 7985.070
194.4290, 7641.492
194.9111, 7250.306
195.3932, 6852.341
195.8753, 6476.314
196.3574, 6116.179
196.8396, 5805.410
197.3217, 5567.704
197.8038, 5363.041
198.2859, 5177.797
198.7680, 5011.506
199.2501, 4874.456
199.7323, 4781.463
200.2144, 4736.278
200.6965, 4698.702
201.1786, 4672.595
201.6607, 4651.382
202.1428, 4626.188
202.6250, 4602.035
203.1071, 4594.302
203.5892, 4616.297
204.0713, 4668.842
204.5534, 4739.782
205.0355, 4829.188
205.5177, 4939.651
205.9998, 5074.976
206.4819, 5233.164
206.9640, 5407.809
207.4461, 5596.221
207.9282, 5798.331
208.4104, 6003.066
208.8925, 6209.792
209.3746, 6419.962
209.8567, 6638.818
210.3388, 6860.557
210.8209, 7075.576
211.3030, 7277.708
211.7852, 7465.938
212.2673, 7647.342
212.7494, 7880.495
213.2315, 8030.000
213.7136, 8061.141
214.1957, 7981.996
214.6779, 7805.200
215.1600, 7527.029
215.6421, 7159.554
216.1242, 6781.319
216.6063, 6361.044
217.0884, 5975.306
217.5706, 5641.924
218.0527, 5353.513
218.5348, 5099.992
219.0169, 4876.322
219.4990, 4681.894
219.9811, 4515.379
220.4633, 4382.186
220.9454, 4272.055
221.4275, 4186.819
221.9096, 4117.514
222.3917, 4053.437
222.8738, 3989.698
223.3560, 3927.473
223.8381, 3868.960
224.3202, 3811.305
224.8023, 3764.186
225.2844, 3739.770
225.7665, 3721.495
226.2487, 3690.261
226.7308, 3636.690
227.2129, 3574.331
227.6950, 3529.963
228.1771, 3508.495
228.6592, 3492.766
229.1414, 3479.146
229.6235, 3468.544
230.1056, 3464.624
230.5877, 3469.271
231.0698, 3472.639
231.5519, 3456.030
232.0341, 3411.103
232.5162, 3379.320
232.9983, 3389.669
233.4804, 3404.683
233.9625, 3393.480
234.4446, 3349.636
234.9268, 3304.166
235.4089, 3296.676
235.8910, 3332.056
236.3731, 3360.730
236.8552, 3370.610
237.3373, 3372.780
237.8195, 3373.288
238.3016, 3372.836
238.7837, 3370.310
239.2658, 3362.002
239.7479, 3348.193
240.2300, 3342.320
240.7122, 3353.719
241.1943, 3365.827
241.6764, 3365.363
242.1585, 3353.932
242.6406, 3344.484
243.1227, 3345.519
243.6049, 3356.047
244.0870, 3371.989
244.5691, 3398.337
245.0512, 3421.922
245.5333, 3433.495
246.0154, 3435.187
246.4975, 3433.830
246.9797, 3429.938
247.4618, 3425.649
247.9439, 3426.078
248.4260, 3430.851
248.9081, 3441.814
249.3902, 3469.469
249.8724, 3504.182
250.3545, 3524.567
250.8366, 3507.472
251.3187, 3478.233
251.8008, 3476.906
252.2829, 3506.600
252.7651, 3546.971
253.2472, 3597.424
253.7293, 3648.359
254.2114, 3680.278
254.6935, 3671.497
255.1756, 3660.143
255.6578, 3690.040
256.1399, 3760.504
256.6220, 3826.628
257.1041, 3861.011
257.5862, 3879.776
258.0684, 3917.644
258.5505, 3984.499
259.0326, 4055.557
259.5147, 4112.874
259.9968, 4159.991
260.4789, 4211.711
260.9611, 4276.214
261.4432, 4346.057
261.9253, 4407.314
262.4074, 4456.386
262.8895, 4508.151
263.3716, 4574.612
263.8537, 4647.197
264.3358, 4711.217
264.8180, 4763.675
265.3001, 4801.598
265.7822, 4814.354
266.2643, 4797.219
266.7464, 4786.883
267.2285, 4789.984
267.7107, 4803.562
268.1928, 4822.968
268.6749, 4847.252
269.1570, 4881.911
269.6391, 4934.051
270.1212, 5007.966
270.6034, 5082.832
271.0855, 5165.734
271.5676, 5244.599
272.0497, 5307.321
272.5318, 5355.040
273.0139, 5398.338
273.4961, 5445.105
273.9782, 5495.116
274.4603, 5550.812
274.9424, 5634.866
275.4245, 5700.968
275.9066, 5727.169
276.3888, 5719.672
276.8709, 5695.908
277.3530, 5666.085
277.8351, 5628.938
278.3172, 5576.094
278.7993, 5498.046
279.2815, 5415.671
279.7636, 5326.428
280.2457, 5236.342
280.7278, 5153.073
281.2099, 5080.004
281.6920, 5012.688
282.1742, 4940.299
282.6563, 4853.855
283.1384, 4776.453
283.6205, 4710.448
284.1026, 4652.033
284.5847, 4597.292
285.0669, 4545.842
285.5490, 4499.565
286.0311, 4460.433
286.5132, 4424.750
286.9953, 4407.708
287.4774, 4422.337
287.9596, 4443.042
288.4417, 4457.471
288.9238, 4465.550
289.4059, 4474.176
289.8880, 4490.778
290.3701, 4515.417
290.8523, 4533.776
291.3344, 4537.667
291.8165, 4544.039
292.2986, 4562.472
292.7807, 4587.274
293.2628, 4608.782
293.7450, 4624.029
294.2271, 4629.915
294.7092, 4613.883
295.1913, 4565.072
295.6734, 4517.787
296.1555, 4492.721
296.6377, 4473.141
297.1198, 4438.068
297.6019, 4376.916
298.0840, 4309.798
298.5661, 4261.872
299.0482, 4234.212
299.5304, 4215.569
300.0125, 4200.599
300.4946, 4195.856
300.9767, 4210.834
301.4588, 4248.604
301.9409, 4286.465
302.4231, 4305.980
302.9052, 4311.945
303.3873, 4321.155
303.8694, 4332.435
304.3515, 4356.457
304.8336, 4414.786
305.3158, 4503.263
305.7979, 4577.276
306.2800, 4602.410
306.7621, 4613.420
307.2442, 4666.640
307.7263, 4769.751
308.2085, 4869.668
308.6906, 4922.781
309.1727, 4930.785
309.6548, 4939.356
310.1369, 4955.103
310.6190, 4966.967
311.1012, 4970.684
311.5833, 4965.157
312.0654, 4945.383
312.5475, 4905.728
313.0296, 4852.433
313.5117, 4812.274
313.9939, 4792.612
314.4760, 4774.368
314.9581, 4749.033
315.4402, 4724.367
315.9223, 4715.098
316.4044, 4726.152
316.8866, 4741.935
317.3687, 4734.023
317.8508, 4676.382
318.3329, 4647.007
318.8150, 4658.192
319.2971, 4686.020
319.7793, 4715.702
320.2614, 4745.040
320.7435, 4779.641
321.2256, 4825.690
321.7077, 4884.638
322.1898, 4941.087
322.6720, 4982.433
323.1541, 5034.881
323.6362, 5113.021
324.1183, 5207.540
324.6004, 5299.619
325.0826, 5375.149
325.5647, 5444.303
326.0468, 5540.956
326.5289, 5671.000
327.0110, 5819.311
327.4931, 5995.201
327.9753, 6178.805
328.4574, 6347.398
328.9395, 6493.887
329.4216, 6638.226
329.9037, 6799.896
330.3858, 6978.121
330.8680, 7186.052
331.3501, 7426.689
331.8322, 7701.827
332.3143, 8017.521
332.7964, 8371.276
333.2785, 8729.019
333.7606, 9067.554
334.2427, 9395.628
334.7249, 9734.494
335.2070, 10085.56
335.6891, 10452.99
336.1712, 10852.73
336.6533, 11274.69
337.1354, 11690.24
337.6176, 12106.36
338.0997, 12505.13
338.5818, 12882.50
339.0639, 13234.83
339.5460, 13525.62
340.0281, 13736.12
340.5103, 13873.84
340.9924, 13962.63
341.4745, 14009.16
341.9566, 14007.25
342.4387, 13953.64
342.9208, 13851.13
343.4030, 13700.24
343.8851, 13500.41
344.3672, 13263.15
344.8493, 13004.24
345.3314, 12722.07
345.8135, 12420.38
346.2957, 12110.48
346.7778, 11773.78
347.2599, 11394.86
347.7420, 10978.43
348.2241, 10539.69
348.7062, 10087.09
349.1884, 9622.550
349.6705, 9184.702
350.1526, 8780.375
350.6347, 8400.540
351.1168, 8031.121
351.5989, 7689.369
352.0811, 7397.809
352.5632, 7166.046
353.0453, 6981.517
353.5274, 6823.504
354.0095, 6692.857
354.4916, 6588.336
354.9738, 6521.813
355.4559, 6474.994
355.9380, 6433.747
356.4201, 6399.168
356.9022, 6389.356
357.3843, 6422.969
357.8665, 6494.057
358.3486, 6577.617
358.8307, 6670.981
359.3128, 6778.633
359.7949, 6908.109
360.2770, 7054.446
360.7592, 7210.651
361.2413, 7370.996
361.7234, 7543.550
362.2055, 7746.143
362.6876, 7974.761
363.1697, 8187.869
363.6519, 8361.094
364.1340, 8513.252
364.6161, 8689.784
365.0982, 8905.426
365.5803, 9109.991
366.0624, 9300.173
366.5446, 9467.242
367.0267, 9607.892
367.5088, 9719.528
367.9909, 9787.004
368.4730, 9789.932
368.9551, 9719.888
369.4373, 9618.425
369.9194, 9465.780
370.4015, 9305.835
370.8836, 9146.338
371.3657, 8997.151
371.8478, 8874.716
372.3300, 8789.121
372.8121, 8735.715
373.2942, 8692.520
373.7763, 8633.519
374.2584, 8631.676
374.7405, 8703.036
375.2227, 8823.734
375.7048, 8978.992
376.1869, 9163.697
376.6690, 9372.141
377.1511, 9589.735
377.6332, 9814.216
378.1154, 10099.77
378.5975, 10489.42
379.0796, 10897.95
379.5617, 11269.06
380.0438, 11615.64
380.5259, 11981.06
381.0081, 12402.36
381.4902, 12842.75
381.9723, 13257.21
382.4544, 13645.12
382.9365, 14000.07
383.4186, 14323.90
383.9008, 14605.25
384.3829, 14838.11
384.8650, 15039.53
385.3471, 15154.94
385.8292, 15145.48
386.3113, 15039.01
386.7935, 14885.16
387.2756, 14695.90
387.7577, 14447.99
388.2398, 14107.57
388.7219, 13649.74
389.2040, 13203.25
389.6862, 12784.48
390.1683, 12359.31
390.6504, 11904.42
391.1325, 11428.04
391.6146, 10961.71
392.0967, 10520.98
392.5789, 10102.30
393.0610, 9689.333
393.5431, 9268.354
394.0252, 8875.079
394.5073, 8517.724
394.9894, 8185.099
395.4716, 7866.676
395.9537, 7561.255
396.4358, 7273.034
396.9179, 7005.385
397.4000, 6758.694
397.8821, 6526.461
398.3643, 6306.493
398.8464, 6105.431
399.3285, 5933.530
399.8106, 5779.312
400.2927, 5616.424
400.7748, 5422.548
401.2570, 5229.891
401.7391, 5076.340
402.2212, 4959.890
402.7033, 4854.712
403.1854, 4753.333
403.6675, 4656.077
404.1497, 4566.018
404.6317, 4484.652
405.1139, 4400.226
405.5960, 4298.029
406.0781, 4197.608
406.5602, 4121.972
407.0423, 4073.186
407.5244, 4035.928
408.0066, 3998.809
408.4887, 3961.828
408.9708, 3919.456
409.4529, 3861.072
409.9350, 3809.942
410.4171, 3773.605
410.8993, 3747.673
411.3814, 3729.063
411.8635, 3716.189
412.3456, 3701.941
412.8277, 3670.851
413.3098, 3613.891
413.7920, 3572.434
414.2741, 3560.930
414.7562, 3556.771
415.2383, 3553.263
415.7204, 3548.657
416.2025, 3540.433
416.6847, 3526.413
417.1668, 3508.134
417.6489, 3486.076
418.1310, 3458.225
418.6131, 3439.531
419.0952, 3444.570
419.5774, 3459.088
420.0595, 3457.475
420.5416, 3432.930
421.0237, 3409.292
421.5058, 3401.726
421.9879, 3401.329
422.4701, 3390.404
422.9522, 3365.289
423.4343, 3341.632
423.9164, 3336.381
424.3985, 3351.981
424.8806, 3359.437
425.3628, 3355.419
425.8449, 3347.893
426.3270, 3335.726
426.8091, 3323.065
427.2912, 3317.587
427.7733, 3322.923
428.2555, 3332.820
428.7376, 3334.079
429.2197, 3321.715
429.7018, 3313.371
430.1839, 3308.407
430.6660, 3309.145
431.1482, 3323.450
431.6303, 3346.525
432.1124, 3360.697
432.5945, 3346.662
433.0766, 3317.982
433.5587, 3314.120
434.0409, 3341.901
434.5230, 3361.389
435.0051, 3343.703
435.4872, 3312.344
435.9693, 3305.741
436.4514, 3334.065
436.9336, 3362.045
437.4157, 3372.609
437.8978, 3371.715
438.3799, 3369.067
438.8620, 3366.482
439.3441, 3360.696
439.8263, 3346.469
440.3084, 3322.826
440.7905, 3313.947
441.2726, 3337.951
441.7547, 3354.271
442.2368, 3336.089
442.7190, 3305.019
443.2011, 3295.938
443.6832, 3322.275
444.1653, 3366.184
444.6474, 3401.233
445.1295, 3431.298
445.6117, 3438.088
446.0938, 3396.241
446.5759, 3352.142
447.0580, 3324.293
447.5401, 3311.665
448.0222, 3308.122
448.5044, 3314.581
448.9865, 3324.646
449.4686, 3327.534
449.9507, 3323.006
450.4328, 3315.256
450.9149, 3302.587
451.3971, 3290.574
451.8792, 3287.988
452.3613, 3295.558
452.8434, 3307.010
453.3255, 3324.126
453.8076, 3342.070
454.2898, 3356.249
454.7719, 3366.103
455.2540, 3371.681
455.7361, 3371.569
456.2182, 3367.716
456.7003, 3374.741
457.1825, 3412.932
457.6646, 3437.351
458.1467, 3429.866
458.6288, 3414.239
459.1109, 3414.048
459.5930, 3433.696
460.0752, 3460.116
460.5573, 3481.767
461.0394, 3498.578
461.5215, 3508.026
462.0036, 3506.865
462.4857, 3503.857
462.9679, 3500.952
463.4500, 3499.738
463.9321, 3504.628
464.4142, 3521.962
464.8963, 3533.976
465.3784, 3520.040
465.8606, 3488.678
466.3427, 3467.432
466.8248, 3464.255
467.3069, 3465.799
467.7890, 3455.972
468.2711, 3432.052
468.7533, 3419.867
469.2354, 3432.647
469.7175, 3443.503
470.1996, 3437.547
470.6817, 3420.666
471.1638, 3405.872
471.6460, 3398.873
472.1281, 3393.836
472.6102, 3377.380
473.0923, 3340.892
473.5744, 3318.854
474.0565, 3324.212
474.5387, 3334.826
475.0208, 3343.362
475.5029, 3349.109
475.9850, 3352.031
476.4671, 3350.164
476.9492, 3347.483
477.4313, 3351.322
477.9135, 3361.591
478.3956, 3370.590
478.8777, 3376.553
479.3598, 3378.899
479.8419, 3373.553
480.3240, 3358.267
480.8062, 3353.134
481.2883, 3367.523
481.7704, 3389.468
482.2525, 3409.498
482.7346, 3427.883
483.2167, 3451.194
483.6989, 3484.413
484.1810, 3521.523
484.6631, 3539.688
485.1452, 3509.675
485.6273, 3513.183
486.1094, 3583.045
486.5916, 3661.932
487.0737, 3710.695
487.5558, 3729.639
488.0379, 3743.428
488.5200, 3761.766
489.0021, 3790.469
489.4843, 3852.682
489.9664, 3955.250
490.4485, 4048.502
490.9306, 4102.833
491.4127, 4142.734
491.8948, 4212.045
492.3770, 4319.500
492.8591, 4417.638
493.3412, 4473.964
493.8233, 4522.645
494.3054, 4606.909
494.7875, 4725.909
495.2697, 4845.093
495.7518, 4941.703
496.2339, 5018.247
496.7160, 5087.506
497.1981, 5168.238
497.6802, 5212.912
498.1624, 5205.376
498.6445, 5171.076
499.1266, 5124.915
499.6087, 5071.286
500.0908, 5013.398
500.5729, 4957.985
501.0551, 4900.273
501.5372, 4815.925
502.0193, 4697.172
502.5014, 4586.427
502.9835, 4504.301
503.4656, 4440.925
503.9478, 4380.619
504.4299, 4325.162
504.9120, 4265.057
505.3941, 4185.846
505.8762, 4106.395
506.3583, 4050.273
506.8405, 4018.354
507.3226, 3997.740
507.8047, 3980.725
508.2868, 3965.776
508.7689, 3944.447
509.2510, 3904.342
509.7332, 3875.847
510.2153, 3868.033
510.6974, 3867.737
511.1795, 3864.744
511.6616, 3858.152
512.1437, 3853.087
512.6259, 3853.120
513.1080, 3857.868
513.5901, 3867.635
514.0722, 3883.802
514.5543, 3896.644
515.0364, 3897.972
515.5186, 3896.155
516.0007, 3906.796
516.4828, 3934.189
516.9649, 3956.108
517.4470, 3960.066
517.9291, 3959.010
518.4113, 3962.745
518.8934, 3973.511
519.3755, 3994.387
519.8576, 4027.938
520.3397, 4072.119
520.8218, 4119.358
521.3040, 4168.068
521.7861, 4222.951
522.2682, 4289.504
522.7503, 4357.276
523.2324, 4416.400
523.7145, 4468.994
524.1967, 4527.126
524.6788, 4595.889
525.1609, 4676.313
525.6430, 4774.793
526.1251, 4891.276
526.6072, 5004.961
527.0894, 5106.824
527.5715, 5204.412
528.0536, 5309.238
528.5357, 5419.890
529.0178, 5543.104
529.4999, 5680.552
529.9821, 5830.943
530.4642, 5989.636
530.9463, 6159.786
531.4284, 6349.887
531.9105, 6563.161
532.3926, 6799.922
532.8748, 7059.644
533.3569, 7344.401
533.8390, 7645.459
534.3211, 7965.762
534.8032, 8300.109
535.2853, 8630.148
535.7675, 8970.380
536.2496, 9359.902
536.7317, 9827.564
537.2138, 10332.46
537.6959, 10836.22
538.1780, 11338.49
538.6602, 11833.59
539.1423, 12316.93
539.6244, 12799.46
540.1065, 13303.66
540.5886, 13842.07
541.0707, 14289.54
541.5529, 14655.88
542.0350, 14929.88
542.5171, 15114.13
542.9992, 15200.36
543.4813, 15181.89
543.9634, 15055.73
544.4456, 14816.46
544.9277, 14432.62
545.4098, 13907.27
545.8919, 13375.98
546.3740, 12843.62
546.8561, 12299.87
547.3383, 11720.25
547.8204, 11132.49
548.3025, 10589.64
548.7846, 10097.00
549.2667, 9647.769
549.7488, 9243.845
550.2310, 8875.768
550.7131, 8538.250
551.1952, 8228.190
551.6773, 7943.546
552.1594, 7682.488
552.6415, 7445.349
553.1237, 7237.201
553.6058, 7068.856
554.0879, 6914.423
554.5700, 6768.163
555.0521, 6635.905
555.5342, 6523.173
556.0164, 6429.005
556.4985, 6345.036
556.9806, 6263.080
557.4627, 6190.246
557.9448, 6146.766
558.4269, 6129.933
558.9091, 6099.709
559.3912, 6039.336
559.8733, 5963.295
560.3554, 5891.288
560.8375, 5823.521
561.3196, 5757.721
561.8018, 5705.786
562.2839, 5643.593
562.7660, 5554.070
563.2481, 5446.242
563.7302, 5334.184
564.2123, 5223.135
564.6945, 5116.621
565.1766, 5023.425
565.6587, 4943.479
566.1408, 4849.755
566.6229, 4729.081
567.1050, 4616.216
567.5872, 4532.094
568.0693, 4470.377
568.5514, 4425.247
569.0335, 4407.182
569.5156, 4382.584
569.9977, 4329.798
570.4799, 4264.361
570.9620, 4204.502
571.4441, 4153.489
571.9262, 4110.414
572.4083, 4074.672
572.8904, 4045.718
573.3726, 4020.667
573.8547, 4005.600
574.3368, 3983.004
574.8189, 3940.969
575.3010, 3898.744
575.7831, 3868.858
576.2653, 3851.235
576.7474, 3839.153
577.2295, 3834.707
577.7116, 3829.737
578.1937, 3808.825
578.6758, 3776.425
579.1580, 3756.956
579.6401, 3760.040
580.1222, 3770.998
580.6042, 3771.188
581.0864, 3758.985
581.5685, 3745.250
582.0506, 3726.432
582.5327, 3710.300
583.0148, 3705.187
583.4969, 3701.656
583.9791, 3684.513
584.4612, 3650.366
584.9433, 3617.195
585.4254, 3606.773
585.9075, 3612.934
586.3896, 3608.205
586.8718, 3589.867
587.3539, 3570.322
587.8360, 3553.200
588.3181, 3540.757
588.8002, 3540.127
589.2823, 3558.418
589.7645, 3567.639
590.2466, 3558.095
590.7287, 3542.340
591.2108, 3526.998
591.6929, 3513.547
592.1750, 3501.515
592.6572, 3490.263
593.1393, 3483.589
593.6214, 3491.591
594.1035, 3516.416
594.5856, 3533.863
595.0677, 3539.621
595.5499, 3540.190
596.0320, 3537.372
596.5141, 3532.880
596.9962, 3531.306
597.4783, 3538.726
597.9604, 3540.661
598.4426, 3524.092
598.9247, 3501.257
599.4068, 3489.343
599.8889, 3489.730
600.3710, 3491.856
600.8531, 3487.239
601.3353, 3477.777
601.8174, 3472.041
602.2995, 3471.491
602.7816, 3471.218
603.2637, 3470.844
603.7458, 3470.083
604.2280, 3468.817
604.7101, 3467.016
605.1922, 3464.545
605.6743, 3462.538
606.1564, 3458.765
606.6385, 3447.637
607.1207, 3433.648
607.6028, 3430.434
608.0849, 3441.459
608.5670, 3451.011
609.0491, 3439.898
609.5313, 3407.919
610.0134, 3393.709
610.4955, 3415.925
610.9776, 3428.679
611.4597, 3412.242
611.9418, 3389.848
612.4240, 3383.816
612.9061, 3395.766
613.3882, 3409.029
613.8703, 3419.343
614.3524, 3422.380
614.8345, 3405.315
615.3167, 3373.305
615.7988, 3353.252
616.2809, 3356.070
616.7630, 3370.246
617.2451, 3380.599
617.7272, 3388.074
618.2094, 3386.391
618.6915, 3363.205
619.1736, 3345.214
619.6557, 3340.428
620.1378, 3344.496
620.6199, 3355.164
621.1021, 3371.399
621.5842, 3382.326
622.0663, 3377.789
622.5484, 3362.685
623.0305, 3341.430
623.5126, 3315.510
623.9948, 3304.724
624.4769, 3321.742
624.9590, 3350.036
625.4411, 3358.771
625.9232, 3340.739
626.4053, 3323.665
626.8875, 3304.039
627.3696, 3288.965
627.8517, 3279.907
628.3338, 3277.681
628.8159, 3286.040
629.2980, 3306.438
629.7802, 3325.440
630.2623, 3329.419
630.7444, 3322.439
631.2265, 3313.315
631.7086, 3302.625
632.1907, 3296.061
632.6729, 3296.662
633.1550, 3303.443
