##NAMES=Aegirine
##RRUFFID=R070125
##IDEAL CHEMISTRY=NaFe^3+^Si_2_O_6_
##LOCALITY=Ice River Alkaline Complex, Golden, British Columbia, Canada
##OWNER=RRUFF
##SOURCE=Mark Mauthner
##DESCRIPTION=Fragmented prismatic dark gray crystals associated with white microcline
##STATUS=The identification of this mineral is confirmed by single-crystal X-ray diffraction and chemical analysis.
##URL=rruff.info/R070125
##MEASURED CHEMISTRY=Na_1.00_(Fe^3+^_0.91_Al_0.07_Mg_0.01_Ti_0.01_)_Î£=1_Si_2.00_O_6_
126.5579, 285.7425
127.0400, 302.1834
127.5222, 321.4763
128.0043, 342.6547
128.4864, 363.7517
128.9685, 384.8371
129.4506, 405.4604
129.9328, 425.2109
130.4149, 444.1253
130.8970, 462.8336
131.3791, 482.7665
131.8612, 503.4311
132.3433, 520.0849
132.8255, 531.5871
133.3076, 539.2283
133.7897, 546.6916
134.2718, 554.2916
134.7539, 560.1563
135.2360, 563.5958
135.7182, 564.8621
136.2003, 560.0626
136.6824, 545.0793
137.1645, 521.1915
137.6466, 508.2742
138.1287, 508.9927
138.6109, 515.8558
139.0930, 519.3724
139.5751, 518.9631
140.0572, 516.9957
140.5393, 513.7946
141.0214, 508.7303
141.5036, 504.7615
141.9857, 500.2500
142.4678, 497.5824
142.9499, 503.3167
143.4320, 522.9914
143.9141, 542.5366
144.3963, 554.7745
144.8784, 554.6047
145.3605, 556.7790
145.8426, 561.8989
146.3247, 569.8077
146.8068, 580.0220
147.2890, 594.0558
147.7711, 609.1478
148.2532, 623.5323
148.7353, 636.9577
149.2174, 649.9590
149.6995, 661.6995
150.1817, 671.9205
150.6638, 684.6760
151.1459, 703.4526
151.6280, 723.3648
152.1101, 739.7796
152.5922, 748.7650
153.0744, 757.5980
153.5565, 767.3363
154.0386, 777.1035
154.5207, 790.9532
155.0028, 812.9167
155.4849, 838.7925
155.9671, 861.9235
156.4492, 878.9899
156.9313, 894.5726
157.4134, 910.1213
157.8955, 924.5188
158.3777, 941.6986
158.8598, 963.4493
159.3419, 989.0363
159.8240, 1015.827
160.3061, 1052.447
160.7882, 1084.756
161.2704, 1103.220
161.7525, 1098.593
162.2346, 1087.260
162.7167, 1072.609
163.1988, 1055.188
163.6809, 1040.447
164.1631, 1032.616
164.6452, 1027.985
165.1273, 1022.766
165.6094, 1011.640
166.0915, 1002.584
166.5736, 1001.219
167.0558, 1007.781
167.5379, 1016.529
168.0200, 1023.463
168.5021, 1030.262
168.9842, 1039.442
169.4663, 1050.608
169.9485, 1065.458
170.4306, 1086.506
170.9127, 1114.513
171.3948, 1144.806
171.8769, 1171.532
172.3590, 1197.112
172.8412, 1227.336
173.3233, 1265.525
173.8054, 1309.807
174.2875, 1358.313
174.7696, 1411.915
175.2517, 1467.477
175.7339, 1520.232
176.2160, 1571.795
176.6981, 1626.927
177.1802, 1695.998
177.6623, 1770.903
178.1444, 1835.779
178.6266, 1889.044
179.1087, 1929.663
179.5908, 1957.091
180.0729, 1971.054
180.5550, 1968.203
181.0371, 1934.898
181.5193, 1880.498
182.0014, 1833.751
182.4835, 1803.363
182.9656, 1785.364
183.4477, 1769.882
183.9298, 1756.614
184.4120, 1751.704
184.8941, 1760.196
185.3762, 1782.090
185.8583, 1816.938
186.3404, 1872.247
186.8225, 1940.962
187.3047, 1999.489
187.7868, 2045.841
188.2689, 2088.971
188.7510, 2141.122
189.2331, 2201.461
189.7152, 2261.754
190.1974, 2323.026
190.6795, 2382.667
191.1616, 2424.532
191.6437, 2446.604
192.1258, 2453.223
192.6080, 2451.572
193.0901, 2441.798
193.5722, 2420.833
194.0543, 2384.843
194.5364, 2334.534
195.0185, 2277.698
195.5007, 2211.547
195.9828, 2143.416
196.4649, 2092.930
196.9470, 2061.114
197.4291, 2035.373
197.9112, 2006.335
198.3934, 1973.534
198.8755, 1947.703
199.3576, 1931.340
199.8397, 1922.405
200.3218, 1913.850
200.8039, 1905.315
201.2861, 1898.433
201.7682, 1892.251
202.2503, 1885.332
202.7324, 1890.513
203.2145, 1913.979
203.6966, 1952.365
204.1788, 1980.778
204.6609, 1994.996
205.1430, 2008.437
205.6251, 2035.145
206.1072, 2078.086
206.5893, 2121.049
207.0715, 2159.982
207.5536, 2194.760
208.0357, 2233.444
208.5178, 2279.320
208.9999, 2323.932
209.4820, 2358.756
209.9642, 2383.795
210.4463, 2399.030
210.9284, 2404.416
211.4105, 2399.913
211.8926, 2385.856
212.3747, 2362.439
212.8569, 2329.188
213.3390, 2284.705
213.8211, 2229.142
214.3032, 2163.122
214.7853, 2085.083
215.2674, 1993.695
215.7496, 1900.409
216.2317, 1803.900
216.7138, 1706.157
217.1959, 1608.763
217.6780, 1506.441
218.1601, 1413.653
218.6423, 1338.418
219.1244, 1285.073
219.6065, 1234.053
220.0886, 1184.254
220.5707, 1136.538
221.0528, 1094.734
221.5350, 1058.713
222.0171, 1027.634
222.4992, 1000.884
222.9813, 979.0936
223.4634, 960.7363
223.9455, 946.5787
224.4277, 935.7379
224.9098, 926.3501
225.3919, 919.8992
225.8740, 912.4324
226.3561, 900.9384
226.8382, 881.9558
227.3204, 867.3377
227.8025, 859.9014
228.2846, 857.8190
228.7667, 851.0414
229.2488, 834.5538
229.7310, 820.2675
230.2131, 816.5450
230.6952, 829.8243
231.1773, 840.2870
231.6594, 846.3623
232.1415, 848.1707
232.6237, 846.3632
233.1058, 837.5550
233.5879, 829.1602
234.0700, 827.1722
234.5521, 836.2501
235.0342, 842.2018
235.5164, 841.4153
235.9985, 834.5020
236.4806, 833.1983
236.9627, 840.8688
237.4448, 850.3848
237.9269, 856.1718
238.4091, 857.2141
238.8912, 856.1203
239.3733, 851.6756
239.8554, 843.9385
240.3375, 842.3094
240.8196, 851.3953
241.3018, 861.9703
241.7839, 864.6217
242.2660, 852.1367
242.7481, 845.6623
243.2302, 851.3683
243.7123, 870.0280
244.1945, 881.9283
244.6766, 883.1592
245.1587, 881.3632
245.6408, 884.3983
246.1229, 894.3501
246.6050, 905.2938
247.0872, 916.8776
247.5693, 929.4563
248.0514, 938.1769
248.5335, 941.6256
249.0156, 942.4891
249.4977, 943.7996
249.9799, 946.0163
250.4620, 947.6407
250.9441, 947.2292
251.4262, 943.9653
251.9083, 946.7462
252.3904, 958.2202
252.8726, 973.3205
253.3547, 985.4625
253.8368, 993.0580
254.3189, 1001.153
254.8010, 1011.584
255.2831, 1024.949
255.7653, 1035.803
256.2474, 1042.001
256.7295, 1047.566
257.2116, 1058.731
257.6937, 1079.044
258.1758, 1096.866
258.6580, 1107.066
259.1401, 1107.861
259.6222, 1115.768
260.1043, 1133.121
260.5864, 1155.251
261.0685, 1175.461
261.5507, 1193.296
262.0328, 1210.349
262.5149, 1228.239
262.9970, 1248.059
263.4791, 1260.606
263.9612, 1264.101
264.4434, 1262.342
264.9255, 1261.317
265.4076, 1262.258
265.8897, 1260.394
266.3718, 1253.050
266.8539, 1239.345
267.3361, 1229.083
267.8182, 1223.924
268.3003, 1220.310
268.7824, 1211.643
269.2645, 1195.292
269.7466, 1182.672
270.2288, 1178.612
270.7109, 1183.959
271.1930, 1187.460
271.6751, 1188.358
272.1572, 1188.549
272.6393, 1190.976
273.1215, 1195.955
273.6036, 1201.831
274.0857, 1208.789
274.5678, 1216.988
275.0499, 1221.109
275.5320, 1218.977
276.0142, 1216.641
276.4963, 1223.721
276.9784, 1241.334
277.4605, 1261.821
277.9426, 1284.078
278.4247, 1307.896
278.9069, 1326.867
279.3890, 1339.948
279.8711, 1350.108
280.3532, 1361.264
280.8354, 1373.458
281.3175, 1386.151
281.7996, 1397.163
282.2817, 1407.222
282.7638, 1426.505
283.2459, 1457.054
283.7281, 1490.950
284.2102, 1516.739
284.6923, 1534.369
285.1744, 1552.438
285.6565, 1573.857
286.1386, 1598.470
286.6208, 1626.258
287.1029, 1658.483
287.5850, 1689.396
288.0671, 1709.641
288.5492, 1720.220
289.0313, 1733.811
289.5135, 1756.370
289.9956, 1786.149
290.4777, 1819.368
290.9598, 1857.457
291.4419, 1891.267
291.9240, 1907.527
292.4062, 1908.620
292.8883, 1908.512
293.3704, 1910.462
293.8525, 1915.473
294.3346, 1929.527
294.8167, 1953.630
295.2989, 1975.171
295.7810, 1978.540
296.2631, 1967.618
296.7452, 1955.980
297.2273, 1947.082
297.7094, 1941.565
298.1916, 1941.881
298.6737, 1948.197
299.1558, 1955.372
299.6379, 1957.780
300.1200, 1957.326
300.6021, 1958.635
301.0843, 1964.031
301.5664, 1971.817
302.0485, 1978.714
302.5306, 1984.889
303.0127, 1994.462
303.4948, 2012.045
303.9770, 2035.156
304.4591, 2060.073
304.9412, 2089.017
305.4233, 2116.373
305.9054, 2133.950
306.3875, 2142.642
306.8697, 2153.379
307.3518, 2177.017
307.8339, 2206.275
308.3160, 2231.207
308.7981, 2245.614
309.2802, 2257.490
309.7624, 2272.706
310.2445, 2290.718
310.7266, 2307.553
311.2087, 2326.073
311.6908, 2340.323
312.1729, 2344.130
312.6551, 2330.358
313.1372, 2311.873
313.6193, 2293.564
314.1014, 2275.791
314.5835, 2260.620
315.0656, 2249.342
315.5478, 2240.670
316.0299, 2233.656
316.5120, 2228.889
316.9941, 2224.637
317.4762, 2217.803
317.9583, 2210.424
318.4405, 2209.265
318.9226, 2219.147
319.4047, 2234.271
319.8868, 2251.424
320.3689, 2270.905
320.8510, 2291.051
321.3332, 2307.103
321.8153, 2323.052
322.2974, 2349.809
322.7795, 2396.000
323.2616, 2448.347
323.7437, 2500.971
324.2259, 2550.995
324.7080, 2605.489
325.1901, 2666.031
325.6722, 2731.502
326.1543, 2799.707
326.6364, 2861.315
327.1186, 2934.385
327.6007, 3026.580
328.0828, 3147.953
328.5649, 3264.361
329.0470, 3369.910
329.5291, 3472.432
330.0113, 3584.570
330.4934, 3709.610
330.9755, 3841.251
331.4576, 3981.800
331.9397, 4134.991
332.4218, 4272.486
332.9040, 4388.708
333.3861, 4493.731
333.8682, 4599.823
334.3503, 4706.763
334.8324, 4817.219
335.3145, 4933.325
335.7967, 5055.810
336.2788, 5180.734
336.7609, 5317.510
337.2430, 5444.438
337.7251, 5529.428
338.2072, 5562.877
338.6894, 5603.119
339.1715, 5667.792
339.6536, 5751.825
340.1357, 5815.601
340.6178, 5857.070
341.0999, 5886.827
341.5821, 5919.670
342.0642, 5955.787
342.5463, 5965.128
343.0284, 5935.287
343.5105, 5879.012
343.9926, 5834.939
344.4748, 5804.236
344.9569, 5770.953
345.4390, 5727.290
345.9211, 5672.246
346.4032, 5599.559
346.8853, 5507.226
347.3675, 5398.882
347.8496, 5282.973
348.3317, 5159.511
348.8138, 5022.576
349.2959, 4864.351
349.7780, 4692.633
350.2602, 4515.979
350.7423, 4334.577
351.2244, 4155.067
351.7065, 3976.916
352.1887, 3804.074
352.6708, 3654.895
353.1529, 3557.613
353.6350, 3481.294
354.1171, 3382.948
354.5992, 3253.952
355.0814, 3132.131
355.5635, 3047.224
356.0456, 2990.032
356.5277, 2944.362
357.0098, 2911.805
357.4919, 2882.109
357.9741, 2844.022
358.4562, 2796.842
358.9383, 2759.136
359.4204, 2746.171
359.9025, 2746.433
360.3846, 2747.088
360.8668, 2744.549
361.3489, 2741.039
361.8310, 2736.989
362.3131, 2732.499
362.7952, 2728.697
363.2773, 2723.334
363.7595, 2720.325
364.2416, 2722.418
364.7237, 2735.893
365.2058, 2748.145
365.6879, 2757.477
366.1700, 2764.035
366.6522, 2768.260
367.1343, 2769.501
367.6164, 2768.926
368.0985, 2766.892
368.5806, 2760.228
369.0627, 2757.003
369.5449, 2758.944
370.0270, 2764.083
370.5091, 2767.978
370.9912, 2768.995
371.4733, 2770.908
371.9554, 2773.583
372.4376, 2774.197
372.9197, 2787.724
373.4018, 2820.053
373.8839, 2859.544
374.3660, 2886.873
374.8481, 2893.576
375.3303, 2914.265
375.8124, 2963.129
376.2945, 3038.568
376.7766, 3108.054
377.2587, 3169.383
377.7408, 3229.274
378.2230, 3295.614
378.7051, 3367.969
379.1872, 3443.035
379.6693, 3522.893
380.1514, 3602.964
380.6335, 3662.132
381.1157, 3699.762
381.5978, 3738.152
382.0799, 3800.791
382.5620, 3880.433
383.0441, 3951.024
383.5262, 4011.025
384.0084, 4055.939
384.4905, 4073.618
384.9726, 4067.927
385.4547, 4060.338
385.9368, 4073.850
386.4189, 4090.029
386.9011, 4081.814
387.3832, 4044.801
387.8653, 3988.988
388.3474, 3917.593
388.8295, 3833.574
389.3116, 3743.867
389.7938, 3654.719
390.2759, 3560.289
390.7580, 3452.345
391.2401, 3330.276
391.7222, 3210.144
392.2043, 3104.019
392.6865, 3002.959
393.1686, 2895.775
393.6507, 2771.420
394.1328, 2650.512
394.6149, 2540.997
395.0970, 2442.025
395.5792, 2345.279
396.0613, 2247.485
396.5434, 2152.657
397.0255, 2061.719
397.5076, 1975.516
397.9897, 1894.736
398.4719, 1821.580
398.9540, 1754.036
399.4361, 1686.459
399.9182, 1611.641
400.4003, 1544.724
400.8824, 1492.289
401.3646, 1459.079
401.8467, 1425.773
402.3288, 1392.395
402.8109, 1359.012
403.2930, 1325.753
403.7751, 1292.248
404.2573, 1259.776
404.7394, 1227.869
405.2215, 1196.598
405.7036, 1171.307
406.1857, 1152.910
406.6678, 1137.910
407.1500, 1123.893
407.6321, 1110.861
408.1142, 1096.639
408.5963, 1080.119
409.0784, 1062.882
409.5605, 1049.390
410.0427, 1039.662
410.5248, 1030.438
411.0069, 1018.659
411.4890, 1005.519
411.9711, 994.4340
412.4532, 985.8547
412.9354, 979.0885
413.4175, 975.9272
413.8996, 974.4429
414.3817, 969.2219
414.8638, 951.8675
415.3459, 932.4934
415.8281, 923.1250
416.3102, 924.8659
416.7923, 926.8899
417.2744, 920.8646
417.7565, 911.3784
418.2386, 904.1479
418.7208, 906.3087
419.2029, 906.2338
419.6850, 896.1322
420.1671, 877.7016
420.6492, 863.0677
421.1313, 860.9622
421.6135, 860.7573
422.0956, 855.7707
422.5777, 840.9805
423.0598, 827.3154
423.5420, 814.2411
424.0241, 803.1948
424.5062, 797.5085
424.9883, 802.9532
425.4704, 807.4535
425.9525, 807.0712
426.4347, 800.5517
426.9168, 794.7078
427.3989, 789.5167
427.8810, 784.9551
428.3631, 780.9296
428.8452, 777.3691
429.3274, 774.5544
429.8095, 772.4272
430.2916, 771.1145
430.7737, 771.8972
431.2558, 775.2087
431.7379, 778.5820
432.2201, 779.2564
432.7022, 777.5898
433.1843, 778.5187
433.6664, 783.4749
434.1485, 789.7071
434.6306, 792.3706
435.1128, 791.9489
435.5949, 791.5728
436.0770, 795.0069
436.5591, 799.0643
437.0412, 796.4922
437.5233, 786.3192
438.0055, 776.8683
438.4876, 777.9627
438.9697, 784.1857
439.4518, 786.5852
439.9339, 775.6244
440.4160, 764.8188
440.8982, 763.8333
441.3803, 771.4500
441.8624, 779.6253
442.3445, 785.4523
442.8266, 790.1489
443.3087, 794.6368
443.7909, 799.8305
444.2730, 803.5785
444.7551, 805.4406
445.2372, 805.5570
445.7193, 804.2758
446.2014, 794.8360
446.6836, 790.7245
447.1657, 798.0887
447.6478, 820.5825
448.1299, 834.3009
448.6120, 835.3069
449.0941, 830.9454
449.5763, 827.3234
450.0584, 822.4476
450.5405, 824.0336
451.0226, 835.3561
451.5047, 853.6974
451.9868, 868.6517
452.4690, 880.2805
452.9511, 888.3908
453.4332, 889.6107
453.9153, 884.9766
454.3974, 890.4462
454.8795, 909.4848
455.3617, 931.9593
455.8438, 942.7609
456.3259, 943.8704
456.8080, 945.8517
457.2901, 954.5179
457.7722, 966.4951
458.2544, 976.8071
458.7365, 985.5459
459.2186, 992.9316
459.7007, 998.7007
460.1828, 1003.461
460.6649, 1008.286
461.1471, 1015.101
461.6292, 1019.476
462.1113, 1016.948
462.5934, 1009.828
463.0755, 1004.331
463.5576, 1004.079
464.0398, 1004.887
464.5219, 1005.721
465.0040, 1007.801
465.4861, 1004.564
465.9682, 990.8479
466.4503, 973.1985
466.9325, 958.2933
467.4146, 946.7830
467.8967, 937.4245
468.3788, 929.7057
468.8609, 923.8560
469.3430, 922.4155
469.8252, 928.5892
470.3073, 933.4649
470.7894, 931.2275
471.2715, 920.6934
471.7536, 909.8932
472.2357, 898.2314
472.7179, 888.0105
473.2000, 884.2061
473.6821, 886.7548
474.1642, 888.8535
474.6463, 885.5320
475.1284, 880.3294
475.6106, 884.7464
476.0927, 898.8474
476.5748, 913.4686
477.0569, 920.9496
477.5390, 923.8082
478.0211, 926.5986
478.5033, 930.8174
478.9854, 934.3608
479.4675, 933.6224
479.9496, 930.6570
480.4317, 930.4766
480.9138, 934.7594
481.3960, 943.0481
481.8781, 956.8283
482.3602, 977.2665
482.8423, 994.7056
483.3244, 1002.178
483.8065, 1007.614
484.2887, 1018.251
484.7708, 1040.326
485.2529, 1061.333
485.7350, 1079.843
486.2171, 1096.370
486.6992, 1112.476
487.1814, 1124.431
487.6635, 1141.295
488.1456, 1169.094
488.6277, 1211.156
489.1098, 1245.318
489.5919, 1269.907
490.0741, 1290.214
490.5562, 1311.887
491.0383, 1334.937
491.5204, 1362.520
492.0026, 1397.490
492.4847, 1436.546
492.9668, 1472.383
493.4489, 1504.901
493.9310, 1534.865
494.4131, 1562.881
494.8953, 1588.438
495.3774, 1609.964
495.8595, 1627.435
496.3416, 1641.239
496.8237, 1654.171
497.3058, 1663.629
497.7880, 1665.471
498.2701, 1650.322
498.7522, 1633.756
499.2343, 1626.987
499.7164, 1628.733
500.1985, 1622.540
500.6807, 1603.094
501.1628, 1574.625
501.6449, 1538.580
502.1270, 1485.987
502.6091, 1441.150
503.0912, 1407.497
503.5734, 1380.484
504.0555, 1352.038
504.5376, 1320.121
505.0197, 1291.587
505.5018, 1269.062
505.9839, 1252.176
506.4661, 1234.402
506.9482, 1213.940
507.4303, 1198.017
507.9124, 1195.435
508.3945, 1205.020
508.8766, 1209.618
509.3588, 1206.170
509.8409, 1199.619
510.3230, 1196.822
510.8051, 1197.140
511.2872, 1198.085
511.7693, 1197.506
512.2515, 1197.412
512.7336, 1198.998
513.2157, 1202.505
513.6978, 1211.032
514.1799, 1228.231
514.6620, 1250.504
515.1442, 1275.148
515.6263, 1305.138
516.1084, 1331.185
516.5905, 1345.524
517.0726, 1354.565
517.5547, 1370.649
518.0369, 1401.990
518.5190, 1434.306
519.0011, 1462.748
519.4832, 1486.751
519.9653, 1517.231
520.4474, 1555.447
520.9296, 1598.091
521.4117, 1643.176
521.8938, 1690.581
522.3759, 1741.015
522.8580, 1794.838
523.3401, 1851.406
523.8223, 1910.358
524.3044, 1971.232
524.7865, 2036.628
525.2686, 2108.419
525.7507, 2184.693
526.2328, 2259.848
526.7150, 2333.373
527.1971, 2409.443
527.6792, 2488.364
528.1613, 2572.251
528.6434, 2667.772
529.1255, 2777.876
529.6077, 2893.062
530.0898, 3007.759
530.5719, 3122.784
531.0540, 3242.277
531.5361, 3367.849
532.0182, 3496.686
532.5004, 3624.211
532.9825, 3751.193
533.4646, 3891.726
533.9467, 4059.408
534.4288, 4231.654
534.9109, 4398.535
535.3931, 4556.508
535.8752, 4715.457
536.3573, 4878.693
536.8394, 5039.235
537.3215, 5187.528
537.8036, 5322.051
538.2858, 5449.000
538.7679, 5572.236
539.2500, 5689.786
539.7321, 5796.115
540.2142, 5891.233
540.6964, 5978.508
541.1785, 6070.821
541.6606, 6155.381
542.1427, 6205.347
542.6248, 6216.131
543.1069, 6196.953
543.5891, 6147.132
544.0712, 6074.109
544.5533, 5989.564
545.0354, 5898.182
545.5175, 5795.947
545.9996, 5680.828
546.4818, 5552.504
546.9639, 5415.128
547.4460, 5248.003
547.9281, 5090.182
548.4102, 4960.854
548.8923, 4872.547
549.3745, 4773.466
549.8566, 4650.307
550.3387, 4529.267
550.8208, 4444.671
551.3029, 4406.915
551.7850, 4357.997
552.2672, 4278.952
552.7493, 4188.289
553.2314, 4141.097
553.7135, 4137.140
554.1956, 4136.951
554.6777, 4114.012
555.1599, 4078.856
555.6420, 4055.729
556.1241, 4045.566
556.6062, 4041.592
557.0883, 4051.261
557.5704, 4059.372
558.0526, 4044.077
558.5347, 3982.396
559.0168, 3922.505
559.4989, 3897.818
559.9810, 3892.215
560.4631, 3872.390
560.9453, 3833.018
561.4274, 3775.246
561.9095, 3692.926
562.3916, 3584.575
562.8737, 3485.925
563.3558, 3406.071
563.8380, 3327.234
564.3201, 3238.975
564.8022, 3142.238
565.2843, 3032.567
565.7664, 2903.242
566.2485, 2772.054
566.7307, 2667.055
567.2128, 2587.288
567.6949, 2509.656
568.1770, 2423.225
568.6591, 2335.690
569.1412, 2260.318
569.6234, 2196.263
570.1055, 2133.643
570.5876, 2061.859
571.0697, 1991.486
571.5518, 1933.725
572.0339, 1890.431
572.5161, 1853.186
572.9982, 1825.482
573.4803, 1798.457
573.9624, 1763.488
574.4445, 1706.144
574.9266, 1655.384
575.4088, 1617.058
575.8909, 1587.331
576.3730, 1556.333
576.8551, 1521.346
577.3372, 1490.630
577.8193, 1470.208
578.3015, 1459.553
578.7836, 1434.982
579.2657, 1393.906
579.7478, 1352.046
580.2299, 1324.665
580.7120, 1308.586
581.1942, 1290.466
581.6763, 1268.304
582.1584, 1243.864
582.6405, 1217.557
583.1226, 1190.653
583.6047, 1166.632
584.0869, 1149.572
584.5690, 1133.566
585.0511, 1115.097
585.5332, 1094.469
586.0153, 1073.359
586.4974, 1051.353
586.9796, 1029.812
587.4617, 1008.599
587.9438, 986.4341
588.4259, 969.5494
588.9080, 961.5992
589.3901, 955.7336
589.8723, 945.6152
590.3544, 930.0914
590.8365, 913.8293
591.3186, 895.8150
591.8007, 879.1858
592.2828, 874.5145
592.7650, 880.9595
593.2471, 879.7507
593.7292, 855.8198
594.2113, 821.5254
594.6934, 798.0729
595.1755, 785.3069
595.6577, 779.5220
596.1398, 785.6375
596.6219, 793.5096
597.1040, 792.0756
597.5862, 776.9024
598.0683, 762.6782
598.5504, 757.6124
599.0325, 755.4887
599.5146, 749.4624
599.9968, 731.5430
600.4789, 718.4755
600.9610, 714.6761
601.4431, 716.5264
601.9252, 712.0219
602.4073, 697.3596
602.8895, 687.4722
603.3716, 691.6420
603.8537, 707.1467
604.3358, 709.0555
604.8179, 696.3145
605.3000, 681.6572
605.7822, 675.7289
606.2643, 676.0013
606.7464, 676.9450
607.2285, 678.2275
607.7106, 677.9059
608.1927, 673.8466
608.6749, 667.1905
609.1570, 659.7223
609.6391, 647.9881
610.1212, 639.6959
610.6033, 638.7130
611.0854, 643.5892
611.5676, 649.0880
612.0497, 660.6384
612.5318, 666.1012
613.0139, 659.1588
613.4960, 638.5130
613.9781, 627.8546
614.4603, 629.6853
614.9424, 635.2422
615.4245, 638.3793
615.9066, 639.1475
616.3887, 637.9821
616.8708, 634.2761
617.3530, 631.0179
617.8351, 633.9768
618.3172, 640.4589
618.7993, 643.5273
619.2814, 637.5316
619.7635, 630.7671
620.2457, 630.3581
620.7278, 634.6774
