##NAMES=Aenigmatite
##RRUFFID=R061089
##IDEAL CHEMISTRY=Na_4_(Fe^2+^_10_Ti^4+^_2_)O_4_[Si_12_O_36_]
##LOCALITY=Eveslogchorr, Khibiny Massif, Kola Peninsula, Russia
##OWNER=RRUFF
##SOURCE=Michael Scott
##DESCRIPTION=Black prismatic crystals embedded in eucryptite with astrophyllite and magnesioriebeckite
##STATUS=The identification of this mineral is confirmed by single-crystal X-ray diffraction and chemical analysis.
##URL=rruff.info/R061089
##MEASURED CHEMISTRY=Na_2.00_(Fe^2+^_4.08_Mn_0.51_Fe^3+^_0.21_Mg_0.16_Ca_0.03_Cr^3+^_0.01_)_Σ=5_Ti_1.00_(Si_5.78_Al_0.22_)_Σ=6.00_O_20_
127.4148, 2466.127
127.8969, 2850.447
128.3790, 3250.786
128.8611, 3632.217
129.3432, 3996.458
129.8254, 4308.538
130.3075, 4533.281
130.7896, 4745.381
131.2717, 5010.491
131.7538, 5301.104
132.2359, 5532.793
132.7181, 5630.071
133.2002, 5594.358
133.6823, 5374.233
134.1644, 4831.060
134.6465, 4252.964
135.1286, 3770.680
135.6108, 3407.923
136.0929, 3141.316
136.5750, 2953.342
137.0571, 2869.301
137.5392, 2799.218
138.0213, 2717.456
138.5035, 2664.355
138.9856, 2680.845
139.4677, 2770.975
139.9498, 2892.970
140.4319, 2990.044
140.9140, 3034.249
141.3962, 3140.846
141.8783, 3343.800
142.3604, 3594.284
142.8425, 3853.326
143.3246, 4111.001
143.8067, 4364.650
144.2889, 4613.252
144.7710, 4860.159
145.2531, 5089.279
145.7352, 5263.117
146.2173, 5357.818
146.6994, 5419.008
147.1816, 5524.238
147.6637, 5627.625
148.1458, 5656.023
148.6279, 5613.606
149.1100, 5542.876
149.5921, 5436.412
150.0743, 5310.724
150.5564, 5194.074
151.0385, 5091.924
151.5206, 5001.771
152.0027, 4919.278
152.4848, 4841.540
152.9670, 4770.816
153.4491, 4703.944
153.9312, 4643.171
154.4133, 4595.918
154.8954, 4565.896
155.3775, 4547.041
155.8597, 4530.164
156.3418, 4514.574
156.8239, 4499.763
157.3060, 4493.542
157.7881, 4489.844
158.2702, 4462.051
158.7524, 4389.225
159.2345, 4303.219
159.7166, 4247.394
160.1987, 4224.283
160.6808, 4215.150
161.1629, 4212.828
161.6451, 4216.502
162.1272, 4221.787
162.6093, 4238.386
163.0914, 4245.637
163.5735, 4219.858
164.0556, 4156.057
164.5378, 4083.290
165.0199, 4018.195
165.5020, 3960.931
165.9841, 3916.132
166.4662, 3887.013
166.9483, 3871.394
167.4305, 3869.481
167.9126, 3885.115
168.3947, 3897.839
168.8768, 3886.594
169.3589, 3851.410
169.8410, 3818.465
170.3232, 3794.860
170.8053, 3777.646
171.2874, 3764.744
171.7695, 3756.506
172.2516, 3749.137
172.7337, 3738.434
173.2159, 3723.907
173.6980, 3710.222
174.1801, 3699.113
174.6622, 3688.677
175.1443, 3675.707
175.6264, 3658.435
176.1086, 3644.586
176.5907, 3647.033
177.0728, 3668.842
177.5549, 3679.998
178.0370, 3661.218
178.5191, 3633.466
179.0013, 3612.183
179.4834, 3600.778
179.9655, 3591.936
180.4476, 3577.192
180.9297, 3555.747
181.4118, 3533.745
181.8940, 3512.637
182.3761, 3491.626
182.8582, 3470.549
183.3403, 3449.552
183.8224, 3427.688
184.3046, 3403.194
184.7867, 3375.428
185.2688, 3349.141
185.7509, 3321.576
186.2330, 3298.611
186.7151, 3287.500
187.1973, 3290.269
187.6794, 3294.844
188.1615, 3285.683
188.6436, 3260.151
189.1257, 3234.975
189.6078, 3216.357
190.0900, 3198.055
190.5721, 3173.281
191.0542, 3140.656
191.5363, 3110.521
192.0184, 3097.384
192.5005, 3105.082
192.9827, 3110.109
193.4648, 3104.100
193.9469, 3096.304
194.4290, 3093.567
194.9111, 3097.087
195.3932, 3100.254
195.8754, 3094.380
196.3575, 3077.576
196.8396, 3062.071
197.3217, 3049.182
197.8038, 3038.894
198.2859, 3033.305
198.7681, 3032.337
199.2502, 3030.255
199.7323, 3019.414
200.2144, 2998.225
200.6965, 2978.605
201.1786, 2959.020
201.6608, 2944.095
202.1429, 2940.375
202.6250, 2947.558
203.1071, 2954.338
203.5892, 2948.735
204.0713, 2929.620
204.5535, 2906.859
205.0356, 2870.521
205.5177, 2839.305
205.9998, 2826.448
206.4819, 2831.499
206.9640, 2840.428
207.4462, 2838.883
207.9283, 2825.743
208.4104, 2815.826
208.8925, 2815.101
209.3746, 2813.999
209.8567, 2808.564
210.3388, 2798.341
210.8210, 2783.754
211.3031, 2761.509
211.7852, 2731.181
212.2673, 2711.104
212.7494, 2710.667
213.2315, 2713.623
213.7137, 2711.895
214.1958, 2705.940
214.6779, 2699.830
215.1600, 2696.523
215.6421, 2695.985
216.1242, 2697.715
216.6064, 2708.382
217.0885, 2713.388
217.5706, 2703.574
218.0527, 2682.017
218.5348, 2658.764
219.0169, 2639.614
219.4991, 2624.461
219.9812, 2612.536
220.4633, 2604.872
220.9454, 2599.385
221.4275, 2595.441
221.9096, 2592.608
222.3918, 2589.934
222.8739, 2586.624
223.3560, 2582.952
223.8381, 2580.208
224.3202, 2578.814
224.8023, 2577.565
225.2845, 2580.294
225.7666, 2582.472
226.2487, 2574.586
226.7308, 2543.768
227.2129, 2502.683
227.6950, 2487.029
228.1772, 2508.646
228.6593, 2529.598
229.1414, 2530.198
229.6235, 2519.261
230.1056, 2508.521
230.5877, 2502.724
231.0699, 2499.530
231.5520, 2493.751
232.0341, 2483.497
232.5162, 2477.052
232.9983, 2484.340
233.4804, 2495.546
233.9626, 2498.485
234.4447, 2485.629
234.9268, 2469.761
235.4089, 2470.623
235.8910, 2491.463
236.3731, 2506.830
236.8553, 2497.993
237.3374, 2482.178
237.8195, 2479.427
238.3016, 2497.528
238.7837, 2517.632
239.2658, 2518.064
239.7480, 2498.788
240.2301, 2484.927
240.7122, 2488.639
241.1943, 2499.356
241.6764, 2503.636
242.1585, 2498.965
242.6407, 2495.608
243.1228, 2506.066
243.6049, 2527.087
244.0870, 2535.321
244.5691, 2516.341
245.0512, 2491.262
245.5334, 2487.171
246.0155, 2506.025
246.4976, 2525.140
246.9797, 2529.921
247.4618, 2525.526
247.9439, 2528.319
248.4261, 2545.277
248.9082, 2563.262
249.3903, 2566.046
249.8724, 2554.747
250.3545, 2542.292
250.8366, 2532.723
251.3188, 2525.058
251.8009, 2516.048
252.2830, 2503.988
252.7651, 2496.389
253.2472, 2505.930
253.7293, 2530.236
254.2115, 2545.309
254.6936, 2540.907
255.1757, 2528.382
255.6578, 2518.632
256.1399, 2512.683
256.6220, 2510.216
257.1042, 2512.270
257.5863, 2518.453
258.0684, 2522.269
258.5505, 2520.232
259.0326, 2518.392
259.5147, 2522.302
259.9969, 2531.148
260.4790, 2539.208
260.9611, 2543.633
261.4432, 2544.023
261.9253, 2539.630
262.4074, 2520.870
262.8896, 2507.762
263.3717, 2515.029
263.8538, 2534.884
264.3359, 2547.390
264.8180, 2542.110
265.3001, 2523.758
265.7823, 2508.278
266.2644, 2494.321
266.7465, 2484.198
267.2286, 2480.376
267.7107, 2480.068
268.1928, 2478.907
268.6750, 2475.203
269.1571, 2471.442
269.6392, 2472.790
270.1213, 2487.678
270.6034, 2494.444
271.0855, 2483.990
271.5677, 2470.341
272.0498, 2467.734
272.5319, 2478.624
273.0140, 2493.411
273.4961, 2499.596
273.9782, 2494.734
274.4604, 2487.400
274.9425, 2467.395
275.4246, 2453.453
275.9067, 2462.036
276.3888, 2489.730
276.8709, 2518.130
277.3531, 2530.536
277.8352, 2525.935
278.3173, 2515.858
278.7994, 2487.824
279.2815, 2466.994
279.7636, 2465.156
280.2458, 2476.760
280.7279, 2489.737
281.2100, 2496.308
281.6921, 2497.336
282.1742, 2498.202
282.6563, 2500.189
283.1385, 2500.187
283.6206, 2498.777
284.1027, 2494.811
284.5848, 2486.063
285.0669, 2471.212
285.5490, 2453.366
286.0312, 2438.915
286.5133, 2427.034
286.9954, 2420.957
287.4775, 2426.072
287.9596, 2433.973
288.4417, 2438.486
288.9239, 2438.052
289.4060, 2434.784
289.8881, 2430.548
290.3702, 2425.205
290.8523, 2420.396
291.3344, 2417.976
291.8166, 2414.659
292.2987, 2407.003
292.7808, 2395.471
293.2629, 2385.321
293.7450, 2379.255
294.2271, 2377.452
294.7093, 2382.880
295.1914, 2402.531
295.6735, 2417.123
296.1556, 2408.077
296.6377, 2382.506
297.1198, 2361.109
297.6020, 2354.482
298.0841, 2355.637
298.5662, 2354.081
299.0483, 2349.326
299.5304, 2344.146
300.0125, 2340.225
300.4947, 2337.160
300.9768, 2333.775
301.4589, 2327.648
301.9410, 2323.654
302.4231, 2326.880
302.9052, 2336.047
303.3874, 2344.928
303.8695, 2351.355
304.3516, 2355.297
304.8337, 2356.715
305.3158, 2355.428
305.7979, 2352.689
306.2801, 2346.950
306.7622, 2340.487
307.2443, 2337.761
307.7264, 2340.331
308.2085, 2344.202
308.6906, 2343.380
309.1728, 2335.357
309.6549, 2329.339
310.1370, 2324.524
310.6191, 2322.457
311.1012, 2325.938
311.5833, 2334.331
312.0655, 2342.642
312.5476, 2345.543
313.0297, 2333.856
313.5118, 2348.958
313.9939, 2357.755
314.4760, 2360.586
314.9582, 2339.582
315.4403, 2349.356
315.9224, 2346.796
316.4045, 2343.730
316.8866, 2357.836
317.3687, 2340.299
317.8509, 2354.133
318.3330, 2355.444
318.8151, 2359.012
319.2972, 2376.299
319.7793, 2383.162
320.2614, 2373.693
320.7436, 2358.805
321.2257, 2356.992
321.7078, 2373.115
322.1899, 2385.452
322.6720, 2389.209
323.1541, 2390.584
323.6363, 2392.660
324.1184, 2395.657
324.6005, 2398.139
325.0826, 2398.271
325.5647, 2396.429
326.0468, 2396.454
326.5290, 2399.620
327.0111, 2402.961
327.4932, 2406.102
327.9753, 2408.229
328.4574, 2407.066
328.9395, 2397.543
329.4217, 2386.981
329.9038, 2390.048
330.3859, 2408.697
330.8680, 2421.482
331.3501, 2411.519
331.8322, 2391.575
332.3144, 2385.351
332.7965, 2400.218
333.2786, 2417.262
333.7607, 2427.812
334.2428, 2431.493
334.7249, 2424.521
335.2070, 2402.590
335.6891, 2377.253
336.1713, 2368.985
336.6534, 2381.489
337.1355, 2389.416
337.6176, 2385.568
338.0997, 2376.726
338.5818, 2367.544
339.0640, 2359.313
339.5461, 2355.040
340.0282, 2357.581
340.5103, 2367.291
340.9924, 2380.572
341.4745, 2411.702
341.9567, 2431.382
342.4388, 2418.691
342.9209, 2386.198
343.4030, 2359.007
343.8851, 2350.936
344.3672, 2357.967
344.8494, 2366.684
345.3315, 2380.444
345.8136, 2390.844
346.2957, 2397.471
346.7778, 2400.700
347.2599, 2399.338
347.7421, 2393.723
348.2242, 2388.101
348.7063, 2387.372
349.1884, 2391.613
349.6705, 2400.698
350.1526, 2425.265
350.6348, 2444.770
351.1169, 2447.723
351.5990, 2437.353
352.0811, 2424.343
352.5632, 2412.407
353.0453, 2403.489
353.5275, 2404.852
354.0096, 2419.462
354.4917, 2435.734
354.9738, 2453.928
355.4559, 2468.335
355.9380, 2468.367
356.4202, 2444.858
356.9023, 2420.682
357.3844, 2417.259
357.8665, 2431.510
358.3486, 2446.620
358.8307, 2459.014
359.3129, 2467.559
359.7950, 2468.598
360.2771, 2460.871
360.7592, 2456.680
361.2413, 2460.036
361.7234, 2468.122
362.2056, 2480.394
362.6877, 2496.143
363.1698, 2507.871
363.6519, 2507.801
364.1340, 2495.523
364.6161, 2489.886
365.0983, 2499.788
365.5804, 2505.936
366.0625, 2495.745
366.5446, 2477.221
367.0267, 2467.001
367.5089, 2473.516
367.9910, 2488.324
368.4731, 2488.601
368.9552, 2457.251
369.4373, 2440.474
369.9194, 2449.347
370.4016, 2465.523
370.8837, 2478.000
371.3658, 2484.164
371.8479, 2485.168
372.3300, 2480.274
372.8121, 2469.288
373.2943, 2463.043
373.7764, 2466.275
374.2585, 2468.211
374.7406, 2460.374
375.2227, 2448.578
375.7048, 2444.771
376.1870, 2459.330
376.6691, 2477.673
377.1512, 2472.283
377.6333, 2440.804
378.1154, 2420.509
378.5975, 2435.852
379.0797, 2461.590
379.5618, 2458.478
380.0439, 2418.378
380.5260, 2385.242
381.0081, 2385.362
381.4902, 2404.765
381.9724, 2419.421
382.4545, 2425.117
382.9366, 2424.839
383.4187, 2420.251
383.9008, 2410.782
384.3829, 2403.899
384.8651, 2403.270
385.3472, 2401.634
385.8293, 2392.259
386.3114, 2378.740
386.7935, 2370.849
387.2756, 2374.247
387.7578, 2384.341
388.2399, 2387.354
388.7220, 2377.494
389.2041, 2368.709
389.6862, 2359.560
390.1683, 2353.047
390.6505, 2352.496
391.1326, 2357.806
391.6147, 2365.171
392.0968, 2371.024
392.5789, 2375.373
393.0610, 2379.350
393.5432, 2384.916
394.0253, 2387.359
394.5074, 2384.789
394.9895, 2378.137
395.4716, 2367.975
395.9537, 2351.780
396.4359, 2336.961
396.9180, 2337.694
397.4001, 2354.420
397.8822, 2363.156
398.3643, 2349.221
398.8464, 2330.514
399.3286, 2333.262
399.8107, 2360.713
400.2928, 2382.717
400.7749, 2384.608
401.2570, 2375.834
401.7391, 2368.069
402.2213, 2362.849
402.7034, 2359.364
403.1855, 2357.058
403.6676, 2355.940
404.1497, 2355.885
404.6318, 2359.612
405.1140, 2361.208
405.5961, 2357.587
406.0782, 2350.804
406.5603, 2344.348
407.0424, 2339.578
407.5245, 2334.702
408.0067, 2325.731
408.4888, 2308.015
408.9709, 2297.184
409.4530, 2297.153
409.9351, 2300.032
410.4172, 2302.988
410.8994, 2305.367
411.3815, 2306.710
411.8636, 2305.920
412.3457, 2304.183
412.8278, 2305.749
413.3099, 2311.394
413.7921, 2318.286
414.2742, 2327.817
414.7563, 2336.865
415.2384, 2342.507
415.7205, 2344.507
416.2026, 2342.010
416.6848, 2329.181
417.1669, 2311.341
417.6490, 2303.880
418.1311, 2310.694
418.6132, 2324.286
419.0953, 2339.133
419.5775, 2355.300
420.0596, 2366.438
420.5417, 2369.005
421.0238, 2369.667
421.5059, 2371.996
421.9880, 2375.535
422.4702, 2378.974
422.9523, 2381.752
423.4344, 2383.337
423.9165, 2382.139
424.3986, 2375.276
424.8807, 2370.363
425.3629, 2364.187
425.8450, 2362.297
426.3271, 2371.532
426.8092, 2389.986
427.2913, 2407.825
427.7734, 2417.339
428.2556, 2419.240
428.7377, 2418.094
429.2198, 2413.101
429.7019, 2406.539
430.1840, 2395.793
430.6661, 2385.481
431.1483, 2382.332
431.6304, 2389.704
432.1125, 2397.135
432.5946, 2392.307
433.0767, 2380.142
433.5588, 2380.762
434.0410, 2402.317
434.5231, 2422.833
435.0052, 2414.779
435.4873, 2377.330
435.9694, 2356.916
436.4515, 2372.947
436.9337, 2391.042
437.4158, 2389.328
437.8979, 2373.266
438.3800, 2358.261
438.8621, 2351.672
439.3442, 2350.048
439.8264, 2345.149
440.3085, 2334.719
440.7906, 2324.878
441.2727, 2310.812
441.7548, 2301.209
442.2369, 2307.008
442.7191, 2323.980
443.2012, 2334.932
443.6833, 2324.534
444.1654, 2298.759
444.6475, 2281.353
445.1296, 2273.849
445.6118, 2270.586
446.0939, 2275.262
446.5760, 2280.208
447.0581, 2275.078
447.5402, 2255.993
448.0223, 2239.805
448.5045, 2243.592
448.9866, 2256.574
449.4687, 2251.788
449.9508, 2223.208
450.4329, 2196.950
450.9150, 2199.168
451.3972, 2229.144
451.8793, 2242.097
452.3614, 2225.386
452.8435, 2206.684
453.3256, 2193.451
453.8077, 2185.659
454.2899, 2184.812
454.7720, 2191.087
455.2541, 2197.680
455.7362, 2193.041
456.2183, 2172.905
456.7004, 2156.046
457.1826, 2147.064
457.6647, 2136.990
458.1468, 2118.028
458.6289, 2095.455
459.1110, 2081.088
459.5931, 2081.792
460.0753, 2092.094
460.5574, 2106.018
461.0395, 2123.967
461.5216, 2135.616
462.0037, 2137.666
462.4858, 2132.124
462.9680, 2119.516
463.4501, 2099.360
463.9322, 2083.179
464.4143, 2075.453
464.8964, 2072.375
465.3785, 2070.547
465.8607, 2069.891
466.3428, 2072.091
466.8249, 2078.691
467.3070, 2088.053
467.7891, 2094.202
468.2712, 2100.373
468.7534, 2098.211
469.2355, 2079.549
469.7176, 2058.223
470.1997, 2043.766
470.6818, 2037.761
471.1639, 2037.487
471.6461, 2042.192
472.1282, 2050.788
472.6103, 2057.101
473.0924, 2062.364
473.5745, 2062.496
474.0566, 2049.624
474.5388, 2033.234
475.0209, 2024.198
475.5030, 2025.222
475.9851, 2027.842
476.4672, 2027.492
476.9493, 2024.935
477.4315, 2021.532
477.9136, 2017.489
478.3957, 2012.842
478.8778, 2007.710
479.3599, 2002.060
479.8420, 1995.459
480.3242, 1984.179
480.8063, 1976.515
481.2884, 1978.118
481.7705, 1983.109
482.2526, 1983.198
482.7347, 1976.618
483.2169, 1969.869
483.6990, 1972.524
484.1811, 1986.049
484.6632, 1991.683
485.1453, 1983.728
485.6274, 1975.546
486.1096, 1972.658
486.5917, 1973.244
487.0738, 1974.783
487.5559, 1977.136
488.0380, 1978.608
488.5201, 1976.581
489.0023, 1972.148
489.4844, 1970.113
489.9665, 1972.197
490.4486, 1973.674
490.9307, 1968.109
491.4128, 1954.849
491.8950, 1950.677
492.3771, 1963.712
492.8592, 1977.069
493.3413, 1986.203
493.8234, 1989.992
494.3055, 1985.231
494.7877, 1971.044
495.2698, 1954.855
495.7519, 1949.753
496.2340, 1960.397
496.7161, 1961.511
497.1982, 1937.878
497.6804, 1921.391
498.1625, 1936.497
498.6446, 1966.498
499.1267, 1977.045
499.6088, 1948.269
500.0909, 1910.221
500.5730, 1899.097
501.0551, 1909.422
501.5373, 1910.250
502.0194, 1891.795
502.5015, 1868.206
502.9836, 1855.532
503.4657, 1855.114
503.9478, 1850.550
504.4300, 1833.807
504.9121, 1820.660
505.3942, 1821.200
505.8763, 1830.323
506.3584, 1839.834
506.8405, 1846.300
507.3227, 1848.837
507.8048, 1844.660
508.2869, 1831.226
508.7690, 1822.169
509.2511, 1825.201
509.7332, 1824.340
510.2154, 1804.507
510.6975, 1777.053
511.1796, 1765.988
511.6617, 1785.714
512.1439, 1812.944
512.6260, 1825.202
513.1081, 1824.186
513.5902, 1815.048
514.0723, 1796.652
514.5544, 1779.790
515.0366, 1776.984
515.5187, 1789.867
516.0008, 1801.719
516.4829, 1813.504
516.9650, 1823.182
517.4471, 1828.838
517.9293, 1832.041
518.4114, 1835.018
518.8935, 1838.600
519.3756, 1842.372
519.8577, 1845.568
520.3398, 1847.946
520.8220, 1852.044
521.3041, 1863.182
521.7862, 1868.503
522.2683, 1855.123
522.7504, 1834.173
523.2325, 1826.016
523.7147, 1840.713
524.1968, 1857.983
524.6789, 1859.566
525.1610, 1851.582
525.6431, 1850.957
526.1252, 1861.469
526.6074, 1873.254
527.0895, 1876.872
527.5716, 1872.291
528.0537, 1869.745
528.5358, 1870.923
529.0179, 1871.807
529.5001, 1872.900
529.9822, 1872.469
530.4643, 1866.029
530.9464, 1853.765
531.4285, 1844.735
531.9106, 1853.196
532.3928, 1876.686
532.8749, 1881.883
533.3570, 1860.617
533.8391, 1841.146
534.3212, 1838.282
534.8033, 1845.148
535.2855, 1852.816
535.7676, 1861.192
536.2497, 1868.218
536.7318, 1871.359
537.2139, 1873.389
537.6960, 1879.696
538.1782, 1889.847
538.6603, 1895.994
539.1424, 1891.884
539.6245, 1879.941
540.1066, 1872.054
540.5887, 1873.877
541.0709, 1870.978
541.5530, 1855.547
542.0351, 1840.456
542.5172, 1836.061
542.9993, 1841.744
543.4814, 1848.647
543.9636, 1850.756
544.4457, 1850.349
544.9278, 1852.579
545.4099, 1857.531
545.8920, 1860.867
546.3741, 1861.340
546.8563, 1858.947
547.3384, 1851.693
547.8205, 1837.441
548.3026, 1831.042
548.7847, 1843.370
549.2668, 1855.625
549.7490, 1855.763
550.2311, 1846.354
550.7132, 1833.397
551.1953, 1819.615
551.6774, 1807.788
552.1595, 1773.844
552.6417, 1809.003
553.1238, 1828.400
553.6059, 1832.881
554.0880, 1777.773
554.5701, 1799.612
555.0522, 1790.614
555.5344, 1780.352
556.0165, 1801.014
556.4986, 1813.062
556.9807, 1807.806
557.4628, 1791.423
557.9449, 1776.344
558.4271, 1765.120
558.9092, 1756.426
559.3913, 1749.393
559.8734, 1743.909
560.3555, 1736.681
560.8376, 1721.360
561.3198, 1712.167
561.8019, 1718.678
562.2840, 1727.437
562.7661, 1724.333
563.2482, 1708.279
563.7303, 1690.779
564.2125, 1680.606
564.6946, 1676.097
565.1767, 1673.866
565.6588, 1674.252
566.1409, 1672.710
566.6230, 1667.127
567.1052, 1658.680
567.5873, 1648.862
568.0694, 1636.939
568.5515, 1626.827
569.0336, 1619.273
569.5157, 1613.574
569.9979, 1609.491
570.4800, 1606.865
570.9621, 1606.064
571.4442, 1607.395
571.9263, 1608.682
572.4084, 1605.330
572.8906, 1596.475
573.3727, 1589.295
573.8548, 1583.023
574.3369, 1580.577
574.8190, 1585.847
575.3011, 1595.782
575.7833, 1604.259
576.2654, 1611.034
576.7475, 1614.322
577.2296, 1610.714
577.7117, 1603.796
578.1938, 1599.582
578.6760, 1598.959
579.1581, 1598.985
579.6402, 1597.369
580.1223, 1594.096
580.6044, 1588.673
581.0865, 1577.156
581.5686, 1570.025
582.0507, 1570.061
582.5328, 1573.547
583.0150, 1578.281
583.4971, 1583.822
583.9792, 1589.808
584.4613, 1597.709
584.9434, 1604.905
585.4255, 1607.698
585.9077, 1606.349
586.3898, 1602.237
586.8719, 1595.656
587.3540, 1587.125
587.8361, 1576.534
588.3182, 1562.067
588.8004, 1554.889
589.2825, 1560.742
589.7646, 1566.656
590.2467, 1567.293
590.7288, 1565.526
591.2109, 1566.862
591.6931, 1572.658
592.1752, 1576.003
592.6573, 1564.501
593.1394, 1543.646
593.6215, 1539.997
594.1036, 1557.635
594.5858, 1575.522
595.0679, 1584.971
595.5500, 1585.933
596.0321, 1576.067
596.5142, 1547.989
596.9963, 1529.721
597.4785, 1531.774
597.9606, 1539.641
598.4427, 1546.103
598.9248, 1549.261
599.4069, 1546.181
599.8890, 1534.703
600.3712, 1521.647
600.8533, 1521.563
601.3354, 1535.603
601.8175, 1540.993
602.2996, 1531.210
602.7817, 1519.545
603.2639, 1512.906
603.7460, 1511.640
604.2281, 1517.970
604.7102, 1540.611
605.1923, 1557.506
605.6744, 1554.978
606.1566, 1544.770
606.6387, 1539.398
607.1208, 1540.670
607.6029, 1545.783
608.0850, 1553.383
608.5671, 1561.876
609.0493, 1565.150
609.5314, 1561.385
610.0135, 1558.569
610.4956, 1560.070
610.9777, 1560.966
611.4598, 1554.790
611.9420, 1544.064
612.4241, 1540.227
612.9062, 1554.550
613.3883, 1568.599
613.8704, 1567.204
614.3525, 1557.842
614.8347, 1555.192
615.3168, 1562.181
615.7989, 1569.909
616.2810, 1569.014
616.7631, 1560.614
617.2452, 1557.667
617.7274, 1560.491
618.2095, 1568.349
618.6916, 1588.488
619.1737, 1608.133
619.6558, 1615.010
