##NAMES=Aenigmatite
##RRUFFID=R061088
##IDEAL CHEMISTRY=Na_4_(Fe^2+^_10_Ti^4+^_2_)O_4_[Si_12_O_36_]
##LOCALITY=Naujakasik, Greenland
##OWNER=RRUFF
##SOURCE=Michael Scott
##DESCRIPTION=Black prismatic crystals
##STATUS=The identification of this mineral has been confirmed by X-ray diffraction and chemical analysis
##URL=rruff.info/R061088
##MEASURED CHEMISTRY=(Na_1.72_Ca_0.28_)_Σ=2_(Fe^2+^_4.90_Mn_0.08_Mg_0.02_)_Σ=5_(Ti_0.85_Al_0.14_Fe^3+^_0.01_)_Σ=1_(Si_5.87_Al_0.13_)_Σ=6_O_20_
139.4677, 2478.424
139.9498, 2530.062
140.4319, 2591.149
140.9140, 2660.053
141.3962, 2750.244
141.8783, 2867.197
142.3604, 3002.656
142.8425, 3151.852
143.3246, 3313.369
143.8067, 3483.134
144.2889, 3659.951
144.7710, 3850.576
145.2531, 4023.612
145.7352, 4149.551
146.2173, 4207.825
146.6994, 4227.075
147.1816, 4263.842
147.6637, 4300.699
148.1458, 4310.502
148.6279, 4295.885
149.1100, 4267.745
149.5921, 4218.337
150.0743, 4158.481
150.5564, 4107.747
151.0385, 4071.541
151.5206, 4043.193
152.0027, 4013.641
152.4848, 3983.412
152.9670, 3946.654
153.4491, 3891.112
153.9312, 3825.785
154.4133, 3774.925
154.8954, 3748.515
155.3775, 3734.906
155.8597, 3716.399
156.3418, 3691.929
156.8239, 3665.816
157.3060, 3635.532
157.7881, 3603.762
158.2702, 3581.713
158.7524, 3575.733
159.2345, 3578.430
159.7166, 3580.522
160.1987, 3583.699
160.6808, 3580.928
161.1629, 3560.375
161.6451, 3526.645
162.1272, 3508.586
162.6093, 3522.758
163.0914, 3550.685
163.5735, 3572.254
164.0556, 3589.284
164.5378, 3593.390
165.0199, 3574.049
165.5020, 3533.241
165.9841, 3491.611
166.4662, 3451.821
166.9483, 3417.860
167.4305, 3392.478
167.9126, 3376.076
168.3947, 3367.591
168.8768, 3372.391
169.3589, 3390.609
169.8410, 3396.740
170.3232, 3375.896
170.8053, 3343.452
171.2874, 3313.108
171.7695, 3286.643
172.2516, 3260.900
172.7337, 3232.136
173.2159, 3199.806
173.6980, 3168.628
174.1801, 3130.983
174.6622, 3100.500
175.1443, 3093.008
175.6264, 3113.941
176.1086, 3140.504
176.5907, 3149.481
177.0728, 3139.530
177.5549, 3122.223
178.0370, 3093.811
178.5191, 3063.017
179.0013, 3036.647
179.4834, 3016.314
179.9655, 2997.646
180.4476, 2974.639
180.9297, 2946.143
181.4118, 2920.903
181.8940, 2902.673
182.3761, 2888.007
182.8582, 2875.868
183.3403, 2866.305
183.8224, 2856.843
184.3046, 2843.593
184.7867, 2825.423
185.2688, 2810.170
185.7509, 2804.001
186.2330, 2799.236
186.7151, 2789.443
187.1973, 2772.982
187.6794, 2756.927
188.1615, 2754.587
188.6436, 2772.020
189.1257, 2772.156
189.6078, 2723.259
190.0900, 2668.234
190.5721, 2635.715
191.0542, 2632.229
191.5363, 2638.349
192.0184, 2628.821
192.5005, 2598.838
192.9827, 2578.393
193.4648, 2585.582
193.9469, 2596.697
194.4290, 2596.019
194.9111, 2580.684
195.3932, 2561.945
195.8754, 2552.552
196.3575, 2553.656
196.8396, 2557.577
197.3217, 2572.229
197.8038, 2583.190
198.2859, 2577.896
198.7681, 2555.054
199.2502, 2530.631
199.7323, 2526.199
200.2144, 2546.776
200.6965, 2555.559
201.1786, 2532.073
201.6608, 2504.781
202.1429, 2490.083
202.6250, 2489.556
203.1071, 2491.827
203.5892, 2483.585
204.0713, 2462.888
204.5535, 2447.066
205.0356, 2448.047
205.5177, 2447.050
205.9998, 2431.365
206.4819, 2401.178
206.9640, 2369.512
207.4462, 2350.931
207.9283, 2346.958
208.4104, 2336.873
208.8925, 2315.184
209.3746, 2289.368
209.8567, 2260.250
210.3388, 2229.292
210.8210, 2202.350
211.3031, 2184.521
211.7852, 2175.814
212.2673, 2173.628
212.7494, 2188.850
213.2315, 2199.927
213.7137, 2192.586
214.1958, 2169.931
214.6779, 2146.563
215.1600, 2135.110
215.6421, 2135.061
216.1242, 2132.959
216.6064, 2126.633
217.0885, 2120.331
217.5706, 2116.622
218.0527, 2114.868
218.5348, 2112.792
219.0169, 2107.947
219.4991, 2100.941
219.9812, 2096.799
220.4633, 2097.565
220.9454, 2098.622
221.4275, 2096.246
221.9096, 2092.221
222.3918, 2090.913
222.8739, 2096.427
223.3560, 2106.908
223.8381, 2114.277
224.3202, 2117.374
224.8023, 2119.080
225.2845, 2122.977
225.7666, 2126.539
226.2487, 2124.589
226.7308, 2110.754
227.2129, 2091.030
227.6950, 2081.921
228.1772, 2087.984
228.6593, 2094.660
229.1414, 2093.976
229.6235, 2089.705
230.1056, 2087.609
230.5877, 2092.403
231.0699, 2098.343
231.5520, 2093.175
232.0341, 2072.806
232.5162, 2054.839
232.9983, 2049.999
233.4804, 2051.154
233.9626, 2050.916
234.4447, 2047.019
234.9268, 2041.232
235.4089, 2034.854
235.8910, 2027.400
236.3731, 2022.708
236.8553, 2023.130
237.3374, 2026.963
237.8195, 2034.608
238.3016, 2049.396
238.7837, 2059.254
239.2658, 2047.162
239.7480, 2013.027
240.2301, 1985.735
240.7122, 1975.836
241.1943, 1977.490
241.6764, 1985.568
242.1585, 2002.280
242.6407, 2014.617
243.1228, 2006.065
243.6049, 1981.109
244.0870, 1971.930
244.5691, 1998.713
245.0512, 2031.469
245.5334, 2030.635
246.0155, 1992.700
246.4976, 1957.732
246.9797, 1950.284
247.4618, 1962.339
247.9439, 1970.988
248.4261, 1970.722
248.9082, 1967.228
249.3903, 1969.541
249.8724, 1977.414
250.3545, 1976.946
250.8366, 1951.411
251.3188, 1917.382
251.8009, 1905.552
252.2830, 1923.782
252.7651, 1949.332
253.2472, 1960.265
253.7293, 1958.091
254.2115, 1954.582
254.6936, 1951.477
255.1757, 1948.240
255.6578, 1943.432
256.1399, 1936.945
256.6220, 1931.991
257.1042, 1930.953
257.5863, 1934.100
258.0684, 1939.818
258.5505, 1953.844
259.0326, 1965.902
259.5147, 1965.900
259.9969, 1955.628
260.4790, 1947.732
260.9611, 1951.165
261.4432, 1963.749
261.9253, 1970.760
262.4074, 1967.821
262.8896, 1964.547
263.3717, 1966.187
263.8538, 1970.709
264.3359, 1972.350
264.8180, 1967.686
265.3001, 1959.175
265.7823, 1955.512
266.2644, 1960.201
266.7465, 1964.513
267.2286, 1967.106
267.7107, 1968.276
268.1928, 1967.919
268.6750, 1965.924
269.1571, 1963.549
269.6392, 1963.254
270.1213, 1965.396
270.6034, 1969.417
271.0855, 1978.829
271.5677, 1988.126
272.0498, 1991.629
272.5319, 1988.365
273.0140, 1982.332
273.4961, 1978.808
273.9782, 1979.093
274.4604, 1978.141
274.9425, 1973.848
275.4246, 1970.210
275.9067, 1970.913
276.3888, 1975.123
276.8709, 1978.127
277.3531, 1974.624
277.8352, 1963.369
278.3173, 1959.848
278.7994, 1974.019
279.2815, 1985.798
279.7636, 1988.671
280.2458, 1984.213
280.7279, 1975.695
281.2100, 1963.901
281.6921, 1950.836
282.1742, 1950.031
282.6563, 1975.730
283.1385, 1995.225
283.6206, 2002.715
284.1027, 2000.193
284.5848, 1988.042
285.0669, 1965.511
285.5490, 1939.154
286.0312, 1923.176
286.5133, 1918.546
286.9954, 1922.542
287.4775, 1944.969
287.9596, 1968.954
288.4417, 1980.219
288.9239, 1975.246
289.4060, 1963.897
289.8881, 1955.819
290.3702, 1950.808
290.8523, 1951.410
291.3344, 1963.174
291.8166, 1976.477
292.2987, 1986.313
292.7808, 1992.175
293.2629, 1993.739
293.7450, 1985.978
294.2271, 1972.248
294.7093, 1970.227
295.1914, 1987.398
295.6735, 2005.725
296.1556, 2011.226
296.6377, 2007.379
297.1198, 2004.040
297.6020, 2004.729
298.0841, 2008.270
298.5662, 2012.716
299.0483, 2017.935
299.5304, 2025.314
300.0125, 2038.318
300.4947, 2053.759
300.9768, 2063.770
301.4589, 2066.034
301.9410, 2064.223
302.4231, 2057.377
302.9052, 2047.355
303.3874, 2044.965
303.8695, 2058.632
304.3516, 2079.122
304.8337, 2083.288
305.3158, 2063.820
305.7979, 2046.253
306.2801, 2041.255
306.7622, 2042.648
307.2443, 2039.858
307.7264, 2029.602
308.2085, 2017.053
308.6906, 2009.779
309.1728, 2009.835
309.6549, 2009.834
310.1370, 2014.635
310.6191, 2015.868
311.1012, 2001.409
311.5833, 1973.220
312.0655, 1949.756
312.5476, 1950.657
313.0297, 1979.855
313.5118, 1988.843
313.9939, 1955.988
314.4760, 1928.437
314.9582, 1929.161
315.4403, 1948.560
315.9224, 1965.297
316.4045, 1966.689
316.8866, 1955.455
317.3687, 1943.012
317.8509, 1924.837
318.3330, 1911.934
318.8151, 1907.000
319.2972, 1907.049
319.7793, 1909.883
320.2614, 1914.649
320.7436, 1920.227
321.2257, 1925.620
321.7078, 1932.145
322.1899, 1933.861
322.6720, 1922.530
323.1541, 1912.077
323.6363, 1912.557
324.1184, 1923.132
324.6005, 1933.034
325.0826, 1931.219
325.5647, 1919.212
326.0468, 1913.233
326.5290, 1917.213
327.0111, 1921.980
327.4932, 1922.823
327.9753, 1920.587
328.4574, 1916.938
328.9395, 1912.134
329.4217, 1906.597
329.9038, 1900.754
330.3859, 1894.573
330.8680, 1888.850
331.3501, 1885.358
331.8322, 1881.921
332.3144, 1873.504
332.7965, 1854.436
333.2786, 1840.931
333.7607, 1850.427
334.2428, 1874.563
334.7249, 1886.119
335.2070, 1874.091
335.6891, 1852.649
336.1713, 1845.058
336.6534, 1854.334
337.1355, 1859.870
337.6176, 1854.261
338.0997, 1845.455
338.5818, 1840.674
339.0640, 1841.036
339.5461, 1845.354
340.0282, 1853.619
340.5103, 1866.486
340.9924, 1872.711
341.4745, 1867.776
341.9567, 1861.978
342.4388, 1859.016
342.9209, 1858.362
343.4030, 1858.430
343.8851, 1858.395
344.3672, 1858.261
344.8494, 1858.175
345.3315, 1860.471
345.8136, 1859.191
346.2957, 1849.006
346.7778, 1838.136
347.2599, 1834.290
347.7421, 1839.093
348.2242, 1847.907
348.7063, 1855.801
349.1884, 1863.290
349.6705, 1867.334
350.1526, 1865.009
350.6348, 1861.675
351.1169, 1858.392
351.5990, 1855.949
352.0811, 1856.104
352.5632, 1861.044
353.0453, 1869.176
353.5275, 1875.189
354.0096, 1877.907
354.4917, 1881.932
354.9738, 1892.547
355.4559, 1904.974
355.9380, 1912.510
356.4202, 1911.822
356.9023, 1909.980
357.3844, 1912.187
357.8665, 1918.290
358.3486, 1928.432
358.8307, 1944.957
359.3129, 1962.044
359.7950, 1970.193
360.2771, 1968.789
360.7592, 1966.764
361.2413, 1965.208
361.7234, 1964.805
362.2056, 1968.493
362.6877, 1976.074
363.1698, 1979.696
363.6519, 1970.764
364.1340, 1948.801
364.6161, 1938.368
365.0983, 1947.684
365.5804, 1957.929
366.0625, 1959.976
366.5446, 1958.047
367.0267, 1961.838
367.5089, 1976.399
367.9910, 1995.630
368.4731, 2003.512
368.9552, 1992.161
369.4373, 1982.167
369.9194, 1972.734
370.4016, 1966.152
370.8837, 1965.437
371.3658, 1970.217
371.8479, 1976.120
372.3300, 1979.538
372.8121, 1980.505
373.2943, 1977.668
373.7764, 1970.185
374.2585, 1959.590
374.7406, 1942.718
375.2227, 1924.063
375.7048, 1912.080
376.1870, 1912.370
376.6691, 1918.699
377.1512, 1921.627
377.6333, 1920.897
378.1154, 1920.905
378.5975, 1925.746
379.0797, 1930.117
379.5618, 1926.751
380.0439, 1914.396
380.5260, 1899.716
381.0081, 1881.575
381.4902, 1864.107
381.9724, 1855.749
382.4545, 1858.383
382.9366, 1865.299
383.4187, 1870.796
383.9008, 1874.727
384.3829, 1876.823
384.8651, 1875.685
385.3472, 1874.037
385.8293, 1872.911
386.3114, 1872.401
386.7935, 1872.400
387.2756, 1872.807
387.7578, 1873.893
388.2399, 1876.761
388.7220, 1887.049
389.2041, 1890.455
389.6862, 1879.843
390.1683, 1867.017
390.6505, 1862.606
391.1326, 1867.319
391.6147, 1872.676
392.0968, 1867.786
392.5789, 1852.017
393.0610, 1847.770
393.5432, 1864.343
394.0253, 1880.643
394.5074, 1889.804
394.9895, 1892.499
395.4716, 1889.004
395.9537, 1876.467
396.4359, 1862.961
396.9180, 1862.417
397.4001, 1875.184
397.8822, 1882.495
398.3643, 1874.143
398.8464, 1861.545
399.3286, 1861.825
399.8107, 1877.216
400.2928, 1887.274
400.7749, 1876.815
401.2570, 1859.707
401.7391, 1857.848
402.2213, 1873.466
402.7034, 1888.583
403.1855, 1887.753
403.6676, 1871.477
404.1497, 1859.951
404.6318, 1854.943
405.1140, 1851.876
405.5961, 1846.611
406.0782, 1842.980
406.5603, 1849.611
407.0424, 1869.580
407.5245, 1893.231
408.0067, 1901.490
408.4888, 1884.554
408.9709, 1874.854
409.4530, 1878.226
409.9351, 1883.280
410.4172, 1884.549
410.8994, 1882.167
411.3815, 1878.607
411.8636, 1874.896
412.3457, 1871.624
412.8278, 1871.706
413.3099, 1877.455
413.7921, 1880.205
414.2742, 1872.769
414.7563, 1862.027
415.2384, 1854.940
415.7205, 1853.050
416.2026, 1853.089
416.6848, 1854.931
417.1669, 1856.970
417.6490, 1852.542
418.1311, 1838.339
418.6132, 1826.617
419.0953, 1832.107
419.5775, 1855.840
420.0596, 1871.746
420.5417, 1869.057
421.0238, 1867.644
421.5059, 1882.399
421.9880, 1907.716
422.4702, 1929.655
422.9523, 1941.379
423.4344, 1944.528
423.9165, 1941.951
424.3986, 1921.852
424.8807, 1916.261
425.3629, 1936.931
425.8450, 1962.045
426.3271, 1977.656
426.8092, 1982.776
427.2913, 1983.644
427.7734, 1983.598
428.2556, 1983.544
428.7377, 1990.654
429.2198, 2010.244
429.7019, 2026.165
430.1840, 2025.127
430.6661, 2019.605
431.1483, 2025.795
431.6304, 2050.098
432.1125, 2075.150
432.5946, 2085.354
433.0767, 2084.671
433.5588, 2087.740
434.0410, 2099.093
434.5231, 2109.125
435.0052, 2104.815
435.4873, 2085.769
435.9694, 2078.125
436.4515, 2093.460
436.9337, 2111.189
437.4158, 2119.809
437.8979, 2120.993
438.3800, 2119.618
438.8621, 2117.846
439.3442, 2116.292
439.8264, 2116.793
440.3085, 2123.845
440.7906, 2124.694
441.2727, 2115.728
441.7548, 2104.217
442.2369, 2093.374
442.7191, 2084.119
443.2012, 2077.308
443.6833, 2074.728
444.1654, 2074.743
444.6475, 2070.016
445.1296, 2058.083
445.6118, 2048.258
446.0939, 2047.922
446.5760, 2049.954
447.0581, 2046.216
447.5402, 2034.571
448.0223, 2022.690
448.5045, 2014.395
448.9866, 2009.410
449.4687, 2008.960
449.9508, 2013.844
450.4329, 2015.881
450.9150, 2006.485
451.3972, 1985.910
451.8793, 1971.019
452.3614, 1965.135
452.8435, 1960.930
453.3256, 1954.592
453.8077, 1948.488
454.2899, 1948.118
454.7720, 1955.176
455.2541, 1962.851
455.7362, 1959.271
456.2183, 1939.373
456.7004, 1925.467
457.1826, 1923.923
457.6647, 1922.512
458.1468, 1916.907
458.6289, 1907.702
459.1110, 1895.878
459.5931, 1878.957
460.0753, 1864.444
460.5574, 1870.448
461.0395, 1898.147
461.5216, 1911.932
462.0037, 1894.550
462.4858, 1865.826
462.9680, 1850.624
463.4501, 1849.127
463.9322, 1850.551
464.4143, 1855.390
464.8964, 1859.485
465.3785, 1858.120
465.8607, 1851.768
466.3428, 1843.940
466.8249, 1836.328
467.3070, 1829.610
467.7891, 1826.310
468.2712, 1830.260
468.7534, 1832.666
469.2355, 1837.618
469.7176, 1837.880
470.1997, 1821.840
470.6818, 1792.519
471.1639, 1768.986
471.6461, 1770.796
472.1282, 1793.139
472.6103, 1806.217
473.0924, 1807.202
473.5745, 1805.628
474.0566, 1802.495
474.5388, 1800.273
475.0209, 1802.515
475.5030, 1810.633
475.9851, 1818.920
476.4672, 1824.719
476.9493, 1828.040
477.4315, 1828.603
477.9136, 1826.343
478.3957, 1821.764
478.8778, 1813.776
479.3599, 1802.927
479.8420, 1801.208
480.3242, 1821.909
480.8063, 1834.466
481.2884, 1820.417
481.7705, 1798.249
482.2526, 1792.917
482.7347, 1810.211
483.2169, 1833.448
483.6990, 1840.901
484.1811, 1830.577
484.6632, 1828.632
485.1453, 1842.663
485.6274, 1854.812
486.1096, 1859.265
486.5917, 1856.821
487.0738, 1847.400
487.5559, 1828.481
488.0380, 1809.789
488.5201, 1802.339
489.0023, 1803.195
489.4844, 1800.228
489.9665, 1789.708
490.4486, 1779.983
490.9307, 1781.589
491.4128, 1795.563
491.8950, 1797.672
492.3771, 1774.580
492.8592, 1753.901
493.3413, 1751.619
493.8234, 1758.723
494.3055, 1759.472
494.7877, 1748.063
495.2698, 1730.722
495.7519, 1715.640
496.2340, 1701.519
496.7161, 1695.141
497.1982, 1707.622
497.6804, 1715.728
498.1625, 1705.151
498.6446, 1684.027
499.1267, 1668.775
499.6088, 1667.364
500.0909, 1670.161
500.5730, 1665.139
501.0551, 1654.329
501.5373, 1650.062
502.0194, 1657.413
502.5015, 1665.987
502.9836, 1662.632
503.4657, 1645.829
503.9478, 1637.076
504.4300, 1643.033
504.9121, 1650.910
505.3942, 1654.840
505.8763, 1656.108
506.3584, 1657.021
506.8405, 1658.548
507.3227, 1661.734
507.8048, 1669.322
508.2869, 1683.479
508.7690, 1692.988
509.2511, 1698.163
509.7332, 1697.764
510.2154, 1685.079
510.6975, 1667.491
511.1796, 1659.913
511.6617, 1670.274
512.1439, 1687.187
512.6260, 1700.307
513.1081, 1709.986
513.5902, 1717.311
514.0723, 1722.045
514.5544, 1726.400
515.0366, 1732.887
515.5187, 1741.801
516.0008, 1749.517
516.4829, 1757.693
516.9650, 1762.880
517.4471, 1762.007
517.9293, 1757.593
518.4114, 1752.722
518.8935, 1748.639
519.3756, 1746.557
519.8577, 1749.739
520.3398, 1759.668
520.8220, 1763.166
521.3041, 1755.875
521.7862, 1747.739
522.2683, 1742.315
522.7504, 1739.466
523.2325, 1738.844
523.7147, 1740.076
524.1968, 1744.181
524.6789, 1754.302
525.1610, 1767.809
525.6431, 1777.938
526.1252, 1783.310
526.6074, 1785.586
527.0895, 1785.046
527.5716, 1781.634
528.0537, 1785.526
528.5358, 1808.507
529.0179, 1823.489
529.5001, 1818.944
529.9822, 1805.577
530.4643, 1793.166
530.9464, 1785.087
531.4285, 1783.210
531.9106, 1792.803
532.3928, 1812.447
532.8749, 1823.426
533.3570, 1822.833
533.8391, 1820.725
534.3212, 1821.325
534.8033, 1823.600
535.2855, 1826.223
535.7676, 1829.221
536.2497, 1832.124
536.7318, 1837.222
537.2139, 1840.843
537.6960, 1834.659
538.1782, 1819.678
538.6603, 1810.131
539.1424, 1817.501
539.6245, 1837.108
540.1066, 1846.115
540.5887, 1836.590
541.0709, 1828.224
541.5530, 1821.944
542.0351, 1817.928
542.5172, 1818.361
542.9993, 1821.846
543.4814, 1822.027
543.9636, 1810.224
544.4457, 1795.072
544.9278, 1797.693
545.4099, 1818.535
545.8920, 1832.630
546.3741, 1829.047
546.8563, 1816.810
547.3384, 1808.734
547.8205, 1804.669
548.3026, 1804.160
548.7847, 1815.320
549.2668, 1822.558
549.7490, 1812.155
550.2311, 1790.335
550.7132, 1771.015
551.1953, 1760.700
551.6774, 1756.993
552.1595, 1755.904
552.6417, 1757.230
553.1238, 1763.164
553.6059, 1783.723
554.0880, 1796.174
554.5701, 1782.730
555.0522, 1754.010
555.5344, 1732.414
556.0165, 1726.041
556.4986, 1724.544
556.9807, 1719.350
557.4628, 1713.580
557.9449, 1717.044
558.4271, 1731.644
558.9092, 1742.533
559.3913, 1734.612
559.8734, 1708.703
560.3555, 1690.382
560.8376, 1681.858
561.3198, 1678.709
561.8019, 1688.109
562.2840, 1697.879
562.7661, 1695.148
563.2482, 1679.026
563.7303, 1660.467
564.2125, 1647.529
564.6946, 1638.966
565.1767, 1631.857
565.6588, 1626.291
566.1409, 1621.562
566.6230, 1618.791
567.1052, 1615.290
567.5873, 1603.994
568.0694, 1581.111
568.5515, 1567.142
569.0336, 1573.938
569.5157, 1582.505
569.9979, 1576.861
570.4800, 1562.724
570.9621, 1557.029
571.4442, 1568.525
571.9263, 1585.058
572.4084, 1583.349
572.8906, 1560.546
573.3727, 1540.646
573.8548, 1524.596
574.3369, 1513.368
574.8190, 1508.933
575.3011, 1509.366
575.7833, 1510.993
576.2654, 1514.621
576.7475, 1516.659
577.2296, 1514.136
577.7117, 1508.970
578.1938, 1503.431
578.6760, 1498.200
579.1581, 1495.429
579.6402, 1498.004
580.1223, 1504.355
580.6044, 1500.938
581.0865, 1475.827
581.5686, 1460.543
582.0507, 1466.738
582.5328, 1477.998
583.0150, 1483.321
583.4971, 1481.541
583.9792, 1475.182
584.4613, 1458.512
584.9434, 1442.435
585.4255, 1445.610
585.9077, 1465.197
586.3898, 1484.922
586.8719, 1500.637
587.3540, 1507.229
587.8361, 1494.023
588.3182, 1452.400
588.8004, 1433.931
589.2825, 1459.428
589.7646, 1482.240
590.2467, 1481.251
590.7288, 1469.513
591.2109, 1466.957
591.6931, 1479.194
592.1752, 1492.510
592.6573, 1488.815
593.1394, 1473.538
593.6215, 1474.646
594.1036, 1497.603
594.5858, 1510.273
595.0679, 1488.998
595.5500, 1450.340
596.0321, 1435.574
596.5142, 1453.085
596.9963, 1468.506
597.4785, 1476.399
597.9606, 1480.860
598.4427, 1483.827
598.9248, 1485.978
599.4069, 1488.206
599.8890, 1491.069
600.3712, 1493.524
600.8533, 1493.461
601.3354, 1490.753
601.8175, 1487.769
602.2996, 1483.741
602.7817, 1481.367
603.2639, 1484.664
603.7460, 1491.024
604.2281, 1493.554
604.7102, 1490.169
605.1923, 1485.149
605.6744, 1479.105
606.1566, 1472.957
606.6387, 1465.745
607.1208, 1458.755
607.6029, 1458.591
608.0850, 1471.704
608.5671, 1492.439
609.0493, 1499.691
609.5314, 1488.746
610.0135, 1480.338
610.4956, 1482.970
610.9777, 1484.402
611.4598, 1471.797
611.9420, 1449.101
612.4241, 1434.371
612.9062, 1436.715
613.3883, 1444.539
613.8704, 1452.451
614.3525, 1459.926
614.8347, 1466.463
615.3168, 1471.771
615.7989, 1473.594
616.2810, 1468.005
616.7631, 1456.583
617.2452, 1460.210
617.7274, 1493.310
618.2095, 1514.017
618.6916, 1502.009
619.1737, 1481.679
619.6558, 1469.023
620.1379, 1465.467
620.6201, 1469.316
621.1022, 1484.766
621.5843, 1503.293
622.0664, 1517.088
622.5485, 1527.049
623.0306, 1534.546
623.5128, 1540.009
623.9949, 1548.754
624.4770, 1569.071
624.9591, 1602.114
625.4412, 1623.753
625.9233, 1623.304
626.4055, 1626.773
626.8876, 1643.477
627.3697, 1665.059
627.8518, 1682.400
628.3339, 1694.547
628.8160, 1710.127
629.2982, 1735.858
629.7803, 1766.266
630.2624, 1794.624
630.7445, 1821.433
631.2266, 1848.530
631.7087, 1876.369
632.1909, 1908.556
632.6730, 1950.971
633.1551, 2005.482
633.6372, 2058.584
634.1193, 2112.804
