##NAMES=Aenigmatite
##RRUFFID=R061088
##IDEAL CHEMISTRY=Na_4_(Fe^2+^_10_Ti^4+^_2_)O_4_[Si_12_O_36_]
##LOCALITY=Naujakasik, Greenland
##OWNER=RRUFF
##SOURCE=Michael Scott
##DESCRIPTION=Black prismatic crystals
##STATUS=The identification of this mineral has been confirmed by X-ray diffraction and chemical analysis
##URL=rruff.info/R061088
##MEASURED CHEMISTRY=(Na_1.72_Ca_0.28_)_Σ=2_(Fe^2+^_4.90_Mn_0.08_Mg_0.02_)_Σ=5_(Ti_0.85_Al_0.14_Fe^3+^_0.01_)_Σ=1_(Si_5.87_Al_0.13_)_Σ=6_O_20_
123.4933, 1234.828
123.9754, 1269.870
124.4575, 1299.761
124.9396, 1339.332
125.4217, 1392.198
125.9038, 1445.038
126.3860, 1466.565
126.8681, 1452.484
127.3502, 1438.922
127.8323, 1464.290
128.3144, 1512.579
128.7966, 1544.223
129.2787, 1549.718
129.7608, 1541.465
130.2429, 1542.199
130.7250, 1551.786
131.2071, 1558.415
131.6892, 1548.984
132.1714, 1525.392
132.6535, 1503.221
133.1356, 1485.648
133.6177, 1472.274
134.0998, 1464.378
134.5819, 1462.690
135.0641, 1462.377
135.5462, 1454.038
136.0283, 1435.832
136.5104, 1425.174
136.9925, 1432.048
137.4746, 1458.242
137.9568, 1480.601
138.4389, 1502.590
138.9210, 1518.058
139.4031, 1508.531
139.8852, 1464.166
140.3673, 1421.165
140.8495, 1400.140
141.3316, 1407.418
141.8137, 1415.897
142.2958, 1424.007
142.7779, 1431.775
143.2600, 1439.054
143.7422, 1445.308
144.2243, 1451.913
144.7064, 1459.981
145.1885, 1470.687
145.6706, 1481.391
146.1527, 1493.792
146.6349, 1509.668
147.1170, 1514.149
147.5991, 1495.706
148.0812, 1471.142
148.5633, 1461.454
149.0454, 1471.538
149.5276, 1491.242
150.0097, 1520.992
150.4918, 1576.852
150.9739, 1609.968
151.4560, 1601.473
151.9381, 1569.974
152.4203, 1556.029
152.9024, 1577.969
153.3845, 1605.939
153.8666, 1627.700
154.3487, 1644.770
154.8308, 1652.342
155.3130, 1644.630
155.7951, 1624.905
156.2772, 1608.904
156.7593, 1596.191
157.2414, 1590.312
157.7235, 1593.706
158.2057, 1617.227
158.6878, 1639.971
159.1699, 1657.449
159.6520, 1669.487
160.1341, 1676.486
160.6162, 1676.891
161.0983, 1673.043
161.5805, 1667.489
162.0626, 1665.188
162.5447, 1658.318
163.0268, 1639.625
163.5089, 1605.376
163.9910, 1576.711
164.4732, 1569.498
164.9553, 1574.200
165.4374, 1574.250
165.9195, 1555.969
166.4016, 1533.917
166.8837, 1519.194
167.3659, 1515.943
167.8480, 1514.560
168.3301, 1508.702
168.8122, 1499.539
169.2943, 1490.727
169.7764, 1486.706
170.2586, 1483.256
170.7407, 1475.315
171.2228, 1459.314
171.7049, 1441.293
172.1870, 1425.470
172.6691, 1411.818
173.1513, 1400.778
173.6334, 1393.021
174.1155, 1387.867
174.5976, 1384.331
175.0797, 1384.077
175.5618, 1384.130
176.0440, 1380.833
176.5261, 1374.213
177.0082, 1365.925
177.4903, 1358.523
177.9724, 1350.755
178.4545, 1339.584
178.9367, 1317.467
179.4188, 1292.571
179.9009, 1279.662
180.3830, 1280.379
180.8651, 1286.999
181.3472, 1296.052
181.8294, 1305.490
182.3115, 1305.981
182.7936, 1279.909
183.2757, 1240.730
183.7578, 1227.403
184.2399, 1250.072
184.7221, 1284.148
185.2042, 1289.129
185.6863, 1266.733
186.1684, 1242.658
186.6505, 1235.039
187.1326, 1240.635
187.6148, 1245.547
188.0969, 1248.954
188.5790, 1249.101
189.0611, 1240.340
189.5432, 1222.244
190.0253, 1203.183
190.5075, 1188.389
190.9896, 1178.081
191.4717, 1172.773
191.9538, 1174.738
192.4359, 1181.098
192.9180, 1181.666
193.4001, 1175.925
193.8823, 1167.865
194.3644, 1160.201
194.8465, 1152.891
195.3286, 1149.461
195.8107, 1152.904
196.2928, 1161.803
196.7750, 1165.150
197.2571, 1162.245
197.7392, 1155.827
198.2213, 1147.748
198.7034, 1137.430
199.1855, 1130.246
199.6677, 1128.818
200.1498, 1133.125
200.6319, 1137.256
201.1140, 1141.111
201.5961, 1144.886
202.0782, 1149.856
202.5604, 1156.906
203.0425, 1160.915
203.5246, 1158.454
204.0067, 1148.599
204.4888, 1140.090
204.9709, 1133.496
205.4531, 1127.968
205.9352, 1121.110
206.4173, 1111.910
206.8994, 1104.429
207.3815, 1100.847
207.8636, 1101.333
208.3458, 1105.389
208.8279, 1115.391
209.3100, 1128.042
209.7921, 1131.234
210.2742, 1121.230
210.7563, 1110.014
211.2385, 1106.390
211.7206, 1113.537
212.2027, 1115.870
212.6848, 1109.417
213.1669, 1096.506
213.6490, 1090.878
214.1312, 1095.908
214.6133, 1102.422
215.0954, 1102.100
215.5775, 1090.987
216.0596, 1084.910
216.5417, 1088.167
217.0239, 1099.916
217.5060, 1107.321
217.9881, 1109.880
218.4702, 1108.779
218.9523, 1104.247
219.4344, 1093.823
219.9166, 1085.908
220.3987, 1082.033
220.8808, 1082.270
221.3629, 1086.452
221.8450, 1098.551
222.3271, 1110.429
222.8092, 1110.990
223.2914, 1091.924
223.7735, 1078.312
224.2556, 1077.591
224.7377, 1091.758
225.2198, 1104.152
225.7020, 1115.817
226.1841, 1124.925
226.6662, 1128.189
227.1483, 1121.406
227.6304, 1116.269
228.1125, 1116.930
228.5947, 1125.514
229.0768, 1130.728
229.5589, 1132.252
230.0410, 1130.641
230.5231, 1125.794
231.0052, 1112.714
231.4874, 1104.697
231.9695, 1108.484
232.4516, 1131.585
232.9337, 1142.808
233.4158, 1136.612
233.8979, 1120.956
234.3801, 1113.169
234.8622, 1118.764
235.3443, 1123.930
235.8264, 1123.147
236.3085, 1114.145
236.7906, 1104.079
237.2728, 1089.737
237.7549, 1075.088
238.2370, 1071.573
238.7191, 1086.793
239.2012, 1102.568
239.6833, 1110.111
240.1655, 1104.815
240.6476, 1101.503
241.1297, 1101.813
241.6118, 1104.212
242.0939, 1103.208
242.5760, 1096.500
243.0582, 1089.511
243.5403, 1084.841
244.0224, 1082.524
244.5045, 1082.759
244.9866, 1086.917
245.4687, 1093.776
245.9509, 1098.366
246.4330, 1102.214
246.9151, 1101.813
247.3972, 1093.587
247.8793, 1070.366
248.3614, 1055.345
248.8436, 1052.933
249.3257, 1060.719
249.8078, 1065.768
250.2899, 1067.613
250.7720, 1067.306
251.2541, 1064.666
251.7363, 1056.137
252.2184, 1053.457
252.7005, 1061.076
253.1826, 1076.571
253.6647, 1082.086
254.1468, 1072.901
254.6289, 1060.012
255.1111, 1050.829
255.5932, 1045.327
256.0753, 1043.946
256.5574, 1048.794
257.0395, 1058.704
257.5216, 1062.134
258.0038, 1055.567
258.4859, 1047.607
258.9680, 1045.346
259.4501, 1051.184
259.9322, 1056.721
260.4143, 1061.491
260.8965, 1065.307
261.3786, 1065.872
261.8607, 1062.628
262.3428, 1057.098
262.8249, 1049.308
263.3070, 1036.839
263.7892, 1029.729
264.2713, 1031.177
264.7534, 1040.244
265.2355, 1047.064
265.7176, 1051.147
266.1997, 1053.972
266.6819, 1056.430
267.1640, 1057.875
267.6461, 1061.254
268.1282, 1067.796
268.6103, 1077.050
269.0924, 1084.780
269.5746, 1091.325
270.0567, 1095.752
270.5388, 1096.360
271.0209, 1091.906
271.5030, 1088.917
271.9851, 1088.740
272.4673, 1091.176
272.9494, 1095.116
273.4315, 1101.400
273.9136, 1107.157
274.3957, 1109.177
274.8778, 1106.755
275.3600, 1104.502
275.8421, 1088.995
276.3242, 1107.517
276.8063, 1118.719
277.2884, 1122.993
277.7705, 1099.591
278.2527, 1111.927
278.7348, 1109.941
279.2169, 1107.367
279.6990, 1124.733
280.1811, 1105.356
280.6632, 1122.406
281.1454, 1124.915
281.6275, 1134.078
282.1096, 1128.832
282.5917, 1128.036
283.0738, 1141.655
283.5559, 1147.293
284.0381, 1140.387
284.5202, 1149.974
285.0023, 1148.860
285.4844, 1160.476
285.9665, 1163.265
286.4486, 1157.912
286.9308, 1155.130
287.4129, 1158.610
287.8950, 1166.133
288.3771, 1170.090
288.8592, 1170.174
289.3413, 1171.032
289.8235, 1179.284
290.3056, 1193.245
290.7877, 1202.100
291.2698, 1199.981
291.7519, 1193.107
292.2340, 1198.013
292.7162, 1214.817
293.1983, 1232.361
293.6804, 1241.032
294.1625, 1242.356
294.6446, 1241.492
295.1267, 1237.192
295.6089, 1233.596
296.0910, 1240.094
296.5731, 1256.215
297.0552, 1273.786
297.5373, 1287.213
298.0194, 1296.924
298.5016, 1303.861
298.9836, 1308.325
299.4658, 1309.954
299.9479, 1304.694
300.4300, 1293.738
300.9121, 1287.525
301.3942, 1300.243
301.8763, 1322.107
302.3585, 1334.495
302.8406, 1329.395
303.3227, 1318.149
303.8048, 1311.670
304.2869, 1309.769
304.7690, 1310.667
305.2512, 1316.026
305.7333, 1322.636
306.2154, 1326.068
306.6975, 1323.807
307.1796, 1320.340
307.6617, 1320.935
308.1439, 1324.105
308.6260, 1324.349
309.1081, 1311.995
309.5902, 1298.043
310.0723, 1294.706
310.5544, 1311.002
311.0366, 1326.565
311.5187, 1326.201
312.0008, 1314.060
312.4829, 1302.839
312.9650, 1301.357
313.4471, 1301.628
313.9293, 1297.512
314.4114, 1286.755
314.8935, 1274.046
315.3756, 1259.452
315.8577, 1244.326
316.3398, 1232.316
316.8220, 1225.974
317.3041, 1222.162
317.7862, 1219.288
318.2683, 1217.348
318.7504, 1215.702
319.2325, 1213.758
319.7147, 1211.999
320.1968, 1211.269
320.6789, 1215.822
321.1610, 1218.189
321.6431, 1213.859
322.1252, 1198.854
322.6074, 1187.909
323.0895, 1186.341
323.5716, 1189.872
324.0537, 1192.165
324.5358, 1193.392
325.0179, 1192.159
325.5001, 1188.141
325.9822, 1181.399
326.4643, 1171.567
326.9464, 1153.025
327.4285, 1133.282
327.9106, 1121.354
328.3928, 1122.869
328.8749, 1126.239
329.3570, 1130.398
329.8391, 1136.148
330.3212, 1137.364
330.8033, 1129.855
331.2855, 1120.730
331.7676, 1117.632
332.2497, 1127.660
332.7318, 1132.076
333.2139, 1125.564
333.6960, 1108.143
334.1782, 1095.208
334.6603, 1088.252
335.1424, 1083.962
335.6245, 1079.125
336.1066, 1072.535
336.5887, 1068.765
337.0709, 1069.294
337.5530, 1073.332
338.0351, 1075.955
338.5172, 1077.020
338.9993, 1076.920
339.4814, 1074.717
339.9636, 1069.507
340.4457, 1069.272
340.9278, 1076.818
341.4099, 1089.028
341.8920, 1095.902
342.3741, 1096.876
342.8563, 1096.263
343.3384, 1096.282
343.8205, 1096.975
344.3026, 1099.820
344.7847, 1105.917
345.2668, 1112.549
345.7490, 1112.928
346.2311, 1107.368
346.7132, 1103.447
347.1953, 1106.621
347.6774, 1115.194
348.1595, 1124.381
348.6417, 1134.277
349.1238, 1142.578
349.6059, 1144.513
350.0880, 1141.619
350.5701, 1140.525
351.0522, 1145.515
351.5344, 1154.269
352.0165, 1162.801
352.4986, 1170.647
352.9807, 1179.599
353.4628, 1193.503
353.9449, 1209.639
354.4271, 1222.297
354.9092, 1225.100
355.3913, 1225.548
355.8734, 1231.279
356.3555, 1242.438
356.8376, 1253.506
357.3198, 1258.323
357.8019, 1261.601
358.2840, 1269.231
358.7661, 1293.419
359.2482, 1313.911
359.7303, 1316.083
360.2125, 1301.908
360.6946, 1290.301
361.1767, 1290.669
361.6588, 1296.238
362.1409, 1301.757
362.6230, 1306.607
363.1051, 1310.642
363.5872, 1316.755
364.0694, 1322.985
364.5515, 1321.221
365.0336, 1301.245
365.5157, 1279.013
365.9978, 1262.398
366.4799, 1253.007
366.9621, 1248.021
367.4442, 1251.679
367.9263, 1259.564
368.4084, 1260.782
368.8905, 1246.893
369.3727, 1234.345
369.8548, 1229.628
370.3369, 1237.931
370.8190, 1238.647
371.3011, 1227.173
371.7832, 1210.615
372.2654, 1199.403
372.7475, 1196.988
373.2296, 1193.654
373.7117, 1186.170
374.1938, 1174.113
374.6759, 1164.651
375.1581, 1158.006
375.6402, 1153.569
376.1223, 1150.756
376.6044, 1149.572
377.0865, 1150.622
377.5686, 1155.885
378.0508, 1163.419
378.5329, 1161.929
379.0150, 1149.818
379.4971, 1136.863
379.9792, 1133.048
380.4613, 1137.350
380.9435, 1135.050
381.4256, 1120.809
381.9077, 1102.619
382.3898, 1098.646
382.8719, 1107.903
383.3540, 1116.641
383.8362, 1112.943
384.3183, 1102.134
384.8004, 1098.791
385.2825, 1106.137
385.7646, 1115.160
386.2467, 1115.779
386.7289, 1109.762
387.2110, 1102.178
387.6931, 1092.180
388.1752, 1083.670
388.6573, 1082.458
389.1394, 1089.262
389.6216, 1096.824
390.1037, 1096.292
390.5858, 1082.667
391.0679, 1097.252
391.5500, 1104.517
392.0321, 1104.854
392.5143, 1077.515
392.9964, 1085.915
393.4785, 1079.992
393.9606, 1073.481
394.4427, 1082.616
394.9248, 1080.437
395.4070, 1060.511
395.8891, 1044.710
396.3712, 1039.188
396.8533, 1041.879
397.3354, 1045.275
397.8175, 1048.313
398.2997, 1051.914
398.7818, 1057.326
399.2639, 1072.098
399.7460, 1074.697
400.2281, 1054.796
400.7102, 1025.826
401.1924, 1011.960
401.6745, 1021.560
402.1566, 1033.330
402.6387, 1041.108
403.1208, 1044.344
403.6029, 1048.198
404.0851, 1053.404
404.5672, 1058.235
405.0493, 1060.617
405.5314, 1060.125
406.0135, 1059.193
406.4956, 1058.212
406.9778, 1057.245
407.4599, 1056.294
407.9420, 1055.175
408.4241, 1055.124
408.9062, 1059.481
409.3883, 1067.038
409.8705, 1066.924
410.3526, 1054.286
410.8347, 1038.911
411.3168, 1039.481
411.7989, 1054.120
412.2810, 1068.192
412.7632, 1071.910
413.2453, 1069.909
413.7274, 1070.430
414.2095, 1074.483
414.6916, 1079.189
415.1737, 1084.048
415.6559, 1087.620
416.1380, 1086.999
416.6201, 1072.821
417.1022, 1060.026
417.5843, 1061.137
418.0664, 1075.984
418.5486, 1092.721
419.0307, 1109.746
419.5128, 1123.699
419.9949, 1131.235
420.4770, 1120.775
420.9591, 1115.682
421.4413, 1128.358
421.9234, 1153.140
422.4055, 1169.099
422.8876, 1165.590
423.3697, 1157.336
423.8518, 1149.884
424.3339, 1139.675
424.8160, 1138.496
425.2982, 1153.004
425.7803, 1174.340
426.2624, 1188.524
426.7445, 1192.731
427.2266, 1194.355
427.7087, 1194.737
428.1909, 1193.771
428.6730, 1194.043
429.1551, 1196.564
429.6372, 1198.614
430.1193, 1196.604
430.6014, 1189.458
431.0836, 1185.456
431.5657, 1186.844
432.0478, 1191.865
432.5299, 1194.298
433.0120, 1193.836
433.4941, 1195.751
433.9763, 1206.743
434.4584, 1223.806
434.9405, 1233.362
435.4226, 1232.728
435.9047, 1229.143
436.3868, 1232.438
436.8690, 1240.592
437.3511, 1247.186
437.8332, 1246.557
438.3153, 1244.105
438.7974, 1248.847
439.2795, 1260.897
439.7617, 1267.599
440.2438, 1255.220
440.7259, 1234.469
441.2080, 1217.492
441.6901, 1209.462
442.1722, 1204.336
442.6544, 1200.446
443.1365, 1197.459
443.6186, 1194.131
444.1007, 1187.894
444.5828, 1182.948
445.0649, 1181.917
445.5471, 1187.524
446.0292, 1191.602
446.5113, 1194.755
446.9934, 1195.461
447.4755, 1191.310
447.9576, 1177.564
448.4398, 1165.124
448.9219, 1157.033
449.4040, 1153.439
449.8861, 1145.732
450.3682, 1130.181
450.8503, 1116.260
451.3325, 1113.432
451.8146, 1124.572
452.2967, 1132.180
452.7788, 1133.604
453.2609, 1130.672
453.7430, 1124.961
454.2252, 1115.903
454.7073, 1114.460
455.1894, 1137.767
455.6715, 1176.079
456.1536, 1183.198
456.6357, 1153.099
457.1179, 1116.371
457.6000, 1109.042
458.0821, 1122.410
458.5642, 1133.546
459.0463, 1132.236
459.5284, 1125.634
460.0106, 1118.866
460.4927, 1112.445
460.9748, 1110.600
461.4569, 1120.085
461.9390, 1133.053
462.4211, 1142.701
462.9033, 1148.246
463.3854, 1149.127
463.8675, 1141.087
464.3496, 1128.596
464.8317, 1120.054
465.3138, 1120.264
465.7960, 1122.160
466.2781, 1123.952
466.7602, 1125.782
467.2423, 1126.036
467.7244, 1120.699
468.2065, 1116.705
468.6887, 1121.028
469.1708, 1144.246
469.6529, 1153.840
470.1350, 1140.932
470.6171, 1112.837
471.0992, 1096.396
471.5814, 1093.380
472.0635, 1096.409
472.5456, 1102.885
473.0277, 1112.784
473.5098, 1123.646
473.9919, 1136.430
474.4741, 1146.725
474.9562, 1147.265
475.4383, 1139.425
475.9204, 1131.271
476.4025, 1124.590
476.8846, 1120.026
477.3668, 1119.313
477.8489, 1122.188
478.3310, 1126.318
478.8131, 1134.759
479.2952, 1141.634
479.7773, 1138.009
480.2595, 1117.921
480.7416, 1099.429
481.2237, 1093.303
481.7058, 1096.050
482.1879, 1101.644
482.6700, 1110.094
483.1522, 1119.006
483.6343, 1128.408
484.1164, 1138.498
484.5985, 1144.753
485.0806, 1145.157
485.5627, 1142.247
486.0448, 1137.621
486.5269, 1128.672
487.0091, 1122.248
487.4912, 1120.114
487.9733, 1120.245
488.4554, 1116.397
488.9375, 1105.532
489.4196, 1098.776
489.9018, 1104.333
490.3839, 1122.177
490.8660, 1122.899
491.3481, 1102.515
491.8302, 1079.431
492.3123, 1074.935
492.7945, 1086.458
493.2766, 1096.208
493.7587, 1099.547
494.2408, 1099.405
494.7229, 1098.854
495.2050, 1098.343
495.6872, 1100.216
496.1693, 1112.069
496.6514, 1123.971
497.1335, 1121.628
497.6156, 1101.278
498.0977, 1084.774
498.5799, 1091.502
499.0620, 1107.975
499.5441, 1117.860
500.0262, 1107.554
500.5083, 1098.835
500.9904, 1101.343
501.4726, 1112.650
501.9547, 1117.979
502.4368, 1108.547
502.9189, 1098.166
503.4010, 1092.548
503.8831, 1092.254
504.3653, 1095.584
504.8474, 1104.880
505.3295, 1115.650
505.8116, 1121.605
506.2937, 1121.181
506.7758, 1121.453
507.2580, 1124.890
507.7401, 1130.115
508.2222, 1130.723
508.7043, 1126.250
509.1864, 1122.125
509.6685, 1122.684
510.1507, 1126.865
510.6328, 1131.019
511.1149, 1134.759
511.5970, 1138.516
512.0792, 1142.192
512.5613, 1146.271
513.0434, 1151.705
513.5255, 1161.326
514.0076, 1170.635
514.4897, 1175.482
514.9718, 1176.412
515.4539, 1177.529
515.9360, 1180.563
516.4182, 1184.476
516.9003, 1188.293
517.3824, 1190.304
517.8645, 1195.433
518.3466, 1208.300
518.8287, 1223.638
519.3109, 1233.202
519.7930, 1231.889
520.2751, 1232.416
520.7572, 1239.086
521.2393, 1250.810
521.7214, 1254.515
522.2036, 1247.019
522.6857, 1239.147
523.1678, 1240.030
523.6499, 1249.834
524.1320, 1251.994
524.6141, 1242.786
525.0963, 1232.962
525.5784, 1240.562
526.0605, 1262.348
526.5426, 1281.322
527.0247, 1291.357
527.5068, 1294.562
527.9890, 1290.124
528.4711, 1279.455
528.9532, 1272.231
529.4353, 1278.837
529.9174, 1289.607
530.3995, 1294.756
530.8817, 1290.095
531.3638, 1287.803
531.8459, 1298.856
532.3280, 1313.216
532.8101, 1317.299
533.2922, 1292.516
533.7744, 1274.649
534.2565, 1275.490
534.7386, 1292.402
535.2207, 1301.337
535.7028, 1298.503
536.1849, 1293.327
536.6671, 1290.238
537.1492, 1289.381
537.6313, 1290.127
538.1134, 1292.745
538.5955, 1296.410
539.0776, 1301.591
539.5598, 1307.988
540.0419, 1309.158
540.5240, 1300.123
541.0061, 1287.782
541.4882, 1287.427
541.9703, 1297.225
542.4525, 1305.598
542.9346, 1303.109
543.4167, 1295.897
543.8988, 1290.084
544.3809, 1286.171
544.8630, 1285.149
545.3452, 1291.605
545.8273, 1299.754
546.3094, 1303.180
546.7915, 1293.870
547.2736, 1286.603
547.7557, 1285.614
548.2379, 1289.585
548.7200, 1292.687
549.2021, 1295.115
549.6842, 1296.135
550.1663, 1294.615
550.6484, 1289.747
551.1306, 1289.395
551.6127, 1295.482
552.0948, 1302.228
552.5769, 1302.694
553.0590, 1296.717
553.5411, 1293.832
554.0233, 1296.296
554.5054, 1301.431
554.9875, 1305.235
555.4696, 1307.674
555.9517, 1308.521
556.4338, 1309.297
556.9160, 1307.555
557.3981, 1296.946
557.8802, 1277.910
558.3623, 1264.299
558.8444, 1270.089
559.3265, 1281.816
559.8087, 1287.786
560.2908, 1283.831
560.7729, 1277.509
561.2550, 1269.042
561.7371, 1259.804
562.2192, 1251.896
562.7014, 1244.038
563.1835, 1239.489
563.6656, 1240.015
564.1477, 1245.018
564.6298, 1247.908
565.1119, 1248.704
565.5941, 1247.387
566.0762, 1243.692
566.5583, 1237.654
567.0404, 1229.863
567.5225, 1219.808
568.0046, 1210.364
568.4868, 1204.525
568.9689, 1202.241
569.4510, 1204.311
569.9331, 1215.748
570.4152, 1225.620
570.8973, 1217.853
571.3795, 1197.917
571.8616, 1183.637
572.3437, 1191.128
572.8258, 1201.959
573.3079, 1202.676
573.7900, 1190.195
574.2722, 1183.722
574.7543, 1194.814
575.2364, 1209.248
575.7185, 1215.948
576.2006, 1211.587
576.6827, 1204.312
577.1649, 1191.793
577.6470, 1177.962
578.1291, 1172.094
578.6112, 1175.738
579.0933, 1180.270
579.5754, 1183.285
580.0576, 1184.922
580.5397, 1185.803
581.0218, 1185.943
581.5039, 1185.136
581.9860, 1181.440
582.4681, 1177.086
582.9503, 1176.809
583.4324, 1181.671
583.9145, 1187.532
584.3966, 1191.313
584.8787, 1194.074
585.3608, 1197.318
585.8430, 1200.964
586.3251, 1205.747
586.8072, 1214.511
587.2893, 1225.153
587.7714, 1230.091
588.2535, 1217.781
588.7357, 1210.747
589.2178, 1218.198
589.6999, 1242.283
590.1820, 1257.262
590.6641, 1260.068
591.1462, 1260.186
591.6284, 1263.181
592.1105, 1268.953
592.5926, 1288.524
593.0747, 1328.961
593.5568, 1367.825
594.0389, 1362.582
594.5211, 1324.737
595.0032, 1296.870
595.4853, 1301.294
595.9674, 1319.197
596.4495, 1333.459
596.9316, 1344.915
597.4138, 1356.882
597.8959, 1379.877
598.3780, 1397.448
598.8601, 1394.867
599.3422, 1363.459
599.8243, 1346.203
600.3065, 1360.820
600.7886, 1385.389
601.2707, 1402.362
601.7528, 1407.722
602.2349, 1413.726
602.7170, 1419.321
603.1992, 1427.679
603.6813, 1449.311
604.1634, 1486.248
604.6455, 1513.213
605.1276, 1516.495
605.6097, 1504.686
606.0919, 1498.853
606.5740, 1498.749
607.0561, 1502.421
607.5382, 1511.079
608.0203, 1521.465
608.5024, 1529.330
608.9846, 1533.652
609.4667, 1538.921
609.9488, 1550.903
610.4309, 1563.587
610.9130, 1570.805
611.3951, 1562.022
611.8773, 1559.106
612.3594, 1568.613
612.8415, 1585.447
613.3236, 1598.977
613.8057, 1609.276
614.2878, 1616.335
614.7700, 1619.445
615.2521, 1619.107
615.7342, 1616.455
616.2163, 1610.268
616.6984, 1611.041
617.1805, 1631.278
617.6627, 1664.329
618.1448, 1688.759
