##NAMES=Aenigmatite
##RRUFFID=R061089
##IDEAL CHEMISTRY=Na_4_(Fe^2+^_10_Ti^4+^_2_)O_4_[Si_12_O_36_]
##LOCALITY=Eveslogchorr, Khibiny Massif, Kola Peninsula, Russia
##OWNER=RRUFF
##SOURCE=Michael Scott
##DESCRIPTION=Black prismatic crystals embedded in eucryptite with astrophyllite and magnesioriebeckite
##STATUS=The identification of this mineral is confirmed by single-crystal X-ray diffraction and chemical analysis.
##URL=rruff.info/R061089
##MEASURED CHEMISTRY=Na_2.00_(Fe^2+^_4.08_Mn_0.51_Fe^3+^_0.21_Mg_0.16_Ca_0.03_Cr^3+^_0.01_)_Σ=5_Ti_1.00_(Si_5.78_Al_0.22_)_Σ=6.00_O_20_
119.8403, 759.2601
121.7688, 937.7695
123.6973, 1151.150
125.6257, 1349.207
127.5542, 1354.561
129.4827, 1295.529
131.4111, 1237.979
133.3396, 1188.031
135.2681, 1142.988
137.1965, 1110.245
139.1250, 1091.445
141.0535, 1079.759
142.9819, 1067.282
144.9104, 1047.035
146.8389, 1030.382
148.7673, 1023.144
150.6958, 1029.325
152.6243, 1029.943
154.5527, 1017.538
156.4812, 995.3521
158.4097, 977.1220
160.3381, 966.3344
162.2666, 957.0224
164.1951, 944.9368
166.1235, 931.1384
168.0520, 913.0482
169.9805, 888.1087
171.9089, 852.0223
173.8374, 825.0072
175.7659, 807.5626
177.6943, 798.6227
179.6228, 795.0858
181.5513, 800.9387
183.4797, 807.6002
185.4082, 811.3014
187.3367, 808.5353
189.2651, 809.1228
191.1936, 815.9996
193.1221, 826.7695
195.0505, 836.1140
196.9790, 841.0814
198.9075, 846.2792
200.8359, 855.0174
202.7644, 869.5900
204.6929, 881.8605
206.6213, 888.8820
208.5498, 891.0945
210.4783, 892.6963
212.4068, 896.6559
214.3352, 898.6359
216.2637, 893.8620
218.1922, 880.2639
220.1206, 865.5607
222.0491, 852.0511
223.9776, 839.8567
225.9060, 829.2446
227.8345, 820.4418
229.7630, 813.3036
231.6914, 806.7661
233.6199, 798.0330
235.5484, 793.9504
237.4768, 797.0217
239.4053, 810.7693
241.3338, 824.4942
243.2622, 839.2333
245.1907, 853.4985
247.1192, 865.3732
249.0476, 874.3976
250.9761, 881.0032
252.9046, 884.3470
254.8330, 882.7463
256.7615, 883.3552
258.6899, 886.9469
260.6184, 893.5146
262.5469, 903.7824
264.4753, 922.4066
266.4038, 941.3383
268.3323, 956.2231
270.2607, 966.0596
272.1892, 975.9131
274.1177, 985.1420
276.0461, 994.3125
277.9746, 1008.325
279.9031, 1034.339
281.8315, 1059.858
283.7600, 1076.280
285.6885, 1082.225
287.6169, 1088.426
289.5454, 1097.591
291.4739, 1109.575
293.4023, 1122.782
295.3308, 1140.445
297.2593, 1156.896
299.1877, 1168.673
301.1162, 1175.597
303.0447, 1178.172
304.9731, 1178.432
306.9016, 1175.462
308.8301, 1163.235
310.7585, 1135.121
312.6870, 1103.197
314.6155, 1074.693
316.5439, 1051.485
318.4724, 1027.798
320.4009, 1002.050
322.3293, 974.8295
324.2578, 949.3446
326.1863, 924.6238
328.1147, 902.6638
330.0432, 884.2822
331.9717, 870.8489
333.9002, 858.4429
335.8286, 846.3135
337.7571, 834.6124
339.6856, 823.4529
341.6140, 808.2205
343.5425, 798.1702
345.4710, 798.2082
347.3994, 815.5524
349.3279, 830.7905
351.2564, 841.4901
353.1848, 848.6552
355.1133, 856.0370
357.0418, 863.6497
358.9702, 871.5448
360.8987, 880.1612
362.8272, 892.7089
364.7556, 900.0452
366.6841, 901.4739
368.6126, 897.2125
370.5410, 888.9983
372.4695, 873.1927
374.3980, 857.7241
376.3264, 846.3867
378.2549, 842.4955
380.1834, 834.8170
382.1118, 816.6766
384.0403, 797.1996
385.9688, 787.7571
387.8972, 795.6307
389.8257, 803.4810
391.7542, 804.8607
393.6826, 797.6329
395.6111, 794.1435
397.5396, 797.8115
399.4680, 803.5376
401.3965, 807.0063
403.3250, 807.6080
405.2534, 807.3159
407.1819, 806.4579
409.1104, 805.1367
411.0388, 804.3007
412.9673, 799.9774
414.8958, 799.1412
416.8242, 805.3864
418.7527, 820.6299
420.6812, 838.3497
422.6096, 860.4825
424.5381, 884.2858
426.4666, 900.5770
428.3951, 904.3881
430.3235, 905.9629
432.2520, 910.9016
434.1805, 921.1010
436.1089, 926.5477
438.0374, 925.1381
439.9659, 919.4560
441.8943, 913.4759
443.8228, 907.1682
445.7513, 901.0235
447.6797, 894.5486
449.6082, 887.5745
451.5367, 884.0823
453.4651, 886.1793
455.3936, 890.4227
457.3221, 894.4790
459.2505, 898.7401
461.1790, 901.7411
463.1075, 900.5212
465.0359, 896.8059
466.9644, 898.3563
468.8929, 908.5477
470.8213, 920.6176
472.7498, 932.2525
474.6783, 943.3401
476.6067, 953.9349
478.5352, 965.9129
480.4637, 976.6224
482.3921, 982.7581
484.3206, 983.3942
486.2491, 980.1210
488.1775, 971.3452
490.1060, 957.9447
492.0345, 945.0231
493.9629, 931.7502
495.8914, 920.4924
497.8199, 912.4019
499.7483, 907.5235
501.6768, 906.7574
503.6053, 909.5890
505.5337, 917.1025
507.4622, 930.5558
509.3907, 953.7253
511.3191, 976.5380
513.2476, 993.9360
515.1760, 1004.199
517.1045, 1021.205
519.0330, 1053.582
520.9614, 1086.019
522.8899, 1105.735
524.8184, 1110.690
526.7468, 1115.607
528.6753, 1129.028
530.6038, 1145.076
532.5322, 1149.046
534.4607, 1134.183
536.3892, 1114.932
538.3176, 1091.819
540.2461, 1065.893
542.1746, 1045.377
544.1030, 1035.470
546.0315, 1029.073
547.9600, 1021.917
549.8884, 1012.851
551.8169, 1004.798
553.7454, 998.2445
555.6738, 992.8224
557.6023, 987.6165
559.5308, 982.6464
561.4592, 977.7810
563.3877, 973.4319
565.3162, 969.7420
567.2446, 963.8680
569.1731, 954.0167
571.1016, 943.4955
573.0300, 934.2316
574.9585, 926.1118
576.8870, 919.2977
578.8154, 913.3577
580.7440, 908.8246
582.6724, 906.7776
584.6009, 905.4831
586.5294, 908.4106
588.4578, 916.9458
590.3863, 930.5369
592.3148, 946.8689
594.2432, 965.0424
596.1717, 987.2978
598.1002, 1014.807
600.0286, 1049.420
601.9571, 1085.390
603.8856, 1128.067
605.8140, 1169.172
607.7425, 1200.610
609.6710, 1221.401
611.5994, 1237.263
613.5279, 1245.282
615.4564, 1249.425
617.3848, 1260.214
619.3133, 1268.519
621.2418, 1292.342
623.1702, 1336.731
625.0987, 1401.525
627.0272, 1485.754
628.9556, 1593.206
630.8841, 1718.178
632.8126, 1858.524
634.7410, 2020.579
636.6695, 2183.924
638.5980, 2372.446
640.5264, 2549.872
642.4549, 2681.733
644.3834, 2771.838
646.3118, 2816.336
648.2403, 2805.461
650.1688, 2751.229
652.0972, 2675.028
654.0257, 2554.293
655.9542, 2435.232
657.8826, 2322.424
659.8111, 2218.353
661.7396, 2133.379
663.6680, 2067.937
665.5965, 2024.346
667.5250, 2004.853
669.4534, 2017.043
671.3819, 2027.143
673.3104, 2036.226
675.2388, 2041.980
677.1673, 2042.089
679.0958, 2037.263
681.0242, 2026.447
682.9527, 2015.101
684.8812, 1995.209
686.8096, 1954.739
688.7381, 1885.511
690.6666, 1804.482
692.5950, 1706.082
694.5235, 1596.905
696.4520, 1498.857
698.3804, 1411.920
700.3089, 1336.498
702.2374, 1274.183
704.1658, 1223.881
706.0943, 1178.866
708.0228, 1135.946
709.9512, 1100.222
711.8797, 1076.293
713.8082, 1066.692
715.7366, 1055.533
717.6651, 1036.652
719.5936, 1020.341
721.5220, 1014.237
723.4505, 1021.488
725.3790, 1026.270
727.3074, 1024.978
729.2359, 1020.639
731.1644, 1017.069
733.0928, 1017.642
735.0213, 1012.249
736.9498, 994.3506
738.8782, 970.7390
740.8067, 951.5081
742.7352, 938.7551
744.6636, 927.6351
746.5921, 914.4518
748.5206, 901.1451
750.4490, 896.7241
752.3775, 908.5089
754.3060, 920.0872
756.2344, 926.5857
758.1629, 928.8422
760.0914, 929.9078
762.0198, 928.8230
763.9483, 927.8126
765.8768, 929.0408
767.8052, 933.5643
769.7337, 932.4240
771.6622, 920.8809
773.5906, 908.7754
775.5191, 902.6926
777.4476, 902.5159
779.3760, 900.6935
781.3045, 891.9047
783.2330, 884.7037
785.1614, 885.4259
787.0899, 898.1773
789.0184, 907.2361
790.9468, 911.1140
792.8753, 911.4658
794.8038, 907.8762
796.7322, 898.3292
798.6607, 894.1169
800.5892, 901.9614
802.5176, 914.0443
804.4461, 922.9182
806.3746, 928.4906
808.3030, 930.8788
810.2315, 928.3748
812.1600, 923.8405
814.0884, 921.2237
816.0169, 919.4207
817.9454, 921.8115
819.8738, 933.0868
821.8023, 947.8422
823.7308, 957.7638
825.6592, 958.8322
827.5877, 962.9819
829.5162, 976.3972
831.4446, 994.0939
833.3731, 1004.168
835.3016, 998.5495
837.2300, 995.3580
839.1585, 997.0809
841.0870, 1003.649
843.0154, 1014.179
844.9439, 1029.811
846.8724, 1047.998
848.8008, 1070.991
850.7293, 1096.378
852.6578, 1115.455
854.5862, 1123.868
856.5147, 1130.362
858.4432, 1134.811
860.3716, 1138.057
862.3001, 1142.720
864.2286, 1146.599
866.1570, 1155.762
868.0855, 1172.694
870.0140, 1196.768
871.9424, 1226.990
873.8709, 1265.938
875.7994, 1308.802
877.7278, 1354.549
879.6563, 1403.131
881.5848, 1455.407
883.5132, 1524.741
885.4417, 1578.627
887.3702, 1599.795
889.2986, 1597.469
891.2271, 1593.806
893.1556, 1598.041
895.0840, 1587.180
897.0125, 1546.009
898.9410, 1483.071
900.8694, 1435.725
902.7979, 1412.912
904.7264, 1394.047
906.6548, 1375.995
908.5833, 1359.012
910.5118, 1343.397
912.4402, 1329.447
914.3687, 1316.644
916.2972, 1305.923
918.2256, 1296.406
920.1541, 1285.571
922.0826, 1273.126
924.0110, 1259.683
925.9395, 1242.757
927.8680, 1224.817
929.7964, 1211.741
931.7249, 1202.359
933.6534, 1198.651
935.5818, 1202.200
937.5103, 1211.763
939.4388, 1225.696
941.3672, 1244.837
943.2957, 1266.820
945.2242, 1294.865
947.1526, 1323.984
949.0811, 1346.659
951.0096, 1357.970
952.9380, 1368.924
954.8665, 1383.201
956.7950, 1395.124
958.7234, 1397.874
960.6519, 1390.983
962.5804, 1380.141
964.5089, 1359.790
966.4373, 1341.236
968.3658, 1334.136
970.2943, 1341.017
972.2227, 1352.473
974.1512, 1366.610
976.0797, 1385.402
978.0081, 1413.327
979.9366, 1453.786
981.8651, 1482.967
983.7935, 1500.640
985.7220, 1505.044
987.6505, 1493.104
989.5789, 1466.095
991.5074, 1431.854
993.4359, 1384.282
995.3643, 1337.950
997.2928, 1296.096
999.2213, 1258.976
1001.150, 1237.304
1003.078, 1237.525
1005.007, 1244.841
1006.935, 1256.340
1008.864, 1271.913
1010.792, 1291.218
1012.721, 1318.936
1014.649, 1340.659
1016.577, 1345.750
1018.506, 1342.251
1020.434, 1343.002
1022.363, 1345.335
1024.291, 1358.890
1026.220, 1392.039
1028.148, 1433.612
1030.077, 1470.118
1032.005, 1504.333
1033.934, 1527.526
1035.862, 1540.186
1037.791, 1540.642
1039.719, 1525.774
1041.647, 1495.971
1043.576, 1457.724
1045.504, 1406.368
1047.433, 1352.346
1049.361, 1299.806
1051.290, 1248.701
1053.218, 1204.581
1055.147, 1167.303
1057.075, 1137.763
1059.004, 1118.963
1060.932, 1109.352
1062.861, 1099.686
1064.789, 1090.441
1066.718, 1080.747
1068.646, 1070.653
1070.574, 1060.117
1072.503, 1048.498
1074.432, 1034.857
1076.360, 1023.823
1078.288, 1015.862
1080.217, 1011.646
1082.145, 1012.841
1084.074, 1022.240
1086.002, 1028.656
1087.931, 1029.738
1089.859, 1029.086
1091.788, 1028.039
1093.716, 1026.390
1095.645, 1026.472
1097.573, 1031.926
1099.502, 1034.631
1101.430, 1028.712
1103.359, 1017.862
1105.287, 1011.245
1107.215, 1012.490
1109.144, 1011.526
1111.072, 1000.744
1113.001, 988.3383
1114.929, 986.5120
1116.858, 1004.553
1118.786, 1014.664
1120.715, 1008.267
1122.643, 998.9054
1124.572, 997.9871
1126.500, 1006.604
1128.429, 1010.674
1130.357, 1004.085
1132.286, 998.9327
1134.214, 1003.826
1136.142, 1014.715
1138.071, 1020.154
1139.999, 1017.168
1141.928, 1014.041
1143.856, 1012.350
1145.785, 1012.561
1147.713, 1015.929
1149.642, 1025.932
1151.570, 1031.538
1153.499, 1025.541
1155.427, 1020.420
1157.356, 1027.462
1159.284, 1048.234
1161.213, 1061.171
1163.141, 1059.064
1165.069, 1057.598
1166.998, 1064.756
1168.926, 1076.933
1170.855, 1086.150
1172.783, 1091.391
1174.712, 1095.529
1176.640, 1096.969
1178.569, 1098.969
1180.497, 1105.438
1182.426, 1118.146
1184.354, 1128.229
1186.283, 1134.105
1188.211, 1138.567
1190.140, 1143.349
1192.068, 1148.290
1193.996, 1150.656
1195.925, 1148.042
1197.853, 1146.789
1199.782, 1151.351
1201.710, 1156.887
1203.639, 1155.463
1205.567, 1145.802
1207.496, 1139.337
1209.424, 1138.187
1211.353, 1141.251
1213.281, 1150.117
1215.210, 1163.788
1217.138, 1170.506
1219.067, 1163.491
1220.995, 1157.323
1222.923, 1158.376
1224.852, 1161.900
1226.780, 1159.223
1228.709, 1142.819
1230.637, 1133.624
1232.566, 1133.750
1234.494, 1139.710
1236.423, 1154.269
1238.351, 1175.827
1240.280, 1182.901
1242.208, 1164.506
1244.137, 1149.004
1246.065, 1148.753
1247.994, 1157.040
1249.922, 1165.096
1251.850, 1173.071
1253.779, 1179.600
1255.707, 1185.146
1257.636, 1188.250
1259.564, 1186.694
1261.493, 1180.570
1263.421, 1177.099
1265.350, 1171.932
1267.278, 1175.322
1269.207, 1199.908
1271.135, 1229.229
1273.064, 1238.350
1274.992, 1214.923
1276.921, 1207.367
1278.849, 1230.083
1280.777, 1255.435
1282.706, 1268.108
1284.634, 1271.741
1286.563, 1280.104
1288.491, 1295.387
1290.420, 1309.260
1292.348, 1316.945
1294.277, 1323.339
1296.205, 1333.674
1298.134, 1347.922
1300.062, 1358.506
1301.991, 1364.006
1303.919, 1366.494
1305.848, 1366.113
1307.776, 1363.801
1309.704, 1361.484
1311.633, 1360.045
1313.561, 1357.214
1315.490, 1350.202
1317.418, 1344.587
1319.347, 1344.859
1321.275, 1350.471
1323.204, 1353.944
1325.132, 1352.128
1327.061, 1353.197
1328.989, 1363.669
1330.918, 1374.563
1332.846, 1374.243
1334.775, 1362.953
1336.703, 1352.418
1338.631, 1341.943
1340.560, 1334.732
1342.488, 1334.888
1344.417, 1338.337
1346.345, 1339.522
1348.274, 1338.974
1350.202, 1333.861
1352.131, 1320.042
1354.059, 1305.843
1355.988, 1296.074
1357.916, 1289.808
1359.845, 1281.306
1361.773, 1266.273
1363.702, 1257.038
1365.630, 1259.367
1367.558, 1264.316
1369.487, 1265.104
1371.415, 1261.526
1373.344, 1256.725
1375.272, 1250.703
1377.201, 1243.419
1379.129, 1231.096
1381.058, 1219.674
1382.986, 1219.470
1384.915, 1232.581
1386.843, 1234.495
1388.772, 1212.942
1390.700, 1194.824
1392.629, 1193.012
1394.557, 1199.792
1396.485, 1203.559
1398.414, 1204.132
1400.342, 1202.656
1402.271, 1200.108
1404.199, 1194.423
1406.128, 1180.154
1408.056, 1163.378
1409.985, 1157.589
1411.913, 1165.458
1413.842, 1174.433
1415.770, 1186.502
1417.699, 1194.178
1419.627, 1189.962
1421.556, 1177.264
1423.484, 1172.573
1425.412, 1182.097
1427.341, 1185.737
1429.269, 1174.104
1431.198, 1162.935
1433.126, 1163.778
1435.055, 1174.938
1436.983, 1182.745
1438.912, 1185.721
1440.840, 1187.162
1442.769, 1183.810
1444.697, 1181.615
1446.626, 1187.124
1448.554, 1199.128
1450.483, 1204.545
1452.411, 1199.412
1454.339, 1195.899
1456.268, 1198.182
1458.196, 1201.516
1460.125, 1200.407
1462.053, 1196.274
1463.982, 1198.878
1465.910, 1212.562
1467.839, 1222.650
1469.767, 1220.144
1471.696, 1216.296
1473.624, 1221.916
1475.553, 1234.384
1477.481, 1241.652
1479.410, 1240.972
1481.338, 1240.509
1483.266, 1242.966
1485.195, 1246.231
1487.123, 1248.379
1489.052, 1249.884
1490.980, 1253.796
1492.909, 1262.345
1494.837, 1267.985
1496.766, 1264.149
1498.694, 1260.909
1500.623, 1266.875
1502.551, 1280.372
1504.480, 1287.176
1506.408, 1283.390
1508.337, 1281.633
1510.265, 1282.004
1512.193, 1287.145
1514.122, 1303.015
1516.050, 1326.255
1517.979, 1338.624
1519.907, 1334.365
1521.836, 1330.851
1523.764, 1328.076
1525.693, 1327.966
1527.621, 1333.636
1529.550, 1342.863
1531.478, 1348.282
1533.407, 1345.169
1535.335, 1347.086
1537.264, 1357.468
1539.192, 1368.511
1541.120, 1375.449
1543.049, 1380.802
1544.977, 1390.118
1546.906, 1405.043
1548.834, 1418.863
1550.763, 1437.872
1552.691, 1448.360
1554.620, 1442.767
1556.548, 1427.935
1558.477, 1410.320
1560.405, 1388.733
1562.334, 1377.735
1564.262, 1388.196
1566.191, 1393.383
1568.119, 1381.617
1570.047, 1365.437
1571.976, 1356.307
1573.904, 1353.857
1575.833, 1353.218
1577.761, 1355.090
1579.690, 1356.534
1581.618, 1354.244
1583.547, 1353.455
1585.475, 1360.559
1587.404, 1371.694
1589.332, 1374.942
1591.261, 1368.669
1593.189, 1363.960
1595.118, 1362.449
1597.046, 1363.633
1598.974, 1370.959
1600.903, 1379.187
1602.831, 1379.468
1604.760, 1371.826
1606.688, 1365.490
1608.617, 1361.227
1610.545, 1358.695
1612.474, 1357.665
1614.402, 1358.417
1616.331, 1362.417
1618.259, 1368.701
1620.188, 1372.268
1622.116, 1371.678
1624.045, 1372.962
1625.973, 1379.929
1627.901, 1386.293
1629.830, 1388.270
1631.758, 1386.635
1633.687, 1382.117
1635.615, 1374.417
1637.544, 1366.998
1639.472, 1357.407
1641.401, 1353.990
1643.329, 1370.157
1645.258, 1387.128
1647.186, 1383.231
1649.115, 1362.958
1651.043, 1352.947
1652.972, 1358.304
1654.900, 1361.098
1656.828, 1355.590
1658.757, 1347.206
1660.685, 1335.516
1662.614, 1324.673
1664.542, 1324.455
1666.471, 1335.687
1668.399, 1342.207
1670.328, 1339.945
1672.256, 1336.962
1674.185, 1332.644
1676.113, 1332.149
1678.042, 1343.617
1679.970, 1362.659
1681.899, 1370.803
1683.827, 1363.825
1685.755, 1362.356
1687.684, 1377.184
1689.612, 1389.499
1691.541, 1388.327
1693.469, 1379.251
1695.398, 1366.536
1697.326, 1351.015
1699.255, 1344.604
1701.183, 1350.682
1703.112, 1358.991
1705.040, 1369.198
1706.969, 1377.916
1708.897, 1384.330
1710.826, 1387.428
1712.754, 1383.649
1714.682, 1372.660
1716.611, 1363.412
1718.539, 1355.226
1720.468, 1352.456
1722.396, 1363.756
1724.325, 1374.848
1726.253, 1370.670
1728.182, 1356.879
1730.110, 1350.406
1732.039, 1352.538
1733.967, 1355.709
1735.896, 1360.677
1737.824, 1363.467
1739.753, 1360.823
1741.681, 1356.446
1743.609, 1353.892
1745.538, 1352.994
1747.466, 1353.028
1749.395, 1355.024
1751.323, 1354.638
1753.252, 1347.545
1755.180, 1342.591
1757.109, 1344.779
1759.037, 1349.555
1760.966, 1349.695
1762.894, 1346.041
1764.823, 1351.318
1766.751, 1372.476
1768.680, 1382.940
1770.608, 1369.946
1772.536, 1357.836
1774.465, 1358.214
1776.393, 1364.423
1778.322, 1370.334
1780.250, 1375.756
1782.179, 1375.255
1784.107, 1361.581
1786.036, 1355.587
1787.964, 1361.741
1789.893, 1370.725
1791.821, 1382.635
1793.750, 1392.865
1795.678, 1395.513
1797.607, 1391.202
1799.535, 1385.450
1801.464, 1372.337
1803.392, 1370.132
1805.320, 1389.675
1807.249, 1406.023
1809.177, 1409.699
1811.106, 1407.396
1813.034, 1404.424
1814.963, 1401.154
1816.891, 1399.280
1818.820, 1398.713
1820.748, 1400.619
1822.677, 1405.379
1824.605, 1412.461
1826.534, 1427.182
1828.462, 1438.784
1830.391, 1435.118
1832.319, 1422.211
1834.247, 1419.266
1836.176, 1426.935
1838.104, 1433.086
1840.033, 1434.755
1841.961, 1439.441
1843.890, 1455.769
1845.818, 1468.239
1847.747, 1462.161
1849.675, 1448.101
1851.604, 1441.558
1853.532, 1442.151
1855.461, 1445.962
1857.389, 1455.392
1859.318, 1458.434
1861.246, 1446.641
1863.174, 1435.958
1865.103, 1433.632
1867.031, 1436.157
1868.960, 1441.571
1870.888, 1448.548
1872.817, 1450.637
1874.745, 1445.914
1876.674, 1443.713
1878.602, 1445.254
1880.531, 1448.683
1882.459, 1459.728
1884.388, 1466.702
1886.316, 1457.168
1888.245, 1439.547
1890.173, 1430.208
1892.101, 1429.505
1894.030, 1434.139
1895.958, 1449.265
1897.887, 1459.601
1899.815, 1459.885
1901.744, 1459.440
1903.672, 1460.557
1905.601, 1462.886
1907.529, 1466.797
1909.458, 1471.614
1911.386, 1475.478
1913.315, 1478.727
1915.243, 1477.896
1917.172, 1470.675
1919.100, 1465.557
1921.028, 1463.246
1922.957, 1466.402
1924.885, 1482.071
1926.814, 1500.351
1928.742, 1509.854
1930.671, 1511.558
1932.599, 1507.910
1934.528, 1497.203
1936.456, 1493.100
1938.385, 1503.720
1940.313, 1509.289
1942.242, 1498.751
1944.170, 1487.528
1946.099, 1486.880
1948.027, 1491.410
1949.955, 1492.452
1951.884, 1490.595
1953.812, 1491.599
1955.741, 1496.359
1957.669, 1501.975
1959.598, 1507.818
1961.526, 1514.136
1963.455, 1523.928
1965.383, 1529.666
1967.312, 1523.735
1969.240, 1512.499
1971.169, 1505.201
1973.097, 1502.050
1975.026, 1503.544
1976.954, 1511.337
1978.882, 1514.780
1980.811, 1510.171
1982.739, 1507.467
1984.668, 1511.484
1986.596, 1516.305
1988.525, 1518.764
1990.453, 1518.817
1992.382, 1513.590
1994.310, 1505.059
1996.239, 1506.915
1998.167, 1523.471
2000.096, 1530.287
2002.024, 1518.500
2003.953, 1509.980
2005.881, 1510.884
2007.809, 1512.410
2009.738, 1510.685
2011.666, 1507.330
2013.595, 1499.924
2015.523, 1492.561
2017.452, 1503.886
2019.380, 1535.353
2021.309, 1544.572
2023.237, 1521.722
2025.166, 1507.394
2027.094, 1515.289
2029.023, 1522.311
2030.951, 1514.715
2032.880, 1507.423
2034.808, 1513.079
2036.736, 1524.939
2038.665, 1533.385
2040.593, 1538.145
2042.522, 1539.059
2044.450, 1535.293
2046.379, 1529.985
2048.307, 1517.007
2050.236, 1512.677
2052.164, 1531.895
2054.093, 1544.917
2056.021, 1529.488
2057.949, 1510.583
2059.878, 1517.040
2061.807, 1536.247
2063.735, 1535.070
2065.664, 1515.193
2067.592, 1504.841
2069.521, 1506.813
2071.449, 1506.780
2073.377, 1499.777
2075.306, 1497.463
2077.234, 1507.785
2079.163, 1518.471
2081.091, 1522.037
2083.020, 1522.920
2084.948, 1524.807
2086.877, 1527.754
2088.805, 1532.856
