##NAMES=Aeschynite-(Y)
##RRUFFID=R080045
##IDEAL CHEMISTRY=(Y^3+^,Ca,Th^4+^)(Ti^4+^,Nb^5+^)_2_(O,OH)_6_
##LOCALITY=Hittero, Vest-Agder, Norway
##OWNER=RRUFF
##SOURCE=Herb Obodda
##DESCRIPTION=Light brown glassy, from black amorphous sample R060312 after heating at T = 850 C for 18 hours
##STATUS=The identification of this mineral has been confirmed only by X-ray diffraction
##URL=rruff.info/R080045
94.30859, 715.1321
94.79071, 668.9387
95.27283, 661.5234
95.75494, 696.8446
96.23706, 758.4030
96.71918, 825.8455
97.20129, 898.0579
97.68341, 976.7750
98.16553, 1062.044
98.64764, 1153.416
99.12976, 1254.975
99.61188, 1368.344
100.0940, 1491.132
100.5761, 1621.771
101.0582, 1760.758
101.5403, 1902.579
102.0225, 2046.026
102.5046, 2190.779
102.9867, 2331.855
103.4688, 2468.365
103.9509, 2599.417
104.4330, 2732.398
104.9152, 2870.565
105.3973, 3003.240
105.8794, 3114.720
106.3615, 3192.874
106.8436, 3272.913
107.3257, 3363.338
107.8079, 3464.823
108.2900, 3569.234
108.7721, 3670.873
109.2542, 3776.198
109.7363, 3897.829
110.2184, 4046.566
110.7006, 4200.657
111.1827, 4352.794
111.6648, 4497.280
112.1469, 4650.817
112.6290, 4821.192
113.1111, 4998.882
113.5933, 5171.071
114.0754, 5338.604
114.5575, 5496.860
115.0396, 5643.246
115.5217, 5779.112
116.0038, 5903.242
116.4859, 6013.311
116.9681, 6110.899
117.4502, 6201.667
117.9323, 6288.598
118.4144, 6368.899
118.8965, 6440.452
119.3786, 6497.956
119.8608, 6551.029
120.3429, 6603.667
120.8250, 6655.804
121.3071, 6704.552
121.7892, 6746.307
122.2713, 6784.801
122.7535, 6824.503
123.2356, 6868.863
123.7177, 6914.030
124.1998, 6953.017
124.6819, 6985.905
125.1640, 7026.181
125.6462, 7090.814
126.1283, 7171.494
126.6104, 7250.728
127.0925, 7318.042
127.5746, 7380.042
128.0567, 7445.644
128.5389, 7515.788
129.0210, 7588.762
129.5031, 7662.594
129.9852, 7737.327
130.4673, 7811.712
130.9494, 7886.005
131.4316, 7956.825
131.9137, 7990.908
132.3958, 7983.274
132.8779, 7973.288
133.3600, 7954.153
133.8421, 7926.457
134.3243, 7897.680
134.8064, 7872.849
135.2885, 7851.746
135.7706, 7829.421
136.2527, 7805.820
136.7348, 7779.958
137.2169, 7747.801
137.6991, 7707.203
138.1812, 7667.995
138.6633, 7638.076
139.1454, 7618.037
139.6275, 7598.374
140.1096, 7578.749
140.5918, 7558.248
141.0739, 7531.104
141.5560, 7494.390
142.0381, 7456.851
142.5202, 7425.603
143.0023, 7402.000
143.4845, 7381.566
143.9666, 7365.319
144.4487, 7353.302
144.9308, 7335.589
145.4129, 7307.987
145.8951, 7278.800
146.3772, 7256.553
146.8593, 7247.321
147.3414, 7235.571
147.8235, 7217.109
148.3056, 7189.676
148.7878, 7166.265
149.2699, 7149.286
149.7520, 7134.941
150.2341, 7118.483
150.7162, 7099.315
151.1983, 7078.289
151.6805, 7054.371
152.1626, 7024.626
152.6447, 6999.783
153.1268, 6982.676
153.6089, 6969.703
154.0910, 6955.140
154.5732, 6941.249
155.0553, 6923.375
155.5374, 6898.718
156.0195, 6860.639
156.5016, 6828.988
156.9837, 6808.497
157.4659, 6796.306
157.9480, 6786.384
158.4301, 6781.555
158.9122, 6775.902
159.3943, 6766.522
159.8764, 6750.949
160.3586, 6735.044
160.8407, 6719.581
161.3228, 6704.830
161.8049, 6691.552
162.2870, 6678.507
162.7691, 6667.873
163.2512, 6661.302
163.7334, 6661.798
164.2155, 6662.745
164.6976, 6662.808
165.1797, 6661.440
165.6618, 6656.567
166.1439, 6642.435
166.6261, 6626.581
167.1082, 6615.642
167.5903, 6614.659
168.0724, 6615.676
168.5545, 6616.368
169.0366, 6616.133
169.5188, 6611.004
170.0009, 6594.396
170.4830, 6573.122
170.9651, 6554.606
171.4472, 6542.687
171.9293, 6533.391
172.4115, 6522.510
172.8936, 6510.468
173.3757, 6501.944
173.8578, 6505.663
174.3399, 6514.335
174.8220, 6516.809
175.3042, 6505.052
175.7863, 6487.358
176.2684, 6471.764
176.7505, 6458.200
177.2326, 6445.826
177.7147, 6433.084
178.1969, 6420.924
178.6790, 6411.786
179.1611, 6410.640
179.6432, 6411.556
180.1253, 6403.884
180.6074, 6387.154
181.0896, 6370.350
181.5717, 6364.079
182.0538, 6365.506
182.5359, 6365.424
183.0180, 6359.436
183.5001, 6349.388
183.9823, 6337.919
184.4644, 6324.762
184.9465, 6313.144
185.4286, 6307.986
185.9107, 6308.295
186.3928, 6309.087
186.8750, 6308.731
187.3571, 6307.188
187.8392, 6303.770
188.3213, 6298.134
188.8034, 6292.268
189.2855, 6288.506
189.7677, 6286.816
190.2498, 6286.841
190.7319, 6289.875
191.2140, 6295.016
191.6961, 6296.785
192.1782, 6294.374
192.6603, 6290.924
193.1425, 6289.973
193.6246, 6291.529
194.1067, 6297.425
194.5888, 6310.175
195.0709, 6329.047
195.5530, 6347.870
196.0352, 6367.643
196.5173, 6385.284
196.9994, 6393.450
197.4815, 6391.210
197.9636, 6390.864
198.4457, 6399.055
198.9279, 6415.825
199.4100, 6432.830
199.8921, 6449.848
200.3742, 6466.971
200.8563, 6484.741
201.3384, 6503.563
201.8206, 6521.252
202.3027, 6535.726
202.7848, 6546.553
203.2669, 6560.450
203.7490, 6577.851
204.2311, 6598.294
204.7133, 6621.900
205.1954, 6649.824
205.6775, 6676.519
206.1596, 6698.897
206.6417, 6716.469
207.1238, 6733.844
207.6060, 6750.695
208.0881, 6768.072
208.5702, 6788.348
209.0523, 6811.868
209.5344, 6837.152
210.0165, 6863.855
210.4987, 6892.488
210.9808, 6920.380
211.4629, 6947.159
211.9450, 6973.182
212.4271, 6998.322
212.9092, 7021.056
213.3914, 7046.501
213.8735, 7078.346
214.3556, 7118.745
214.8377, 7156.051
215.3198, 7188.655
215.8019, 7218.698
216.2841, 7250.334
216.7662, 7284.119
217.2483, 7318.913
217.7304, 7354.888
218.2125, 7392.953
218.6946, 7428.138
219.1767, 7459.431
219.6589, 7488.146
220.1410, 7518.948
220.6231, 7552.288
221.1052, 7587.043
221.5873, 7623.304
222.0694, 7661.177
222.5516, 7699.139
223.0337, 7737.667
223.5158, 7775.777
223.9979, 7813.258
224.4800, 7849.827
224.9621, 7885.536
225.4443, 7919.686
225.9264, 7951.530
226.4085, 7984.471
226.8906, 8019.508
227.3727, 8055.263
227.8548, 8090.596
228.3370, 8126.336
228.8191, 8159.781
229.3012, 8189.417
229.7833, 8212.055
230.2654, 8239.338
230.7475, 8274.981
231.2297, 8313.829
231.7118, 8343.195
232.1939, 8356.576
232.6760, 8370.932
233.1581, 8394.161
233.6402, 8431.514
234.1224, 8462.791
234.6045, 8487.201
235.0866, 8505.994
235.5687, 8521.332
236.0508, 8530.979
236.5329, 8540.670
237.0151, 8552.956
237.4972, 8569.885
237.9793, 8582.913
238.4614, 8591.397
238.9435, 8596.293
239.4256, 8599.514
239.9078, 8600.866
240.3899, 8600.961
240.8720, 8600.509
241.3541, 8600.735
241.8362, 8596.307
242.3183, 8583.945
242.8005, 8568.945
243.2826, 8560.397
243.7647, 8560.377
244.2468, 8563.893
244.7289, 8571.096
245.2110, 8584.916
245.6931, 8589.714
246.1753, 8579.601
246.6574, 8564.186
247.1395, 8558.617
247.6216, 8567.025
248.1037, 8578.039
248.5858, 8589.380
249.0680, 8601.713
249.5501, 8608.873
250.0322, 8606.762
250.5143, 8602.499
250.9964, 8606.941
251.4785, 8627.712
251.9607, 8642.932
252.4428, 8644.611
252.9249, 8630.235
253.4070, 8624.886
253.8891, 8633.756
254.3712, 8646.897
254.8534, 8652.248
255.3355, 8646.569
255.8176, 8639.631
256.2997, 8632.880
256.7818, 8626.269
257.2639, 8623.145
257.7461, 8626.647
258.2282, 8630.113
258.7103, 8626.503
259.1924, 8614.368
259.6745, 8597.917
260.1566, 8576.209
260.6388, 8549.221
261.1209, 8529.113
261.6030, 8517.906
262.0851, 8510.437
262.5672, 8502.557
263.0493, 8494.607
263.5315, 8485.166
264.0136, 8473.420
264.4957, 8459.873
264.9778, 8446.795
265.4599, 8431.031
265.9420, 8421.611
266.4242, 8428.382
266.9063, 8457.911
267.3884, 8482.963
267.8705, 8501.783
268.3526, 8513.303
268.8347, 8509.237
269.3169, 8482.764
269.7990, 8455.338
270.2811, 8442.278
270.7632, 8446.979
271.2453, 8451.557
271.7274, 8454.729
272.2096, 8456.100
272.6917, 8453.512
273.1738, 8444.876
273.6559, 8438.040
274.1380, 8438.935
274.6201, 8449.243
275.1023, 8456.413
275.5844, 8458.312
276.0665, 8457.813
276.5486, 8462.805
277.0307, 8474.964
277.5128, 8486.017
277.9950, 8490.136
278.4771, 8486.556
278.9592, 8488.169
279.4413, 8496.621
279.9234, 8508.941
280.4055, 8520.356
280.8877, 8531.184
281.3698, 8539.257
281.8519, 8540.957
282.3340, 8536.334
282.8161, 8539.552
283.2982, 8551.639
283.7804, 8569.131
284.2625, 8589.134
284.7446, 8611.929
285.2267, 8629.638
285.7088, 8637.279
286.1909, 8636.299
286.6730, 8637.540
287.1552, 8641.511
287.6373, 8645.459
288.1194, 8645.861
288.6015, 8642.904
289.0836, 8639.015
289.5657, 8632.653
290.0479, 8626.317
290.5300, 8631.507
291.0121, 8649.402
291.4942, 8668.077
291.9763, 8674.880
292.4584, 8671.437
292.9406, 8667.407
293.4227, 8664.158
293.9048, 8662.763
294.3869, 8667.154
294.8690, 8677.314
295.3511, 8687.177
295.8333, 8691.788
296.3154, 8692.049
296.7975, 8690.791
297.2796, 8687.739
297.7617, 8684.682
298.2438, 8684.442
298.7260, 8686.924
299.2081, 8691.074
299.6902, 8700.256
300.1723, 8710.289
300.6544, 8711.098
301.1365, 8698.784
301.6187, 8683.682
302.1008, 8678.309
302.5829, 8680.995
303.0650, 8685.099
303.5471, 8686.268
304.0292, 8686.647
304.5114, 8689.121
304.9935, 8693.882
305.4756, 8700.807
305.9577, 8711.658
306.4398, 8724.596
306.9219, 8735.564
307.4041, 8741.236
307.8862, 8744.627
308.3683, 8749.005
308.8504, 8754.471
309.3325, 8759.646
309.8146, 8763.276
310.2968, 8765.930
310.7789, 8768.517
311.2610, 8770.563
311.7431, 8773.388
312.2252, 8779.484
312.7073, 8788.524
313.1895, 8795.190
313.6716, 8795.885
314.1537, 8792.990
314.6358, 8788.744
315.1179, 8780.377
315.6000, 8774.671
316.0822, 8777.892
316.5643, 8787.754
317.0464, 8794.747
317.5285, 8792.448
318.0106, 8787.060
318.4927, 8783.318
318.9749, 8784.732
319.4570, 8783.130
319.9391, 8771.995
320.4212, 8755.432
320.9033, 8742.872
321.3854, 8746.752
321.8676, 8747.707
322.3497, 8734.947
322.8318, 8702.121
323.3139, 8670.538
323.7960, 8643.201
324.2781, 8620.266
324.7603, 8601.496
325.2424, 8591.639
325.7245, 8581.599
326.2066, 8569.939
326.6887, 8557.318
327.1708, 8539.250
327.6530, 8511.540
328.1351, 8480.268
328.6172, 8450.701
329.0993, 8418.290
329.5814, 8393.053
330.0635, 8380.040
330.5457, 8378.686
331.0278, 8370.228
331.5099, 8349.736
331.9920, 8325.955
332.4741, 8304.830
332.9562, 8287.498
333.4384, 8270.143
333.9205, 8251.588
334.4026, 8232.768
334.8847, 8217.050
335.3668, 8206.753
335.8489, 8195.877
336.3311, 8180.930
336.8132, 8158.971
337.2953, 8141.166
337.7774, 8128.707
338.2595, 8119.540
338.7416, 8109.924
339.2238, 8099.005
339.7059, 8089.867
340.1880, 8083.417
340.6701, 8079.661
341.1522, 8080.113
341.6343, 8086.183
342.1164, 8093.622
342.5985, 8097.466
343.0807, 8097.515
343.5628, 8096.620
344.0449, 8094.493
344.5270, 8092.266
345.0091, 8094.317
345.4912, 8100.729
345.9734, 8111.060
346.4555, 8126.743
346.9376, 8146.932
347.4197, 8165.776
347.9018, 8182.038
348.3839, 8196.209
348.8661, 8208.448
349.3482, 8218.904
349.8303, 8231.257
350.3124, 8249.374
350.7945, 8271.104
351.2766, 8289.817
351.7588, 8303.912
352.2409, 8319.846
352.7230, 8346.813
353.2051, 8382.237
353.6872, 8419.127
354.1693, 8453.918
354.6515, 8488.167
355.1336, 8523.604
355.6157, 8560.804
356.0978, 8599.115
356.5799, 8636.428
357.0620, 8675.428
357.5442, 8720.266
358.0263, 8776.989
358.5084, 8835.546
358.9905, 8889.595
359.4726, 8939.392
359.9547, 8987.768
360.4369, 9029.319
360.9190, 9073.291
361.4011, 9127.916
361.8832, 9198.799
362.3653, 9272.870
362.8474, 9342.787
363.3296, 9411.739
363.8117, 9486.788
364.2938, 9573.779
364.7759, 9663.681
365.2580, 9752.285
365.7401, 9838.764
366.2223, 9925.658
366.7044, 10009.97
367.1865, 10096.03
367.6686, 10190.21
368.1507, 10299.52
368.6328, 10409.41
369.1150, 10515.86
369.5971, 10618.75
370.0792, 10726.17
370.5613, 10835.75
371.0434, 10950.71
371.5255, 11072.88
372.0077, 11205.38
372.4898, 11341.25
372.9719, 11483.84
373.4540, 11630.66
373.9361, 11773.12
374.4182, 11902.83
374.9004, 12039.60
375.3825, 12195.29
375.8646, 12376.22
376.3467, 12543.08
376.8288, 12691.92
377.3109, 12833.12
377.7931, 12981.87
378.2752, 13137.63
378.7573, 13306.06
379.2394, 13495.63
379.7215, 13700.72
380.2036, 13893.36
380.6858, 14068.04
381.1679, 14240.10
381.6500, 14420.04
382.1321, 14608.73
382.6142, 14796.37
383.0963, 14983.24
383.5785, 15168.29
384.0606, 15357.40
384.5427, 15546.81
385.0248, 15730.30
385.5069, 15893.48
385.9890, 16047.66
386.4712, 16216.95
386.9533, 16404.35
387.4354, 16598.04
387.9175, 16786.14
388.3996, 16966.77
388.8817, 17136.95
389.3639, 17288.00
389.8460, 17429.72
390.3281, 17571.04
390.8102, 17711.72
391.2923, 17855.36
391.7744, 18016.78
392.2566, 18178.20
392.7387, 18323.34
393.2208, 18445.13
393.7029, 18553.59
394.1850, 18653.76
394.6671, 18745.19
395.1493, 18827.83
395.6314, 18899.91
396.1135, 18964.74
396.5956, 19024.76
397.0777, 19081.43
397.5598, 19131.19
398.0419, 19170.45
398.5240, 19203.42
399.0062, 19234.86
399.4883, 19272.49
399.9704, 19301.00
400.4525, 19315.37
400.9346, 19315.85
401.4167, 19311.60
401.8989, 19303.01
402.3810, 19289.00
402.8631, 19269.21
403.3452, 19245.62
403.8273, 19210.96
404.3094, 19159.09
404.7916, 19098.89
405.2737, 19054.03
405.7558, 19033.56
406.2379, 19005.65
406.7200, 18953.36
407.2021, 18875.16
407.6843, 18816.04
408.1664, 18781.59
408.6485, 18753.67
409.1306, 18712.04
409.6127, 18656.58
410.0948, 18599.64
410.5770, 18539.73
411.0591, 18483.65
411.5412, 18454.53
412.0233, 18451.76
412.5054, 18452.29
412.9875, 18432.52
413.4697, 18403.77
413.9518, 18398.07
414.4339, 18422.08
414.9160, 18457.04
415.3981, 18480.91
415.8802, 18498.81
416.3624, 18525.05
416.8445, 18571.58
417.3266, 18625.79
417.8087, 18674.82
418.2908, 18718.52
418.7729, 18767.35
419.2551, 18827.58
419.7372, 18895.88
420.2193, 18968.90
420.7014, 19049.98
421.1835, 19129.27
421.6656, 19195.53
422.1478, 19255.86
422.6299, 19328.61
423.1120, 19434.54
423.5941, 19541.16
424.0762, 19630.43
424.5583, 19697.76
425.0405, 19768.86
425.5226, 19850.44
426.0047, 19935.49
426.4868, 20016.43
426.9689, 20092.43
427.4510, 20165.39
427.9332, 20236.58
428.4153, 20304.44
428.8974, 20359.98
429.3795, 20399.07
429.8616, 20431.70
430.3438, 20464.94
430.8259, 20503.72
431.3080, 20523.25
431.7901, 20518.38
432.2722, 20501.82
432.7543, 20496.71
433.2365, 20505.88
433.7186, 20498.41
434.2007, 20460.58
434.6828, 20399.18
435.1649, 20336.96
435.6470, 20273.54
436.1292, 20214.44
436.6113, 20169.77
437.0934, 20133.42
437.5755, 20087.35
438.0576, 20028.93
438.5397, 19958.21
439.0219, 19868.37
439.5040, 19764.60
439.9861, 19664.50
440.4682, 19580.37
440.9503, 19501.04
441.4324, 19415.02
441.9146, 19322.09
442.3967, 19230.11
442.8788, 19143.43
443.3609, 19059.94
443.8430, 18979.39
444.3251, 18897.39
444.8073, 18822.09
445.2894, 18758.01
445.7715, 18702.83
446.2536, 18650.58
446.7357, 18593.08
447.2178, 18543.53
447.7000, 18506.86
448.1821, 18483.51
448.6642, 18470.10
449.1463, 18469.75
449.6284, 18476.44
450.1105, 18483.83
450.5927, 18483.62
451.0747, 18498.83
451.5569, 18533.92
452.0390, 18586.44
452.5211, 18650.16
453.0032, 18728.06
453.4853, 18808.62
453.9674, 18883.73
454.4496, 18953.26
454.9317, 19032.19
455.4138, 19121.45
455.8959, 19217.82
456.3780, 19321.59
456.8601, 19431.72
457.3423, 19532.60
457.8244, 19613.75
458.3065, 19687.20
458.7886, 19775.70
459.2707, 19878.64
459.7528, 19980.49
460.2350, 20076.77
460.7171, 20165.00
461.1992, 20242.70
461.6813, 20308.12
462.1634, 20366.08
462.6455, 20427.18
463.1277, 20481.96
463.6098, 20516.63
464.0919, 20507.61
464.5740, 20493.93
465.0561, 20505.31
465.5382, 20534.18
466.0204, 20532.63
466.5025, 20457.65
466.9846, 20368.91
467.4667, 20303.68
467.9488, 20291.92
468.4309, 20248.13
468.9131, 20149.18
469.3952, 20022.87
469.8773, 19904.75
470.3594, 19799.71
470.8415, 19693.40
471.3236, 19581.91
471.8058, 19467.04
472.2879, 19355.23
472.7700, 19247.84
473.2521, 19141.50
473.7342, 19036.17
474.2163, 18932.24
474.6985, 18823.43
475.1806, 18706.50
475.6627, 18591.60
476.1448, 18489.61
476.6269, 18400.40
477.1090, 18323.55
477.5912, 18262.89
478.0733, 18211.61
478.5554, 18150.78
479.0375, 18082.67
479.5196, 18032.27
480.0017, 18024.22
480.4839, 18040.30
480.9660, 18056.56
481.4481, 18067.19
481.9302, 18086.17
482.4123, 18120.89
482.8944, 18170.50
483.3766, 18233.57
483.8587, 18316.23
484.3408, 18406.38
484.8229, 18498.60
485.3050, 18593.94
485.7871, 18697.72
486.2693, 18804.90
486.7514, 18926.63
487.2335, 19069.47
487.7156, 19246.02
488.1977, 19416.54
488.6798, 19575.99
489.1620, 19734.26
489.6441, 19903.54
490.1262, 20091.11
490.6083, 20273.41
491.0904, 20442.28
491.5725, 20600.88
492.0547, 20768.57
492.5368, 20945.28
493.0189, 21124.65
493.5010, 21304.24
493.9831, 21482.76
494.4652, 21662.01
494.9474, 21842.32
495.4295, 22019.27
495.9116, 22186.53
496.3937, 22347.09
496.8758, 22503.75
497.3579, 22659.28
497.8401, 22811.02
498.3222, 22953.55
498.8043, 23089.75
499.2864, 23233.43
499.7685, 23404.99
500.2506, 23577.45
500.7328, 23728.77
501.2149, 23854.12
501.6970, 23969.52
502.1791, 24072.64
502.6612, 24170.89
503.1433, 24271.37
503.6255, 24384.69
504.1076, 24488.89
504.5897, 24577.23
505.0718, 24655.42
505.5539, 24741.62
506.0360, 24848.83
506.5181, 24947.22
507.0002, 25021.98
507.4824, 25071.28
507.9645, 25134.90
508.4466, 25214.74
508.9287, 25304.04
509.4108, 25396.82
509.8929, 25493.01
510.3751, 25594.87
510.8572, 25705.33
511.3393, 25818.36
511.8214, 25925.99
512.3035, 26028.92
512.7856, 26132.23
513.2678, 26234.32
513.7499, 26339.64
514.2320, 26458.26
514.7141, 26587.96
515.1962, 26715.83
515.6783, 26824.76
516.1605, 26932.17
516.6426, 27056.27
517.1247, 27206.37
517.6068, 27359.31
518.0889, 27512.78
518.5710, 27662.82
519.0532, 27801.56
519.5353, 27910.28
520.0174, 28028.22
520.4995, 28171.44
520.9816, 28335.03
521.4637, 28488.10
521.9459, 28625.72
522.4280, 28759.86
522.9101, 28895.18
523.3922, 29034.25
523.8743, 29167.64
524.3564, 29298.12
524.8386, 29418.29
525.3207, 29518.40
525.8028, 29597.56
526.2849, 29668.75
526.7670, 29739.28
527.2491, 29796.08
527.7313, 29808.55
528.2134, 29781.05
528.6955, 29737.77
529.1776, 29691.79
529.6597, 29638.81
530.1418, 29577.87
530.6240, 29509.56
531.1061, 29416.21
531.5882, 29273.34
532.0703, 29107.52
532.5524, 28943.16
533.0345, 28786.66
533.5167, 28633.46
533.9988, 28489.06
534.4809, 28346.91
534.9630, 28196.46
535.4451, 28013.00
535.9272, 27845.71
536.4094, 27708.40
536.8915, 27599.26
537.3736, 27483.99
537.8557, 27353.82
538.3378, 27230.49
538.8199, 27128.12
539.3021, 27049.95
539.7842, 26966.90
540.2663, 26875.09
540.7484, 26786.01
541.2305, 26712.02
541.7126, 26652.31
542.1948, 26607.25
542.6769, 26582.54
543.1590, 26564.64
543.6411, 26528.51
544.1232, 26480.56
544.6053, 26444.69
545.0875, 26447.34
545.5696, 26459.37
546.0517, 26449.52
546.5338, 26417.31
547.0159, 26393.32
547.4980, 26398.82
547.9802, 26414.18
548.4623, 26423.86
548.9444, 26419.13
549.4265, 26419.42
549.9086, 26429.64
550.3907, 26445.45
550.8729, 26461.71
551.3550, 26486.07
551.8371, 26496.04
552.3192, 26481.51
552.8013, 26447.86
553.2834, 26428.29
553.7656, 26428.11
554.2477, 26420.47
554.7298, 26386.68
555.2119, 26329.21
555.6940, 26277.20
556.1761, 26231.23
556.6583, 26185.51
557.1404, 26144.65
557.6225, 26099.15
558.1046, 26023.05
558.5867, 25899.56
559.0688, 25770.29
559.5510, 25673.45
560.0331, 25599.14
560.5152, 25525.46
560.9973, 25455.66
561.4794, 25373.36
561.9615, 25265.30
562.4437, 25134.76
562.9258, 25007.86
563.4079, 24889.57
563.8900, 24775.75
564.3721, 24666.65
564.8542, 24565.13
565.3364, 24454.69
565.8185, 24332.93
566.3006, 24208.04
566.7827, 24088.85
567.2648, 23977.06
567.7469, 23867.68
568.2291, 23760.75
568.7112, 23655.22
569.1933, 23544.31
569.6754, 23429.51
570.1575, 23319.52
570.6396, 23215.92
571.1218, 23121.21
571.6039, 23042.96
572.0860, 22980.30
572.5681, 22920.70
573.0502, 22854.18
573.5323, 22788.66
574.0145, 22729.14
574.4966, 22676.55
574.9787, 22629.55
575.4608, 22592.74
575.9429, 22558.42
576.4250, 22519.54
576.9072, 22465.72
577.3893, 22418.11
577.8714, 22382.47
578.3535, 22353.02
578.8356, 22315.26
579.3177, 22259.33
579.7999, 22221.06
580.2820, 22218.06
580.7641, 22243.55
581.2462, 22250.07
581.7283, 22236.78
582.2104, 22216.06
582.6926, 22193.41
583.1747, 22170.60
583.6568, 22154.68
584.1389, 22147.03
584.6210, 22136.83
585.1031, 22107.72
585.5853, 22071.69
586.0674, 22047.93
586.5495, 22053.77
587.0316, 22052.54
587.5137, 22019.39
587.9958, 21966.85
588.4779, 21919.01
588.9600, 21884.62
589.4421, 21852.84
589.9243, 21828.45
590.4064, 21808.30
590.8885, 21759.51
