##NAMES=Afghanite
##RRUFFID=R060422
##IDEAL CHEMISTRY=Na_22_Ca_10_(Si_24_Al_24_)O_96_(S^6+^O_4_)_6_Cl_6_
##LOCALITY=Kokscha Valley, Badakshan Province, Afghanistan
##OWNER=RRUFF
##SOURCE=Herb Obodda
##DESCRIPTION=Blue hexagonal prism with pyramidal termination
##STATUS=The identification of this mineral has been confirmed by X-ray diffraction and chemical analysis
##URL=rruff.info/R060422
##MEASURED CHEMISTRY=(Na_19.94_K_2.06_)_Î£=22_Ca_10.00_[Si_24.00_Al_24.00_O_96_](S_1.00_O_4_)_6_Cl_6.00_
121.4609, 1030.923
121.9430, 1031.489
122.4251, 1031.166
122.9073, 1030.477
123.3894, 1029.981
123.8715, 1029.879
124.3536, 1030.132
124.8357, 1030.822
125.3178, 1032.526
125.8000, 1033.483
126.2821, 1032.509
126.7642, 1030.072
127.2463, 1027.889
127.7284, 1026.573
128.2105, 1026.166
128.6927, 1026.416
129.1748, 1027.348
129.6569, 1028.902
130.1390, 1031.694
130.6211, 1036.197
131.1032, 1039.098
131.5854, 1037.302
132.0675, 1033.730
132.5496, 1030.837
133.0317, 1029.410
133.5138, 1029.329
133.9959, 1030.521
134.4781, 1034.218
134.9602, 1037.223
135.4423, 1038.633
135.9244, 1038.929
136.4065, 1038.643
136.8886, 1038.002
137.3708, 1037.070
137.8529, 1036.793
138.3350, 1037.936
138.8171, 1039.008
139.2992, 1039.601
139.7813, 1039.831
140.2635, 1040.055
140.7456, 1040.606
141.2277, 1041.564
141.7098, 1042.059
142.1919, 1041.350
142.6740, 1040.878
143.1561, 1041.990
143.6383, 1044.539
144.1204, 1046.645
144.6025, 1046.060
145.0846, 1042.177
145.5667, 1039.829
146.0488, 1040.531
146.5310, 1042.257
147.0131, 1042.563
147.4952, 1040.777
147.9773, 1038.859
148.4594, 1039.554
148.9415, 1042.376
149.4237, 1044.925
149.9058, 1046.101
150.3879, 1046.325
150.8700, 1046.708
151.3521, 1047.379
151.8342, 1048.357
152.3164, 1049.728
152.7985, 1051.432
153.2806, 1053.070
153.7627, 1054.664
154.2448, 1056.240
154.7269, 1056.540
155.2091, 1053.853
155.6912, 1050.931
156.1733, 1048.963
156.6554, 1048.109
157.1375, 1048.093
157.6196, 1048.607
158.1018, 1049.639
158.5839, 1051.299
159.0660, 1054.969
159.5481, 1058.269
160.0302, 1059.323
160.5123, 1057.808
160.9945, 1055.133
161.4766, 1053.740
161.9587, 1054.066
162.4408, 1055.249
162.9229, 1058.197
163.4050, 1061.487
163.8871, 1063.739
164.3693, 1064.454
164.8514, 1064.187
165.3335, 1064.256
165.8156, 1064.948
166.2977, 1065.585
166.7798, 1066.118
167.2620, 1066.557
167.7441, 1066.978
168.2262, 1067.460
168.7083, 1067.832
169.1904, 1067.505
169.6725, 1065.999
170.1547, 1064.806
170.6368, 1064.907
171.1189, 1065.907
171.6010, 1066.309
172.0831, 1064.941
172.5652, 1063.006
173.0474, 1062.958
173.5295, 1065.634
174.0116, 1068.580
174.4937, 1069.864
174.9758, 1069.496
175.4579, 1068.910
175.9401, 1068.501
176.4222, 1068.304
176.9043, 1068.465
177.3864, 1069.171
177.8685, 1069.855
178.3506, 1069.416
178.8328, 1067.211
179.3149, 1066.249
179.7970, 1068.811
180.2791, 1072.451
180.7612, 1075.033
181.2433, 1075.714
181.7255, 1075.307
182.2076, 1075.567
182.6897, 1076.885
183.1718, 1078.181
183.6539, 1079.716
184.1360, 1080.931
184.6181, 1081.150
185.1003, 1080.014
185.5824, 1077.863
186.0645, 1075.885
186.5466, 1073.545
187.0287, 1072.132
187.5108, 1072.244
187.9930, 1073.242
188.4751, 1074.456
188.9572, 1075.538
189.4393, 1076.422
189.9214, 1076.674
190.4035, 1076.307
190.8857, 1075.314
191.3678, 1072.762
191.8499, 1069.653
192.3320, 1067.765
192.8141, 1068.295
193.2962, 1070.865
193.7784, 1072.549
194.2605, 1073.283
194.7426, 1073.463
195.2247, 1072.506
195.7068, 1070.963
196.1889, 1070.525
196.6711, 1072.603
197.1532, 1076.468
197.6353, 1078.372
198.1174, 1076.902
198.5995, 1074.987
199.0816, 1074.293
199.5638, 1074.651
200.0459, 1074.867
200.5280, 1074.011
201.0101, 1072.589
201.4922, 1072.097
201.9743, 1073.299
202.4565, 1074.727
202.9386, 1075.347
203.4207, 1075.171
203.9028, 1074.042
204.3849, 1070.464
204.8670, 1066.382
205.3492, 1064.887
205.8313, 1067.780
206.3134, 1071.841
206.7955, 1073.043
207.2776, 1070.942
207.7597, 1068.037
208.2419, 1064.185
208.7240, 1060.576
209.2061, 1058.690
209.6882, 1059.337
210.1703, 1061.191
210.6524, 1061.905
211.1346, 1060.960
211.6167, 1060.180
212.0988, 1060.770
212.5809, 1061.525
213.0630, 1061.148
213.5451, 1059.030
214.0273, 1055.918
214.5094, 1053.390
214.9915, 1051.226
215.4736, 1050.201
215.9557, 1051.171
216.4378, 1052.817
216.9200, 1053.836
217.4021, 1053.637
217.8842, 1052.604
218.3663, 1051.772
218.8484, 1051.140
219.3305, 1050.764
219.8127, 1050.910
220.2948, 1051.187
220.7769, 1051.190
221.2590, 1050.735
221.7411, 1049.932
222.2232, 1049.099
222.7054, 1047.810
223.1875, 1047.048
223.6696, 1047.527
224.1517, 1048.330
224.6338, 1048.213
225.1159, 1046.611
225.5980, 1044.224
226.0802, 1043.094
226.5623, 1044.521
227.0444, 1045.708
227.5265, 1046.375
228.0086, 1046.721
228.4907, 1047.060
228.9729, 1047.546
229.4550, 1047.942
229.9371, 1047.550
230.4192, 1045.500
230.9013, 1044.066
231.3834, 1043.785
231.8656, 1044.292
232.3477, 1045.131
232.8298, 1046.172
233.3119, 1047.306
233.7940, 1048.346
234.2761, 1049.436
234.7583, 1050.144
235.2404, 1050.002
235.7225, 1049.454
236.2046, 1049.273
236.6867, 1049.722
237.1688, 1050.599
237.6510, 1051.702
238.1331, 1053.129
238.6152, 1054.232
239.0973, 1054.885
239.5794, 1055.052
240.0615, 1054.539
240.5437, 1053.094
241.0258, 1051.349
241.5079, 1049.970
241.9900, 1048.893
242.4721, 1048.459
242.9542, 1049.295
243.4364, 1050.901
243.9185, 1051.939
244.4006, 1051.993
244.8827, 1051.719
245.3648, 1051.603
245.8469, 1051.658
246.3290, 1052.166
246.8112, 1053.836
247.2933, 1056.118
247.7754, 1057.213
248.2575, 1056.335
248.7396, 1055.152
249.2217, 1054.858
249.7039, 1055.312
250.1860, 1056.109
250.6681, 1057.422
251.1502, 1058.970
251.6323, 1059.704
252.1144, 1059.373
252.5966, 1058.486
253.0787, 1056.862
253.5608, 1054.961
254.0429, 1053.842
254.5250, 1054.510
255.0071, 1056.455
255.4893, 1057.698
255.9714, 1058.037
256.4535, 1057.925
256.9356, 1057.147
257.4177, 1056.195
257.8998, 1055.958
258.3820, 1057.234
258.8641, 1059.436
259.3462, 1060.434
259.8283, 1059.618
260.3104, 1058.519
260.7925, 1057.112
261.2747, 1055.909
261.7568, 1055.689
262.2389, 1056.975
262.7210, 1059.217
263.2031, 1060.897
263.6852, 1062.083
264.1674, 1062.476
264.6495, 1061.142
265.1316, 1059.468
265.6137, 1059.050
266.0958, 1060.615
266.5779, 1063.374
267.0601, 1065.531
267.5422, 1067.107
268.0243, 1067.923
268.5064, 1067.629
268.9885, 1066.892
269.4706, 1066.222
269.9528, 1065.809
270.4349, 1065.639
270.9170, 1065.729
271.3991, 1066.339
271.8812, 1066.688
272.3633, 1066.313
272.8455, 1065.957
273.3276, 1066.443
273.8097, 1067.862
274.2918, 1069.357
274.7739, 1069.428
275.2560, 1066.683
275.7382, 1065.527
276.2202, 1067.058
276.7024, 1069.001
277.1845, 1069.865
277.6666, 1069.490
278.1487, 1068.758
278.6308, 1068.766
279.1129, 1069.837
279.5951, 1070.517
280.0772, 1070.499
280.5593, 1070.421
281.0414, 1070.419
281.5235, 1070.621
282.0056, 1071.305
282.4878, 1072.856
282.9699, 1075.523
283.4520, 1077.268
283.9341, 1077.603
284.4162, 1077.660
284.8983, 1077.618
285.3805, 1077.661
285.8626, 1078.087
286.3447, 1079.149
286.8268, 1080.838
287.3089, 1082.633
287.7910, 1085.088
288.2732, 1087.063
288.7553, 1087.954
289.2374, 1088.130
289.7195, 1088.282
290.2016, 1088.833
290.6837, 1089.687
291.1659, 1090.337
291.6480, 1089.358
292.1301, 1089.822
292.6122, 1093.491
293.0943, 1098.590
293.5764, 1102.620
294.0586, 1104.437
294.5407, 1104.711
295.0228, 1105.258
295.5049, 1105.852
295.9870, 1107.045
296.4691, 1108.808
296.9513, 1111.205
297.4334, 1114.667
297.9155, 1119.261
298.3976, 1124.063
298.8797, 1127.479
299.3618, 1128.525
299.8440, 1129.907
300.3261, 1131.244
300.8082, 1133.124
301.2903, 1136.235
301.7724, 1140.615
302.2545, 1145.614
302.7367, 1150.661
303.2188, 1156.070
303.7009, 1159.852
304.1830, 1160.788
304.6651, 1161.259
305.1472, 1162.604
305.6294, 1164.914
306.1115, 1167.761
306.5936, 1170.903
307.0757, 1174.400
307.5578, 1176.914
308.0399, 1177.362
308.5221, 1178.084
309.0042, 1180.139
309.4863, 1183.315
309.9684, 1186.925
310.4505, 1190.555
310.9326, 1194.217
311.4148, 1197.873
311.8969, 1201.785
312.3790, 1205.420
312.8611, 1207.936
313.3432, 1210.217
313.8253, 1213.895
314.3075, 1219.771
314.7896, 1226.963
315.2717, 1233.230
315.7538, 1237.227
316.2359, 1242.288
316.7180, 1249.494
317.2001, 1257.536
317.6823, 1265.115
318.1644, 1271.865
318.6465, 1277.873
319.1286, 1283.121
319.6107, 1286.490
320.0928, 1291.966
320.5750, 1301.108
321.0571, 1311.219
321.5392, 1320.365
322.0213, 1328.258
322.5034, 1335.711
322.9855, 1343.428
323.4677, 1351.498
323.9498, 1359.565
324.4319, 1367.068
324.9140, 1375.078
325.3961, 1384.557
325.8782, 1395.092
326.3604, 1405.559
326.8425, 1415.217
327.3246, 1424.084
327.8067, 1432.507
328.2888, 1439.587
328.7709, 1447.333
329.2531, 1456.550
329.7352, 1466.712
330.2173, 1477.106
330.6994, 1487.434
331.1815, 1497.494
331.6636, 1506.795
332.1458, 1514.444
332.6279, 1522.411
333.1100, 1530.797
333.5921, 1539.460
334.0742, 1548.080
334.5563, 1556.572
335.0385, 1565.670
335.5206, 1576.536
336.0027, 1590.623
336.4848, 1602.717
336.9669, 1611.973
337.4490, 1620.234
337.9312, 1628.158
338.4133, 1636.136
338.8954, 1644.880
339.3775, 1655.278
339.8596, 1667.645
340.3417, 1677.899
340.8239, 1683.413
341.3060, 1689.794
341.7881, 1700.099
342.2702, 1712.769
342.7523, 1724.211
343.2344, 1732.045
343.7166, 1737.199
344.1987, 1744.136
344.6808, 1755.300
345.1629, 1765.563
345.6450, 1773.897
346.1271, 1781.273
346.6093, 1788.740
347.0914, 1796.646
347.5735, 1804.823
348.0556, 1812.837
348.5377, 1820.914
349.0198, 1828.443
349.5020, 1835.654
349.9841, 1842.268
350.4662, 1847.804
350.9483, 1852.351
351.4304, 1856.600
351.9125, 1861.317
352.3947, 1866.661
352.8768, 1871.369
353.3589, 1875.157
353.8410, 1878.588
354.3231, 1881.883
354.8052, 1884.954
355.2874, 1887.713
355.7695, 1890.185
356.2516, 1892.169
356.7337, 1892.525
357.2158, 1890.240
357.6979, 1887.543
358.1800, 1885.146
358.6621, 1882.457
359.1443, 1878.812
359.6264, 1873.939
360.1085, 1868.172
360.5906, 1862.045
361.0727, 1855.594
361.5548, 1848.656
362.0370, 1842.294
362.5191, 1834.713
363.0012, 1824.068
363.4833, 1810.526
363.9654, 1796.605
364.4475, 1785.112
364.9297, 1776.267
365.4118, 1766.089
365.8939, 1754.257
366.3760, 1741.260
366.8581, 1726.885
367.3402, 1711.598
367.8224, 1696.291
368.3045, 1681.687
368.7866, 1667.381
369.2687, 1652.118
369.7508, 1635.741
370.2329, 1618.758
370.7151, 1600.620
371.1972, 1582.334
371.6793, 1564.797
372.1614, 1548.493
372.6435, 1532.380
373.1256, 1514.901
373.6078, 1495.906
374.0899, 1478.240
374.5720, 1463.231
375.0541, 1449.164
375.5362, 1434.849
376.0183, 1420.207
376.5005, 1405.684
376.9826, 1391.007
377.4647, 1376.551
377.9468, 1363.942
378.4289, 1354.162
378.9110, 1344.247
379.3932, 1331.179
379.8753, 1316.609
380.3574, 1303.789
380.8395, 1294.354
381.3216, 1286.514
381.8037, 1278.350
382.2859, 1269.843
382.7680, 1261.207
383.2501, 1252.358
383.7322, 1243.575
384.2143, 1235.050
384.6964, 1226.679
385.1786, 1219.134
385.6607, 1213.434
386.1428, 1208.946
386.6249, 1203.860
387.1070, 1197.646
387.5891, 1191.150
388.0713, 1185.290
388.5534, 1180.014
389.0355, 1174.958
389.5176, 1170.146
389.9997, 1165.463
390.4818, 1160.685
390.9640, 1155.812
391.4461, 1151.267
391.9282, 1147.270
392.4103, 1143.873
392.8924, 1141.115
393.3745, 1139.408
393.8567, 1137.808
394.3388, 1135.764
394.8209, 1133.578
395.3030, 1132.151
395.7851, 1131.932
396.2672, 1131.754
396.7494, 1129.308
397.2315, 1122.851
397.7136, 1118.329
398.1957, 1117.525
398.6778, 1117.680
399.1599, 1116.343
399.6420, 1113.406
400.1241, 1110.505
400.6063, 1109.202
401.0884, 1109.573
401.5705, 1108.848
402.0526, 1106.291
402.5347, 1103.643
403.0168, 1100.874
403.4990, 1098.490
403.9811, 1097.599
404.4632, 1098.775
404.9453, 1100.814
405.4274, 1100.642
405.9095, 1096.069
406.3917, 1092.989
406.8738, 1092.341
407.3559, 1092.540
407.8380, 1092.616
408.3201, 1092.363
408.8022, 1091.953
409.2844, 1091.506
409.7665, 1091.006
410.2486, 1090.708
410.7307, 1090.920
411.2128, 1090.982
411.6949, 1090.676
412.1771, 1090.088
412.6592, 1089.301
413.1413, 1088.297
413.6234, 1087.311
414.1055, 1086.849
414.5876, 1086.959
415.0698, 1087.450
415.5519, 1088.943
416.0340, 1090.361
416.5161, 1090.773
416.9982, 1090.135
417.4803, 1089.445
417.9625, 1089.748
418.4446, 1090.844
418.9267, 1091.215
419.4088, 1090.217
419.8909, 1089.481
420.3730, 1090.488
420.8552, 1092.472
421.3373, 1093.874
421.8194, 1094.000
422.3015, 1093.496
422.7836, 1092.889
423.2657, 1092.188
423.7479, 1092.015
424.2300, 1092.827
424.7121, 1094.133
425.1942, 1095.038
425.6763, 1095.389
426.1584, 1096.124
426.6406, 1098.122
427.1227, 1100.637
427.6048, 1102.328
428.0869, 1102.952
428.5690, 1103.194
429.0511, 1103.449
429.5333, 1103.794
430.0154, 1105.063
430.4975, 1107.920
430.9796, 1111.080
431.4617, 1114.105
431.9438, 1116.853
432.4260, 1118.845
432.9081, 1119.691
433.3902, 1120.223
433.8723, 1122.490
434.3544, 1128.467
434.8365, 1132.884
435.3187, 1134.175
435.8008, 1134.763
436.2829, 1136.814
436.7650, 1140.426
437.2471, 1144.190
437.7292, 1146.885
438.2114, 1148.522
438.6935, 1148.964
439.1756, 1147.233
439.6577, 1145.381
440.1398, 1142.934
440.6219, 1140.950
441.1040, 1141.142
441.5862, 1144.221
442.0683, 1148.633
442.5504, 1151.558
443.0325, 1152.651
443.5146, 1153.353
443.9967, 1153.241
444.4789, 1153.230
444.9610, 1153.823
445.4431, 1154.968
445.9252, 1156.338
446.4073, 1157.822
446.8894, 1159.319
447.3716, 1160.281
447.8537, 1160.266
448.3358, 1160.809
448.8179, 1163.198
449.3000, 1166.229
449.7821, 1168.749
450.2643, 1170.570
450.7464, 1171.619
451.2285, 1171.813
451.7106, 1171.169
452.1927, 1169.758
452.6748, 1167.580
453.1570, 1164.674
453.6391, 1160.534
454.1212, 1155.485
454.6033, 1151.142
455.0854, 1148.188
455.5675, 1145.890
456.0497, 1143.934
456.5318, 1142.174
457.0139, 1139.828
457.4960, 1136.427
457.9781, 1132.270
458.4602, 1128.072
458.9424, 1123.619
459.4245, 1119.568
459.9066, 1116.021
460.3887, 1112.960
460.8708, 1110.713
461.3529, 1109.162
461.8351, 1107.288
462.3172, 1103.968
462.7993, 1099.139
463.2814, 1095.432
463.7635, 1094.318
464.2456, 1092.556
464.7278, 1088.372
465.2099, 1083.343
465.6920, 1079.996
466.1741, 1079.239
466.6562, 1079.312
467.1383, 1076.922
467.6205, 1070.643
468.1026, 1066.286
468.5847, 1065.939
469.0668, 1065.858
469.5489, 1064.339
470.0310, 1061.671
470.5132, 1058.975
470.9953, 1056.805
471.4774, 1055.191
471.9595, 1054.477
472.4416, 1055.094
472.9237, 1055.016
473.4059, 1052.869
473.8880, 1050.086
474.3701, 1047.911
474.8522, 1046.500
475.3343, 1045.357
475.8164, 1044.210
476.2986, 1043.101
476.7807, 1042.178
477.2628, 1041.502
477.7449, 1040.766
478.2270, 1039.735
478.7091, 1038.435
479.1913, 1037.029
479.6734, 1034.739
480.1555, 1033.216
480.6376, 1034.317
481.1197, 1036.696
481.6018, 1037.250
482.0839, 1034.880
482.5660, 1031.497
483.0482, 1029.739
483.5303, 1030.127
484.0124, 1030.444
484.4945, 1030.992
484.9766, 1031.192
485.4587, 1030.486
485.9409, 1029.178
486.4230, 1027.892
486.9051, 1026.934
487.3872, 1026.467
487.8693, 1027.144
488.3514, 1030.458
488.8336, 1032.059
489.3157, 1030.553
489.7978, 1028.373
490.2799, 1027.192
490.7620, 1026.992
491.2441, 1026.663
491.7263, 1025.111
492.2084, 1022.711
492.6905, 1021.304
493.1726, 1021.122
493.6547, 1021.397
494.1368, 1022.427
494.6190, 1023.466
495.1011, 1023.674
495.5832, 1022.850
496.0653, 1021.656
496.5474, 1020.004
497.0295, 1018.354
497.5117, 1018.539
497.9938, 1021.290
498.4759, 1023.883
498.9580, 1023.633
499.4401, 1021.158
499.9222, 1019.955
500.4044, 1021.554
500.8865, 1023.097
501.3686, 1022.750
501.8507, 1021.327
502.3328, 1020.692
502.8149, 1021.513
503.2971, 1022.600
503.7792, 1022.134
504.2613, 1019.306
504.7434, 1017.897
505.2255, 1019.163
505.7076, 1020.456
506.1898, 1020.271
506.6719, 1019.173
507.1540, 1018.479
507.6361, 1018.886
508.1182, 1020.011
508.6003, 1020.975
509.0825, 1021.696
509.5646, 1022.481
510.0467, 1023.573
510.5288, 1024.545
511.0109, 1025.041
511.4930, 1025.176
511.9752, 1025.405
512.4573, 1026.010
512.9394, 1026.897
513.4215, 1027.934
513.9036, 1029.183
514.3857, 1030.233
514.8679, 1031.052
515.3500, 1031.471
515.8321, 1030.995
516.3142, 1029.421
516.7963, 1028.744
517.2784, 1030.605
517.7606, 1033.498
518.2427, 1035.235
518.7248, 1035.664
519.2069, 1035.996
519.6890, 1037.022
520.1711, 1038.611
520.6533, 1040.081
521.1354, 1041.323
521.6175, 1042.621
522.0996, 1044.134
522.5817, 1045.654
523.0638, 1046.866
523.5460, 1047.775
524.0281, 1048.714
524.5102, 1049.930
524.9923, 1051.427
525.4744, 1053.786
525.9565, 1058.494
526.4387, 1062.057
526.9208, 1062.559
527.4029, 1062.274
527.8850, 1063.883
528.3671, 1067.978
528.8492, 1072.374
529.3314, 1074.259
529.8135, 1074.025
530.2956, 1075.798
530.7777, 1080.564
531.2598, 1085.765
531.7419, 1090.435
532.2241, 1094.346
532.7062, 1096.750
533.1883, 1096.350
533.6704, 1096.768
534.1525, 1101.864
534.6346, 1109.491
535.1168, 1114.336
535.5989, 1115.048
536.0810, 1114.502
536.5631, 1115.575
537.0452, 1118.367
537.5273, 1120.259
538.0095, 1120.591
538.4916, 1120.848
538.9737, 1121.940
539.4558, 1123.186
539.9379, 1123.853
540.4200, 1123.622
540.9022, 1121.991
541.3843, 1117.847
541.8664, 1110.436
542.3485, 1104.811
542.8306, 1101.996
543.3127, 1100.027
543.7948, 1099.106
544.2769, 1098.413
544.7590, 1096.823
545.2411, 1093.911
545.7233, 1090.100
546.2054, 1085.634
546.6875, 1080.565
547.1696, 1075.843
547.6517, 1071.344
548.1339, 1067.723
548.6160, 1066.244
549.0981, 1066.166
549.5802, 1065.397
550.0623, 1062.661
550.5444, 1060.080
551.0266, 1059.298
551.5087, 1059.672
551.9908, 1059.545
552.4729, 1058.383
552.9550, 1057.376
553.4371, 1058.209
553.9193, 1061.464
554.4014, 1063.008
554.8835, 1062.267
555.3656, 1060.737
555.8477, 1057.826
556.3298, 1054.844
556.8120, 1054.020
557.2941, 1056.073
557.7762, 1058.972
558.2583, 1059.525
558.7404, 1057.285
559.2225, 1056.491
559.7047, 1058.391
560.1868, 1060.278
560.6689, 1060.969
561.1510, 1060.777
561.6331, 1060.151
562.1152, 1059.048
562.5974, 1058.027
563.0795, 1057.693
563.5616, 1057.882
564.0437, 1058.012
564.5258, 1057.956
565.0079, 1057.898
565.4901, 1058.070
565.9722, 1058.443
566.4543, 1058.513
566.9364, 1057.961
567.4185, 1057.484
567.9006, 1057.520
568.3828, 1057.734
568.8649, 1057.652
569.3470, 1057.155
569.8291, 1056.422
570.3112, 1055.663
570.7933, 1054.886
571.2755, 1053.914
571.7576, 1052.037
572.2397, 1050.886
572.7218, 1051.291
573.2039, 1052.368
573.6860, 1053.201
574.1682, 1053.550
574.6503, 1053.571
575.1324, 1053.292
575.6145, 1052.781
576.0966, 1052.354
576.5787, 1052.035
577.0609, 1051.806
577.5430, 1051.983
578.0251, 1052.119
578.5072, 1051.039
578.9893, 1047.745
579.4714, 1045.439
579.9536, 1046.584
580.4357, 1048.740
580.9178, 1048.450
581.3999, 1045.616
581.8820, 1043.079
582.3641, 1043.118
582.8463, 1045.206
583.3284, 1046.245
583.8105, 1045.189
584.2926, 1044.592
584.7747, 1045.159
585.2568, 1045.849
585.7390, 1045.819
586.2211, 1045.094
586.7032, 1044.294
587.1853, 1043.933
587.6674, 1043.764
588.1495, 1042.846
588.6317, 1040.900
589.1138, 1039.972
589.5959, 1040.972
590.0780, 1043.086
590.5601, 1045.829
591.0422, 1049.187
591.5244, 1051.015
592.0065, 1049.058
592.4886, 1046.538
592.9707, 1046.450
593.4528, 1048.374
593.9349, 1050.540
594.4171, 1052.178
594.8992, 1053.606
595.3813, 1055.497
595.8634, 1058.513
596.3455, 1059.958
596.8276, 1058.345
597.3098, 1056.943
597.7919, 1057.146
598.2740, 1058.494
598.7561, 1060.170
599.2382, 1061.868
599.7203, 1063.418
600.2025, 1064.492
600.6846, 1065.112
601.1667, 1066.003
601.6488, 1067.322
602.1309, 1068.745
602.6130, 1069.665
603.0952, 1070.592
603.5773, 1072.797
604.0594, 1077.634
604.5415, 1081.530
605.0236, 1081.938
605.5057, 1080.543
605.9879, 1079.835
606.4700, 1080.228
606.9521, 1081.008
607.4342, 1081.611
607.9163, 1082.062
608.3984, 1082.570
608.8806, 1082.912
609.3627, 1083.621
609.8448, 1085.024
610.3269, 1086.572
610.8090, 1088.016
611.2911, 1089.218
611.7733, 1089.880
612.2554, 1089.500
612.7375, 1088.704
613.2196, 1089.088
613.7017, 1090.774
614.1838, 1092.426
614.6660, 1093.761
615.1481, 1094.776
615.6302, 1095.429
