##NAMES=Afghanite
##RRUFFID=R070558
##IDEAL CHEMISTRY=Na_22_Ca_10_(Si_24_Al_24_)O_96_(S^6+^O_4_)_6_Cl_6_
##LOCALITY=Badakhshan, Afghanistan
##OWNER=RRUFF
##SOURCE=Farooq Hashmi
##DESCRIPTION=Deep blue translucent fragment
##STATUS=The identification of this mineral is confirmed by single-crystal X-ray diffraction and chemical analysis.
##URL=rruff.info/R070558
##MEASURED CHEMISTRY=(Na_19.10_K_2.90_)_Σ=22_Ca_10.00_(Si_24.00_Al_24.00_)_Σ=48_O_96_(S_1.00_O_4_)_6_((OH)_3.21_Cl_2.79_)_Σ=6_ ; OH estimated by difference and charge balance
171.1896, 14468.69
171.6717, 14514.00
172.1538, 14526.66
172.6359, 14464.89
173.1181, 14344.47
173.6002, 14295.08
174.0823, 14371.96
174.5644, 14447.67
175.0465, 14498.25
175.5286, 14521.75
176.0108, 14513.06
176.4929, 14463.86
176.9750, 14381.31
177.4571, 14337.68
177.9392, 14360.50
178.4213, 14384.58
178.9035, 14395.45
179.3856, 14391.64
179.8677, 14368.88
180.3498, 14319.63
180.8319, 14248.30
181.3140, 14217.13
181.7962, 14254.01
182.2783, 14291.49
182.7604, 14299.58
183.2425, 14288.15
183.7246, 14286.72
184.2067, 14316.79
184.6889, 14375.28
185.1710, 14415.71
185.6531, 14442.79
186.1352, 14453.02
186.6173, 14425.76
187.0994, 14377.78
187.5816, 14357.29
188.0637, 14403.47
188.5458, 14509.15
189.0279, 14550.43
189.5100, 14479.73
189.9921, 14407.79
190.4743, 14385.53
190.9564, 14398.96
191.4385, 14401.01
191.9206, 14356.26
192.4027, 14269.65
192.8848, 14227.12
193.3670, 14244.38
193.8491, 14278.55
194.3312, 14338.18
194.8133, 14404.74
195.2954, 14425.30
195.7775, 14353.59
196.2597, 14201.31
196.7418, 14138.75
197.2239, 14253.37
197.7060, 14348.47
198.1881, 14321.73
198.6702, 14210.92
199.1524, 14121.08
199.6345, 14122.65
200.1166, 14206.53
200.5987, 14257.75
201.0808, 14261.05
201.5629, 14256.28
202.0451, 14255.96
202.5272, 14258.50
203.0093, 14258.30
203.4914, 14252.03
203.9735, 14240.12
204.4556, 14225.25
204.9378, 14198.88
205.4199, 14179.33
205.9020, 14180.12
206.3841, 14192.47
206.8662, 14195.86
207.3483, 14176.43
207.8305, 14139.29
208.3126, 14120.21
208.7947, 14139.48
209.2768, 14151.81
209.7589, 14139.69
210.2410, 14112.62
210.7232, 14090.06
211.2053, 14083.71
211.6874, 14089.29
212.1695, 14083.06
212.6516, 14061.73
213.1337, 14033.89
213.6159, 13983.44
214.0980, 13930.17
214.5801, 13912.83
215.0622, 13955.53
215.5443, 14036.90
216.0264, 14065.57
216.5086, 13958.92
216.9907, 13896.53
217.4728, 13947.54
217.9549, 14049.30
218.4370, 14106.39
218.9191, 14070.86
219.4013, 13976.50
219.8834, 13934.11
220.3655, 14014.12
220.8476, 14065.90
221.3297, 14061.08
221.8118, 14027.19
222.2940, 13997.92
222.7761, 13987.86
223.2582, 13987.47
223.7403, 13972.47
224.2224, 13918.07
224.7046, 13879.91
225.1867, 13863.43
225.6688, 13862.18
226.1509, 13873.60
226.6330, 13896.30
227.1151, 13922.49
227.5973, 13936.11
228.0794, 13932.77
228.5615, 13922.04
229.0436, 13893.65
229.5257, 13864.57
230.0078, 13852.03
230.4900, 13860.28
230.9721, 13877.11
231.4542, 13879.79
231.9363, 13847.17
232.4184, 13841.47
232.9005, 13891.28
233.3827, 13945.67
233.8648, 13958.88
234.3469, 13925.82
234.8290, 13885.86
235.3111, 13900.38
235.7932, 14006.57
236.2754, 14074.59
236.7575, 14103.03
237.2396, 14100.68
237.7217, 14050.72
238.2038, 13962.81
238.6859, 13884.38
239.1681, 13878.89
239.6502, 13973.55
240.1323, 14030.89
240.6144, 14022.03
241.0965, 14000.00
241.5786, 13979.68
242.0608, 13965.78
242.5429, 13962.41
243.0250, 13976.01
243.5071, 14008.18
243.9892, 14037.66
244.4713, 14058.80
244.9535, 14082.67
245.4356, 14120.60
245.9177, 14166.20
246.3998, 14201.31
246.8819, 14209.56
247.3640, 14193.36
247.8462, 14179.86
248.3283, 14162.34
248.8104, 14157.85
249.2925, 14173.05
249.7746, 14205.01
250.2567, 14249.42
250.7389, 14314.32
251.2210, 14387.87
251.7031, 14422.21
252.1852, 14394.01
252.6673, 14369.84
253.1494, 14387.08
253.6316, 14424.94
254.1137, 14452.36
254.5958, 14455.43
255.0779, 14441.11
255.5600, 14417.42
256.0421, 14377.41
256.5243, 14350.17
257.0064, 14344.18
257.4885, 14359.93
257.9706, 14407.82
258.4527, 14509.98
258.9348, 14613.69
259.4170, 14645.57
259.8991, 14599.19
260.3812, 14560.74
260.8633, 14571.74
261.3454, 14606.30
261.8275, 14633.21
262.3097, 14652.61
262.7918, 14655.61
263.2739, 14620.38
263.7560, 14554.23
264.2381, 14515.35
264.7202, 14541.99
265.2024, 14587.09
265.6845, 14576.26
266.1666, 14497.00
266.6487, 14416.64
267.1308, 14369.12
267.6129, 14345.63
268.0951, 14323.96
268.5772, 14297.93
269.0593, 14273.17
269.5414, 14256.88
270.0235, 14247.50
270.5056, 14249.94
270.9878, 14293.66
271.4699, 14339.80
271.9520, 14324.40
272.4341, 14231.51
272.9162, 14123.54
273.3983, 14071.35
273.8805, 14085.92
274.3626, 14095.42
274.8447, 14082.79
275.3268, 14072.68
275.8089, 14095.51
276.2910, 14149.12
276.7732, 14194.92
277.2553, 14198.33
277.7374, 14154.73
278.2195, 14112.51
278.7016, 14081.27
279.1837, 14042.09
279.6659, 13966.90
280.1480, 13872.00
280.6301, 13808.14
281.1122, 13813.88
281.5943, 13880.67
282.0764, 13913.57
282.5586, 13871.08
283.0407, 13842.95
283.5228, 13862.75
284.0049, 13907.20
284.4870, 13938.03
284.9691, 13935.15
285.4513, 13911.43
285.9334, 13909.05
286.4155, 13965.91
286.8976, 13989.84
287.3797, 13947.71
287.8618, 13884.07
288.3440, 13839.54
288.8261, 13827.53
289.3082, 13836.55
289.7903, 13848.25
290.2724, 13862.00
290.7545, 13880.48
291.2367, 13912.62
291.7188, 13942.81
292.2009, 13971.82
292.6830, 13994.79
293.1651, 13989.98
293.6472, 13910.79
294.1294, 13745.93
294.6115, 13654.29
295.0936, 13710.50
295.5757, 13775.85
296.0578, 13780.33
296.5399, 13731.95
297.0221, 13672.11
297.5042, 13622.28
297.9863, 13582.07
298.4684, 13548.53
298.9505, 13518.84
299.4326, 13501.58
299.9148, 13509.08
300.3969, 13531.10
300.8790, 13549.08
301.3611, 13560.00
301.8432, 13561.40
302.3253, 13547.24
302.8075, 13516.32
303.2896, 13481.62
303.7717, 13441.97
304.2538, 13406.13
304.7359, 13392.56
305.2180, 13419.22
305.7002, 13443.47
306.1823, 13426.92
306.6644, 13381.29
307.1465, 13353.72
307.6286, 13368.20
308.1107, 13401.84
308.5929, 13408.40
309.0750, 13387.18
309.5571, 13350.41
310.0392, 13280.89
310.5213, 13204.51
311.0034, 13158.60
311.4856, 13152.67
311.9677, 13168.84
312.4498, 13184.99
312.9319, 13198.72
313.4140, 13222.24
313.8961, 13292.78
314.3783, 13345.60
314.8604, 13310.83
315.3425, 13201.71
315.8246, 13106.59
316.3067, 13109.82
316.7888, 13219.07
317.2710, 13267.06
317.7531, 13193.28
318.2352, 13127.22
318.7173, 13107.31
319.1994, 13123.96
319.6815, 13158.84
320.1637, 13203.45
320.6458, 13251.81
321.1279, 13278.66
321.6100, 13261.61
322.0921, 13258.27
322.5742, 13306.48
323.0564, 13356.82
323.5385, 13349.55
324.0206, 13264.86
324.5027, 13162.54
324.9848, 13127.32
325.4669, 13167.58
325.9491, 13230.43
326.4312, 13339.73
326.9133, 13444.81
327.3954, 13517.22
327.8775, 13554.98
328.3596, 13566.12
328.8418, 13539.45
329.3239, 13486.75
329.8060, 13460.77
330.2881, 13468.84
330.7702, 13499.15
331.2523, 13560.83
331.7345, 13640.37
332.2166, 13694.57
332.6987, 13691.47
333.1808, 13666.54
333.6629, 13660.47
334.1451, 13674.03
334.6272, 13692.01
335.1093, 13703.27
335.5914, 13713.07
336.0735, 13738.81
336.5556, 13789.09
337.0378, 13844.82
337.5199, 13911.76
338.0020, 13977.36
338.4841, 14007.40
338.9662, 13984.18
339.4483, 13939.62
339.9305, 13938.89
340.4126, 14020.15
340.8947, 14079.64
341.3768, 14109.00
341.8589, 14118.22
342.3410, 14101.69
342.8232, 14065.68
343.3053, 14045.56
343.7874, 14086.20
344.2695, 14205.22
344.7516, 14282.91
345.2337, 14285.20
345.7159, 14281.89
346.1980, 14299.15
346.6801, 14331.30
347.1622, 14361.21
347.6443, 14378.18
348.1265, 14384.09
348.6086, 14383.79
349.0907, 14363.86
349.5728, 14363.30
350.0549, 14403.08
350.5370, 14459.99
351.0192, 14514.04
351.5013, 14560.33
351.9834, 14593.61
352.4655, 14603.97
352.9476, 14591.09
353.4297, 14573.45
353.9119, 14548.45
354.3940, 14527.39
354.8761, 14515.17
355.3582, 14511.87
355.8403, 14531.23
356.3224, 14607.89
356.8046, 14704.04
357.2867, 14752.50
357.7688, 14743.36
358.2509, 14698.19
358.7330, 14612.95
359.2151, 14496.19
359.6973, 14438.33
360.1794, 14489.93
360.6615, 14559.13
361.1436, 14603.16
361.6257, 14620.51
362.1078, 14611.99
362.5900, 14576.42
363.0721, 14518.70
363.5542, 14454.01
364.0363, 14363.24
364.5184, 14290.26
365.0005, 14254.21
365.4827, 14228.04
365.9648, 14180.42
366.4469, 14105.93
366.9290, 14029.63
367.4111, 13985.61
367.8932, 13984.56
368.3754, 13972.80
368.8575, 13948.25
369.3396, 13914.61
369.8217, 13867.23
370.3038, 13811.14
370.7859, 13759.27
371.2681, 13723.30
371.7502, 13695.60
372.2323, 13646.02
372.7144, 13561.45
373.1965, 13487.72
373.6786, 13458.24
374.1608, 13443.81
374.6429, 13413.78
375.1250, 13361.12
375.6071, 13293.10
376.0892, 13200.19
376.5714, 13091.19
377.0535, 13018.56
377.5356, 13005.71
378.0177, 13017.57
378.4998, 13014.79
378.9819, 12999.74
379.4641, 12963.76
379.9462, 12887.52
380.4283, 12800.25
380.9104, 12724.94
381.3925, 12665.56
381.8746, 12626.72
382.3568, 12617.14
382.8389, 12634.60
383.3210, 12624.60
383.8031, 12569.52
384.2852, 12512.00
384.7673, 12454.54
385.2495, 12404.53
385.7316, 12374.56
386.2137, 12369.69
386.6958, 12377.46
387.1779, 12374.62
387.6600, 12360.31
388.1422, 12337.05
388.6243, 12218.08
389.1064, 12303.15
389.5885, 12343.20
390.0706, 12340.64
390.5527, 12167.87
391.0349, 12214.88
391.5170, 12173.82
391.9991, 12129.15
392.4812, 12207.11
392.9633, 12059.09
393.4454, 12135.11
393.9276, 12121.69
394.4097, 12149.20
394.8918, 12088.08
395.3739, 12054.35
395.8560, 12109.26
396.3381, 12115.09
396.8203, 12043.77
397.3024, 12073.88
397.7845, 11922.77
398.2666, 11930.69
398.7487, 12007.22
399.2308, 11940.36
399.7130, 11972.09
400.1951, 11966.28
400.6772, 11789.81
401.1593, 11910.12
401.6414, 11902.09
402.1235, 11792.91
402.6057, 11818.22
403.0878, 11826.04
403.5699, 11784.94
404.0520, 11762.21
404.5341, 11792.25
405.0162, 11841.63
405.4984, 11863.49
405.9805, 11838.85
406.4626, 11795.73
406.9447, 11779.02
407.4268, 11792.62
407.9089, 11814.81
408.3911, 11858.59
408.8732, 11896.56
409.3553, 11911.80
409.8374, 11905.41
410.3195, 11888.54
410.8016, 11860.90
411.2838, 11828.89
411.7659, 11804.99
412.2480, 11789.92
412.7301, 11780.34
413.2122, 11778.84
413.6943, 11780.34
414.1765, 11768.72
414.6586, 11726.18
415.1407, 11694.19
415.6228, 11699.50
416.1049, 11725.01
416.5870, 11742.28
417.0692, 11742.60
417.5513, 11734.27
418.0334, 11727.67
418.5155, 11720.96
418.9976, 11722.46
419.4797, 11756.60
419.9619, 11774.99
420.4440, 11725.96
420.9261, 11640.44
421.4082, 11599.17
421.8903, 11662.49
422.3724, 11790.37
422.8546, 11843.80
423.3367, 11786.54
423.8188, 11739.56
424.3009, 11744.73
424.7830, 11766.12
425.2651, 11780.83
425.7473, 11785.27
426.2294, 11770.81
426.7115, 11709.20
427.1936, 11622.20
427.6757, 11585.62
428.1578, 11618.68
428.6400, 11665.44
429.1221, 11679.68
429.6042, 11666.75
430.0863, 11664.48
430.5684, 11681.83
431.0505, 11704.29
431.5327, 11723.10
432.0148, 11740.81
432.4969, 11767.88
432.9790, 11809.78
433.4611, 11851.39
433.9432, 11860.39
434.4254, 11805.81
434.9075, 11777.21
435.3896, 11793.78
435.8717, 11817.02
436.3538, 11816.69
436.8359, 11798.90
437.3181, 11794.84
437.8002, 11833.11
438.2823, 11901.58
438.7644, 11948.33
439.2465, 11968.79
439.7286, 11976.75
440.2108, 11959.23
440.6929, 11940.12
441.1750, 11948.62
441.6571, 11995.12
442.1392, 12041.90
442.6213, 12050.79
443.1035, 12039.58
443.5856, 12060.55
444.0677, 12127.56
444.5498, 12201.95
445.0319, 12242.42
445.5140, 12246.79
445.9962, 12281.79
446.4783, 12376.39
446.9604, 12472.28
447.4425, 12549.38
447.9246, 12606.36
448.4067, 12638.99
448.8889, 12644.63
449.3710, 12640.38
449.8531, 12665.81
450.3352, 12751.65
450.8173, 12796.07
451.2994, 12759.48
451.7816, 12714.45
452.2637, 12692.08
452.7458, 12695.68
453.2279, 12720.45
453.7100, 12769.39
454.1921, 12834.38
454.6743, 12900.41
455.1564, 12970.21
455.6385, 13022.22
456.1206, 13026.53
456.6027, 13019.18
457.0848, 13064.83
457.5670, 13184.54
458.0491, 13295.80
458.5312, 13351.94
459.0133, 13384.66
459.4954, 13440.04
459.9775, 13524.76
460.4597, 13612.07
460.9418, 13680.60
461.4239, 13730.26
461.9060, 13759.64
462.3881, 13775.52
462.8702, 13764.81
463.3524, 13719.34
463.8345, 13647.49
464.3166, 13553.36
464.7987, 13438.86
465.2808, 13319.97
465.7629, 13229.48
466.2451, 13172.84
466.7272, 13063.65
467.2093, 12857.14
467.6914, 12645.20
468.1735, 12492.34
468.6556, 12380.73
469.1378, 12259.44
469.6199, 12089.22
470.1020, 11922.08
470.5841, 11810.71
471.0662, 11747.38
471.5483, 11702.68
472.0305, 11667.98
472.5126, 11639.48
472.9947, 11611.72
473.4768, 11589.25
473.9589, 11556.16
474.4410, 11509.24
474.9232, 11454.49
475.4053, 11389.82
475.8874, 11320.49
476.3695, 11259.15
476.8516, 11214.93
477.3337, 11182.79
477.8159, 11146.00
478.2980, 11103.72
478.7801, 11059.24
479.2622, 11001.48
479.7443, 10949.96
480.2264, 10921.91
480.7086, 10918.14
481.1907, 10918.19
481.6728, 10906.46
482.1549, 10891.42
482.6370, 10892.51
483.1191, 10911.27
483.6013, 10926.37
484.0834, 10927.08
484.5655, 10913.31
485.0476, 10883.75
485.5297, 10818.27
486.0118, 10766.69
486.4940, 10740.74
486.9761, 10731.64
487.4582, 10737.67
487.9403, 10754.42
488.4224, 10765.66
488.9045, 10753.28
489.3867, 10718.24
489.8688, 10690.98
490.3509, 10671.33
490.8330, 10660.31
491.3151, 10662.99
491.7972, 10671.28
492.2794, 10676.48
492.7615, 10676.65
493.2436, 10672.48
493.7257, 10663.04
494.2078, 10649.66
494.6899, 10633.51
495.1721, 10613.23
495.6542, 10602.68
496.1363, 10625.21
496.6184, 10676.22
497.1005, 10669.83
497.5826, 10538.17
498.0648, 10431.07
498.5469, 10416.34
499.0290, 10450.57
499.5111, 10478.46
499.9932, 10481.44
500.4753, 10463.50
500.9575, 10422.39
501.4396, 10351.30
501.9217, 10309.38
502.4038, 10318.88
502.8859, 10329.47
503.3680, 10313.15
503.8502, 10284.71
504.3323, 10271.77
504.8144, 10289.22
505.2965, 10309.97
505.7786, 10311.84
506.2607, 10296.75
506.7429, 10257.20
507.2250, 10268.02
507.7071, 10271.34
508.1892, 10267.55
508.6713, 10235.40
509.1534, 10239.88
509.6356, 10229.68
510.1177, 10218.88
510.5998, 10228.51
511.0819, 10200.49
511.5641, 10209.80
512.0461, 10204.21
512.5283, 10205.44
513.0104, 10191.89
513.4925, 10182.91
513.9746, 10188.71
514.4567, 10186.32
514.9388, 10171.08
515.4210, 10172.74
515.9031, 10144.20
516.3852, 10142.16
516.8673, 10151.56
517.3494, 10137.06
517.8315, 10139.00
518.3137, 10134.67
518.7958, 10101.90
519.2779, 10118.60
519.7600, 10113.90
520.2421, 10087.24
520.7242, 10102.24
521.2064, 10078.61
521.6885, 10068.77
522.1706, 10069.30
522.6527, 10059.02
523.1348, 10050.90
523.6169, 10026.51
524.0991, 9980.120
524.5812, 9933.886
525.0633, 9919.490
525.5454, 9936.364
526.0275, 9956.235
526.5096, 9979.000
526.9918, 9999.114
527.4739, 10005.77
527.9560, 10005.51
528.4381, 10018.73
528.9202, 10064.27
529.4023, 10107.01
529.8845, 10131.92
530.3666, 10140.43
530.8487, 10127.39
531.3308, 10092.94
531.8129, 10061.22
532.2950, 10063.89
532.7772, 10106.70
533.2593, 10128.44
533.7414, 10104.65
534.2235, 10087.74
534.7056, 10095.91
535.1877, 10117.13
535.6699, 10135.94
536.1520, 10147.90
536.6341, 10156.82
537.1162, 10166.51
537.5983, 10176.04
538.0804, 10183.15
538.5626, 10188.17
539.0447, 10186.63
539.5268, 10174.49
540.0089, 10152.52
540.4910, 10127.78
540.9731, 10096.57
541.4553, 10067.75
541.9374, 10039.50
542.4195, 10016.92
542.9016, 10011.71
543.3837, 10022.07
543.8658, 10026.19
544.3480, 10000.53
544.8301, 9949.187
545.3122, 9907.391
545.7943, 9878.184
546.2764, 9851.086
546.7585, 9819.263
547.2407, 9788.926
547.7228, 9763.968
548.2049, 9742.207
548.6870, 9740.619
549.1691, 9790.767
549.6512, 9851.931
550.1334, 9873.429
550.6155, 9853.724
551.0976, 9812.688
551.5797, 9758.798
552.0618, 9700.615
552.5439, 9669.209
553.0261, 9688.071
553.5082, 9693.500
553.9903, 9673.582
554.4724, 9647.520
554.9545, 9623.399
555.4366, 9603.928
555.9188, 9593.131
556.4009, 9597.193
556.8830, 9608.066
557.3651, 9615.370
557.8472, 9618.856
558.3293, 9611.896
558.8115, 9587.895
559.2936, 9561.842
559.7757, 9556.204
560.2578, 9578.187
560.7399, 9591.087
561.2220, 9591.199
561.7042, 9585.324
562.1863, 9573.175
562.6684, 9558.250
563.1505, 9542.569
563.6326, 9526.806
564.1147, 9521.324
564.5969, 9554.904
565.0790, 9629.786
565.5611, 9654.614
566.0432, 9596.981
566.5253, 9532.920
567.0074, 9517.754
567.4896, 9534.087
567.9717, 9544.659
568.4538, 9551.103
568.9359, 9542.021
569.4180, 9491.262
569.9001, 9430.829
570.3823, 9408.802
570.8644, 9431.586
571.3465, 9469.653
571.8286, 9499.561
572.3107, 9520.090
572.7928, 9514.542
573.2750, 9466.841
573.7571, 9421.302
574.2392, 9380.540
574.7213, 9351.004
575.2034, 9347.050
575.6855, 9368.204
576.1677, 9376.671
576.6498, 9334.157
577.1319, 9276.932
577.6140, 9255.625
578.0961, 9267.826
578.5782, 9288.297
579.0604, 9307.826
579.5425, 9319.605
580.0246, 9307.767
580.5067, 9251.988
580.9888, 9218.514
581.4709, 9216.974
581.9531, 9224.767
582.4352, 9241.489
582.9173, 9257.776
583.3994, 9253.959
583.8815, 9216.169
584.3636, 9175.551
584.8458, 9172.630
585.3279, 9200.872
585.8100, 9230.286
586.2921, 9256.892
586.7742, 9277.907
587.2563, 9292.569
587.7385, 9300.189
588.2206, 9292.906
588.7027, 9246.223
589.1848, 9217.452
589.6669, 9229.958
590.1490, 9259.367
590.6312, 9290.635
591.1133, 9316.072
591.5954, 9320.628
592.0775, 9284.863
592.5597, 9221.321
593.0418, 9166.720
593.5239, 9118.790
594.0060, 9097.814
594.4882, 9122.376
594.9703, 9166.113
595.4524, 9192.920
595.9345, 9203.828
596.4166, 9201.265
596.8987, 9174.245
597.3809, 9144.712
597.8630, 9119.357
598.3451, 9103.338
598.8272, 9107.460
599.3093, 9136.146
599.7914, 9175.368
600.2736, 9207.792
600.7557, 9233.771
601.2378, 9243.986
601.7199, 9232.652
602.2020, 9215.107
602.6841, 9188.512
603.1663, 9164.418
603.6484, 9166.678
604.1305, 9207.351
604.6126, 9253.098
605.0947, 9305.350
605.5768, 9346.926
606.0590, 9347.875
606.5411, 9314.552
607.0232, 9291.048
607.5053, 9310.948
607.9874, 9355.058
608.4695, 9359.599
608.9517, 9309.043
609.4338, 9269.678
609.9159, 9246.689
610.3980, 9244.181
610.8801, 9284.894
611.3622, 9353.173
611.8444, 9380.182
612.3265, 9294.561
612.8086, 9213.512
613.2907, 9230.597
613.7728, 9302.792
614.2549, 9352.352
614.7371, 9359.621
615.2192, 9346.180
615.7013, 9333.364
616.1834, 9320.830
616.6655, 9299.257
617.1476, 9254.808
617.6298, 9226.633
618.1119, 9247.687
618.5940, 9274.953
619.0761, 9262.648
619.5582, 9207.822
620.0403, 9165.796
620.5225, 9159.049
621.0046, 9177.991
621.4867, 9234.662
621.9688, 9310.499
622.4509, 9345.705
622.9330, 9315.282
623.4152, 9252.327
623.8973, 9205.508
624.3794, 9176.871
624.8615, 9153.378
625.3436, 9129.788
625.8257, 9118.791
626.3079, 9142.061
626.7900, 9172.361
627.2721, 9169.869
627.7542, 9122.954
628.2363, 9068.523
628.7184, 9013.866
629.2006, 8970.993
629.6827, 8961.294
630.1648, 8981.620
630.6469, 9010.573
631.1290, 9038.010
631.6111, 9058.588
632.0933, 9056.436
632.5754, 9018.521
633.0575, 8994.823
633.5396, 9004.646
634.0217, 9010.275
634.5038, 8988.901
634.9860, 8951.675
635.4681, 8922.036
635.9502, 8906.716
636.4323, 8898.385
636.9144, 8897.193
637.3965, 8897.982
637.8787, 8895.568
638.3608, 8887.858
638.8429, 8864.023
639.3250, 8811.322
639.8071, 8745.724
640.2892, 8728.056
640.7714, 8776.554
641.2535, 8828.323
641.7356, 8900.283
642.2177, 8951.104
642.6998, 8946.257
643.1819, 8898.976
643.6641, 8853.486
644.1462, 8820.223
644.6283, 8796.156
645.1104, 8782.175
645.5925, 8774.892
646.0746, 8767.733
646.5568, 8759.894
647.0389, 8756.924
647.5210, 8764.762
648.0031, 8780.477
648.4852, 8789.039
648.9673, 8792.706
649.4495, 8782.681
649.9316, 8735.040
650.4137, 8692.515
650.8958, 8697.568
651.3779, 8741.064
651.8600, 8766.361
652.3422, 8744.724
652.8243, 8712.385
653.3064, 8678.861
653.7885, 8654.510
654.2706, 8664.594
654.7527, 8710.765
655.2349, 8759.687
655.7170, 8780.347
656.1991, 8775.864
656.6812, 8764.021
657.1633, 8741.916
657.6454, 8720.797
658.1276, 8695.563
658.6097, 8680.280
659.0918, 8695.741
659.5739, 8739.293
660.0560, 8767.908
660.5381, 8768.092
661.0203, 8755.731
661.5024, 8725.907
661.9845, 8694.403
662.4666, 8689.462
662.9487, 8714.857
663.4308, 8744.661
663.9130, 8754.338
664.3951, 8746.814
