##NAMES=Afghanite
##RRUFFID=R060422
##IDEAL CHEMISTRY=Na_22_Ca_10_(Si_24_Al_24_)O_96_(S^6+^O_4_)_6_Cl_6_
##LOCALITY=Kokscha Valley, Badakshan Province, Afghanistan
##OWNER=RRUFF
##SOURCE=Herb Obodda
##DESCRIPTION=Blue hexagonal prism with pyramidal termination
##STATUS=The identification of this mineral has been confirmed by X-ray diffraction and chemical analysis
##URL=rruff.info/R060422
##MEASURED CHEMISTRY=(Na_19.94_K_2.06_)_Î£=22_Ca_10.00_[Si_24.00_Al_24.00_O_96_](S_1.00_O_4_)_6_Cl_6.00_
175.4057, 394.7236
175.8878, 395.3260
176.3699, 395.5695
176.8520, 395.9962
177.3341, 396.5294
177.8163, 397.0113
178.2984, 397.4024
178.7805, 397.6805
179.2626, 397.9437
179.7447, 398.2274
180.2268, 398.0664
180.7090, 396.5451
181.1911, 394.0928
181.6732, 392.0529
182.1553, 391.2247
182.6374, 391.2054
183.1195, 391.1919
183.6017, 391.1524
184.0838, 391.1802
184.5659, 391.3990
185.0480, 391.7845
185.5301, 392.2343
186.0123, 392.5714
186.4944, 392.9146
186.9765, 393.8230
187.4586, 395.4873
187.9407, 397.0895
188.4228, 397.2016
188.9050, 395.9682
189.3871, 394.9339
189.8692, 395.1731
190.3513, 396.3795
190.8334, 396.9381
191.3155, 396.6429
191.7977, 396.0292
192.2798, 396.1505
192.7619, 397.0092
193.2440, 397.4329
193.7261, 396.4904
194.2082, 394.3433
194.6904, 392.8065
195.1725, 392.0331
195.6546, 391.7794
196.1367, 391.7421
196.6188, 391.9445
197.1009, 392.0632
197.5831, 391.9829
198.0652, 391.7023
198.5473, 391.0130
199.0294, 389.7596
199.5115, 388.2866
199.9937, 387.3640
200.4758, 387.0795
200.9579, 386.8172
201.4400, 386.2321
201.9221, 385.2992
202.4042, 384.3408
202.8864, 383.3420
203.3685, 382.3529
203.8506, 381.4738
204.3327, 380.6989
204.8148, 380.0757
205.2969, 379.8177
205.7791, 380.0725
206.2612, 379.6047
206.7433, 378.2650
207.2254, 376.2293
207.7075, 373.7509
208.1896, 370.5472
208.6718, 367.7052
209.1539, 365.8905
209.6360, 365.3265
210.1181, 364.7505
210.6002, 364.1143
211.0823, 363.4241
211.5645, 362.7224
212.0466, 362.0787
212.5287, 361.2727
213.0108, 360.1936
213.4929, 358.8248
213.9750, 357.1936
214.4572, 355.0573
214.9393, 352.7630
215.4214, 351.3783
215.9035, 351.2681
216.3856, 351.3102
216.8678, 350.9183
217.3499, 349.9971
217.8320, 348.8720
218.3141, 347.3504
218.7962, 345.6866
219.2783, 344.7760
219.7605, 344.9181
220.2426, 345.2596
220.7247, 345.4880
221.2068, 345.8980
221.6889, 345.2431
222.1710, 342.9215
222.6532, 339.6324
223.1353, 337.7007
223.6174, 337.6455
224.0995, 338.0562
224.5816, 338.2556
225.0637, 338.1790
225.5459, 338.0683
226.0280, 337.9112
226.5101, 337.7327
226.9922, 337.6406
227.4743, 337.7773
227.9564, 337.7773
228.4386, 337.4184
228.9207, 336.4906
229.4028, 335.7045
229.8849, 334.9938
230.3670, 334.4415
230.8492, 334.3153
231.3313, 334.8718
231.8134, 335.4648
232.2955, 335.7897
232.7776, 335.6738
233.2597, 335.7219
233.7419, 336.1479
234.2240, 336.6922
234.7061, 336.5586
235.1882, 335.1353
235.6703, 333.9797
236.1524, 333.7790
236.6346, 334.8947
237.1167, 336.1961
237.5988, 337.8715
238.0809, 339.6695
238.5630, 341.0070
239.0451, 341.6785
239.5273, 342.1753
240.0094, 342.7297
240.4915, 343.5343
240.9736, 343.8150
241.4557, 343.1817
241.9378, 342.1877
242.4200, 342.0010
242.9021, 342.8910
243.3842, 344.1624
243.8663, 345.6297
244.3484, 347.4506
244.8306, 349.0111
245.3127, 350.3551
245.7948, 351.4055
246.2769, 351.8893
246.7590, 351.2163
247.2411, 350.9761
247.7233, 351.8036
248.2054, 354.0154
248.6875, 356.1784
249.1696, 358.4642
249.6517, 360.5744
250.1338, 361.9533
250.6160, 362.2794
251.0981, 362.4577
251.5802, 362.7383
252.0623, 363.1281
252.5444, 363.5699
253.0265, 363.9305
253.5087, 364.4530
253.9908, 365.5203
254.4729, 367.3904
254.9550, 369.3117
255.4371, 371.1951
255.9192, 373.0976
256.4014, 374.3245
256.8835, 374.5771
257.3656, 374.4495
257.8477, 374.6440
258.3298, 375.1920
258.8120, 376.0304
259.2941, 377.4262
259.7762, 379.4865
260.2583, 380.1379
260.7404, 378.7692
261.2225, 376.7464
261.7047, 375.5128
262.1868, 375.3323
262.6689, 375.2216
263.1510, 374.9254
263.6331, 374.4550
264.1152, 374.3747
264.5974, 375.0111
265.0795, 375.5294
265.5616, 375.0484
266.0437, 373.2784
266.5258, 371.4228
267.0079, 369.5348
267.4901, 367.6861
267.9722, 366.7744
268.4543, 367.1747
268.9364, 367.7638
269.4185, 367.5901
269.9006, 366.4870
270.3828, 365.3463
270.8649, 364.2016
271.3470, 363.1220
271.8291, 362.4834
272.3112, 362.4107
272.7933, 362.4091
273.2755, 362.1046
273.7576, 361.4473
274.2397, 360.7772
274.7218, 360.1244
275.2039, 359.4831
275.6860, 358.8878
276.1682, 358.3789
276.6503, 357.7438
277.1324, 356.7259
277.6145, 355.2848
278.0966, 354.2067
278.5787, 353.5934
279.0609, 353.3495
279.5430, 353.3141
280.0251, 353.5256
280.5072, 353.7776
280.9893, 354.1770
281.4715, 354.7212
281.9536, 354.1353
282.4357, 351.8450
282.9178, 349.4150
283.3999, 350.4066
283.8820, 355.0772
284.3642, 358.4174
284.8463, 357.0319
285.3284, 351.4453
285.8105, 348.1496
286.2926, 347.4878
286.7747, 348.0306
287.2569, 347.9118
287.7390, 347.1544
288.2211, 346.4953
288.7032, 346.3901
289.1853, 346.6503
289.6674, 346.4313
290.1496, 345.7107
290.6317, 344.6898
291.1138, 343.3470
291.5959, 341.7784
292.0780, 340.6906
292.5602, 340.5311
293.0423, 340.9252
293.5244, 340.9117
294.0065, 340.4812
294.4886, 339.9196
294.9707, 339.5156
295.4529, 339.2003
295.9350, 338.6776
296.4171, 337.6156
296.8992, 336.5397
297.3813, 336.4857
297.8634, 337.3915
298.3456, 338.5877
298.8277, 340.0241
299.3098, 341.3499
299.7919, 341.6276
300.2740, 340.2935
300.7561, 338.4936
301.2383, 337.4185
301.7204, 337.0809
302.2025, 337.6332
302.6846, 340.3930
303.1667, 343.7525
303.6488, 344.9864
304.1310, 343.1053
304.6131, 340.8336
305.0952, 341.4262
305.5773, 343.8920
306.0594, 345.5461
306.5415, 344.0580
307.0237, 341.5008
307.5058, 340.1266
307.9879, 340.2744
308.4700, 340.7666
308.9521, 340.6993
309.4343, 340.3594
309.9164, 340.2500
310.3985, 340.8602
310.8806, 341.5960
311.3627, 342.0221
311.8448, 342.1206
312.3270, 342.0521
312.8091, 341.7104
313.2912, 341.3212
313.7733, 341.1517
314.2554, 341.6425
314.7375, 342.0790
315.2197, 341.5811
315.7018, 340.3676
316.1839, 340.3095
316.6660, 343.3066
317.1481, 347.2778
317.6302, 350.5005
318.1124, 352.4117
318.5945, 353.7358
319.0766, 354.8810
319.5587, 355.6776
320.0408, 355.5714
320.5229, 353.4050
321.0051, 350.9767
321.4872, 349.2109
321.9693, 348.1267
322.4514, 347.9807
322.9335, 349.2882
323.4156, 351.5352
323.8978, 353.7307
324.3799, 355.7353
324.8620, 357.6358
325.3441, 359.5438
325.8262, 361.6178
326.3083, 363.1622
326.7905, 363.7874
327.2726, 363.9669
327.7547, 364.2766
328.2368, 364.6036
328.7189, 365.2052
329.2010, 366.2654
329.6832, 367.8427
330.1653, 369.1452
330.6474, 370.4362
331.1295, 371.2625
331.6116, 371.1300
332.0938, 368.5347
332.5759, 367.4502
333.0580, 369.2111
333.5401, 373.2511
334.0222, 375.0985
334.5043, 373.6445
334.9865, 371.5511
335.4686, 370.3788
335.9507, 370.4281
336.4328, 370.6035
336.9149, 370.9234
337.3970, 371.2982
337.8792, 371.4737
338.3613, 371.4127
338.8434, 371.2711
339.3255, 371.1166
339.8076, 370.9554
340.2898, 370.7130
340.7719, 370.3118
341.2540, 369.9702
341.7361, 370.1782
342.2182, 371.0326
342.7003, 371.4913
343.1825, 370.9936
343.6646, 369.7281
344.1467, 369.0418
344.6288, 369.0044
345.1109, 369.1564
345.5930, 368.8999
346.0752, 368.3097
346.5573, 368.1900
347.0394, 368.9760
347.5215, 370.1324
348.0036, 370.3921
348.4857, 369.7676
348.9679, 369.0009
349.4500, 368.5787
349.9321, 368.4377
350.4142, 368.4406
350.8963, 368.6329
351.3784, 368.7906
351.8606, 368.3520
352.3427, 367.5437
352.8248, 367.1989
353.3069, 368.4642
353.7890, 370.2166
354.2711, 370.6424
354.7533, 369.4372
355.2354, 368.4349
355.7175, 369.7338
356.1996, 372.2614
356.6817, 374.1460
357.1638, 374.2219
357.6460, 373.6304
358.1281, 373.1757
358.6102, 372.8554
359.0923, 372.4393
359.5744, 371.4497
360.0565, 370.4591
360.5387, 370.0454
361.0208, 370.7561
361.5029, 371.5893
361.9850, 372.1701
362.4671, 372.5343
362.9492, 372.7782
363.4314, 372.8823
363.9135, 372.9157
364.3956, 372.8792
364.8777, 372.6582
365.3598, 372.6520
365.8419, 373.2323
366.3241, 374.0168
366.8062, 374.4264
367.2883, 374.0352
367.7704, 373.5939
368.2526, 373.2792
368.7347, 373.1023
369.2168, 373.0119
369.6989, 373.1274
370.1810, 373.2507
370.6631, 373.1883
371.1453, 372.4410
371.6274, 372.2747
372.1095, 373.1323
372.5916, 374.7995
373.0737, 375.7832
373.5558, 375.7328
374.0380, 375.5304
374.5201, 375.7086
375.0022, 376.4703
375.4843, 376.8867
375.9664, 376.7557
376.4485, 376.4155
376.9307, 376.5620
377.4128, 377.2754
377.8949, 378.1337
378.3770, 379.0511
378.8591, 380.0080
379.3412, 380.5721
379.8234, 380.6121
380.3055, 380.7034
380.7876, 381.7296
381.2697, 383.6251
381.7518, 385.0430
382.2339, 385.5967
382.7161, 385.4820
383.1982, 384.8181
383.6803, 383.6442
384.1624, 382.9149
384.6445, 383.8095
385.1266, 385.6871
385.6088, 386.8543
386.0909, 386.8867
386.5730, 386.6994
387.0551, 387.3033
387.5372, 388.5421
388.0193, 389.9866
388.5015, 391.9565
388.9836, 393.7134
389.4657, 394.2528
389.9478, 393.4883
390.4299, 392.6093
390.9120, 392.1133
391.3942, 392.0676
391.8763, 392.5790
392.3584, 394.7370
392.8405, 396.4510
393.3226, 396.3056
393.8047, 394.6673
394.2869, 393.2102
394.7690, 391.8156
395.2511, 391.3307
395.7332, 392.5321
396.2154, 396.7660
396.6975, 400.1077
397.1796, 401.3404
397.6617, 401.2527
398.1438, 401.2009
398.6259, 401.2647
399.1081, 401.4814
399.5902, 401.8106
400.0723, 402.2087
400.5544, 403.0173
401.0365, 404.7597
401.5186, 406.5177
402.0008, 407.4618
402.4829, 406.9567
402.9650, 406.8382
403.4471, 407.3485
403.9292, 408.3954
404.4113, 409.6657
404.8935, 411.3678
405.3756, 412.8344
405.8577, 413.6301
406.3398, 413.6399
406.8219, 413.7541
407.3040, 413.8968
407.7862, 414.3237
408.2683, 415.6525
408.7504, 417.9262
409.2325, 419.8211
409.7146, 420.5448
410.1967, 420.6304
410.6789, 422.0455
411.1610, 424.8315
411.6431, 427.9887
412.1252, 431.1522
412.6073, 434.0257
413.0894, 435.4425
413.5716, 434.6036
414.0537, 433.4426
414.5358, 434.4290
415.0179, 437.1017
415.5000, 440.0005
415.9821, 442.6592
416.4643, 444.9184
416.9464, 446.3131
417.4285, 446.7220
417.9106, 447.4735
418.3927, 449.6191
418.8748, 452.5244
419.3570, 455.3990
419.8391, 458.1611
420.3212, 460.6888
420.8033, 462.7674
421.2854, 464.5197
421.7675, 466.5523
422.2497, 469.2629
422.7318, 472.1572
423.2139, 474.9774
423.6960, 477.7238
424.1781, 480.3419
424.6602, 482.8867
425.1424, 485.2820
425.6245, 487.3640
426.1066, 488.5539
426.5887, 490.1606
427.0709, 492.8286
427.5530, 496.5538
428.0351, 498.7032
428.5172, 498.2917
428.9993, 497.6732
429.4814, 498.7292
429.9636, 502.0752
430.4457, 504.6014
430.9278, 505.7138
431.4099, 506.2042
431.8920, 507.8328
432.3741, 510.7152
432.8563, 513.9482
433.3384, 517.0804
433.8205, 520.2033
434.3026, 523.8937
434.7847, 528.2105
435.2668, 532.7465
435.7490, 537.2292
436.2311, 541.6355
436.7132, 545.6870
437.1953, 549.1699
437.6774, 552.4797
438.1595, 556.2265
438.6417, 560.3323
439.1238, 564.4733
439.6059, 568.3970
440.0880, 572.2900
440.5701, 576.3856
441.0522, 580.7586
441.5344, 585.1246
442.0165, 589.3035
442.4986, 593.3799
442.9807, 597.4350
443.4628, 601.2662
443.9449, 605.3044
444.4271, 609.9641
444.9092, 615.0844
445.3913, 619.7968
445.8734, 623.1152
446.3555, 626.4493
446.8376, 630.4611
447.3198, 635.2840
447.8019, 640.6756
448.2840, 647.6703
448.7661, 654.7401
449.2482, 659.6267
449.7303, 660.9803
450.2125, 662.3944
450.6946, 664.8522
451.1767, 668.2288
451.6588, 670.5820
452.1409, 671.9986
452.6230, 672.2538
453.1052, 670.8279
453.5873, 667.5508
454.0694, 664.8967
454.5515, 663.4078
455.0337, 661.8962
455.5158, 657.8431
455.9979, 651.4237
456.4800, 645.8157
456.9621, 643.0319
457.4442, 641.7560
457.9264, 638.8345
458.4085, 634.3264
458.8906, 629.2682
459.3727, 624.3467
459.8548, 619.5055
460.3369, 614.7698
460.8191, 610.1265
461.3012, 605.5136
461.7833, 600.9147
462.2654, 596.3015
462.7475, 591.6305
463.2296, 586.6719
463.7118, 581.7607
464.1939, 577.2384
464.6760, 573.0892
465.1581, 568.5242
465.6402, 562.7652
466.1223, 556.8410
466.6045, 551.5482
467.0866, 547.6050
467.5687, 543.5374
468.0508, 538.9026
468.5329, 534.0932
469.0150, 529.9968
469.4972, 527.4017
469.9793, 524.3683
470.4614, 519.9387
470.9435, 513.9594
471.4256, 509.9455
471.9077, 508.5345
472.3899, 507.8331
472.8720, 506.0870
473.3541, 503.1558
473.8362, 500.7137
474.3183, 499.1413
474.8004, 497.9028
475.2826, 495.8183
475.7647, 492.9507
476.2468, 490.2159
476.7289, 488.0508
477.2110, 486.3402
477.6931, 484.8693
478.1753, 483.6248
478.6574, 482.6540
479.1395, 482.4518
479.6216, 482.4199
480.1037, 481.5833
480.5858, 479.2679
481.0680, 476.8875
481.5501, 475.4590
482.0322, 474.6770
482.5143, 473.9176
482.9964, 472.8291
483.4786, 471.8109
483.9607, 471.1291
484.4428, 470.8399
484.9249, 470.3971
485.4070, 469.4810
485.8892, 468.5205
486.3713, 467.8215
486.8534, 467.5139
487.3355, 467.2633
487.8176, 466.7813
488.2997, 466.4434
488.7819, 467.2223
489.2640, 469.8235
489.7461, 471.9210
490.2282, 472.5766
490.7103, 471.8980
491.1924, 471.7354
491.6746, 472.1555
492.1567, 472.7886
492.6388, 473.4672
493.1209, 474.1474
493.6030, 474.3710
494.0851, 474.0291
494.5673, 473.3524
495.0494, 472.2634
495.5315, 471.0168
496.0136, 470.5718
496.4957, 472.0687
496.9778, 474.1835
497.4600, 475.4969
497.9421, 476.0507
498.4242, 476.4092
498.9063, 476.5861
499.3884, 476.9080
499.8705, 477.7616
500.3527, 479.5356
500.8348, 481.0445
501.3169, 481.5370
501.7990, 481.5802
502.2811, 481.9781
502.7632, 483.2275
503.2454, 484.4625
503.7275, 485.5780
504.2096, 486.5612
504.6917, 487.2643
505.1738, 487.4189
505.6559, 487.6569
506.1381, 488.2608
506.6202, 489.2019
507.1023, 490.6539
507.5844, 492.6253
508.0665, 495.0947
508.5486, 498.3430
509.0308, 502.4171
509.5129, 505.5707
509.9950, 506.9219
510.4771, 507.5192
510.9592, 509.7586
511.4413, 513.5005
511.9235, 517.5363
512.4056, 521.0378
512.8877, 524.3544
513.3698, 528.1150
513.8519, 532.3817
514.3340, 536.7534
514.8162, 540.9898
515.2983, 545.1435
515.7804, 549.2614
516.2625, 553.0676
516.7446, 557.2415
517.2267, 562.1622
517.7089, 567.6462
518.1910, 573.1879
518.6731, 577.9558
519.1552, 583.4874
519.6373, 590.5451
520.1194, 599.3303
520.6016, 607.7312
521.0837, 615.1348
521.5658, 622.7175
522.0479, 631.3262
522.5300, 640.9978
523.0121, 651.1715
523.4943, 661.6401
523.9764, 672.8076
524.4585, 685.6277
524.9406, 699.9050
525.4227, 714.8777
525.9048, 730.3659
526.3870, 746.2432
526.8691, 762.5143
527.3513, 779.2653
527.8334, 796.5632
528.3155, 814.4870
528.7976, 833.2045
529.2797, 852.8793
529.7618, 873.5610
530.2440, 895.7175
530.7261, 919.6610
531.2082, 945.1682
531.6903, 971.4968
532.1724, 999.3030
532.6545, 1027.243
533.1367, 1055.654
533.6188, 1084.130
534.1009, 1112.307
534.5830, 1138.977
535.0651, 1166.215
535.5472, 1194.882
536.0294, 1225.765
536.5115, 1254.303
536.9936, 1280.585
537.4757, 1304.422
537.9578, 1325.611
538.4399, 1344.343
538.9221, 1360.518
539.4042, 1374.613
539.8863, 1385.623
540.3684, 1391.660
540.8505, 1392.864
541.3326, 1390.968
541.8148, 1387.801
542.2969, 1381.341
542.7790, 1367.153
543.2611, 1345.720
543.7432, 1320.626
544.2253, 1294.186
544.7075, 1265.383
545.1896, 1232.771
545.6717, 1195.756
546.1538, 1157.246
546.6359, 1117.702
547.1180, 1077.720
547.6002, 1038.447
548.0823, 998.9003
548.5644, 961.4445
549.0465, 926.2698
549.5286, 893.2834
550.0107, 862.2703
550.4929, 832.9431
550.9750, 805.9918
551.4571, 781.5414
551.9392, 759.5054
552.4213, 740.6589
552.9034, 725.2613
553.3856, 711.8673
553.8677, 699.6132
554.3498, 688.4562
554.8319, 677.7874
555.3140, 667.4413
555.7961, 657.9302
556.2783, 650.3942
556.7604, 644.3478
557.2425, 638.4863
557.7246, 631.9036
558.2067, 625.7314
558.6888, 621.1945
559.1710, 618.0555
559.6531, 615.5741
560.1352, 613.8820
560.6173, 612.3850
561.0994, 610.7597
561.5815, 608.9489
562.0637, 607.1990
562.5458, 605.4335
563.0279, 603.8312
563.5100, 602.4952
563.9921, 601.4922
564.4742, 600.6086
564.9564, 599.7728
565.4385, 599.0918
565.9206, 598.6890
566.4027, 598.4981
566.8848, 598.9517
567.3669, 600.4081
567.8491, 602.4673
568.3312, 603.7408
568.8133, 604.2505
569.2954, 604.7176
569.7775, 605.6539
570.2596, 606.8468
570.7418, 607.7911
571.2239, 608.4534
571.7060, 609.3615
572.1881, 611.1344
572.6702, 613.2737
573.1523, 615.1884
573.6345, 616.2973
574.1166, 617.9278
574.5987, 621.4750
575.0808, 625.6630
575.5629, 628.4250
576.0450, 628.5943
576.5272, 628.1230
577.0093, 627.0852
577.4914, 625.6193
577.9735, 624.6788
578.4556, 624.5981
578.9377, 624.3768
579.4199, 623.3293
579.9020, 621.4475
580.3841, 620.5501
580.8662, 620.8680
581.3483, 620.9974
581.8304, 619.2748
582.3126, 616.1638
582.7947, 613.2421
583.2768, 610.7988
583.7589, 608.6215
584.2410, 606.2930
584.7231, 604.0726
585.2053, 602.4760
585.6874, 602.9916
586.1696, 602.9897
586.6517, 600.3371
587.1338, 595.7081
587.6159, 592.1688
588.0980, 591.8986
588.5801, 591.6290
589.0623, 589.7112
589.5444, 585.7495
590.0265, 582.7682
590.5086, 581.2424
590.9907, 580.0995
591.4728, 578.5418
591.9550, 576.5493
592.4371, 574.3417
592.9192, 571.8278
593.4013, 569.4506
593.8834, 568.0905
594.3655, 567.5817
594.8477, 566.7913
595.3298, 565.1639
595.8119, 563.3516
596.2940, 562.1962
596.7761, 561.6073
597.2582, 561.2421
597.7404, 561.0258
598.2225, 560.8759
598.7046, 560.7587
599.1867, 560.6622
599.6688, 560.4938
600.1509, 560.3594
600.6331, 560.0273
601.1152, 559.2311
601.5973, 557.3087
602.0794, 556.5110
602.5615, 557.3911
603.0436, 558.8734
603.5258, 559.6714
604.0079, 559.5925
604.4900, 559.8740
604.9721, 560.7171
605.4542, 562.0226
605.9363, 563.6583
606.4185, 565.6022
606.9006, 567.7655
607.3827, 570.5046
607.8648, 573.1600
608.3469, 574.5333
608.8290, 574.8056
609.3112, 574.9115
609.7933, 574.8962
610.2754, 575.2850
610.7575, 576.6544
611.2396, 579.1701
611.7217, 581.5821
612.2039, 583.8090
612.6860, 585.5901
613.1681, 586.7395
613.6502, 587.2191
614.1323, 587.0225
614.6144, 585.5460
615.0966, 583.9139
615.5787, 583.9642
616.0608, 586.0209
616.5429, 587.7227
617.0250, 588.5057
617.5071, 588.6443
617.9893, 588.5978
618.4714, 588.3989
618.9535, 588.2625
619.4356, 588.7406
619.9177, 589.1130
620.3998, 587.9254
620.8820, 585.4190
621.3641, 583.7847
621.8462, 584.8702
622.3283, 586.8503
622.8104, 588.6806
623.2925, 590.5606
623.7747, 590.9452
624.2568, 587.5908
624.7389, 583.8527
625.2210, 582.5743
625.7031, 585.4391
626.1852, 587.0104
626.6674, 586.7018
627.1495, 585.3073
627.6316, 583.6705
628.1137, 581.7252
628.5958, 581.3651
629.0779, 583.8743
629.5601, 587.4420
630.0422, 588.2923
630.5243, 586.8852
631.0064, 585.4095
631.4885, 584.9946
631.9706, 585.1418
632.4528, 585.7592
632.9349, 586.7273
633.4170, 586.9568
633.8991, 584.5159
634.3812, 582.2955
634.8633, 582.3273
635.3455, 585.9335
635.8276, 588.1625
636.3097, 587.9940
636.7918, 587.2330
637.2739, 587.5681
637.7560, 589.5446
638.2382, 590.1426
638.7203, 588.5945
639.2024, 586.5734
639.6845, 587.0635
640.1666, 589.7001
640.6487, 591.4241
641.1309, 590.7783
641.6130, 589.5385
642.0951, 590.5074
642.5772, 592.9532
643.0594, 594.7870
643.5415, 594.7068
644.0236, 593.9686
644.5057, 593.0338
644.9879, 591.9969
645.4700, 591.4306
645.9521, 592.6877
646.4342, 593.3240
646.9163, 592.1214
647.3984, 588.7278
647.8806, 585.9197
648.3627, 583.8388
648.8448, 582.0701
649.3269, 580.1653
649.8090, 578.1360
650.2911, 576.7484
650.7733, 576.1035
651.2554, 575.8351
651.7375, 575.6049
652.2196, 575.3965
652.7017, 575.1357
653.1838, 574.6893
653.6660, 574.3887
654.1481, 574.4523
654.6302, 574.8320
655.1123, 575.4539
655.5944, 577.0263
656.0765, 578.0323
656.5587, 577.4303
657.0408, 575.6969
657.5229, 575.1664
658.0050, 576.6166
658.4871, 577.9518
658.9692, 578.4939
659.4514, 578.2747
659.9335, 577.3849
660.4156, 575.6791
660.8977, 574.5074
661.3798, 575.3535
661.8619, 577.4469
662.3441, 578.7228
662.8262, 579.0546
663.3083, 579.0573
663.7904, 579.4097
664.2725, 579.6166
664.7546, 578.9874
665.2368, 576.9348
665.7189, 575.3056
666.2010, 575.0535
666.6831, 575.3958
667.1652, 575.4316
667.6473, 574.7911
668.1295, 574.4335
668.6116, 574.6264
669.0937, 574.9949
669.5758, 574.6705
