##NAMES=Afwillite
##RRUFFID=R070296
##IDEAL CHEMISTRY=Ca_3_(SiO_4_)(SiO_2_(OH)_2_)&#183;2H_2_O
##LOCALITY=Hatrurim Formation, Negev Desert, West of Dead Sea, southern Israel
##OWNER=Michael Scott
##SOURCE=Michael Scott
##DESCRIPTION=Colorless bladed crystals, associated with yellow ettringite, R070208.
##STATUS=The identification of this mineral is confirmed by single-crystal X-ray diffraction and chemical analysis.
##URL=rruff.info/R070296
##MEASURED CHEMISTRY=Ca_3.00_(Si_1.00_O_3_)_2_(OH)_2_Â·2H_2_O; trace amounts of Al. OH by charge balance; H_2_O by difference
158.6245, 1231.464
159.1066, 1218.068
159.5887, 1206.593
160.0709, 1192.857
160.5530, 1181.681
161.0351, 1182.347
161.5172, 1197.893
161.9993, 1214.626
162.4814, 1221.525
162.9636, 1222.612
163.4457, 1224.966
163.9278, 1230.546
164.4099, 1238.978
164.8920, 1250.093
165.3741, 1264.704
165.8563, 1279.666
166.3384, 1295.255
166.8205, 1309.751
167.3026, 1319.508
167.7847, 1320.177
168.2668, 1316.116
168.7490, 1317.211
169.2311, 1325.434
169.7132, 1334.481
170.1953, 1339.619
170.6774, 1343.457
171.1595, 1350.765
171.6417, 1367.383
172.1238, 1387.355
172.6059, 1394.048
173.0880, 1380.306
173.5701, 1367.416
174.0522, 1362.698
174.5344, 1364.996
175.0165, 1374.331
175.4986, 1394.862
175.9807, 1419.938
176.4628, 1431.129
176.9449, 1424.559
177.4271, 1409.951
177.9092, 1383.079
178.3913, 1353.630
178.8734, 1336.110
179.3555, 1340.561
179.8376, 1358.552
180.3197, 1364.483
180.8019, 1351.290
181.2840, 1338.008
181.7661, 1330.606
182.2482, 1326.659
182.7303, 1323.054
183.2124, 1317.938
183.6946, 1312.737
184.1767, 1311.718
184.6588, 1316.534
185.1409, 1323.015
185.6230, 1328.561
186.1051, 1335.251
186.5873, 1345.329
187.0694, 1359.786
187.5515, 1378.384
188.0336, 1402.507
188.5157, 1440.844
188.9978, 1468.581
189.4800, 1473.560
189.9621, 1469.787
190.4442, 1473.631
190.9263, 1493.091
191.4084, 1518.629
191.8905, 1525.638
192.3727, 1500.365
192.8548, 1480.503
193.3369, 1475.135
193.8190, 1475.984
194.3011, 1474.384
194.7832, 1466.825
195.2654, 1457.750
195.7475, 1457.484
196.2296, 1472.413
196.7117, 1484.413
197.1938, 1490.040
197.6759, 1492.872
198.1581, 1497.545
198.6402, 1505.422
199.1223, 1511.370
199.6044, 1503.299
200.0865, 1466.028
200.5686, 1445.820
201.0508, 1451.299
201.5329, 1468.943
202.0150, 1492.224
202.4971, 1518.293
202.9792, 1542.175
203.4613, 1555.126
203.9435, 1551.733
204.4256, 1549.104
204.9077, 1553.346
205.3898, 1555.013
205.8719, 1543.960
206.3540, 1519.855
206.8362, 1494.530
207.3183, 1485.918
207.8004, 1504.194
208.2825, 1513.439
208.7646, 1505.379
209.2467, 1495.614
209.7289, 1493.848
210.2110, 1500.714
210.6931, 1509.734
211.1752, 1512.782
211.6573, 1507.038
212.1395, 1505.712
212.6216, 1507.671
213.1037, 1514.545
213.5858, 1532.947
214.0679, 1559.162
214.5500, 1580.099
215.0322, 1580.200
215.5143, 1554.416
215.9964, 1541.563
216.4785, 1548.588
216.9606, 1561.803
217.4427, 1579.431
217.9249, 1599.426
218.4070, 1618.611
218.8891, 1634.131
219.3712, 1645.864
219.8533, 1658.397
220.3354, 1671.564
220.8176, 1685.794
221.2997, 1699.625
221.7818, 1714.656
222.2639, 1734.984
222.7460, 1764.844
223.2281, 1802.612
223.7103, 1828.032
224.1924, 1825.353
224.6745, 1826.923
225.1566, 1841.546
225.6387, 1864.227
226.1208, 1887.730
226.6030, 1908.192
227.0851, 1925.484
227.5672, 1938.533
228.0493, 1940.113
228.5314, 1947.515
229.0135, 1971.250
229.4957, 1999.185
229.9778, 2016.050
230.4599, 2014.652
230.9420, 2002.946
231.4241, 2001.096
231.9062, 2017.150
232.3884, 2029.503
232.8705, 2035.066
233.3526, 2036.517
233.8347, 2036.067
234.3168, 2034.454
234.7989, 2031.304
235.2811, 2025.055
235.7632, 2012.089
236.2453, 2004.844
236.7274, 2007.823
237.2095, 2013.619
237.6916, 2017.513
238.1738, 2018.557
238.6559, 2018.711
239.1380, 2023.012
239.6201, 2036.581
240.1022, 2034.739
240.5843, 2002.342
241.0665, 1966.079
241.5486, 1939.897
242.0307, 1923.134
242.5128, 1905.111
242.9949, 1872.355
243.4770, 1822.507
243.9592, 1785.893
244.4413, 1771.330
244.9234, 1762.602
245.4055, 1753.714
245.8876, 1745.670
246.3697, 1742.470
246.8519, 1748.189
247.3340, 1761.745
247.8161, 1772.561
248.2982, 1775.496
248.7803, 1782.926
249.2624, 1804.592
249.7446, 1832.314
250.2267, 1851.631
250.7088, 1852.094
251.1909, 1842.277
251.6730, 1848.647
252.1551, 1881.108
252.6373, 1909.826
253.1194, 1929.950
253.6015, 1940.079
254.0836, 1935.418
254.5657, 1911.885
255.0478, 1882.072
255.5300, 1866.979
256.0121, 1870.601
256.4942, 1873.995
256.9763, 1869.607
257.4584, 1864.231
257.9406, 1864.911
258.4227, 1873.428
258.9048, 1879.591
259.3869, 1869.539
259.8690, 1842.288
260.3511, 1821.652
260.8333, 1818.859
261.3154, 1817.962
261.7975, 1807.344
262.2796, 1786.880
262.7617, 1763.526
263.2438, 1741.195
263.7260, 1719.795
264.2081, 1698.934
264.6902, 1678.016
265.1723, 1658.637
265.6544, 1641.152
266.1365, 1625.687
266.6187, 1613.262
267.1008, 1603.842
267.5829, 1597.862
268.0650, 1597.198
268.5471, 1603.237
269.0292, 1610.181
269.5114, 1613.961
269.9935, 1615.908
270.4756, 1618.008
270.9577, 1618.402
271.4398, 1621.094
271.9219, 1631.498
272.4041, 1649.816
272.8862, 1669.808
273.3683, 1687.002
273.8504, 1704.937
274.3325, 1730.234
274.8146, 1767.152
275.2968, 1804.362
275.7789, 1834.507
276.2610, 1858.581
276.7431, 1879.669
277.2252, 1896.002
277.7073, 1913.890
278.1895, 1945.093
278.6716, 1991.529
279.1537, 2038.234
279.6358, 2082.306
280.1179, 2122.547
280.6000, 2154.502
281.0822, 2176.149
281.5643, 2196.719
282.0464, 2230.636
282.5285, 2279.819
283.0106, 2315.447
283.4927, 2325.951
283.9749, 2326.760
284.4570, 2330.319
284.9391, 2337.989
285.4212, 2348.408
285.9033, 2362.964
286.3854, 2380.752
286.8676, 2382.705
287.3497, 2361.026
287.8318, 2332.730
288.3139, 2302.423
288.7960, 2271.777
289.2781, 2244.423
289.7603, 2222.701
290.2424, 2205.186
290.7245, 2186.348
291.2066, 2162.778
291.6887, 2142.129
292.1708, 2130.859
292.6530, 2121.251
293.1351, 2102.515
293.6172, 2071.000
294.0993, 2033.142
294.5814, 2000.698
295.0635, 1978.828
295.5457, 1952.460
296.0278, 1912.241
296.5099, 1874.698
296.9920, 1855.636
297.4741, 1854.150
297.9562, 1854.269
298.4384, 1837.652
298.9205, 1799.693
299.4026, 1777.242
299.8847, 1782.271
300.3668, 1790.319
300.8489, 1790.706
301.3310, 1769.669
301.8131, 1791.027
302.2953, 1803.272
302.7774, 1806.894
303.2595, 1776.066
303.7416, 1789.723
304.2237, 1785.553
304.7058, 1780.651
305.1880, 1800.569
305.6701, 1774.752
306.1522, 1794.276
306.6343, 1795.701
307.1164, 1805.409
307.5985, 1797.181
308.0807, 1794.492
308.5628, 1809.746
309.0449, 1815.065
309.5270, 1795.801
310.0091, 1790.275
310.4912, 1783.688
310.9734, 1778.892
311.4555, 1775.831
311.9376, 1773.647
312.4197, 1770.352
312.9018, 1771.117
313.3839, 1783.308
313.8661, 1802.015
314.3482, 1814.003
314.8303, 1808.052
315.3124, 1794.058
315.7945, 1790.340
316.2766, 1798.562
316.7588, 1807.304
317.2409, 1809.664
317.7230, 1808.906
318.2051, 1809.797
318.6872, 1810.925
319.1693, 1817.226
319.6515, 1839.429
320.1336, 1872.261
320.6157, 1890.425
321.0978, 1880.721
321.5799, 1859.809
322.0620, 1852.914
322.5442, 1859.540
323.0263, 1875.359
323.5084, 1908.348
323.9905, 1946.036
324.4726, 1973.445
324.9547, 1988.133
325.4369, 1991.940
325.9190, 1983.524
326.4011, 1961.223
326.8832, 1950.905
327.3653, 1963.445
327.8474, 1977.450
328.3296, 1979.466
328.8117, 1972.553
329.2938, 1967.681
329.7759, 1971.441
330.2580, 1981.892
330.7401, 1990.132
331.2223, 1998.176
331.7044, 2001.484
332.1865, 1997.709
332.6686, 1989.826
333.1507, 1982.166
333.6328, 1975.690
334.1150, 1965.994
334.5971, 1944.858
335.0792, 1904.476
335.5613, 1874.262
336.0434, 1854.976
336.5255, 1843.796
337.0077, 1845.349
337.4898, 1854.970
337.9719, 1860.651
338.4540, 1852.812
338.9361, 1832.492
339.4182, 1808.418
339.9004, 1776.863
340.3825, 1747.310
340.8646, 1719.045
341.3467, 1695.178
341.8288, 1680.902
342.3109, 1679.098
342.7931, 1682.622
343.2752, 1682.111
343.7573, 1677.688
344.2394, 1667.577
344.7215, 1640.944
345.2036, 1617.035
345.6858, 1614.688
346.1679, 1634.110
346.6500, 1652.179
347.1321, 1652.124
347.6142, 1639.635
348.0963, 1629.892
348.5785, 1624.230
349.0606, 1621.779
349.5427, 1625.319
350.0248, 1631.984
350.5069, 1632.718
350.9890, 1619.640
351.4712, 1605.038
351.9533, 1600.919
352.4354, 1605.104
352.9175, 1605.192
353.3996, 1593.730
353.8817, 1576.448
354.3639, 1569.194
354.8460, 1576.169
355.3281, 1581.878
355.8102, 1582.836
356.2923, 1580.768
356.7744, 1577.903
357.2566, 1574.639
357.7387, 1569.080
358.2208, 1557.864
358.7029, 1538.024
359.1850, 1529.977
359.6671, 1543.108
360.1493, 1556.856
360.6314, 1562.546
361.1135, 1561.599
361.5956, 1558.206
362.0777, 1554.521
362.5598, 1551.241
363.0420, 1551.285
363.5241, 1559.218
364.0062, 1562.981
364.4883, 1555.280
364.9704, 1546.931
365.4525, 1547.557
365.9347, 1558.917
366.4168, 1575.015
366.8989, 1592.338
367.3810, 1611.789
367.8631, 1617.902
368.3452, 1594.514
368.8274, 1576.504
369.3095, 1582.643
369.7916, 1607.223
370.2737, 1636.714
370.7558, 1669.633
371.2379, 1699.903
371.7201, 1714.580
372.2022, 1712.066
372.6843, 1708.965
373.1664, 1710.342
373.6485, 1716.441
374.1306, 1727.818
374.6128, 1746.172
375.0949, 1763.732
375.5770, 1771.336
376.0591, 1776.051
376.5412, 1794.491
377.0233, 1831.375
377.5055, 1871.586
377.9876, 1899.472
378.4697, 1913.338
378.9518, 1929.737
379.4339, 1949.384
379.9160, 1971.064
380.3982, 1992.295
380.8803, 2014.724
381.3624, 2043.400
381.8445, 2081.636
382.3266, 2125.871
382.8087, 2166.004
383.2909, 2196.716
383.7730, 2229.771
384.2551, 2262.274
384.7372, 2299.103
385.2193, 2348.742
385.7014, 2409.860
386.1836, 2468.921
386.6657, 2509.173
387.1478, 2528.793
387.6299, 2561.999
388.1120, 2622.069
388.5941, 2681.262
389.0763, 2731.815
389.5584, 2775.247
390.0405, 2812.256
390.5226, 2841.476
391.0047, 2870.671
391.4868, 2917.053
391.9690, 2983.484
392.4511, 3037.772
392.9332, 3065.961
393.4153, 3082.774
393.8974, 3101.326
394.3795, 3121.968
394.8617, 3143.362
395.3438, 3170.970
395.8259, 3196.843
396.3080, 3205.998
396.7901, 3196.525
397.2722, 3180.702
397.7544, 3165.834
398.2365, 3151.565
398.7186, 3135.883
399.2007, 3124.285
399.6828, 3105.452
400.1649, 3072.329
400.6471, 3029.747
401.1292, 2986.720
401.6113, 2945.973
402.0934, 2901.231
402.5755, 2841.117
403.0576, 2756.402
403.5398, 2685.491
404.0219, 2631.467
404.5040, 2585.596
404.9861, 2550.513
405.4682, 2519.747
405.9503, 2478.623
406.4325, 2415.811
406.9146, 2340.412
407.3967, 2287.840
407.8788, 2273.489
408.3609, 2250.481
408.8430, 2198.130
409.3252, 2141.770
409.8073, 2103.461
410.2894, 2085.754
410.7715, 2070.569
411.2536, 2042.387
411.7357, 2003.307
412.2179, 1962.902
412.7000, 1918.168
413.1821, 1881.208
413.6642, 1871.332
414.1463, 1874.610
414.6284, 1862.441
415.1106, 1816.513
415.5927, 1769.569
416.0748, 1750.441
416.5569, 1750.423
417.0390, 1740.983
417.5211, 1710.815
418.0033, 1673.912
418.4854, 1651.187
418.9675, 1647.042
419.4496, 1643.491
419.9317, 1645.306
420.4138, 1643.222
420.8960, 1628.447
421.3781, 1603.713
421.8602, 1577.715
422.3423, 1555.240
422.8244, 1537.402
423.3065, 1529.798
423.7887, 1545.119
424.2708, 1550.675
424.7529, 1533.534
425.2350, 1512.614
425.7171, 1507.661
426.1992, 1519.086
426.6814, 1526.394
427.1635, 1502.461
427.6456, 1451.277
428.1277, 1425.660
428.6098, 1438.888
429.0919, 1452.345
429.5741, 1442.502
430.0562, 1421.130
430.5383, 1405.906
431.0204, 1403.625
431.5025, 1402.531
431.9846, 1391.088
432.4668, 1372.432
432.9489, 1358.605
433.4310, 1353.741
433.9131, 1350.789
434.3952, 1340.574
434.8773, 1322.082
435.3595, 1307.931
435.8416, 1297.657
436.3237, 1292.984
436.8058, 1299.881
437.2879, 1313.303
437.7701, 1319.632
438.2522, 1311.247
438.7343, 1295.833
439.2164, 1294.102
439.6985, 1322.759
440.1806, 1334.919
440.6628, 1316.946
441.1449, 1294.857
441.6270, 1282.867
442.1091, 1282.380
442.5912, 1290.432
443.0733, 1309.355
443.5555, 1333.332
444.0376, 1336.706
444.5197, 1310.526
445.0018, 1288.845
445.4839, 1289.806
445.9660, 1299.030
446.4482, 1300.512
446.9303, 1290.426
447.4124, 1287.680
447.8945, 1313.708
448.3766, 1353.384
448.8587, 1372.198
449.3409, 1364.447
449.8230, 1353.281
450.3051, 1357.198
450.7872, 1374.454
451.2693, 1385.392
451.7514, 1380.214
452.2336, 1380.562
452.7157, 1398.644
453.1978, 1424.667
453.6799, 1446.586
454.1620, 1460.436
454.6441, 1465.969
455.1263, 1460.791
455.6084, 1441.090
456.0905, 1432.328
456.5726, 1436.681
457.0547, 1450.679
457.5368, 1482.486
458.0190, 1521.252
458.5011, 1549.471
458.9832, 1558.763
459.4653, 1560.016
459.9474, 1571.025
460.4295, 1592.036
460.9117, 1601.844
461.3938, 1588.751
461.8759, 1573.777
462.3580, 1578.784
462.8401, 1599.698
463.3222, 1615.213
463.8044, 1616.434
464.2865, 1612.362
464.7686, 1605.802
465.2507, 1599.718
465.7328, 1606.250
466.2149, 1632.075
466.6971, 1668.387
467.1792, 1698.702
467.6613, 1727.005
468.1434, 1738.878
468.6255, 1718.419
469.1076, 1695.660
469.5898, 1688.724
470.0719, 1696.103
470.5540, 1708.980
471.0361, 1722.766
471.5182, 1735.724
472.0003, 1743.841
472.4825, 1748.784
472.9646, 1744.098
473.4467, 1716.925
473.9288, 1687.755
474.4109, 1669.314
474.8930, 1662.096
475.3752, 1659.720
475.8573, 1664.180
476.3394, 1668.945
476.8215, 1658.867
477.3036, 1633.496
477.7857, 1614.855
478.2679, 1616.965
478.7500, 1630.286
479.2321, 1631.668
479.7142, 1619.338
480.1963, 1602.218
480.6784, 1575.252
481.1606, 1548.731
481.6427, 1532.257
482.1248, 1526.027
482.6069, 1524.910
483.0890, 1525.331
483.5711, 1527.289
484.0533, 1531.288
484.5354, 1542.370
485.0175, 1546.873
485.4996, 1537.614
485.9817, 1525.573
486.4638, 1517.661
486.9460, 1515.441
487.4281, 1519.706
487.9102, 1537.728
488.3923, 1562.414
488.8744, 1568.807
489.3565, 1553.040
489.8387, 1540.896
490.3208, 1550.062
490.8029, 1568.512
491.2850, 1569.016
491.7671, 1541.879
492.2492, 1525.011
492.7314, 1540.554
493.2135, 1567.868
493.6956, 1584.387
494.1777, 1587.849
494.6598, 1586.991
495.1419, 1588.403
495.6241, 1591.198
496.1062, 1589.527
496.5883, 1580.070
497.0704, 1570.583
497.5525, 1560.018
498.0346, 1550.922
498.5168, 1545.695
498.9989, 1544.391
499.4810, 1545.139
499.9631, 1548.908
500.4452, 1553.410
500.9273, 1547.014
501.4095, 1525.468
501.8916, 1511.444
502.3737, 1520.421
502.8558, 1539.494
503.3379, 1547.218
503.8200, 1540.197
504.3022, 1534.576
504.7843, 1541.045
505.2664, 1549.413
505.7485, 1543.848
506.2306, 1525.806
506.7127, 1513.947
507.1949, 1521.767
507.6770, 1544.182
508.1591, 1558.744
508.6412, 1556.816
509.1233, 1559.634
509.6054, 1571.444
510.0876, 1585.749
510.5697, 1599.245
511.0518, 1610.834
511.5339, 1618.703
512.0161, 1617.734
512.4982, 1614.522
512.9803, 1630.550
513.4624, 1669.576
513.9445, 1704.346
514.4266, 1723.548
514.9088, 1735.352
515.3909, 1750.229
515.8730, 1768.319
516.3551, 1787.570
516.8372, 1812.064
517.3193, 1834.037
517.8015, 1837.885
518.2836, 1830.610
518.7657, 1844.471
519.2478, 1899.289
519.7299, 1972.844
520.2120, 2011.011
520.6942, 1991.134
521.1763, 1978.526
521.6584, 1973.236
522.1405, 1974.233
522.6226, 1986.897
523.1047, 2005.357
523.5869, 2015.727
524.0690, 2009.542
524.5511, 1994.460
525.0332, 1982.284
525.5153, 1972.993
525.9974, 1962.903
526.4796, 1950.046
526.9617, 1937.929
527.4438, 1933.559
527.9259, 1935.471
528.4080, 1928.448
528.8901, 1893.031
529.3723, 1865.237
529.8544, 1875.458
530.3365, 1906.946
530.8186, 1928.280
531.3007, 1928.604
531.7828, 1914.036
532.2650, 1891.156
532.7471, 1857.515
533.2292, 1830.345
533.7113, 1813.703
534.1934, 1799.097
534.6755, 1788.325
535.1577, 1776.369
535.6398, 1755.871
536.1219, 1724.166
536.6040, 1688.287
537.0861, 1652.692
537.5682, 1618.166
538.0504, 1590.198
538.5325, 1571.237
539.0146, 1545.161
539.4967, 1495.453
539.9788, 1429.710
540.4609, 1386.533
540.9431, 1374.825
541.4252, 1370.068
541.9073, 1377.029
542.3894, 1382.500
542.8715, 1370.952
543.3536, 1343.227
543.8358, 1313.451
544.3179, 1292.394
544.8000, 1278.791
545.2821, 1267.716
545.7642, 1260.481
546.2463, 1252.161
546.7285, 1238.465
547.2106, 1225.630
547.6926, 1217.975
548.1747, 1215.652
548.6569, 1217.386
549.1390, 1231.674
549.6211, 1243.393
550.1032, 1232.477
550.5853, 1203.055
551.0674, 1172.380
551.5496, 1145.966
552.0317, 1127.247
552.5138, 1122.524
552.9959, 1136.737
553.4780, 1148.498
553.9601, 1160.516
554.4423, 1167.662
554.9244, 1164.245
555.4065, 1155.730
555.8886, 1151.789
556.3707, 1156.151
556.8528, 1160.006
557.3350, 1148.447
557.8171, 1124.506
558.2992, 1114.545
558.7813, 1124.297
559.2634, 1137.876
559.7455, 1149.160
560.2277, 1155.437
560.7098, 1149.287
561.1919, 1120.536
561.6740, 1097.092
562.1561, 1091.382
562.6382, 1093.029
563.1204, 1090.525
563.6025, 1083.423
564.0846, 1078.872
564.5667, 1082.640
565.0488, 1091.986
565.5309, 1095.863
566.0131, 1092.037
566.4952, 1088.402
566.9773, 1089.039
567.4594, 1087.934
567.9415, 1077.862
568.4236, 1061.549
568.9058, 1051.691
569.3879, 1056.588
569.8700, 1067.583
570.3521, 1079.165
570.8342, 1089.831
571.3163, 1094.035
571.7985, 1089.880
572.2806, 1080.333
572.7627, 1067.158
573.2448, 1048.520
573.7269, 1043.646
574.2090, 1066.234
574.6912, 1085.460
575.1733, 1092.869
575.6554, 1093.335
576.1375, 1092.009
576.6196, 1090.271
577.1017, 1087.794
577.5839, 1084.137
578.0660, 1079.503
578.5481, 1072.383
579.0302, 1061.559
579.5123, 1060.501
579.9944, 1082.334
580.4766, 1111.397
580.9587, 1113.223
581.4408, 1079.251
581.9229, 1059.098
582.4050, 1072.197
582.8871, 1089.761
583.3693, 1093.050
583.8514, 1085.499
584.3335, 1077.323
584.8156, 1073.184
585.2977, 1071.633
585.7798, 1068.988
586.2620, 1064.435
586.7441, 1069.654
587.2262, 1091.726
587.7083, 1112.958
588.1904, 1124.574
588.6725, 1128.441
589.1547, 1125.685
589.6368, 1113.003
590.1189, 1102.910
590.6010, 1103.497
591.0831, 1108.929
591.5652, 1111.872
592.0474, 1111.904
592.5295, 1113.526
593.0116, 1120.774
593.4937, 1128.570
593.9758, 1118.108
594.4579, 1072.538
594.9401, 1048.949
595.4222, 1073.524
595.9043, 1101.907
596.3864, 1112.074
596.8685, 1108.443
597.3506, 1104.999
597.8328, 1107.698
598.3149, 1110.577
598.7970, 1106.182
599.2791, 1097.929
599.7612, 1094.911
600.2433, 1098.879
600.7255, 1106.377
601.2076, 1115.966
601.6897, 1126.388
602.1718, 1127.221
602.6539, 1106.514
603.1360, 1092.439
603.6182, 1093.138
604.1003, 1096.346
604.5824, 1089.076
605.0645, 1074.659
605.5466, 1070.062
606.0287, 1089.780
606.5109, 1118.062
606.9930, 1132.083
607.4751, 1132.920
607.9572, 1128.212
608.4393, 1118.914
608.9214, 1107.833
609.4036, 1096.604
609.8857, 1085.242
610.3678, 1080.524
610.8499, 1092.932
611.3320, 1098.109
611.8141, 1080.540
612.2963, 1059.256
612.7784, 1053.913
613.2605, 1066.000
613.7426, 1084.214
614.2247, 1101.779
614.7068, 1117.982
615.1890, 1132.049
615.6711, 1144.171
616.1532, 1149.121
616.6353, 1143.376
617.1174, 1133.478
617.5995, 1126.423
618.0817, 1122.265
618.5638, 1117.517
619.0459, 1107.735
619.5280, 1102.323
620.0101, 1106.902
620.4922, 1116.927
620.9744, 1128.992
621.4565, 1141.074
621.9386, 1148.103
622.4207, 1142.518
622.9028, 1129.510
623.3849, 1132.076
623.8671, 1153.790
624.3492, 1169.865
624.8313, 1170.310
625.3134, 1164.862
625.7955, 1168.247
626.2776, 1179.798
626.7598, 1177.608
627.2419, 1140.718
627.7240, 1108.826
628.2061, 1105.839
628.6882, 1119.092
629.1703, 1131.141
629.6525, 1137.150
630.1346, 1140.329
630.6167, 1144.865
631.0988, 1149.063
631.5809, 1140.100
632.0630, 1111.517
632.5452, 1095.628
633.0273, 1109.821
633.5094, 1133.581
633.9915, 1145.904
634.4736, 1147.200
634.9557, 1141.591
635.4379, 1116.007
635.9200, 1098.271
636.4021, 1113.853
636.8842, 1143.900
637.3663, 1159.761
637.8484, 1154.349
638.3306, 1136.328
638.8127, 1110.314
639.2948, 1079.893
639.7769, 1070.631
640.2590, 1089.935
640.7411, 1104.008
641.2233, 1101.962
641.7054, 1091.834
642.1875, 1079.658
642.6696, 1065.882
643.1517, 1057.018
643.6339, 1056.114
644.1160, 1058.622
644.5981, 1064.166
645.0802, 1070.673
645.5623, 1075.390
646.0444, 1077.621
646.5266, 1077.657
647.0087, 1075.055
647.4908, 1070.893
647.9729, 1071.565
648.4550, 1079.562
648.9371, 1081.476
649.4193, 1065.993
649.9014, 1051.919
650.3835, 1063.320
650.8656, 1095.414
