##NAMES=Afwillite
##RRUFFID=R080022
##IDEAL CHEMISTRY=Ca_3_(SiO_4_)(SiO_2_(OH)_2_)&#183;2H_2_O
##LOCALITY=Crestmore Quarry, Riverside County, Jurupa Mountains, California, USA
##OWNER=Michael Scott
##SOURCE=Michael Scott
##DESCRIPTION=Colorless, prismatic and elongated crystals associated with colorless fibers of thaumasite, R060814
##STATUS=The identification of this mineral is confirmed by single-crystal X-ray diffraction and chemical analysis.
##URL=rruff.info/R080022
##MEASURED CHEMISTRY=Ca_3.00_(Si_1.00_O_3_)_2_(OH)_2_Â·2H_2_O; trace amounts of Fe, Al, Cr; OH estimated by charge balance; H_2_O by difference;
131.6331, 51.14252
132.1152, 51.35444
132.5973, 51.61435
133.0794, 51.96069
133.5615, 52.37753
134.0436, 52.79245
134.5258, 53.22311
135.0079, 53.63160
135.4900, 54.01494
135.9721, 54.37324
136.4542, 54.73832
136.9363, 55.15670
137.4185, 55.59949
137.9006, 55.66049
138.3827, 55.12064
138.8648, 54.49549
139.3469, 53.97320
139.8290, 53.57019
140.3112, 53.27018
140.7933, 53.05168
141.2754, 52.93992
141.7575, 52.99552
142.2396, 53.36333
142.7217, 53.83103
143.2039, 54.18711
143.6860, 54.41643
144.1681, 54.54714
144.6502, 54.57904
145.1323, 54.53184
145.6144, 54.42450
146.0966, 54.33464
146.5787, 54.19957
147.0608, 53.80291
147.5429, 53.03967
148.0250, 52.11695
148.5071, 51.16129
148.9893, 50.17085
149.4714, 49.12553
149.9535, 47.97500
150.4356, 46.70369
150.9177, 45.53225
151.3998, 44.53485
151.8820, 43.59567
152.3641, 42.69120
152.8462, 41.81028
153.3283, 40.93916
153.8104, 40.03685
154.2925, 39.03930
154.7747, 38.21712
155.2568, 37.58944
155.7389, 37.07713
156.2210, 36.68269
156.7031, 36.38615
157.1852, 36.10557
157.6673, 35.70883
158.1495, 35.07149
158.6316, 34.52983
159.1137, 34.14727
159.5958, 33.82747
160.0779, 33.46016
160.5600, 33.00340
161.0422, 32.52659
161.5243, 32.19770
162.0064, 32.13023
162.4885, 31.93186
162.9706, 31.39421
163.4527, 30.67186
163.9349, 30.06579
164.4170, 29.69448
164.8991, 29.49782
165.3812, 29.35660
165.8633, 29.29075
166.3454, 29.21318
166.8276, 29.05380
167.3097, 28.82607
167.7918, 28.62893
168.2739, 28.52295
168.7560, 28.45321
169.2381, 28.33657
169.7203, 28.14230
170.2024, 27.97774
170.6845, 27.98637
171.1666, 28.20555
171.6487, 28.37736
172.1308, 28.38000
172.6130, 28.31271
173.0951, 28.23081
173.5772, 28.14590
174.0593, 28.07870
174.5414, 28.10108
175.0235, 28.35011
175.5057, 28.38304
175.9878, 28.00914
176.4699, 27.46401
176.9520, 26.94068
177.4341, 26.52465
177.9162, 26.20766
178.3984, 25.96099
178.8805, 25.82748
179.3626, 25.72005
179.8447, 25.63899
180.3268, 25.57212
180.8089, 25.49450
181.2911, 25.38929
181.7732, 25.27495
182.2553, 25.25998
182.7374, 25.47021
183.2195, 25.64145
183.7016, 25.69186
184.1838, 25.66977
184.6659, 25.66914
185.1480, 25.75176
185.6301, 25.90613
186.1122, 26.01115
186.5943, 25.98954
187.0765, 26.00715
187.5586, 26.16897
188.0407, 26.43506
188.5228, 26.67055
189.0049, 26.78078
189.4870, 26.77863
189.9692, 26.79551
190.4513, 26.88555
190.9334, 26.94950
191.4155, 26.89079
191.8976, 26.71799
192.3797, 26.56820
192.8619, 26.54214
193.3440, 26.61012
193.8261, 26.67600
194.3082, 26.73176
194.7903, 26.78069
195.2724, 26.86347
195.7546, 27.00252
196.2367, 27.03051
196.7188, 26.63864
197.2009, 26.10162
197.6830, 25.80718
198.1651, 25.98245
198.6473, 26.38750
199.1294, 26.60190
199.6115, 26.55345
200.0936, 26.48891
200.5757, 26.53676
201.0578, 26.63597
201.5400, 26.72384
202.0221, 26.80030
202.5042, 26.82512
202.9863, 26.66916
203.4684, 26.24996
203.9505, 25.76947
204.4327, 25.19910
204.9148, 24.63743
205.3969, 24.22900
205.8790, 24.07590
206.3611, 24.12236
206.8432, 24.07888
207.3254, 23.85266
207.8075, 23.64000
208.2896, 23.48818
208.7717, 23.37723
209.2538, 23.26712
209.7359, 23.12825
210.2181, 22.97137
210.7002, 22.90227
211.1823, 22.98070
211.6644, 23.09229
212.1465, 23.24896
212.6286, 23.42199
213.1108, 23.55832
213.5929, 23.61494
214.0750, 23.60405
214.5571, 23.70543
215.0392, 23.98993
215.5213, 24.29924
216.0035, 24.62418
216.4856, 24.94171
216.9677, 25.19603
217.4498, 25.33737
217.9319, 25.38122
218.4140, 25.56364
218.8962, 25.95271
219.3783, 26.37366
219.8604, 26.79916
220.3425, 27.20942
220.8246, 27.55743
221.3067, 27.80613
221.7889, 27.96570
222.2710, 28.13549
222.7531, 28.30432
223.2352, 28.49120
223.7173, 28.71340
224.1994, 28.96555
224.6816, 29.23100
225.1637, 29.52278
225.6458, 29.80836
226.1279, 29.99207
226.6100, 30.02952
227.0921, 30.01233
227.5743, 29.96861
228.0564, 29.90490
228.5385, 29.89515
229.0206, 30.02615
229.5027, 30.21871
229.9848, 30.29457
230.4670, 30.17892
230.9491, 30.03168
231.4312, 29.95810
231.9133, 29.95742
232.3954, 30.07412
232.8775, 30.42934
233.3597, 30.87067
233.8418, 31.20497
234.3239, 31.40663
234.8060, 31.50332
235.2881, 31.48149
235.7702, 31.32274
236.2524, 31.22061
236.7345, 31.34156
237.2166, 31.50757
237.6987, 31.57193
238.1808, 31.50584
238.6629, 31.33066
239.1451, 31.08113
239.6272, 30.76791
240.1093, 30.32410
240.5914, 29.58390
241.0735, 28.78584
241.5556, 28.09020
242.0378, 27.53202
242.5199, 27.06588
243.0020, 26.62258
243.4841, 26.19143
243.9662, 25.83586
244.4483, 25.63612
244.9305, 25.46771
245.4126, 25.23635
245.8947, 24.92560
246.3768, 24.60963
246.8589, 24.40367
247.3410, 24.35844
247.8232, 24.26498
248.3053, 24.09246
248.7874, 23.87787
249.2695, 23.60833
249.7516, 23.29653
250.2337, 23.01059
250.7159, 22.86791
251.1980, 22.96985
251.6801, 22.93586
252.1622, 22.61359
252.6443, 22.28277
253.1264, 22.14082
253.6086, 22.18971
254.0907, 22.25825
254.5728, 22.10337
255.0549, 21.56597
255.5370, 21.29925
256.0191, 21.52625
256.5013, 21.79287
256.9834, 21.84849
257.4655, 21.68046
257.9476, 21.43332
258.4297, 21.26407
258.9118, 21.19724
259.3940, 21.10746
259.8761, 21.01815
260.3582, 20.89221
260.8403, 20.71195
261.3224, 20.47692
261.8045, 20.18696
262.2867, 19.82718
262.7688, 19.37212
263.2509, 19.03702
263.7330, 18.89441
264.2151, 18.77844
264.6972, 18.62982
265.1794, 18.44125
265.6615, 18.21216
266.1436, 17.93325
266.6257, 17.59825
267.1078, 17.35624
267.5899, 17.16033
268.0721, 17.07472
268.5542, 17.23271
269.0363, 17.54234
269.5184, 17.74495
270.0005, 17.63972
270.4826, 17.25497
270.9648, 17.02351
271.4469, 16.98550
271.9290, 17.01949
272.4111, 17.12613
272.8932, 17.27298
273.3753, 17.38635
273.8575, 17.41588
274.3396, 17.38395
274.8217, 17.40910
275.3038, 17.52488
275.7859, 17.64517
276.2680, 17.73757
276.7502, 17.81541
277.2323, 17.91700
277.7144, 18.06944
278.1965, 18.23932
278.6786, 18.31142
279.1607, 18.20639
279.6429, 18.16537
280.1250, 18.33829
280.6071, 18.60898
281.0892, 18.75370
281.5713, 18.67812
282.0534, 18.48520
282.5356, 18.37551
283.0177, 18.36762
283.4998, 18.35448
283.9819, 18.32475
284.4640, 18.27031
284.9461, 18.17683
285.4283, 18.03923
285.9104, 17.86760
286.3925, 17.64489
286.8746, 17.35435
287.3567, 17.16131
287.8388, 17.13739
288.3210, 17.21372
288.8031, 17.33808
289.2852, 17.51355
289.7673, 17.63208
290.2494, 17.51836
290.7315, 17.18882
291.2137, 16.98113
291.6958, 17.08645
292.1779, 17.26209
292.6600, 17.21053
293.1421, 16.89843
293.6242, 16.57172
294.1064, 16.43500
294.5885, 16.46178
295.0706, 16.48928
295.5527, 16.54893
296.0348, 16.57121
296.5169, 16.43839
296.9991, 16.15886
297.4812, 15.96174
297.9633, 16.02145
298.4454, 16.27385
298.9275, 16.48186
299.4096, 16.62118
299.8918, 16.73382
300.3739, 16.86380
300.8560, 17.00223
301.3381, 17.07390
301.8202, 16.99986
302.3023, 16.87415
302.7845, 16.89162
303.2666, 17.10929
303.7487, 17.33003
304.2308, 17.42532
304.7129, 17.42810
305.1950, 17.45681
305.6772, 17.55522
306.1593, 17.68836
306.6414, 17.81555
307.1235, 17.94264
307.6056, 18.03291
308.0877, 18.05662
308.5699, 18.03308
309.0520, 17.98920
309.5341, 17.90611
310.0162, 17.86561
310.4983, 18.01691
310.9804, 18.32745
311.4626, 18.56293
311.9447, 18.59207
312.4268, 18.52050
312.9089, 18.51372
313.3910, 18.59791
313.8731, 18.69538
314.3553, 18.72558
314.8374, 18.71380
315.3195, 18.74433
315.8016, 18.84785
316.2837, 18.99309
316.7658, 19.14831
317.2480, 19.31273
317.7301, 19.49566
318.2122, 19.72671
318.6943, 19.97463
319.1764, 20.15927
319.6585, 20.21271
320.1407, 20.28015
320.6228, 20.53780
321.1049, 20.94755
321.5870, 21.22089
322.0691, 21.18892
322.5512, 20.98251
323.0334, 20.84587
323.5155, 20.78253
323.9976, 20.77381
324.4797, 20.85132
324.9618, 20.98162
325.4439, 21.06523
325.9261, 21.07853
326.4082, 21.02853
326.8903, 20.91169
327.3724, 20.73143
327.8545, 20.53631
328.3366, 20.33183
328.8188, 20.12707
329.3009, 19.94587
329.7830, 19.79911
330.2651, 19.63763
330.7472, 19.38445
331.2293, 19.06205
331.7115, 18.79843
332.1936, 18.67209
332.6757, 18.58259
333.1578, 18.40489
333.6399, 18.13324
334.1220, 17.89206
334.6042, 17.77305
335.0863, 17.75189
335.5684, 17.71661
336.0505, 17.69403
336.5326, 17.62645
337.0147, 17.42194
337.4969, 17.11954
337.9790, 16.90348
338.4611, 16.87478
338.9432, 16.96559
339.4253, 17.02024
339.9074, 17.02484
340.3896, 17.03378
340.8717, 17.07285
341.3538, 17.13049
341.8359, 17.20270
342.3180, 17.30413
342.8001, 17.36181
343.2823, 17.21162
343.7644, 16.82020
344.2465, 16.58406
344.7286, 16.70042
345.2107, 16.94594
345.6928, 17.08788
346.1750, 17.09365
346.6571, 17.01522
347.1392, 16.87421
347.6213, 16.67033
348.1034, 16.53608
348.5855, 16.53714
349.0677, 16.55219
349.5498, 16.51515
350.0319, 16.42398
350.5140, 16.27715
350.9961, 16.05003
351.4782, 15.77880
351.9604, 15.63604
352.4425, 15.70377
352.9246, 15.77495
353.4067, 15.78751
353.8888, 15.76065
354.3709, 15.75100
354.8531, 15.79006
355.3352, 15.79424
355.8173, 15.57598
356.2994, 14.95659
356.7815, 14.53122
357.2636, 14.45573
357.7458, 14.53829
358.2279, 14.63625
358.7100, 14.71102
359.1921, 14.72228
359.6742, 14.61107
360.1563, 14.34330
360.6385, 14.16141
361.1206, 14.12721
361.6027, 14.11311
362.0848, 14.02704
362.5669, 13.89560
363.0490, 13.82652
363.5312, 13.90741
364.0133, 14.10756
364.4954, 14.17098
364.9775, 13.95669
365.4596, 13.78146
365.9417, 13.74008
366.4239, 13.76473
366.9060, 13.75177
367.3881, 13.65926
367.8702, 13.53886
368.3523, 13.50000
368.8344, 13.63065
369.3166, 13.70115
369.7987, 13.63928
370.2808, 13.57264
370.7629, 13.63182
371.2450, 13.81187
371.7271, 13.97293
372.2093, 13.94666
372.6914, 13.68482
373.1735, 13.54838
373.6556, 13.59788
374.1377, 13.70388
374.6198, 13.87698
375.1020, 14.07027
375.5841, 14.19345
376.0662, 14.18088
376.5483, 14.06823
377.0304, 14.02696
377.5125, 14.11045
377.9947, 14.19298
378.4768, 14.21852
378.9589, 14.25038
379.4410, 14.38269
379.9231, 14.64036
380.4052, 14.91039
380.8874, 14.99292
381.3695, 14.80132
381.8516, 14.70650
382.3337, 14.78823
382.8158, 14.93010
383.2979, 15.09346
383.7801, 15.26727
384.2622, 15.44335
384.7443, 15.62827
385.2264, 15.81629
385.7085, 15.93708
386.1906, 15.93328
386.6728, 15.94386
387.1549, 16.03968
387.6370, 16.17990
388.1191, 16.30157
388.6012, 16.37618
389.0833, 16.42385
389.5655, 16.47656
390.0476, 16.53379
390.5297, 16.59852
391.0118, 16.67698
391.4939, 16.76089
391.9760, 16.82982
392.4582, 16.88010
392.9403, 16.96874
393.4224, 17.20337
393.9045, 17.54325
394.3866, 17.72791
394.8687, 17.67929
395.3509, 17.53415
395.8330, 17.35812
396.3151, 17.17182
396.7972, 17.05124
397.2793, 17.08797
397.7614, 17.17789
398.2436, 17.16433
398.7257, 17.03969
399.2078, 16.90147
399.6899, 16.80977
400.1720, 16.73869
400.6541, 16.62850
401.1363, 16.45375
401.6184, 16.28433
402.1005, 16.15280
402.5826, 16.05888
403.0647, 16.01667
403.5468, 16.04912
404.0290, 16.08387
404.5111, 15.98134
404.9932, 15.72061
405.4753, 15.56581
405.9574, 15.63593
406.4395, 15.78888
406.9217, 15.91949
407.4038, 16.00947
407.8859, 16.01839
408.3680, 15.89384
408.8501, 15.65085
409.3322, 15.49548
409.8144, 15.47812
410.2965, 15.47632
410.7786, 15.46034
411.2607, 15.42807
411.7428, 15.35937
412.2249, 15.24332
412.7071, 15.13739
413.1892, 15.16427
413.6713, 15.49179
414.1534, 15.64490
414.6355, 15.51472
415.1176, 15.29856
415.5998, 15.12784
416.0819, 15.01642
416.5640, 14.90976
417.0461, 14.75180
417.5282, 14.54104
418.0103, 14.40497
418.4925, 14.47192
418.9746, 14.47486
419.4567, 14.29312
419.9388, 14.03044
420.4209, 13.84070
420.9030, 13.79592
421.3852, 13.81645
421.8673, 13.72671
422.3494, 13.45125
422.8315, 13.25951
423.3136, 13.29194
423.7957, 13.32007
424.2779, 13.18700
424.7600, 12.89943
425.2421, 12.58452
425.7242, 12.32779
426.2063, 12.13047
426.6884, 12.02392
427.1706, 12.05557
427.6527, 12.10144
428.1348, 12.13812
428.6169, 12.14519
429.0990, 12.08507
429.5811, 11.93192
430.0633, 11.74015
430.5454, 11.56365
431.0275, 11.40180
431.5096, 11.28768
431.9917, 11.26127
432.4738, 11.25737
432.9560, 11.19466
433.4381, 11.07415
433.9202, 10.97823
434.4023, 10.95803
434.8844, 10.98453
435.3665, 11.02502
435.8487, 11.08306
436.3308, 11.08941
436.8129, 10.94507
437.2950, 10.70582
437.7771, 10.60545
438.2592, 10.79289
438.7414, 10.96608
439.2235, 10.90900
439.7056, 10.71322
440.1877, 10.60274
440.6698, 10.66263
441.1519, 10.82353
441.6341, 10.98583
442.1162, 11.16723
442.5983, 11.29104
443.0804, 11.33067
443.5625, 11.32858
444.0446, 11.29985
444.5268, 11.25577
445.0089, 11.22589
445.4910, 11.23773
445.9731, 11.28272
446.4552, 11.27716
446.9373, 11.08656
447.4195, 11.00750
447.9016, 11.17818
448.3837, 11.43882
448.8658, 11.60077
449.3479, 11.61162
449.8300, 11.57354
450.3122, 11.63605
450.7943, 11.83037
451.2764, 12.00832
451.7585, 12.17998
452.2406, 12.32487
452.7227, 12.39960
453.2049, 12.44050
453.6870, 12.53798
454.1691, 12.77290
454.6512, 13.05957
455.1333, 13.15184
455.6154, 12.96598
456.0976, 12.83597
456.5797, 12.92715
457.0618, 13.08096
457.5439, 13.19172
458.0260, 13.24337
458.5081, 13.25140
458.9903, 13.18744
459.4724, 13.08388
459.9545, 13.07592
460.4366, 13.21353
460.9187, 13.34695
461.4008, 13.32422
461.8830, 13.20954
462.3651, 13.16239
462.8472, 13.26802
463.3293, 13.38767
463.8114, 13.40669
464.2935, 13.34959
464.7756, 13.29535
465.2578, 13.26230
465.7399, 13.27360
466.2220, 13.39987
466.7041, 13.70222
467.1862, 13.86279
467.6683, 13.76475
468.1505, 13.57028
468.6326, 13.37237
469.1147, 13.19615
469.5968, 13.08067
470.0789, 13.05702
470.5610, 13.11413
471.0432, 13.17786
471.5253, 13.33017
472.0074, 13.38584
472.4895, 13.25305
472.9716, 13.05270
473.4537, 12.89702
473.9359, 12.81556
474.4180, 12.77901
474.9001, 12.76520
475.3822, 12.78376
475.8643, 12.74607
476.3464, 12.59932
476.8286, 12.45006
477.3107, 12.32693
477.7928, 12.22546
478.2749, 12.12492
478.7570, 12.00649
479.2391, 11.92134
479.7213, 11.98944
480.2034, 12.23817
480.6855, 12.40041
481.1676, 12.33960
481.6497, 12.24744
482.1318, 12.30988
482.6140, 12.50507
483.0961, 12.64390
483.5782, 12.58076
484.0603, 12.42994
484.5424, 12.36068
485.0245, 12.37941
485.5067, 12.46397
485.9888, 12.62210
486.4709, 12.82958
486.9530, 13.02778
487.4351, 13.25110
487.9172, 13.39369
488.3994, 13.34089
488.8815, 13.22003
489.3636, 13.21094
489.8457, 13.34512
490.3278, 13.52617
490.8099, 13.66573
491.2921, 13.76113
491.7742, 13.86284
492.2563, 14.01820
492.7384, 14.12486
493.2205, 14.10906
493.7026, 14.03928
494.1848, 14.00011
494.6669, 14.02531
495.1490, 14.11284
495.6311, 14.27874
496.1132, 14.57132
496.5953, 14.78343
497.0775, 14.83806
497.5596, 14.88451
498.0417, 14.98790
498.5238, 15.12897
499.0059, 15.25873
499.4880, 15.35346
499.9702, 15.41970
500.4523, 15.45482
500.9344, 15.44631
501.4165, 15.49076
501.8986, 15.67352
502.3807, 15.86808
502.8629, 15.96102
503.3450, 15.95140
503.8271, 15.90034
504.3092, 15.76246
504.7913, 15.63225
505.2734, 15.69284
505.7556, 15.95233
506.2377, 16.20208
506.7198, 16.31894
507.2019, 16.34269
507.6840, 16.40194
508.1661, 16.52945
508.6483, 16.62613
509.1304, 16.63656
509.6125, 16.61805
510.0946, 16.64247
510.5767, 16.71772
511.0588, 16.78430
511.5410, 16.76618
512.0231, 16.66514
512.5052, 16.78200
512.9873, 17.33554
513.4694, 17.84970
513.9515, 18.26551
514.4337, 18.57911
514.9158, 18.76057
515.3979, 18.81256
515.8800, 18.82911
516.3621, 18.92499
516.8442, 19.10520
517.3264, 19.31775
517.8085, 19.63844
518.2906, 19.89111
518.7727, 19.95695
519.2548, 19.91966
519.7369, 19.92567
520.2191, 20.04128
520.7012, 20.17192
521.1833, 20.21784
521.6654, 20.18466
522.1475, 20.10866
522.6296, 19.98330
523.1118, 19.84748
523.5939, 19.75995
524.0760, 19.71117
524.5581, 19.61466
525.0402, 19.42021
525.5223, 19.20513
526.0045, 19.01519
526.4866, 18.85028
526.9687, 18.70496
527.4508, 18.57931
527.9329, 18.46162
528.4150, 18.32706
528.8972, 18.14755
529.3793, 18.02176
529.8614, 18.06932
530.3435, 18.05851
530.8256, 17.79984
531.3077, 17.37387
531.7899, 17.00403
532.2720, 16.82988
532.7541, 16.75957
533.2362, 16.54098
533.7183, 16.10290
534.2004, 15.71594
534.6826, 15.52518
535.1647, 15.31768
535.6468, 14.93472
536.1289, 14.40434
536.6110, 13.90245
537.0931, 13.57552
537.5753, 13.32247
538.0574, 12.93499
538.5395, 12.40425
539.0216, 11.91629
539.5037, 11.53869
539.9858, 11.25712
540.4680, 11.06885
540.9501, 10.99826
541.4322, 10.85985
541.9143, 10.50068
542.3964, 10.11603
542.8785, 9.919474
543.3607, 9.900647
543.8428, 9.908378
544.3249, 9.848232
544.8070, 9.740284
545.2891, 9.659205
545.7712, 9.654523
546.2534, 9.607635
546.7355, 9.512918
547.2176, 9.378495
547.6997, 9.181574
548.1818, 8.944289
548.6639, 8.731362
549.1461, 8.592179
549.6282, 8.520834
550.1103, 8.510779
550.5924, 8.604506
551.0745, 8.648890
551.5566, 8.532776
552.0388, 8.388562
552.5209, 8.332414
553.0030, 8.371188
553.4851, 8.398374
553.9672, 8.318154
554.4493, 8.198438
554.9315, 8.182808
555.4136, 8.279029
555.8957, 8.341949
556.3778, 8.277662
556.8599, 8.138642
557.3420, 8.074592
557.8242, 8.130938
558.3063, 8.141316
558.7884, 8.015232
559.2705, 7.869962
559.7526, 7.821383
560.2347, 7.866229
560.7169, 7.929037
561.1990, 7.959305
561.6811, 7.956801
562.1632, 7.915004
562.6453, 7.786163
563.1274, 7.701094
563.6096, 7.686340
564.0917, 7.704628
564.5738, 7.751307
565.0559, 7.811623
565.5380, 7.836498
566.0201, 7.753219
566.5023, 7.627804
566.9844, 7.666386
567.4665, 7.904279
567.9486, 8.074497
568.4307, 8.037999
568.9128, 7.913263
569.3950, 7.867932
569.8771, 7.908625
570.3592, 7.943063
570.8413, 7.958305
571.3234, 7.940974
571.8055, 7.844574
572.2877, 7.690943
572.7698, 7.590637
573.2519, 7.610909
573.7340, 7.703808
574.2161, 7.745139
574.6982, 7.670721
575.1804, 7.657660
575.6625, 7.793923
576.1446, 7.910403
576.6267, 7.882848
577.1088, 7.746370
577.5909, 7.607789
578.0731, 7.526291
578.5552, 7.493497
579.0373, 7.497291
579.5194, 7.543218
580.0015, 7.594955
580.4836, 7.649336
580.9658, 7.703621
581.4479, 7.767444
581.9300, 7.833011
582.4121, 7.866647
582.8942, 7.837536
583.3763, 7.786543
583.8585, 7.754920
584.3406, 7.736080
584.8227, 7.699224
585.3048, 7.629642
585.7869, 7.559716
586.2690, 7.536638
586.7512, 7.573117
587.2333, 7.596767
587.7154, 7.609023
588.1975, 7.608214
588.6796, 7.570939
589.1617, 7.526938
589.6439, 7.528194
590.1260, 7.592103
590.6081, 7.678572
591.0902, 7.736216
591.5723, 7.765001
592.0544, 7.759285
592.5366, 7.676774
593.0187, 7.622528
593.5008, 7.673715
593.9829, 7.771979
594.4650, 7.831256
594.9471, 7.828094
595.4293, 7.795685
595.9114, 7.750144
596.3935, 7.695043
596.8756, 7.620150
597.3577, 7.521158
597.8398, 7.483662
598.3220, 7.596803
598.8041, 7.829454
599.2862, 7.967350
599.7683, 7.967638
600.2504, 7.946304
600.7325, 7.894264
601.2147, 7.846251
601.6968, 7.826873
602.1789, 7.843162
602.6610, 7.907376
603.1431, 8.045465
603.6252, 8.222970
604.1074, 8.271552
604.5895, 8.133674
605.0716, 8.017224
605.5537, 7.963263
606.0358, 7.957942
606.5179, 8.020877
607.0001, 8.138861
607.4822, 8.223501
607.9643, 8.192684
608.4464, 8.131877
608.9285, 8.143956
609.4106, 8.222374
609.8928, 8.338243
610.3749, 8.496688
610.8570, 8.630977
611.3391, 8.629058
611.8212, 8.437648
612.3033, 8.317335
612.7855, 8.296254
613.2676, 8.312921
613.7497, 8.347071
614.2318, 8.398401
614.7139, 8.492255
615.1960, 8.633334
615.6782, 8.744883
616.1603, 8.681685
616.6424, 8.430161
617.1245, 8.328572
617.6066, 8.463839
618.0887, 8.605664
618.5709, 8.609610
619.0530, 8.562106
619.5351, 8.592749
620.0172, 8.743899
620.4993, 8.878988
620.9814, 8.933529
621.4636, 8.917686
621.9457, 8.816883
622.4278, 8.641378
