##NAMES=Afwillite
##RRUFFID=R080022
##IDEAL CHEMISTRY=Ca_3_(SiO_4_)(SiO_2_(OH)_2_)&#183;2H_2_O
##LOCALITY=Crestmore Quarry, Riverside County, Jurupa Mountains, California, USA
##OWNER=Michael Scott
##SOURCE=Michael Scott
##DESCRIPTION=Colorless, prismatic and elongated crystals associated with colorless fibers of thaumasite, R060814
##STATUS=The identification of this mineral is confirmed by single-crystal X-ray diffraction and chemical analysis.
##URL=rruff.info/R080022
##MEASURED CHEMISTRY=Ca_3.00_(Si_1.00_O_3_)_2_(OH)_2_Â·2H_2_O; trace amounts of Fe, Al, Cr; OH estimated by charge balance; H_2_O by difference;
142.5821, 151.5289
143.0643, 151.9398
143.5464, 152.5681
144.0285, 153.0669
144.5106, 153.4011
144.9927, 153.7064
145.4748, 154.0647
145.9570, 154.3801
146.4391, 154.3429
146.9212, 153.7869
147.4033, 153.0839
147.8854, 152.4058
148.3675, 151.9199
148.8497, 151.1904
149.3318, 150.0198
149.8139, 148.5409
150.2960, 147.4236
150.7781, 146.9330
151.2602, 146.6113
151.7424, 146.2177
152.2245, 145.7130
152.7066, 145.1799
153.1887, 144.4757
153.6708, 143.6481
154.1529, 143.2226
154.6351, 143.6449
155.1172, 144.2327
155.5993, 144.5286
156.0814, 143.6255
156.5635, 143.3018
157.0456, 144.2120
157.5278, 146.3514
158.0099, 148.1649
158.4920, 149.0437
158.9741, 149.6171
159.4562, 150.4486
159.9383, 152.4910
160.4205, 154.0726
160.9026, 154.5928
161.3847, 153.9970
161.8668, 152.8942
162.3489, 151.2493
162.8310, 149.2872
163.3132, 147.2690
163.7953, 145.2134
164.2774, 143.1755
164.7595, 141.1409
165.2416, 139.0769
165.7237, 137.1838
166.2059, 135.3107
166.6880, 133.6840
167.1701, 132.6502
167.6522, 132.7522
168.1343, 133.2442
168.6164, 133.5461
169.0986, 133.5136
169.5807, 133.6779
170.0628, 134.5566
170.5449, 135.8855
171.0270, 137.1424
171.5091, 137.9310
171.9913, 138.5940
172.4734, 139.5798
172.9555, 141.1206
173.4376, 142.4259
173.9197, 142.7627
174.4018, 142.3212
174.8840, 141.6004
175.3661, 141.0762
175.8482, 140.3855
176.3303, 138.9615
176.8124, 136.5262
177.2945, 133.7877
177.7767, 131.3706
178.2588, 129.2433
178.7409, 127.3863
179.2230, 125.7489
179.7051, 124.3499
180.1872, 123.2669
180.6694, 122.5459
181.1515, 122.0568
181.6336, 121.5933
182.1157, 121.1800
182.5978, 120.9941
183.0799, 121.1600
183.5621, 121.6476
184.0442, 122.4152
184.5263, 123.5805
185.0084, 124.8591
185.4905, 125.7773
185.9726, 126.3400
186.4547, 126.7879
186.9369, 127.2732
187.4190, 127.7948
187.9011, 128.3276
188.3832, 128.8787
188.8653, 129.4371
189.3474, 130.0660
189.8296, 130.7825
190.3117, 131.2967
190.7938, 131.2515
191.2759, 130.7192
191.7580, 130.2790
192.2401, 130.1280
192.7223, 130.1135
193.2044, 129.7467
193.6865, 128.9918
194.1686, 128.1313
194.6507, 127.3454
195.1328, 126.6374
195.6150, 126.1778
196.0971, 126.0717
196.5792, 126.2310
197.0613, 126.2362
197.5434, 126.0147
198.0255, 125.9741
198.5077, 126.6096
198.9898, 127.9491
199.4719, 129.2786
199.9540, 130.4772
200.4361, 131.5286
200.9182, 132.3853
201.4004, 133.0564
201.8825, 133.4905
202.3646, 133.6789
202.8467, 133.6434
203.3288, 133.1590
203.8109, 132.0181
204.2931, 130.3270
204.7752, 129.0329
205.2573, 128.2432
205.7394, 127.5935
206.2215, 126.5936
206.7036, 125.1090
207.1858, 124.0294
207.6679, 123.5984
208.1500, 123.7895
208.6321, 124.2720
209.1142, 125.1518
209.5963, 126.1237
210.0785, 126.7932
210.5606, 127.0096
211.0427, 127.4833
211.5248, 128.4632
212.0069, 129.9346
212.4890, 131.2427
212.9712, 132.3672
213.4533, 133.3666
213.9354, 134.2541
214.4175, 134.9681
214.8996, 135.7981
215.3817, 136.9274
215.8639, 138.3484
216.3460, 139.2477
216.8281, 139.3606
217.3102, 139.3031
217.7923, 139.7863
218.2744, 141.0086
218.7566, 142.2734
219.2387, 143.4101
219.7208, 144.4267
220.2029, 145.3917
220.6850, 146.2152
221.1671, 147.0832
221.6493, 148.1891
222.1314, 149.5919
222.6135, 151.1177
223.0956, 152.6559
223.5777, 154.2133
224.0598, 156.2060
224.5420, 159.0975
225.0241, 161.9333
225.5062, 163.6887
225.9883, 163.9632
226.4704, 163.9635
226.9525, 163.9100
227.4347, 163.8041
227.9168, 163.6304
228.3989, 163.5470
228.8810, 163.2299
229.3631, 162.2659
229.8452, 160.1946
230.3274, 158.3725
230.8095, 157.1331
231.2916, 156.5004
231.7737, 155.8043
232.2558, 155.1110
232.7379, 154.2880
233.2201, 153.1902
233.7022, 151.6941
234.1843, 150.1634
234.6664, 148.6044
235.1485, 147.0258
235.6306, 145.7300
236.1128, 144.6595
236.5949, 143.9141
237.0770, 143.6463
237.5591, 144.1857
238.0412, 144.5725
238.5233, 144.7011
239.0055, 144.5695
239.4876, 143.9545
239.9697, 142.6750
240.4518, 141.1076
240.9339, 139.5610
241.4160, 138.0202
241.8982, 136.5287
242.3803, 135.0428
242.8624, 133.5665
243.3445, 132.4546
243.8266, 131.8803
244.3087, 131.4620
244.7909, 130.8844
245.2730, 130.0644
245.7551, 129.2392
246.2372, 128.3773
246.7193, 127.4985
247.2014, 126.9132
247.6836, 126.7764
248.1657, 126.7489
248.6478, 126.5854
249.1299, 126.2573
249.6120, 125.8385
250.0941, 125.2421
250.5762, 124.5240
251.0584, 124.1551
251.5405, 124.2842
252.0226, 124.5698
252.5047, 124.8049
252.9868, 125.0521
253.4689, 125.1100
253.9511, 124.9332
254.4332, 124.5473
254.9153, 124.0800
255.3974, 123.4725
255.8795, 122.8804
256.3617, 122.4125
256.8438, 122.1049
257.3259, 121.8398
257.8080, 121.6949
258.2901, 121.5819
258.7722, 121.1363
259.2544, 120.2742
259.7365, 119.2112
260.2186, 118.0266
260.7007, 116.7038
261.1828, 115.3358
261.6649, 113.9136
262.1471, 112.4543
262.6292, 110.9264
263.1113, 109.2334
263.5934, 107.6846
264.0755, 106.4780
264.5576, 105.7107
265.0398, 104.8738
265.5219, 103.8485
266.0040, 102.8117
266.4861, 102.2183
266.9682, 102.2700
267.4503, 102.2767
267.9325, 101.8645
268.4146, 100.8802
268.8967, 100.1482
269.3788, 99.63952
269.8609, 99.41457
270.3430, 99.71976
270.8252, 100.7602
271.3073, 101.6430
271.7894, 101.8787
272.2715, 101.3746
272.7536, 101.2796
273.2357, 101.7299
273.7179, 102.3889
274.2000, 102.6639
274.6821, 102.4087
275.1642, 102.4184
275.6463, 103.0743
276.1284, 104.3775
276.6106, 105.4476
277.0927, 106.2558
277.5748, 106.8923
278.0569, 107.4546
278.5390, 107.9384
279.0211, 108.3753
279.5032, 108.7817
279.9854, 109.1499
280.4675, 109.4547
280.9496, 109.7171
281.4317, 109.8512
281.9138, 109.6834
282.3959, 109.1987
282.8781, 108.8337
283.3602, 108.7200
283.8423, 108.8102
284.3244, 108.9204
284.8065, 109.0558
285.2886, 109.1820
285.7708, 109.2702
286.2529, 109.3202
286.7350, 109.3340
287.2171, 109.2814
287.6992, 109.2122
288.1813, 109.3619
288.6635, 109.7515
289.1456, 109.9742
289.6277, 109.5876
290.1098, 108.6844
290.5919, 107.9381
291.0740, 107.5181
291.5562, 107.1977
292.0383, 106.4968
292.5204, 105.4264
293.0025, 104.3496
293.4846, 103.5471
293.9667, 102.9327
294.4489, 102.1680
294.9310, 101.1738
295.4131, 100.1483
295.8952, 99.39113
296.3773, 98.88004
296.8594, 98.44418
297.3416, 97.96700
297.8237, 97.49382
298.3058, 97.16212
298.7879, 97.00184
299.2700, 96.86897
299.7521, 96.49500
300.2343, 95.98373
300.7164, 95.68778
301.1985, 96.00687
301.6806, 96.56608
302.1627, 96.73905
302.6448, 96.48817
303.1270, 96.13015
303.6091, 95.91193
304.0912, 95.80193
304.5733, 95.72499
305.0554, 95.70520
305.5375, 95.67420
306.0197, 95.51771
306.5018, 95.24503
306.9839, 95.01174
307.4660, 94.98843
307.9481, 95.06622
308.4302, 95.09416
308.9124, 95.04554
309.3945, 94.90990
309.8766, 94.62182
310.3587, 94.21104
310.8408, 93.84709
311.3229, 93.62186
311.8051, 93.49680
312.2872, 93.43809
312.7693, 93.43253
313.2514, 93.49772
313.7335, 93.69833
314.2156, 93.98796
314.6978, 94.23313
315.1799, 94.28826
315.6620, 94.32834
316.1441, 94.49009
316.6262, 94.84327
317.1083, 95.18874
317.5905, 95.35460
318.0726, 95.46262
318.5547, 95.72942
319.0368, 96.43072
319.5189, 97.14948
320.0010, 97.66572
320.4832, 97.93013
320.9653, 98.16258
321.4474, 98.37172
321.9295, 98.60003
322.4116, 98.89738
322.8937, 99.36728
323.3759, 99.82044
323.8580, 100.2438
324.3401, 100.6382
324.8222, 100.8688
325.3043, 100.7289
325.7864, 100.5196
326.2686, 100.4731
326.7507, 100.9553
327.2328, 101.2207
327.7149, 101.0642
328.1970, 100.5310
328.6791, 100.1179
329.1613, 99.99582
329.6434, 99.86777
330.1255, 99.58229
330.6076, 98.99773
331.0897, 98.46133
331.5718, 98.03145
332.0540, 97.65147
332.5361, 97.12495
333.0182, 96.14746
333.5003, 95.41800
333.9824, 95.28893
334.4645, 96.04529
334.9467, 96.53239
335.4288, 96.71965
335.9109, 96.65638
336.3930, 96.37094
336.8751, 95.71923
337.3572, 95.17857
337.8394, 94.90601
338.3215, 94.91466
338.8036, 94.93298
339.2857, 94.94698
339.7678, 94.99528
340.2499, 95.13638
340.7321, 95.38461
341.2142, 95.63198
341.6963, 95.87594
342.1784, 96.09641
342.6605, 96.14464
343.1426, 95.97547
343.6248, 95.84132
344.1069, 95.98294
344.5890, 96.38478
345.0711, 96.75948
345.5532, 97.06902
346.0353, 97.31822
346.5175, 97.52601
346.9996, 97.69299
347.4817, 97.75902
347.9638, 97.55737
348.4459, 97.20498
348.9280, 97.18537
349.4102, 97.58992
349.8923, 98.08961
350.3744, 98.28423
350.8565, 98.21510
351.3386, 98.04171
351.8207, 97.69348
352.3029, 97.33840
352.7850, 97.29077
353.2671, 97.55733
353.7492, 97.89643
354.2313, 98.32044
354.7134, 98.64453
355.1956, 98.51461
355.6777, 97.42183
356.1598, 96.20005
356.6419, 95.68009
357.1240, 95.75661
357.6061, 95.86335
358.0883, 95.62667
358.5704, 95.26583
359.0525, 94.99553
359.5346, 94.87366
360.0167, 94.82473
360.4988, 94.83189
360.9810, 94.87939
361.4631, 94.93388
361.9452, 95.06108
362.4273, 95.12896
362.9094, 95.00508
363.3915, 94.60223
363.8737, 94.34811
364.3558, 94.53243
364.8379, 94.89104
365.3200, 95.11494
365.8021, 94.96821
366.2842, 94.84230
366.7664, 94.88319
367.2485, 95.09666
367.7306, 95.23459
368.2127, 95.11650
368.6948, 95.01077
369.1769, 95.09592
369.6591, 95.80495
370.1412, 96.17532
370.6233, 95.90500
371.1054, 95.22409
371.5875, 95.02085
372.0696, 95.60471
372.5518, 96.29189
373.0339, 96.79773
373.5160, 97.03233
373.9981, 97.35313
374.4802, 97.81603
374.9623, 98.32386
375.4445, 98.68980
375.9266, 98.83701
376.4087, 99.06969
376.8908, 99.51318
377.3729, 100.1588
377.8550, 100.6800
378.3372, 101.0475
378.8193, 101.3572
379.3014, 101.6710
379.7835, 101.9885
380.2656, 102.3781
380.7477, 102.8432
381.2299, 103.3940
381.7120, 104.1145
382.1941, 105.0018
382.6762, 105.8774
383.1583, 106.6383
383.6404, 107.2889
384.1226, 107.7802
384.6047, 108.0693
385.0868, 108.3368
385.5689, 108.8732
386.0510, 109.6047
386.5331, 110.2608
387.0153, 110.5996
387.4974, 110.8419
387.9795, 111.3421
388.4616, 112.1049
388.9437, 112.8935
389.4258, 113.4858
389.9080, 114.0021
390.3901, 114.6123
390.8722, 115.4615
391.3543, 116.3131
391.8364, 117.0239
392.3185, 117.5925
392.8007, 118.0384
393.2828, 118.2272
393.7649, 118.3873
394.2470, 118.7040
394.7291, 119.2934
395.2112, 119.7911
395.6934, 119.8465
396.1755, 119.7747
396.6576, 120.0482
397.1397, 121.2334
397.6218, 122.3490
398.1039, 122.9936
398.5861, 123.0954
399.0682, 123.3977
399.5503, 124.1498
400.0324, 125.0255
400.5145, 125.7787
400.9966, 126.3580
401.4788, 126.8933
401.9609, 127.3644
402.4430, 127.7962
402.9251, 128.2581
403.4072, 128.6170
403.8893, 129.2149
404.3714, 130.2803
404.8535, 132.0071
405.3357, 133.3710
405.8178, 134.1904
406.2999, 134.8660
406.7820, 136.0284
407.2641, 137.7749
407.7462, 139.4421
408.2284, 140.8441
408.7105, 141.9950
409.1926, 143.0809
409.6747, 144.1017
410.1568, 145.0623
410.6389, 145.9467
411.1211, 146.7623
411.6032, 147.6187
412.0853, 148.5875
412.5674, 149.5039
413.0495, 150.2573
413.5316, 150.8108
414.0138, 150.9626
414.4959, 150.4404
414.9780, 149.5084
415.4601, 148.5785
415.9422, 147.6716
416.4243, 146.6448
416.9065, 145.3672
417.3886, 143.8902
417.8707, 142.3169
418.3528, 140.6418
418.8349, 138.9026
419.3170, 137.0731
419.7992, 135.1559
420.2813, 133.2699
420.7634, 131.3804
421.2455, 129.5517
421.7276, 127.8502
422.2097, 126.3502
422.6919, 124.7845
423.1740, 122.8990
423.6561, 120.9437
424.1382, 119.2555
424.6203, 118.1114
425.1024, 117.0602
425.5846, 116.0204
426.0667, 114.9981
426.5488, 113.9142
427.0309, 112.7373
427.5130, 111.5140
427.9951, 110.2574
428.4773, 108.8914
428.9594, 107.6599
429.4415, 106.5933
429.9236, 105.6693
430.4057, 104.8236
430.8878, 104.0729
431.3700, 103.3663
431.8521, 102.6634
432.3342, 101.9648
432.8163, 101.4155
433.2984, 101.0371
433.7805, 100.7360
434.2627, 100.4480
434.7448, 100.1641
435.2269, 99.75727
435.7090, 99.07133
436.1911, 98.36481
436.6732, 98.29907
437.1554, 98.79226
437.6375, 99.19195
438.1196, 98.96690
438.6017, 98.39118
439.0838, 97.84710
439.5659, 97.34354
440.0481, 97.05959
440.5302, 97.31786
441.0123, 97.86880
441.4944, 98.29387
441.9765, 98.39320
442.4586, 98.33859
442.9408, 98.13420
443.4229, 97.81752
443.9050, 97.65268
444.3871, 97.96484
444.8692, 98.32640
445.3513, 98.42549
445.8335, 97.93960
446.3156, 97.68338
446.7977, 98.03769
447.2798, 98.67647
447.7619, 99.02199
448.2440, 98.53492
448.7262, 98.29740
449.2083, 98.63668
449.6904, 99.59111
450.1725, 100.3478
450.6546, 100.8083
451.1367, 101.1839
451.6189, 101.6376
452.1010, 102.2132
452.5831, 102.7251
453.0652, 103.1468
453.5473, 103.5162
454.0294, 103.9375
454.5116, 104.4219
454.9937, 104.8809
455.4758, 105.2767
455.9579, 105.6147
456.4400, 105.9202
456.9221, 106.1901
457.4043, 106.4741
457.8864, 106.9021
458.3685, 107.3911
458.8506, 107.7007
459.3327, 107.7242
459.8148, 107.6154
460.2970, 107.5542
460.7791, 107.5142
461.2612, 107.4097
461.7433, 107.1028
462.2254, 106.7674
462.7076, 106.5720
463.1897, 106.5398
463.6718, 106.5300
464.1539, 106.3907
464.6360, 106.2724
465.1181, 106.3285
465.6003, 106.8224
466.0824, 107.2538
466.5645, 107.4687
467.0466, 107.5129
467.5287, 107.5632
468.0108, 107.7240
468.4930, 107.8153
468.9751, 107.7739
469.4572, 107.5870
469.9393, 107.3069
470.4214, 106.8910
470.9035, 106.4205
471.3857, 105.9302
471.8678, 105.3061
472.3499, 105.0679
472.8320, 105.4887
473.3141, 106.2749
473.7962, 106.3314
474.2784, 105.5708
474.7605, 104.7193
475.2426, 104.1489
475.7247, 103.8418
476.2068, 103.7513
476.6889, 103.9048
477.1711, 104.0865
477.6532, 103.9971
478.1353, 103.7386
478.6174, 103.5977
479.0995, 103.7264
479.5816, 103.9455
480.0638, 104.0438
480.5459, 104.0544
481.0280, 104.1013
481.5101, 104.2941
481.9922, 104.5239
482.4743, 104.6515
482.9565, 104.6114
483.4386, 104.7577
483.9207, 105.5094
484.4028, 106.4034
484.8849, 106.9530
485.3670, 106.4774
485.8492, 106.2901
486.3313, 106.8505
486.8134, 107.9802
487.2955, 108.7372
487.7776, 108.7538
488.2597, 108.8267
488.7419, 109.3352
489.2240, 110.4350
489.7061, 111.1710
490.1882, 111.4106
490.6703, 111.4845
491.1524, 111.7484
491.6346, 112.2178
492.1167, 112.7810
492.5988, 113.4346
493.0809, 114.1593
493.5630, 114.9313
494.0451, 115.7518
494.5273, 116.5003
495.0094, 117.0768
495.4915, 117.5393
495.9736, 117.9975
496.4557, 118.4498
496.9378, 118.9807
497.4200, 119.7746
497.9021, 120.6664
498.3842, 121.3770
498.8663, 121.7306
499.3484, 122.0311
499.8305, 122.4788
500.3127, 123.0267
500.7948, 123.5514
501.2769, 124.2376
501.7590, 124.7022
502.2411, 124.7403
502.7232, 124.3018
503.2054, 123.7096
503.6875, 122.6612
504.1696, 121.6995
504.6517, 121.2639
505.1338, 121.8699
505.6159, 122.0714
506.0981, 121.5768
506.5802, 120.7222
507.0623, 120.3507
507.5444, 120.6528
508.0265, 120.8035
508.5086, 120.4200
508.9908, 119.5883
509.4729, 118.9811
509.9550, 118.5959
510.4371, 118.4587
510.9192, 118.7409
511.4013, 119.3235
511.8835, 119.7142
512.3655, 119.7943
512.8477, 119.8243
513.3298, 120.1599
513.8119, 120.6855
514.2940, 121.1245
514.7761, 121.3145
515.2582, 121.4000
515.7404, 121.3877
516.2225, 121.3195
516.7046, 121.4755
517.1867, 122.1990
517.6688, 123.0365
518.1509, 123.6933
518.6331, 124.0686
519.1152, 124.4069
519.5973, 124.8916
520.0794, 125.2939
520.5615, 125.3195
521.0436, 124.7136
521.5258, 124.1217
522.0079, 123.6509
522.4900, 123.2704
522.9721, 122.8482
523.4542, 122.4160
523.9363, 121.8731
524.4185, 121.1361
524.9006, 120.2036
525.3827, 119.3442
525.8648, 118.5908
526.3469, 117.7362
526.8290, 116.3716
527.3112, 114.6763
527.7933, 113.3455
528.2754, 112.6370
528.7575, 112.1696
529.2396, 111.5846
529.7217, 110.8677
530.2039, 109.9907
530.6860, 108.6476
531.1681, 107.3501
531.6502, 106.4981
532.1323, 106.0977
532.6144, 105.7177
533.0966, 105.1896
533.5787, 104.6127
534.0608, 104.0624
534.5429, 103.7278
535.0250, 103.1265
535.5071, 101.9433
535.9893, 100.5822
536.4714, 99.67004
536.9535, 99.44515
537.4356, 99.21684
537.9177, 98.86049
538.3998, 98.38129
538.8820, 97.80630
539.3641, 97.12570
539.8462, 96.43193
540.3283, 95.71753
540.8104, 95.01891
541.2925, 94.64292
541.7747, 94.64481
542.2568, 94.70235
542.7389, 94.31736
543.2210, 93.72599
543.7031, 93.54436
544.1852, 94.22649
544.6674, 94.91943
545.1495, 94.71998
545.6316, 93.90830
546.1137, 93.18352
546.5958, 92.88719
547.0779, 92.73991
547.5601, 92.64524
548.0422, 92.59821
548.5243, 92.46867
549.0064, 92.07858
549.4885, 91.70433
549.9706, 91.52456
550.4528, 91.68006
550.9349, 91.76469
551.4170, 91.76897
551.8991, 91.70939
552.3812, 91.57632
552.8633, 91.31771
553.3455, 91.21144
553.8276, 91.38709
554.3097, 91.72632
554.7918, 91.81050
555.2739, 91.63912
555.7560, 91.48180
556.2382, 91.60297
556.7203, 91.83788
557.2024, 91.05160
557.6845, 91.96155
558.1666, 92.46054
558.6487, 92.57068
559.1309, 91.12724
559.6130, 91.68991
560.0951, 91.44862
560.5772, 91.17437
561.0593, 92.01939
561.5414, 90.80193
562.0236, 91.62920
562.5057, 91.64024
562.9878, 92.02486
563.4699, 91.60056
563.9520, 91.42609
564.4341, 92.06082
564.9163, 92.24749
565.3984, 91.73006
565.8805, 92.13843
566.3626, 90.89269
566.8447, 91.09845
567.3268, 91.93047
567.8090, 91.45370
568.2911, 91.87685
568.7732, 91.95728
569.2553, 90.48011
569.7374, 91.71173
570.2195, 91.77190
570.7017, 90.62922
571.1838, 91.76804
571.6659, 91.10598
572.1480, 91.34242
572.6301, 91.48832
573.1122, 91.30891
573.5944, 90.84693
574.0765, 90.49055
574.5586, 90.52603
575.0407, 90.63546
575.5228, 90.59016
576.0049, 90.22210
576.4871, 90.10574
576.9692, 90.52374
577.4513, 91.06053
577.9334, 91.32645
578.4155, 91.19699
578.8976, 91.07455
579.3798, 90.98763
579.8619, 90.94930
580.3440, 91.02063
580.8261, 91.21291
581.3082, 91.37241
581.7903, 91.42348
582.2725, 91.39706
582.7546, 91.39364
583.2367, 91.40867
583.7188, 91.37679
584.2009, 91.14418
584.6830, 90.88022
585.1652, 90.85114
585.6473, 91.12940
586.1294, 91.37373
586.6115, 91.32022
587.0936, 91.15653
587.5757, 91.08045
588.0579, 91.18485
588.5400, 91.32840
589.0221, 91.51291
589.5042, 91.71655
589.9863, 91.89784
590.4684, 92.11246
590.9506, 92.20338
591.4327, 92.07375
591.9148, 91.76367
592.3969, 91.63381
592.8790, 91.70420
593.3611, 91.87170
593.8433, 92.12440
594.3254, 92.43160
594.8075, 92.64861
595.2896, 92.76961
595.7717, 92.81112
596.2538, 92.75279
596.7360, 92.63480
597.2181, 92.51985
597.7002, 92.40537
598.1823, 92.34498
598.6644, 92.37947
599.1465, 92.49254
599.6287, 92.65674
600.1108, 92.92737
600.5929, 93.17866
601.0750, 93.44254
601.5571, 93.68290
602.0392, 93.64429
602.5214, 92.98741
603.0035, 92.50753
603.4856, 92.59203
603.9677, 93.29498
604.4498, 93.79468
604.9319, 94.07113
605.4141, 94.21500
605.8962, 94.22789
606.3783, 94.14632
606.8604, 94.25752
607.3425, 94.63950
607.8246, 95.04453
608.3068, 95.11894
608.7889, 94.99414
609.2710, 94.94737
609.7531, 95.05656
610.2352, 95.30167
610.7173, 95.88067
611.1995, 96.60307
611.6816, 96.95766
612.1637, 96.33509
612.6458, 95.74883
613.1279, 95.60477
613.6100, 95.93647
614.0922, 96.27456
614.5743, 96.67966
615.0564, 97.01803
615.5385, 97.19478
616.0206, 97.17409
616.5027, 97.21011
616.9849, 97.30482
617.4670, 97.45109
617.9491, 97.57224
618.4312, 97.71262
618.9133, 97.63188
619.3954, 98.10736
619.8776, 98.39460
620.3597, 98.49850
620.8418, 98.15443
621.3239, 98.17137
621.8060, 97.91070
622.2881, 97.54767
622.7703, 97.34397
623.2524, 97.38232
623.7345, 97.08613
624.2166, 96.57185
624.6987, 96.17880
625.1808, 96.09620
625.6630, 96.35140
626.1451, 96.46180
626.6272, 96.38180
627.1093, 96.22947
627.5914, 96.03300
628.0735, 95.77422
628.5557, 95.79202
629.0378, 96.16759
629.5199, 96.57145
630.0020, 96.52116
630.4841, 96.17107
630.9662, 96.04353
631.4484, 96.39291
631.9305, 96.74886
632.4126, 96.53365
632.8947, 96.00031
633.3768, 95.65288
