##NAMES=Agardite-(Y)
##RRUFFID=R060711
##IDEAL CHEMISTRY=Cu^2+^_6_Y^3+^(As^5+^O_4_)_3_(OH)_6_&#183;3H_2_O
##LOCALITY=Brumado, Bahia, Brazil
##OWNER=RRUFF
##SOURCE=Bob Jenkins
##DESCRIPTION=Mass of pale green fibers
##STATUS=The identification of this mineral has been confirmed by X-ray diffraction and chemical analysis
##URL=rruff.info/R060711
##MEASURED CHEMISTRY=(Cu_5.73_Fe_0.04_)_Σ=5.77_(Y_0.32_Gd_0.10_Nd_0.03_Sm_0.08_Ca_0.39_)_Σ=0.92_[(AsO_4_)_0.79_(PO_4_)_0.06_(SiO_4_)_0.01_]_3_(OH)_6_·4.58H_2_O
162.507, 2514.083
162.990, 2541.891
163.472, 2552.056
163.954, 2568.532
164.436, 2596.433
164.918, 2628.542
165.400, 2658.485
165.882, 2685.052
166.364, 2710.530
166.846, 2739.074
167.329, 2772.165
167.811, 2796.186
168.293, 2802.627
168.775, 2802.691
169.257, 2808.635
169.739, 2822.959
170.221, 2840.022
170.703, 2854.376
171.185, 2866.333
171.668, 2873.666
172.150, 2875.410
172.632, 2872.628
173.114, 2864.780
173.596, 2850.995
174.078, 2837.314
174.560, 2831.313
175.042, 2832.772
175.525, 2837.064
176.007, 2845.553
176.489, 2855.656
176.971, 2863.813
177.453, 2869.353
177.935, 2873.116
178.417, 2874.542
178.899, 2873.562
179.381, 2876.142
179.863, 2882.943
180.346, 2894.369
180.828, 2913.687
181.310, 2943.574
181.792, 2973.177
182.274, 2969.447
182.756, 2934.512
183.238, 2930.573
183.721, 2951.753
184.203, 2966.835
184.685, 2976.146
185.167, 2962.406
185.649, 2978.433
186.131, 2982.532
186.613, 2986.140
187.095, 3006.357
187.577, 2995.969
188.059, 3014.293
188.542, 3007.127
189.024, 3003.683
189.506, 3002.555
189.988, 3002.688
190.470, 3003.928
190.952, 3006.219
191.434, 3013.428
191.917, 3020.848
192.399, 3019.094
192.881, 3005.015
193.363, 2987.484
193.845, 2974.989
194.327, 2966.632
194.809, 2959.591
195.291, 2950.944
195.773, 2943.523
196.255, 2943.897
196.738, 2954.963
197.220, 2966.834
197.702, 2968.689
198.184, 2962.770
198.666, 2957.063
199.148, 2954.677
199.630, 2953.792
200.112, 2950.854
200.595, 2944.725
201.077, 2939.392
201.559, 2941.748
202.041, 2949.091
202.523, 2950.874
203.005, 2940.828
203.487, 2924.550
203.969, 2909.422
204.452, 2895.755
204.934, 2884.446
205.416, 2874.302
205.898, 2866.455
206.380, 2867.377
206.862, 2882.440
207.344, 2905.671
207.826, 2931.279
208.308, 2960.003
208.790, 2984.528
209.273, 2992.496
209.755, 2990.371
210.237, 2998.828
210.719, 3027.290
211.201, 3065.876
211.683, 3103.195
212.165, 3138.364
212.648, 3175.724
213.130, 3222.971
213.612, 3274.910
214.094, 3315.351
214.576, 3336.481
215.058, 3348.188
215.540, 3358.816
216.022, 3368.418
216.504, 3379.536
216.986, 3398.598
217.469, 3419.870
217.951, 3427.473
218.433, 3410.387
218.915, 3386.001
219.397, 3371.240
219.879, 3365.488
220.361, 3353.313
220.844, 3323.140
221.326, 3279.997
221.808, 3240.740
222.290, 3203.690
222.772, 3172.508
223.254, 3152.862
223.736, 3143.246
224.218, 3132.859
224.700, 3115.672
225.182, 3094.174
225.665, 3076.002
226.147, 3061.146
226.629, 3049.271
227.111, 3041.994
227.593, 3038.073
228.075, 3031.730
228.557, 3018.101
229.039, 3002.848
229.522, 3000.298
230.004, 3019.033
230.486, 3033.318
230.968, 3030.767
231.450, 3014.946
231.932, 2992.043
232.414, 2960.047
232.896, 2929.567
233.378, 2927.337
233.861, 2967.737
234.343, 2993.593
234.825, 2975.278
235.307, 2932.084
235.789, 2898.596
236.271, 2885.658
236.753, 2884.634
237.235, 2882.772
237.717, 2881.688
238.200, 2875.072
238.682, 2851.158
239.164, 2824.733
239.646, 2819.994
240.128, 2844.003
240.610, 2873.496
241.092, 2876.200
241.574, 2844.072
242.057, 2815.372
242.539, 2789.087
243.021, 2769.632
243.503, 2764.839
243.985, 2775.109
244.467, 2788.305
244.949, 2791.720
245.431, 2783.077
245.913, 2772.412
246.396, 2757.257
246.878, 2741.983
247.360, 2728.409
247.842, 2717.221
248.324, 2710.445
248.806, 2710.248
249.288, 2717.280
249.770, 2724.317
250.253, 2732.629
250.735, 2739.740
251.217, 2717.793
251.699, 2710.195
252.181, 2738.128
252.663, 2757.438
253.145, 2768.585
253.627, 2747.125
254.109, 2767.770
254.592, 2771.542
255.074, 2774.621
255.556, 2801.194
256.038, 2784.477
256.520, 2810.675
257.002, 2816.605
257.484, 2810.928
257.966, 2811.176
258.449, 2809.386
258.931, 2800.435
259.413, 2790.455
259.895, 2786.878
260.377, 2792.931
260.859, 2806.279
261.341, 2821.982
261.823, 2845.854
262.306, 2862.893
262.788, 2870.156
263.270, 2872.357
263.752, 2871.952
264.234, 2870.150
264.716, 2869.130
265.198, 2872.363
265.680, 2881.195
266.162, 2891.377
266.645, 2908.832
267.127, 2922.935
267.609, 2920.406
268.091, 2903.970
268.573, 2893.690
269.055, 2918.426
269.537, 2988.527
270.019, 3029.910
270.501, 3003.888
270.984, 2980.994
271.466, 2990.158
271.948, 3026.210
272.430, 3066.695
272.912, 3095.127
273.394, 3112.583
273.876, 3131.880
274.358, 3153.641
274.841, 3176.365
275.323, 3194.020
275.805, 3212.482
276.287, 3240.545
276.769, 3277.901
277.251, 3287.310
277.733, 3312.703
278.215, 3334.221
278.698, 3352.063
279.180, 3355.237
279.662, 3377.352
280.144, 3391.876
280.626, 3406.089
281.108, 3430.873
281.590, 3436.181
282.072, 3460.794
282.554, 3477.701
283.036, 3498.135
283.519, 3509.353
284.001, 3505.796
284.483, 3502.083
284.965, 3490.700
285.447, 3459.681
285.929, 3413.560
286.411, 3377.678
286.893, 3362.099
287.376, 3353.290
287.858, 3335.264
288.340, 3308.125
288.822, 3279.685
289.304, 3252.275
289.786, 3225.946
290.268, 3198.773
290.750, 3169.495
291.233, 3145.500
291.715, 3139.314
292.197, 3149.418
292.679, 3147.946
293.161, 3125.462
293.643, 3093.641
294.125, 3059.257
294.607, 3023.622
295.089, 2992.308
295.572, 2969.300
296.054, 2954.640
296.536, 2944.181
297.018, 2940.864
297.500, 2938.196
297.982, 2936.377
298.464, 2933.058
298.946, 2921.606
299.428, 2897.456
299.911, 2865.613
300.393, 2842.518
300.875, 2830.876
301.357, 2824.450
301.839, 2827.223
302.321, 2832.982
302.803, 2833.416
303.285, 2826.050
303.767, 2816.991
304.250, 2816.829
304.732, 2833.302
305.214, 2842.865
305.696, 2843.403
306.178, 2839.749
306.660, 2833.675
307.142, 2826.196
307.625, 2818.731
308.107, 2812.321
308.589, 2806.706
309.071, 2804.662
309.553, 2812.113
310.035, 2817.535
310.517, 2813.704
310.999, 2805.203
311.481, 2801.990
311.964, 2811.772
312.446, 2830.574
312.928, 2842.385
313.410, 2844.328
313.892, 2843.990
314.374, 2838.873
314.856, 2834.929
315.338, 2841.435
315.820, 2863.631
316.303, 2887.353
316.785, 2890.564
317.267, 2870.183
317.749, 2851.780
318.231, 2838.006
318.713, 2832.130
319.195, 2840.383
319.677, 2863.639
320.159, 2884.779
320.642, 2888.431
321.124, 2879.428
321.606, 2877.898
322.088, 2891.302
322.570, 2903.325
323.052, 2891.169
323.534, 2860.681
324.016, 2843.784
324.499, 2864.716
324.981, 2895.635
325.463, 2901.205
325.945, 2879.675
326.427, 2854.999
326.909, 2844.452
327.391, 2844.429
327.873, 2833.522
328.355, 2796.560
328.838, 2764.544
329.320, 2755.421
329.802, 2762.208
330.284, 2769.694
330.766, 2771.813
331.248, 2768.775
331.730, 2760.646
332.212, 2742.177
332.694, 2726.930
333.177, 2717.198
333.659, 2710.315
334.141, 2704.733
334.623, 2699.734
335.105, 2693.656
335.587, 2684.052
336.069, 2669.523
336.552, 2657.565
337.034, 2641.633
337.516, 2634.032
337.998, 2650.001
338.480, 2679.550
338.962, 2697.630
339.444, 2684.677
339.926, 2646.671
340.408, 2619.049
340.891, 2602.202
341.373, 2596.176
341.855, 2608.434
342.337, 2626.813
342.819, 2637.481
343.301, 2635.175
343.783, 2626.696
344.265, 2620.797
344.747, 2617.501
345.230, 2616.550
345.712, 2619.465
346.194, 2623.501
346.676, 2627.935
347.158, 2632.460
347.640, 2633.286
348.122, 2622.988
348.604, 2607.143
349.086, 2604.416
349.569, 2621.233
350.051, 2636.659
350.533, 2626.693
351.015, 2600.235
351.497, 2587.747
351.979, 2613.671
352.461, 2641.028
352.944, 2633.281
353.426, 2596.416
353.908, 2565.831
354.390, 2561.681
354.872, 2574.665
355.354, 2574.791
355.836, 2549.284
356.318, 2533.598
356.800, 2544.084
357.283, 2565.447
357.765, 2578.302
358.247, 2577.685
358.729, 2571.545
359.211, 2570.371
359.693, 2576.469
360.175, 2579.900
360.657, 2576.865
361.139, 2575.036
361.622, 2579.996
362.104, 2589.825
362.586, 2598.656
363.068, 2602.414
363.550, 2601.552
364.032, 2598.343
364.514, 2587.847
364.996, 2582.593
365.478, 2588.596
365.961, 2598.983
366.443, 2605.935
366.925, 2606.770
367.407, 2606.599
367.889, 2612.316
368.371, 2624.334
368.853, 2637.464
369.335, 2653.124
369.818, 2667.318
370.300, 2677.441
370.782, 2683.591
371.264, 2686.764
371.746, 2682.804
372.228, 2677.475
372.710, 2684.221
373.192, 2705.669
373.674, 2725.321
374.157, 2729.784
374.639, 2723.763
375.121, 2725.323
375.603, 2742.610
376.085, 2759.631
376.567, 2765.048
377.049, 2763.853
377.531, 2768.701
378.013, 2784.978
378.496, 2806.228
378.978, 2820.906
379.460, 2825.490
379.942, 2829.803
380.424, 2834.540
380.906, 2838.616
381.388, 2839.985
381.871, 2839.370
382.353, 2839.989
382.835, 2844.272
383.317, 2852.279
383.799, 2865.624
384.281, 2895.446
384.763, 2918.060
385.245, 2921.894
385.727, 2918.106
386.210, 2922.669
386.692, 2942.568
387.174, 2966.909
387.656, 2975.567
388.138, 2964.551
388.620, 2960.624
389.102, 2970.236
389.584, 2987.480
390.066, 3009.078
390.549, 3034.785
391.031, 3063.419
391.513, 3102.433
391.995, 3142.356
392.477, 3159.565
392.959, 3149.554
393.441, 3136.753
393.923, 3135.860
394.405, 3144.811
394.888, 3155.121
395.370, 3173.560
395.852, 3185.009
396.334, 3177.955
396.816, 3158.306
397.298, 3137.021
397.780, 3117.309
398.262, 3101.776
398.745, 3095.094
399.227, 3102.552
399.709, 3106.769
400.191, 3107.308
400.673, 3105.109
401.155, 3101.983
401.637, 3096.930
402.119, 3086.030
402.602, 3065.514
403.084, 3037.188
403.566, 3013.905
404.048, 2996.748
404.530, 2983.331
405.012, 2976.122
405.494, 2970.458
405.976, 2961.324
406.458, 2947.294
406.940, 2931.981
407.423, 2919.866
407.905, 2910.859
408.387, 2899.784
408.869, 2883.451
409.351, 2868.799
409.833, 2861.622
410.315, 2860.457
410.797, 2860.338
411.280, 2858.360
411.762, 2857.376
412.244, 2860.661
412.726, 2868.009
413.208, 2878.322
413.690, 2893.091
414.172, 2908.355
414.654, 2911.730
415.137, 2894.246
415.619, 2884.500
416.101, 2894.192
416.583, 2910.606
417.065, 2919.051
417.547, 2918.048
418.029, 2918.594
418.511, 2933.140
418.993, 2963.167
419.476, 2981.271
419.958, 2970.372
420.440, 2966.067
420.922, 2982.435
421.404, 3009.056
421.886, 3030.272
422.368, 3039.445
422.850, 3044.236
423.332, 3059.997
423.815, 3089.965
424.297, 3107.516
424.779, 3101.264
425.261, 3087.644
425.743, 3074.907
426.225, 3064.330
426.707, 3061.495
427.189, 3072.024
427.672, 3090.489
428.154, 3114.099
428.636, 3142.790
429.118, 3156.439
429.600, 3139.334
430.082, 3101.828
430.564, 3075.548
431.046, 3064.450
431.529, 3056.148
432.011, 3048.937
432.493, 3041.995
432.975, 3033.092
433.457, 3022.332
433.939, 3014.260
434.421, 3014.845
434.903, 3025.712
435.385, 3028.398
435.867, 3012.828
436.350, 3000.037
436.832, 3002.381
437.314, 3009.175
437.796, 3002.303
438.278, 2973.208
438.760, 2937.083
439.242, 2920.398
439.724, 2926.045
440.207, 2926.569
440.689, 2911.752
441.171, 2896.667
441.653, 2891.433
442.135, 2895.496
442.617, 2905.135
443.099, 2927.210
443.581, 2949.326
444.064, 2952.669
444.546, 2938.091
445.028, 2922.586
445.510, 2913.417
445.992, 2910.199
446.474, 2913.498
446.956, 2930.464
447.438, 2939.460
447.920, 2928.616
448.403, 2913.378
448.885, 2909.862
449.367, 2919.060
449.849, 2930.129
450.331, 2932.652
450.813, 2927.186
451.295, 2929.259
451.777, 2940.574
452.259, 2958.210
452.742, 2991.315
453.224, 3025.451
453.706, 3042.801
454.188, 3037.669
454.670, 3026.489
455.152, 3029.993
455.634, 3046.167
456.116, 3049.719
456.599, 3030.386
457.081, 3011.466
457.563, 3013.835
458.045, 3031.689
458.527, 3049.571
459.009, 3064.203
459.491, 3077.985
459.973, 3092.630
460.456, 3107.729
460.938, 3121.959
461.420, 3134.518
461.902, 3147.244
462.384, 3162.861
462.866, 3181.319
463.348, 3203.322
463.830, 3235.298
464.312, 3264.674
464.795, 3281.545
465.277, 3289.860
465.759, 3300.252
466.241, 3319.285
466.723, 3344.304
467.205, 3368.290
467.687, 3390.739
468.169, 3413.884
468.651, 3441.328
469.134, 3467.236
469.616, 3486.853
470.098, 3500.075
470.580, 3511.807
471.062, 3516.920
471.544, 3525.264
472.026, 3560.355
472.508, 3622.864
472.991, 3675.451
473.473, 3692.547
473.955, 3686.667
474.437, 3700.615
474.919, 3749.030
475.401, 3789.233
475.883, 3811.728
476.365, 3823.931
476.848, 3830.885
477.330, 3834.552
477.812, 3838.548
478.294, 3847.994
478.776, 3861.477
479.258, 3856.500
479.740, 3816.393
480.222, 3782.564
480.704, 3776.284
481.186, 3774.781
481.669, 3752.742
482.151, 3704.158
482.633, 3649.019
483.115, 3602.922
483.597, 3564.528
484.079, 3527.271
484.561, 3489.610
485.043, 3457.982
485.526, 3441.344
486.008, 3435.462
486.490, 3418.771
486.972, 3384.192
487.454, 3346.412
487.936, 3308.051
488.418, 3271.038
488.900, 3237.414
489.383, 3207.913
489.865, 3184.159
490.347, 3169.292
490.829, 3165.049
491.311, 3153.734
491.793, 3122.447
492.275, 3098.359
492.757, 3096.879
493.239, 3103.517
493.722, 3097.176
494.204, 3069.887
494.686, 3036.565
495.168, 3013.024
495.650, 2998.365
496.132, 2985.521
496.614, 2973.888
497.096, 2963.107
497.578, 2952.748
498.061, 2942.983
498.543, 2934.937
499.025, 2931.292
499.507, 2926.707
499.989, 2918.066
500.471, 2906.697
500.953, 2895.005
501.435, 2883.751
501.918, 2872.237
502.400, 2859.191
502.882, 2843.673
503.364, 2831.763
503.846, 2824.472
504.328, 2819.961
504.810, 2817.670
505.292, 2817.908
505.775, 2822.760
506.257, 2833.997
506.739, 2843.758
507.221, 2841.599
507.703, 2828.622
508.185, 2815.361
508.667, 2804.734
509.149, 2790.763
509.631, 2759.790
510.113, 2717.661
510.596, 2701.106
511.078, 2741.185
511.560, 2778.281
512.042, 2776.339
512.524, 2752.462
513.006, 2736.650
513.488, 2738.126
513.971, 2746.056
514.453, 2743.910
514.935, 2726.593
515.417, 2731.910
515.899, 2700.970
516.381, 2742.785
516.863, 2766.939
517.345, 2774.382
517.827, 2715.061
518.310, 2741.952
518.792, 2734.293
519.274, 2725.217
519.756, 2745.218
520.238, 2739.842
520.720, 2743.321
521.202, 2750.128
521.684, 2758.626
522.166, 2767.285
522.649, 2765.572
523.131, 2744.032
523.613, 2723.135
524.095, 2708.967
524.577, 2700.203
525.059, 2693.111
525.541, 2687.606
526.023, 2688.916
526.505, 2698.698
526.988, 2716.423
527.470, 2679.187
527.952, 2721.098
528.434, 2743.795
528.916, 2748.314
529.398, 2680.203
529.880, 2705.878
530.362, 2693.968
530.844, 2680.516
531.327, 2698.696
531.809, 2694.060
532.291, 2710.436
532.773, 2749.598
533.255, 2777.177
533.737, 2764.725
534.219, 2721.996
534.701, 2702.127
535.184, 2722.744
535.666, 2740.638
536.148, 2754.966
536.630, 2761.610
537.112, 2750.632
537.594, 2725.676
538.076, 2706.234
538.558, 2710.110
539.041, 2730.673
539.523, 2741.914
540.005, 2743.260
540.487, 2736.709
540.969, 2716.415
541.451, 2693.073
541.933, 2679.333
542.415, 2676.085
542.898, 2670.426
543.380, 2647.755
543.862, 2627.448
544.344, 2637.031
544.826, 2669.397
545.308, 2689.087
545.790, 2676.919
546.272, 2647.147
546.754, 2632.564
547.237, 2647.037
547.719, 2647.784
548.201, 2619.706
548.683, 2593.614
549.165, 2588.948
549.647, 2598.079
550.129, 2600.346
550.611, 2582.838
551.093, 2561.973
551.576, 2561.834
552.058, 2579.937
552.540, 2596.533
553.022, 2607.937
553.504, 2614.547
553.986, 2616.192
554.468, 2612.563
554.950, 2607.319
555.432, 2596.312
555.915, 2588.375
556.397, 2588.131
556.879, 2592.520
557.361, 2599.388
557.843, 2607.293
558.325, 2611.451
558.807, 2604.454
559.289, 2586.777
559.771, 2577.079
560.254, 2580.878
560.736, 2581.702
561.218, 2564.564
561.700, 2544.337
562.182, 2540.014
562.664, 2556.519
563.146, 2572.527
563.628, 2578.341
564.111, 2577.232
564.593, 2573.743
565.075, 2567.792
565.557, 2554.570
566.039, 2529.395
566.521, 2498.867
567.003, 2483.727
567.485, 2493.854
567.968, 2501.611
568.450, 2504.609
568.932, 2506.593
569.414, 2507.159
569.896, 2508.475
570.378, 2517.332
570.860, 2543.701
571.342, 2567.996
571.825, 2554.785
572.307, 2511.308
572.789, 2487.677
573.271, 2500.136
573.753, 2522.348
574.235, 2526.510
574.717, 2511.293
575.199, 2505.139
575.681, 2519.171
576.164, 2528.692
576.646, 2521.931
577.128, 2508.029
577.610, 2496.045
578.092, 2489.107
578.574, 2488.743
579.056, 2500.172
579.538, 2520.558
580.020, 2529.269
580.503, 2522.781
580.985, 2516.900
581.467, 2520.375
581.949, 2526.814
582.431, 2525.063
582.913, 2512.589
583.395, 2504.802
583.877, 2511.748
584.359, 2520.622
584.842, 2518.493
585.324, 2508.384
585.806, 2501.788
586.288, 2504.642
586.770, 2512.648
587.252, 2518.973
587.734, 2525.806
588.216, 2520.986
588.698, 2488.652
589.181, 2462.845
589.663, 2463.413
590.145, 2481.404
590.627, 2500.612
591.109, 2520.584
591.591, 2532.471
592.073, 2523.825
592.555, 2504.871
593.038, 2493.231
593.520, 2491.682
594.002, 2496.613
594.484, 2506.616
594.966, 2519.625
595.448, 2522.906
595.930, 2506.848
596.412, 2496.588
596.894, 2496.525
597.377, 2500.794
597.859, 2508.079
598.341, 2516.458
598.823, 2520.442
599.305, 2516.315
599.787, 2507.184
600.269, 2492.141
600.752, 2474.145
601.234, 2470.863
601.716, 2489.635
602.198, 2512.182
602.680, 2517.266
603.162, 2503.260
603.644, 2494.016
604.126, 2496.109
604.608, 2494.588
605.091, 2480.979
605.573, 2464.666
606.055, 2457.677
606.537, 2461.224
607.019, 2463.336
607.501, 2447.705
607.983, 2424.082
608.465, 2424.442
608.947, 2450.081
609.430, 2462.537
609.912, 2439.632
610.394, 2405.912
610.876, 2403.569
611.358, 2445.791
611.840, 2468.604
612.322, 2456.171
612.804, 2438.979
613.286, 2430.367
613.769, 2427.371
614.251, 2423.682
614.733, 2417.123
615.215, 2409.754
615.697, 2402.865
616.179, 2396.914
616.661, 2395.854
617.143, 2400.943
617.625, 2405.750
618.108, 2404.609
618.590, 2402.458
619.072, 2411.912
619.554, 2439.014
620.036, 2458.735
620.518, 2468.577
621.000, 2468.385
621.482, 2451.797
621.965, 2425.490
622.447, 2403.049
622.929, 2390.762
623.411, 2386.442
623.893, 2389.012
624.375, 2398.424
624.857, 2404.025
625.339, 2404.172
625.821, 2402.486
626.304, 2401.589
626.786, 2400.327
627.268, 2395.118
627.750, 2380.914
628.232, 2373.222
628.714, 2384.639
629.196, 2397.897
629.679, 2394.491
630.161, 2378.134
630.643, 2365.954
631.125, 2367.930
631.607, 2377.440
632.089, 2381.742
632.571, 2380.505
633.053, 2378.992
633.535, 2379.622
634.018, 2376.487
634.500, 2357.181
634.982, 2331.211
635.464, 2327.355
635.946, 2367.654
636.428, 2396.429
636.910, 2381.904
637.392, 2356.258
637.875, 2354.800
638.357, 2375.489
638.839, 2392.414
639.321, 2388.199
639.803, 2373.040
640.285, 2371.530
640.767, 2385.588
641.249, 2395.541
641.731, 2398.241
642.214, 2396.984
642.696, 2393.978
643.178, 2388.991
643.660, 2380.808
644.142, 2363.580
644.624, 2351.529
645.106, 2356.229
645.588, 2364.122
646.070, 2355.434
646.553, 2333.999
647.035, 2325.175
647.517, 2348.636
647.999, 2387.480
648.481, 2401.092
648.963, 2387.130
649.445, 2371.459
649.927, 2353.616
650.409, 2343.180
650.892, 2355.443
651.374, 2382.785
651.856, 2392.658
652.338, 2363.002
652.820, 2343.287
653.302, 2360.031
653.784, 2385.464
654.266, 2388.818
654.748, 2372.184
655.231, 2360.025
655.713, 2369.541
656.195, 2389.190
656.677, 2393.282
657.159, 2381.128
657.641, 2374.647
658.123, 2379.702
658.606, 2385.605
659.088, 2381.622
659.570, 2370.868
660.052, 2370.651
660.534, 2393.806
661.016, 2409.765
661.498, 2406.693
661.980, 2398.192
662.462, 2374.278
662.945, 2354.034
663.427, 2339.400
663.909, 2360.294
664.391, 2372.564
664.873, 2376.674
665.355, 2348.180
665.837, 2361.786
666.319, 2358.521
666.802, 2354.563
667.284, 2374.095
667.766, 2366.002
668.248, 2373.120
668.730, 2366.771
669.212, 2364.820
669.694, 2375.730
670.176, 2385.386
670.658, 2380.807
671.141, 2366.609
671.623, 2355.384
672.105, 2352.267
672.587, 2357.384
673.069, 2376.647
673.551, 2404.833
674.033, 2421.260
674.515, 2423.041
674.997, 2419.243
675.480, 2415.475
675.962, 2410.848
676.444, 2402.263
676.926, 2383.589
677.408, 2371.579
677.890, 2367.823
678.372, 2368.588
678.854, 2374.821
679.336, 2383.548
679.819, 2389.119
680.301, 2388.982
680.783, 2389.319
681.265, 2399.647
681.747, 2412.193
682.229, 2410.414
682.711, 2394.600
683.193, 2377.073
683.675, 2363.499
684.158, 2356.698
