##NAMES=Agardite-(Y)
##RRUFFID=R060711
##IDEAL CHEMISTRY=Cu^2+^_6_Y^3+^(As^5+^O_4_)_3_(OH)_6_&#183;3H_2_O
##LOCALITY=Brumado, Bahia, Brazil
##OWNER=RRUFF
##SOURCE=Bob Jenkins
##DESCRIPTION=Mass of pale green fibers
##STATUS=The identification of this mineral has been confirmed by X-ray diffraction and chemical analysis
##URL=rruff.info/R060711
##MEASURED CHEMISTRY=(Cu_5.73_Fe_0.04_)_Σ=5.77_(Y_0.32_Gd_0.10_Nd_0.03_Sm_0.08_Ca_0.39_)_Σ=0.92_[(AsO_4_)_0.79_(PO_4_)_0.06_(SiO_4_)_0.01_]_3_(OH)_6_·4.58H_2_O
115.255, 6361.107
115.737, 6552.934
116.219, 6756.825
116.702, 6972.526
117.184, 7160.459
117.666, 7311.899
118.148, 7426.931
118.630, 7505.133
119.112, 7532.427
119.594, 7533.272
120.076, 7519.890
120.559, 7492.077
121.041, 7456.188
121.523, 7414.110
122.005, 7366.292
122.487, 7314.421
122.969, 7255.307
123.451, 7193.703
123.933, 7134.145
124.415, 7076.061
124.898, 7023.248
125.380, 6976.271
125.862, 6936.505
126.344, 6910.758
126.826, 6904.557
127.308, 6916.153
127.790, 6942.993
128.272, 6988.701
128.755, 7045.855
129.237, 7101.479
129.719, 7155.457
130.201, 7211.760
130.683, 7270.260
131.165, 7332.122
131.647, 7408.436
132.129, 7507.295
132.611, 7624.013
133.094, 7740.449
133.576, 7858.483
134.058, 7969.853
134.540, 8059.371
135.022, 8126.783
135.504, 8186.500
135.986, 8250.264
136.468, 8318.246
136.951, 8363.307
137.433, 8384.273
137.915, 8382.535
138.397, 8359.820
138.879, 8313.609
139.361, 8253.688
139.843, 8180.730
140.325, 8088.983
140.807, 8007.299
141.290, 7939.315
141.772, 7883.680
142.254, 7826.607
142.736, 7759.335
143.218, 7703.912
143.700, 7678.041
144.182, 7693.285
144.664, 7715.195
145.146, 7739.609
145.629, 7766.610
146.111, 7792.774
146.593, 7809.717
147.075, 7831.017
147.557, 7870.821
148.039, 7947.450
148.521, 8020.397
149.003, 8080.020
149.486, 8120.154
149.968, 8166.554
150.450, 8223.475
150.932, 8286.647
151.414, 8348.938
151.896, 8412.845
152.378, 8475.888
152.860, 8538.296
153.342, 8605.251
153.824, 8664.641
154.307, 8704.650
154.789, 8736.793
155.271, 8786.441
155.753, 8873.333
156.235, 8967.445
156.717, 9054.598
157.199, 9132.416
157.682, 9204.688
158.164, 9264.487
158.646, 9316.114
159.128, 9379.662
159.610, 9462.482
160.092, 9557.196
160.574, 9657.577
161.056, 9766.335
161.538, 9875.404
162.020, 9984.789
162.503, 10093.420
162.985, 10192.930
163.467, 10268.230
163.949, 10335.430
164.431, 10410.500
164.913, 10515.740
165.395, 10617.680
165.877, 10690.920
166.360, 10733.180
166.842, 10783.640
167.324, 10866.280
167.806, 10971.510
168.288, 11086.070
168.770, 11218.690
169.252, 11350.280
169.734, 11466.680
170.217, 11565.410
170.699, 11651.330
171.181, 11722.490
171.663, 11782.630
172.145, 11841.670
172.627, 11908.040
173.109, 11974.440
173.591, 12034.560
174.073, 12088.590
174.555, 12133.060
175.038, 12157.100
175.520, 12165.820
176.002, 12177.560
176.484, 12205.670
176.966, 12243.740
177.448, 12282.470
177.930, 12320.910
178.413, 12357.860
178.895, 12390.260
179.377, 12419.150
179.859, 12450.500
180.341, 12484.110
180.823, 12523.940
181.305, 12581.140
181.787, 12669.780
182.269, 12767.660
182.751, 12834.330
183.234, 12869.490
183.716, 12900.210
184.198, 12950.000
184.680, 13015.180
185.162, 13082.210
185.644, 13153.880
186.126, 13222.390
186.608, 13268.710
187.091, 13291.340
187.573, 13301.330
188.055, 13305.300
188.537, 13304.310
189.019, 13307.460
189.501, 13326.080
189.983, 13352.610
190.465, 13351.610
190.947, 13319.900
191.430, 13275.210
191.912, 13240.570
192.394, 13216.160
192.876, 13189.240
193.358, 13159.680
193.840, 13126.300
194.322, 13070.730
194.804, 12989.070
195.286, 12895.380
195.769, 12811.090
196.251, 12735.960
196.733, 12662.860
197.215, 12587.350
197.697, 12509.580
198.179, 12436.250
198.661, 12371.140
199.143, 12305.700
199.626, 12221.000
200.108, 12112.960
200.590, 12005.590
201.072, 11909.760
201.554, 11825.660
202.036, 11749.780
202.518, 11685.670
203.000, 11625.700
203.482, 11547.750
203.965, 11445.910
204.447, 11344.850
204.929, 11263.670
205.411, 11205.950
205.893, 11137.930
206.375, 11052.510
206.857, 10956.100
207.339, 10871.910
207.822, 10803.780
208.304, 10738.190
208.786, 10668.580
209.268, 10595.990
209.750, 10513.710
210.232, 10415.200
210.714, 10307.400
211.196, 10219.510
211.678, 10154.810
212.161, 10104.290
212.643, 10065.710
213.125, 10045.600
213.607, 10014.730
214.089, 9965.448
214.571, 9900.190
215.053, 9837.831
215.535, 9771.143
216.018, 9718.991
216.500, 9700.702
216.982, 9727.153
217.464, 9756.564
217.946, 9780.047
218.428, 9797.919
218.910, 9827.686
219.392, 9872.577
219.874, 9925.011
220.357, 9977.514
220.839, 10024.740
221.321, 10084.400
221.803, 10164.640
222.285, 10265.550
222.767, 10357.890
223.249, 10434.220
223.731, 10509.910
224.214, 10602.550
224.696, 10727.830
225.178, 10840.620
225.660, 10931.040
226.142, 10996.680
226.624, 11061.200
227.106, 11122.040
227.588, 11183.290
228.070, 11249.390
228.553, 11325.590
229.035, 11398.640
229.517, 11472.630
229.999, 11553.710
230.481, 11589.700
230.963, 11574.460
231.445, 11519.090
231.927, 11434.950
232.410, 11309.300
232.892, 11177.340
233.374, 11047.400
233.856, 10920.000
234.338, 10793.130
234.820, 10668.000
235.302, 10541.470
235.784, 10410.020
236.266, 10281.360
236.749, 10134.230
237.231, 9957.274
237.713, 9736.586
238.195, 9549.418
238.677, 9403.602
239.159, 9286.192
239.641, 9181.171
240.123, 9098.391
240.605, 9009.558
241.088, 8902.755
241.570, 8768.157
242.052, 8655.897
242.534, 8572.136
243.016, 8506.783
243.498, 8444.540
243.980, 8386.098
244.462, 8328.895
244.945, 8270.408
245.427, 8208.200
245.909, 8155.961
246.391, 8116.875
246.873, 8085.406
247.355, 8052.028
247.837, 8012.764
248.319, 7977.945
248.801, 7951.512
249.284, 7936.130
249.766, 7921.666
250.248, 7912.524
250.730, 7902.058
251.212, 7877.680
251.694, 7831.514
252.176, 7786.084
252.658, 7748.602
253.141, 7721.116
253.623, 7696.406
254.105, 7675.683
254.587, 7657.390
255.069, 7636.678
255.551, 7606.492
256.033, 7587.394
256.515, 7590.191
256.997, 7624.175
257.480, 7641.347
257.962, 7635.529
258.444, 7617.427
258.926, 7602.595
259.408, 7582.818
259.890, 7583.082
260.372, 7621.581
260.854, 7715.136
261.336, 7765.390
261.819, 7759.941
262.301, 7722.715
262.783, 7690.127
263.265, 7656.025
263.747, 7640.485
264.229, 7656.652
264.711, 7712.965
265.193, 7747.983
265.676, 7747.918
266.158, 7740.228
266.640, 7774.143
267.122, 7866.796
267.604, 7952.375
268.086, 8013.042
268.568, 8051.840
269.050, 8039.530
269.532, 7958.361
270.015, 7850.188
270.497, 7779.657
270.979, 7753.194
271.461, 7741.802
271.943, 7738.686
272.425, 7744.525
272.907, 7746.072
273.389, 7738.127
273.871, 7734.217
274.354, 7757.864
274.836, 7815.376
275.318, 7871.173
275.800, 7913.664
276.282, 7942.776
276.764, 7963.828
277.246, 7973.873
277.728, 7981.979
278.211, 8002.398
278.693, 8036.953
279.175, 8068.108
279.657, 8086.322
280.139, 8093.254
280.621, 8116.146
281.103, 8160.213
281.585, 8205.182
282.068, 8223.744
282.550, 8214.254
283.032, 8208.321
283.514, 8217.745
283.996, 8239.979
284.478, 8261.639
284.960, 8284.677
285.442, 8299.625
285.924, 8293.209
286.406, 8266.366
286.889, 8234.041
287.371, 8197.912
287.853, 8160.199
288.335, 8129.558
288.817, 8106.447
289.299, 8087.064
289.781, 8070.075
290.263, 8054.702
290.746, 8035.324
291.228, 8011.066
291.710, 7981.286
292.192, 7938.072
292.674, 7880.752
293.156, 7831.169
293.638, 7818.877
294.120, 7834.605
294.603, 7838.541
295.085, 7814.146
295.567, 7777.236
296.049, 7760.126
296.531, 7762.509
297.013, 7765.772
297.495, 7747.533
297.977, 7718.233
298.459, 7705.387
298.942, 7723.175
299.424, 7752.045
299.906, 7762.182
300.388, 7755.501
300.870, 7749.095
301.352, 7753.879
301.834, 7767.448
302.316, 7786.155
302.798, 7810.585
303.281, 7836.998
303.763, 7863.165
304.245, 7888.167
304.727, 7909.976
305.209, 7923.042
305.691, 7933.040
306.173, 7947.776
306.655, 7970.169
307.138, 7994.799
307.620, 8013.028
308.102, 8029.158
308.584, 8055.117
309.066, 8095.645
309.548, 8150.533
310.030, 8220.859
310.512, 8308.521
310.994, 8405.722
311.477, 8511.304
311.959, 8621.540
312.441, 8730.569
312.923, 8834.014
313.405, 8935.574
313.887, 9033.421
314.369, 9125.948
314.851, 9228.705
315.333, 9352.556
315.816, 9491.244
316.298, 9634.529
316.780, 9778.917
317.262, 9929.333
317.744, 10092.350
318.226, 10272.770
318.708, 10440.610
319.190, 10580.300
319.672, 10703.840
320.155, 10825.130
320.637, 10948.440
321.119, 11070.020
321.601, 11189.940
322.083, 11309.220
322.565, 11416.210
323.047, 11512.030
323.530, 11592.510
324.012, 11654.010
324.494, 11706.160
324.976, 11728.320
325.458, 11705.200
325.940, 11637.470
326.422, 11576.050
326.904, 11545.980
327.386, 11509.950
327.868, 11443.690
328.351, 11331.080
328.833, 11206.430
329.315, 11067.610
329.797, 10917.420
330.279, 10764.570
330.761, 10609.760
331.243, 10451.280
331.725, 10290.060
332.208, 10126.060
332.690, 9956.796
333.172, 9772.794
333.654, 9584.471
334.136, 9422.649
334.618, 9291.438
335.100, 9178.052
335.582, 9077.260
336.065, 8991.479
336.547, 8909.476
337.029, 8828.170
337.511, 8751.507
337.993, 8692.108
338.475, 8654.088
338.957, 8616.640
339.439, 8570.087
339.921, 8513.108
340.404, 8462.832
340.886, 8421.969
341.368, 8381.549
341.850, 8324.749
342.332, 8249.846
342.814, 8184.023
343.296, 8140.577
343.778, 8115.410
344.260, 8087.580
344.743, 8058.172
345.225, 8020.670
345.707, 7958.326
346.189, 7875.589
346.671, 7812.652
347.153, 7788.400
347.635, 7785.272
348.117, 7760.052
348.599, 7712.395
349.082, 7661.269
349.564, 7625.535
350.046, 7598.521
350.528, 7559.933
351.010, 7498.377
351.492, 7434.037
351.974, 7393.611
352.457, 7374.777
352.939, 7363.800
353.421, 7359.678
353.903, 7355.545
354.385, 7340.463
354.867, 7310.501
355.349, 7276.914
355.831, 7244.950
356.313, 7216.941
356.796, 7197.643
357.278, 7191.690
357.760, 7194.747
358.242, 7204.601
358.724, 7221.831
359.206, 7240.644
359.688, 7257.729
360.170, 7274.330
360.652, 7292.165
361.135, 7313.062
361.617, 7334.107
362.099, 7353.916
362.581, 7372.311
363.063, 7390.580
363.545, 7409.676
364.027, 7428.411
364.509, 7445.775
364.991, 7449.839
365.474, 7464.932
365.956, 7505.309
366.438, 7566.928
366.920, 7614.438
367.402, 7623.257
367.884, 7631.944
368.366, 7660.632
368.848, 7729.543
369.331, 7795.547
369.813, 7861.865
370.295, 7924.744
370.777, 7970.381
371.259, 7978.086
371.741, 7993.674
372.223, 8036.310
372.705, 8115.989
373.188, 8191.809
373.670, 8260.686
374.152, 8326.794
374.634, 8396.972
375.116, 8469.671
375.598, 8548.483
376.080, 8637.892
376.562, 8736.994
377.044, 8824.237
377.526, 8895.895
378.009, 8963.125
378.491, 9037.285
378.973, 9117.927
379.455, 9205.873
379.937, 9304.048
380.419, 9408.336
380.901, 9500.358
381.384, 9580.513
381.866, 9658.167
382.348, 9734.284
382.830, 9812.306
383.312, 9911.588
383.794, 10039.810
384.276, 10178.930
384.758, 10301.690
385.240, 10411.000
385.723, 10525.890
386.205, 10658.940
386.687, 10802.950
387.169, 10952.480
387.651, 11107.880
388.133, 11255.400
388.615, 11375.410
389.097, 11480.350
389.579, 11593.930
390.062, 11751.140
390.544, 11904.550
391.026, 12006.870
391.508, 12059.040
391.990, 12116.910
392.472, 12222.900
392.954, 12344.800
393.436, 12452.340
393.918, 12538.370
394.401, 12606.060
394.883, 12647.850
395.365, 12669.740
395.847, 12697.490
396.329, 12752.890
396.811, 12804.940
397.293, 12836.430
397.775, 12831.170
398.258, 12829.020
398.740, 12850.720
399.222, 12875.020
399.704, 12861.580
400.186, 12782.790
400.668, 12696.720
401.150, 12620.180
401.632, 12557.110
402.114, 12480.200
402.597, 12386.920
403.079, 12282.050
403.561, 12169.570
404.043, 12047.430
404.525, 11923.330
405.007, 11798.050
405.489, 11670.900
405.971, 11543.970
406.453, 11413.390
406.936, 11291.030
407.418, 11185.120
407.900, 11095.350
408.382, 11019.220
408.864, 10958.420
409.346, 10906.170
409.828, 10845.720
410.310, 10777.760
410.793, 10725.600
411.275, 10700.470
411.757, 10700.010
412.239, 10721.070
412.721, 10764.890
413.203, 10818.840
413.685, 10860.570
414.167, 10901.320
414.650, 10966.840
415.132, 11083.930
415.614, 11216.940
416.096, 11322.500
416.578, 11405.300
417.060, 11497.860
417.542, 11614.900
418.024, 11752.940
418.506, 11907.250
418.988, 12082.250
419.471, 12265.870
419.953, 12463.260
420.435, 12665.720
420.917, 12858.950
421.399, 13019.180
421.881, 13183.240
422.363, 13372.940
422.845, 13599.120
423.328, 13812.090
423.810, 14005.440
424.292, 14181.140
424.774, 14338.030
425.256, 14455.000
425.738, 14579.720
426.220, 14730.490
426.702, 14902.530
427.185, 15037.390
427.667, 15132.350
428.149, 15191.470
428.631, 15212.360
429.113, 15182.830
429.595, 15154.490
430.077, 15136.750
430.559, 15115.400
431.041, 15051.940
431.524, 14938.220
432.006, 14829.470
432.488, 14772.290
432.970, 14754.760
433.452, 14641.500
433.934, 14420.070
434.416, 14167.970
434.898, 13969.660
435.380, 13815.540
435.863, 13660.110
436.345, 13487.050
436.827, 13307.770
437.309, 13136.230
437.791, 12973.340
438.273, 12830.560
438.755, 12726.580
439.237, 12642.900
439.720, 12556.870
440.202, 12464.460
440.684, 12369.320
441.166, 12250.650
441.648, 12133.600
442.130, 12061.180
442.612, 12076.940
443.094, 12120.100
443.576, 12165.060
444.059, 12210.510
444.541, 12252.300
445.023, 12269.830
445.505, 12294.100
445.987, 12349.810
446.469, 12463.630
446.951, 12581.090
447.433, 12631.330
447.915, 12670.480
448.398, 12917.520
448.880, 13081.345
449.362, 13245.164
449.844, 13409.025
450.326, 13572.855
450.808, 13736.675
451.290, 13900.500
451.772, 14129.460
452.254, 14353.640
452.737, 14571.840
453.219, 14795.770
453.701, 15027.500
454.183, 15268.290
454.665, 15512.240
455.147, 15760.790
455.629, 16018.820
456.112, 16303.430
456.594, 16603.830
457.076, 16886.939
457.558, 17136.609
458.040, 17385.670
458.522, 17673.811
459.004, 17993.160
459.486, 18309.779
459.968, 18590.340
460.451, 18872.830
460.933, 19217.711
461.415, 19622.359
461.897, 20007.900
462.379, 20307.430
462.861, 20575.061
463.343, 20870.650
463.825, 21234.520
464.307, 21594.881
464.790, 21914.131
465.272, 22208.811
465.754, 22543.381
466.236, 22960.869
466.718, 23394.721
467.200, 23816.109
467.682, 24219.551
468.164, 24623.109
468.647, 25024.840
469.129, 25432.971
469.611, 25851.750
470.093, 26279.609
470.575, 26725.131
471.057, 27202.311
471.539, 27700.211
472.021, 28178.359
472.503, 28641.109
472.986, 29068.529
473.468, 29442.600
473.950, 29765.930
474.432, 30057.289
474.914, 30322.789
475.396, 30542.961
475.878, 30689.939
476.360, 30768.211
476.842, 30796.990
477.325, 30806.869
477.807, 30760.381
478.289, 30593.801
478.771, 30312.520
479.253, 29962.740
479.735, 29589.471
480.217, 29159.029
480.699, 28621.570
481.181, 27938.551
481.664, 27223.289
482.146, 26520.500
482.628, 25829.910
483.110, 25138.461
483.592, 24436.199
484.074, 23736.680
484.556, 23027.340
485.039, 22315.359
485.521, 21651.670
486.003, 21052.080
486.485, 20495.850
486.967, 19971.869
487.449, 19504.641
487.931, 19035.730
488.413, 18550.980
488.895, 18068.289
489.378, 17625.641
489.860, 17221.070
490.342, 16854.260
490.824, 16533.160
491.306, 16253.470
491.788, 15952.070
492.270, 15619.510
492.752, 15299.210
493.234, 15038.940
493.717, 14829.920
494.199, 14630.520
494.681, 14435.630
495.163, 14238.450
495.645, 14012.110
496.127, 13768.230
496.609, 13548.340
497.091, 13388.320
497.573, 13256.230
498.056, 13120.920
498.538, 12980.820
499.020, 12847.650
499.502, 12721.790
499.984, 12610.030
500.466, 12520.400
500.948, 12484.300
501.430, 12439.650
501.913, 12366.330
502.395, 12272.950
502.877, 12187.160
503.359, 12108.310
503.841, 12041.180
504.323, 11990.330
504.805, 11962.080
505.287, 11918.330
505.770, 11849.540
506.252, 11776.840
506.734, 11726.000
507.216, 11702.300
507.698, 11671.230
508.180, 11626.110
508.662, 11570.840
509.144, 11519.560
509.626, 11472.390
510.108, 11409.620
510.591, 11300.990
511.073, 11170.230
511.555, 11083.090
512.037, 11044.850
512.519, 11015.540
513.001, 10956.800
513.483, 10883.060
513.966, 10816.940
514.448, 10765.140
514.930, 10723.070
515.412, 10688.780
515.894, 10661.680
516.376, 10640.880
516.858, 10624.100
517.340, 10614.500
517.822, 10612.470
518.305, 10616.910
518.787, 10634.280
519.269, 10676.350
519.751, 10725.200
520.233, 10764.870
520.715, 10777.580
521.197, 10814.820
521.679, 10892.230
522.161, 10993.700
522.644, 11073.430
523.126, 11129.170
523.608, 11169.490
524.090, 11187.630
524.572, 11188.210
525.054, 11222.920
525.536, 11295.010
526.018, 11376.630
526.500, 11437.840
526.983, 11485.710
527.465, 11545.820
527.947, 11633.220
528.429, 11717.160
528.911, 11764.940
529.393, 11784.280
529.875, 11796.780
530.357, 11808.080
530.839, 11819.830
531.322, 11839.780
531.804, 11868.690
532.286, 11877.160
532.768, 11840.290
533.250, 11788.900
533.732, 11745.790
534.214, 11734.050
534.696, 11703.230
535.179, 11642.390
535.661, 11564.870
536.143, 11498.340
536.625, 11456.200
537.107, 11395.410
537.589, 11292.090
538.071, 11153.720
538.553, 11068.530
539.036, 11048.060
539.518, 11031.070
540.000, 10961.980
540.482, 10850.770
540.964, 10751.050
541.446, 10668.300
541.928, 10596.280
542.410, 10528.370
542.892, 10464.920
543.375, 10405.650
543.857, 10359.270
544.339, 10311.550
544.821, 10240.220
545.303, 10152.010
545.785, 10087.020
546.267, 10094.020
546.749, 10108.700
547.231, 10086.890
547.714, 10005.510
548.196, 9938.706
548.678, 9903.363
549.160, 9884.232
549.642, 9865.063
550.124, 9849.008
550.606, 9827.229
551.088, 9795.851
551.570, 9758.193
552.053, 9729.231
552.535, 9711.790
553.017, 9690.811
553.499, 9656.374
553.981, 9610.151
554.463, 9568.019
554.945, 9530.136
555.427, 9494.690
555.909, 9466.188
556.392, 9439.061
556.874, 9397.697
557.356, 9328.451
557.838, 9264.728
558.320, 9249.343
558.802, 9262.920
559.284, 9261.209
559.766, 9209.030
560.249, 9150.771
560.731, 9109.710
561.213, 9086.630
561.695, 9059.865
562.177, 9030.496
562.659, 8991.566
563.141, 8936.626
563.623, 8849.684
564.106, 8782.753
564.588, 8744.191
565.070, 8718.168
565.552, 8680.566
566.034, 8628.240
566.516, 8579.033
566.998, 8538.003
567.480, 8502.307
567.963, 8460.695
568.445, 8413.208
568.927, 8371.720
569.409, 8352.755
569.891, 8342.155
570.373, 8309.222
570.855, 8250.707
571.337, 8192.458
571.819, 8153.556
572.302, 8126.380
572.784, 8102.880
573.266, 8083.003
573.748, 8062.800
574.230, 8040.043
574.712, 8015.815
575.194, 7992.333
575.676, 7984.564
576.158, 7961.504
576.641, 7904.064
577.123, 7812.503
577.605, 7766.366
578.087, 7787.003
578.569, 7814.486
579.051, 7807.166
579.533, 7762.799
580.015, 7720.292
580.497, 7678.721
580.980, 7648.714
581.462, 7657.481
581.944, 7693.940
582.426, 7709.305
582.908, 7677.904
583.390, 7629.593
583.872, 7594.320
584.354, 7571.242
584.836, 7557.835
585.319, 7561.058
585.801, 7566.925
586.283, 7568.974
586.765, 7567.146
587.247, 7552.654
587.729, 7507.804
588.211, 7459.324
588.693, 7426.625
589.176, 7418.422
589.658, 7413.021
590.140, 7414.456
590.622, 7415.800
591.104, 7402.749
591.586, 7370.831
592.068, 7346.009
592.550, 7337.154
593.032, 7339.507
593.515, 7339.513
593.997, 7337.171
594.479, 7331.870
594.961, 7322.916
595.443, 7310.929
595.925, 7294.184
596.407, 7272.108
596.890, 7256.190
597.372, 7267.474
597.854, 7283.868
598.336, 7279.646
598.818, 7225.841
599.300, 7186.386
599.782, 7188.369
600.264, 7215.984
600.746, 7240.308
601.229, 7261.331
601.711, 7275.574
602.193, 7280.830
602.675, 7278.033
603.157, 7274.369
603.639, 7268.865
604.121, 7265.314
604.603, 7265.065
605.085, 7268.276
605.568, 7280.204
606.050, 7302.826
606.532, 7321.458
607.014, 7315.203
607.496, 7294.344
607.978, 7280.813
608.460, 7281.785
608.942, 7287.836
609.424, 7296.767
609.907, 7304.951
610.389, 7305.234
610.871, 7282.245
611.353, 7263.750
611.835, 7263.226
612.317, 7279.329
612.799, 7290.361
613.281, 7294.258
613.763, 7294.636
614.246, 7291.865
614.728, 7284.770
615.210, 7284.873
615.692, 7295.671
616.174, 7305.126
616.656, 7297.343
617.138, 7274.525
617.620, 7257.479
618.103, 7249.233
618.585, 7248.745
619.067, 7258.049
619.549, 7273.930
620.031, 7288.246
620.513, 7306.839
620.995, 7314.554
621.477, 7288.127
621.959, 7236.932
622.442, 7205.259
622.924, 7224.167
