##NAMES=Agardite-(Y)
##RRUFFID=R070649
##IDEAL CHEMISTRY=Cu^2+^_6_Y^3+^(As^5+^O_4_)_3_(OH)_6_&#183;3H_2_O
##LOCALITY=Jote West mine, Pampa Larga Mining District, Copiapo, Chile
##OWNER=RRUFF
##SOURCE=Bob Jenkins
##DESCRIPTION=Sprays of bright green acicular crystals. Sample used in Morrison <em>et al.</em> (2013) study.
##STATUS=The identification of this mineral is confirmed by single-crystal X-ray diffraction and chemical analysis.
##URL=rruff.info/R070649
##MEASURED CHEMISTRY=(Cu_5.33_Al_0.12_Ca_0.03_Mn_0.01_)_Σ=5.49_(Y_0.52_Er_0.02_Dy_0.01_Yb_0.01_Ho_0.01_Ca_0.43_)_Σ=1.00_[(AsO_4_)_0.88_(PO_4_)_0.14_)]_3_(OH)_6_·2.99H_2_O
134.6032, 320.7935
135.0853, 317.5095
135.5674, 311.4635
136.0496, 306.5878
136.5317, 303.1168
137.0138, 300.3130
137.4959, 296.4247
137.9780, 292.0209
138.4601, 291.4083
138.9423, 301.0970
139.4244, 320.5111
139.9065, 328.9688
140.3886, 312.9917
140.8707, 291.0901
141.3528, 285.9111
141.8350, 303.2210
142.3171, 324.6740
142.7992, 331.4906
143.2813, 326.4868
143.7634, 319.6118
144.2455, 313.4616
144.7277, 308.3405
145.2098, 305.6516
145.6919, 307.7130
146.1740, 309.7813
146.6561, 307.0549
147.1382, 299.8292
147.6204, 293.5087
148.1025, 294.3008
148.5846, 303.2373
149.0667, 308.3758
149.5488, 305.0547
150.0309, 298.5976
150.5130, 289.4800
150.9952, 278.1185
151.4773, 268.7425
151.9594, 268.9498
152.4415, 284.4561
152.9236, 297.5495
153.4057, 308.5988
153.8879, 315.6993
154.3700, 315.1072
154.8521, 305.1282
155.3342, 290.5275
155.8163, 286.1969
156.2984, 309.7721
156.7806, 323.7929
157.2627, 316.7423
157.7448, 299.4601
158.2269, 287.3352
158.7090, 290.0187
159.1911, 305.7477
159.6733, 314.7750
160.1554, 315.5544
160.6375, 312.4468
161.1196, 303.6398
161.6017, 291.3593
162.0838, 281.4214
162.5660, 278.9641
163.0481, 284.2808
163.5302, 284.5718
164.0123, 274.5110
164.4944, 264.0387
164.9765, 259.7682
165.4587, 262.0901
165.9408, 267.2231
166.4229, 271.9174
166.9050, 276.2575
167.3871, 282.0827
167.8692, 293.2267
168.3514, 304.5437
168.8335, 309.1711
169.3156, 305.3644
169.7977, 297.9503
170.2798, 289.3428
170.7619, 280.0068
171.2441, 275.2262
171.7262, 281.3734
172.2083, 294.0676
172.6904, 299.8725
173.1725, 293.0273
173.6546, 283.8336
174.1368, 282.0435
174.6189, 287.1000
175.1010, 292.3019
175.5831, 288.6735
176.0652, 266.0048
176.5473, 279.9579
177.0295, 288.0236
177.5116, 290.5180
177.9937, 270.7551
178.4758, 279.7329
178.9579, 277.1928
179.4400, 274.1803
179.9222, 287.2034
180.4043, 270.6777
180.8864, 283.4464
181.3685, 284.5213
181.8506, 290.9482
182.3327, 285.7859
182.8149, 284.2032
183.2970, 294.2133
183.7791, 297.8044
184.2612, 291.3080
184.7433, 277.0042
185.2254, 270.1783
185.7076, 267.6587
186.1897, 270.5396
186.6718, 276.9673
187.1539, 282.3125
187.6360, 287.9913
188.1181, 290.2980
188.6003, 285.9604
189.0824, 279.1555
189.5645, 274.7923
190.0466, 275.3988
190.5287, 279.9912
191.0108, 284.0119
191.4930, 288.4555
191.9751, 291.2194
192.4572, 291.9673
192.9393, 290.7399
193.4214, 276.4079
193.9035, 289.3283
194.3857, 296.3612
194.8678, 297.8230
195.3499, 277.0274
195.8320, 284.9727
196.3141, 281.3999
196.7962, 277.3548
197.2784, 289.3450
197.7605, 271.7867
198.2426, 283.5228
198.7247, 283.5651
199.2068, 288.9593
199.6889, 282.7644
200.1711, 280.1489
200.6532, 289.1263
201.1353, 291.6848
201.6174, 284.1558
202.0995, 289.8902
202.5816, 271.9271
203.0638, 274.7588
203.5459, 286.5626
204.0280, 279.6163
204.5101, 275.5960
204.9922, 279.4341
205.4743, 274.6708
205.9565, 263.4694
206.4386, 253.5233
206.9207, 243.8426
207.4028, 237.1756
207.8849, 239.4107
208.3671, 253.2706
208.8492, 266.7606
209.3313, 269.4637
209.8134, 264.4852
210.2955, 257.6494
210.7776, 248.8721
211.2598, 239.9063
211.7419, 234.8839
212.2240, 235.0539
212.7061, 237.1853
213.1882, 238.6242
213.6703, 239.9863
214.1525, 243.0561
214.6346, 250.2665
215.1167, 260.3345
215.5988, 268.2092
216.0809, 275.5007
216.5630, 277.4572
217.0452, 267.7993
217.5273, 250.6399
218.0094, 237.7898
218.4915, 240.5051
218.9736, 257.2163
219.4557, 268.0445
219.9379, 270.5157
220.4200, 268.7851
220.9021, 262.6168
221.3842, 253.6181
221.8663, 245.9880
222.3484, 242.8903
222.8306, 244.3967
223.3127, 248.9063
223.7948, 263.5338
224.2769, 274.8095
224.7590, 276.0758
225.2411, 268.7043
225.7233, 258.7274
226.2054, 250.9794
226.6875, 245.4235
227.1696, 242.6343
227.6517, 244.6138
228.1338, 247.7804
228.6160, 251.5022
229.0981, 255.3288
229.5802, 258.6122
230.0623, 260.7263
230.5444, 261.6781
231.0265, 261.3525
231.5087, 258.6056
231.9908, 255.6443
232.4729, 253.4720
232.9550, 252.1161
233.4371, 251.0018
233.9192, 249.3578
234.4014, 246.6461
234.8835, 245.4650
235.3656, 246.5037
235.8477, 248.2163
236.3298, 250.2314
236.8119, 252.2730
237.2941, 253.8792
237.7762, 254.5993
238.2583, 254.6471
238.7404, 252.8501
239.2225, 245.1941
239.7046, 239.1018
240.1868, 241.0794
240.6689, 250.6339
241.1510, 260.7914
241.6331, 263.4397
242.1152, 256.0773
242.5973, 247.9241
243.0795, 235.6120
243.5616, 225.0884
244.0437, 220.1339
244.5258, 221.2135
245.0079, 226.3391
245.4900, 233.6770
245.9722, 244.7052
246.4543, 252.9359
246.9364, 258.1199
247.4185, 261.0575
247.9006, 261.4632
248.3827, 259.6603
248.8649, 257.5409
249.3470, 257.6166
249.8291, 261.5545
250.3112, 261.1282
250.7933, 250.8082
251.2754, 240.1111
251.7576, 237.2283
252.2397, 242.7896
252.7218, 250.2586
253.2039, 252.1489
253.6860, 246.2000
254.1681, 243.6883
254.6503, 246.1822
255.1324, 250.9736
255.6145, 258.0441
256.0966, 266.7964
256.5787, 272.3399
257.0608, 268.3689
257.5429, 251.7333
258.0251, 241.8204
258.5072, 245.0777
258.9893, 250.9270
259.4714, 249.4690
259.9535, 239.9378
260.4356, 230.6848
260.9178, 230.9096
261.3999, 242.6547
261.8820, 247.9852
262.3641, 238.7289
262.8462, 228.1692
263.3283, 229.1468
263.8105, 242.3983
264.2926, 256.4905
264.7747, 261.2331
265.2568, 255.6054
265.7389, 248.7415
266.2210, 236.9109
266.7032, 226.4675
267.1853, 224.5981
267.6674, 231.3561
268.1495, 238.1080
268.6316, 237.5013
269.1137, 229.3220
269.5959, 222.1705
270.0780, 213.0927
270.5601, 207.3064
271.0422, 212.3759
271.5243, 227.8473
272.0064, 240.4332
272.4886, 238.2394
272.9707, 222.6674
273.4528, 214.5617
273.9349, 218.9513
274.4170, 227.3579
274.8991, 235.3302
275.3813, 242.3831
275.8634, 246.2346
276.3455, 244.4207
276.8276, 237.5551
277.3097, 232.1129
277.7918, 230.3857
278.2740, 228.2182
278.7561, 220.4776
279.2382, 208.1930
279.7203, 200.1992
280.2024, 203.7619
280.6845, 215.9034
281.1667, 222.6609
281.6488, 221.6143
282.1309, 217.5849
282.6130, 212.1746
283.0951, 205.7634
283.5772, 200.0453
284.0594, 194.2027
284.5415, 190.9608
285.0236, 197.4253
285.5057, 224.9911
285.9878, 247.6288
286.4699, 245.4011
286.9521, 224.1467
287.4342, 207.7274
287.9163, 208.1128
288.3984, 219.3210
288.8805, 225.6667
289.3626, 225.9441
289.8448, 224.1862
290.3269, 220.0354
290.8090, 214.9545
291.2911, 214.3273
291.7732, 222.0126
292.2553, 232.8549
292.7375, 235.5703
293.2196, 226.9487
293.7017, 220.2966
294.1838, 225.2220
294.6659, 235.9888
295.1480, 237.3830
295.6302, 221.4687
296.1123, 200.6303
296.5944, 199.6601
297.0765, 222.9137
297.5586, 239.8033
298.0407, 234.5249
298.5229, 217.7969
299.0050, 208.9811
299.4871, 214.0964
299.9692, 224.5850
300.4513, 228.0354
300.9334, 223.7752
301.4156, 221.4525
301.8977, 224.8869
302.3798, 230.9014
302.8619, 236.1082
303.3440, 240.0943
303.8261, 241.0117
304.3083, 234.1934
304.7904, 218.8610
305.2725, 210.7560
305.7546, 219.0470
306.2367, 231.7333
306.7188, 236.0919
307.2010, 230.5265
307.6831, 221.8701
308.1652, 216.0788
308.6473, 213.3107
309.1294, 209.8390
309.6115, 200.2462
310.0937, 193.6235
310.5758, 200.2800
311.0579, 219.3945
311.5400, 237.7770
312.0221, 244.6698
312.5042, 240.7187
312.9864, 242.4050
313.4685, 260.2705
313.9506, 274.2093
314.4327, 268.1262
314.9148, 246.2024
315.3969, 227.2517
315.8791, 223.8881
316.3612, 232.8922
316.8433, 234.6996
317.3254, 221.5858
317.8075, 210.6960
318.2896, 210.2981
318.7718, 217.0679
319.2539, 222.5624
319.7360, 222.0764
320.2181, 218.6125
320.7002, 222.7469
321.1823, 246.7192
321.6645, 260.7399
322.1466, 249.0769
322.6287, 225.9032
323.1108, 212.9733
323.5929, 218.8034
324.0750, 235.3967
324.5572, 247.2762
325.0393, 254.3989
325.5214, 256.5172
326.0035, 248.5278
326.4856, 237.8749
326.9677, 232.6753
327.4499, 234.9041
327.9320, 240.1719
328.4141, 242.7251
328.8962, 242.1776
329.3783, 238.9940
329.8604, 229.8902
330.3426, 220.6237
330.8247, 215.4790
331.3068, 214.7994
331.7889, 216.1265
332.2710, 217.2005
332.7531, 218.2322
333.2353, 217.5854
333.7174, 212.8371
334.1995, 208.9386
334.6816, 208.2575
335.1637, 210.5801
335.6458, 214.7553
336.1280, 220.2128
336.6101, 226.9019
337.0922, 231.3608
337.5743, 235.6789
338.0564, 235.6410
338.5385, 226.0194
339.0207, 211.7504
339.5028, 201.4547
339.9849, 200.2866
340.4670, 205.8907
340.9491, 207.9575
341.4312, 199.6719
341.9134, 196.5498
342.3955, 204.8897
342.8776, 217.1757
343.3597, 225.3854
343.8418, 226.3712
344.3239, 222.6003
344.8061, 218.4330
345.2882, 211.5754
345.7703, 209.1411
346.2524, 217.6898
346.7345, 225.9829
347.2166, 223.7824
347.6988, 210.0129
348.1809, 194.0583
348.6630, 188.6211
349.1451, 196.9347
349.6272, 202.8243
350.1093, 205.9433
350.5915, 206.5472
351.0736, 202.4691
351.5557, 195.2076
352.0378, 189.8416
352.5199, 192.6505
353.0020, 203.2054
353.4842, 206.1604
353.9663, 191.9259
354.4484, 181.7332
354.9305, 189.1034
355.4126, 206.0925
355.8947, 216.1908
356.3769, 206.6469
356.8590, 185.9625
357.3411, 179.9435
357.8232, 195.8719
358.3053, 210.1037
358.7874, 210.1538
359.2696, 204.5492
359.7517, 203.4612
360.2338, 211.5240
360.7159, 221.6267
361.1980, 223.5147
361.6801, 216.2657
362.1623, 209.1293
362.6444, 204.5751
363.1265, 201.8617
363.6086, 200.0608
364.0907, 198.9521
364.5728, 199.7808
365.0550, 205.3044
365.5371, 214.2939
366.0192, 220.0100
366.5013, 220.3542
366.9834, 217.8329
367.4655, 214.1992
367.9477, 209.5871
368.4298, 206.4867
368.9119, 208.7637
369.3940, 212.4331
369.8761, 207.5913
370.3582, 190.9061
370.8404, 179.1899
371.3225, 193.8860
371.8046, 228.7708
372.2867, 247.3844
372.7688, 232.0469
373.2509, 208.6029
373.7331, 198.5778
374.2152, 201.0879
374.6973, 203.2970
375.1794, 196.5810
375.6615, 184.0569
376.1436, 179.1523
376.6258, 187.5093
377.1079, 196.0141
377.5900, 199.4027
378.0721, 199.6798
378.5542, 200.9206
379.0363, 204.8895
379.5185, 209.8209
380.0006, 212.1210
380.4827, 212.3348
380.9648, 208.7338
381.4469, 195.5179
381.9290, 181.5459
382.4112, 176.4167
382.8933, 181.4306
383.3754, 190.0313
383.8575, 194.7514
384.3396, 194.8669
384.8217, 193.9131
385.3039, 186.8442
385.7860, 183.4618
386.2681, 192.8764
386.7502, 210.7524
387.2323, 224.6255
387.7144, 224.9933
388.1966, 213.2026
388.6787, 203.9646
389.1608, 199.1288
389.6429, 194.9758
390.1250, 189.2082
390.6071, 184.3438
391.0893, 183.6299
391.5714, 188.5034
392.0535, 197.5746
392.5356, 209.9440
393.0177, 231.1800
393.4998, 241.3017
393.9820, 228.4131
394.4641, 210.7199
394.9462, 200.0316
395.4283, 198.1689
395.9104, 199.6069
396.3925, 198.4213
396.8747, 194.5726
397.3568, 194.6749
397.8389, 204.1774
398.3210, 211.5579
398.8031, 209.1721
399.2852, 199.4509
399.7674, 189.5019
400.2495, 181.2693
400.7316, 175.8429
401.2137, 177.0859
401.6958, 186.9533
402.1779, 195.7758
402.6601, 197.1590
403.1422, 194.4471
403.6243, 192.4821
404.1064, 192.4803
404.5885, 192.6941
405.0706, 190.8186
405.5528, 187.5036
406.0349, 186.7741
406.5170, 191.1854
406.9991, 197.3491
407.4812, 199.6194
407.9633, 197.6091
408.4455, 194.8450
408.9276, 191.4612
409.4097, 188.3121
409.8918, 187.3996
410.3739, 189.0770
410.8560, 189.7758
411.3382, 184.5020
411.8203, 171.8827
412.3024, 168.7380
412.7845, 181.6226
413.2666, 197.5185
413.7487, 212.8989
414.2309, 225.5673
414.7130, 230.4600
415.1951, 223.6032
415.6772, 207.9589
416.1593, 197.3868
416.6414, 196.2113
417.1236, 195.0299
417.6057, 191.0264
418.0878, 187.4813
418.5699, 190.1837
419.0520, 200.1948
419.5341, 210.0119
420.0163, 205.7608
420.4984, 176.9753
420.9805, 163.2709
421.4626, 177.5116
421.9447, 194.6730
422.4268, 203.5597
422.9090, 204.3301
423.3911, 202.4109
423.8732, 201.1571
424.3553, 200.6996
424.8374, 202.4622
425.3195, 209.4370
425.8017, 213.3474
426.2838, 208.9650
426.7659, 200.8338
427.2480, 194.7933
427.7301, 193.2565
428.2122, 193.3178
428.6944, 190.0572
429.1765, 183.2970
429.6586, 181.6382
430.1407, 190.7014
430.6228, 203.0163
431.1049, 210.7515
431.5871, 213.8672
432.0692, 213.5634
432.5513, 208.4522
433.0334, 200.7912
433.5155, 194.2964
433.9977, 189.3913
434.4798, 186.2057
434.9619, 184.8360
435.4440, 185.4456
435.9261, 187.9441
436.4082, 196.4449
436.8904, 203.0516
437.3725, 200.2620
437.8546, 191.4243
438.3367, 186.9359
438.8188, 192.4506
439.3009, 203.9310
439.7831, 210.4118
440.2652, 206.5340
440.7473, 205.1875
441.2294, 212.4647
441.7115, 219.2978
442.1936, 214.2424
442.6758, 197.0444
443.1579, 180.2297
443.6400, 179.3616
444.1221, 198.2530
444.6042, 205.8647
445.0863, 186.2488
445.5685, 171.3495
446.0506, 176.3421
446.5327, 192.8591
447.0148, 204.4289
447.4969, 201.5563
447.9790, 189.8640
448.4612, 182.9759
448.9433, 181.8107
449.4254, 183.0200
449.9075, 187.2229
450.3896, 192.5658
450.8717, 198.4621
451.3539, 204.7389
451.8360, 209.4464
452.3181, 209.4036
452.8002, 206.0072
453.2823, 206.1069
453.7644, 211.5410
454.2466, 218.2239
454.7287, 225.0195
455.2108, 230.8271
455.6929, 230.9137
456.1750, 216.7314
456.6571, 202.0858
457.1393, 202.8102
457.6214, 215.8513
458.1035, 222.3262
458.5856, 210.9357
459.0677, 190.1729
459.5498, 183.6436
460.0319, 198.2423
460.5140, 211.3104
460.9962, 222.1075
461.4783, 227.8474
461.9604, 221.5942
462.4425, 203.7775
462.9246, 187.1572
463.4067, 186.0356
463.8889, 203.0041
464.3710, 212.7774
464.8531, 209.5722
465.3352, 205.7457
465.8173, 204.1241
466.2994, 204.7615
466.7816, 207.5019
467.2637, 212.4012
467.7458, 218.3913
468.2279, 223.3848
468.7100, 227.9746
469.1921, 229.8806
469.6743, 223.2033
470.1564, 217.7299
470.6385, 222.5298
471.1206, 236.9746
471.6027, 248.8954
472.0848, 245.1269
472.5670, 231.0427
473.0491, 227.8705
473.5312, 240.3806
474.0133, 252.1761
474.4954, 249.6578
474.9775, 239.1406
475.4597, 233.7381
475.9418, 238.1981
476.4239, 244.6056
476.9060, 249.4338
477.3881, 252.0274
477.8702, 248.9791
478.3524, 237.9130
478.8345, 225.2086
479.3166, 221.5395
479.7987, 230.8777
480.2808, 236.6634
480.7629, 235.9079
481.2451, 233.0524
481.7272, 232.1525
482.2093, 232.4547
482.6914, 229.0212
483.1735, 217.2403
483.6556, 199.5735
484.1378, 192.7404
484.6199, 209.3104
485.1020, 220.2883
485.5841, 216.6286
486.0662, 208.7546
486.5483, 207.5451
487.0305, 215.4447
487.5126, 225.3997
487.9947, 229.5792
488.4768, 227.7878
488.9589, 224.0909
489.4410, 216.3261
489.9232, 209.8895
490.4053, 208.3483
490.8874, 210.1824
491.3695, 211.7215
491.8516, 210.6991
492.3337, 209.6570
492.8159, 213.3153
493.2980, 221.1042
493.7801, 224.7343
494.2622, 220.2120
494.7443, 210.9356
495.2264, 201.7038
495.7086, 191.2339
496.1907, 185.4599
496.6728, 188.7017
497.1549, 195.4908
497.6370, 200.5457
498.1191, 203.3827
498.6013, 206.2290
499.0834, 211.1664
499.5655, 217.8034
500.0476, 221.0457
500.5297, 220.9194
501.0118, 217.3053
501.4940, 204.8027
501.9761, 191.2567
502.4582, 186.5723
502.9403, 193.2490
503.4224, 203.5227
503.9045, 207.8344
504.3867, 205.6739
504.8688, 200.6111
505.3509, 188.0584
505.8330, 178.1468
506.3151, 176.5930
506.7972, 181.0755
507.2794, 186.2863
507.7615, 190.0298
508.2436, 193.3838
508.7257, 199.1961
509.2078, 207.2241
509.6899, 210.5058
510.1721, 205.1192
510.6542, 195.6040
511.1363, 187.8465
511.6184, 181.2641
512.1005, 178.8974
512.5826, 186.3525
513.0648, 195.2894
513.5469, 196.4200
514.0290, 190.0250
514.5111, 183.1600
514.9932, 180.5746
515.4753, 181.8445
515.9575, 184.3296
516.4396, 192.5834
516.9217, 196.3362
517.4038, 189.5463
517.8859, 180.6900
518.3680, 179.4204
518.8502, 186.9028
519.3323, 194.9918
519.8144, 193.6621
520.2965, 182.5877
520.7786, 175.3436
521.2607, 172.2811
521.7429, 172.8841
522.2250, 179.1367
522.7071, 187.8817
523.1892, 194.0297
523.6713, 195.5734
524.1534, 195.2880
524.6356, 196.2194
525.1177, 197.8615
525.5998, 197.4130
526.0819, 193.8776
526.5640, 188.7554
527.0461, 182.8090
527.5283, 175.8621
528.0104, 172.4327
528.4925, 174.4435
528.9746, 178.7498
529.4567, 184.8964
529.9388, 191.6933
530.4210, 196.3987
530.9031, 197.5392
531.3852, 196.2922
531.8673, 195.5547
532.3494, 196.0881
532.8315, 195.7135
533.3137, 190.8316
533.7958, 188.0913
534.2779, 195.7325
534.7600, 210.2918
535.2421, 218.5104
535.7242, 207.8301
536.2064, 185.6419
536.6885, 176.3477
537.1706, 183.4324
537.6527, 190.0830
538.1348, 189.9154
538.6169, 186.1323
539.0991, 182.1999
539.5812, 178.3314
540.0633, 174.3465
540.5454, 168.0069
541.0275, 162.3299
541.5096, 163.9978
541.9918, 173.4368
542.4739, 181.1997
542.9560, 179.2030
543.4381, 169.2080
543.9202, 166.4522
544.4023, 181.5559
544.8845, 189.6578
545.3666, 178.4731
545.8487, 161.7491
546.3308, 155.2066
546.8129, 161.7548
547.2950, 171.9987
547.7772, 175.0932
548.2593, 170.6682
548.7414, 171.0358
549.2235, 180.8305
549.7056, 188.7941
550.1877, 188.6957
550.6699, 185.2677
551.1520, 186.1591
551.6341, 195.1475
552.1162, 202.2297
552.5983, 195.5849
553.0804, 178.7162
553.5626, 164.6192
554.0447, 154.8167
554.5268, 151.9293
555.0089, 162.0125
555.4910, 184.6249
555.9731, 196.7161
556.4553, 189.8879
556.9374, 180.8803
557.4195, 177.1247
557.9016, 176.6057
558.3837, 175.9985
558.8658, 174.0442
559.3480, 170.3403
559.8301, 163.2671
560.3122, 150.2285
560.7943, 144.2457
561.2764, 151.0892
561.7585, 159.6849
562.2407, 168.8647
562.7228, 176.6618
563.2049, 179.6356
563.6870, 175.3003
564.1691, 168.5306
564.6512, 165.1808
565.1334, 165.1889
565.6155, 168.1571
566.0976, 175.6212
566.5797, 183.2051
567.0618, 184.6492
567.5439, 180.7976
568.0261, 180.6668
568.5082, 190.5512
568.9903, 199.9673
569.4724, 201.3482
569.9545, 196.8831
570.4366, 192.8154
570.9188, 191.8243
571.4009, 190.6441
571.8830, 182.8342
572.3651, 163.9953
572.8472, 150.3558
573.3293, 139.8544
573.8115, 136.2088
574.2936, 145.8460
574.7757, 163.2109
575.2578, 177.2916
575.7399, 182.6669
576.2220, 182.5257
576.7042, 181.4556
577.1863, 179.4611
577.6684, 174.6155
578.1505, 162.9683
578.6326, 153.6059
579.1147, 160.3573
579.5969, 180.9200
580.0790, 193.7268
580.5611, 190.8665
581.0432, 182.4937
581.5253, 173.1868
582.0074, 164.0822
582.4896, 155.8201
582.9717, 148.5199
583.4538, 145.5854
583.9359, 154.4526
584.4180, 182.7298
584.9001, 200.9130
585.3823, 207.8949
585.8644, 206.6069
586.3465, 191.4122
586.8286, 169.7305
587.3107, 155.2793
587.7928, 154.9276
588.2750, 162.4520
588.7571, 171.8148
589.2392, 182.7638
589.7213, 186.2292
590.2034, 167.0583
590.6855, 179.9464
591.1677, 186.9468
591.6498, 188.3763
592.1319, 167.5483
592.6140, 175.4611
593.0961, 171.8558
593.5782, 167.7784
594.0604, 179.7362
594.5425, 162.1455
595.0246, 173.8492
595.5067, 173.8590
595.9888, 179.2209
596.4709, 172.9935
596.9531, 164.3981
597.4352, 163.1924
597.9173, 162.1850
598.3994, 159.8915
598.8815, 157.0009
599.3636, 154.4456
599.8458, 152.4386
600.3279, 151.5539
600.8100, 153.6008
601.2921, 157.6521
601.7742, 157.9054
602.2563, 151.8915
602.7385, 148.3610
603.2206, 158.1887
603.7027, 178.7764
604.1848, 185.3265
604.6669, 163.5116
605.1490, 144.6174
605.6312, 139.4838
606.1133, 143.4126
606.5954, 152.0845
607.0775, 163.6157
607.5596, 175.3979
608.0417, 185.7725
608.5239, 194.5764
609.0060, 192.4611
609.4881, 168.4707
609.9702, 151.8720
610.4523, 158.8867
610.9344, 174.0248
611.4166, 180.1339
611.8987, 173.6960
612.3808, 166.6184
612.8629, 167.0247
613.3450, 171.9470
613.8271, 176.7496
614.3093, 180.9500
614.7914, 183.6206
615.2735, 184.4828
615.7556, 183.1779
616.2377, 178.3124
616.7198, 161.8940
617.2020, 153.1357
617.6841, 159.8708
618.1662, 169.1404
618.6483, 171.1013
619.1304, 166.0324
619.6125, 159.0629
620.0947, 152.5537
620.5768, 148.2918
621.0589, 153.5551
621.5410, 171.1387
622.0231, 181.0846
622.5052, 172.0082
622.9874, 159.6448
623.4695, 163.0529
623.9516, 180.8696
624.4337, 191.0489
624.9158, 182.6864
625.3979, 168.9260
