##NAMES=Agardite-(Y)
##RRUFFID=R060924
##IDEAL CHEMISTRY=Cu^2+^_6_Y^3+^(As^5+^O_4_)_3_(OH)_6_&#183;3H_2_O
##LOCALITY=Bou Skour mine, Djebel Sarhro, Morocco
##OWNER=RRUFF
##SOURCE=Bob Jenkins
##DESCRIPTION=Light bluish-green flexible fibers
##STATUS=The identification of this mineral has been confirmed by X-ray diffraction and chemical analysis
##URL=rruff.info/R060924
##MEASURED CHEMISTRY=(Cu_5.81_Ca_0.11_Fe_0.02_)_Σ=5.94_(Y_0.51_Nd_0.05_Gd_0.04_La_0.03_Sm_0.02_Pr_0.01_Ca_0.34_)_Σ=1.00_[(AsO_4_)_0.85_(PO_4_)_0.03_(SiO_4_)_0.01_]_3_(OH)_6_·4.04H_2_O
97.29694, 769.3470
97.77905, 770.8092
98.26117, 775.1752
98.74329, 784.0265
99.22540, 796.3958
99.70752, 805.2629
100.1896, 809.6826
100.6718, 812.3933
101.1539, 816.6961
101.6360, 822.8672
102.1181, 829.6807
102.6002, 836.5563
103.0823, 843.2665
103.5645, 851.3190
104.0466, 860.5178
104.5287, 871.2092
105.0108, 884.4810
105.4929, 901.3855
105.9750, 919.2823
106.4572, 937.8803
106.9393, 962.9059
107.4214, 978.4024
107.9035, 980.6208
108.3856, 973.0449
108.8677, 967.6637
109.3499, 966.5730
109.8320, 966.1253
110.3141, 964.7793
110.7962, 961.0807
111.2783, 958.1234
111.7604, 956.8447
112.2426, 956.8782
112.7247, 955.7480
113.2068, 951.0043
113.6889, 946.0476
114.1710, 943.2674
114.6531, 947.1088
115.1353, 949.4251
115.6174, 946.8539
116.0995, 939.3532
116.5816, 932.3964
117.0637, 929.8890
117.5458, 928.3690
118.0280, 924.0315
118.5101, 912.5289
118.9922, 899.7610
119.4743, 889.0518
119.9564, 880.6081
120.4385, 873.6169
120.9207, 866.4395
121.4028, 860.4193
121.8849, 857.9333
122.3670, 865.0587
122.8491, 874.0920
123.3312, 876.4211
123.8134, 870.0511
124.2955, 860.8362
124.7776, 852.5543
125.2597, 845.5343
125.7418, 840.8220
126.2239, 839.6161
126.7061, 841.1550
127.1882, 844.1965
127.6703, 848.9637
128.1524, 854.4391
128.6345, 858.9029
129.1166, 862.4937
129.5988, 866.6688
130.0809, 873.6130
130.5630, 882.3934
131.0451, 888.9150
131.5272, 891.5740
132.0093, 891.9850
132.4915, 893.6349
132.9736, 896.5322
133.4557, 900.6090
133.9378, 906.4711
134.4199, 914.0719
134.9020, 920.5131
135.3842, 924.8423
135.8663, 927.3303
136.3484, 929.7951
136.8305, 932.0974
137.3126, 934.6837
137.7947, 938.9993
138.2769, 946.0378
138.7590, 949.5866
139.2411, 947.5052
139.7232, 939.6526
140.2053, 930.1555
140.6874, 917.8181
141.1696, 905.2405
141.6517, 896.3800
142.1338, 892.8065
142.6159, 889.3636
143.0980, 884.2494
143.5801, 876.8348
144.0623, 871.1968
144.5444, 867.6723
145.0265, 865.7959
145.5086, 864.9471
145.9907, 865.9681
146.4728, 866.9500
146.9550, 867.3205
147.4371, 866.9887
147.9192, 866.2626
148.4013, 864.8971
148.8834, 863.1702
149.3655, 861.6467
149.8477, 859.4324
150.3298, 858.1953
150.8119, 858.6648
151.2940, 862.8982
151.7761, 865.7874
152.2583, 865.6502
152.7404, 863.8315
153.2225, 864.1645
153.7046, 869.4755
154.1867, 875.1954
154.6688, 879.2405
155.1510, 881.0446
155.6331, 881.6578
156.1152, 880.5491
156.5973, 878.1618
157.0794, 876.2487
157.5615, 875.2833
158.0437, 874.8386
158.5258, 874.6461
159.0079, 874.5662
159.4900, 874.8210
159.9721, 875.2448
160.4542, 875.9454
160.9364, 877.5457
161.4185, 881.0876
161.9006, 885.2289
162.3827, 888.8896
162.8648, 892.1332
163.3469, 894.4929
163.8291, 895.2294
164.3112, 894.5151
164.7933, 894.1815
165.2754, 894.9075
165.7575, 896.5453
166.2396, 898.9398
166.7218, 902.3082
167.2039, 906.2097
167.6860, 910.5027
168.1681, 915.1404
168.6502, 919.9084
169.1323, 924.4548
169.6145, 929.0479
170.0966, 934.0283
170.5787, 940.7023
171.0608, 947.1240
171.5429, 951.4052
172.0250, 953.4777
172.5072, 954.7595
172.9893, 956.2704
173.4714, 957.8170
173.9535, 959.0381
174.4356, 960.1182
174.9177, 960.6339
175.3999, 959.7117
175.8820, 957.1617
176.3641, 954.6525
176.8462, 953.5702
177.3283, 953.6685
177.8104, 954.3299
178.2926, 955.3675
178.7747, 956.7279
179.2568, 958.4220
179.7389, 960.4680
180.2210, 962.5664
180.7031, 964.1641
181.1853, 965.4297
181.6674, 966.9587
182.1495, 969.5468
182.6316, 972.5922
183.1137, 974.4584
183.5958, 974.9265
184.0780, 974.8858
184.5601, 975.6393
185.0422, 977.0435
185.5243, 978.1467
186.0064, 978.4850
186.4885, 978.1411
186.9707, 977.3157
187.4528, 975.9841
187.9349, 974.3006
188.4170, 972.4078
188.8991, 970.3149
189.3812, 968.1832
189.8634, 966.1043
190.3455, 964.0524
190.8276, 961.8121
191.3097, 959.2787
191.7918, 956.6539
192.2739, 954.5406
192.7561, 952.9408
193.2382, 950.7347
193.7203, 947.2658
194.2024, 942.5867
194.6845, 937.0270
195.1666, 930.4057
195.6488, 923.2938
196.1309, 916.7958
196.6130, 910.8675
197.0951, 905.2929
197.5772, 900.1205
198.0593, 895.3665
198.5415, 889.8441
199.0236, 883.1472
199.5057, 876.0487
199.9878, 870.5964
200.4699, 867.0414
200.9520, 863.8731
201.4342, 860.3499
201.9163, 856.4430
202.3984, 852.3655
202.8805, 848.1770
203.3626, 843.7819
203.8447, 838.6185
204.3269, 832.2746
204.8090, 826.6185
205.2911, 823.1691
205.7732, 822.3620
206.2553, 820.5628
206.7374, 817.1423
207.2196, 812.8665
207.7017, 809.9446
208.1838, 808.7602
208.6659, 807.8741
209.1480, 806.5937
209.6301, 804.9254
210.1123, 802.7129
210.5944, 799.6780
211.0765, 796.2206
211.5586, 793.4738
212.0407, 791.5222
212.5228, 790.0854
213.0050, 789.0383
213.4871, 788.3906
213.9692, 788.1561
214.4513, 788.5694
214.9334, 789.3016
215.4155, 789.3193
215.8977, 788.3278
216.3798, 787.1717
216.8619, 786.2512
217.3440, 785.5234
217.8261, 785.1095
218.3082, 784.9141
218.7904, 785.0541
219.2725, 785.9936
219.7546, 788.0341
220.2367, 790.3157
220.7188, 792.3593
221.2009, 794.0215
221.6831, 795.9365
222.1652, 798.2707
222.6473, 800.8533
223.1294, 802.9990
223.6115, 804.2867
224.0936, 805.9021
224.5758, 808.5250
225.0579, 812.6194
225.5400, 816.5645
226.0221, 820.2066
226.5042, 823.7385
226.9863, 827.6067
227.4685, 832.1200
227.9506, 836.5621
228.4327, 840.6324
228.9148, 844.4099
229.3969, 847.7043
229.8790, 850.4769
230.3612, 852.7620
230.8433, 854.7813
231.3254, 857.2176
231.8075, 858.3503
232.2896, 857.2834
232.7717, 853.1478
233.2539, 848.9153
233.7360, 844.7806
234.2181, 840.5405
234.7002, 835.7169
235.1823, 830.3961
235.6644, 824.3777
236.1466, 817.4169
236.6287, 808.9534
237.1108, 801.0626
237.5929, 793.8465
238.0750, 787.2715
238.5571, 781.4299
239.0393, 776.8087
239.5214, 772.1633
240.0035, 766.9589
240.4856, 760.7075
240.9677, 755.2802
241.4498, 750.8510
241.9320, 747.1879
242.4141, 743.8125
242.8962, 740.7815
243.3783, 737.9774
243.8604, 735.3547
244.3425, 732.8857
244.8247, 730.7342
245.3068, 728.8724
245.7889, 727.3546
246.2710, 726.3254
246.7531, 726.2615
247.2352, 725.8376
247.7174, 724.3899
248.1995, 721.4834
248.6816, 719.8298
249.1637, 719.9423
249.6458, 720.9037
250.1279, 721.4578
250.6101, 721.5307
251.0922, 721.3132
251.5743, 720.7450
252.0564, 719.7269
252.5385, 719.1174
253.0206, 719.1481
253.5028, 719.3719
253.9849, 719.2577
254.4670, 718.7432
254.9491, 718.0107
255.4312, 716.9025
255.9133, 715.3623
256.3955, 714.7582
256.8776, 715.5256
257.3597, 716.7454
257.8418, 717.4397
258.3239, 717.4122
258.8061, 717.3145
259.2882, 717.2159
259.7703, 717.1185
260.2524, 717.2918
260.7345, 717.9336
261.2166, 718.5714
261.6988, 718.8223
262.1809, 718.7023
262.6630, 718.1381
263.1451, 717.0544
263.6272, 715.4882
264.1093, 713.7546
264.5915, 711.5951
265.0736, 709.7111
265.5557, 708.7606
266.0378, 709.0890
266.5199, 709.1606
267.0020, 708.5693
267.4842, 707.5586
267.9663, 707.5857
268.4484, 709.1472
268.9305, 710.5936
269.4126, 710.5757
269.8947, 708.6296
270.3769, 707.2898
270.8590, 707.0417
271.3411, 707.4290
271.8232, 706.8683
272.3053, 705.0398
272.7874, 703.2302
273.2696, 702.3408
273.7517, 702.5892
274.2338, 702.1735
274.7159, 700.5982
275.1980, 698.6759
275.6801, 698.6510
276.1623, 700.9815
276.6444, 703.1829
277.1265, 703.7552
277.6086, 702.5443
278.0907, 702.0851
278.5728, 702.6973
279.0550, 703.6752
279.5371, 703.5460
280.0192, 702.1254
280.5013, 701.1006
280.9834, 701.4129
281.4655, 703.0193
281.9477, 704.3837
282.4298, 705.5219
282.9119, 706.3172
283.3940, 706.3483
283.8761, 705.5806
284.3582, 705.1588
284.8404, 705.7198
285.3225, 707.0449
285.8046, 707.9584
286.2867, 708.4891
286.7688, 708.4116
287.2509, 707.1100
287.7331, 704.6904
288.2152, 702.6808
288.6973, 701.9404
289.1794, 701.8652
289.6615, 700.2304
290.1436, 696.9109
290.6258, 693.4971
291.1079, 691.6395
291.5900, 691.0591
292.0721, 690.1971
292.5542, 688.6223
293.0363, 686.6114
293.5185, 684.5067
294.0006, 682.3071
294.4827, 680.5964
294.9648, 680.1847
295.4469, 680.6313
295.9290, 680.5052
296.4112, 679.3464
296.8933, 677.8220
297.3754, 676.8474
297.8575, 676.3976
298.3396, 676.3337
298.8217, 676.7373
299.3039, 677.4372
299.7860, 678.1426
300.2681, 678.8669
300.7502, 679.4241
301.2323, 679.3661
301.7144, 678.8867
302.1966, 678.6636
302.6787, 679.3967
303.1608, 680.4649
303.6429, 680.7303
304.1250, 679.9255
304.6071, 679.6406
305.0893, 681.7000
305.5714, 685.3674
306.0535, 689.0124
306.5356, 692.1198
307.0177, 694.7844
307.4998, 697.0089
307.9820, 698.8154
308.4641, 700.3158
308.9462, 701.0658
309.4283, 701.7015
309.9104, 703.0861
310.3925, 706.2939
310.8747, 709.7579
311.3568, 712.0781
311.8389, 713.4630
312.3210, 715.4283
312.8031, 719.1917
313.2852, 723.7869
313.7674, 728.2542
314.2495, 731.5229
314.7316, 735.5911
315.2137, 742.4894
315.6958, 751.2186
316.1779, 758.4259
316.6601, 760.9618
317.1422, 762.6277
317.6243, 765.7891
318.1064, 770.9083
318.5885, 777.3874
319.0706, 786.8088
319.5528, 797.3398
320.0349, 805.4355
320.5170, 807.9469
320.9991, 809.5624
321.4812, 812.3114
321.9633, 816.7342
322.4455, 821.0349
322.9276, 825.5266
323.4097, 829.5273
323.8918, 832.1995
324.3739, 833.0888
324.8560, 832.9741
325.3382, 832.1039
325.8203, 830.5259
326.3024, 827.8110
326.7845, 823.4776
327.2666, 818.2491
327.7487, 812.6756
328.2309, 807.1642
328.7130, 800.9188
329.1951, 793.6507
329.6772, 785.4531
330.1593, 777.2133
330.6414, 768.9041
331.1236, 760.6700
331.6057, 752.4680
332.0878, 743.7562
332.5699, 736.0240
333.0520, 729.6922
333.5341, 724.3292
334.0163, 718.7853
334.4984, 712.8263
334.9805, 707.1517
335.4626, 701.9384
335.9447, 697.0638
336.4268, 693.2268
336.9090, 690.9113
337.3911, 689.1019
337.8732, 686.0246
338.3553, 681.2034
338.8374, 676.8195
339.3195, 673.5978
339.8017, 671.5306
340.2838, 669.4705
340.7659, 667.3391
341.2480, 665.4211
341.7301, 664.0714
342.2122, 663.3361
342.6944, 662.6003
343.1765, 661.7672
343.6586, 660.8097
344.1407, 659.7023
344.6228, 658.4569
345.1049, 656.9496
345.5871, 654.9045
346.0692, 652.4083
346.5513, 650.3219
347.0334, 648.8506
347.5155, 647.6066
347.9977, 645.8395
348.4798, 643.6213
348.9619, 641.6898
349.4440, 640.8963
349.9261, 640.6466
350.4082, 639.4291
350.8904, 637.0345
351.3725, 634.4755
351.8546, 632.5472
352.3367, 631.2562
352.8188, 630.5872
353.3009, 631.2557
353.7831, 632.1634
354.2652, 631.9694
354.7473, 630.7004
355.2294, 629.0147
355.7115, 626.8084
356.1936, 624.6494
356.6758, 623.3441
357.1579, 623.6517
357.6400, 624.1909
358.1221, 623.8815
358.6042, 622.9479
359.0863, 622.1850
359.5685, 622.0148
360.0506, 622.1571
360.5327, 622.4281
361.0148, 622.8276
361.4969, 623.2779
361.9790, 623.8004
362.4612, 624.3447
362.9433, 624.8326
363.4254, 625.5311
363.9075, 625.9082
364.3896, 625.5397
364.8717, 624.2496
365.3539, 623.3801
365.8360, 623.6019
366.3181, 624.1622
366.8002, 624.3737
367.2823, 623.3925
367.7644, 622.8936
368.2466, 623.3239
368.7287, 624.6024
369.2108, 625.6924
369.6929, 626.5198
370.1750, 627.2382
370.6571, 627.8918
371.1393, 628.2258
371.6214, 628.9893
372.1035, 630.4666
372.5856, 632.3018
373.0677, 633.5787
373.5498, 633.8651
374.0320, 634.4615
374.5141, 636.0215
374.9962, 638.7316
375.4783, 640.6376
375.9604, 641.4708
376.4425, 641.9113
376.9247, 642.7150
377.4068, 643.8917
377.8889, 645.3338
378.3710, 647.0499
378.8531, 648.9847
379.3352, 650.9617
379.8174, 652.9594
380.2995, 655.0253
380.7816, 657.2994
381.2637, 659.7394
381.7458, 661.6787
382.2279, 662.8331
382.7101, 663.9191
383.1922, 666.2767
383.6743, 669.7783
384.1564, 673.3696
384.6385, 676.5811
385.1206, 679.4990
385.6028, 682.3052
386.0849, 685.0062
386.5670, 687.6150
387.0491, 690.0678
387.5312, 692.4610
388.0133, 695.0045
388.4955, 697.7379
388.9776, 700.6818
389.4597, 704.0956
389.9418, 707.8448
390.4239, 711.1292
390.9060, 712.9141
391.3882, 714.3021
391.8703, 716.4026
392.3524, 719.9538
392.8345, 723.2028
393.3166, 724.9118
393.7987, 725.7496
394.2809, 727.0284
394.7630, 729.6013
395.2451, 732.3492
395.7272, 734.9377
396.2093, 737.3712
396.6914, 739.2809
397.1736, 740.1906
397.6557, 740.7269
398.1378, 741.4688
398.6199, 743.1805
399.1020, 744.2755
399.5841, 744.7108
400.0663, 744.4342
400.5484, 743.0350
401.0305, 739.6923
401.5126, 736.1176
401.9947, 733.2049
402.4768, 731.5961
402.9590, 729.2043
403.4411, 725.8464
403.9232, 721.8637
404.4053, 717.7659
404.8874, 713.4350
405.3695, 709.3662
405.8517, 705.7733
406.3338, 702.6467
406.8159, 699.1301
407.2980, 695.0221
407.7801, 691.2230
408.2622, 688.8218
408.7444, 687.7431
409.2265, 686.5966
409.7086, 685.0386
410.1907, 683.3569
410.6728, 682.0996
411.1549, 681.2404
411.6371, 680.6485
412.1192, 680.0062
412.6013, 679.5994
413.0834, 680.2432
413.5655, 682.0899
414.0476, 684.2365
414.5298, 685.7391
415.0119, 686.9062
415.4940, 688.3949
415.9761, 690.1750
416.4582, 692.5980
416.9403, 696.1675
417.4225, 700.7604
417.9046, 705.5740
418.3867, 710.1342
418.8688, 714.6523
419.3509, 719.1713
419.8330, 723.5964
420.3152, 728.3651
420.7973, 733.9366
421.2794, 739.9749
421.7615, 745.9042
422.2436, 751.2158
422.7257, 756.7235
423.2079, 762.9024
423.6900, 769.8633
424.1721, 776.5027
424.6542, 783.0737
425.1363, 789.1222
425.6184, 794.3983
426.1006, 798.4609
426.5827, 802.2950
427.0648, 806.2328
427.5469, 809.9809
428.0290, 812.3522
428.5111, 812.9641
428.9933, 812.9081
429.4754, 812.6692
429.9575, 812.3021
430.4396, 811.2761
430.9217, 809.6536
431.4038, 807.2333
431.8860, 803.3898
432.3681, 798.0536
432.8502, 793.4156
433.3323, 790.6083
433.8144, 788.5309
434.2965, 783.8668
434.7787, 776.6647
435.2608, 769.1065
435.7429, 762.5635
436.2250, 756.8605
436.7071, 751.6866
437.1892, 747.1233
437.6714, 742.5828
438.1535, 736.9631
438.6356, 730.9159
439.1177, 725.9313
439.5998, 723.3895
440.0819, 721.6747
440.5641, 719.4202
441.0462, 716.6677
441.5283, 714.1118
442.0104, 711.9236
442.4925, 710.2113
442.9746, 709.0944
443.4568, 708.5914
443.9389, 708.6431
444.4210, 709.4460
444.9031, 710.7653
445.3852, 712.1635
445.8673, 713.3815
446.3495, 714.8220
446.8316, 716.6725
447.3137, 719.0057
447.7958, 721.3373
448.2779, 723.5390
448.7600, 725.8397
449.2422, 728.3406
449.7243, 730.7744
450.2064, 734.0925
450.6885, 738.7391
451.1706, 744.2090
451.6527, 748.8727
452.1349, 752.4101
452.6170, 756.3687
453.0991, 761.4191
453.5812, 767.5946
454.0633, 774.1324
454.5454, 781.1738
455.0276, 788.1988
455.5097, 794.3392
455.9918, 799.8312
456.4739, 805.7370
456.9560, 812.4061
457.4381, 819.5735
457.9203, 826.9156
458.4024, 834.4059
458.8845, 842.1314
459.3666, 850.1225
459.8488, 858.3261
460.3309, 866.4394
460.8130, 874.3648
461.2951, 882.8269
461.7772, 892.5281
462.2593, 902.8395
462.7415, 912.8399
463.2236, 921.7051
463.7057, 930.7611
464.1878, 940.5029
464.6699, 950.7670
465.1520, 961.2441
465.6342, 970.9517
466.1163, 981.3467
466.5984, 993.3332
467.0805, 1007.583
467.5626, 1021.465
468.0447, 1034.001
468.5269, 1046.641
469.0090, 1060.961
469.4911, 1076.981
469.9732, 1094.634
470.4553, 1114.362
470.9374, 1135.683
471.4196, 1156.978
471.9017, 1177.888
472.3838, 1199.483
472.8659, 1222.427
473.3480, 1246.808
473.8301, 1271.574
474.3123, 1296.870
474.7944, 1322.363
475.2765, 1348.168
475.7586, 1374.008
476.2407, 1398.506
476.7228, 1421.395
477.2050, 1442.655
477.6871, 1462.432
478.1692, 1480.572
478.6513, 1495.819
479.1334, 1508.313
479.6155, 1517.065
480.0977, 1521.073
480.5798, 1520.240
481.0619, 1514.734
481.5440, 1503.879
482.0261, 1488.783
482.5082, 1470.624
482.9904, 1450.570
483.4725, 1426.662
483.9546, 1396.700
484.4367, 1361.742
484.9188, 1327.274
485.4009, 1293.580
485.8831, 1260.684
486.3652, 1228.095
486.8473, 1195.956
487.3294, 1164.629
487.8115, 1133.566
488.2936, 1103.806
488.7758, 1075.952
489.2579, 1049.821
489.7400, 1025.930
490.2221, 1004.714
490.7042, 985.5123
491.1863, 967.0907
491.6685, 949.3608
492.1506, 932.4145
492.6327, 916.5114
493.1148, 901.4362
493.5969, 887.2383
494.0790, 873.7245
494.5612, 861.2588
495.0433, 850.3573
495.5254, 840.6716
496.0075, 831.0417
496.4896, 820.7845
496.9717, 811.2090
497.4539, 804.3627
497.9360, 799.3734
498.4181, 794.2662
498.9002, 787.6418
499.3823, 780.8557
499.8644, 774.6064
500.3466, 768.8741
500.8287, 763.8398
501.3108, 759.6801
501.7929, 756.1369
502.2750, 753.0262
502.7571, 750.5145
503.2393, 748.1328
503.7214, 745.8923
504.2035, 743.7590
504.6856, 741.6484
505.1677, 739.6371
505.6498, 737.5217
506.1320, 735.2090
506.6141, 732.6959
507.0962, 730.2741
507.5783, 727.9720
508.0604, 725.7115
508.5425, 723.4385
509.0247, 721.1630
509.5068, 718.9789
509.9889, 716.9895
510.4710, 714.8439
510.9531, 711.8293
511.4352, 708.1805
511.9174, 704.7560
512.3995, 702.2849
512.8816, 699.9861
513.3637, 696.6305
513.8458, 692.4274
514.3279, 688.6702
514.8101, 686.6892
515.2922, 685.0982
515.7743, 682.5369
516.2564, 678.2696
516.7385, 674.8786
517.2206, 673.9016
517.7028, 674.0364
518.1849, 673.8136
518.6670, 672.4352
519.1491, 671.3598
519.6312, 670.9732
520.1133, 671.0990
520.5955, 670.9041
521.0776, 670.0525
521.5597, 669.4766
522.0418, 669.5399
522.5239, 670.2657
523.0060, 671.6802
523.4882, 673.9937
523.9703, 676.4680
524.4524, 678.2458
524.9345, 679.3790
525.4166, 680.6949
525.8987, 682.3665
526.3809, 684.2631
526.8630, 686.1326
527.3451, 688.0481
527.8272, 690.2784
528.3093, 693.3182
528.7914, 696.5389
529.2736, 699.2289
529.7557, 701.4129
530.2378, 703.4548
530.7199, 705.7594
531.2020, 707.9164
531.6841, 709.5635
532.1663, 710.5941
532.6484, 711.2405
533.1305, 711.4410
533.6126, 711.3502
534.0947, 711.1993
534.5768, 711.5172
535.0590, 711.1661
535.5411, 709.9316
536.0232, 707.8812
536.5053, 705.3679
536.9874, 702.2598
537.4695, 699.0925
537.9517, 696.2935
538.4338, 693.8873
538.9159, 690.7736
539.3980, 686.7949
539.8801, 682.7681
540.3622, 679.8082
540.8444, 677.7054
541.3265, 675.3818
541.8086, 672.5847
542.2907, 669.4303
542.7728, 665.6632
543.2549, 661.5739
543.7371, 658.1091
544.2192, 656.3265
544.7013, 654.9117
545.1834, 652.7196
545.6655, 649.7711
546.1476, 647.1510
546.6298, 645.4238
547.1119, 644.1102
547.5940, 642.9130
548.0761, 641.8129
548.5582, 640.8039
549.0403, 639.9979
549.5225, 639.2217
550.0046, 638.2518
550.4867, 636.8956
550.9688, 635.7225
551.4509, 634.7899
551.9330, 634.1107
552.4152, 633.8734
552.8973, 634.1676
553.3794, 634.3098
553.8615, 633.7599
554.3436, 632.6947
554.8257, 632.3387
555.3079, 632.7545
555.7900, 632.7842
556.2721, 630.8145
556.7542, 627.8380
557.2363, 625.7689
557.7184, 625.2471
558.2006, 625.0130
558.6827, 624.2465
559.1648, 623.0778
559.6469, 621.7060
560.1290, 619.9129
560.6111, 618.2415
561.0933, 617.0056
561.5754, 616.1375
562.0575, 615.1921
562.5396, 614.0734
563.0217, 612.8984
563.5038, 611.6472
563.9860, 610.2255
564.4681, 609.1897
564.9502, 608.7361
565.4323, 608.3610
565.9144, 607.5540
566.3965, 606.2747
566.8787, 604.8772
567.3608, 603.1768
567.8429, 601.8660
568.3250, 603.1943
568.8071, 606.4876
569.2892, 607.9297
569.7714, 604.2621
570.2535, 598.8226
570.7356, 596.3015
571.2177, 596.2761
571.6998, 596.4748
572.1819, 595.9853
572.6641, 594.8760
573.1462, 592.8923
573.6283, 589.6801
574.1104, 587.2990
574.5925, 587.0409
575.0746, 587.5079
575.5568, 587.4211
576.0389, 586.1194
576.5210, 585.0417
577.0031, 584.4203
577.4852, 583.9756
577.9673, 583.0428
578.4495, 581.3748
578.9316, 579.9875
579.4137, 579.1546
579.8958, 578.8626
580.3779, 579.4073
580.8600, 580.8517
581.3422, 581.5839
581.8243, 579.7567
582.3064, 576.5197
582.7885, 574.5826
583.2706, 574.1796
583.7527, 574.3404
584.2349, 574.5558
584.7170, 574.7465
585.1991, 574.8039
585.6812, 574.6243
586.1633, 574.4214
586.6454, 574.3835
587.1276, 574.3586
587.6097, 574.0793
588.0918, 573.6953
588.5739, 572.7919
589.0560, 570.8276
589.5381, 568.0863
590.0203, 566.7717
