##NAMES=Agardite-(Y)
##RRUFFID=R070357
##IDEAL CHEMISTRY=Cu^2+^_6_Y^3+^(As^5+^O_4_)_3_(OH)_6_&#183;3H_2_O
##LOCALITY=Hayashi, Setoda, Ikuchi Island, Hiroshima Prefecture, Chugoku Region, Honshu Island, Japan
##OWNER=Michael Scott
##SOURCE=Michael Scott
##DESCRIPTION=Green acicular to fibrous in spherical aggregates
##STATUS=The identification of this mineral is confirmed by single-crystal X-ray diffraction and chemical analysis.
##URL=rruff.info/R070357
##MEASURED CHEMISTRY=(Cu_5.59_Ca_0.28_Zn_0.03_Fe_0.01_)_Σ=5.91_(Y_0.35_La_0.08_Nd_0.06_Gd_0.03_Ce_0.02_Sm_0.01_Pr_0.01_Al_0.50_)_Σ=1.05_[(AsO_4_)_0.80_(SiO_4_)_0.14_(PO_4_)_0.02_]_3_(OH)_6_·3.51H_2_O
192.8548, 6250.270
193.3369, 6265.895
193.8190, 6284.963
194.3011, 6302.779
194.7832, 6317.522
195.2654, 6329.158
195.7475, 6336.152
196.2296, 6331.062
196.7117, 6336.084
197.1938, 6361.729
197.6759, 6392.742
198.1581, 6416.257
198.6402, 6427.972
199.1223, 6431.773
199.6044, 6434.970
200.0865, 6439.723
200.5686, 6439.002
201.0508, 6427.763
201.5329, 6414.614
202.0150, 6404.138
202.4971, 6398.171
202.9792, 6399.084
203.4613, 6413.015
203.9435, 6450.806
204.4256, 6476.821
204.9077, 6486.712
205.3898, 6488.369
205.8719, 6484.973
206.3540, 6478.068
206.8362, 6470.067
207.3183, 6463.031
207.8004, 6453.717
208.2825, 6454.575
208.7646, 6479.976
209.2467, 6503.355
209.7289, 6504.944
210.2110, 6485.033
210.6931, 6461.692
211.1752, 6457.994
211.6573, 6482.657
212.1395, 6494.808
212.6216, 6483.096
213.1037, 6469.467
213.5858, 6463.594
214.0679, 6466.032
214.5500, 6472.357
215.0322, 6477.785
215.5143, 6481.197
215.9964, 6491.386
216.4785, 6523.448
216.9606, 6548.300
217.4427, 6546.449
217.9249, 6526.038
218.4070, 6512.422
218.8891, 6530.537
219.3712, 6581.952
219.8533, 6607.803
220.3354, 6562.337
220.8176, 6535.109
221.2997, 6568.908
221.7818, 6639.832
222.2639, 6697.431
222.7460, 6704.142
223.2281, 6665.464
223.7103, 6640.023
224.1924, 6630.658
224.6745, 6633.447
225.1566, 6658.622
225.6387, 6693.213
226.1208, 6718.011
226.6030, 6721.026
227.0851, 6707.888
227.5672, 6702.756
228.0493, 6717.701
228.5314, 6724.142
229.0135, 6703.232
229.4957, 6676.862
229.9778, 6674.438
230.4599, 6710.096
230.9420, 6764.507
231.4241, 6788.466
231.9062, 6759.478
232.3884, 6737.255
232.8705, 6731.583
233.3526, 6733.777
233.8347, 6739.845
234.3168, 6747.838
234.7989, 6750.923
235.2811, 6732.669
235.7632, 6673.152
236.2453, 6640.538
236.7274, 6657.608
237.2095, 6687.701
237.6916, 6707.150
238.1738, 6711.331
238.6559, 6710.774
239.1380, 6719.714
239.6201, 6742.438
240.1022, 6758.719
240.5843, 6765.539
241.0665, 6767.676
241.5486, 6765.837
242.0307, 6760.848
242.5128, 6754.563
242.9949, 6747.147
243.4770, 6737.895
243.9592, 6736.223
244.4413, 6753.172
244.9234, 6767.482
245.4055, 6771.180
245.8876, 6765.654
246.3697, 6755.302
246.8519, 6739.954
247.3340, 6721.439
247.8161, 6718.440
248.2982, 6748.044
248.7803, 6770.415
249.2624, 6765.553
249.7446, 6746.057
250.2267, 6733.222
250.7088, 6740.397
251.1909, 6759.408
251.6730, 6766.649
252.1551, 6758.759
252.6373, 6745.259
253.1194, 6722.304
253.6015, 6698.821
254.0836, 6684.985
254.5657, 6685.082
255.0478, 6693.714
255.5300, 6702.562
256.0121, 6710.927
256.4942, 6722.147
256.9763, 6743.958
257.4584, 6765.058
257.9406, 6775.091
258.4227, 6771.522
258.9048, 6766.009
259.3869, 6772.784
259.8690, 6792.625
260.3511, 6806.728
260.8333, 6808.110
261.3154, 6805.480
261.7975, 6805.188
262.2796, 6807.360
262.7617, 6808.948
263.2438, 6807.205
263.7260, 6802.750
264.2081, 6799.487
264.6902, 6799.001
265.1723, 6797.856
265.6544, 6789.451
266.1365, 6777.271
266.6187, 6773.702
267.1008, 6791.339
267.5829, 6820.313
268.0650, 6840.454
268.5471, 6850.825
269.0292, 6853.839
269.5114, 6847.291
269.9935, 6834.699
270.4756, 6820.704
270.9577, 6798.970
271.4398, 6782.487
271.9219, 6790.699
272.4041, 6824.407
272.8862, 6856.676
273.3683, 6876.000
273.8504, 6884.026
274.3325, 6885.131
274.8146, 6876.187
275.2968, 6866.309
275.7789, 6863.100
276.2610, 6864.574
276.7431, 6861.728
277.2252, 6849.442
277.7073, 6834.075
278.1895, 6825.011
278.6716, 6821.222
279.1537, 6825.205
279.6358, 6843.392
280.1179, 6868.766
280.6000, 6890.027
281.0822, 6904.987
281.5643, 6914.384
282.0464, 6919.301
282.5285, 6920.001
283.0106, 6912.566
283.4927, 6880.681
283.9749, 6850.499
284.4570, 6850.019
284.9391, 6879.706
285.4212, 6915.551
285.9033, 6940.887
286.3854, 6954.698
286.8676, 6954.271
287.3497, 6917.977
287.8318, 6889.652
288.3139, 6899.493
288.7960, 6935.492
289.2781, 6962.944
289.7603, 6961.094
290.2424, 6938.750
290.7245, 6933.135
291.2066, 6960.794
291.6887, 6983.489
292.1708, 6996.508
292.6530, 7001.130
293.1351, 6997.610
293.6172, 6986.187
294.0993, 6970.104
294.5814, 6954.382
295.0635, 6932.648
295.5457, 6924.732
296.0278, 6939.864
296.5099, 6961.050
296.9920, 6980.211
297.4741, 6994.299
297.9562, 6999.202
298.4384, 6988.044
298.9205, 6956.092
299.4026, 6941.403
299.8847, 6958.290
300.3668, 6977.552
300.8489, 6989.410
301.3311, 6995.841
301.8131, 7003.517
302.2953, 7017.542
302.7774, 7035.605
303.2595, 7045.688
303.7416, 7043.774
304.2237, 7039.076
304.7058, 7031.349
305.1880, 7023.104
305.6701, 7016.305
306.1522, 7011.599
306.6343, 7010.135
307.1164, 7015.999
307.5985, 7033.069
308.0807, 7042.860
308.5628, 7035.947
309.0449, 7024.845
309.5270, 7011.844
310.0091, 6998.983
310.4912, 6996.716
310.9734, 7025.427
311.4555, 7080.323
311.9376, 7104.526
312.4197, 7075.101
312.9018, 7041.339
313.3839, 7036.594
313.8661, 7052.134
314.3482, 7065.419
314.8303, 7062.372
315.3124, 7052.592
315.7945, 7055.714
316.2766, 7074.744
316.7588, 7088.719
317.2409, 7079.781
317.7230, 7060.676
318.2051, 7052.697
318.6872, 7061.361
319.1693, 7076.176
319.6515, 7092.383
320.1336, 7109.014
320.6157, 7123.023
321.0978, 7135.300
321.5799, 7141.231
322.0620, 7129.333
322.5442, 7096.289
323.0263, 7070.386
323.5084, 7061.710
323.9905, 7063.634
324.4726, 7066.481
324.9547, 7068.674
325.4369, 7078.600
325.9190, 7110.126
326.4011, 7166.396
326.8832, 7188.750
327.3653, 7152.330
327.8474, 7106.394
328.3296, 7071.933
328.8117, 7050.431
329.2938, 7041.976
329.7759, 7047.956
330.2580, 7064.497
330.7401, 7073.853
331.2223, 7073.809
331.7044, 7069.250
332.1865, 7056.715
332.6686, 7041.682
333.1507, 7029.381
333.6328, 7021.586
334.1150, 7017.592
334.5971, 7016.975
335.0792, 7022.207
335.5613, 7024.034
336.0434, 7021.760
336.5255, 7017.172
337.0077, 7005.908
337.4898, 6992.173
337.9719, 6988.445
338.4540, 7009.036
338.9361, 7049.186
339.4182, 7063.843
339.9004, 7029.532
340.3825, 7004.002
340.8646, 7012.668
341.3467, 7035.707
341.8288, 7047.159
342.3109, 7036.191
342.7931, 7015.948
343.2752, 7004.454
343.7573, 7002.025
344.2394, 7006.632
344.7215, 7025.626
345.2036, 7045.366
345.6858, 7054.297
346.1679, 7052.068
346.6500, 7047.930
347.1321, 7045.901
347.6142, 7046.424
348.0963, 7051.849
348.5785, 7064.017
349.0606, 7076.069
349.5427, 7080.499
350.0248, 7080.219
350.5069, 7084.048
350.9890, 7105.276
351.4712, 7121.872
351.9533, 7107.247
352.4354, 7068.257
352.9175, 7042.036
353.3996, 7048.606
353.8817, 7075.768
354.3639, 7091.241
354.8460, 7087.757
355.3281, 7090.286
355.8102, 7114.056
356.2923, 7142.361
356.7744, 7152.894
357.2566, 7141.658
357.7387, 7123.734
358.2208, 7116.300
358.7029, 7122.327
359.1850, 7122.209
359.6671, 7108.373
360.1493, 7096.829
360.6314, 7096.980
361.1135, 7104.978
361.5956, 7111.285
362.0777, 7110.004
362.5598, 7103.915
363.0420, 7103.473
363.5241, 7113.649
364.0062, 7121.615
364.4883, 7123.289
364.9704, 7123.955
365.4525, 7131.612
365.9347, 7146.475
366.4168, 7156.193
366.8989, 7141.538
367.3810, 7100.065
367.8631, 7072.875
368.3452, 7061.321
368.8274, 7066.092
369.3095, 7098.921
369.7916, 7147.004
370.2737, 7179.060
370.7558, 7170.579
371.2379, 7145.881
371.7201, 7150.572
372.2022, 7188.522
372.6843, 7217.912
373.1664, 7214.842
373.6485, 7196.635
374.1306, 7191.573
374.6128, 7204.825
375.0949, 7215.512
375.5770, 7207.545
376.0591, 7190.231
376.5412, 7181.684
377.0233, 7185.645
377.5055, 7198.356
377.9876, 7219.314
378.4697, 7249.708
378.9518, 7268.442
379.4339, 7262.970
379.9160, 7256.767
380.3982, 7265.494
380.8803, 7285.285
381.3624, 7304.893
381.8445, 7318.953
382.3266, 7326.195
382.8087, 7322.384
383.2909, 7283.790
383.7730, 7265.990
384.2551, 7284.312
384.7372, 7314.320
385.2193, 7340.861
385.7014, 7358.929
386.1836, 7365.450
386.6657, 7353.039
387.1478, 7319.881
387.6299, 7303.947
388.1120, 7317.317
388.5941, 7335.070
389.0763, 7354.258
389.5584, 7371.102
390.0405, 7378.099
390.5226, 7369.303
391.0047, 7357.772
391.4868, 7368.119
391.9690, 7403.477
392.4511, 7430.792
392.9332, 7442.941
393.4153, 7441.259
393.8974, 7419.350
394.3795, 7377.912
394.8617, 7353.852
395.3438, 7383.022
395.8259, 7434.984
396.3080, 7455.944
396.7901, 7439.856
397.2722, 7418.132
397.7544, 7410.065
398.2365, 7414.943
398.7186, 7424.345
399.2007, 7445.927
399.6828, 7463.307
400.1649, 7469.407
400.6471, 7467.291
401.1292, 7460.102
401.6113, 7448.785
402.0934, 7438.521
402.5755, 7438.208
403.0576, 7455.683
403.5398, 7458.456
404.0219, 7437.304
404.5040, 7412.212
404.9861, 7385.688
405.4682, 7363.695
405.9503, 7359.145
406.4325, 7382.497
406.9146, 7423.979
407.3967, 7449.004
407.8788, 7454.166
408.3609, 7449.017
408.8430, 7425.820
409.3252, 7400.226
409.8073, 7384.364
410.2894, 7380.063
410.7715, 7381.180
411.2536, 7380.221
411.7357, 7379.443
412.2179, 7395.978
412.7000, 7443.053
413.1821, 7478.047
413.6642, 7453.141
414.1463, 7396.098
414.6284, 7362.407
415.1106, 7372.639
415.5927, 7396.087
416.0748, 7413.289
416.5569, 7425.714
417.0390, 7438.721
417.5211, 7454.907
418.0033, 7469.104
418.4854, 7472.015
418.9675, 7457.730
419.4496, 7452.642
419.9317, 7467.104
420.4138, 7483.271
420.8960, 7489.629
421.3781, 7486.864
421.8602, 7479.916
422.3423, 7471.202
422.8244, 7462.437
423.3065, 7461.363
423.7887, 7475.043
424.2708, 7485.561
424.7529, 7485.846
425.2350, 7485.986
425.7171, 7495.076
426.1992, 7513.899
426.6814, 7535.450
427.1635, 7559.790
427.6456, 7584.943
428.1277, 7580.869
428.6098, 7530.184
429.0919, 7483.668
429.5741, 7469.682
430.0562, 7475.605
430.5383, 7484.409
431.0204, 7492.109
431.5025, 7501.888
431.9846, 7523.327
432.4668, 7550.231
432.9489, 7556.637
433.4310, 7531.502
433.9131, 7499.339
434.3952, 7490.091
434.8773, 7506.567
435.3595, 7518.334
435.8416, 7522.268
436.3237, 7522.466
436.8058, 7518.609
437.2879, 7513.068
437.7701, 7513.448
438.2522, 7524.575
438.7343, 7537.692
439.2164, 7528.693
439.6985, 7473.080
440.1806, 7439.422
440.6628, 7443.548
441.1449, 7455.024
441.6270, 7451.648
442.1091, 7435.980
442.5912, 7426.679
443.0733, 7440.008
443.5555, 7469.797
444.0376, 7494.066
444.5197, 7515.285
445.0018, 7523.938
445.4839, 7502.464
445.9660, 7473.602
446.4482, 7459.613
446.9303, 7464.261
447.4124, 7475.817
447.8945, 7490.450
448.3766, 7506.301
448.8587, 7519.654
449.3409, 7530.094
449.8230, 7538.024
450.3051, 7544.748
450.7872, 7549.379
451.2693, 7545.940
451.7514, 7515.402
452.2336, 7499.409
452.7157, 7527.119
453.1978, 7572.044
453.6799, 7595.919
454.1620, 7588.210
454.6441, 7566.783
455.1263, 7553.075
455.6084, 7546.709
456.0905, 7550.261
456.5726, 7581.810
457.0547, 7604.772
457.5368, 7603.549
458.0190, 7587.377
458.5011, 7569.501
458.9832, 7554.016
459.4653, 7545.945
459.9474, 7555.312
460.4295, 7582.350
460.9117, 7609.333
461.3938, 7636.886
461.8759, 7657.783
462.3580, 7663.484
462.8401, 7656.468
463.3222, 7648.911
463.8044, 7637.016
464.2865, 7631.484
464.7686, 7646.167
465.2507, 7676.674
465.7328, 7706.548
466.2149, 7729.382
466.6971, 7745.191
467.1792, 7753.256
467.6613, 7748.825
468.1434, 7746.253
468.6255, 7745.184
469.1076, 7746.222
469.5898, 7748.079
470.0719, 7752.286
470.5540, 7763.794
471.0361, 7787.067
471.5182, 7816.234
472.0003, 7834.836
472.4825, 7841.526
472.9646, 7840.912
473.4467, 7821.674
473.9288, 7804.225
474.4109, 7805.395
474.8930, 7823.996
475.3752, 7840.885
475.8573, 7840.229
476.3394, 7832.809
476.8215, 7840.210
477.3036, 7863.040
477.7857, 7880.000
478.2679, 7877.528
478.7500, 7864.861
479.2321, 7866.498
479.7142, 7892.665
480.1963, 7905.723
480.6784, 7890.026
481.1606, 7863.884
481.6427, 7841.669
482.1248, 7825.444
482.6069, 7812.749
483.0890, 7801.626
483.5711, 7792.464
484.0533, 7788.002
484.5354, 7796.819
485.0175, 7795.778
485.4996, 7772.607
485.9817, 7745.881
486.4638, 7731.722
486.9460, 7730.947
487.4281, 7731.490
487.9102, 7722.008
488.3923, 7706.672
488.8744, 7700.474
489.3565, 7705.966
489.8387, 7705.941
490.3208, 7687.170
490.8029, 7659.729
491.2850, 7645.437
491.7671, 7649.110
492.2492, 7651.649
492.7314, 7646.150
493.2135, 7636.470
493.6956, 7626.914
494.1777, 7617.877
494.6598, 7606.912
495.1419, 7591.487
495.6241, 7573.002
496.1062, 7560.310
496.5883, 7559.710
497.0704, 7556.265
497.5525, 7539.333
498.0346, 7525.314
498.5168, 7535.695
498.9989, 7567.836
499.4810, 7591.130
499.9631, 7572.637
500.4452, 7525.387
500.9273, 7500.550
501.4095, 7502.768
501.8916, 7507.956
502.3737, 7507.041
502.8558, 7502.246
503.3379, 7497.588
503.8200, 7493.642
504.3022, 7487.729
504.7843, 7471.193
505.2664, 7456.566
505.7485, 7464.581
506.2306, 7492.884
506.7127, 7515.837
507.1949, 7515.949
507.6770, 7497.720
508.1591, 7480.475
508.6412, 7456.957
509.1233, 7445.752
509.6054, 7461.247
510.0876, 7478.459
510.5697, 7476.819
511.0518, 7457.814
511.5339, 7438.048
512.0161, 7428.000
512.4982, 7426.663
512.9803, 7433.285
513.4624, 7449.465
513.9445, 7463.998
514.4266, 7475.043
514.9088, 7480.506
515.3909, 7475.165
515.8730, 7457.570
516.3551, 7447.824
516.8372, 7460.646
517.3193, 7477.565
517.8015, 7478.806
518.2836, 7467.502
518.7657, 7460.917
519.2478, 7468.648
519.7299, 7484.589
520.2120, 7494.388
520.6942, 7496.624
521.1763, 7495.100
521.6584, 7487.975
522.1405, 7479.330
522.6226, 7469.807
523.1047, 7460.574
523.5869, 7453.639
524.0690, 7449.617
524.5511, 7449.250
525.0332, 7453.404
525.5153, 7462.086
525.9974, 7478.877
526.4796, 7512.718
526.9617, 7541.744
527.4438, 7533.837
527.9259, 7494.321
528.4080, 7469.988
528.8901, 7482.842
529.3723, 7497.265
529.8544, 7487.726
530.3365, 7465.364
530.8186, 7453.224
531.3007, 7459.032
531.7828, 7472.970
532.2650, 7481.038
532.7471, 7481.227
533.2292, 7488.721
533.7113, 7523.935
534.1934, 7542.352
534.6755, 7517.231
535.1577, 7472.734
535.6398, 7441.800
536.1219, 7434.360
536.6040, 7435.099
537.0861, 7429.843
537.5682, 7421.300
538.0504, 7421.141
538.5325, 7432.544
539.0146, 7437.271
539.4967, 7416.573
539.9788, 7378.901
540.4609, 7366.617
540.9431, 7404.827
541.4252, 7430.934
541.9073, 7423.390
542.3894, 7403.928
542.8715, 7391.685
543.3536, 7389.210
543.8358, 7390.517
544.3179, 7391.402
544.8000, 7391.642
545.2821, 7389.755
545.7642, 7384.237
546.2463, 7380.698
546.7285, 7379.813
547.2106, 7382.175
547.6927, 7393.151
548.1748, 7410.947
548.6569, 7417.383
549.1390, 7394.486
549.6211, 7363.292
550.1032, 7344.941
550.5853, 7338.603
551.0674, 7339.774
551.5496, 7347.413
552.0317, 7357.841
552.5138, 7365.069
552.9959, 7367.857
553.4780, 7371.686
553.9601, 7380.485
554.4423, 7386.012
554.9244, 7385.749
555.4065, 7379.792
555.8886, 7364.888
556.3707, 7339.291
556.8528, 7318.830
557.3350, 7331.488
557.8171, 7371.179
558.2992, 7385.216
558.7813, 7362.488
559.2634, 7333.816
559.7455, 7316.572
560.2277, 7309.407
560.7098, 7306.617
561.1919, 7312.144
561.6740, 7315.018
562.1561, 7308.150
562.6382, 7299.173
563.1204, 7298.196
563.6025, 7304.476
564.0846, 7307.008
564.5667, 7296.186
565.0488, 7278.183
565.5309, 7279.010
566.0131, 7308.279
566.4952, 7332.097
566.9773, 7347.367
567.4594, 7352.886
567.9415, 7342.108
568.4236, 7318.987
568.9058, 7300.721
569.3879, 7297.751
569.8700, 7299.828
570.3521, 7295.725
570.8342, 7287.735
571.3163, 7285.276
571.7985, 7291.876
572.2806, 7297.502
572.7627, 7287.519
573.2448, 7258.035
573.7269, 7249.963
574.2090, 7288.210
574.6912, 7316.935
575.1733, 7316.545
575.6554, 7302.386
576.1375, 7289.856
576.6196, 7283.147
577.1017, 7281.638
577.5839, 7291.465
578.0660, 7305.970
578.5481, 7296.940
579.0302, 7260.224
579.5123, 7235.104
579.9944, 7246.636
580.4766, 7273.935
580.9587, 7272.764
581.4408, 7233.581
581.9229, 7211.032
582.4050, 7225.006
582.8871, 7246.708
583.3693, 7257.419
583.8514, 7260.524
584.3335, 7269.411
584.8156, 7290.252
585.2977, 7310.304
585.7798, 7306.805
586.2620, 7277.420
586.7441, 7250.703
587.2262, 7223.343
587.7083, 7206.205
588.1904, 7213.526
588.6725, 7232.898
589.1547, 7245.461
589.6368, 7250.380
590.1189, 7244.056
590.6010, 7209.369
591.0831, 7170.770
591.5652, 7164.274
592.0474, 7188.538
592.5295, 7216.581
593.0116, 7232.137
593.4937, 7234.058
593.9758, 7214.066
594.4579, 7149.101
594.9401, 7117.370
595.4222, 7159.957
595.9043, 7206.142
596.3864, 7221.165
596.8685, 7211.631
597.3506, 7196.491
597.8328, 7175.438
598.3149, 7165.313
598.7970, 7196.833
599.2791, 7249.877
599.7612, 7267.005
600.2433, 7237.092
600.7255, 7200.438
601.2076, 7190.902
601.6897, 7205.087
602.1718, 7215.376
602.6539, 7225.551
603.1360, 7225.997
603.6182, 7207.828
604.1003, 7186.293
604.5824, 7169.099
605.0645, 7158.773
605.5466, 7159.515
606.0287, 7179.319
606.5109, 7203.843
606.9930, 7208.811
607.4751, 7196.921
607.9572, 7190.956
608.4393, 7198.226
608.9214, 7205.894
609.4036, 7199.940
609.8857, 7180.278
610.3678, 7166.888
610.8499, 7156.286
611.3320, 7155.663
611.8141, 7180.740
612.2963, 7207.800
612.7784, 7206.802
613.2605, 7179.323
613.7426, 7157.377
614.2247, 7170.023
614.7068, 7201.275
615.1890, 7208.006
615.6711, 7188.738
616.1532, 7180.045
616.6353, 7197.705
617.1174, 7220.115
617.5995, 7220.806
618.0817, 7199.232
618.5638, 7186.136
619.0459, 7198.007
619.5280, 7200.859
620.0101, 7165.373
620.4922, 7121.521
620.9744, 7112.400
621.4565, 7142.320
621.9386, 7175.368
622.4207, 7177.446
622.9028, 7157.605
623.3849, 7153.969
623.8671, 7170.923
624.3492, 7176.988
624.8313, 7153.817
625.3134, 7125.864
625.7955, 7127.729
626.2776, 7157.371
626.7598, 7174.213
627.2419, 7152.116
627.7240, 7138.198
628.2061, 7173.077
628.6882, 7224.358
629.1703, 7238.711
629.6525, 7207.259
630.1346, 7169.023
630.6167, 7163.731
631.0988, 7184.262
631.5809, 7189.536
632.0630, 7175.621
632.5452, 7161.610
633.0273, 7151.584
633.5094, 7145.479
633.9915, 7143.432
634.4736, 7145.279
634.9557, 7149.061
635.4379, 7162.313
635.9200, 7169.068
636.4021, 7148.466
636.8842, 7119.872
637.3663, 7119.909
637.8484, 7153.722
638.3306, 7185.879
638.8127, 7176.418
639.2948, 7135.364
639.7769, 7128.858
640.2590, 7169.772
640.7411, 7198.520
641.2233, 7186.386
641.7054, 7166.447
642.1875, 7178.500
642.6696, 7219.117
643.1517, 7244.447
643.6339, 7244.906
644.1160, 7228.483
644.5981, 7178.556
645.0802, 7122.858
645.5623, 7111.282
646.0444, 7149.357
646.5266, 7191.074
647.0087, 7191.778
647.4908, 7161.483
647.9729, 7148.738
648.4550, 7158.854
648.9371, 7165.434
649.4193, 7159.671
649.9014, 7150.370
650.3835, 7144.310
650.8656, 7141.621
651.3477, 7143.872
651.8298, 7157.603
652.3120, 7169.198
652.7941, 7172.728
653.2762, 7170.136
653.7583, 7160.187
654.2404, 7145.277
654.7225, 7136.788
655.2047, 7145.471
655.6868, 7165.459
656.1689, 7176.372
656.6510, 7176.244
657.1331, 7179.575
657.6152, 7191.772
658.0974, 7204.754
658.5795, 7212.139
659.0616, 7214.298
659.5437, 7211.964
660.0258, 7196.100
660.5079, 7187.075
660.9901, 7202.308
661.4722, 7221.104
661.9543, 7217.377
662.4364, 7193.456
662.9185, 7173.410
663.4006, 7174.282
663.8828, 7185.736
664.3649, 7183.489
664.8470, 7166.881
665.3291, 7159.313
665.8112, 7167.489
666.2933, 7177.853
666.7755, 7181.669
667.2576, 7179.312
667.7397, 7173.343
668.2218, 7161.529
668.7039, 7149.829
669.1860, 7139.459
669.6682, 7129.584
670.1503, 7118.023
670.6324, 7106.313
671.1145, 7097.478
671.5966, 7092.493
672.0787, 7094.530
672.5609, 7114.774
673.0430, 7148.910
673.5251, 7163.025
674.0072, 7150.913
674.4893, 7136.854
674.9714, 7135.600
675.4536, 7141.852
675.9357, 7141.600
676.4178, 7129.780
676.8999, 7122.554
677.3820, 7122.784
677.8641, 7125.188
678.3463, 7129.652
678.8284, 7133.525
679.3105, 7132.000
679.7926, 7123.564
680.2747, 7114.640
680.7568, 7112.128
681.2390, 7113.441
681.7211, 7111.105
682.2032, 7105.249
682.6853, 7104.250
683.1674, 7112.546
