##NAMES=Agardite-(Y)
##RRUFFID=R070649
##IDEAL CHEMISTRY=Cu^2+^_6_Y^3+^(As^5+^O_4_)_3_(OH)_6_&#183;3H_2_O
##LOCALITY=Jote West mine, Pampa Larga Mining District, Copiapo, Chile
##OWNER=RRUFF
##SOURCE=Bob Jenkins
##DESCRIPTION=Sprays of bright green acicular crystals. Sample used in Morrison <em>et al.</em> (2013) study.
##STATUS=The identification of this mineral is confirmed by single-crystal X-ray diffraction and chemical analysis.
##URL=rruff.info/R070649
##MEASURED CHEMISTRY=(Cu_5.33_Al_0.12_Ca_0.03_Mn_0.01_)_Σ=5.49_(Y_0.52_Er_0.02_Dy_0.01_Yb_0.01_Ho_0.01_Ca_0.43_)_Σ=1.00_[(AsO_4_)_0.88_(PO_4_)_0.14_)]_3_(OH)_6_·2.99H_2_O
147.9413, 2726.986
148.4234, 2769.217
148.9055, 2812.115
149.3877, 2832.455
149.8698, 2805.042
150.3519, 2784.901
150.8340, 2773.737
151.3161, 2771.304
151.7982, 2775.486
152.2804, 2790.524
152.7625, 2809.604
153.2446, 2828.093
153.7267, 2847.789
154.2088, 2864.444
154.6909, 2876.414
155.1731, 2883.141
155.6552, 2889.275
156.1373, 2899.111
156.6194, 2907.831
157.1015, 2909.436
157.5836, 2886.885
158.0658, 2869.093
158.5479, 2870.217
159.0300, 2901.229
159.5121, 2930.250
159.9942, 2945.258
160.4763, 2950.967
160.9585, 2958.249
161.4406, 2975.295
161.9227, 2992.917
162.4048, 3004.689
162.8869, 3003.921
163.3690, 3002.958
163.8512, 3004.568
164.3333, 3009.436
164.8154, 3022.297
165.2975, 3056.814
165.7796, 3096.829
166.2617, 3124.915
166.7439, 3116.172
167.2260, 3106.389
167.7081, 3122.548
168.1902, 3166.453
168.6723, 3213.921
169.1544, 3252.190
169.6366, 3282.993
170.1187, 3309.369
170.6008, 3335.748
171.0829, 3357.077
171.5650, 3364.419
172.0471, 3352.202
172.5293, 3342.368
173.0114, 3360.404
173.4935, 3398.576
173.9756, 3431.174
174.4577, 3437.964
174.9398, 3431.299
175.4220, 3429.193
175.9041, 3436.311
176.3862, 3447.757
176.8683, 3458.446
177.3504, 3468.381
177.8326, 3478.787
178.3147, 3488.701
178.7968, 3499.524
179.2789, 3515.472
179.7610, 3545.628
180.2431, 3577.383
180.7253, 3587.322
181.2074, 3574.516
181.6895, 3556.469
182.1716, 3550.991
182.6537, 3555.455
183.1358, 3558.900
183.6179, 3551.852
184.1001, 3540.254
184.5822, 3543.978
185.0643, 3566.437
185.5464, 3592.555
186.0285, 3599.301
186.5106, 3588.599
186.9928, 3581.123
187.4749, 3595.114
187.9570, 3624.133
188.4391, 3635.321
188.9212, 3620.847
189.4033, 3594.968
189.8855, 3585.960
190.3676, 3594.422
190.8497, 3601.141
191.3318, 3581.274
191.8139, 3489.202
192.2960, 3536.244
192.7782, 3555.775
193.2603, 3549.279
193.7424, 3438.791
194.2245, 3462.587
194.7066, 3432.568
195.1887, 3400.342
195.6709, 3443.035
196.1530, 3348.944
196.6351, 3318.698
197.1172, 3316.229
197.5993, 3305.366
198.0814, 3285.860
198.5636, 3259.141
199.0457, 3220.939
199.5278, 3167.575
200.0099, 3129.096
200.4920, 3127.098
200.9741, 3162.613
201.4563, 3158.158
201.9384, 3101.764
202.4205, 3023.716
202.9026, 2974.625
203.3847, 2959.046
203.8668, 2952.871
204.3490, 2947.072
204.8311, 2941.947
205.3132, 2934.785
205.7953, 2924.851
206.2774, 2913.188
206.7595, 2902.267
207.2417, 2891.912
207.7238, 2882.604
208.2059, 2876.999
208.6880, 2878.498
209.1701, 2867.334
209.6522, 2835.841
210.1344, 2790.976
210.6165, 2764.574
211.0986, 2761.606
211.5807, 2767.407
212.0628, 2772.457
212.5449, 2778.115
213.0271, 2778.956
213.5092, 2773.184
213.9913, 2761.320
214.4734, 2750.166
214.9555, 2738.973
215.4376, 2729.577
215.9198, 2724.469
216.4019, 2725.511
216.8840, 2725.987
217.3661, 2723.803
217.8482, 2718.640
218.3303, 2715.742
218.8125, 2714.788
219.2946, 2716.273
219.7767, 2720.650
220.2588, 2727.077
220.7409, 2737.889
221.2230, 2753.934
221.7052, 2776.070
222.1873, 2800.227
222.6694, 2828.547
223.1515, 2857.329
223.6336, 2879.167
224.1157, 2892.377
224.5978, 2901.954
225.0800, 2908.832
225.5621, 2910.292
226.0442, 2917.361
226.5263, 2934.231
227.0084, 2955.474
227.4905, 2965.306
227.9727, 2952.730
228.4548, 2945.062
228.9369, 2959.619
229.4190, 3017.106
229.9011, 3047.935
230.3832, 3039.893
230.8654, 3002.499
231.3475, 2974.156
231.8296, 2957.968
232.3117, 2947.131
232.7938, 2938.832
233.2759, 2938.699
233.7581, 2929.717
234.2402, 2909.224
234.7223, 2877.900
235.2044, 2842.399
235.6865, 2796.892
236.1686, 2753.885
236.6508, 2723.988
237.1329, 2716.033
237.6150, 2704.292
238.0971, 2685.038
238.5792, 2658.357
239.0613, 2628.548
239.5435, 2592.184
240.0256, 2556.054
240.5077, 2526.477
240.9898, 2504.383
241.4719, 2486.854
241.9540, 2475.991
242.4362, 2473.124
242.9183, 2458.762
243.4004, 2424.986
243.8825, 2386.334
244.3646, 2360.009
244.8467, 2351.668
245.3289, 2345.906
245.8110, 2339.367
246.2931, 2331.986
246.7752, 2324.285
247.2573, 2316.560
247.7394, 2308.419
248.2216, 2298.606
248.7037, 2283.519
249.1858, 2273.048
249.6679, 2271.422
250.1500, 2281.993
250.6321, 2288.438
251.1143, 2291.713
251.5964, 2290.224
252.0785, 2279.165
252.5606, 2249.709
253.0427, 2225.682
253.5248, 2217.986
254.0070, 2235.036
254.4891, 2240.821
254.9712, 2228.828
255.4533, 2208.680
255.9354, 2203.229
256.4175, 2222.337
256.8997, 2239.000
257.3818, 2240.093
257.8639, 2218.186
258.3460, 2201.967
258.8281, 2193.509
259.3102, 2190.274
259.7924, 2184.770
260.2745, 2175.223
260.7566, 2166.705
261.2387, 2161.502
261.7208, 2159.755
262.2029, 2161.750
262.6851, 2169.810
263.1672, 2181.073
263.6493, 2184.888
264.1314, 2178.425
264.6135, 2170.150
265.0956, 2164.968
265.5778, 2163.742
266.0599, 2162.854
266.5420, 2162.871
267.0241, 2162.783
267.5062, 2157.483
267.9883, 2144.059
268.4705, 2131.926
268.9526, 2128.254
269.4347, 2134.746
269.9168, 2142.899
270.3989, 2155.447
270.8810, 2168.377
271.3632, 2160.179
271.8453, 2122.674
272.3274, 2085.154
272.8095, 2070.335
273.2916, 2081.803
273.7737, 2098.116
274.2559, 2119.892
274.7380, 2143.657
275.2201, 2151.839
275.7022, 2140.927
276.1843, 2124.865
276.6664, 2113.050
277.1486, 2105.051
277.6307, 2106.290
278.1128, 2121.866
278.5949, 2146.977
279.0770, 2158.481
279.5591, 2154.102
280.0413, 2145.030
280.5234, 2143.260
281.0055, 2149.412
281.4876, 2146.873
281.9697, 2127.600
282.4518, 2097.759
282.9340, 2084.300
283.4161, 2089.598
283.8982, 2098.972
284.3803, 2096.302
284.8624, 2082.110
285.3445, 2074.226
285.8266, 2079.982
286.3087, 2094.633
286.7909, 2102.359
287.2730, 2102.853
287.7551, 2098.290
288.2372, 2088.066
288.7193, 2073.095
289.2014, 2061.305
289.6836, 2056.420
290.1657, 2055.860
290.6478, 2051.959
291.1299, 2044.348
291.6120, 2037.287
292.0941, 2038.510
292.5763, 2045.362
293.0584, 2043.801
293.5405, 2022.544
294.0226, 1993.025
294.5047, 1981.943
294.9868, 1989.952
295.4690, 2002.730
295.9511, 2010.285
296.4332, 2012.351
296.9153, 2007.418
297.3974, 1988.655
297.8795, 1966.033
298.3617, 1957.446
298.8438, 1962.968
299.3259, 1972.217
299.8080, 1976.936
300.2901, 1978.413
300.7722, 1979.762
301.2544, 1981.609
301.7365, 1984.085
302.2186, 1986.839
302.7007, 1989.850
303.1828, 1994.906
303.6649, 2005.556
304.1471, 2019.042
304.6292, 2030.236
305.1113, 2033.726
305.5934, 2036.302
306.0755, 2045.190
306.5576, 2060.222
307.0398, 2076.545
307.5219, 2090.316
308.0040, 2103.434
308.4861, 2118.238
308.9682, 2137.869
309.4503, 2158.091
309.9325, 2174.617
310.4146, 2187.958
310.8967, 2204.113
311.3788, 2230.573
311.8609, 2260.436
312.3430, 2286.330
312.8252, 2298.090
313.3073, 2311.279
313.7894, 2338.771
314.2715, 2379.294
314.7536, 2412.042
315.2357, 2415.986
315.7179, 2412.336
316.2000, 2421.125
316.6821, 2464.515
317.1642, 2506.482
317.6463, 2529.888
318.1284, 2536.394
318.6106, 2544.677
319.0927, 2560.641
319.5748, 2581.015
320.0569, 2603.216
320.5390, 2631.990
321.0211, 2657.239
321.5033, 2675.420
321.9854, 2687.116
322.4675, 2697.219
322.9496, 2704.388
323.4317, 2711.676
323.9138, 2721.149
324.3960, 2734.807
324.8781, 2748.806
325.3602, 2767.364
325.8423, 2788.721
326.3244, 2796.558
326.8065, 2783.172
327.2887, 2760.315
327.7708, 2734.518
328.2529, 2695.873
328.7350, 2666.563
329.2171, 2649.369
329.6992, 2643.195
330.1814, 2641.613
330.6635, 2654.740
331.1456, 2662.386
331.6277, 2652.881
332.1098, 2618.848
332.5919, 2580.243
333.0741, 2533.636
333.5562, 2482.959
334.0383, 2443.900
334.5204, 2419.151
335.0025, 2401.197
335.4846, 2388.129
335.9668, 2384.027
336.4489, 2370.834
336.9310, 2344.045
337.4131, 2309.127
337.8952, 2282.871
338.3773, 2267.118
338.8595, 2254.520
339.3416, 2244.544
339.8237, 2238.892
340.3058, 2217.387
340.7879, 2172.439
341.2701, 2118.740
341.7522, 2088.898
342.2343, 2085.143
342.7164, 2085.072
343.1985, 2075.600
343.6806, 2057.829
344.1628, 2047.617
344.6449, 2047.395
345.1270, 2050.914
345.6091, 2050.291
346.0912, 2045.408
346.5733, 2034.334
347.0555, 2010.270
347.5376, 1978.604
348.0197, 1958.724
348.5018, 1953.133
348.9839, 1950.372
349.4660, 1933.068
349.9482, 1905.425
350.4303, 1883.876
350.9124, 1881.379
351.3945, 1888.126
351.8766, 1888.058
352.3587, 1879.991
352.8409, 1871.109
353.3230, 1871.793
353.8051, 1876.405
354.2872, 1873.788
354.7693, 1847.710
355.2514, 1819.357
355.7336, 1810.997
356.2157, 1823.172
356.6978, 1837.120
357.1799, 1842.507
357.6620, 1842.017
358.1441, 1839.314
358.6263, 1831.501
359.1084, 1825.384
359.5905, 1823.689
360.0726, 1826.544
360.5547, 1835.108
361.0368, 1862.683
361.5190, 1889.996
362.0011, 1900.676
362.4832, 1876.088
362.9653, 1848.750
363.4474, 1824.146
363.9295, 1803.132
364.4117, 1791.197
364.8938, 1797.382
365.3759, 1808.104
365.8580, 1814.975
366.3401, 1814.458
366.8222, 1813.114
367.3044, 1812.059
367.7865, 1810.815
368.2686, 1806.995
368.7507, 1789.361
369.2328, 1778.941
369.7149, 1786.147
370.1970, 1830.158
370.6791, 1858.600
371.1613, 1864.121
371.6434, 1855.845
372.1255, 1856.330
372.6076, 1868.833
373.0897, 1884.734
373.5718, 1901.872
374.0540, 1922.082
374.5361, 1935.356
375.0182, 1940.215
375.5003, 1939.652
375.9824, 1935.800
376.4645, 1925.426
376.9467, 1925.256
377.4288, 1947.710
377.9109, 1991.330
378.3930, 2016.196
378.8751, 2018.246
379.3572, 2013.112
379.8394, 2021.634
380.3215, 2043.291
380.8036, 2060.646
381.2857, 2063.360
381.7678, 2058.382
382.2499, 2071.373
382.7321, 2103.423
383.2142, 2134.162
383.6963, 2135.424
384.1784, 2118.006
384.6605, 2116.021
385.1426, 2146.200
385.6248, 2190.222
386.1069, 2223.490
386.5890, 2246.931
387.0711, 2268.819
387.5532, 2298.008
388.0353, 2327.971
388.5175, 2349.596
388.9996, 2356.899
389.4817, 2361.329
389.9638, 2369.830
390.4459, 2382.349
390.9280, 2398.413
391.4102, 2415.753
391.8923, 2437.776
392.3744, 2471.000
392.8565, 2526.794
393.3386, 2567.630
393.8207, 2571.150
394.3029, 2550.896
394.7850, 2531.667
395.2671, 2514.565
395.7492, 2504.523
396.2313, 2504.667
396.7134, 2517.349
397.1956, 2532.337
397.6777, 2558.400
398.1598, 2582.514
398.6419, 2588.473
399.1240, 2554.082
399.6061, 2526.075
400.0883, 2514.675
400.5704, 2521.100
401.0525, 2526.640
401.5346, 2532.866
402.0167, 2536.724
402.4988, 2535.338
402.9810, 2527.382
403.4631, 2517.416
403.9452, 2505.828
404.4273, 2492.799
404.9094, 2478.424
405.3915, 2461.274
405.8737, 2447.261
406.3558, 2441.236
406.8379, 2443.536
407.3200, 2448.224
407.8021, 2456.395
408.2842, 2464.262
408.7664, 2463.578
409.2485, 2454.299
409.7306, 2441.107
410.2127, 2424.266
410.6948, 2405.260
411.1769, 2386.570
411.6591, 2366.115
412.1412, 2355.698
412.6233, 2382.678
413.1054, 2433.635
413.5875, 2469.105
414.0696, 2455.364
414.5518, 2423.797
415.0339, 2411.241
415.5160, 2419.006
415.9981, 2431.260
416.4802, 2434.710
416.9623, 2436.328
417.4445, 2445.053
417.9266, 2471.181
418.4087, 2498.723
418.8908, 2520.937
419.3729, 2537.802
419.8550, 2550.869
420.3372, 2553.382
420.8193, 2556.679
421.3014, 2568.885
421.7835, 2602.927
422.2656, 2630.497
422.7477, 2640.473
423.2299, 2639.998
423.7120, 2649.518
424.1941, 2684.346
424.6762, 2717.652
425.1583, 2738.349
425.6404, 2737.998
426.1226, 2749.756
426.6047, 2784.675
427.0868, 2824.865
427.5689, 2840.854
428.0510, 2818.526
428.5331, 2803.923
429.0153, 2815.092
429.4974, 2850.880
429.9795, 2861.219
430.4616, 2838.833
430.9437, 2809.301
431.4258, 2798.585
431.9080, 2807.106
432.3901, 2819.185
432.8722, 2836.573
433.3543, 2851.401
433.8364, 2840.104
434.3185, 2803.356
434.8007, 2763.403
435.2828, 2735.668
435.7649, 2717.327
436.2470, 2700.661
436.7291, 2684.047
437.2112, 2671.115
437.6934, 2672.096
438.1755, 2681.093
438.6576, 2681.484
439.1397, 2653.891
439.6218, 2620.176
440.1039, 2602.315
440.5861, 2603.420
441.0682, 2604.063
441.5503, 2584.736
442.0324, 2561.540
442.5145, 2553.375
442.9966, 2585.071
443.4788, 2614.364
443.9609, 2621.050
444.4430, 2607.127
444.9251, 2604.138
445.4072, 2630.507
445.8893, 2661.404
446.3715, 2682.160
446.8536, 2672.461
447.3357, 2677.980
447.8178, 2707.864
448.2999, 2752.619
448.7820, 2785.889
449.2642, 2798.860
449.7463, 2813.878
450.2284, 2842.028
450.7105, 2887.239
451.1926, 2918.739
451.6747, 2929.474
452.1568, 2937.798
452.6389, 2971.933
453.1211, 3034.093
453.6032, 3094.703
454.0853, 3143.656
454.5674, 3184.882
455.0495, 3236.123
455.5316, 3298.223
456.0138, 3358.852
456.4959, 3402.339
456.9780, 3435.898
457.4601, 3483.818
457.9422, 3555.654
458.4243, 3634.389
458.9065, 3699.100
459.3886, 3752.663
459.8707, 3805.936
460.3528, 3853.479
460.8349, 3909.640
461.3170, 3992.911
461.7992, 4110.630
462.2813, 4224.090
462.7634, 4307.419
463.2455, 4376.042
463.7276, 4448.596
464.2097, 4531.649
464.6919, 4618.585
465.1740, 4711.351
465.6561, 4809.747
466.1382, 4897.468
466.6203, 4950.472
467.1024, 5008.605
467.5846, 5097.119
468.0667, 5240.940
468.5488, 5374.872
469.0309, 5493.199
469.5130, 5599.266
469.9951, 5698.708
470.4773, 5787.619
470.9594, 5879.211
471.4415, 5981.212
471.9236, 6095.645
472.4057, 6199.312
472.8878, 6289.456
473.3700, 6373.692
473.8521, 6461.730
474.3342, 6552.913
474.8163, 6638.685
475.2984, 6713.921
475.7805, 6784.064
476.2627, 6868.750
476.7448, 6964.975
477.2269, 7042.696
477.7090, 7076.121
478.1911, 7078.144
478.6732, 7066.264
479.1554, 7041.710
479.6375, 7009.430
480.1196, 6979.351
480.6017, 6944.045
481.0838, 6888.052
481.5659, 6804.083
482.0481, 6697.890
482.5302, 6563.692
483.0123, 6396.719
483.4944, 6241.281
483.9765, 6124.663
484.4586, 6017.375
484.9408, 5892.896
485.4229, 5727.002
485.9050, 5569.685
486.3871, 5425.746
486.8692, 5293.213
487.3513, 5162.613
487.8335, 5034.965
488.3156, 4909.778
488.7977, 4786.159
489.2798, 4665.899
489.7619, 4542.539
490.2440, 4412.145
490.7262, 4285.542
491.2083, 4174.480
491.6904, 4079.892
492.1725, 4001.623
492.6546, 3948.477
493.1367, 3909.305
493.6189, 3852.773
494.1010, 3779.741
494.5831, 3705.951
495.0652, 3646.165
495.5473, 3594.156
496.0294, 3541.170
496.5116, 3483.358
496.9937, 3426.283
497.4758, 3369.221
497.9579, 3315.501
498.4400, 3272.459
498.9221, 3257.938
499.4043, 3242.558
499.8864, 3204.741
500.3685, 3138.767
500.8506, 3085.804
501.3327, 3062.131
501.8148, 3051.636
502.2970, 3039.840
502.7791, 3027.774
503.2612, 3011.563
503.7433, 2990.394
504.2254, 2964.911
504.7076, 2937.728
505.1897, 2909.820
505.6718, 2878.758
506.1539, 2839.701
506.6360, 2788.869
507.1181, 2758.035
507.6003, 2751.171
508.0824, 2755.264
508.5645, 2755.351
509.0466, 2751.452
509.5287, 2743.475
510.0108, 2731.150
510.4930, 2714.779
510.9751, 2693.660
511.4572, 2667.979
511.9393, 2641.900
512.4214, 2615.464
512.9035, 2591.101
513.3856, 2573.034
513.8677, 2564.266
514.3499, 2554.971
514.8320, 2537.122
515.3141, 2514.880
515.7962, 2495.586
516.2783, 2482.518
516.7604, 2471.942
517.2426, 2463.058
517.7247, 2455.911
518.2068, 2448.981
518.6889, 2441.694
519.1710, 2434.985
519.6531, 2429.350
520.1353, 2425.024
520.6174, 2420.995
521.0995, 2414.875
521.5816, 2410.335
522.0637, 2418.588
522.5458, 2444.097
523.0280, 2463.396
523.5101, 2462.654
523.9922, 2445.666
524.4743, 2441.608
524.9564, 2451.298
525.4385, 2467.462
525.9207, 2484.823
526.4028, 2503.042
526.8849, 2520.447
527.3670, 2534.413
527.8491, 2550.694
528.3312, 2578.302
528.8134, 2613.580
529.2955, 2646.601
529.7776, 2679.125
530.2597, 2702.220
530.7418, 2704.849
531.2239, 2683.313
531.7061, 2666.240
532.1882, 2664.189
532.6703, 2670.301
533.1524, 2678.355
533.6345, 2695.400
534.1166, 2704.718
534.5988, 2702.666
535.0809, 2691.697
535.5630, 2679.982
536.0451, 2665.370
536.5272, 2653.784
537.0093, 2648.735
537.4915, 2650.988
537.9736, 2650.560
538.4557, 2647.245
538.9378, 2641.951
539.4199, 2638.362
539.9020, 2635.183
540.3842, 2621.188
540.8663, 2587.704
541.3484, 2549.611
541.8305, 2535.216
542.3126, 2539.506
542.7947, 2539.099
543.2769, 2514.673
543.7590, 2481.860
544.2411, 2454.687
544.7232, 2434.649
545.2053, 2419.991
545.6874, 2411.621
546.1696, 2407.300
546.6517, 2404.515
547.1338, 2406.980
547.6159, 2406.125
548.0980, 2399.712
548.5801, 2388.455
549.0623, 2375.064
549.5444, 2355.191
550.0265, 2339.187
550.5086, 2332.740
550.9907, 2338.468
551.4728, 2336.841
551.9550, 2324.451
552.4371, 2312.133
552.9192, 2315.319
553.4013, 2333.218
553.8834, 2347.815
554.3655, 2358.396
554.8477, 2359.025
555.3298, 2329.566
555.8119, 2275.890
556.2940, 2230.469
556.7761, 2217.557
557.2582, 2221.118
557.7404, 2224.787
558.2225, 2227.126
558.7046, 2228.507
559.1867, 2231.736
559.6688, 2232.945
560.1509, 2228.143
560.6331, 2212.192
561.1152, 2194.750
561.5973, 2175.522
562.0794, 2155.800
562.5615, 2140.704
563.0436, 2133.710
563.5258, 2126.785
564.0079, 2117.172
564.4900, 2104.564
564.9721, 2092.327
565.4542, 2081.086
565.9363, 2069.196
566.4185, 2054.533
566.9006, 2037.493
567.3827, 2020.967
567.8648, 2006.482
568.3469, 1991.367
568.8290, 1968.734
569.3112, 1940.758
569.7933, 1917.607
570.2754, 1904.057
570.7575, 1898.158
571.2396, 1902.751
571.7217, 1917.639
572.2039, 1923.224
572.6860, 1899.709
573.1681, 1867.475
573.6502, 1843.828
574.1323, 1833.450
574.6144, 1829.716
575.0966, 1840.235
575.5787, 1855.359
576.0608, 1855.342
576.5429, 1831.680
577.0250, 1806.609
577.5071, 1784.643
577.9893, 1765.964
578.4714, 1754.025
578.9535, 1749.321
579.4356, 1749.471
579.9177, 1756.076
580.3998, 1767.484
580.8820, 1771.744
581.3641, 1767.434
581.8462, 1756.060
582.3283, 1735.387
582.8104, 1708.926
583.2925, 1685.348
583.7747, 1664.765
584.2568, 1651.333
584.7389, 1653.098
585.2210, 1666.961
585.7031, 1676.102
586.1852, 1671.729
586.6674, 1661.908
587.1495, 1650.687
587.6316, 1637.888
588.1137, 1625.098
588.5958, 1608.504
589.0779, 1594.468
589.5601, 1590.693
590.0422, 1601.137
590.5243, 1611.572
591.0064, 1621.255
591.4885, 1628.467
591.9706, 1627.685
592.4528, 1618.638
592.9349, 1605.227
593.4170, 1583.086
593.8991, 1558.557
594.3812, 1551.432
594.8633, 1562.442
595.3455, 1577.404
595.8276, 1588.141
596.3097, 1594.360
596.7918, 1595.931
597.2739, 1593.170
597.7560, 1585.069
598.2382, 1561.813
598.7203, 1533.928
599.2024, 1521.392
599.6845, 1552.848
600.1666, 1574.528
600.6487, 1565.344
601.1309, 1526.472
601.6130, 1509.819
602.0951, 1525.496
602.5772, 1545.918
603.0593, 1553.076
603.5414, 1545.892
604.0236, 1541.343
604.5057, 1541.234
604.9878, 1540.894
605.4699, 1530.012
605.9520, 1512.342
606.4341, 1504.464
606.9163, 1518.346
607.3984, 1536.896
607.8805, 1537.064
608.3626, 1523.956
608.8447, 1515.708
609.3268, 1524.545
609.8090, 1539.179
610.2911, 1555.464
610.7732, 1574.563
611.2553, 1584.105
611.7374, 1575.086
612.2195, 1559.730
612.7017, 1546.810
613.1838, 1532.829
613.6659, 1529.148
614.1480, 1541.549
614.6301, 1559.937
615.1122, 1562.535
615.5944, 1547.635
616.0765, 1534.375
616.5586, 1531.145
617.0407, 1533.818
617.5228, 1528.620
618.0049, 1516.461
618.4871, 1509.569
618.9692, 1524.616
619.4513, 1546.204
619.9334, 1555.768
620.4155, 1550.430
620.8976, 1536.771
621.3798, 1507.509
621.8619, 1476.570
622.3440, 1459.001
622.8261, 1469.361
623.3082, 1479.868
623.7903, 1486.913
624.2725, 1491.440
624.7546, 1496.561
625.2367, 1505.192
625.7188, 1507.459
626.2009, 1496.128
626.6830, 1473.715
627.1652, 1467.269
627.6473, 1478.490
628.1294, 1491.531
628.6115, 1495.384
629.0936, 1490.948
629.5757, 1476.964
630.0579, 1449.936
630.5400, 1429.469
631.0221, 1440.484
631.5042, 1467.659
631.9863, 1487.885
632.4684, 1489.527
632.9506, 1486.028
633.4327, 1477.258
633.9148, 1466.159
634.3969, 1464.065
634.8790, 1483.421
635.3611, 1499.018
635.8433, 1501.061
636.3254, 1488.356
636.8075, 1484.984
637.2896, 1494.180
637.7717, 1503.633
638.2538, 1501.132
638.7360, 1488.270
