##NAMES=Agrellite
##RRUFFID=R060914
##IDEAL CHEMISTRY=NaCa_2_Si_4_O_10_F
##LOCALITY=Kipawa complex, Quebec, Canada
##OWNER=RRUFF
##SOURCE=Royal Ontario Museum
##DESCRIPTION=White platy aggregates
##STATUS=The identification of this mineral has been confirmed by X-ray diffraction and chemical analysis
##URL=rruff.info/R060914
##MEASURED CHEMISTRY=(Na_0.99_K_0.01_)_Σ=1_(Ca_1.79_Na_0.10_Y_0.04_Ce_0.04_La_0.01_Nd_0.01_Mn_0.01_)_Σ=2_Si_4.00_O_10_F_1.00_
154.3069, 16062.33
154.7890, 16084.15
155.2712, 16117.35
155.7533, 16175.50
156.2354, 16255.76
156.7175, 16329.04
157.1996, 16372.42
157.6817, 16415.72
158.1639, 16482.21
158.6460, 16595.86
159.1281, 16715.01
159.6102, 16830.72
160.0923, 16942.10
160.5744, 17039.22
161.0566, 17109.54
161.5387, 17164.75
162.0208, 17218.24
162.5029, 17275.68
162.9850, 17330.07
163.4671, 17378.98
163.9493, 17422.00
164.4314, 17455.80
164.9135, 17464.31
165.3956, 17463.92
165.8777, 17481.71
166.3598, 17556.94
166.8420, 17638.97
167.3241, 17686.81
167.8062, 17685.16
168.2883, 17682.54
168.7704, 17714.67
169.2525, 17771.65
169.7346, 17828.43
170.2168, 17873.45
170.6989, 17910.83
171.1810, 17942.77
171.6631, 17965.85
172.1452, 17991.61
172.6273, 18033.73
173.1095, 18088.61
173.5916, 18142.79
174.0737, 18188.20
174.5558, 18227.25
175.0379, 18262.03
175.5201, 18289.05
176.0022, 18316.62
176.4843, 18352.22
176.9664, 18395.63
177.4485, 18448.25
177.9306, 18527.77
178.4128, 18616.93
178.8949, 18678.92
179.3770, 18684.11
179.8591, 18666.21
180.3412, 18677.99
180.8233, 18719.67
181.3055, 18776.25
181.7876, 18842.72
182.2697, 18914.71
182.7518, 18979.99
183.2339, 19032.50
183.7160, 19074.77
184.1982, 19107.17
184.6803, 19127.91
185.1624, 19151.08
185.6445, 19201.55
186.1266, 19273.11
186.6087, 19331.88
187.0908, 19349.78
187.5730, 19339.92
188.0551, 19353.27
188.5372, 19393.03
189.0193, 19447.51
189.5014, 19515.10
189.9835, 19594.51
190.4657, 19646.56
190.9478, 19627.60
191.4299, 19552.32
191.9120, 19532.83
192.3941, 19584.82
192.8762, 19670.50
193.3584, 19727.09
193.8405, 19753.67
194.3226, 19774.48
194.8047, 19806.63
195.2868, 19849.24
195.7689, 19871.66
196.2511, 19863.04
196.7332, 19844.77
197.2153, 19870.28
197.6974, 19945.13
198.1795, 20026.92
198.6616, 20091.25
199.1438, 20138.49
199.6259, 20175.22
200.1080, 20199.03
200.5901, 20215.05
201.0722, 20237.21
201.5543, 20265.32
202.0364, 20299.61
202.5186, 20343.88
203.0007, 20400.15
203.4828, 20444.50
203.9649, 20467.83
204.4470, 20476.82
204.9291, 20500.84
205.4113, 20539.66
205.8934, 20591.88
206.3755, 20664.21
206.8576, 20764.99
207.3397, 20841.97
207.8218, 20883.19
208.3040, 20892.46
208.7861, 20895.67
209.2682, 20891.79
209.7503, 20885.53
210.2324, 20876.87
210.7145, 20859.83
211.1967, 20868.40
211.6788, 20923.37
212.1609, 21020.46
212.6430, 21063.99
213.1251, 21025.27
213.6072, 20978.03
214.0894, 21003.97
214.5715, 21134.82
215.0536, 21249.21
215.5357, 21314.43
216.0178, 21329.50
216.4999, 21353.37
216.9820, 21385.56
217.4642, 21424.80
217.9463, 21471.90
218.4284, 21530.41
218.9105, 21583.96
219.3926, 21623.93
219.8747, 21647.11
220.3569, 21692.10
220.8390, 21773.98
221.3211, 21863.06
221.8032, 21925.04
222.2853, 21952.38
222.7674, 21968.50
223.2496, 21976.97
223.7317, 21976.32
224.2138, 21982.49
224.6959, 21994.78
225.1780, 22015.56
225.6601, 22049.26
226.1423, 22099.49
226.6244, 22155.91
227.1065, 22217.70
227.5886, 22289.06
228.0707, 22345.09
228.5528, 22376.60
229.0350, 22398.62
229.5171, 22435.53
229.9992, 22498.78
230.4813, 22556.88
230.9634, 22598.08
231.4455, 22616.61
231.9276, 22640.60
232.4098, 22666.50
232.8919, 22700.23
233.3740, 22754.84
233.8561, 22853.82
234.3382, 22934.90
234.8203, 22970.22
235.3025, 22935.03
235.7846, 22942.63
236.2667, 23019.98
236.7488, 23127.09
237.2309, 23185.02
237.7130, 23159.65
238.1952, 23139.28
238.6773, 23158.27
239.1594, 23236.54
239.6415, 23292.31
240.1236, 23316.72
240.6057, 23323.35
241.0879, 23336.09
241.5700, 23344.36
242.0521, 23375.64
242.5342, 23448.89
243.0163, 23595.69
243.4984, 23689.42
243.9806, 23701.72
244.4627, 23671.92
244.9448, 23682.07
245.4269, 23753.84
245.9090, 23830.32
246.3911, 23891.95
246.8732, 23936.80
247.3554, 23967.67
247.8375, 23974.55
248.3196, 23970.76
248.8017, 23985.31
249.2838, 24026.55
249.7659, 24072.62
250.2481, 24119.34
250.7302, 24176.07
251.2123, 24207.49
251.6944, 24201.72
252.1765, 24178.34
252.6586, 24179.66
253.1408, 24226.78
253.6229, 24265.47
254.1050, 24270.26
254.5871, 24221.93
255.0692, 24205.05
255.5513, 24234.81
256.0334, 24288.58
256.5156, 24317.09
256.9977, 24301.16
257.4798, 24294.60
257.9619, 24319.83
258.4440, 24385.73
258.9261, 24452.87
259.4083, 24523.66
259.8904, 24593.37
260.3725, 24648.92
260.8546, 24679.39
261.3367, 24717.30
261.8188, 24778.67
262.3010, 24873.45
262.7831, 24952.05
263.2652, 25009.59
263.7473, 25054.45
264.2294, 25105.01
264.7115, 25164.82
265.1937, 25220.20
265.6758, 25263.57
266.1579, 25291.26
266.6400, 25324.50
267.1221, 25364.13
267.6042, 25409.01
268.0864, 25458.46
268.5685, 25517.80
269.0506, 25569.40
269.5327, 25605.70
270.0148, 25625.32
270.4969, 25642.58
270.9791, 25657.39
271.4612, 25671.04
271.9433, 25681.11
272.4254, 25682.65
272.9075, 25700.92
273.3896, 25751.73
273.8718, 25837.85
274.3539, 25912.78
274.8360, 25974.73
275.3181, 26029.41
275.8002, 26087.08
276.2823, 26149.09
276.7645, 26204.45
277.2466, 26244.54
277.7287, 26268.72
278.2108, 26310.73
278.6929, 26375.74
279.1750, 26446.45
279.6572, 26490.67
280.1393, 26503.19
280.6214, 26537.61
281.1035, 26627.46
281.5856, 26765.35
282.0677, 26853.25
282.5499, 26877.86
283.0320, 26891.60
283.5141, 26968.23
283.9962, 27109.55
284.4783, 27246.29
284.9604, 27363.55
285.4425, 27459.05
285.9247, 27500.15
286.4068, 27475.84
286.8889, 27451.29
287.3710, 27513.36
287.8531, 27656.07
288.3352, 27786.43
288.8174, 27865.96
289.2995, 27911.28
289.7816, 27983.69
290.2637, 28084.17
290.7458, 28190.06
291.2279, 28276.20
291.7101, 28345.58
292.1922, 28417.40
292.6743, 28494.63
293.1564, 28578.53
293.6385, 28677.81
294.1206, 28792.86
294.6028, 28902.54
295.0849, 28976.24
295.5670, 29027.65
296.0491, 29106.16
296.5312, 29240.04
297.0133, 29396.80
297.4955, 29505.19
297.9776, 29568.12
298.4597, 29654.14
298.9418, 29837.38
299.4239, 30083.45
299.9060, 30313.95
300.3882, 30504.10
300.8703, 30673.23
301.3524, 30834.28
301.8345, 30988.81
302.3166, 31151.60
302.7987, 31339.64
303.2809, 31540.22
303.7630, 31739.99
304.2451, 31938.75
304.7272, 32123.64
305.2093, 32271.39
305.6914, 32389.26
306.1736, 32499.36
306.6557, 32619.95
307.1378, 32741.05
307.6199, 32851.34
308.1020, 32949.37
308.5841, 33039.97
309.0663, 33144.93
309.5484, 33250.49
310.0305, 33314.03
310.5126, 33292.74
310.9947, 33234.15
311.4768, 33172.31
311.9590, 33106.74
312.4411, 33058.43
312.9232, 33058.45
313.4053, 33084.51
313.8874, 33093.82
314.3695, 33042.57
314.8517, 32987.54
315.3337, 32968.51
315.8159, 32996.39
316.2980, 33022.96
316.7801, 33019.87
317.2622, 33004.89
317.7443, 33003.04
318.2264, 33047.97
318.7086, 33087.27
319.1907, 33084.03
319.6728, 33027.94
320.1549, 33010.91
320.6370, 33088.80
321.1191, 33207.87
321.6013, 33313.16
322.0834, 33397.32
322.5655, 33458.92
323.0476, 33487.03
323.5297, 33480.42
324.0118, 33482.77
324.4940, 33498.35
324.9761, 33525.89
325.4582, 33564.41
325.9403, 33631.65
326.4224, 33689.66
326.9045, 33723.92
327.3867, 33737.00
327.8688, 33770.16
328.3509, 33847.57
328.8330, 33928.47
329.3151, 33991.64
329.7972, 34034.63
330.2794, 34063.45
330.7615, 34073.29
331.2436, 34068.83
331.7257, 34070.84
332.2078, 34100.56
332.6899, 34112.67
333.1721, 34079.84
333.6542, 33962.77
334.1363, 33888.52
334.6184, 33875.25
335.1005, 33899.08
335.5826, 33905.20
336.0648, 33892.38
336.5469, 33864.54
337.0290, 33820.11
337.5111, 33754.55
337.9932, 33688.00
338.4753, 33612.55
338.9575, 33544.27
339.4396, 33515.56
339.9217, 33537.31
340.4038, 33547.46
340.8859, 33517.11
341.3680, 33448.63
341.8502, 33406.39
342.3323, 33399.01
342.8144, 33396.19
343.2965, 33355.46
343.7786, 33276.52
344.2607, 33213.63
344.7429, 33176.88
345.2250, 33170.38
345.7071, 33219.32
346.1892, 33330.36
346.6713, 33446.24
347.1534, 33529.25
347.6355, 33577.68
348.1176, 33578.96
348.5998, 33506.95
349.0819, 33410.46
349.5640, 33375.85
350.0461, 33399.42
350.5282, 33450.51
351.0103, 33518.17
351.4925, 33594.79
351.9746, 33666.98
352.4567, 33730.40
352.9388, 33790.15
353.4209, 33851.73
353.9030, 33914.61
354.3852, 33976.95
354.8673, 34049.40
355.3494, 34116.68
355.8315, 34155.24
356.3136, 34156.98
356.7957, 34164.41
357.2779, 34225.62
357.7600, 34314.35
358.2421, 34381.95
358.7242, 34371.75
359.2063, 34361.27
359.6884, 34410.74
360.1706, 34526.29
360.6527, 34635.23
361.1348, 34696.57
361.6169, 34735.48
362.0990, 34778.43
362.5811, 34823.57
363.0633, 34882.61
363.5454, 34974.45
364.0275, 35093.56
364.5096, 35182.98
364.9917, 35179.80
365.4738, 35171.70
365.9560, 35215.88
366.4381, 35388.08
366.9202, 35536.25
367.4023, 35637.43
367.8844, 35701.72
368.3665, 35766.54
368.8487, 35835.40
369.3308, 35904.87
369.8129, 35971.73
370.2950, 36025.44
370.7771, 36098.62
371.2592, 36205.67
371.7414, 36326.55
372.2235, 36422.36
372.7056, 36458.42
373.1877, 36527.09
373.6698, 36674.25
374.1519, 36915.91
374.6341, 37071.04
375.1162, 37097.93
375.5983, 37091.42
376.0804, 37168.78
376.5625, 37351.83
377.0446, 37520.03
377.5267, 37640.44
378.0089, 37721.98
378.4910, 37811.16
378.9731, 37910.07
379.4552, 38009.15
379.9373, 38102.77
380.4194, 38192.05
380.9016, 38264.46
381.3837, 38311.78
381.8658, 38353.76
382.3479, 38438.54
382.8300, 38563.63
383.3121, 38686.52
383.7943, 38771.51
384.2764, 38832.80
384.7585, 38912.34
385.2406, 39016.84
385.7227, 39121.51
386.2048, 39184.67
386.6870, 39219.78
387.1691, 39265.91
387.6512, 39357.77
388.1333, 39459.18
388.6154, 39529.77
389.0975, 39566.58
389.5797, 39588.68
390.0618, 39598.90
390.5439, 39605.37
391.0260, 39618.35
391.5081, 39634.12
391.9902, 39665.73
392.4724, 39747.41
392.9545, 39864.91
393.4366, 39937.98
393.9187, 39872.63
394.4008, 39790.62
394.8829, 39779.37
395.3651, 39911.41
395.8472, 40022.71
396.3293, 40048.38
396.8114, 40025.81
397.2935, 40035.44
397.7756, 40115.30
398.2578, 40206.37
398.7399, 40294.43
399.2220, 40387.33
399.7041, 40444.41
400.1862, 40429.68
400.6683, 40396.50
401.1505, 40405.38
401.6326, 40489.15
402.1147, 40565.21
402.5968, 40625.98
403.0789, 40670.79
403.5610, 40675.11
404.0432, 40621.53
404.5253, 40557.14
405.0074, 40514.25
405.4895, 40493.92
405.9716, 40493.89
406.4537, 40520.37
406.9359, 40561.27
407.4180, 40580.19
407.9001, 40572.50
408.3822, 40577.16
408.8643, 40629.09
409.3464, 40719.47
409.8285, 40768.79
410.3106, 40766.34
410.7928, 40752.67
411.2749, 40787.02
411.7570, 40859.13
412.2391, 40916.13
412.7212, 40917.99
413.2033, 40901.90
413.6855, 40939.88
414.1676, 41028.72
414.6497, 41120.78
415.1318, 41172.71
415.6139, 41204.61
416.0960, 41247.61
416.5782, 41322.24
417.0603, 41388.65
417.5424, 41413.65
418.0245, 41404.04
418.5066, 41380.56
418.9887, 41322.62
419.4709, 41274.91
419.9530, 41276.83
420.4351, 41350.61
420.9172, 41405.43
421.3993, 41379.55
421.8814, 41326.75
422.3636, 41315.82
422.8457, 41418.25
423.3278, 41508.58
423.8099, 41559.09
424.2920, 41569.75
424.7741, 41546.29
425.2563, 41434.66
425.7384, 41330.21
426.2205, 41298.52
426.7026, 41414.37
427.1847, 41467.85
427.6668, 41412.89
428.1490, 41295.55
428.6311, 41247.55
429.1132, 41287.61
429.5953, 41354.03
430.0774, 41428.49
430.5595, 41513.69
431.0417, 41567.80
431.5238, 41583.25
432.0059, 41582.29
432.4880, 41582.58
432.9701, 41584.04
433.4522, 41622.11
433.9344, 41728.22
434.4165, 41868.75
434.8986, 41937.43
435.3807, 41935.32
435.8628, 41948.41
436.3449, 42078.20
436.8271, 42272.30
437.3092, 42396.18
437.7913, 42400.06
438.2734, 42396.68
438.7555, 42523.84
439.2376, 42739.93
439.7197, 42936.63
440.2018, 43033.45
440.6840, 43103.36
441.1661, 43201.02
441.6482, 43329.12
442.1303, 43482.60
442.6124, 43675.52
443.0945, 43885.63
443.5767, 44087.68
444.0588, 44254.77
444.5409, 44435.94
445.0230, 44673.89
445.5051, 44949.70
445.9872, 45163.41
446.4694, 45220.50
446.9515, 45276.84
447.4336, 45406.19
447.9157, 45657.83
448.3978, 45879.67
448.8799, 46040.35
449.3621, 46187.30
449.8442, 46394.86
450.3263, 46702.82
450.8084, 46981.41
451.2905, 47185.75
451.7726, 47321.44
452.2548, 47502.02
452.7369, 47741.47
453.2190, 47986.12
453.7011, 48187.88
454.1832, 48345.48
454.6653, 48527.86
455.1475, 48759.14
455.6296, 48995.16
456.1117, 49153.20
456.5938, 49238.86
457.0759, 49314.08
457.5580, 49416.49
458.0402, 49529.72
458.5223, 49626.20
459.0044, 49706.57
459.4865, 49762.66
459.9686, 49771.75
460.4507, 49756.57
460.9329, 49754.25
461.4150, 49804.95
461.8971, 49841.26
462.3792, 49815.61
462.8613, 49738.00
463.3434, 49644.16
463.8256, 49523.26
464.3077, 49410.87
464.7898, 49334.88
465.2719, 49321.38
465.7540, 49278.16
466.2361, 49135.54
466.7183, 48969.30
467.2004, 48878.22
467.6825, 48969.18
468.1646, 49017.46
468.6467, 48954.94
469.1288, 48791.46
469.6110, 48728.88
470.0930, 48819.75
470.5752, 48929.39
471.0573, 48968.90
471.5394, 48914.07
472.0215, 48889.68
472.5036, 48906.43
472.9857, 48949.02
473.4679, 48993.69
473.9500, 49040.14
474.4321, 49088.78
474.9142, 49152.22
475.3963, 49217.69
475.8784, 49236.94
476.3606, 49210.40
476.8427, 49167.44
477.3248, 49136.68
477.8069, 49110.07
478.2890, 49064.61
478.7711, 48981.33
479.2533, 48911.51
479.7354, 48925.34
480.2175, 48992.27
480.6996, 49036.29
481.1817, 48980.44
481.6638, 48917.30
482.1460, 48912.63
482.6281, 48974.57
483.1102, 49031.11
483.5923, 49054.22
484.0744, 49058.73
484.5565, 49057.12
485.0387, 49072.68
485.5208, 49053.14
486.0029, 48962.80
486.4850, 48828.29
486.9671, 48732.88
487.4492, 48694.28
487.9314, 48673.55
488.4135, 48659.98
488.8956, 48656.13
489.3777, 48658.11
489.8598, 48677.94
490.3419, 48687.88
490.8241, 48642.36
491.3062, 48535.18
491.7883, 48470.36
492.2704, 48479.13
492.7525, 48534.89
493.2346, 48574.56
493.7168, 48598.55
494.1989, 48627.99
494.6810, 48686.65
495.1631, 48756.21
495.6452, 48790.84
496.1273, 48780.59
496.6095, 48786.13
497.0916, 48883.11
497.5737, 49024.89
498.0558, 49142.46
498.5379, 49168.43
499.0201, 49204.57
499.5022, 49334.39
499.9843, 49531.30
500.4664, 49683.72
500.9485, 49705.35
501.4306, 49709.07
501.9127, 49752.29
502.3948, 49853.42
502.8770, 49958.94
503.3591, 50073.57
503.8412, 50185.21
504.3233, 50283.40
504.8054, 50374.86
505.2875, 50434.43
505.7697, 50445.08
506.2518, 50419.09
506.7339, 50416.14
507.2160, 50433.91
507.6981, 50479.70
508.1802, 50571.58
508.6624, 50707.06
509.1445, 50817.33
509.6266, 50899.52
510.1087, 50962.67
510.5908, 51008.01
511.0729, 51041.87
511.5551, 51088.46
512.0372, 51168.82
512.5193, 51254.16
513.0014, 51301.00
513.4835, 51317.55
513.9656, 51337.06
514.4478, 51367.82
514.9299, 51416.46
515.4120, 51503.68
515.8941, 51647.65
516.3762, 51746.22
516.8583, 51702.38
517.3405, 51610.99
517.8226, 51575.49
518.3047, 51674.34
518.7868, 51764.41
519.2689, 51831.73
519.7510, 51872.82
520.2332, 51864.16
520.7153, 51757.90
521.1974, 51670.16
521.6795, 51665.84
522.1616, 51770.73
522.6437, 51793.12
523.1259, 51707.28
523.6080, 51592.98
524.0901, 51545.73
524.5722, 51566.21
525.0543, 51584.16
525.5364, 51585.53
526.0186, 51574.11
526.5007, 51550.72
526.9828, 51517.79
527.4649, 51491.70
527.9470, 51491.80
528.4291, 51499.82
528.9113, 51489.25
529.3934, 51457.68
529.8755, 51423.28
530.3576, 51401.36
530.8397, 51381.72
531.3218, 51351.76
531.8040, 51283.80
532.2861, 51236.60
532.7682, 51238.70
533.2503, 51277.33
533.7324, 51319.65
534.2145, 51407.11
534.6967, 51452.79
535.1788, 51413.56
535.6609, 51274.90
536.1430, 51200.32
536.6251, 51215.96
537.1072, 51262.35
537.5894, 51296.15
538.0715, 51317.63
538.5536, 51322.13
539.0357, 51300.08
539.5178, 51274.73
539.9999, 51292.81
540.4821, 51351.33
540.9642, 51413.95
541.4463, 51452.78
541.9284, 51488.79
542.4105, 51583.18
542.8926, 51728.62
543.3748, 51847.43
543.8569, 51857.23
544.3390, 51818.07
544.8211, 51792.82
545.3032, 51787.30
545.7853, 51812.11
546.2675, 51906.84
546.7495, 52026.36
547.2316, 52106.34
547.7137, 52086.75
548.1959, 52073.66
548.6780, 52106.10
549.1601, 52177.66
549.6422, 52215.49
550.1243, 52194.30
550.6064, 52172.55
551.0886, 52178.97
551.5707, 52219.98
552.0528, 52260.09
552.5349, 52302.00
553.0170, 52336.82
553.4991, 52352.89
553.9813, 52350.39
554.4634, 52334.36
554.9455, 52294.40
555.4276, 52257.76
555.9097, 52276.04
556.3918, 52343.00
556.8740, 52429.95
557.3561, 52540.57
557.8382, 52652.43
558.3203, 52749.82
558.8024, 52832.45
559.2845, 52877.21
559.7667, 52820.00
560.2488, 52748.38
560.7309, 52739.21
561.2130, 52840.05
561.6951, 52955.69
562.1772, 53089.57
562.6594, 53223.35
563.1415, 53321.61
563.6236, 53356.41
564.1057, 53392.94
564.5878, 53450.35
565.0699, 53523.61
565.5521, 53566.03
566.0342, 53565.38
566.5163, 53569.33
566.9984, 53608.00
567.4805, 53680.27
567.9626, 53785.39
568.4448, 53935.10
568.9269, 54065.88
569.4090, 54078.28
569.8911, 54012.86
570.3732, 53979.99
570.8553, 54036.19
571.3375, 54112.39
571.8196, 54135.77
572.3017, 54124.76
572.7838, 54131.02
573.2659, 54191.46
573.7480, 54263.88
574.2302, 54335.67
574.7123, 54408.26
575.1944, 54446.16
575.6765, 54397.98
576.1586, 54345.91
576.6407, 54347.66
577.1229, 54453.03
577.6050, 54512.71
578.0871, 54506.28
578.5692, 54469.16
579.0513, 54455.77
579.5334, 54465.04
580.0156, 54513.19
580.4977, 54621.00
580.9798, 54762.92
581.4619, 54869.54
581.9440, 54941.05
582.4261, 54986.70
582.9083, 54976.10
583.3904, 54955.33
583.8725, 55014.45
584.3546, 55169.67
584.8367, 55294.97
585.3188, 55254.19
585.8010, 55159.82
586.2831, 55136.47
586.7652, 55276.32
587.2473, 55415.29
587.7294, 55508.59
588.2115, 55572.39
588.6937, 55646.63
589.1758, 55749.16
589.6579, 55841.78
590.1400, 55917.12
590.6221, 55975.34
591.1042, 56007.82
591.5864, 55999.89
592.0685, 56009.29
592.5506, 56085.42
593.0327, 56223.04
593.5148, 56355.04
593.9969, 56481.24
594.4791, 56587.41
594.9612, 56630.09
595.4433, 56641.59
595.9254, 56701.55
596.4075, 56861.81
596.8896, 57039.91
597.3718, 57161.90
597.8539, 57246.76
598.3360, 57339.52
598.8181, 57442.89
599.3002, 57573.00
599.7823, 57745.89
600.2645, 57964.24
600.7466, 58173.67
601.2287, 58333.27
601.7108, 58514.46
602.1929, 58760.73
602.6750, 59095.52
603.1572, 59418.66
603.6393, 59728.53
604.1214, 60033.81
604.6035, 60334.93
605.0856, 60634.01
605.5677, 61001.71
606.0499, 61493.61
606.5320, 62012.62
607.0141, 62394.77
607.4962, 62658.14
607.9783, 62882.29
608.4604, 63132.63
608.9425, 63344.39
609.4246, 63447.23
609.9067, 63442.91
610.3889, 63395.42
610.8710, 63314.49
611.3531, 63212.99
611.8352, 63103.76
612.3173, 63009.50
612.7994, 62857.72
613.2816, 62620.61
613.7637, 62343.80
614.2458, 62076.54
614.7279, 61825.43
615.2100, 61563.84
615.6921, 61277.85
616.1743, 60989.81
616.6564, 60760.12
617.1385, 60588.80
617.6206, 60454.23
618.1027, 60345.91
618.5848, 60266.66
619.0670, 60220.41
619.5491, 60206.00
620.0312, 60215.64
620.5133, 60257.27
620.9954, 60311.51
621.4775, 60359.42
621.9597, 60395.40
622.4418, 60433.12
622.9239, 60474.41
623.4060, 60520.05
623.8881, 60571.79
624.3702, 60646.64
624.8524, 60702.14
625.3345, 60730.74
625.8166, 60740.86
626.2987, 60746.54
626.7808, 60743.21
627.2629, 60756.94
627.7451, 60799.99
628.2272, 60865.89
628.7093, 60939.89
629.1914, 61021.57
629.6735, 61086.24
630.1556, 61107.12
630.6378, 61104.32
631.1199, 61098.19
631.6020, 61089.73
632.0841, 61104.63
632.5662, 61182.80
633.0483, 61280.92
633.5305, 61357.50
634.0126, 61385.38
634.4947, 61419.34
634.9768, 61479.89
635.4589, 61548.50
635.9410, 61592.74
636.4232, 61580.21
636.9053, 61609.19
637.3874, 61716.21
637.8695, 61869.54
638.3516, 61954.12
638.8337, 61963.74
639.3159, 61971.45
639.7980, 62017.37
640.2801, 62089.61
640.7622, 62149.46
641.2443, 62198.89
641.7264, 62262.27
642.2086, 62377.98
642.6907, 62509.09
643.1728, 62609.18
643.6549, 62664.40
644.1370, 62729.35
644.6191, 62843.83
645.1013, 62973.85
645.5834, 63083.95
646.0655, 63142.25
646.5476, 63216.07
647.0297, 63308.45
647.5118, 63415.96
647.9940, 63530.03
648.4761, 63649.87
648.9582, 63773.70
649.4403, 63905.17
