##NAMES=Ahlfeldite
##RRUFFID=R100210
##IDEAL CHEMISTRY=Ni^2+^Se^4+^O_3_&#183;2H_2_O
##LOCALITY=El Dragon mine, Potosi, Bolivia
##OWNER=RRUFF
##SOURCE=William W Pinch
##DESCRIPTION=Pink crystalline massive associated with blue chalcomenite
##STATUS=The identification of this mineral has been confirmed only by single crystal X-ray diffraction.
##URL=rruff.info/R100210
202.4042, 27.67492
202.8864, 25.11506
203.3685, 21.11738
203.8506, 18.91679
204.3327, 19.05804
204.8148, 18.87092
205.2969, 16.17448
205.7791, 10.25380
206.2612, 7.215233
206.7433, 8.085349
207.2254, 11.50319
207.7075, 14.21975
208.1896, 16.29550
208.6718, 17.52149
209.1539, 17.41402
209.6360, 15.48932
210.1181, 14.83330
210.6002, 16.12851
211.0823, 18.50414
211.5645, 19.33424
212.0466, 18.01152
212.5287, 16.58883
213.0108, 16.32717
213.4929, 17.68466
213.9750, 18.38987
214.4572, 18.23591
214.9393, 17.39023
215.4214, 16.18621
215.9035, 14.27043
216.3856, 12.70558
216.8678, 12.18624
217.3499, 13.05004
217.8320, 13.85379
218.3141, 14.64711
218.7962, 15.30195
219.2783, 15.30550
219.7605, 14.30970
220.2426, 13.29556
220.7247, 12.74450
221.2068, 12.65295
221.6889, 13.09198
222.1710, 14.36942
222.6532, 16.10802
223.1353, 16.95485
223.6174, 16.25689
224.0995, 15.77364
224.5816, 16.59421
225.0637, 19.71077
225.5459, 21.60030
226.0280, 21.89270
226.5101, 20.95526
226.9922, 19.71950
227.4743, 17.50435
227.9564, 16.03711
228.4386, 16.29316
228.9207, 19.09221
229.4028, 21.61954
229.8849, 23.82535
230.3670, 25.73783
230.8492, 27.65346
231.3313, 30.31733
231.8134, 31.83858
232.2955, 31.01179
232.7776, 26.05056
233.2597, 23.00147
233.7419, 22.61530
234.2240, 23.95956
234.7061, 24.65842
235.1882, 24.59627
235.6703, 24.07368
236.1524, 23.05872
236.6346, 20.88088
237.1167, 19.80335
237.5988, 20.17277
238.0809, 21.50106
238.5630, 22.64780
239.0451, 23.32334
239.5273, 24.24832
240.0094, 25.94060
240.4915, 29.33980
240.9736, 30.90166
241.4557, 29.51513
241.9378, 26.79469
242.4200, 26.27155
242.9021, 29.46546
243.3842, 32.48510
243.8663, 33.79057
244.3484, 32.73816
244.8306, 31.86337
245.3127, 31.09611
245.7948, 30.54864
246.2769, 30.47200
246.7590, 31.06724
247.2411, 31.79340
247.7233, 32.50368
248.2054, 33.24244
248.6875, 33.88377
249.1696, 34.83655
249.6517, 35.42018
250.1338, 34.16972
250.6160, 29.31872
251.0981, 25.81547
251.5802, 25.48477
252.0623, 28.96921
252.5444, 32.50591
253.0265, 37.05591
253.5087, 40.84728
253.9908, 40.69001
254.4729, 33.78526
254.9550, 28.68619
255.4371, 28.69513
255.9192, 34.85451
256.4014, 37.45666
256.8835, 35.20441
257.3656, 30.67543
257.8477, 26.61123
258.3298, 22.43829
258.8120, 20.08394
259.2941, 20.61595
259.7762, 24.30246
260.2583, 26.30463
260.7404, 26.22808
261.2225, 24.98043
261.7047, 23.24102
262.1868, 20.39433
262.6689, 18.71613
263.1510, 19.04696
263.6331, 21.30954
264.1152, 22.80920
264.5974, 23.46792
265.0795, 23.46271
265.5616, 22.66687
266.0437, 20.51062
266.5258, 19.48038
267.0079, 20.42536
267.4901, 23.04432
267.9722, 24.52240
268.4543, 24.58520
268.9364, 24.08940
269.4185, 23.76832
269.9006, 23.75803
270.3828, 23.28759
270.8649, 22.03788
271.3470, 20.25315
271.8291, 19.06881
272.3112, 18.55085
272.7933, 18.42799
273.2755, 18.62934
273.7576, 19.23989
274.2397, 19.53672
274.7218, 19.27166
275.2039, 18.73004
275.6860, 18.76940
276.1682, 19.43397
276.6503, 20.51378
277.1324, 22.51651
277.6145, 25.66935
278.0966, 26.18122
278.5787, 22.93653
279.0609, 17.88680
279.5430, 15.40398
280.0251, 15.82581
280.5072, 16.81954
280.9893, 16.99357
281.4715, 16.35430
281.9536, 16.79432
282.4357, 18.80329
282.9178, 21.11863
283.3999, 21.10378
283.8820, 18.59887
284.3642, 16.64147
284.8463, 17.19699
285.3284, 19.97244
285.8105, 21.31222
286.2926, 20.91688
286.7747, 20.00655
287.2569, 20.63059
287.7390, 22.70199
288.2211, 23.89825
288.7032, 22.77880
289.1853, 19.93523
289.6674, 17.92908
290.1496, 16.77989
290.6317, 16.24721
291.1138, 16.38208
291.5959, 17.05846
292.0780, 17.39405
292.5602, 17.03143
293.0423, 16.16230
293.5244, 14.89239
294.0065, 13.18083
294.4886, 12.21121
294.9707, 14.06306
295.4529, 17.78842
295.9350, 19.79467
296.4171, 18.44098
296.8992, 15.56037
297.3813, 14.25735
297.8634, 14.45671
298.3456, 15.31105
298.8277, 16.47114
299.3098, 17.79651
299.7919, 19.09815
300.2740, 20.60667
300.7561, 21.56974
301.2383, 20.40148
301.7204, 17.53862
302.2025, 15.04388
302.6846, 14.30293
303.1667, 14.71083
303.6488, 15.54778
304.1310, 16.92935
304.6131, 18.00403
305.0952, 17.57532
305.5773, 16.09600
306.0594, 14.79483
306.5415, 14.28904
307.0237, 14.29761
307.5058, 14.55924
307.9879, 15.06406
308.4700, 15.71977
308.9521, 17.15441
309.4343, 18.62451
309.9164, 18.87053
310.3985, 15.79888
310.8806, 12.35023
311.3627, 10.93862
311.8448, 11.67694
312.3270, 12.75033
312.8091, 13.42032
313.2912, 13.70250
313.7733, 13.61531
314.2554, 12.33902
314.7375, 11.40807
315.2197, 11.87959
315.7018, 13.60153
316.1839, 15.23110
316.6660, 16.15799
317.1481, 16.74362
317.6302, 17.27591
318.1124, 17.93044
318.5945, 18.41818
319.0766, 18.73283
319.5587, 18.82563
320.0408, 18.53990
320.5229, 17.44188
321.0051, 16.22162
321.4872, 15.15304
321.9693, 13.80819
322.4514, 13.52978
322.9335, 15.82150
323.4156, 19.26993
323.8978, 21.15054
324.3799, 19.48003
324.8620, 17.48496
325.3441, 16.42930
325.8262, 16.92941
326.3083, 16.72858
326.7905, 14.03716
327.2726, 11.07192
327.7547, 10.58635
328.2368, 17.03128
328.7189, 21.39746
329.2010, 20.95991
329.6832, 15.07414
330.1653, 11.65044
330.6474, 12.17381
331.1295, 14.09179
331.6116, 15.39084
332.0938, 15.95129
332.5759, 16.05096
333.0580, 15.42820
333.5401, 14.24896
334.0222, 13.92444
334.5043, 15.28224
334.9865, 16.35137
335.4686, 15.66977
335.9507, 12.01797
336.4328, 10.00128
336.9149, 10.29410
337.3970, 12.15206
337.8792, 13.61632
338.3613, 14.63800
338.8434, 15.47072
339.3255, 16.41352
339.8076, 17.62217
340.2898, 17.49165
340.7719, 15.48897
341.2540, 13.06236
341.7361, 12.57858
342.2182, 14.26527
342.7003, 15.78456
343.1825, 16.18464
343.6646, 15.67690
344.1467, 15.77524
344.6288, 16.61069
345.1109, 17.39439
345.5930, 17.18134
346.0752, 16.07412
346.5573, 15.06762
347.0394, 14.30894
347.5215, 13.86943
348.0036, 14.13585
348.4857, 15.08560
348.9679, 15.84562
349.4500, 15.23945
349.9321, 13.90147
350.4142, 13.90086
350.8963, 15.96381
351.3784, 18.39062
351.8606, 18.71449
352.3427, 17.40454
352.8248, 16.19284
353.3069, 16.50565
353.7890, 17.32975
354.2711, 16.88148
354.7533, 14.81953
355.2354, 13.37346
355.7175, 15.41771
356.1996, 19.29725
356.6817, 22.12565
357.1638, 21.33103
357.6460, 20.01267
358.1281, 21.08719
358.6102, 24.33153
359.0923, 26.67080
359.5744, 25.10179
360.0565, 22.31879
360.5387, 20.97168
361.0208, 22.69666
361.5029, 24.86138
361.9850, 26.50824
362.4671, 27.70611
362.9492, 28.63699
363.4314, 29.33979
363.9135, 29.81110
364.3956, 30.00329
364.8777, 29.76013
365.3598, 29.60205
365.8419, 29.65312
366.3241, 29.85120
366.8062, 30.10410
367.2883, 31.52534
367.7704, 31.91512
368.2526, 30.12385
368.7347, 25.49579
369.2168, 22.41330
369.6989, 22.14069
370.1810, 22.67532
370.6631, 22.28776
371.1453, 19.29231
371.6274, 17.95404
372.1095, 19.64401
372.5916, 23.71265
373.0737, 25.71719
373.5558, 24.84470
374.0380, 23.14525
374.5201, 21.62821
375.0022, 20.26555
375.4843, 19.21576
375.9664, 18.46430
376.4485, 18.04656
376.9307, 18.16585
377.4128, 19.00104
377.8949, 19.59777
378.3770, 19.37584
378.8591, 18.40387
379.3412, 18.17688
379.8234, 18.84549
380.3055, 19.73457
380.7876, 20.05466
381.2697, 19.83903
381.7518, 19.61899
382.2339, 19.50568
382.7161, 19.49884
383.1982, 19.63602
383.6803, 19.91180
384.1624, 20.20181
384.6445, 20.48615
385.1266, 20.71066
385.6088, 20.68040
386.0909, 20.28791
386.5730, 19.88426
387.0551, 19.88533
387.5372, 20.21255
388.0193, 20.64487
388.5015, 21.66792
388.9836, 22.41295
389.4657, 21.32346
389.9478, 18.23747
390.4299, 16.06085
390.9120, 17.82989
391.3942, 21.33012
391.8763, 23.81336
392.3584, 24.12145
392.8405, 23.38642
393.3226, 21.70111
393.8047, 19.28924
394.2869, 17.17429
394.7690, 15.39171
395.2511, 14.27649
395.7332, 14.08305
396.2154, 15.10358
396.6975, 16.50990
397.1796, 18.74717
397.6617, 21.17997
398.1438, 22.70943
398.6259, 22.49397
399.1081, 22.06030
399.5902, 21.74559
400.0723, 21.54304
400.5544, 21.57906
401.0365, 22.57965
401.5186, 23.27597
402.0008, 22.36322
402.4829, 17.74355
402.9650, 15.64332
403.4471, 18.01776
403.9292, 23.42315
404.4113, 25.54138
404.8935, 23.35178
405.3756, 20.27699
405.8577, 17.65384
406.3398, 15.31836
406.8219, 15.05777
407.3040, 17.40636
407.7862, 20.84895
408.2683, 23.51319
408.7504, 25.40681
409.2325, 26.27020
409.7146, 25.46500
410.1967, 23.68694
410.6789, 23.44909
411.1610, 24.80490
411.6431, 26.30343
412.1252, 26.71325
412.6073, 26.26793
413.0894, 25.48582
413.5716, 24.25534
414.0537, 23.22854
414.5358, 23.53900
415.0179, 24.81307
415.5000, 25.84169
415.9821, 25.62488
416.4643, 25.00260
416.9464, 24.68427
417.4285, 24.70815
417.9106, 25.37159
418.3927, 27.48211
418.8748, 30.13858
419.3570, 32.23355
419.8391, 33.21371
420.3212, 33.75979
420.8033, 34.13265
421.2854, 34.31126
421.7675, 34.20814
422.2497, 33.61201
422.7318, 32.86647
423.2139, 32.04891
423.6960, 30.73485
424.1781, 30.30567
424.6602, 31.13596
425.1424, 32.88722
425.6245, 35.13135
426.1066, 39.37939
426.5887, 42.10836
427.0709, 41.78524
427.5530, 38.41323
428.0351, 37.31200
428.5172, 39.44952
428.9993, 42.52169
429.4814, 45.11332
429.9636, 47.41203
430.4457, 48.36131
430.9278, 47.46125
431.4099, 45.57477
431.8920, 44.55005
432.3741, 44.44379
432.8563, 44.69446
433.3384, 45.05246
433.8205, 45.54755
434.3026, 46.58942
434.7847, 48.29152
435.2668, 49.68595
435.7490, 49.40768
436.2311, 47.91717
436.7132, 46.80651
437.1953, 46.35464
437.6774, 46.66965
438.1595, 48.59383
438.6417, 51.65680
439.1238, 53.91030
439.6059, 53.59662
440.0880, 52.17514
440.5701, 51.11373
441.0522, 50.58351
441.5344, 50.32235
442.0165, 50.50899
442.4986, 50.75719
442.9807, 50.59117
443.4628, 49.32688
443.9449, 48.13519
444.4271, 47.52239
444.9092, 47.40554
445.3913, 47.27762
445.8734, 47.05442
446.3555, 46.76247
446.8376, 46.36652
447.3198, 45.56731
447.8019, 45.28307
448.2840, 46.29452
448.7661, 47.50956
449.2482, 47.22779
449.7303, 43.80860
450.2125, 41.74376
450.6946, 42.49267
451.1767, 45.79271
451.6588, 47.67954
452.1409, 47.94756
452.6230, 47.32270
453.1052, 46.12999
453.5873, 44.30385
454.0694, 42.45745
454.5515, 40.35407
455.0337, 38.83463
455.5158, 40.14433
455.9979, 44.04432
456.4800, 46.80920
456.9621, 46.10526
457.4442, 43.40256
457.9264, 42.06960
458.4085, 42.07853
458.8906, 42.66188
459.3727, 43.65310
459.8548, 44.70153
460.3369, 45.15503
460.8191, 44.67920
461.3012, 44.06200
461.7833, 43.86994
462.2654, 44.00697
462.7475, 44.27219
463.2296, 44.48053
463.7118, 44.87651
464.1939, 45.73378
464.6760, 47.08181
465.1581, 48.20148
465.6402, 49.18552
466.1223, 49.66125
466.6045, 49.34491
467.0866, 46.67316
467.5687, 45.10258
468.0508, 45.46425
468.5329, 46.97689
469.0150, 47.95017
469.4972, 48.33671
469.9793, 48.21483
470.4614, 47.31123
470.9435, 45.53025
471.4256, 45.21774
471.9077, 47.22675
472.3899, 49.00497
472.8720, 47.57373
473.3541, 42.48008
473.8362, 39.58624
474.3183, 40.09652
474.8004, 42.52197
475.2826, 43.99305
475.7647, 44.58882
476.2468, 45.43325
476.7289, 47.44649
477.2110, 50.05250
477.6931, 52.07723
478.1753, 53.51877
478.6574, 54.27098
479.1395, 53.60283
479.6216, 52.36860
480.1037, 51.89872
480.5858, 52.89322
481.0680, 54.05128
481.5501, 54.42506
482.0322, 54.31067
482.5143, 54.32009
482.9964, 54.80917
483.4786, 55.37732
483.9607, 55.89165
484.4428, 56.34533
484.9249, 56.61310
485.4070, 56.46220
485.8892, 56.24473
486.3713, 56.19805
486.8534, 56.01778
487.3355, 56.45842
487.8176, 57.64016
488.2997, 59.41619
488.7819, 61.88584
489.2640, 66.30595
489.7461, 68.43095
490.2282, 65.86733
490.7103, 59.03465
491.1924, 55.93953
491.6746, 57.18737
492.1567, 59.57931
492.6388, 60.25506
493.1209, 59.46096
493.6030, 59.36681
494.0851, 60.39861
494.5673, 61.83743
495.0494, 62.87824
495.5315, 63.49522
496.0136, 63.55996
496.4957, 62.48115
496.9778, 61.14109
497.4600, 60.85180
497.9421, 61.45598
498.4242, 61.38335
498.9063, 58.74851
499.3884, 55.56211
499.8705, 53.59168
500.3527, 53.57097
500.8348, 53.85140
501.3169, 54.78674
501.7990, 55.43389
502.2811, 54.44740
502.7632, 48.55811
503.2454, 44.28018
503.7275, 43.87207
504.2096, 46.89061
504.6917, 48.46920
505.1738, 48.06779
505.6559, 46.94976
506.1381, 45.59967
506.6202, 43.78723
507.1023, 42.68117
507.5844, 42.32588
508.0665, 42.59365
508.5486, 43.55711
509.0308, 45.24349
509.5129, 46.64447
509.9950, 47.64241
510.4771, 48.06789
510.9592, 47.10587
511.4413, 44.92521
511.9235, 43.11425
512.4056, 43.48989
512.8877, 44.56481
513.3698, 43.75577
513.8519, 40.74196
514.3340, 37.88924
514.8162, 36.75959
515.2983, 36.84483
515.7804, 37.59829
516.2625, 39.79058
516.7446, 41.43347
517.2267, 41.09413
517.7089, 39.58824
518.1910, 38.92137
518.6731, 41.38522
519.1552, 43.00653
519.6373, 41.82020
520.1194, 37.43177
520.6016, 34.51299
521.0837, 33.67049
521.5658, 33.65039
522.0479, 33.57319
522.5300, 33.32022
523.0121, 33.58815
523.4943, 34.80394
523.9764, 36.04887
524.4585, 34.91506
524.9406, 31.32962
525.4227, 29.57509
525.9048, 32.13487
526.3870, 37.12073
526.8691, 40.00483
527.3513, 40.86530
527.8334, 40.77703
528.3155, 40.01163
528.7976, 38.97419
529.2797, 38.50408
529.7618, 38.90174
530.2440, 38.60543
530.7261, 35.45214
531.2082, 31.28105
531.6903, 28.50305
532.1724, 29.21845
532.6545, 30.01447
533.1367, 29.56639
533.6188, 28.26652
534.1009, 27.52045
534.5830, 27.63906
535.0651, 28.26661
535.5472, 29.42450
536.0294, 31.24946
536.5115, 32.77514
536.9936, 34.32331
537.4757, 35.12558
537.9578, 34.19644
538.4399, 31.11808
538.9221, 28.89409
539.4042, 27.82574
539.8863, 27.70058
540.3684, 28.58385
540.8505, 30.35125
541.3326, 31.48440
541.8148, 30.92881
542.2969, 29.62226
542.7790, 29.18507
543.2611, 29.55705
543.7432, 30.22507
544.2253, 31.66314
544.7075, 32.78510
545.1896, 32.15079
545.6717, 29.22815
546.1538, 26.48771
546.6359, 24.86998
547.1180, 24.17251
547.6002, 24.20618
548.0823, 25.59789
548.5644, 26.94450
549.0465, 28.29453
549.5286, 29.43751
550.0107, 29.69402
550.4929, 28.21569
550.9750, 27.14890
551.4571, 27.43170
551.9392, 29.07617
552.4213, 29.47876
552.9034, 28.24463
553.3856, 27.01179
553.8677, 27.51031
554.3498, 29.52235
554.8319, 30.05012
555.3140, 28.40121
555.7961, 26.69316
556.2783, 28.55023
556.7604, 32.67900
557.2425, 35.35548
557.7246, 34.39248
558.2067, 32.23687
558.6888, 31.02690
559.1710, 30.58274
559.6531, 30.31857
560.1352, 30.15920
560.6173, 29.93303
561.0994, 29.47311
561.5815, 28.71884
562.0637, 28.14722
562.5458, 27.91541
563.0279, 27.86145
563.5100, 27.84920
563.9921, 27.73230
564.4742, 27.95480
564.9564, 28.75507
565.4385, 29.71790
565.9206, 30.15915
566.4027, 30.04614
566.8848, 29.46285
567.3669, 28.05547
567.8491, 26.39223
568.3312, 26.65048
568.8133, 28.75851
569.2954, 30.93230
569.7775, 32.18221
570.2596, 32.66127
570.7418, 32.24285
571.2239, 30.87492
571.7060, 30.04223
572.1881, 31.80486
572.6702, 34.29986
573.1523, 35.31580
573.6345, 33.11922
574.1166, 31.52054
574.5987, 32.99257
575.0808, 35.77251
575.5629, 36.94986
576.0450, 33.59873
576.5272, 31.36176
577.0093, 31.72230
577.4914, 34.24079
577.9735, 36.18884
578.4556, 37.77883
578.9377, 38.31810
579.4199, 37.00622
579.9020, 33.80735
580.3841, 31.80075
580.8662, 31.06837
581.3483, 31.09401
581.8304, 31.68031
582.3126, 32.64897
582.7947, 33.29103
583.2768, 33.33013
583.7589, 33.45730
584.2410, 34.76973
584.7231, 36.68168
585.2053, 38.03378
585.6874, 38.35894
586.1696, 37.97129
586.6517, 36.59213
587.1338, 34.50156
587.6159, 32.91872
588.0980, 32.23060
588.5801, 32.05349
589.0623, 32.30564
589.5444, 33.02251
590.0265, 33.90071
590.5086, 35.37321
590.9907, 36.45459
591.4728, 36.36083
591.9550, 35.00394
592.4371, 32.68641
592.9192, 28.87014
593.4013, 25.47800
593.8834, 26.01177
594.3655, 29.87118
594.8477, 33.37303
595.3298, 35.60217
595.8119, 36.50790
596.2940, 35.20572
596.7761, 32.33073
597.2582, 29.97514
597.7404, 28.85963
598.2225, 28.95782
598.7046, 31.28819
599.1867, 35.80524
599.6688, 38.10353
600.1509, 34.42038
600.6331, 29.89977
601.1152, 27.84429
601.5973, 29.53384
602.0794, 30.91203
602.5615, 32.08868
603.0436, 32.83619
603.5258, 32.75433
604.0079, 31.66536
604.4900, 30.72768
604.9721, 30.17511
605.4542, 29.80860
605.9363, 29.03747
606.4185, 27.96350
606.9006, 27.46364
607.3827, 28.71483
607.8648, 30.29460
608.3469, 29.38305
608.8290, 26.52356
609.3112, 24.82341
609.7933, 27.61794
610.2754, 31.21457
610.7575, 32.80652
611.2396, 31.85971
611.7217, 30.44617
612.2039, 28.17291
612.6860, 26.25851
613.1681, 25.65498
613.6502, 27.07089
614.1323, 28.66324
614.6144, 30.88782
615.0966, 32.85208
615.5787, 32.98666
616.0608, 30.91448
616.5429, 29.44398
617.0250, 29.36358
617.5071, 30.10993
617.9893, 30.49670
618.4714, 30.55544
618.9535, 30.52174
619.4356, 30.28973
619.9177, 30.16295
620.3998, 30.70914
620.8820, 31.84497
621.3641, 32.79321
621.8462, 32.85380
622.3283, 32.75541
622.8104, 33.28547
623.2925, 35.01785
623.7747, 35.44466
624.2568, 32.67059
624.7389, 29.31380
625.2210, 27.43940
625.7031, 27.37432
626.1852, 28.23619
626.6674, 30.49734
627.1495, 33.05902
627.6316, 33.77863
628.1137, 32.55898
628.5958, 31.98233
629.0779, 33.17357
629.5601, 34.99742
630.0422, 35.17887
630.5243, 33.94847
631.0064, 32.40230
631.4885, 30.24980
631.9706, 28.67495
632.4528, 29.46780
632.9349, 32.39099
633.4170, 34.45597
633.8991, 33.80882
634.3812, 32.30964
634.8633, 31.02955
635.3455, 30.18054
635.8276, 29.23053
636.3097, 27.80961
636.7918, 26.60895
637.2739, 26.21098
637.7560, 26.70457
638.2382, 27.80842
638.7203, 29.79269
639.2024, 31.80303
639.6845, 32.36171
640.1666, 31.63601
640.6487, 30.98942
641.1309, 30.85291
641.6130, 30.95956
642.0951, 31.25106
642.5772, 31.52178
643.0594, 31.17542
643.5415, 28.62160
644.0236, 26.49621
644.5057, 27.02499
644.9879, 29.87898
645.4700, 31.55781
645.9521, 30.22708
646.4342, 28.47262
646.9163, 27.40213
647.3984, 27.09831
647.8806, 26.81743
648.3627, 26.37769
648.8448, 26.29527
649.3269, 27.63880
649.8090, 30.39557
650.2911, 30.31260
650.7733, 26.54983
651.2554, 22.27727
651.7375, 21.30053
652.2196, 22.73548
652.7017, 24.53046
653.1838, 26.51870
653.6660, 27.90174
654.1481, 27.47955
654.6302, 26.11602
655.1123, 25.33202
655.5944, 27.20188
656.0765, 28.06347
656.5587, 25.37356
657.0408, 20.35309
657.5229, 18.86063
658.0050, 23.16797
658.4871, 27.18040
658.9692, 28.62255
659.4514, 27.75979
659.9335, 27.63885
660.4156, 28.36433
660.8977, 28.97338
661.3798, 28.55990
661.8619, 27.51599
662.3441, 26.81957
662.8262, 26.52606
663.3083, 26.61382
663.7904, 27.58263
664.2725, 28.67465
664.7546, 29.08762
665.2368, 28.66232
665.7189, 27.53789
666.2010, 23.99714
666.6831, 20.55321
667.1652, 20.32235
667.6473, 27.01792
668.1295, 30.69358
668.6116, 29.31364
669.0937, 25.57551
669.5758, 25.18925
670.0579, 28.61247
670.5400, 30.80795
671.0222, 29.78570
671.5043, 27.18913
671.9864, 26.66626
672.4685, 27.78802
672.9506, 28.43007
673.4327, 26.30070
673.9149, 23.96676
674.3970, 24.17252
674.8791, 26.58788
675.3612, 28.47242
675.8433, 28.22179
676.3254, 27.61092
676.8076, 27.64940
677.2897, 28.58059
677.7718, 28.85617
678.2539, 27.96168
678.7360, 27.12672
679.2181, 27.39324
679.7003, 28.94839
680.1824, 29.47050
680.6645, 28.71403
681.1466, 27.67601
681.6287, 27.17646
682.1108, 27.26594
682.5930, 28.35165
683.0751, 30.90384
683.5572, 33.11985
684.0393, 33.17247
684.5214, 32.02647
685.0035, 31.06908
685.4857, 30.71878
685.9678, 30.62987
686.4499, 30.86673
686.9320, 31.29576
687.4141, 31.57986
687.8962, 31.38676
688.3784, 31.66720
688.8605, 32.60939
689.3426, 34.17967
689.8247, 36.66554
690.3068, 40.15399
690.7889, 42.76036
691.2711, 43.22279
691.7532, 42.35755
692.2353, 41.20971
692.7174, 39.97786
693.1995, 39.84620
693.6816, 42.70907
694.1638, 46.08240
694.6459, 48.21021
695.1280, 48.92921
695.6101, 48.82331
696.0922, 46.12537
696.5743, 44.27865
697.0565, 45.46894
697.5386, 50.88752
698.0207, 54.33794
698.5028, 55.44556
698.9849, 55.38407
699.4670, 54.91160
699.9492, 54.10292
