##NAMES=Akatoreite
##RRUFFID=R060230
##IDEAL CHEMISTRY=Mn^2+^_9_Al_2_Si_8_O_24_(OH)_8_
##LOCALITY=near mouth of Akatore Creek, Taieri, Otago Province, New Zealand
##OWNER=RRUFF
##SOURCE=Michael Scott
##DESCRIPTION=Orange-brown massive
##STATUS=The identification of this mineral is confirmed by single-crystal X-ray diffraction and chemical analysis.
##URL=rruff.info/R060230
##MEASURED CHEMISTRY=(Mn^2+^_8.66_Mg_0.12_Fe^2+^_0.09_Fe^3+^_0.09_Ca_0.04_)_Σ=9_(Al_1.87_Cr_0.13_)_Σ=2_(Si_7.91_Al_0.09_)_Σ=8_O_24_(OH)_8_ ; OH estimated by difference and stoichiometry ; Fe2 and Fe3 by charge balance
150.1633, 249.0067
150.6454, 250.2888
151.1275, 251.7373
151.6096, 252.7332
152.0917, 252.8180
152.5739, 252.5479
153.0560, 252.9061
153.5381, 254.1295
154.0202, 255.2259
154.5023, 255.2899
154.9844, 254.2811
155.4665, 253.1937
155.9487, 252.7523
156.4308, 252.1809
156.9129, 250.5335
157.3950, 247.3700
157.8771, 244.0747
158.3592, 242.9719
158.8414, 245.1699
159.3235, 246.8003
159.8056, 246.7527
160.2877, 245.8848
160.7698, 244.8229
161.2519, 243.8211
161.7341, 242.8980
162.2162, 242.1090
162.6983, 241.4052
163.1804, 240.9393
163.6625, 240.7829
164.1446, 240.8428
164.6268, 240.9887
165.1089, 241.1402
165.5910, 241.3379
166.0731, 241.8648
166.5552, 243.0768
167.0373, 244.2294
167.5195, 245.5096
168.0016, 246.6242
168.4837, 246.9371
168.9658, 245.9056
169.4479, 243.6702
169.9300, 242.4805
170.4122, 243.4082
170.8943, 244.1332
171.3764, 243.4028
171.8585, 241.4390
172.3406, 239.3775
172.8227, 237.9742
173.3049, 237.2479
173.7870, 236.6637
174.2691, 236.3883
174.7512, 236.1354
175.2333, 235.6943
175.7154, 235.0554
176.1976, 234.2541
176.6797, 232.9929
177.1618, 231.5924
177.6439, 230.8985
178.1260, 231.7050
178.6081, 233.0893
179.0903, 233.5296
179.5724, 232.6348
180.0545, 231.9509
180.5366, 232.7857
181.0187, 234.4309
181.5008, 235.7931
181.9830, 236.3633
182.4651, 236.2948
182.9472, 235.9968
183.4293, 235.2133
183.9114, 234.6131
184.3935, 234.6024
184.8757, 234.9343
185.3578, 235.1534
185.8399, 234.8383
186.3220, 234.0927
186.8041, 234.0613
187.2862, 235.8897
187.7684, 237.2384
188.2505, 237.0233
188.7326, 235.8047
189.2147, 234.7939
189.6968, 235.0608
190.1789, 236.6873
190.6611, 237.3084
191.1432, 235.6385
191.6253, 234.2088
192.1074, 233.9877
192.5895, 234.7434
193.0716, 235.6723
193.5538, 236.0605
194.0359, 235.8132
194.5180, 235.8231
195.0001, 236.5363
195.4822, 237.0498
195.9643, 236.6114
196.4465, 235.4344
196.9286, 234.5818
197.4107, 235.2478
197.8928, 237.7773
198.3749, 238.4301
198.8570, 235.6438
199.3392, 232.3691
199.8213, 230.5982
200.3034, 230.4418
200.7855, 230.6835
201.2676, 230.2511
201.7497, 229.0869
202.2319, 227.9675
202.7140, 226.8352
203.1961, 225.8066
203.6782, 224.8189
204.1603, 223.8367
204.6424, 223.4272
205.1246, 224.5376
205.6067, 226.8190
206.0888, 228.6267
206.5709, 229.6128
207.0530, 229.9614
207.5351, 229.9200
208.0173, 229.5171
208.4994, 228.6641
208.9815, 226.8353
209.4636, 224.4789
209.9457, 222.5557
210.4278, 221.5194
210.9100, 221.1373
211.3921, 220.9936
211.8742, 221.3010
212.3563, 221.3716
212.8384, 220.6767
213.3205, 219.4957
213.8027, 218.2890
214.2848, 217.0980
214.7669, 216.0672
215.2490, 215.8477
215.7311, 217.0704
216.2132, 218.1409
216.6954, 217.9573
217.1775, 217.2122
217.6596, 217.1551
218.1417, 218.7706
218.6238, 221.6958
219.1059, 223.7253
219.5881, 224.0363
220.0702, 224.3963
220.5523, 225.4754
221.0344, 226.9439
221.5165, 228.2418
221.9986, 228.9738
222.4808, 229.2058
222.9629, 229.5571
223.4450, 230.2836
223.9271, 230.8562
224.4092, 230.9063
224.8913, 230.7523
225.3735, 230.9739
225.8556, 232.0124
226.3377, 233.7547
226.8198, 234.9708
227.3019, 234.9395
227.7840, 235.1120
228.2662, 236.0738
228.7483, 237.4359
229.2304, 238.5108
229.7125, 238.8644
230.1946, 238.5332
230.6767, 237.8902
231.1589, 236.5993
231.6410, 235.3904
232.1231, 234.1787
232.6052, 233.1845
233.0873, 232.8698
233.5694, 233.5891
234.0516, 235.1562
234.5337, 236.2117
235.0158, 236.8957
235.4979, 237.0564
235.9800, 236.4288
236.4621, 235.2388
236.9443, 233.8640
237.4264, 232.4180
237.9085, 231.0498
238.3906, 230.4631
238.8727, 231.4616
239.3548, 232.1845
239.8370, 232.0321
240.3191, 231.1348
240.8012, 229.7201
241.2833, 227.7628
241.7654, 225.5022
242.2475, 223.5961
242.7297, 221.8991
243.2118, 220.6878
243.6939, 220.4610
244.1760, 220.8912
244.6581, 220.9631
245.1402, 220.1678
245.6224, 218.8826
246.1045, 217.9761
246.5866, 217.7379
247.0687, 217.0855
247.5508, 214.8692
248.0329, 211.6478
248.5151, 209.4771
248.9972, 209.3404
249.4793, 210.2418
249.9614, 210.6205
250.4435, 210.3892
250.9256, 210.2456
251.4078, 210.9116
251.8899, 212.0990
252.3720, 212.4475
252.8541, 211.1437
253.3362, 209.4586
253.8183, 208.9753
254.3005, 209.6817
254.7826, 210.1068
255.2647, 208.8403
255.7468, 206.3307
256.2289, 204.9676
256.7110, 205.7625
257.1931, 207.0458
257.6753, 207.4047
258.1574, 206.9510
258.6395, 206.3957
259.1216, 206.1045
259.6037, 206.0658
260.0858, 206.2518
260.5680, 206.8538
261.0501, 207.4239
261.5322, 207.6078
262.0143, 207.5214
262.4964, 207.5169
262.9785, 207.7223
263.4607, 208.1642
263.9428, 209.1204
264.4249, 211.2350
264.9070, 212.9009
265.3891, 213.2843
265.8712, 212.7295
266.3534, 211.8933
266.8355, 210.9869
267.3176, 210.1236
267.7997, 209.7696
268.2818, 209.9044
268.7639, 210.6777
269.2461, 212.8061
269.7282, 215.3667
270.2103, 216.9273
270.6924, 216.5461
271.1745, 214.8691
271.6566, 214.1326
272.1388, 215.3636
272.6209, 215.7644
273.1030, 213.8384
273.5851, 211.0890
274.0672, 209.3681
274.5493, 209.5791
275.0315, 210.8553
275.5136, 211.0197
275.9957, 209.4363
276.4778, 207.8868
276.9599, 206.7194
277.4420, 205.7191
277.9242, 204.5595
278.4063, 203.1281
278.8884, 201.8477
279.3705, 201.6548
279.8526, 203.4203
280.3347, 204.4081
280.8169, 203.6602
281.2990, 202.6109
281.7811, 202.3971
282.2632, 203.2601
282.7453, 204.5283
283.2274, 205.2854
283.7096, 205.5520
284.1917, 205.1913
284.6738, 203.2046
285.1559, 201.4350
285.6380, 201.2884
286.1201, 202.7260
286.6023, 204.4250
287.0844, 204.7015
287.5665, 202.8727
288.0486, 202.3669
288.5307, 204.7127
289.0128, 206.9043
289.4950, 207.3011
289.9771, 206.1730
290.4592, 204.9612
290.9413, 205.0569
291.4234, 206.6138
291.9055, 207.4225
292.3877, 206.8738
292.8698, 206.2011
293.3519, 205.6183
293.8340, 205.2212
294.3161, 205.1514
294.7982, 205.5634
295.2804, 206.3914
295.7625, 206.7544
296.2446, 206.0037
296.7267, 205.4686
297.2088, 205.5903
297.6909, 206.0484
298.1731, 206.3479
298.6552, 206.2124
299.1373, 205.7554
299.6194, 205.4020
300.1015, 205.0530
300.5836, 204.9612
301.0658, 205.3819
301.5479, 205.9704
302.0300, 206.3928
302.5121, 206.5122
302.9942, 206.3705
303.4763, 206.0325
303.9585, 205.2476
304.4406, 204.6473
304.9227, 203.9386
305.4048, 203.5783
305.8869, 204.1643
306.3690, 205.7307
306.8512, 207.5564
307.3333, 208.6329
307.8154, 208.6633
308.2975, 208.6687
308.7796, 208.7337
309.2617, 208.7135
309.7439, 208.4338
310.2260, 207.9437
310.7081, 207.4990
311.1902, 207.3815
311.6723, 207.6669
312.1544, 207.7113
312.6366, 207.4041
313.1187, 207.0057
313.6008, 206.3487
314.0829, 205.6637
314.5650, 205.5828
315.0471, 206.7145
315.5293, 208.8588
316.0114, 209.3319
316.4935, 206.7944
316.9756, 204.0748
317.4577, 201.3418
317.9398, 198.8755
318.4220, 197.1076
318.9041, 196.2813
319.3862, 196.0721
319.8683, 195.4279
320.3504, 193.4168
320.8326, 192.1764
321.3147, 192.3235
321.7968, 193.0238
322.2789, 193.5051
322.7610, 193.5028
323.2431, 193.2123
323.7253, 192.9437
324.2074, 192.6061
324.6895, 192.4914
325.1716, 192.7950
325.6537, 193.1444
326.1358, 193.2519
326.6180, 193.1076
327.1001, 192.9433
327.5822, 193.0515
328.0643, 193.5675
328.5464, 193.6387
329.0285, 192.9348
329.5107, 192.1676
329.9928, 191.4161
330.4749, 190.8327
330.9570, 190.7309
331.4391, 191.4055
331.9212, 192.7848
332.4034, 193.8003
332.8855, 194.3086
333.3676, 194.5885
333.8497, 194.5092
334.3318, 194.2745
334.8139, 194.1605
335.2961, 194.3077
335.7782, 194.6270
336.2603, 194.8509
336.7424, 194.8741
337.2245, 194.9601
337.7066, 195.2312
338.1888, 195.5111
338.6709, 195.5237
339.1530, 195.2395
339.6351, 195.0288
340.1172, 195.6531
340.5993, 198.0434
341.0815, 198.8272
341.5636, 196.4663
342.0457, 193.9993
342.5278, 193.2032
343.0099, 194.0032
343.4920, 195.1756
343.9742, 195.5939
344.4563, 195.2122
344.9384, 194.9323
345.4205, 195.0386
345.9026, 194.9641
346.3847, 194.0529
346.8669, 192.9044
347.3490, 192.6923
347.8311, 194.2699
348.3132, 197.0450
348.7953, 198.5825
349.2774, 198.0830
349.7596, 197.5310
350.2417, 197.3396
350.7238, 197.2672
351.2059, 197.0181
351.6880, 196.4951
352.1701, 195.9421
352.6523, 195.7467
353.1344, 195.9366
353.6165, 196.4148
354.0986, 197.6643
354.5807, 198.8138
355.0628, 199.2971
355.5450, 199.1120
356.0271, 198.6846
356.5092, 198.3902
356.9913, 198.2356
357.4734, 198.0818
357.9555, 198.1278
358.4377, 197.9304
358.9198, 197.2587
359.4019, 196.2272
359.8840, 195.0276
360.3661, 193.6290
360.8482, 192.2447
361.3304, 191.5721
361.8125, 191.9045
362.2946, 192.3244
362.7767, 193.0007
363.2588, 193.3843
363.7409, 192.6097
364.2231, 190.2500
364.7052, 187.7088
365.1873, 187.0984
365.6694, 188.6983
366.1515, 189.5785
366.6336, 188.2544
367.1158, 186.6476
367.5979, 186.1017
368.0800, 186.6603
368.5621, 187.7083
369.0442, 189.1660
369.5263, 190.8411
370.0085, 191.6926
370.4906, 191.2555
370.9727, 190.6799
371.4548, 190.7364
371.9369, 191.2437
372.4190, 191.8352
372.9012, 192.5082
373.3833, 193.1019
373.8654, 193.3411
374.3475, 193.1962
374.8296, 192.9308
375.3117, 192.5085
375.7939, 192.1256
376.2760, 192.0635
376.7581, 192.3913
377.2402, 192.9321
377.7223, 193.6311
378.2044, 194.4562
378.6866, 195.2737
379.1687, 196.0667
379.6508, 196.8114
380.1329, 197.5226
380.6150, 198.2059
381.0971, 198.6960
381.5793, 198.9312
382.0614, 198.9464
382.5435, 198.5928
383.0256, 197.8180
383.5077, 197.4265
383.9898, 198.3745
384.4720, 200.3833
384.9541, 201.3956
385.4362, 200.6944
385.9183, 199.5755
386.4004, 198.6508
386.8825, 197.9323
387.3647, 197.4751
387.8468, 197.4071
388.3289, 197.4561
388.8110, 196.8846
389.2931, 195.5827
389.7752, 194.0574
390.2574, 191.8796
390.7395, 189.7641
391.2216, 188.7633
391.7037, 189.0719
392.1858, 189.7473
392.6679, 189.7016
393.1501, 188.7513
393.6322, 187.9394
394.1143, 187.4747
394.5964, 186.9437
395.0785, 186.0719
395.5606, 184.9293
396.0428, 183.6978
396.5249, 182.4288
397.0070, 181.2515
397.4891, 180.8489
397.9712, 182.4897
398.4533, 183.3790
398.9355, 183.0067
399.4176, 181.8324
399.8997, 180.0467
400.3818, 177.8113
400.8639, 175.7762
401.3460, 174.9928
401.8282, 175.9630
402.3103, 176.8248
402.7924, 177.7972
403.2745, 178.4900
403.7566, 178.6225
404.2387, 178.2849
404.7209, 177.7496
405.2030, 177.1791
405.6851, 176.6026
406.1672, 176.2740
406.6493, 176.2447
407.1314, 176.4232
407.6136, 176.7703
408.0957, 177.2953
408.5778, 178.1569
409.0599, 179.4184
409.5420, 180.5788
410.0241, 180.7877
410.5063, 179.8405
410.9884, 179.0344
411.4705, 178.4268
411.9526, 178.1413
412.4347, 178.3822
412.9168, 179.0632
413.3990, 179.8042
413.8811, 180.3848
414.3632, 180.8196
414.8453, 181.1762
415.3274, 181.4905
415.8095, 181.6351
416.2917, 181.3969
416.7738, 180.9911
417.2559, 180.6600
417.7380, 180.3861
418.2201, 180.3629
418.7022, 181.0575
419.1844, 182.3507
419.6665, 183.0070
420.1486, 182.3208
420.6307, 181.2980
421.1128, 181.3120
421.5949, 182.3475
422.0771, 183.2244
422.5592, 183.3767
423.0413, 183.1881
423.5234, 183.1079
424.0055, 183.1809
424.4876, 183.5218
424.9698, 184.4309
425.4519, 185.7035
425.9340, 186.1461
426.4161, 184.7757
426.8982, 183.6399
427.3803, 184.0496
427.8625, 185.3272
428.3446, 186.0726
428.8267, 185.7623
429.3088, 184.7223
429.7909, 183.4163
430.2730, 181.3690
430.7552, 180.2409
431.2373, 180.7175
431.7194, 181.6160
432.2015, 182.1733
432.6836, 182.3225
433.1657, 182.2768
433.6479, 182.1535
434.1300, 181.9882
434.6121, 182.2725
435.0942, 183.4499
435.5763, 184.5807
436.0584, 185.7279
436.5406, 186.6619
437.0227, 186.9302
437.5048, 186.4286
437.9869, 185.8472
438.4690, 186.4389
438.9511, 188.8248
439.4333, 190.3577
439.9154, 190.0084
440.3975, 189.6849
440.8796, 190.3564
441.3617, 191.7915
441.8438, 193.1558
442.3260, 193.7790
442.8081, 194.0124
443.2902, 195.1762
443.7723, 197.8634
444.2544, 199.9973
444.7365, 200.0044
445.2187, 199.5932
445.7008, 200.4619
446.1829, 203.0034
446.6650, 205.7722
447.1471, 207.3822
447.6292, 208.0578
448.1114, 209.0303
448.5935, 210.4175
449.0756, 212.2444
449.5577, 214.9083
450.0398, 218.0810
450.5219, 220.7714
451.0041, 222.7669
451.4862, 224.1218
451.9683, 224.9476
452.4504, 225.2121
452.9325, 224.5949
453.4146, 222.7807
453.8968, 220.2099
454.3789, 217.7421
454.8610, 215.2916
455.3431, 213.1784
455.8252, 212.2668
456.3073, 211.3020
456.7895, 208.4106
457.2716, 203.5625
457.7537, 198.8887
458.2358, 196.2417
458.7179, 195.6215
459.2000, 195.1853
459.6822, 195.5466
460.1643, 195.3612
460.6464, 193.6476
461.1285, 191.3575
461.6106, 189.8373
462.0927, 189.5851
462.5748, 190.0993
463.0569, 190.6507
463.5391, 191.4873
464.0212, 191.6543
464.5033, 190.5326
464.9854, 189.3635
465.4675, 188.5596
465.9496, 188.1907
466.4318, 188.2948
466.9139, 188.9860
467.3960, 190.0567
467.8781, 190.8215
468.3602, 191.1185
468.8423, 191.5417
469.3245, 192.5841
469.8066, 193.6250
470.2887, 194.1045
470.7708, 193.9513
471.2529, 193.6574
471.7350, 193.6165
472.2172, 193.7484
472.6993, 193.8524
473.1814, 194.0675
473.6635, 193.8006
474.1456, 192.6559
474.6277, 190.6936
475.1099, 187.8544
475.5920, 183.1024
476.0741, 178.8120
476.5562, 176.8932
477.0383, 176.7973
477.5204, 177.0512
478.0026, 177.3188
478.4847, 177.2368
478.9668, 176.1174
479.4489, 173.6133
479.9310, 171.7937
480.4131, 171.3118
480.8953, 171.0945
481.3774, 170.2722
481.8595, 169.0512
482.3416, 168.2883
482.8237, 168.5340
483.3058, 169.4512
483.7880, 169.8840
484.2701, 169.5558
484.7522, 169.0981
485.2343, 168.5204
485.7164, 167.8365
486.1985, 166.9584
486.6807, 165.9412
487.1628, 165.0112
487.6449, 164.2908
488.1270, 163.8091
488.6091, 164.0406
489.0912, 165.7154
489.5734, 166.9326
490.0555, 166.8861
490.5376, 166.2532
491.0197, 165.7755
491.5018, 165.6602
491.9839, 165.6385
492.4661, 165.4153
492.9482, 165.0194
493.4303, 164.7312
493.9124, 164.6328
494.3945, 164.5623
494.8766, 164.3638
495.3588, 164.0872
495.8409, 163.8648
496.3230, 163.5770
496.8051, 163.4951
497.2872, 163.9869
497.7693, 164.9068
498.2515, 165.7362
498.7336, 166.2942
499.2157, 166.6408
499.6978, 166.8610
500.1799, 166.9467
500.6620, 166.9309
501.1442, 166.6374
501.6263, 166.3918
502.1084, 166.5147
502.5905, 166.9037
503.0726, 167.1505
503.5547, 166.9751
504.0369, 166.5816
504.5190, 166.7386
505.0011, 168.5418
505.4832, 169.1083
505.9653, 166.7660
506.4474, 164.3954
506.9296, 164.6684
507.4117, 167.2829
507.8938, 169.4736
508.3759, 168.5502
508.8580, 165.2579
509.3401, 164.1939
509.8223, 166.4114
510.3044, 168.5453
510.7865, 169.4776
511.2686, 169.6792
511.7507, 169.3665
512.2328, 168.5269
512.7150, 167.8772
513.1971, 168.2422
513.6792, 169.2127
514.1613, 169.5832
514.6434, 169.1630
515.1255, 168.3661
515.6077, 167.3777
516.0898, 166.2505
516.5719, 165.2305
517.0540, 164.4178
517.5361, 163.6074
518.0182, 162.5434
518.5004, 161.4630
518.9825, 160.9124
519.4646, 161.0243
519.9467, 161.1348
520.4288, 160.3432
520.9109, 158.3706
521.3931, 157.3985
521.8752, 158.4484
522.3573, 159.2042
522.8394, 158.5408
523.3215, 157.1573
523.8036, 156.1340
524.2858, 155.9088
524.7679, 156.1381
525.2500, 156.3129
525.7321, 156.4252
526.2142, 156.5025
526.6964, 156.1617
527.1785, 156.2202
527.6606, 157.6854
528.1427, 159.7838
528.6248, 160.6761
529.1069, 159.0018
529.5891, 156.7934
530.0712, 157.1841
530.5533, 159.9811
531.0354, 161.7214
531.5175, 160.9272
531.9996, 159.5574
532.4818, 160.4482
532.9639, 163.3792
533.4460, 165.0779
533.9281, 164.0463
534.4102, 162.2486
534.8923, 161.1770
535.3745, 160.6682
535.8566, 159.7641
536.3387, 157.9343
536.8208, 155.9516
537.3029, 155.5205
537.7850, 158.1620
538.2672, 159.1586
538.7493, 157.6059
539.2314, 155.3681
539.7135, 152.9206
540.1956, 150.6898
540.6777, 149.4154
541.1599, 149.6368
541.6420, 150.7254
542.1241, 150.9886
542.6062, 150.0240
543.0883, 149.5417
543.5704, 150.6594
544.0526, 151.6833
544.5347, 151.1961
545.0168, 149.5105
545.4989, 148.3535
545.9810, 149.3643
546.4631, 151.0224
546.9453, 150.5117
547.4274, 147.9086
547.9095, 146.1415
548.3916, 146.7044
548.8737, 148.3425
549.3558, 148.8073
549.8380, 147.9518
550.3201, 147.2754
550.8022, 147.3606
551.2843, 147.4937
551.7664, 147.0071
552.2485, 146.0136
552.7307, 144.9759
553.2128, 144.1104
553.6949, 143.5604
554.1770, 143.8387
554.6591, 146.2656
555.1412, 147.1028
555.6234, 144.6744
556.1055, 142.2392
556.5876, 141.9910
557.0697, 143.5226
557.5518, 145.0637
558.0339, 145.5336
558.5161, 145.3129
558.9982, 145.2295
559.4803, 145.2937
559.9624, 145.4489
560.4445, 145.7809
560.9266, 146.1013
561.4088, 146.2786
561.8909, 146.3071
562.3730, 146.1444
562.8551, 145.4988
563.3372, 144.8480
563.8193, 144.7290
564.3015, 145.0866
564.7836, 145.6402
565.2657, 146.3354
565.7478, 146.9463
566.2299, 146.9945
566.7120, 145.9961
567.1942, 145.6474
567.6763, 146.9324
568.1584, 147.9508
568.6405, 147.2155
569.1226, 145.3570
569.6047, 143.9516
570.0869, 143.8391
570.5690, 144.4675
571.0511, 144.6564
571.5332, 144.1892
572.0153, 144.1442
572.4974, 145.2928
572.9796, 146.2081
573.4617, 145.9544
573.9438, 144.8743
574.4259, 143.8775
574.9080, 143.2391
575.3901, 142.9755
575.8723, 143.2674
576.3544, 144.0130
576.8365, 144.7162
577.3186, 145.3354
577.8007, 145.5746
578.2828, 144.9278
578.7650, 143.3301
579.2471, 142.2087
579.7292, 141.9493
580.2113, 141.8077
580.6934, 141.5849
581.1755, 141.1973
581.6577, 140.3266
582.1398, 138.9277
582.6219, 137.7208
583.1040, 137.8529
583.5861, 139.6106
584.0682, 140.4216
584.5504, 139.4324
585.0325, 138.4970
585.5146, 138.1437
585.9967, 138.1770
586.4788, 138.3168
586.9609, 138.4816
587.4431, 138.8283
587.9252, 139.8801
588.4073, 141.2886
588.8894, 141.5378
589.3715, 140.2778
589.8536, 138.7887
590.3358, 137.7378
590.8179, 137.1535
591.3000, 137.0445
591.7821, 137.7849
592.2642, 138.3172
592.7463, 137.7833
593.2285, 137.1718
593.7106, 138.0638
594.1927, 140.2883
594.6748, 141.8524
595.1569, 141.0395
595.6390, 138.4149
596.1212, 137.0069
596.6033, 137.3937
597.0854, 138.0318
597.5675, 139.2878
598.0496, 140.2610
598.5317, 140.0222
599.0139, 138.7866
599.4960, 137.7610
599.9781, 137.9175
600.4602, 138.6059
600.9423, 138.5175
601.4244, 137.6425
601.9066, 136.8583
602.3887, 136.4641
602.8708, 136.2701
603.3529, 135.9863
603.8350, 135.5979
604.3171, 135.4775
604.7993, 136.0132
605.2814, 136.5103
605.7635, 136.2030
606.2456, 135.5658
606.7277, 135.7948
607.2098, 137.3191
607.6920, 139.2006
608.1741, 140.0493
608.6562, 139.7771
609.1383, 138.9276
609.6204, 136.4977
610.1025, 134.6605
610.5847, 134.1499
611.0668, 134.5977
611.5489, 135.7789
612.0310, 137.6917
612.5131, 139.1961
612.9952, 138.8278
613.4774, 137.2024
613.9595, 136.2975
614.4416, 136.3340
614.9237, 136.8250
615.4058, 137.7665
615.8879, 138.8270
616.3701, 138.8622
616.8522, 137.0072
617.3343, 135.9951
617.8164, 137.1469
618.2985, 138.8018
618.7806, 139.4305
619.2628, 139.1052
619.7449, 138.8363
620.2270, 139.3119
620.7091, 140.1145
621.1912, 139.9626
621.6733, 138.4299
622.1555, 137.2144
622.6376, 136.5803
623.1197, 136.2690
623.6018, 136.1296
624.0839, 136.2035
624.5660, 136.6733
625.0482, 137.8746
625.5303, 139.0704
626.0124, 139.2824
626.4945, 138.8399
626.9766, 139.0154
627.4587, 140.1864
627.9409, 141.2502
628.4230, 140.8925
628.9051, 139.1660
629.3872, 139.1867
629.8693, 142.3925
630.3514, 145.2328
630.8336, 146.9872
631.3157, 148.0169
631.7978, 148.6759
632.2799, 149.0430
632.7620, 148.9471
633.2441, 147.8530
633.7263, 146.4055
634.2084, 147.7028
634.6905, 152.7785
635.1726, 156.4420
635.6547, 156.2574
636.1368, 154.8081
636.6190, 154.6477
637.1011, 155.7162
637.5832, 156.9188
638.0653, 158.1161
638.5474, 159.1479
639.0295, 159.8316
639.5117, 160.2422
639.9938, 160.5000
640.4759, 160.6436
640.9580, 160.8982
641.4401, 161.5702
641.9222, 162.7020
