##NAMES=Akatoreite
##RRUFFID=R060230
##IDEAL CHEMISTRY=Mn^2+^_9_Al_2_Si_8_O_24_(OH)_8_
##LOCALITY=near mouth of Akatore Creek, Taieri, Otago Province, New Zealand
##OWNER=RRUFF
##SOURCE=Michael Scott
##DESCRIPTION=Orange-brown massive
##STATUS=The identification of this mineral is confirmed by single-crystal X-ray diffraction and chemical analysis.
##URL=rruff.info/R060230
##MEASURED CHEMISTRY=(Mn^2+^_8.66_Mg_0.12_Fe^2+^_0.09_Fe^3+^_0.09_Ca_0.04_)_Σ=9_(Al_1.87_Cr_0.13_)_Σ=2_(Si_7.91_Al_0.09_)_Σ=8_O_24_(OH)_8_ ; OH estimated by difference and stoichiometry ; Fe2 and Fe3 by charge balance
164.3956, 539.2345
164.8777, 541.8362
165.3598, 543.8502
165.8420, 546.1308
166.3241, 548.7610
166.8062, 551.9595
167.2883, 555.9325
167.7704, 561.0135
168.2525, 566.5647
168.7346, 572.5906
169.2168, 578.9606
169.6989, 584.8643
170.1810, 590.5124
170.6631, 595.2238
171.1452, 598.1799
171.6273, 598.5320
172.1095, 597.4720
172.5916, 595.4395
173.0737, 592.5394
173.5558, 589.9724
174.0379, 588.6396
174.5201, 588.2103
175.0022, 588.1415
175.4843, 588.9362
175.9664, 589.6057
176.4485, 588.8525
176.9306, 586.7019
177.4128, 584.0499
177.8949, 581.2089
178.3770, 578.4286
178.8591, 576.2053
179.3412, 574.9141
179.8233, 574.2341
180.3055, 573.5936
180.7876, 572.9645
181.2697, 572.6926
181.7518, 573.2542
182.2339, 574.4825
182.7160, 575.8605
183.1982, 576.5615
183.6803, 577.3234
184.1624, 579.9990
184.6445, 584.7274
185.1266, 590.3964
185.6087, 596.1475
186.0909, 601.9371
186.5730, 607.2006
187.0551, 612.0215
187.5372, 616.1815
188.0193, 619.0344
188.5014, 620.4959
188.9836, 620.9054
189.4657, 621.1939
189.9478, 621.2042
190.4299, 619.1459
190.9120, 612.8826
191.3941, 603.3927
191.8763, 595.8420
192.3584, 590.4567
192.8405, 586.6717
193.3226, 583.6017
193.8047, 581.2610
194.2868, 579.8760
194.7690, 579.9418
195.2511, 581.3343
195.7332, 582.1149
196.2153, 581.9814
196.6974, 581.8391
197.1795, 583.4249
197.6617, 586.8738
198.1438, 590.4131
198.6259, 593.7535
199.1080, 596.8956
199.5901, 597.7191
200.0722, 595.6829
200.5544, 592.0858
201.0365, 589.2259
201.5186, 587.1599
202.0007, 585.3132
202.4828, 583.4563
202.9649, 581.5846
203.4471, 579.6744
203.9292, 577.6682
204.4113, 575.6474
204.8934, 573.6284
205.3755, 571.4930
205.8576, 569.8710
206.3398, 569.2191
206.8219, 569.7087
207.3040, 570.0215
207.7861, 570.1740
208.2682, 570.1078
208.7503, 569.7426
209.2325, 569.1500
209.7146, 568.0734
210.1967, 566.1905
210.6788, 563.2087
211.1609, 560.9388
211.6430, 559.6767
212.1252, 558.9306
212.6073, 557.5208
213.0894, 555.1535
213.5715, 552.9171
214.0536, 551.3500
214.5357, 550.6346
215.0179, 549.8445
215.5000, 548.7532
215.9821, 547.7148
216.4642, 547.6730
216.9463, 549.1175
217.4284, 550.4974
217.9105, 551.0438
218.3927, 550.3431
218.8748, 550.1827
219.3569, 550.7580
219.8390, 551.7596
220.3211, 552.4368
220.8032, 552.4128
221.2854, 552.7767
221.7675, 554.0051
222.2496, 556.2419
222.7317, 558.9098
223.2138, 562.3305
223.6959, 566.0130
224.1781, 568.9987
224.6602, 571.2115
225.1423, 572.8154
225.6244, 573.7381
226.1065, 573.6895
226.5886, 573.8467
227.0708, 574.1915
227.5529, 574.7499
228.0350, 575.6013
228.5171, 576.8889
228.9992, 578.2474
229.4813, 579.5397
229.9635, 580.7239
230.4456, 581.9978
230.9277, 583.5279
231.4098, 585.0564
231.8919, 585.9739
232.3740, 585.5228
232.8562, 585.6945
233.3383, 587.4109
233.8204, 591.4189
234.3025, 594.5258
234.7846, 596.4278
235.2667, 597.6091
235.7489, 598.8697
236.2310, 600.1718
236.7131, 601.6282
237.1952, 603.4852
237.6773, 606.1410
238.1594, 607.5695
238.6416, 607.1181
239.1237, 605.8456
239.6058, 605.5187
240.0879, 606.8237
240.5700, 607.9645
241.0521, 608.3500
241.5343, 607.8067
242.0164, 607.3147
242.4985, 607.2736
242.9806, 606.9989
243.4627, 605.2650
243.9448, 600.6667
244.4270, 597.0178
244.9091, 595.8954
245.3912, 598.1804
245.8733, 597.9828
246.3554, 593.9545
246.8375, 588.4998
247.3197, 584.8111
247.8018, 583.6871
248.2839, 582.9065
248.7660, 582.0538
249.2481, 581.1815
249.7302, 579.7010
250.2124, 576.9183
250.6945, 574.1716
251.1766, 573.1073
251.6587, 574.6895
252.1408, 576.0866
252.6229, 576.5647
253.1051, 576.0443
253.5872, 576.0048
254.0693, 576.8087
254.5514, 577.6974
255.0335, 577.7872
255.5156, 576.5377
255.9978, 575.6953
256.4799, 575.8333
256.9620, 576.9325
257.4441, 577.0671
257.9262, 575.7928
258.4083, 574.1180
258.8904, 572.9807
259.3726, 572.6053
259.8547, 572.1483
260.3368, 571.2973
260.8189, 570.1426
261.3010, 569.9254
261.7831, 571.1374
262.2653, 572.5104
262.7474, 572.9100
263.2295, 571.8279
263.7116, 571.2610
264.1937, 571.4919
264.6758, 572.4553
265.1580, 573.8906
265.6401, 576.0318
266.1222, 578.2022
266.6043, 579.8646
267.0864, 580.8287
267.5685, 582.0138
268.0507, 583.4789
268.5328, 585.2502
269.0149, 587.5753
269.4970, 590.8065
269.9791, 593.8254
270.4612, 595.8697
270.9434, 596.6246
271.4255, 597.9127
271.9076, 600.0888
272.3897, 602.7135
272.8718, 604.6268
273.3539, 605.6660
273.8361, 606.4957
274.3182, 607.6730
274.8003, 609.3814
275.2824, 609.8972
275.7645, 609.0143
276.2466, 607.0597
276.7288, 604.4044
277.2109, 600.8489
277.6930, 597.5886
278.1751, 595.3749
278.6572, 594.2601
279.1393, 592.9173
279.6215, 591.3288
280.1036, 589.5693
280.5857, 587.7309
281.0678, 585.8252
281.5499, 583.8669
282.0320, 581.7346
282.5142, 579.4804
282.9963, 578.1019
283.4784, 577.8371
283.9605, 577.7287
284.4426, 576.0859
284.9247, 572.8542
285.4069, 570.8696
285.8890, 571.5637
286.3711, 574.3117
286.8532, 576.0475
287.3353, 576.6572
287.8174, 576.8746
288.2996, 577.4410
288.7817, 578.3248
289.2638, 579.1415
289.7459, 579.8026
290.2280, 580.3234
290.7101, 580.6461
291.1923, 580.7507
291.6744, 581.0399
292.1565, 581.9391
292.6386, 583.3541
293.1207, 584.8398
293.6028, 586.3732
294.0850, 587.8333
294.5671, 589.1247
295.0492, 590.2318
295.5313, 591.0019
296.0134, 591.1571
296.4955, 590.8625
296.9777, 590.5283
297.4598, 590.1156
297.9419, 589.9118
298.4240, 590.5803
298.9061, 591.9537
299.3882, 593.1666
299.8704, 593.4866
300.3525, 593.3304
300.8346, 593.5446
301.3167, 594.2824
301.7988, 595.1521
302.2809, 595.9106
302.7631, 596.4976
303.2452, 596.7394
303.7273, 596.0760
304.2094, 595.2040
304.6915, 595.1599
305.1736, 596.0449
305.6558, 597.1658
306.1379, 597.7283
306.6200, 598.0986
307.1021, 598.9636
307.5842, 601.1074
308.0663, 603.5555
308.5485, 605.4389
309.0306, 606.7403
309.5127, 607.7800
309.9948, 608.4893
310.4769, 609.1406
310.9590, 610.0768
311.4412, 611.4274
311.9233, 613.0848
312.4054, 615.3615
312.8875, 618.0706
313.3696, 620.1374
313.8517, 620.7010
314.3339, 620.4877
314.8160, 620.0612
315.2981, 619.2835
315.7802, 618.7787
316.2623, 619.3300
316.7444, 620.4733
317.2266, 620.9504
317.7087, 619.9233
318.1908, 618.2825
318.6729, 616.5189
319.1550, 614.6520
319.6371, 612.8203
320.1193, 611.3697
320.6014, 609.9412
321.0835, 607.9219
321.5656, 604.3305
322.0477, 600.7969
322.5298, 597.8154
323.0120, 595.3604
323.4941, 593.7995
323.9762, 594.2341
324.4583, 595.2062
324.9404, 595.1425
325.4225, 592.3538
325.9047, 589.9434
326.3868, 588.6663
326.8689, 588.5408
327.3510, 589.0343
327.8331, 591.4326
328.3152, 593.6744
328.7974, 594.3286
329.2795, 591.3288
329.7616, 589.1742
330.2437, 588.5049
330.7258, 589.0663
331.2079, 589.4504
331.6901, 589.3821
332.1722, 589.3993
332.6543, 589.7815
333.1364, 590.8002
333.6185, 591.6511
334.1006, 592.2190
334.5828, 592.6304
335.0649, 593.1550
335.5470, 593.7453
336.0291, 594.5305
336.5112, 595.6437
336.9933, 597.2357
337.4755, 598.4115
337.9576, 599.1027
338.4397, 599.4519
338.9218, 599.5295
339.4039, 599.1560
339.8860, 599.2057
340.3681, 600.1603
340.8503, 601.9095
341.3324, 602.7003
341.8145, 602.3226
342.2966, 601.6135
342.7787, 601.2175
343.2608, 601.1317
343.7430, 601.5836
344.2251, 602.8444
344.7072, 604.5125
345.1893, 605.3239
345.6714, 605.2376
346.1535, 604.8864
346.6357, 604.3969
347.1178, 603.9045
347.5999, 604.3401
348.0820, 605.9786
348.5641, 608.1645
349.0462, 609.9874
349.5284, 611.4681
350.0105, 612.8464
350.4926, 613.9026
350.9747, 614.9891
351.4568, 617.3127
351.9389, 621.0814
352.4211, 624.4741
352.9032, 625.1218
353.3853, 623.8837
353.8674, 622.8297
354.3495, 622.7426
354.8316, 623.2817
355.3138, 624.1241
355.7959, 625.2673
356.2780, 626.6448
356.7601, 628.7600
357.2422, 630.9234
357.7243, 632.1805
358.2065, 631.7373
358.6886, 631.1349
359.1707, 631.7958
359.6528, 633.2309
360.1349, 633.9664
360.6170, 632.1263
361.0992, 630.0609
361.5813, 629.7020
362.0634, 631.9677
362.5455, 633.8007
363.0276, 634.3595
363.5097, 633.6325
363.9919, 631.6045
364.4740, 626.6309
364.9561, 621.8267
365.4382, 618.4543
365.9203, 616.6656
366.4024, 615.0981
366.8846, 613.5621
367.3667, 612.0821
367.8488, 610.6790
368.3309, 608.9910
368.8130, 607.7988
369.2951, 607.3382
369.7773, 607.5334
370.2594, 607.7985
370.7415, 608.0551
371.2236, 608.4696
371.7057, 609.1427
372.1878, 610.2825
372.6700, 611.2932
373.1521, 612.0854
373.6342, 612.7819
374.1163, 613.6329
374.5984, 614.7433
375.0805, 615.7715
375.5627, 616.5099
376.0448, 616.8945
376.5269, 617.7859
377.0090, 619.2637
377.4911, 621.1058
377.9732, 623.2256
378.4554, 625.6951
378.9375, 627.8490
379.4196, 629.4880
379.9017, 630.7433
380.3838, 632.0575
380.8659, 633.3879
381.3481, 635.0453
381.8302, 637.5023
382.3123, 640.6124
382.7944, 643.2040
383.2765, 645.0873
383.7586, 646.6628
384.2408, 648.3329
384.7229, 650.1570
385.2050, 652.5831
385.6871, 656.9083
386.1692, 661.6902
386.6513, 664.0161
387.1335, 663.7213
387.6156, 662.6597
388.0977, 662.2294
388.5798, 662.2447
389.0619, 662.3749
389.5440, 662.6015
390.0262, 662.7869
390.5083, 662.8942
390.9904, 662.8802
391.4725, 662.5583
391.9546, 661.5055
392.4367, 660.2641
392.9189, 659.4286
393.4010, 659.4926
393.8831, 658.9839
394.3652, 656.6090
394.8473, 653.2916
395.3294, 650.5334
395.8116, 649.7394
396.2937, 648.8445
396.7758, 646.7209
397.2579, 643.1238
397.7400, 640.2004
398.2221, 638.8895
398.7043, 638.1815
399.1864, 637.2632
399.6685, 635.9032
400.1506, 634.5073
400.6327, 633.2156
401.1148, 631.9487
401.5970, 630.2842
402.0791, 627.7477
402.5612, 625.3848
403.0433, 623.6810
403.5254, 622.8480
404.0075, 622.0206
404.4897, 620.7908
404.9718, 619.9392
405.4539, 621.0516
405.9360, 625.0847
406.4181, 628.1064
406.9002, 628.8678
407.3824, 627.5766
407.8645, 625.9966
408.3466, 623.9364
408.8287, 622.3005
409.3108, 622.1035
409.7929, 623.2750
410.2751, 624.3116
410.7572, 624.9254
411.2393, 625.3818
411.7214, 625.9857
412.2035, 626.7704
412.6856, 628.1131
413.1678, 630.6384
413.6499, 633.8106
414.1320, 636.7149
414.6141, 639.3920
415.0962, 641.1943
415.5783, 640.6352
416.0605, 638.8926
416.5426, 638.1940
417.0247, 640.0779
417.5068, 642.6750
417.9889, 644.3113
418.4710, 645.1950
418.9532, 646.3260
419.4353, 648.4988
419.9174, 650.9752
420.3995, 653.1201
420.8816, 654.7266
421.3637, 656.2731
421.8459, 657.8283
422.3280, 659.4410
422.8101, 661.2151
423.2922, 663.5308
423.7743, 665.6343
424.2564, 667.4329
424.7386, 668.9476
425.2207, 669.5781
425.7028, 668.7027
426.1849, 667.2993
426.6670, 665.9897
427.1491, 664.7567
427.6313, 663.7045
428.1134, 663.0671
428.5955, 662.5958
429.0776, 661.5497
429.5597, 659.6287
430.0418, 657.7109
430.5240, 655.9431
431.0061, 654.2619
431.4882, 653.9738
431.9703, 655.7386
432.4524, 657.4379
432.9345, 655.9681
433.4167, 651.2076
433.8988, 648.0242
434.3809, 647.9960
434.8630, 649.9120
435.3451, 650.9147
435.8272, 651.0289
436.3094, 651.0378
436.7915, 651.3387
437.2736, 651.9374
437.7557, 652.7386
438.2378, 653.6771
438.7199, 655.1904
439.2020, 658.1595
439.6841, 662.0155
440.1663, 665.5905
440.6484, 667.9095
441.1305, 670.1215
441.6126, 673.2051
442.0947, 677.0594
442.5768, 681.0066
443.0590, 684.5937
443.5411, 688.1818
444.0232, 692.0480
444.5053, 696.2725
444.9874, 700.7166
445.4695, 705.1113
445.9517, 709.6878
446.4338, 714.8710
446.9159, 720.5605
447.3980, 727.0632
447.8801, 734.7079
448.3622, 743.6256
448.8444, 752.0927
449.3265, 759.7280
449.8086, 767.2820
450.2907, 775.2232
450.7728, 783.6852
451.2549, 792.5178
451.7371, 802.1701
452.2192, 811.8422
452.7013, 819.7316
453.1834, 825.6766
453.6655, 830.2383
454.1476, 833.7197
454.6298, 836.0421
455.1119, 836.5635
455.5940, 835.3942
456.0761, 831.7894
456.5582, 824.5226
457.0403, 813.9901
457.5225, 802.0805
458.0046, 788.8693
458.4867, 775.4726
458.9688, 763.5897
459.4509, 753.0889
459.9330, 743.9427
460.4152, 736.7832
460.8973, 730.4906
461.3794, 723.4222
461.8615, 715.3592
462.3436, 708.4691
462.8257, 704.5819
463.3079, 702.4080
463.7900, 700.4786
464.2721, 698.1111
464.7542, 696.1979
465.2363, 695.2167
465.7184, 694.9781
466.2006, 694.9412
466.6827, 695.0468
467.1648, 695.2682
467.6469, 695.5341
468.1290, 695.7371
468.6111, 696.4211
469.0933, 697.6954
469.5754, 699.3912
470.0575, 701.4147
470.5396, 703.9568
471.0217, 706.4729
471.5038, 709.0966
471.9860, 711.6231
472.4681, 713.3530
472.9502, 714.1759
473.4323, 714.5743
473.9144, 714.9466
474.3965, 715.2593
474.8787, 714.3300
475.3608, 712.0652
475.8429, 709.0043
476.3250, 705.6503
476.8071, 702.0070
477.2892, 698.0340
477.7714, 693.5762
478.2535, 689.0667
478.7356, 685.2532
479.2177, 681.9890
479.6998, 678.7354
480.1819, 674.8337
480.6641, 670.9296
481.1462, 667.6942
481.6283, 665.1716
482.1104, 663.2455
482.5925, 662.2039
483.0746, 661.5856
483.5568, 660.9132
484.0389, 660.4239
484.5210, 659.4781
485.0031, 657.5963
485.4852, 655.0869
485.9673, 652.8479
486.4495, 650.5491
486.9316, 649.0059
487.4137, 648.6988
487.8958, 649.9886
488.3779, 650.6518
488.8600, 650.5004
489.3422, 649.9006
489.8243, 649.0881
490.3064, 647.9297
490.7885, 646.9991
491.2706, 646.3281
491.7527, 645.9538
492.2349, 646.2092
492.7170, 647.1890
493.1991, 647.6917
493.6812, 646.5774
494.1633, 644.4371
494.6454, 643.9141
495.1276, 645.0906
495.6097, 646.4885
496.0918, 646.8334
496.5739, 646.3934
497.0560, 645.6428
497.5381, 644.5053
498.0203, 643.4836
498.5024, 642.9843
498.9845, 642.9371
499.4666, 643.1727
499.9487, 643.7892
500.4308, 644.5255
500.9130, 645.2980
501.3951, 646.0953
501.8772, 646.7465
502.3593, 647.1854
502.8414, 647.4621
503.3235, 647.6011
503.8057, 647.2991
504.2878, 647.3102
504.7699, 647.8274
505.2520, 648.5977
505.7341, 649.2171
506.2162, 649.7011
506.6984, 649.9469
507.1805, 649.7151
507.6626, 649.1238
508.1447, 649.5538
508.6268, 651.2997
509.1089, 652.9434
509.5911, 653.1725
510.0732, 652.1642
510.5553, 652.0804
511.0374, 653.2560
511.5195, 654.7294
512.0016, 655.2327
512.4838, 655.0034
512.9659, 654.7917
513.4480, 654.6379
513.9301, 654.8591
514.4122, 656.2486
514.8943, 658.4850
515.3765, 660.1953
515.8586, 660.6124
516.3407, 660.1954
516.8228, 659.0206
517.3049, 656.8662
517.7870, 655.2530
518.2692, 655.7806
518.7513, 656.6008
519.2334, 655.9363
519.7155, 651.7283
520.1976, 648.1656
520.6797, 645.6757
521.1619, 644.1240
521.6440, 643.2125
522.1261, 643.1393
522.6082, 643.3840
523.0903, 643.8290
523.5724, 644.4826
524.0546, 645.0549
524.5367, 645.4608
525.0188, 646.0615
525.5009, 647.3707
525.9830, 649.3115
526.4651, 650.8123
526.9473, 651.6141
527.4294, 652.2599
527.9115, 653.3203
528.3936, 654.8273
528.8757, 656.9354
529.3578, 660.4648
529.8400, 664.1070
530.3221, 666.2076
530.8042, 666.9781
531.2863, 667.9561
531.7684, 670.1968
532.2505, 672.8225
532.7327, 675.1885
533.2148, 677.1708
533.6969, 678.9504
534.1790, 680.5559
534.6611, 681.9825
535.1432, 683.1989
535.6254, 684.5738
536.1075, 685.3025
536.5896, 685.2460
537.0717, 684.5027
537.5538, 683.4139
538.0359, 682.0511
538.5181, 680.1815
539.0002, 677.6522
539.4823, 674.4811
539.9644, 670.8524
540.4465, 666.6761
540.9286, 662.4979
541.4108, 658.7321
541.8929, 655.3547
542.3750, 652.4943
542.8571, 650.2670
543.3392, 648.2614
543.8214, 645.7769
544.3035, 643.1111
544.7856, 640.9084
545.2677, 640.3432
545.7498, 639.6380
546.2319, 636.9943
546.7141, 632.7993
547.1962, 629.4107
547.6783, 628.1171
548.1604, 627.6583
548.6425, 627.3350
549.1246, 627.0411
549.6068, 627.0031
550.0889, 627.7781
550.5710, 628.4891
551.0531, 628.2565
551.5352, 626.4670
552.0173, 625.0253
552.4995, 624.1324
552.9816, 623.7353
553.4637, 623.7726
553.9458, 624.2802
554.4279, 625.0189
554.9100, 626.2763
555.3922, 627.6762
555.8743, 627.4651
556.3564, 625.6468
556.8385, 623.5242
557.3206, 621.7943
557.8027, 620.5638
558.2849, 620.0804
558.7670, 620.4806
559.2491, 621.1467
559.7312, 621.8522
560.2133, 622.4578
560.6954, 622.7686
561.1776, 622.3573
561.6597, 622.0082
562.1418, 622.2111
562.6239, 622.7314
563.1060, 622.7220
563.5881, 621.2228
564.0703, 620.0289
564.5524, 619.8253
565.0345, 620.7258
565.5166, 621.1107
565.9987, 620.7526
566.4808, 620.2704
566.9630, 620.2723
567.4451, 620.8381
567.9272, 620.7128
568.4093, 619.6341
568.8914, 618.2921
569.3735, 617.5869
569.8557, 617.4648
570.3378, 617.6335
570.8199, 618.0348
571.3020, 618.6363
571.7841, 619.6842
572.2662, 620.9696
572.7484, 621.7205
573.2305, 621.0042
573.7126, 616.6990
574.1947, 618.8817
574.6768, 620.1074
575.1589, 620.4274
575.6411, 617.1295
576.1232, 618.5034
576.6053, 618.0050
577.0874, 617.4299
577.5695, 619.4614
578.0516, 616.6896
578.5338, 618.6797
579.0159, 618.7690
579.4980, 619.7283
579.9801, 619.3237
580.4622, 619.3785
580.9443, 619.9107
581.4265, 620.1891
581.9086, 620.2167
582.3907, 620.1597
582.8728, 620.1465
583.3549, 620.1110
583.8370, 619.8698
584.3192, 619.4264
584.8013, 618.9725
585.2834, 618.6414
585.7655, 618.3792
586.2476, 618.0873
586.7297, 617.6572
587.2118, 617.4484
587.6939, 617.8041
588.1760, 618.3931
588.6581, 618.7931
589.1403, 618.7161
589.6224, 618.6991
590.1045, 619.1022
590.5866, 619.6193
591.0687, 619.0535
591.5508, 616.6843
592.0330, 614.8925
592.5151, 614.8409
592.9972, 616.3301
593.4793, 616.9606
593.9614, 616.6570
594.4435, 616.0977
594.9257, 615.6000
595.4078, 615.2858
595.8899, 615.6921
596.3720, 617.0007
596.8541, 618.2103
597.3362, 618.1645
597.8184, 617.4694
598.3005, 617.0411
598.7826, 617.3484
599.2647, 617.7704
599.7468, 618.0070
600.2289, 618.1493
600.7111, 618.3997
601.1932, 619.0124
601.6753, 619.4971
602.1574, 619.5941
602.6395, 619.3422
603.1216, 619.4296
603.6038, 619.9612
604.0859, 620.6129
604.5680, 621.3984
605.0501, 622.3749
605.5322, 622.2563
606.0143, 620.8349
606.4965, 619.2225
606.9786, 618.4766
607.4607, 618.4838
607.9428, 618.9736
608.4249, 620.0565
608.9070, 621.1457
609.3892, 621.7023
609.8713, 621.8421
610.3534, 621.7854
610.8355, 621.5837
611.3176, 621.2553
611.7997, 620.6509
612.2819, 619.8952
612.7640, 619.4249
613.2461, 619.4147
613.7282, 619.6351
614.2103, 620.1940
614.6924, 621.1337
615.1746, 621.1872
615.6567, 619.8221
616.1388, 618.5670
616.6209, 618.6190
617.1030, 620.0277
617.5851, 621.1616
618.0673, 621.9818
618.5494, 622.3770
619.0315, 621.6969
619.5136, 620.4520
619.9957, 620.2634
620.4778, 622.0609
620.9600, 623.9648
621.4421, 623.8245
621.9242, 622.5068
622.4063, 621.7809
622.8884, 623.0932
623.3705, 624.3702
623.8527, 624.5659
624.3348, 623.8497
624.8169, 623.6061
625.2990, 624.3544
625.7811, 625.1764
626.2632, 625.7313
626.7454, 625.9921
627.2275, 626.3618
627.7096, 626.8597
628.1917, 627.4226
628.6738, 628.0574
629.1559, 628.7545
629.6381, 629.3282
630.1202, 629.7751
630.6023, 630.1029
631.0844, 630.2178
631.5665, 630.2427
632.0486, 630.4147
632.5308, 630.7582
633.0129, 631.3549
633.4950, 632.3757
633.9771, 633.6718
634.4592, 634.9750
634.9413, 636.0819
635.4235, 637.2936
635.9056, 638.7576
636.3877, 640.4274
636.8698, 642.0165
637.3519, 643.4230
637.8340, 644.8615
638.3162, 646.3539
638.7983, 647.9117
639.2804, 649.7078
639.7625, 651.7386
640.2446, 654.0518
640.7267, 656.8154
641.2089, 659.8989
641.6910, 662.6664
642.1731, 664.9853
642.6552, 667.5729
643.1373, 671.2134
643.6194, 675.4530
644.1016, 679.6661
644.5837, 683.4896
645.0658, 687.5720
645.5479, 692.2478
646.0300, 697.3099
646.5121, 702.2891
646.9943, 706.7111
647.4764, 711.6290
647.9585, 717.3621
648.4406, 723.6885
648.9227, 730.0787
649.4048, 736.5777
649.8870, 742.8474
650.3691, 748.6260
650.8512, 754.1215
651.3333, 760.5594
651.8154, 767.9004
652.2975, 775.6107
652.7797, 783.9706
653.2618, 792.2355
653.7439, 799.5311
654.2260, 805.7474
654.7081, 811.2194
655.1902, 816.0786
655.6724, 820.2354
656.1545, 823.6947
