##NAMES=Akermanite
##RRUFFID=R061100
##IDEAL CHEMISTRY=Ca_2_MgSi_2_O_7_
##LOCALITY=Lago de Vico, Viterbo, Italy
##OWNER=Michael Scott
##SOURCE=Michael Scott
##DESCRIPTION=Colorless to white short prismatic crystals
##STATUS=The identification of this mineral has been confirmed by X-ray diffraction and chemical analysis
##URL=rruff.info/R061100
##MEASURED CHEMISTRY=(Ca_1.80_Na_0.20_)_Σ=2_(Mg_0.58_Al_0.38_Fe_0.04_)_Σ=1_(Si_1.82_Al_0.18_)_Σ=2_O_7_
122.5290, 4577.153
123.0111, 4809.321
123.4933, 5016.833
123.9754, 5179.500
124.4575, 5317.582
124.9396, 5454.397
125.4217, 5589.103
125.9038, 5715.149
126.3860, 5785.567
126.8681, 5764.212
127.3502, 5704.367
127.8323, 5672.372
128.3144, 5650.704
128.7965, 5595.885
129.2787, 5499.197
129.7608, 5391.548
130.2429, 5314.007
130.7250, 5263.465
131.2071, 5218.817
131.6892, 5162.624
132.1714, 5096.903
132.6535, 5043.165
133.1356, 5003.786
133.6177, 4975.625
134.0998, 4949.402
134.5819, 4922.459
135.0640, 4906.612
135.5462, 4915.811
136.0283, 4951.213
136.5104, 4989.087
136.9925, 5023.965
137.4746, 5056.145
137.9567, 5090.456
138.4389, 5131.498
138.9210, 5168.275
139.4031, 5184.675
139.8852, 5178.547
140.3673, 5162.884
140.8494, 5141.197
141.3316, 5111.724
141.8137, 5086.101
142.2958, 5069.053
142.7779, 5054.577
143.2600, 5023.231
143.7421, 4960.757
144.2243, 4904.160
144.7064, 4873.684
145.1885, 4883.590
145.6706, 4892.776
146.1527, 4905.170
146.6348, 4918.513
147.1170, 4907.205
147.5991, 4847.286
148.0812, 4780.404
148.5633, 4737.611
149.0454, 4732.683
149.5275, 4734.619
150.0097, 4742.633
150.4918, 4758.997
150.9739, 4765.446
151.4560, 4756.074
151.9381, 4738.410
152.4202, 4720.651
152.9024, 4687.273
153.3845, 4667.849
153.8666, 4676.234
154.3487, 4733.620
154.8308, 4767.917
155.3129, 4752.109
155.7950, 4707.993
156.2772, 4678.377
156.7593, 4683.129
157.2414, 4696.377
157.7235, 4706.293
158.2056, 4711.610
158.6877, 4712.689
159.1699, 4708.611
159.6520, 4700.215
160.1341, 4690.457
160.6162, 4674.976
161.0983, 4661.497
161.5804, 4655.772
162.0626, 4672.128
162.5447, 4685.442
163.0268, 4682.000
163.5089, 4662.792
163.9910, 4646.919
164.4731, 4645.457
164.9553, 4651.586
165.4374, 4657.330
165.9195, 4659.953
166.4016, 4660.861
166.8837, 4660.600
167.3658, 4659.004
167.8480, 4657.001
168.3301, 4652.874
168.8122, 4648.642
169.2943, 4648.158
169.7764, 4659.476
170.2585, 4672.279
170.7407, 4674.482
171.2228, 4660.642
171.7049, 4647.850
172.1870, 4652.164
172.6691, 4669.924
173.1512, 4688.873
173.6334, 4703.504
174.1155, 4714.574
174.5976, 4723.563
175.0797, 4732.673
175.5618, 4737.194
176.0439, 4725.400
176.5260, 4699.992
177.0082, 4681.748
177.4903, 4693.511
177.9724, 4723.752
178.4545, 4746.512
178.9366, 4749.422
179.4187, 4744.722
179.9009, 4755.188
180.3830, 4781.231
180.8651, 4804.050
181.3472, 4799.660
181.8293, 4775.847
182.3114, 4759.862
182.7936, 4763.509
183.2757, 4782.051
183.7578, 4807.049
184.2399, 4839.286
184.7220, 4871.621
185.2041, 4894.155
185.6863, 4907.901
186.1684, 4919.632
186.6505, 4930.648
187.1326, 4941.629
187.6147, 4956.923
188.0968, 4977.500
188.5790, 5000.084
189.0611, 5018.884
189.5432, 5033.816
190.0253, 5051.119
190.5074, 5079.013
190.9895, 5114.988
191.4717, 5139.535
191.9538, 5147.003
192.4359, 5147.647
192.9180, 5168.018
193.4001, 5210.652
193.8822, 5250.789
194.3644, 5266.929
194.8465, 5259.798
195.3286, 5257.793
195.8107, 5263.955
196.2928, 5279.058
196.7749, 5309.509
197.2570, 5358.184
197.7392, 5408.286
198.2213, 5443.342
198.7034, 5462.257
199.1855, 5479.230
199.6676, 5494.435
200.1497, 5509.491
200.6319, 5540.543
201.1140, 5593.246
201.5961, 5646.397
202.0782, 5672.263
202.5603, 5665.684
203.0424, 5660.723
203.5246, 5665.064
204.0067, 5678.689
204.4888, 5707.437
204.9709, 5757.785
205.4530, 5812.712
205.9352, 5848.477
206.4173, 5862.411
206.8994, 5867.026
207.3815, 5863.394
207.8636, 5849.665
208.3457, 5844.360
208.8279, 5847.810
209.3100, 5859.403
209.7921, 5880.723
210.2742, 5916.959
210.7563, 5949.357
211.2384, 5967.748
211.7206, 5968.442
212.2027, 5971.596
212.6848, 5976.457
213.1669, 5984.367
213.6490, 6000.468
214.1311, 6030.200
214.6133, 6056.642
215.0954, 6068.000
215.5775, 6055.341
216.0596, 6056.325
216.5417, 6076.762
217.0238, 6111.495
217.5059, 6144.345
217.9881, 6178.609
218.4702, 6205.640
218.9523, 6216.951
219.4344, 6200.804
219.9165, 6201.632
220.3986, 6232.503
220.8808, 6285.803
221.3629, 6313.177
221.8450, 6300.728
222.3271, 6281.614
222.8092, 6280.960
223.2913, 6309.043
223.7735, 6332.467
224.2556, 6346.183
224.7377, 6350.621
225.2198, 6352.721
225.7019, 6351.362
226.1840, 6348.473
226.6662, 6346.282
227.1483, 6347.739
227.6304, 6343.447
228.1125, 6331.389
228.5946, 6311.540
229.0767, 6286.548
229.5589, 6254.037
230.0410, 6219.022
230.5231, 6185.854
231.0052, 6153.996
231.4873, 6126.021
231.9694, 6104.442
232.4516, 6091.049
232.9337, 6068.301
233.4158, 6031.916
233.8979, 5990.103
234.3800, 5953.381
234.8621, 5924.382
235.3443, 5896.205
235.8264, 5867.360
236.3085, 5837.848
236.7906, 5807.732
237.2727, 5776.250
237.7548, 5744.787
238.2369, 5714.955
238.7191, 5687.695
239.2012, 5660.644
239.6833, 5633.196
240.1654, 5604.759
240.6475, 5576.797
241.1296, 5546.103
241.6118, 5517.589
242.0939, 5501.787
242.5760, 5512.396
243.0581, 5513.707
243.5402, 5490.308
244.0223, 5430.492
244.5045, 5384.478
244.9866, 5354.854
245.4687, 5337.898
245.9508, 5327.636
246.4329, 5329.612
246.9150, 5329.745
247.3972, 5321.629
247.8793, 5300.124
248.3614, 5284.706
248.8435, 5277.383
249.3256, 5275.446
249.8077, 5272.868
250.2899, 5269.722
250.7720, 5265.680
251.2541, 5260.278
251.7362, 5252.439
252.2183, 5245.667
252.7004, 5240.102
253.1826, 5235.440
253.6647, 5231.124
254.1468, 5227.188
254.6289, 5223.255
255.1110, 5218.194
255.5931, 5208.704
256.0753, 5207.259
256.5574, 5219.589
257.0395, 5238.613
257.5216, 5241.144
258.0037, 5217.994
258.4858, 5194.504
258.9680, 5186.014
259.4501, 5201.843
259.9322, 5205.214
260.4143, 5189.448
260.8964, 5161.703
261.3785, 5145.988
261.8607, 5147.230
262.3428, 5151.096
262.8249, 5150.224
263.3070, 5144.160
263.7891, 5135.085
264.2712, 5122.443
264.7534, 5107.340
265.2355, 5093.271
265.7176, 5079.086
266.1997, 5068.276
266.6818, 5063.909
267.1639, 5068.304
267.6461, 5069.751
268.1282, 5065.390
268.6103, 5057.982
269.0924, 5059.509
269.5745, 5075.444
270.0566, 5086.291
270.5387, 5071.178
271.0208, 5018.183
271.5030, 5003.062
271.9851, 5049.066
272.4672, 5130.649
272.9493, 5157.973
273.4314, 5117.784
273.9135, 5065.450
274.3957, 5039.188
274.8778, 5043.074
275.3599, 5042.729
275.8420, 5033.785
276.3241, 5018.879
276.8062, 5004.386
277.2884, 4989.245
277.7705, 4979.300
278.2526, 4981.631
278.7347, 4997.350
279.2168, 5006.096
279.6989, 5002.153
280.1811, 4992.246
280.6632, 5000.080
281.1453, 5029.676
281.6274, 5052.141
282.1095, 5037.729
282.5916, 4986.835
283.0738, 4960.334
283.5559, 4972.707
284.0380, 5007.131
284.5201, 5022.084
285.0022, 5016.615
285.4843, 5004.159
285.9665, 4990.240
286.4486, 4975.614
286.9307, 4969.334
287.4128, 4974.941
287.8949, 4986.810
288.3770, 4993.320
288.8592, 4994.611
289.3413, 4994.027
289.8234, 4994.579
290.3055, 4995.652
290.7876, 4992.891
291.2697, 4984.370
291.7519, 4974.135
292.2340, 4970.679
292.7161, 4973.629
293.1982, 4975.640
293.6803, 4969.713
294.1624, 4958.560
294.6446, 4950.237
295.1267, 4944.379
295.6088, 4944.278
296.0909, 4962.658
296.5730, 4995.669
297.0551, 5019.248
297.5373, 5006.697
298.0194, 4974.248
298.5015, 4957.652
298.9836, 4964.649
299.4657, 4982.329
299.9478, 5002.162
300.4300, 5021.398
300.9121, 5027.886
301.3942, 5001.346
301.8763, 4960.680
302.3584, 4938.167
302.8405, 4941.948
303.3227, 4951.591
303.8048, 4945.902
304.2869, 4929.041
304.7690, 4913.053
305.2511, 4905.466
305.7332, 4902.222
306.2154, 4898.486
306.6975, 4893.277
307.1796, 4889.067
307.6617, 4889.684
308.1438, 4892.913
308.6259, 4893.905
309.1081, 4886.623
309.5901, 4878.048
310.0723, 4874.634
310.5544, 4878.042
311.0365, 4882.278
311.5186, 4885.702
312.0007, 4887.207
312.4828, 4884.849
312.9650, 4871.077
313.4471, 4857.966
313.9292, 4854.969
314.4113, 4864.765
314.8934, 4874.029
315.3755, 4882.470
315.8577, 4885.336
316.3398, 4875.647
316.8219, 4831.654
317.3040, 4790.433
317.7861, 4770.840
318.2682, 4776.301
318.7504, 4786.106
319.2325, 4801.359
319.7146, 4814.874
320.1967, 4818.245
320.6788, 4793.719
321.1609, 4773.303
321.6431, 4770.641
322.1252, 4788.171
322.6073, 4800.474
323.0894, 4796.854
323.5715, 4788.362
324.0536, 4785.230
324.5358, 4798.933
325.0179, 4807.740
325.5000, 4802.714
325.9821, 4782.918
326.4642, 4774.521
326.9464, 4794.688
327.4285, 4817.724
327.9106, 4824.432
328.3927, 4795.520
328.8748, 4773.830
329.3569, 4768.479
329.8391, 4777.676
330.3212, 4775.865
330.8033, 4752.970
331.2854, 4728.435
331.7675, 4715.717
332.2496, 4724.043
332.7318, 4727.278
333.2139, 4718.779
333.6960, 4702.953
334.1781, 4702.587
334.6602, 4725.899
335.1423, 4752.299
335.6245, 4771.037
336.1066, 4782.093
336.5887, 4784.612
337.0708, 4775.390
337.5529, 4758.964
338.0350, 4748.336
338.5172, 4743.605
338.9993, 4743.733
339.4814, 4749.219
339.9635, 4760.648
340.4456, 4771.827
340.9277, 4783.051
341.4099, 4793.155
341.8920, 4799.113
342.3741, 4800.255
342.8562, 4802.372
343.3383, 4808.905
343.8204, 4819.368
344.3026, 4830.518
344.7847, 4843.653
345.2668, 4852.563
345.7489, 4841.786
346.2310, 4813.542
346.7131, 4794.863
347.1953, 4806.610
347.6774, 4837.459
348.1595, 4849.943
348.6416, 4842.671
349.1237, 4829.311
349.6058, 4821.101
350.0880, 4818.212
350.5700, 4821.246
351.0522, 4838.727
351.5343, 4858.420
352.0164, 4858.583
352.4985, 4839.812
352.9806, 4818.984
353.4627, 4807.384
353.9449, 4803.148
354.4270, 4803.876
354.9091, 4815.920
355.3912, 4825.382
355.8733, 4811.271
356.3554, 4778.526
356.8376, 4757.219
357.3197, 4785.208
357.8018, 4824.670
358.2839, 4836.105
358.7660, 4792.113
359.2481, 4744.996
359.7303, 4720.954
360.2124, 4716.172
360.6945, 4718.234
361.1766, 4735.088
361.6587, 4748.917
362.1408, 4745.383
362.6230, 4709.589
363.1051, 4685.205
363.5872, 4699.554
364.0693, 4733.009
364.5514, 4747.116
365.0335, 4703.304
365.5157, 4665.115
365.9978, 4660.775
366.4799, 4707.142
366.9620, 4739.706
367.4441, 4743.269
367.9262, 4732.061
368.4084, 4724.548
368.8905, 4722.762
369.3726, 4722.313
369.8547, 4724.532
370.3368, 4730.696
370.8189, 4725.458
371.3011, 4697.287
371.7832, 4667.319
372.2653, 4656.354
372.7474, 4677.237
373.2295, 4690.312
373.7116, 4686.629
374.1938, 4668.924
374.6759, 4659.122
375.1580, 4660.953
375.6401, 4663.817
376.1222, 4659.562
376.6043, 4647.244
377.0865, 4635.565
377.5686, 4626.056
378.0507, 4617.605
378.5328, 4603.918
379.0149, 4582.988
379.4970, 4571.915
379.9792, 4588.492
380.4613, 4629.191
380.9434, 4654.125
381.4255, 4657.997
381.9076, 4653.305
382.3897, 4659.407
382.8719, 4674.706
383.3540, 4687.591
383.8361, 4690.429
384.3182, 4687.066
384.8003, 4686.434
385.2824, 4688.964
385.7646, 4691.608
386.2467, 4690.025
386.7288, 4686.385
387.2109, 4685.471
387.6930, 4691.085
388.1751, 4699.158
388.6573, 4708.301
389.1394, 4718.024
389.6215, 4721.565
390.1036, 4704.797
390.5857, 4683.590
391.0678, 4675.551
391.5499, 4697.701
392.0320, 4719.327
392.5142, 4722.263
392.9963, 4711.073
393.4784, 4700.481
393.9605, 4694.535
394.4426, 4692.153
394.9247, 4693.114
395.4069, 4699.119
395.8890, 4704.878
396.3711, 4709.925
396.8532, 4713.869
397.3353, 4715.958
397.8174, 4712.187
398.2996, 4710.165
398.7817, 4713.802
399.2638, 4726.425
399.7459, 4731.454
400.2280, 4719.273
400.7101, 4705.131
401.1923, 4705.913
401.6744, 4732.692
402.1565, 4754.782
402.6386, 4764.658
403.1207, 4763.450
403.6028, 4768.604
404.0850, 4782.625
404.5671, 4798.612
405.0492, 4812.463
405.5313, 4824.636
406.0134, 4831.457
406.4955, 4830.355
406.9777, 4825.394
407.4598, 4826.908
407.9419, 4835.257
408.4240, 4847.181
408.9061, 4864.431
409.3882, 4885.059
409.8704, 4894.926
410.3525, 4891.173
410.8346, 4883.431
411.3167, 4881.823
411.7988, 4886.478
412.2809, 4897.751
412.7631, 4920.460
413.2452, 4948.340
413.7273, 4970.854
414.2094, 4988.019
414.6915, 5003.642
415.1736, 5023.330
415.6558, 5042.956
416.1379, 5055.119
416.6200, 5050.901
417.1021, 5046.299
417.5842, 5050.925
418.0663, 5064.354
418.5485, 5084.301
419.0306, 5118.611
419.5127, 5153.583
419.9948, 5178.053
420.4769, 5180.345
420.9590, 5191.485
421.4412, 5229.643
421.9233, 5281.472
422.4054, 5323.103
422.8875, 5339.924
423.3696, 5354.621
423.8517, 5372.700
424.3339, 5393.076
424.8160, 5422.486
425.2981, 5471.063
425.7802, 5522.025
426.2623, 5559.007
426.7444, 5568.019
427.2266, 5587.362
427.7087, 5627.859
428.1908, 5685.068
428.6729, 5730.160
429.1550, 5759.417
429.6371, 5784.697
430.1193, 5811.355
430.6014, 5838.541
431.0835, 5876.016
431.5656, 5928.333
432.0477, 5985.486
432.5298, 6026.988
433.0119, 6052.542
433.4940, 6076.164
433.9762, 6101.420
434.4583, 6129.669
434.9404, 6169.390
435.4225, 6222.013
435.9046, 6273.846
436.3867, 6306.059
436.8689, 6325.841
437.3510, 6350.928
437.8331, 6391.639
438.3152, 6436.466
438.7973, 6471.216
439.2794, 6497.807
439.7616, 6527.349
440.2437, 6559.325
440.7258, 6601.005
441.2079, 6664.166
441.6900, 6767.432
442.1721, 6855.336
442.6543, 6885.021
443.1364, 6882.883
443.6185, 6899.210
444.1006, 6965.638
444.5827, 7039.016
445.0648, 7103.347
445.5470, 7155.878
446.0291, 7209.508
446.5112, 7274.395
446.9933, 7336.254
447.4754, 7382.968
447.9576, 7402.339
448.4397, 7423.505
448.9218, 7447.800
449.4039, 7475.875
449.8860, 7513.252
450.3681, 7566.427
450.8503, 7615.784
451.3324, 7652.006
451.8145, 7675.177
452.2966, 7681.881
452.7787, 7670.519
453.2608, 7645.288
453.7430, 7611.646
454.2251, 7569.947
454.7072, 7521.291
455.1893, 7468.661
455.6714, 7409.406
456.1535, 7325.979
456.6357, 7217.919
457.1178, 7115.577
457.5999, 7061.379
458.0820, 7033.317
458.5641, 6981.089
459.0462, 6876.711
459.5284, 6766.903
460.0105, 6705.457
460.4926, 6679.042
460.9747, 6650.526
461.4568, 6590.603
461.9389, 6526.292
462.4211, 6478.008
462.9032, 6449.032
463.3853, 6427.758
463.8674, 6414.819
464.3495, 6404.837
464.8316, 6391.533
465.3138, 6367.313
465.7959, 6346.058
466.2780, 6330.980
466.7601, 6322.193
467.2422, 6318.225
467.7243, 6327.916
468.2065, 6334.626
468.6886, 6327.997
469.1707, 6294.347
469.6528, 6279.288
470.1349, 6291.738
470.6170, 6317.602
471.0992, 6328.273
471.5813, 6319.020
472.0634, 6313.140
472.5455, 6320.297
473.0276, 6338.718
473.5097, 6351.933
473.9918, 6358.926
474.4739, 6366.835
474.9561, 6383.735
475.4382, 6408.018
475.9203, 6432.531
476.4024, 6458.032
476.8845, 6479.424
477.3666, 6482.654
477.8488, 6473.077
478.3309, 6472.512
478.8130, 6503.627
479.2951, 6544.971
479.7772, 6574.315
480.2593, 6589.199
480.7415, 6598.630
481.2236, 6607.785
481.7057, 6614.376
482.1878, 6615.705
482.6699, 6608.287
483.1520, 6597.978
483.6342, 6583.394
484.1163, 6565.968
484.5984, 6554.903
485.0805, 6557.868
485.5626, 6562.329
486.0447, 6564.246
486.5269, 6571.370
487.0090, 6557.402
487.4911, 6510.267
487.9732, 6450.743
488.4553, 6409.768
488.9374, 6394.702
489.4196, 6377.309
489.9017, 6348.320
490.3838, 6310.815
490.8659, 6283.885
491.3480, 6269.344
491.8301, 6256.408
492.3123, 6232.379
492.7944, 6201.044
493.2765, 6185.408
493.7586, 6193.458
494.2407, 6203.648
494.7228, 6180.732
495.2050, 6134.607
495.6871, 6096.914
496.1692, 6090.035
496.6513, 6094.171
497.1334, 6092.015
497.6155, 6083.120
498.0977, 6067.145
498.5798, 6033.107
499.0619, 5997.354
499.5440, 5975.952
500.0261, 5979.852
500.5082, 5987.083
500.9904, 5993.327
501.4725, 5998.535
501.9546, 6002.662
502.4367, 6013.151
502.9188, 6014.682
503.4009, 5999.668
503.8831, 5964.845
504.3652, 5937.822
504.8473, 5919.814
505.3294, 5907.702
505.8115, 5899.280
506.2936, 5894.605
506.7758, 5893.073
507.2579, 5895.273
507.7400, 5899.863
508.2221, 5905.049
508.7042, 5911.053
509.1863, 5913.340
509.6685, 5909.255
510.1506, 5899.897
510.6327, 5885.452
511.1148, 5865.517
511.5969, 5850.646
512.0790, 5859.170
512.5612, 5878.248
513.0433, 5883.252
513.5254, 5853.635
514.0075, 5826.978
514.4896, 5839.713
514.9717, 5878.833
515.4539, 5907.696
515.9360, 5904.724
516.4181, 5892.177
516.9002, 5878.306
517.3823, 5861.946
517.8644, 5854.855
518.3466, 5865.598
518.8287, 5882.691
519.3108, 5896.035
519.7929, 5908.328
520.2750, 5912.263
520.7571, 5905.022
521.2393, 5889.400
521.7214, 5871.994
522.2035, 5849.639
522.6856, 5835.075
523.1677, 5839.441
523.6498, 5861.704
524.1320, 5868.789
524.6141, 5859.130
525.0962, 5841.981
525.5783, 5821.032
526.0604, 5799.398
526.5425, 5791.095
527.0247, 5805.843
527.5068, 5825.714
527.9889, 5830.387
528.4710, 5821.861
528.9531, 5806.862
529.4352, 5781.257
529.9174, 5756.144
530.3995, 5740.445
530.8816, 5735.677
531.3637, 5735.066
531.8458, 5741.697
532.3279, 5748.504
532.8101, 5749.265
533.2922, 5731.804
533.7743, 5721.629
534.2564, 5732.813
534.7385, 5752.765
535.2206, 5745.964
535.7027, 5687.202
536.1848, 5643.479
536.6669, 5642.302
537.1490, 5685.450
537.6312, 5718.365
538.1133, 5740.214
538.5954, 5753.341
539.0775, 5758.980
539.5596, 5757.355
540.0417, 5749.940
540.5239, 5734.746
541.0060, 5718.529
541.4881, 5712.488
541.9702, 5714.660
542.4523, 5717.473
542.9344, 5721.508
543.4166, 5721.665
543.8987, 5706.671
544.3808, 5677.519
544.8629, 5659.262
545.3450, 5675.061
545.8271, 5702.320
546.3093, 5722.383
546.7914, 5726.265
547.2735, 5731.442
547.7556, 5745.762
548.2377, 5762.734
548.7198, 5770.506
549.2020, 5763.320
549.6841, 5754.241
550.1662, 5745.008
550.6483, 5735.786
551.1304, 5728.385
551.6125, 5721.598
552.0947, 5719.240
552.5768, 5724.245
553.0589, 5736.455
553.5410, 5753.870
554.0231, 5778.271
554.5052, 5800.987
554.9874, 5810.024
555.4695, 5807.250
555.9516, 5798.997
556.4337, 5784.773
556.9158, 5768.807
557.3979, 5752.881
557.8801, 5738.301
558.3622, 5731.028
558.8443, 5740.309
559.3264, 5753.975
559.8085, 5764.561
560.2906, 5771.966
560.7728, 5773.694
561.2549, 5767.788
561.7370, 5756.697
562.2191, 5742.497
562.7012, 5713.956
563.1833, 5698.801
563.6655, 5703.063
564.1476, 5721.647
564.6297, 5741.644
565.1118, 5766.311
565.5939, 5781.913
566.0760, 5778.770
566.5582, 5759.169
567.0403, 5748.812
567.5224, 5748.814
568.0045, 5749.597
568.4866, 5738.151
568.9688, 5720.368
569.4509, 5713.600
569.9330, 5723.722
570.4151, 5739.168
570.8972, 5745.699
571.3793, 5749.271
571.8615, 5761.689
572.3436, 5800.604
572.8257, 5838.604
573.3078, 5861.839
573.7899, 5870.711
574.2720, 5872.420
574.7542, 5856.495
575.2363, 5843.503
575.7184, 5845.351
576.2005, 5869.611
576.6826, 5888.424
577.1647, 5896.557
577.6469, 5904.485
578.1290, 5927.599
578.6111, 5970.187
579.0932, 6004.850
579.5753, 6025.850
580.0574, 6035.720
580.5396, 6039.457
581.0217, 6037.252
581.5038, 6030.905
581.9859, 6010.068
582.4680, 5989.750
582.9501, 6001.297
583.4323, 6045.509
583.9144, 6090.727
584.3965, 6111.162
584.8786, 6122.095
585.3607, 6139.834
585.8428, 6171.350
586.3250, 6203.299
586.8071, 6228.008
587.2892, 6251.056
587.7713, 6281.891
588.2534, 6329.957
588.7355, 6376.683
589.2177, 6418.512
589.6998, 6455.985
590.1819, 6496.520
590.6640, 6543.370
591.1461, 6585.617
591.6282, 6610.014
592.1104, 6616.979
592.5925, 6652.197
593.0746, 6719.829
593.5567, 6798.324
594.0388, 6866.646
594.5209, 6926.018
595.0031, 6977.353
595.4852, 7013.115
595.9673, 7053.608
596.4494, 7124.541
596.9315, 7215.709
597.4136, 7301.552
597.8958, 7364.548
598.3779, 7425.255
598.8600, 7493.603
599.3421, 7570.403
599.8242, 7647.300
600.3063, 7720.376
600.7885, 7797.204
601.2706, 7880.018
601.7527, 7970.811
602.2348, 8065.636
602.7169, 8164.754
603.1990, 8266.067
603.6812, 8369.331
604.1633, 8474.123
604.6454, 8568.014
605.1275, 8643.709
605.6096, 8710.775
606.0917, 8787.850
606.5739, 8872.979
607.0560, 8960.783
607.5381, 9047.929
608.0202, 9135.365
608.5023, 9226.227
608.9844, 9319.990
609.4666, 9404.254
609.9487, 9461.367
610.4308, 9515.299
610.9129, 9585.646
611.3950, 9688.931
611.8771, 9781.831
612.3593, 9843.886
612.8414, 9902.507
613.3235, 9991.563
613.8056, 10136.91
614.2877, 10255.22
614.7698, 10324.41
615.2520, 10362.68
615.7341, 10425.65
616.2162, 10515.12
616.6983, 10599.59
617.1804, 10659.73
617.6625, 10703.09
618.1446, 10750.96
