##NAMES=Akermanite
##RRUFFID=R061085
##IDEAL CHEMISTRY=Ca_2_MgSi_2_O_7_
##LOCALITY=Kovdor, Kola Peninsula, Russia
##OWNER=Michael Scott
##SOURCE=Michael Scott
##DESCRIPTION=Dark blue coarsely crystalline massive associated with green diopside
##STATUS=The identification of this mineral has been confirmed by X-ray diffraction and chemical analysis
##URL=rruff.info/R061085
##MEASURED CHEMISTRY=(Ca_1.78_Na_0.22_)_Σ=2_(Mg_0.70_Al_0.22_Fe^2+^_0.08_)_Σ=1_Si_2.00_O_7_
123.5579, 190.1838
124.0400, 196.6503
124.5221, 201.8464
125.0042, 205.1410
125.4863, 206.7183
125.9684, 210.0454
126.4506, 215.2117
126.9327, 222.2487
127.4148, 232.9958
127.8969, 245.8325
128.3790, 257.2086
128.8611, 263.3401
129.3432, 263.1389
129.8254, 271.3019
130.3075, 295.5609
130.7896, 320.1508
131.2717, 339.3108
131.7538, 353.0738
132.2359, 364.4330
132.7181, 376.1898
133.2002, 388.9390
133.6823, 398.9903
134.1644, 407.1501
134.6465, 412.6075
135.1286, 414.0847
135.6108, 411.9326
136.0929, 408.1919
136.5750, 404.9286
137.0571, 401.9676
137.5392, 400.5905
138.0213, 405.2474
138.5035, 408.5247
138.9856, 402.9312
139.4677, 387.7293
139.9498, 370.3423
140.4319, 360.1849
140.9140, 360.2141
141.3962, 360.7121
141.8783, 357.9711
142.3604, 357.3362
142.8425, 364.9987
143.3246, 382.5537
143.8067, 405.2369
144.2889, 427.0541
144.7710, 448.3037
145.2531, 467.5735
145.7352, 479.5973
146.2173, 484.7052
146.6994, 490.4254
147.1816, 504.7449
147.6637, 521.3652
148.1458, 530.6724
148.6279, 532.6400
149.1100, 533.4227
149.5921, 534.5641
150.0743, 535.5070
150.5564, 535.5503
151.0385, 534.8066
151.5206, 532.2263
152.0027, 525.1019
152.4848, 512.4274
152.9670, 500.8595
153.4491, 494.1739
153.9312, 490.4291
154.4133, 484.6712
154.8954, 474.8341
155.3775, 462.9457
155.8597, 452.3378
156.3418, 443.2149
156.8239, 433.9664
157.3060, 422.9873
157.7881, 410.9836
158.2702, 400.2036
158.7524, 390.5075
159.2345, 379.3026
159.7166, 383.1970
160.1987, 384.6802
160.6808, 383.8818
161.1629, 373.9684
161.6451, 375.8250
162.1272, 372.9648
162.6093, 369.9112
163.0914, 373.4247
163.5735, 364.8370
164.0556, 368.2463
164.5378, 366.8663
165.0199, 367.6784
165.5020, 363.7444
165.9841, 361.2764
166.4662, 363.5559
166.9483, 363.2067
167.4305, 358.7260
167.9126, 359.6775
168.3947, 350.9240
168.8768, 350.5522
169.3589, 354.2495
169.8410, 356.3526
170.3232, 352.8644
170.8053, 347.7717
171.2874, 344.9898
171.7695, 345.3646
172.2516, 346.1627
172.7337, 344.2292
173.2159, 339.2793
173.6980, 335.4413
174.1801, 334.6825
174.6622, 335.1302
175.1443, 335.2037
175.6264, 334.5557
176.1086, 333.9882
176.5907, 334.4766
177.0728, 336.1410
177.5549, 337.7797
178.0370, 340.1448
178.5191, 341.6166
179.0013, 340.4286
179.4834, 335.9824
179.9655, 330.7436
180.4476, 327.1633
180.9297, 325.2254
181.4118, 325.0239
181.8940, 327.9937
182.3761, 332.0320
182.8582, 336.4081
183.3403, 341.0966
183.8224, 344.4332
184.3046, 342.9689
184.7867, 335.2029
185.2688, 331.1559
185.7509, 328.8401
186.2330, 339.1457
186.7151, 345.2319
187.1973, 347.3255
187.6794, 333.4676
188.1615, 340.2076
188.6436, 338.6929
189.1257, 336.8398
189.6078, 346.4789
190.0900, 334.9412
190.5721, 344.3981
191.0542, 346.0635
191.5363, 350.5106
192.0184, 352.7878
192.5005, 352.1168
192.9827, 353.2913
193.4648, 358.9630
193.9469, 365.7859
194.4290, 372.6510
194.9111, 379.2555
195.3932, 383.9435
195.8754, 383.5045
196.3575, 376.4640
196.8396, 372.3634
197.3217, 375.5790
197.8038, 380.5754
198.2859, 384.7798
198.7681, 387.6949
199.2502, 389.3965
199.7323, 389.0381
200.2144, 385.8405
200.6965, 385.5110
201.1786, 392.6279
201.6608, 400.4538
202.1429, 405.2408
202.6250, 406.5803
203.1071, 406.6883
203.5892, 407.3720
204.0713, 408.4948
204.5535, 411.2693
205.0356, 418.3840
205.5177, 425.3252
205.9998, 429.2935
206.4819, 430.2806
206.9640, 430.7029
207.4462, 433.1059
207.9283, 437.7040
208.4104, 441.6193
208.8925, 445.7287
209.3746, 447.9525
209.8567, 440.5276
210.3388, 450.8052
210.8210, 458.2871
211.3031, 463.1218
211.7852, 457.3842
212.2673, 465.2986
212.7494, 467.7419
213.2315, 469.9608
213.7137, 477.4128
214.1958, 477.6040
214.6779, 476.2466
215.1600, 474.9659
215.6421, 473.8233
216.1242, 474.2940
216.6064, 470.5100
217.0885, 479.1135
217.5706, 484.9203
218.0527, 488.0809
218.5348, 480.6690
219.0169, 486.9092
219.4991, 487.6787
219.9812, 488.2234
220.4633, 496.3850
220.9454, 490.5109
221.4275, 498.5517
221.9096, 501.0379
222.3918, 506.0667
222.8739, 504.6367
223.3560, 510.3076
223.8381, 512.5450
224.3202, 508.6856
224.8023, 505.8622
225.2845, 510.3258
225.7666, 517.8926
226.2487, 520.6362
226.7308, 512.0491
227.2129, 496.8879
227.6950, 487.5877
228.1772, 486.1361
228.6593, 486.3544
229.1414, 487.5350
229.6235, 487.9765
230.1056, 484.7119
230.5877, 475.0321
231.0699, 462.4694
231.5520, 453.3788
232.0341, 448.5939
232.5162, 444.6473
232.9983, 439.4268
233.4804, 434.3137
233.9626, 431.2394
234.4447, 431.7203
234.9268, 432.9220
235.4089, 431.0125
235.8910, 425.6436
236.3731, 419.5440
236.8553, 413.8070
237.3374, 407.8171
237.8195, 400.6653
238.3016, 391.8812
238.7837, 382.8288
239.2658, 374.3055
239.7480, 366.2726
240.2301, 360.4494
240.7122, 358.2859
241.1943, 358.1464
241.6764, 358.3619
242.1585, 359.1149
242.6407, 359.0089
243.1228, 356.7870
243.6049, 352.6736
244.0870, 348.1397
244.5691, 343.6678
245.0512, 338.7670
245.5334, 332.3696
246.0155, 324.1895
246.4976, 317.4502
246.9797, 314.8037
247.4618, 314.9944
247.9439, 314.3746
248.4261, 312.0219
248.9082, 308.9768
249.3903, 306.1322
249.8724, 303.4707
250.3545, 301.4760
250.8366, 300.8564
251.3188, 300.8931
251.8009, 300.5599
252.2830, 299.7990
252.7651, 298.2181
253.2472, 294.8731
253.7293, 289.9913
254.2115, 285.7260
254.6936, 281.4285
255.1757, 278.4682
255.6578, 279.0466
256.1399, 283.3563
256.6220, 288.3817
257.1042, 292.1667
257.5863, 294.5488
258.0684, 295.5461
258.5505, 294.2077
259.0326, 292.2239
259.5147, 290.4423
259.9969, 288.9694
260.4790, 288.0828
260.9611, 287.9228
261.4432, 288.5421
261.9253, 289.9514
262.4074, 294.7046
262.8896, 297.5621
263.3717, 294.2776
263.8538, 287.2593
264.3359, 282.7856
264.8180, 284.2909
265.3001, 289.9068
265.7823, 293.1901
266.2644, 293.1144
266.7465, 292.4250
267.2286, 291.1360
267.7107, 289.6635
268.1928, 288.5135
268.6750, 287.8643
269.1571, 287.7431
269.6392, 288.2104
270.1213, 289.3907
270.6034, 291.0775
271.0855, 294.4679
271.5677, 297.6931
272.0498, 298.8458
272.5319, 297.5946
273.0140, 295.2072
273.4961, 293.2047
273.9782, 291.2563
274.4604, 290.8221
274.9425, 292.3255
275.4246, 294.7330
275.9067, 297.5073
276.3888, 300.6042
276.8709, 304.3050
277.3531, 309.1666
277.8352, 315.4724
278.3173, 319.6253
278.7994, 320.1355
279.2815, 320.0435
279.7636, 319.7763
280.2458, 319.6552
280.7279, 320.1024
281.2100, 321.4532
281.6921, 323.5776
282.1742, 325.5239
282.6563, 325.9270
283.1385, 323.9066
283.6206, 332.5885
284.1027, 338.8570
284.5848, 342.8422
285.0669, 337.7042
285.5490, 344.3468
286.0312, 346.2688
286.5133, 347.9968
286.9954, 356.2973
287.4775, 352.4864
287.9596, 360.6827
288.4417, 364.0861
288.9239, 369.6835
289.4060, 370.5304
289.8881, 372.8442
290.3702, 383.4866
290.8523, 393.2797
291.3344, 399.5640
291.8166, 404.6894
292.2987, 410.0020
292.7808, 415.5694
293.2629, 421.1923
293.7450, 426.3313
294.2271, 431.2520
294.7093, 437.6615
295.1914, 446.7582
295.6735, 455.4349
296.1556, 460.8953
296.6377, 464.1351
297.1198, 468.0575
297.6020, 474.3242
298.0841, 481.7409
298.5662, 488.5680
299.0483, 494.8090
299.5304, 500.5462
300.0125, 504.7539
300.4947, 508.7107
300.9768, 515.5826
301.4589, 528.5801
301.9410, 541.5659
302.4231, 550.0124
302.9052, 554.4653
303.3874, 557.1780
303.8695, 558.1925
304.3516, 559.0816
304.8337, 564.1011
305.3158, 576.1658
305.7979, 585.7489
306.2801, 588.0137
306.7622, 586.3715
307.2443, 585.8835
307.7264, 587.9426
308.2085, 592.4019
308.6906, 599.9244
309.1728, 614.1670
309.6549, 620.6259
310.1370, 612.6443
310.6191, 601.0259
311.1012, 594.2108
311.5833, 592.8752
312.0655, 593.1878
312.5476, 591.9060
313.0297, 589.0897
313.5118, 583.7269
313.9939, 574.7616
314.4760, 564.7496
314.9582, 553.1414
315.4403, 541.2701
315.9224, 532.1172
316.4045, 527.7925
316.8866, 526.5862
317.3687, 520.7585
317.8509, 505.0893
318.3330, 491.6910
318.8151, 484.0421
319.2972, 478.3993
319.7793, 470.8709
320.2614, 460.1707
320.7436, 448.1413
321.2257, 437.7755
321.7078, 429.5674
322.1899, 421.3923
322.6720, 412.0749
323.1541, 403.4731
323.6363, 397.3105
324.1184, 393.3213
324.6005, 389.1800
325.0826, 382.7321
325.5647, 374.1776
326.0468, 366.1729
326.5290, 359.4355
327.0111, 352.2262
327.4932, 341.8614
327.9753, 330.3307
328.4574, 322.2507
328.9395, 321.7595
329.4217, 324.2689
329.9038, 322.6922
330.3859, 316.7536
330.8680, 309.3922
331.3501, 300.2183
331.8322, 291.3794
332.3144, 287.0659
332.7965, 290.6441
333.2786, 292.7108
333.7607, 284.5317
334.2428, 269.7851
334.7249, 260.3649
335.2070, 260.9009
335.6891, 265.8111
336.1713, 266.5070
336.6534, 262.5140
337.1355, 257.7878
337.6176, 251.3478
338.0997, 245.4268
338.5818, 243.1473
339.0640, 244.5805
339.5461, 245.9532
340.0282, 243.6084
340.5103, 237.1568
340.9924, 232.3717
341.4745, 229.7604
341.9567, 227.9887
342.4388, 227.3930
342.9209, 227.1741
343.4030, 225.6812
343.8851, 221.8966
344.3672, 216.6850
344.8494, 212.9964
345.3315, 211.2679
345.8136, 210.6578
346.2957, 212.9047
346.7778, 215.1030
347.2599, 214.0015
347.7421, 209.1005
348.2242, 203.5233
348.7063, 201.5898
349.1884, 204.1682
349.6705, 205.6691
350.1526, 205.1640
350.6348, 204.1821
351.1169, 203.3172
351.5990, 202.5488
352.0811, 201.6901
352.5632, 200.7869
353.0453, 199.6664
353.5275, 197.4088
354.0096, 193.2080
354.4917, 190.1765
354.9738, 191.4004
355.4559, 194.3373
355.9380, 195.8704
356.4202, 195.1750
356.9023, 193.3526
357.3844, 190.5581
357.8665, 187.1438
358.3486, 185.2966
358.8307, 186.1927
359.3129, 188.1759
359.7950, 188.6075
360.2771, 187.2787
360.7592, 186.4204
361.2413, 186.7173
361.7234, 187.7253
362.2056, 189.6170
362.6877, 192.2450
363.1698, 193.5327
363.6519, 191.2726
364.1340, 185.3358
364.6161, 181.5447
365.0983, 181.1680
365.5804, 181.2198
366.0625, 180.8105
366.5446, 179.9753
367.0267, 179.1860
367.5089, 178.7263
367.9910, 177.8411
368.4731, 174.2273
368.9552, 163.8357
369.4373, 157.7307
369.9194, 159.3716
370.4016, 162.8911
370.8837, 164.5296
371.3658, 163.5575
371.8479, 160.9527
372.3300, 156.8654
372.8121, 151.2165
373.2943, 148.4544
373.7764, 151.2605
374.2585, 153.5574
374.7406, 152.3931
375.2227, 148.9761
375.7048, 145.4227
376.1870, 142.2389
376.6691, 139.9083
377.1512, 139.6507
377.6333, 141.6370
378.1154, 143.2351
378.5975, 143.4462
379.0797, 142.7467
379.5618, 141.7348
380.0439, 140.2184
380.5260, 139.2808
381.0081, 139.8165
381.4902, 141.1739
381.9724, 142.4037
382.4545, 143.3884
382.9366, 143.5935
383.4187, 142.3817
383.9008, 139.5826
384.3829, 136.7760
384.8651, 132.5947
385.3472, 129.6960
385.8293, 130.7043
386.3114, 134.1317
386.7935, 136.1706
387.2756, 134.6759
387.7578, 131.0800
388.2399, 129.7344
388.7220, 133.4603
389.2041, 135.3111
389.6862, 133.1495
390.1683, 130.3688
390.6505, 130.3760
391.1326, 133.2216
391.6147, 135.5402
392.0968, 132.7944
392.5789, 124.6825
393.0610, 121.4815
393.5432, 126.9392
394.0253, 132.5665
394.5074, 135.6988
394.9895, 136.4614
395.4716, 134.7376
395.9537, 129.3175
396.4359, 123.4226
396.9180, 122.6464
397.4001, 127.1347
397.8822, 129.2130
398.3643, 124.5664
398.8464, 118.1552
399.3286, 116.9241
399.8107, 121.5243
400.2928, 125.7985
400.7749, 126.9421
401.2570, 126.6147
401.7391, 127.1344
402.2213, 128.7776
402.7034, 130.4576
403.1855, 131.3667
403.6676, 131.4921
404.1497, 130.9764
404.6318, 129.6428
405.1140, 127.9653
405.5961, 125.0095
406.0782, 122.1025
406.5603, 121.5384
407.0424, 124.1748
407.5245, 128.4754
408.0067, 131.7841
408.4888, 134.3144
408.9709, 135.2578
409.4530, 132.4955
409.9351, 130.1298
410.4172, 131.4171
410.8994, 135.2759
411.3815, 137.6469
411.8636, 134.8181
412.3457, 128.7243
412.8278, 126.2589
413.3099, 128.6507
413.7921, 131.3197
414.2742, 132.7235
414.7563, 133.2572
415.2384, 133.2115
415.7205, 132.5833
416.2026, 131.5600
416.6848, 129.7259
417.1669, 127.5954
417.6490, 126.6094
418.1311, 127.0929
418.6132, 128.6015
419.0953, 131.3427
419.5775, 135.3793
420.0596, 136.9238
420.5417, 133.0049
421.0238, 129.2146
421.5059, 129.8272
421.9880, 133.1784
422.4702, 134.6557
422.9523, 131.8492
423.4344, 126.6494
423.9165, 123.8755
424.3986, 125.4016
424.8807, 126.3658
425.3629, 126.0461
425.8450, 125.6745
426.3271, 126.4540
426.8092, 128.1674
427.2913, 129.2876
427.7734, 127.8225
428.2556, 124.5797
428.7377, 125.2897
429.2198, 132.5828
429.7019, 138.4988
430.1840, 138.4301
430.6661, 135.7872
431.1483, 134.2979
431.6304, 134.8049
432.1125, 136.3573
432.5946, 138.2094
433.0767, 140.4838
433.5588, 143.8965
434.0410, 148.9529
434.5231, 153.9566
435.0052, 156.9347
435.4873, 157.8325
435.9694, 159.2359
436.4515, 160.8259
436.9337, 163.3828
437.4158, 168.3981
437.8979, 174.7519
438.3800, 179.2836
438.8621, 180.3374
439.3442, 179.9975
439.8264, 183.4366
440.3085, 194.4771
440.7906, 202.5317
441.2727, 203.9864
441.7548, 205.6674
442.2369, 212.4635
442.7191, 223.8329
443.2012, 235.7822
443.6833, 245.3728
444.1654, 253.1877
444.6475, 261.5223
445.1296, 270.8732
445.6118, 279.3687
446.0939, 284.4557
446.5760, 289.1598
447.0581, 297.7636
447.5402, 312.0602
448.0223, 323.9674
448.5045, 327.1765
448.9866, 324.6674
449.4687, 322.7714
449.9508, 322.6173
450.4329, 322.0320
450.9150, 319.1891
451.3972, 314.0436
451.8793, 307.8602
452.3614, 298.7278
452.8435, 290.7754
453.3256, 287.3070
453.8077, 285.4969
454.2899, 280.4673
454.7720, 270.5642
455.2541, 258.9937
455.7362, 250.9253
456.2183, 247.6382
456.7004, 243.5225
457.1826, 238.8593
457.6647, 232.9914
458.1468, 223.7578
458.6289, 213.1940
459.1110, 205.7427
459.5931, 204.1765
460.0753, 205.9267
460.5574, 207.2039
461.0395, 208.0109
461.5216, 208.4534
462.0037, 208.7028
462.4858, 208.4251
462.9680, 207.2659
463.4501, 205.2662
463.9322, 202.5030
464.4143, 197.2369
464.8964, 192.4132
465.3785, 191.2723
465.8607, 193.5528
466.3428, 197.1986
466.8249, 201.3894
467.3070, 205.2806
467.7891, 205.6751
468.2712, 198.1683
468.7534, 192.9547
469.2355, 190.3163
469.7176, 190.0808
470.1997, 193.1905
470.6818, 199.0015
471.1639, 204.7594
471.6461, 208.0885
472.1282, 209.2818
472.6103, 209.8415
473.0924, 209.2281
473.5745, 209.2405
474.0566, 211.6293
474.5388, 214.6343
475.0209, 216.2908
475.5030, 216.1618
475.9851, 215.4612
476.4672, 213.9556
476.9493, 212.6181
477.4315, 214.1857
477.9136, 219.1606
478.3957, 223.4432
478.8778, 222.8065
479.3599, 217.6782
479.8420, 217.4052
480.3242, 227.2186
480.8063, 234.8604
481.2884, 235.6423
481.7705, 233.0492
482.2526, 231.4553
482.7347, 232.0282
483.2169, 232.8179
483.6990, 231.4052
484.1811, 227.6230
484.6632, 223.4005
485.1453, 217.4274
485.6274, 212.8998
486.1096, 211.9497
486.5917, 212.9430
487.0738, 213.4232
487.5559, 212.7583
488.0380, 211.1751
488.5201, 207.8619
489.0023, 203.6272
489.4844, 201.9880
489.9665, 204.1719
490.4486, 207.1294
490.9307, 208.2259
491.4128, 207.2920
491.8950, 204.3753
492.3771, 195.4946
492.8592, 188.8739
493.3413, 189.9998
493.8234, 195.2659
494.3055, 198.6144
494.7877, 197.8045
495.2698, 194.9348
495.7519, 193.3638
496.2340, 193.7592
496.7161, 192.4757
497.1982, 187.5713
497.6804, 183.0685
498.1625, 180.5577
498.6446, 179.6611
499.1267, 179.8406
499.6088, 181.5801
500.0909, 182.8682
500.5730, 180.2616
501.0551, 174.7786
501.5373, 172.4273
502.0194, 175.4947
502.5015, 179.7141
502.9836, 180.0818
503.4657, 176.1328
503.9478, 173.9306
504.4300, 173.6854
504.9121, 175.1420
505.3942, 180.6407
505.8763, 187.2051
506.3584, 188.6466
506.8405, 182.5873
507.3227, 174.5947
507.8048, 174.5489
508.2869, 185.1763
508.7690, 192.2351
509.2511, 194.3497
509.7332, 193.9678
510.2154, 190.7984
510.6975, 186.1786
511.1796, 182.5342
511.6617, 180.6243
512.1439, 180.1828
512.6260, 181.6544
513.1081, 184.5423
513.5902, 186.5102
514.0723, 186.8591
514.5544, 186.6621
515.0366, 187.0083
515.5187, 187.9563
516.0008, 188.9876
516.4829, 190.7615
516.9650, 191.9065
517.4471, 191.9274
517.9293, 190.8984
518.4114, 188.5284
518.8935, 184.8070
519.3756, 181.1480
519.8577, 179.9430
520.3398, 181.7273
520.8220, 181.7451
521.3041, 177.7564
521.7862, 175.0379
522.2683, 177.4531
522.7504, 182.3090
523.2325, 185.1688
523.7147, 185.0385
524.1968, 182.2451
524.6789, 175.0953
525.1610, 165.5721
525.6431, 158.5253
526.1252, 154.8829
526.6074, 154.4244
527.0895, 157.7924
527.5716, 165.0437
528.0537, 168.5376
528.5358, 166.4520
529.0179, 163.3690
529.5001, 160.1477
529.9822, 156.6166
530.4643, 151.5601
530.9464, 145.1360
531.4285, 140.3561
531.9106, 141.6045
532.3928, 148.2003
532.8749, 151.5098
533.3570, 150.8170
533.8391, 148.5716
534.3212, 144.8667
534.8033, 140.7304
535.2855, 137.4123
535.7676, 134.6467
536.2497, 133.9434
536.7318, 138.2210
537.2139, 143.8427
537.6960, 145.7235
538.1782, 143.6029
538.6603, 140.3905
539.1424, 137.8203
539.6245, 136.2381
540.1066, 137.5816
540.5887, 146.5697
541.0709, 151.0263
541.5530, 146.7655
542.0351, 140.4256
542.5172, 135.9952
542.9993, 134.0610
543.4814, 133.9646
543.9636, 136.1339
544.4457, 139.3346
544.9278, 140.7320
545.4099, 140.2834
545.8920, 140.9569
546.3741, 144.9259
546.8563, 149.0536
547.3384, 147.6336
547.8205, 139.5078
548.3026, 133.6264
548.7847, 132.7121
549.2668, 132.7772
549.7490, 131.0691
550.2311, 128.3563
550.7132, 126.9988
551.1953, 128.1264
551.6774, 130.0260
552.1595, 129.0228
552.6417, 124.0381
553.1238, 122.3874
553.6059, 127.6046
554.0880, 132.3637
554.5701, 132.0103
555.0522, 128.4995
555.5344, 125.7470
556.0165, 124.0885
556.4986, 117.0246
556.9807, 126.2951
557.4628, 131.3460
557.9449, 132.4043
558.4271, 117.5111
558.9092, 123.2159
559.3913, 120.6659
559.8734, 117.7775
560.3555, 126.3814
560.8376, 113.8084
561.3198, 122.2299
561.8019, 122.2708
562.2840, 126.1474
562.7661, 121.7182
563.2482, 119.8544
563.7303, 126.2991
564.2125, 128.1431
564.6946, 122.7579
565.1767, 120.2733
565.6588, 121.9629
566.1409, 122.7587
566.6230, 121.7009
567.1052, 120.1299
567.5873, 120.7972
568.0694, 124.3031
568.5515, 127.0896
569.0336, 128.8058
569.5157, 129.5333
569.9979, 128.4306
570.4800, 126.4491
570.9621, 125.8330
571.4442, 127.7383
571.9263, 130.6102
572.4084, 131.3750
572.8906, 129.5761
573.3727, 129.1181
573.8548, 131.0116
574.3369, 133.3313
574.8190, 135.0178
575.3011, 136.2344
575.7833, 137.2987
576.2654, 138.0785
576.7475, 139.0455
577.2296, 141.7837
577.7117, 144.4288
578.1938, 142.7161
578.6760, 136.4375
579.1581, 131.1227
579.6402, 131.7233
580.1223, 137.4294
580.6044, 141.7927
581.0865, 144.7837
581.5686, 146.4102
582.0507, 145.9884
582.5328, 144.8961
583.0150, 143.5537
583.4971, 142.3390
583.9792, 142.6198
584.4613, 146.9643
584.9434, 152.1826
585.4255, 153.0463
585.9077, 150.2547
586.3898, 148.0118
586.8719, 147.5843
587.3540, 149.2645
587.8361, 154.0852
588.3182, 163.4750
588.8004, 168.8421
589.2825, 166.4036
589.7646, 164.6058
590.2467, 167.3140
590.7288, 172.0995
591.2109, 175.7790
591.6931, 177.3546
592.1752, 177.4912
592.6573, 175.0561
593.1394, 171.4703
593.6215, 174.5979
594.1036, 186.4023
594.5858, 194.8467
595.0679, 190.9653
595.5500, 181.1488
596.0321, 181.7585
596.5142, 197.3893
596.9963, 209.7940
597.4785, 214.8301
597.9606, 216.9600
598.4427, 217.1161
598.9248, 217.2265
599.4069, 221.5745
599.8890, 232.7232
600.3712, 246.3664
600.8533, 254.7033
601.3354, 257.4419
601.8175, 259.6646
602.2996, 260.3612
602.7817, 263.4276
603.2639, 274.8417
603.7460, 290.6432
604.2281, 300.1037
604.7102, 297.2831
605.1923, 295.7870
605.6744, 302.2969
606.1566, 312.2708
606.6387, 320.1785
607.1208, 325.7338
607.6029, 332.4315
608.0850, 343.2316
608.5671, 356.5870
609.0493, 366.6731
609.5314, 372.0402
610.0135, 379.1030
610.4956, 389.8820
610.9777, 401.8706
611.4598, 412.9723
611.9420, 423.5526
612.4241, 435.1263
612.9062, 449.9518
613.3883, 464.0507
613.8704, 473.1783
614.3525, 480.2081
614.8347, 490.6258
615.3168, 505.5525
615.7989, 521.7153
616.2810, 535.7777
616.7631, 548.0001
617.2452, 561.7612
617.7274, 578.8855
618.2095, 593.9019
618.6916, 603.9481
