##NAMES=Akermanite
##RRUFFID=R061085
##IDEAL CHEMISTRY=Ca_2_MgSi_2_O_7_
##LOCALITY=Kovdor, Kola Peninsula, Russia
##OWNER=Michael Scott
##SOURCE=Michael Scott
##DESCRIPTION=Dark blue coarsely crystalline massive associated with green diopside
##STATUS=The identification of this mineral has been confirmed by X-ray diffraction and chemical analysis
##URL=rruff.info/R061085
##MEASURED CHEMISTRY=(Ca_1.78_Na_0.22_)_Σ=2_(Mg_0.70_Al_0.22_Fe^2+^_0.08_)_Σ=1_Si_2.00_O_7_
119.1542, 207.5527
119.6363, 231.4028
120.1184, 253.7836
120.6006, 272.6283
121.0827, 284.0731
121.5648, 288.1872
122.0469, 293.5602
122.5290, 308.1508
123.0111, 328.2338
123.4933, 346.9342
123.9754, 359.6442
124.4575, 369.7113
124.9396, 381.4059
125.4217, 395.2321
125.9038, 409.7921
126.3860, 419.2115
126.8681, 421.5480
127.3502, 424.4500
127.8323, 437.8272
128.3144, 457.1215
128.7965, 471.0016
129.2787, 477.3034
129.7608, 478.6376
130.2429, 479.1755
130.7250, 478.9196
131.2071, 477.3915
131.6892, 472.0208
132.1714, 463.6081
132.6535, 459.6759
133.1356, 465.0590
133.6177, 476.9782
134.0998, 480.6183
134.5819, 475.1606
135.0641, 464.9417
135.5462, 453.0803
136.0283, 438.7100
136.5104, 430.2700
136.9925, 434.3448
137.4746, 452.6582
137.9568, 462.6208
138.4389, 463.0202
138.9210, 456.4294
139.4031, 447.0793
139.8852, 432.7846
140.3673, 421.2665
140.8495, 417.2061
141.3316, 422.6909
141.8137, 428.7551
142.2958, 435.3336
142.7779, 442.1373
143.2600, 447.0313
143.7422, 449.6116
144.2243, 450.9238
144.7064, 451.4406
145.1885, 449.0471
145.6706, 449.5072
146.1527, 455.5541
146.6349, 468.8236
147.1170, 475.2561
147.5991, 470.0673
148.0812, 460.2942
148.5633, 454.7340
149.0454, 456.6124
149.5276, 459.3803
150.0097, 461.3304
150.4918, 461.8549
150.9739, 462.7461
151.4560, 465.1486
151.9381, 467.8828
152.4202, 468.4123
152.9024, 463.8862
153.3845, 459.1034
153.8666, 456.1179
154.3487, 457.8810
154.8308, 458.0291
155.3129, 453.6221
155.7951, 446.0806
156.2772, 442.3354
156.7593, 449.3131
157.2414, 457.5471
157.7235, 460.5491
158.2056, 451.7668
158.6878, 442.6370
159.1699, 435.1597
159.6520, 429.4483
160.1341, 427.3351
160.6162, 432.9085
161.0983, 441.2569
161.5805, 447.0084
162.0626, 448.0934
162.5447, 446.4622
163.0268, 442.1975
163.5089, 434.6618
163.9910, 428.1136
164.4732, 424.8376
164.9553, 423.8751
165.4374, 423.5687
165.9195, 422.7527
166.4016, 422.5463
166.8837, 424.0729
167.3659, 428.3048
167.8480, 432.4023
168.3301, 434.5756
168.8122, 435.1111
169.2943, 434.8959
169.7764, 433.9766
170.2586, 432.7347
170.7407, 431.6014
171.2228, 430.9144
171.7049, 430.0754
172.1870, 427.6447
172.6691, 423.9800
173.1513, 421.9489
173.6334, 424.6925
174.1155, 430.2737
174.5976, 435.4256
175.0797, 438.6714
175.5618, 441.1280
176.0440, 444.4658
176.5261, 448.6919
177.0082, 452.1984
177.4903, 451.8385
177.9724, 449.3596
178.4545, 449.4555
178.9367, 457.9220
179.4188, 469.3185
179.9009, 472.8347
180.3830, 466.8361
180.8651, 459.8274
181.3472, 462.3442
181.8293, 472.7850
182.3115, 483.8029
182.7936, 492.2712
183.2757, 498.3024
183.7578, 502.2174
184.2399, 503.4466
184.7220, 503.8411
185.2042, 505.6653
185.6863, 508.9394
186.1684, 513.9579
186.6505, 521.9584
187.1326, 532.1931
187.6147, 541.1077
188.0969, 547.7162
188.5790, 553.2781
189.0611, 561.6388
189.5432, 572.9806
190.0253, 582.8608
190.5074, 586.9951
190.9896, 585.8192
191.4717, 584.5170
191.9538, 583.5894
192.4359, 583.5701
192.9180, 586.8627
193.4001, 593.9154
193.8823, 601.7416
194.3644, 607.2348
194.8465, 610.4066
195.3286, 613.0859
195.8107, 615.0853
196.2928, 616.8149
196.7750, 622.3329
197.2571, 632.8176
197.7392, 643.7148
198.2213, 648.0967
198.7034, 644.9135
199.1855, 643.7132
199.6677, 649.1492
200.1498, 661.2198
200.6319, 669.7328
201.1140, 673.8062
201.5961, 675.7485
202.0782, 679.4266
202.5604, 685.2206
203.0425, 690.8703
203.5246, 694.4863
204.0067, 695.4584
204.4888, 700.0592
204.9709, 709.7847
205.4531, 722.0273
205.9352, 730.0779
206.4173, 732.6112
206.8994, 735.3425
207.3815, 741.8922
207.8636, 753.3539
208.3457, 762.8331
208.8279, 768.9736
209.3100, 773.1889
209.7921, 780.6539
210.2742, 793.0212
210.7563, 805.0888
211.2384, 812.9450
211.7206, 815.0871
212.2027, 818.6556
212.6848, 823.9289
213.1669, 831.1567
213.6490, 843.1519
214.1311, 862.9305
214.6133, 882.3564
215.0954, 894.0798
215.5775, 894.8691
216.0596, 897.3745
216.5417, 903.9218
217.0238, 914.1912
217.5060, 924.6686
217.9881, 937.1470
218.4702, 947.4907
218.9523, 950.8038
219.4344, 942.6558
219.9165, 938.0648
220.3987, 940.9847
220.8808, 951.6876
221.3629, 960.9824
221.8450, 968.9816
222.3271, 975.3777
222.8092, 979.5646
223.2914, 980.6300
223.7735, 981.2972
224.2556, 982.8249
224.7377, 985.8418
225.2198, 984.6324
225.7020, 977.4724
226.1841, 967.3294
226.6662, 958.3596
227.1483, 951.0746
227.6304, 943.8429
228.1125, 936.3120
228.5947, 928.8621
229.0768, 919.2610
229.5589, 905.3345
230.0410, 890.5195
230.5231, 880.8149
231.0052, 879.6617
231.4874, 878.2213
231.9695, 873.4445
232.4516, 864.1689
232.9337, 855.3159
233.4158, 848.7336
233.8979, 841.8355
234.3800, 828.3866
234.8622, 802.4858
235.3443, 778.9995
235.8264, 764.5090
236.3085, 764.1921
236.7906, 760.4101
237.2727, 751.4408
237.7549, 739.4231
238.2370, 730.0029
238.7191, 724.0880
239.2012, 719.3269
239.6833, 715.3603
240.1654, 715.1931
240.6476, 708.7245
241.1297, 691.8252
241.6118, 668.7123
242.0939, 654.5814
242.5760, 655.8822
243.0581, 657.3921
243.5403, 650.5143
244.0224, 629.5787
244.5045, 612.6696
244.9866, 601.1273
245.4687, 594.3091
245.9508, 589.4879
246.4330, 586.8304
246.9151, 585.9634
247.3972, 587.3837
247.8793, 594.1811
248.3614, 596.2911
248.8435, 590.7847
249.3257, 579.5385
249.8078, 572.5862
250.2899, 571.7183
250.7720, 572.7844
251.2541, 573.1424
251.7362, 572.4141
252.2184, 571.7731
252.7005, 571.4540
253.1826, 571.3423
253.6647, 570.3924
254.1468, 567.3514
254.6289, 565.1581
255.1111, 566.4287
255.5932, 573.5195
256.0753, 578.8255
256.5574, 582.1730
257.0395, 583.2737
257.5216, 578.4405
258.0038, 562.9014
258.4859, 548.1945
258.9680, 544.6671
259.4501, 557.9771
259.9322, 567.6579
260.4143, 569.1880
260.8965, 563.8007
261.3786, 565.2106
261.8607, 577.6174
262.3428, 590.3431
262.8249, 593.4055
263.3070, 582.2042
263.7892, 575.0779
264.2713, 576.6342
264.7534, 585.7542
265.2355, 590.2914
265.7176, 588.4710
266.1997, 585.2195
266.6819, 584.5541
267.1640, 586.5997
267.6461, 591.1707
268.1282, 599.7562
268.6103, 611.5150
269.0924, 617.2354
269.5746, 614.9231
270.0567, 610.5577
270.5388, 610.2095
271.0209, 615.1838
271.5030, 618.1963
271.9851, 616.5391
272.4673, 611.1741
272.9494, 610.1256
273.4315, 613.2276
273.9136, 620.9940
274.3957, 636.6831
274.8778, 662.5250
275.3599, 682.2441
275.8420, 691.3025
276.3242, 691.0329
276.8063, 689.4561
277.2884, 685.5917
277.7705, 683.3995
278.2526, 687.5408
278.7347, 698.5687
279.2169, 709.8417
279.6990, 720.1884
280.1811, 729.4531
280.6632, 737.0618
281.1453, 742.4737
281.6274, 748.1146
282.1096, 756.5239
282.5917, 767.7337
283.0738, 779.3939
283.5559, 791.1571
284.0380, 802.9155
284.5201, 813.6935
285.0023, 823.3420
285.4844, 833.1650
285.9665, 843.8179
286.4486, 855.3162
286.9307, 869.5295
287.4128, 887.8749
287.8950, 908.9550
288.3771, 927.8250
288.8592, 944.4161
289.3413, 961.0123
289.8234, 981.3597
290.3055, 1004.285
290.7877, 1023.027
291.2698, 1033.572
291.7519, 1040.368
292.2340, 1054.799
292.7161, 1076.738
293.1982, 1100.080
293.6804, 1119.601
294.1625, 1136.129
294.6446, 1152.138
295.1267, 1167.216
295.6088, 1183.231
296.0909, 1204.189
296.5731, 1229.792
297.0552, 1256.641
297.5373, 1281.782
298.0194, 1305.806
298.5015, 1330.163
298.9836, 1355.578
299.4658, 1380.810
299.9479, 1402.894
300.4300, 1422.199
300.9121, 1441.860
301.3942, 1465.413
301.8763, 1491.001
302.3585, 1514.867
302.8406, 1536.176
303.3227, 1555.737
303.8048, 1574.155
304.2869, 1591.487
304.7690, 1609.267
305.2512, 1633.174
305.7333, 1656.755
306.2154, 1670.952
306.6975, 1669.062
307.1796, 1664.161
307.6617, 1667.273
308.1439, 1676.938
308.6260, 1688.001
309.1081, 1704.184
309.5902, 1717.078
310.0723, 1717.106
310.5544, 1696.342
311.0366, 1673.161
311.5187, 1661.071
312.0008, 1656.380
312.4829, 1648.034
312.9650, 1627.506
313.4471, 1602.951
313.9293, 1581.607
314.4114, 1568.162
314.8935, 1550.569
315.3756, 1520.018
315.8577, 1480.710
316.3398, 1443.429
316.8220, 1412.823
317.3041, 1384.699
317.7862, 1357.203
318.2683, 1331.033
318.7504, 1302.863
319.2325, 1268.281
319.7147, 1231.436
320.1968, 1199.042
320.6789, 1176.092
321.1610, 1156.190
321.6431, 1138.213
322.1252, 1124.784
322.6074, 1104.796
323.0895, 1067.927
323.5716, 1025.002
324.0537, 991.8339
324.5358, 983.6990
325.0179, 974.6343
325.5001, 956.3372
325.9822, 925.2375
326.4643, 896.3831
326.9464, 870.9861
327.4285, 848.0602
327.9106, 826.2835
328.3928, 805.0267
328.8749, 785.9475
329.3570, 770.2950
329.8391, 759.0794
330.3212, 744.6177
330.8033, 723.4885
331.2854, 701.5053
331.7675, 684.4403
332.2497, 675.7458
332.7318, 666.3367
333.2139, 654.5572
333.6960, 640.3752
334.1781, 625.4982
334.6602, 608.1093
335.1424, 592.2336
335.6245, 581.9494
336.1066, 579.8648
336.5887, 576.1250
337.0708, 568.7825
337.5529, 558.3854
338.0351, 547.5663
338.5172, 535.4109
338.9993, 524.8663
339.4814, 518.7050
339.9635, 517.6411
340.4456, 516.4401
340.9278, 515.1518
341.4099, 512.7820
341.8920, 505.2406
342.3741, 491.5812
342.8562, 478.1982
343.3383, 468.5663
343.8205, 462.7551
344.3026, 461.5428
344.7847, 466.7118
345.2668, 473.7123
345.7489, 473.0227
346.2310, 464.9446
346.7132, 456.2716
347.1953, 451.6140
347.6774, 449.7572
348.1595, 446.2712
348.6416, 440.4998
349.1237, 434.2985
349.6059, 429.8734
350.0880, 427.0356
350.5701, 424.8428
351.0522, 422.6524
351.5343, 420.8378
352.0164, 420.1671
352.4986, 420.7778
352.9807, 421.7850
353.4628, 423.3998
353.9449, 424.7967
354.4270, 424.2440
354.9091, 418.3492
355.3913, 411.7489
355.8734, 409.1146
356.3555, 410.6311
356.8376, 412.6775
357.3197, 412.7103
357.8018, 411.9247
358.2840, 411.8175
358.7661, 415.3091
359.2482, 417.5877
359.7303, 415.3057
360.2124, 408.8753
360.6945, 402.4117
361.1767, 397.3989
361.6588, 393.2059
362.1409, 389.3198
362.6230, 384.4841
363.1051, 381.2508
363.5872, 381.5278
364.0694, 384.3701
364.5515, 385.9095
365.0336, 386.3991
365.5157, 384.5865
365.9978, 379.7058
366.4799, 369.8460
366.9621, 359.6583
367.4442, 348.3012
367.9263, 336.7892
368.4084, 327.6128
368.8905, 321.5138
369.3727, 317.0918
369.8548, 314.3146
370.3369, 314.2103
370.8190, 312.7610
371.3011, 310.0496
371.7832, 305.9444
372.2654, 299.8098
372.7475, 289.8981
373.2296, 281.3901
373.7117, 275.9979
374.1938, 273.9519
374.6759, 271.2624
375.1581, 267.6165
375.6402, 263.8240
376.1223, 261.1625
376.6044, 260.1058
377.0865, 257.5235
377.5686, 251.9512
378.0508, 244.3591
378.5329, 240.2271
379.0150, 240.1070
379.4971, 240.4021
379.9792, 237.5984
380.4613, 232.0087
380.9435, 227.8214
381.4256, 226.0706
381.9077, 225.6043
382.3898, 224.1414
382.8719, 221.7431
383.3540, 219.5708
383.8362, 218.2651
384.3183, 217.7324
384.8004, 218.0999
385.2825, 219.7772
385.7646, 220.9375
386.2467, 218.7214
386.7288, 214.1522
387.2109, 210.2419
387.6931, 208.6648
388.1752, 208.4554
388.6573, 209.3546
389.1394, 211.5166
389.6215, 212.1471
390.1036, 206.8015
390.5858, 199.2741
391.0679, 194.8850
391.5500, 199.1594
392.0321, 204.1307
392.5142, 204.4217
392.9963, 200.4064
393.4785, 198.2113
393.9606, 203.6663
394.4427, 210.0427
394.9248, 212.0622
395.4069, 201.9012
395.8890, 194.6732
396.3712, 196.1849
396.8533, 203.8563
397.3354, 208.0449
397.8175, 203.1172
398.2996, 197.9111
398.7817, 196.4926
399.2639, 202.4354
399.7460, 205.7914
400.2281, 204.6110
400.7102, 201.4218
401.1923, 200.9144
401.6744, 205.3232
402.1566, 208.9523
402.6387, 210.0970
403.1208, 208.5600
403.6029, 205.7791
404.0850, 200.6892
404.5671, 195.8197
405.0493, 194.5272
405.5314, 197.7796
406.0135, 199.8858
406.4956, 199.0542
406.9777, 196.1166
407.4598, 195.0286
407.9420, 195.9771
408.4241, 197.7382
408.9062, 199.2676
409.3883, 200.6797
409.8704, 203.1503
410.3525, 207.4870
410.8347, 211.7821
411.3168, 212.2836
411.7989, 209.3913
412.2810, 206.2423
412.7631, 204.0279
413.2452, 202.8816
413.7274, 203.6063
414.2095, 206.6374
414.6916, 209.3089
415.1737, 208.7649
415.6558, 206.1324
416.1379, 203.6900
416.6201, 201.7363
417.1022, 200.7857
417.5843, 201.5440
418.0664, 203.9581
418.5485, 206.5826
419.0306, 209.6522
419.5128, 212.1182
419.9949, 212.9871
420.4770, 210.3779
420.9591, 207.9482
421.4412, 206.9998
421.9233, 207.1290
422.4055, 206.7702
422.8876, 204.9968
423.3697, 203.1642
423.8518, 201.8009
424.3339, 200.8157
424.8160, 200.6696
425.2982, 202.7646
425.7803, 205.2242
426.2624, 204.8921
426.7445, 199.4925
427.2266, 194.8242
427.7087, 192.3766
428.1909, 192.2097
428.6730, 192.9538
429.1551, 194.5372
429.6372, 197.1419
430.1193, 201.6063
430.6014, 208.4668
431.0836, 213.4212
431.5657, 215.0579
432.0478, 214.6866
432.5299, 216.1448
433.0120, 219.5021
433.4941, 223.7841
433.9763, 228.4317
434.4584, 233.4731
434.9405, 239.3200
435.4226, 246.2977
435.9047, 253.0638
436.3868, 257.1319
436.8690, 259.3615
437.3511, 262.4237
437.8332, 267.7548
438.3153, 274.5078
438.7974, 281.9296
439.2795, 289.9939
439.7616, 298.2823
440.2437, 305.8462
440.7259, 313.6359
441.2080, 322.7581
441.6901, 335.1148
442.1722, 347.1176
442.6543, 357.1857
443.1364, 365.5588
443.6186, 373.1636
444.1007, 377.1676
444.5828, 382.6840
445.0649, 392.9126
445.5470, 411.3870
446.0291, 427.4702
446.5113, 438.6597
446.9934, 447.0935
447.4755, 455.9939
447.9576, 468.9309
448.4397, 477.6255
448.9218, 479.3232
449.4040, 473.8395
449.8861, 470.3215
450.3682, 471.1725
450.8503, 470.3868
451.3324, 461.4305
451.8145, 441.8939
452.2967, 426.9285
452.7788, 419.2962
453.2609, 416.4356
453.7430, 412.0997
454.2251, 406.2718
454.7072, 399.9528
455.1894, 393.8782
455.6715, 387.8587
456.1536, 380.7077
456.6357, 372.2439
457.1178, 364.2780
457.5999, 359.9048
458.0821, 357.8138
458.5642, 354.5438
459.0463, 346.4493
459.5284, 338.2636
460.0105, 335.4607
460.4926, 337.5106
460.9748, 341.3085
461.4569, 347.9229
461.9390, 353.9047
462.4211, 355.8250
462.9032, 351.3553
463.3853, 346.0435
463.8675, 340.3850
464.3496, 335.5856
464.8317, 334.0480
465.3138, 338.9339
465.7959, 344.7683
466.2780, 350.2874
466.7602, 355.7454
467.2423, 358.8231
467.7244, 357.8997
468.2065, 355.7823
468.6886, 354.8160
469.1707, 356.3201
469.6529, 356.0903
470.1350, 352.0601
470.6171, 346.2424
471.0992, 346.9362
471.5813, 356.2208
472.0634, 365.4967
472.5456, 369.7728
473.0277, 369.0928
473.5098, 370.3515
473.9919, 374.1893
474.4740, 378.1959
474.9561, 378.3650
475.4383, 375.4691
475.9204, 374.1751
476.4025, 376.7402
476.8846, 381.4128
477.3667, 385.9460
477.8488, 390.2144
478.3310, 393.4977
478.8131, 394.4116
479.2952, 394.4074
479.7773, 395.3115
480.2594, 397.7982
480.7415, 400.2859
481.2237, 401.8297
481.7058, 402.7340
482.1879, 403.5302
482.6700, 404.9116
483.1521, 405.7415
483.6342, 405.6286
484.1164, 404.5535
484.5985, 402.5040
485.0806, 400.1925
485.5627, 396.4236
486.0448, 390.1323
486.5269, 375.6896
487.0091, 367.9237
487.4912, 371.0930
487.9733, 380.2620
488.4554, 382.2529
488.9375, 374.5046
489.4196, 366.3144
489.9018, 361.6177
490.3839, 360.3796
490.8660, 358.2705
491.3481, 355.1007
491.8302, 351.8070
492.3123, 348.9208
492.7945, 346.5976
493.2766, 345.9546
493.7587, 347.9472
494.2408, 350.8318
494.7229, 352.3019
495.2050, 352.3269
495.6871, 350.6954
496.1693, 344.6960
496.6514, 338.2766
497.1335, 336.9075
497.6156, 341.9824
498.0977, 345.7575
498.5798, 341.3566
499.0620, 333.6023
499.5441, 328.3318
500.0262, 328.7086
500.5083, 330.4151
500.9904, 333.1491
501.4725, 336.4755
501.9547, 338.1373
502.4368, 334.6803
502.9189, 332.1071
503.4010, 333.5946
503.8831, 342.3269
504.3652, 346.4828
504.8474, 343.7723
505.3295, 338.4648
505.8116, 336.1782
506.2937, 337.5914
506.7758, 339.5831
507.2579, 341.1249
507.7401, 342.7162
508.2222, 347.6918
508.7043, 356.5024
509.1864, 363.7472
509.6685, 363.7544
510.1506, 358.8307
510.6328, 357.3381
511.1149, 360.6496
511.5970, 365.2576
512.0791, 368.2202
512.5612, 369.6224
513.0433, 369.5621
513.5255, 366.0867
514.0076, 362.7025
514.4897, 362.0878
514.9718, 364.0658
515.4539, 367.1560
515.9360, 373.1905
516.4182, 378.4070
516.9003, 380.0466
517.3824, 375.6187
517.8645, 371.9686
518.3466, 370.0319
518.8287, 369.5155
519.3109, 370.0964
519.7930, 374.1775
520.2751, 375.8083
520.7572, 373.2133
521.2393, 366.7990
521.7214, 360.6533
522.2036, 354.5388
522.6857, 349.2655
523.1678, 345.7147
523.6499, 343.9217
524.1320, 342.1242
524.6141, 340.4297
525.0963, 338.0562
525.5784, 333.8287
526.0605, 327.8618
526.5426, 320.8515
527.0247, 312.5194
527.5068, 303.6652
527.9890, 294.7802
528.4711, 286.0918
528.9532, 279.4320
529.4353, 278.1988
529.9174, 278.3912
530.3995, 276.1815
530.8817, 270.2292
531.3638, 264.0651
531.8459, 258.1022
532.3280, 252.9488
532.8101, 249.4887
533.2922, 249.6878
533.7744, 249.6004
534.2565, 247.9147
534.7386, 244.9117
535.2207, 243.3068
535.7028, 244.0932
536.1849, 244.8075
536.6671, 244.0684
537.1492, 241.5054
537.6313, 239.1967
538.1134, 237.1017
538.5955, 235.3108
539.0776, 234.0179
539.5598, 233.2023
540.0419, 232.5311
540.5240, 232.2101
541.0061, 231.6921
541.4882, 229.2761
541.9703, 225.3561
542.4525, 222.3368
542.9346, 222.8440
543.4167, 224.6530
543.8988, 225.2094
544.3809, 224.1077
544.8630, 222.7467
545.3452, 220.3038
545.8273, 218.6801
546.3094, 219.9962
546.7915, 231.0071
547.2736, 238.1398
547.7557, 235.5212
548.2379, 225.8308
548.7200, 220.7298
549.2021, 225.0651
549.6842, 228.5152
550.1663, 226.7387
550.6484, 218.6788
551.1306, 214.0591
551.6127, 213.6370
552.0948, 215.1693
552.5769, 216.6637
553.0590, 218.1131
553.5411, 219.9122
554.0233, 222.6293
554.5054, 224.8502
554.9875, 222.9237
555.4696, 217.7241
555.9517, 213.7090
556.4338, 214.5313
556.9160, 217.1443
557.3981, 218.0366
557.8802, 217.1555
558.3623, 215.5704
558.8444, 213.2872
559.3265, 210.9545
559.8087, 209.0705
560.2908, 207.5844
560.7729, 206.8572
561.2550, 207.4329
561.7371, 208.7393
562.2192, 209.8055
562.7014, 210.1644
563.1835, 210.7427
563.6656, 211.1463
564.1477, 211.6301
564.6298, 216.0004
565.1119, 226.9043
565.5941, 235.2580
566.0762, 232.8709
566.5583, 219.9733
567.0404, 213.8627
567.5225, 216.2537
568.0046, 221.8632
568.4868, 224.0920
568.9689, 224.0577
569.4510, 225.6100
569.9331, 231.2360
570.4152, 237.3662
570.8973, 239.7907
571.3795, 239.4901
571.8616, 239.7939
572.3437, 243.2303
572.8258, 247.1677
573.3079, 249.7964
573.7900, 250.7996
574.2722, 252.0615
574.7543, 254.3737
575.2364, 256.9113
575.7185, 259.0212
576.2006, 260.7131
576.6827, 261.8958
577.1648, 262.0475
577.6469, 261.9854
578.1290, 263.5106
578.6111, 266.9212
579.0933, 270.6387
579.5754, 274.4958
580.0575, 278.2318
580.5396, 280.7614
581.0217, 282.0794
581.5038, 282.6231
581.9860, 281.0040
582.4681, 279.2050
582.9502, 282.1873
583.4323, 291.5517
583.9144, 299.6263
584.3965, 296.7000
584.8787, 289.9055
585.3608, 289.0557
585.8429, 305.1032
586.3250, 319.5818
586.8071, 325.6233
587.2892, 325.0491
587.7714, 324.4237
588.2535, 323.0771
588.7356, 323.3314
589.2177, 326.0198
589.6998, 331.3062
590.1819, 337.5598
590.6641, 344.8415
591.1462, 353.0464
591.6283, 362.6776
592.1104, 373.7759
592.5925, 383.0540
593.0746, 389.7413
593.5568, 395.5995
594.0389, 403.0757
594.5210, 411.9072
595.0031, 420.8647
595.4852, 429.3494
595.9673, 437.8906
596.4495, 445.6922
596.9316, 453.5949
597.4137, 465.1024
597.8958, 486.7957
598.3779, 509.0964
598.8600, 525.6871
599.3422, 534.3700
599.8243, 543.8795
600.3064, 555.5591
600.7885, 568.6479
601.2706, 582.6238
601.7527, 598.4015
602.2349, 612.5975
602.7170, 623.0726
603.1991, 633.3594
603.6812, 652.9118
604.1633, 683.0905
604.6454, 707.1169
605.1276, 714.2524
605.6097, 712.5266
606.0918, 724.1300
606.5739, 748.2303
607.0560, 774.1514
607.5381, 795.2693
608.0203, 813.7990
608.5024, 832.8901
608.9845, 852.9991
609.4666, 872.2613
609.9487, 886.0745
610.4308, 900.2680
610.9130, 920.4218
611.3951, 957.1353
611.8772, 988.9053
612.3593, 1009.015
612.8414, 1023.215
613.3235, 1042.601
613.8057, 1068.291
614.2878, 1097.115
