##NAMES=Akermanite
##RRUFFID=R061100
##IDEAL CHEMISTRY=Ca_2_MgSi_2_O_7_
##LOCALITY=Lago de Vico, Viterbo, Italy
##OWNER=Michael Scott
##SOURCE=Michael Scott
##DESCRIPTION=Colorless to white short prismatic crystals
##STATUS=The identification of this mineral has been confirmed by X-ray diffraction and chemical analysis
##URL=rruff.info/R061100
##MEASURED CHEMISTRY=(Ca_1.80_Na_0.20_)_Σ=2_(Mg_0.58_Al_0.38_Fe_0.04_)_Σ=1_(Si_1.82_Al_0.18_)_Σ=2_O_7_
173.2159, 6157.927
173.6980, 6099.919
174.1801, 6102.662
174.6622, 6115.787
175.1443, 6107.419
175.6264, 6075.913
176.1085, 6043.301
176.5907, 6034.463
177.0728, 6052.369
177.5549, 6061.350
178.0370, 6045.179
178.5191, 6027.048
179.0012, 6022.822
179.4834, 6032.408
179.9655, 6039.641
180.4476, 6022.828
180.9297, 5976.712
181.4118, 5945.726
181.8939, 5945.841
182.3761, 5955.256
182.8582, 5967.473
183.3403, 5980.569
183.8224, 5991.439
184.3045, 5995.619
184.7866, 5991.780
185.2688, 5990.340
185.7509, 6001.783
186.2330, 6008.641
186.7151, 5996.041
187.1972, 5965.978
187.6793, 5938.905
188.1615, 5941.374
188.6436, 5981.565
189.1257, 6004.024
189.6078, 5983.726
190.0899, 5961.606
190.5720, 5957.740
191.0542, 5972.153
191.5363, 5990.300
192.0184, 5993.636
192.5005, 5977.005
192.9826, 5976.994
193.4647, 6018.019
193.9469, 6057.863
194.4290, 6073.726
194.9111, 6067.894
195.3932, 6061.946
195.8753, 6081.187
196.3574, 6131.948
196.8396, 6168.349
197.3217, 6180.353
197.8038, 6185.219
198.2859, 6185.744
198.7680, 6184.149
199.2501, 6184.677
199.7323, 6192.226
200.2144, 6207.808
200.6965, 6221.757
201.1786, 6233.927
201.6607, 6244.346
202.1428, 6252.846
202.6250, 6259.417
203.1071, 6264.015
203.5892, 6264.808
204.0713, 6260.983
204.5534, 6264.832
205.0355, 6288.629
205.5177, 6309.006
205.9998, 6315.182
206.4819, 6310.300
206.9640, 6304.411
207.4461, 6305.400
207.9282, 6313.214
208.4104, 6321.878
208.8925, 6329.985
209.3746, 6340.473
209.8567, 6357.028
210.3388, 6376.801
210.8209, 6393.544
211.3030, 6401.459
211.7852, 6401.437
212.2673, 6406.207
212.7494, 6418.027
213.2315, 6432.650
213.7136, 6451.718
214.1957, 6472.323
214.6779, 6488.916
215.1600, 6496.192
215.6421, 6496.591
216.1242, 6505.684
216.6063, 6531.185
217.0884, 6555.799
217.5706, 6569.773
218.0527, 6580.497
218.5348, 6601.358
219.0169, 6643.996
219.4990, 6699.133
219.9811, 6728.382
220.4633, 6711.098
220.9454, 6699.927
221.4275, 6713.946
221.9096, 6740.646
222.3917, 6763.743
222.8738, 6774.730
223.3560, 6778.752
223.8381, 6791.283
224.3202, 6822.361
224.8023, 6841.413
225.2844, 6835.797
225.7665, 6817.646
226.2487, 6798.799
226.7308, 6783.824
227.2129, 6770.366
227.6950, 6753.775
228.1771, 6732.461
228.6592, 6711.946
229.1414, 6696.050
229.6235, 6680.277
230.1056, 6659.505
230.5877, 6631.773
231.0698, 6603.152
231.5519, 6584.394
232.0341, 6579.851
232.5162, 6568.370
232.9983, 6536.885
233.4804, 6501.929
233.9625, 6475.618
234.4446, 6460.623
234.9268, 6447.091
235.4089, 6419.602
235.8910, 6374.906
236.3731, 6345.741
236.8552, 6356.702
237.3373, 6371.800
237.8195, 6366.942
238.3016, 6340.433
238.7837, 6308.699
239.2658, 6284.794
239.7479, 6268.540
240.2300, 6256.023
240.7122, 6250.385
241.1943, 6244.803
241.6764, 6235.206
242.1585, 6221.634
242.6406, 6205.659
243.1227, 6187.377
243.6049, 6167.266
244.0870, 6148.663
244.5691, 6135.236
245.0512, 6117.926
245.5333, 6086.970
246.0154, 6046.492
246.4975, 6011.020
246.9797, 5988.792
247.4618, 5976.730
247.9439, 5967.435
248.4260, 5961.231
248.9081, 5956.445
249.3902, 5951.484
249.8724, 5946.951
250.3545, 5944.548
250.8366, 5949.452
251.3187, 5954.814
251.8008, 5946.983
252.2829, 5922.944
252.7651, 5902.345
253.2472, 5904.547
253.7293, 5917.042
254.2114, 5916.467
254.6935, 5887.408
255.1756, 5854.660
255.6578, 5844.659
256.1399, 5857.090
256.6220, 5872.008
257.1041, 5882.831
257.5862, 5888.201
258.0684, 5886.110
258.5505, 5870.475
259.0326, 5857.507
259.5147, 5863.292
259.9968, 5882.781
260.4789, 5893.294
260.9611, 5885.051
261.4432, 5864.721
261.9253, 5844.439
262.4074, 5823.719
262.8895, 5804.780
263.3716, 5789.028
263.8537, 5775.711
264.3358, 5763.019
264.8180, 5750.380
265.3001, 5738.612
265.7822, 5728.615
266.2643, 5719.626
266.7464, 5714.774
267.2285, 5720.604
267.7107, 5728.177
268.1928, 5725.494
268.6749, 5710.313
269.1570, 5691.521
269.6391, 5678.125
270.1212, 5670.992
270.6034, 5667.069
271.0855, 5669.345
271.5676, 5672.466
272.0497, 5673.717
272.5318, 5672.398
273.0139, 5666.563
273.4961, 5652.894
273.9782, 5631.201
274.4603, 5621.197
274.9424, 5629.642
275.4245, 5641.051
275.9066, 5648.584
276.3888, 5653.831
276.8709, 5662.855
277.3530, 5680.414
277.8351, 5703.511
278.3172, 5714.335
278.7993, 5704.063
279.2815, 5692.347
279.7636, 5679.613
280.2457, 5668.042
280.7278, 5660.442
281.2099, 5658.052
281.6920, 5659.186
282.1742, 5660.049
282.6563, 5661.771
283.1384, 5661.402
283.6205, 5658.106
284.1026, 5653.411
284.5847, 5648.234
285.0669, 5642.964
285.5490, 5637.777
286.0311, 5631.922
286.5132, 5622.231
286.9953, 5621.576
287.4774, 5642.365
287.9596, 5661.108
288.4417, 5661.860
288.9238, 5647.486
289.4059, 5634.537
289.8880, 5640.712
290.3701, 5666.311
290.8523, 5676.472
291.3344, 5650.242
291.8165, 5631.440
292.2986, 5642.229
292.7807, 5670.857
293.2628, 5693.899
293.7450, 5695.748
294.2271, 5683.802
294.7092, 5682.373
295.1913, 5698.228
295.6734, 5709.417
296.1555, 5703.022
296.6377, 5689.655
297.1198, 5680.603
297.6019, 5679.287
298.0840, 5683.518
298.5661, 5693.641
299.0482, 5710.854
299.5304, 5720.577
300.0125, 5713.583
300.4946, 5700.311
300.9767, 5690.087
301.4588, 5683.589
301.9409, 5680.864
302.4231, 5684.753
302.9052, 5693.188
303.3873, 5696.655
303.8694, 5690.585
304.3515, 5684.296
304.8336, 5690.164
305.3158, 5706.784
305.7979, 5719.590
306.2800, 5719.515
306.7621, 5714.868
307.2442, 5717.238
307.7263, 5727.977
308.2085, 5741.631
308.6906, 5754.680
309.1727, 5767.018
309.6548, 5778.410
310.1369, 5797.558
310.6190, 5808.117
311.1012, 5789.480
311.5833, 5750.368
312.0654, 5724.563
312.5475, 5732.929
313.0296, 5766.471
313.5117, 5788.386
313.9939, 5796.800
314.4760, 5798.217
314.9581, 5787.850
315.4402, 5772.998
315.9223, 5764.555
316.4044, 5766.222
316.8866, 5771.821
317.3687, 5770.683
317.8508, 5758.144
318.3329, 5747.462
318.8150, 5729.550
319.2971, 5719.845
319.7793, 5736.802
320.2614, 5776.875
320.7435, 5815.291
321.2256, 5826.084
321.7077, 5806.237
322.1898, 5791.890
322.6720, 5782.216
323.1541, 5779.068
323.6362, 5789.605
324.1183, 5806.622
324.6004, 5816.593
325.0826, 5810.056
325.5647, 5793.212
326.0468, 5787.604
326.5289, 5797.856
327.0110, 5811.190
327.4931, 5828.981
327.9753, 5845.841
328.4574, 5856.991
328.9395, 5861.129
329.4216, 5858.790
329.9037, 5848.421
330.3858, 5829.361
330.8680, 5811.894
331.3501, 5790.112
331.8322, 5778.924
332.3143, 5796.947
332.7964, 5841.478
333.2785, 5877.616
333.7606, 5877.918
334.2427, 5855.117
334.7249, 5842.782
335.2070, 5846.049
335.6891, 5851.260
336.1712, 5847.513
336.6533, 5837.152
337.1354, 5826.997
337.6176, 5817.006
338.0997, 5808.511
338.5818, 5800.302
339.0639, 5793.403
339.5460, 5796.847
340.0281, 5820.215
340.5103, 5852.646
340.9924, 5859.694
341.4745, 5820.472
341.9566, 5794.026
342.4387, 5809.354
342.9208, 5842.496
343.4030, 5857.463
343.8851, 5844.281
344.3672, 5822.395
344.8493, 5819.878
345.3314, 5846.969
345.8135, 5863.967
346.2957, 5865.304
346.7778, 5862.304
347.2599, 5862.444
347.7420, 5864.941
348.2241, 5863.456
348.7062, 5851.772
349.1884, 5831.291
349.6705, 5822.229
350.1526, 5841.720
350.6347, 5853.226
351.1168, 5842.647
351.5989, 5823.063
352.0811, 5812.546
352.5632, 5818.913
353.0453, 5830.938
353.5274, 5825.674
354.0095, 5795.299
354.4916, 5776.539
354.9738, 5790.733
355.4559, 5808.178
355.9380, 5810.295
356.4201, 5796.469
356.9022, 5780.074
357.3843, 5773.356
357.8665, 5773.053
358.3486, 5765.000
358.8307, 5747.750
359.3128, 5723.826
359.7949, 5685.193
360.2770, 5640.837
360.7592, 5611.826
361.2413, 5608.967
361.7234, 5619.238
362.2055, 5635.491
362.6876, 5656.394
363.1697, 5670.296
363.6519, 5671.173
364.1340, 5662.485
364.6161, 5651.729
365.0982, 5636.675
365.5803, 5624.806
366.0624, 5612.312
366.5446, 5606.615
367.0267, 5627.588
367.5088, 5677.462
367.9909, 5719.832
368.4730, 5708.793
368.9551, 5628.625
369.4373, 5574.871
369.9194, 5551.356
370.4015, 5546.255
370.8836, 5569.377
371.3657, 5606.644
371.8478, 5627.580
372.3300, 5611.808
372.8121, 5571.100
373.2942, 5552.576
373.7763, 5578.179
374.2584, 5591.155
374.7405, 5578.227
375.2227, 5554.321
375.7048, 5528.310
376.1869, 5503.443
376.6690, 5485.541
377.1511, 5484.561
377.6332, 5501.165
378.1154, 5512.718
378.5975, 5516.457
379.0796, 5515.951
379.5617, 5511.935
380.0438, 5505.707
380.5259, 5501.030
381.0081, 5502.220
381.4902, 5504.376
381.9723, 5498.650
382.4544, 5484.564
382.9365, 5471.807
383.4186, 5466.870
383.9008, 5465.007
384.3829, 5454.992
384.8650, 5430.818
385.3471, 5411.685
385.8292, 5407.253
386.3113, 5412.606
386.7935, 5421.280
387.2756, 5431.871
387.7577, 5440.626
388.2398, 5442.860
388.7219, 5436.964
389.2040, 5432.009
389.6862, 5428.998
390.1683, 5426.049
390.6504, 5421.824
391.1325, 5416.942
391.6146, 5412.426
392.0967, 5408.557
392.5789, 5406.667
393.0610, 5412.369
393.5431, 5437.262
394.0252, 5450.701
394.5073, 5441.691
394.9894, 5426.302
395.4716, 5417.212
395.9537, 5416.819
396.4358, 5419.331
396.9179, 5418.544
397.4000, 5414.521
397.8821, 5413.184
398.3643, 5416.551
398.8464, 5419.835
399.3285, 5423.584
399.8106, 5425.166
400.2927, 5417.987
400.7748, 5392.889
401.2570, 5365.256
401.7391, 5353.065
402.2212, 5355.484
402.7033, 5362.456
403.1854, 5371.961
403.6675, 5381.854
404.1497, 5387.433
404.6317, 5387.224
405.1139, 5389.386
405.5960, 5402.256
406.0781, 5415.160
406.5602, 5413.927
407.0423, 5397.963
407.5244, 5380.017
408.0066, 5371.281
408.4887, 5371.752
408.9708, 5370.226
409.4529, 5356.587
409.9350, 5352.677
410.4171, 5376.589
410.8993, 5409.488
411.3814, 5422.471
411.8635, 5404.927
412.3456, 5376.341
412.8277, 5370.794
413.3098, 5396.213
413.7920, 5416.446
414.2741, 5425.030
414.7562, 5431.018
415.2383, 5438.724
415.7204, 5447.603
416.2025, 5454.555
416.6847, 5456.696
417.1668, 5456.183
417.6489, 5457.103
418.1310, 5459.251
418.6131, 5464.640
419.0952, 5477.782
419.5774, 5492.863
420.0595, 5499.369
420.5416, 5493.642
421.0237, 5488.885
421.5058, 5491.580
421.9879, 5499.268
422.4701, 5508.502
422.9522, 5518.602
423.4343, 5528.228
423.9164, 5534.786
424.3985, 5537.292
424.8806, 5550.126
425.3628, 5590.588
425.8449, 5621.790
426.3270, 5618.886
426.8091, 5598.494
427.2912, 5591.067
427.7733, 5610.615
428.2555, 5643.965
428.7376, 5664.251
429.2197, 5663.552
429.7018, 5669.664
430.1839, 5686.226
430.6660, 5708.291
431.1482, 5742.205
431.6303, 5781.620
432.1124, 5805.083
432.5945, 5787.180
433.0766, 5747.013
433.5587, 5734.870
434.0409, 5754.840
434.5230, 5784.629
435.0051, 5823.893
435.4872, 5861.958
435.9693, 5881.326
436.4514, 5874.565
436.9336, 5868.770
437.4157, 5877.525
437.8978, 5895.693
438.3799, 5916.808
438.8620, 5939.657
439.3441, 5959.663
439.8263, 5971.417
440.3084, 5974.169
440.7905, 5984.165
441.2726, 6011.790
441.7547, 6034.119
442.2368, 6034.721
442.7190, 6027.438
443.2011, 6034.909
443.6832, 6065.800
444.1653, 6107.537
444.6474, 6137.320
445.1295, 6149.174
445.6117, 6170.319
446.0938, 6213.021
446.5759, 6255.699
447.0580, 6290.118
447.5401, 6316.263
448.0222, 6335.432
448.5044, 6344.887
448.9865, 6350.634
449.4686, 6365.395
449.9507, 6389.900
450.4328, 6405.182
450.9149, 6395.589
451.3971, 6381.023
451.8792, 6399.106
452.3613, 6459.916
452.8434, 6499.832
453.3255, 6488.999
453.8076, 6454.807
454.2898, 6421.729
454.7719, 6393.675
455.2540, 6372.301
455.7361, 6361.073
456.2182, 6356.815
456.7003, 6335.502
457.1825, 6277.934
457.6646, 6225.853
458.1467, 6183.732
458.6288, 6148.916
459.1109, 6120.103
459.5930, 6096.099
460.0752, 6073.619
460.5573, 6046.922
461.0394, 6016.284
461.5215, 5996.389
462.0036, 5994.233
462.4857, 5990.930
462.9679, 5972.099
463.4500, 5947.487
463.9321, 5934.260
464.4142, 5943.454
464.8963, 5949.662
465.3784, 5922.476
465.8606, 5874.989
466.3427, 5850.379
466.8248, 5861.689
467.3069, 5884.743
467.7890, 5892.849
468.2711, 5882.948
468.7533, 5880.938
469.2354, 5889.546
469.7175, 5903.035
470.1996, 5926.952
470.6817, 5952.437
471.1638, 5960.341
471.6460, 5942.072
472.1281, 5914.129
472.6102, 5908.620
473.0923, 5934.328
473.5744, 5955.925
474.0565, 5967.950
474.5387, 5978.759
475.0208, 5989.633
475.5029, 6002.252
475.9850, 6021.196
476.4671, 6055.262
476.9492, 6090.042
477.4313, 6100.475
477.9135, 6086.808
478.3956, 6070.291
478.8777, 6054.758
479.3598, 6043.970
479.8419, 6045.192
480.3240, 6058.799
480.8062, 6075.120
481.2883, 6104.794
481.7704, 6126.978
482.2525, 6115.032
482.7346, 6077.720
483.2167, 6050.106
483.6989, 6054.613
484.1810, 6081.172
484.6631, 6096.902
485.1452, 6098.832
485.6273, 6094.709
486.1094, 6090.720
486.5916, 6077.553
487.0737, 6040.657
487.5558, 5985.699
488.0379, 5938.331
488.5200, 5919.498
489.0021, 5920.830
489.4843, 5922.577
489.9664, 5926.219
490.4485, 5920.092
490.9306, 5889.914
491.4127, 5853.522
491.8948, 5843.123
492.3770, 5867.593
492.8591, 5878.932
493.3412, 5848.381
493.8233, 5803.764
494.3054, 5774.445
494.7875, 5762.588
495.2697, 5760.113
495.7518, 5763.444
496.2339, 5769.144
496.7160, 5759.099
497.1981, 5715.276
497.6802, 5680.731
498.1624, 5659.896
498.6445, 5648.457
499.1266, 5647.458
499.6087, 5654.247
500.0908, 5658.008
500.5729, 5647.416
501.0551, 5626.911
501.5372, 5612.700
502.0193, 5605.385
502.5014, 5602.717
502.9835, 5609.280
503.4656, 5616.714
503.9478, 5611.320
504.4299, 5589.891
504.9120, 5566.739
505.3941, 5538.508
505.8762, 5516.415
506.3583, 5522.237
506.8405, 5553.072
507.3226, 5575.270
507.8047, 5562.734
508.2868, 5523.565
508.7689, 5501.982
509.2510, 5511.337
509.7332, 5520.107
510.2153, 5525.754
510.6974, 5529.750
511.1795, 5535.097
511.6616, 5540.936
512.1437, 5541.488
512.6259, 5530.464
513.1080, 5510.915
513.5901, 5491.494
514.0722, 5471.392
514.5543, 5455.722
515.0364, 5446.903
515.5186, 5444.053
516.0007, 5446.282
516.4828, 5455.812
516.9649, 5461.167
517.4470, 5457.591
517.9291, 5448.952
518.4113, 5439.252
518.8934, 5428.469
519.3755, 5412.703
519.8576, 5388.004
520.3397, 5359.383
520.8218, 5345.790
521.3040, 5352.517
521.7861, 5365.560
522.2682, 5398.358
522.7503, 5424.508
523.2324, 5416.681
523.7145, 5382.225
524.1967, 5358.932
524.6788, 5381.731
525.1609, 5423.978
525.6430, 5430.762
526.1251, 5401.471
526.6072, 5371.644
527.0894, 5351.886
527.5715, 5340.949
528.0536, 5338.002
528.5357, 5343.273
529.0178, 5352.073
529.4999, 5373.885
529.9821, 5390.374
530.4642, 5382.080
530.9463, 5357.546
531.4284, 5340.513
531.9105, 5343.589
532.3926, 5357.435
532.8748, 5361.707
533.3569, 5352.967
533.8390, 5346.312
534.3211, 5347.220
534.8032, 5346.087
535.2853, 5335.461
535.7675, 5318.865
536.2496, 5305.548
536.7317, 5297.805
537.2138, 5296.522
537.6959, 5308.445
538.1780, 5328.862
538.6602, 5338.868
539.1423, 5332.803
539.6244, 5316.731
540.1065, 5294.042
540.5886, 5261.769
541.0707, 5250.256
541.5529, 5275.833
542.0350, 5301.468
542.5171, 5316.765
542.9992, 5323.335
543.4813, 5324.019
543.9634, 5319.850
544.4456, 5311.347
544.9277, 5297.295
545.4098, 5277.933
545.8919, 5262.380
546.3740, 5251.223
546.8561, 5242.979
547.3383, 5236.299
547.8204, 5232.274
548.3025, 5233.566
548.7846, 5242.460
549.2667, 5251.657
549.7488, 5258.354
550.2310, 5263.237
550.7131, 5267.159
551.1952, 5270.225
551.6773, 5272.129
552.1594, 5272.810
552.6415, 5272.033
553.1237, 5268.240
553.6058, 5259.954
554.0879, 5251.167
554.5700, 5238.652
555.0521, 5228.826
555.5342, 5227.141
556.0164, 5233.115
556.4985, 5241.649
556.9806, 5253.616
557.4627, 5263.806
557.9448, 5261.775
558.4269, 5248.246
558.9091, 5234.348
559.3912, 5224.161
559.8733, 5215.094
560.3554, 5201.520
560.8375, 5178.861
561.3196, 5171.184
561.8018, 5195.410
562.2839, 5217.769
562.7660, 5220.061
563.2481, 5208.745
563.7302, 5196.228
564.2123, 5187.445
564.6945, 5181.163
565.1766, 5175.686
565.6587, 5170.947
566.1408, 5167.405
566.6229, 5163.859
567.1050, 5163.781
567.5872, 5172.083
568.0693, 5184.821
568.5514, 5194.986
569.0335, 5201.488
569.5156, 5205.836
569.9977, 5210.080
570.4799, 5211.877
570.9620, 5206.103
571.4441, 5193.253
571.9262, 5180.029
572.4083, 5170.436
572.8904, 5165.939
573.3726, 5175.992
573.8547, 5216.468
574.3368, 5240.815
574.8189, 5224.635
575.3010, 5205.376
575.7831, 5212.555
576.2653, 5242.433
576.7474, 5266.119
577.2295, 5266.234
577.7116, 5254.816
578.1937, 5243.665
578.6758, 5233.511
579.1580, 5228.347
579.6401, 5229.719
580.1222, 5235.372
580.6042, 5242.001
581.0864, 5248.578
581.5685, 5262.542
582.0506, 5292.677
582.5327, 5319.072
583.0148, 5336.530
583.4969, 5345.891
583.9791, 5345.149
584.4612, 5334.613
584.9433, 5325.901
585.4254, 5332.470
585.9075, 5350.836
586.3896, 5365.124
586.8718, 5373.021
587.3539, 5387.965
587.8360, 5422.911
588.3181, 5465.403
588.8002, 5484.461
589.2823, 5468.279
589.7645, 5463.784
590.2466, 5487.304
590.7287, 5517.604
591.2108, 5539.780
591.6929, 5555.030
592.1750, 5570.517
592.6572, 5589.737
593.1393, 5613.003
593.6214, 5640.549
594.1035, 5672.445
594.5856, 5709.886
595.0677, 5755.827
595.5499, 5802.657
596.0320, 5844.301
596.5141, 5882.897
596.9962, 5923.091
597.4783, 5972.983
597.9604, 6012.927
598.4426, 6020.732
598.9247, 6019.599
599.4068, 6040.114
599.8889, 6085.613
600.3710, 6142.848
600.8531, 6202.688
601.3353, 6263.478
601.8174, 6317.957
602.2995, 6363.583
602.7816, 6408.335
603.2637, 6448.132
603.7458, 6492.232
604.2280, 6554.010
604.7101, 6628.046
605.1922, 6688.592
605.6743, 6705.976
606.1564, 6724.519
606.6385, 6788.312
607.1207, 6881.362
607.6028, 6969.886
608.0849, 7044.056
608.5670, 7102.456
609.0491, 7140.815
609.5313, 7158.749
610.0134, 7194.577
610.4955, 7270.646
610.9776, 7331.584
611.4597, 7343.014
611.9418, 7350.951
612.4240, 7403.164
612.9061, 7501.803
613.3882, 7600.508
613.8703, 7678.423
614.3524, 7738.309
614.8345, 7774.018
615.3167, 7791.929
615.7988, 7827.521
616.2809, 7896.398
616.7630, 7973.763
617.2451, 8022.014
617.7272, 8032.453
618.2094, 8059.893
618.6915, 8132.638
619.1736, 8189.508
619.6557, 8195.215
620.1378, 8184.842
620.6199, 8203.652
621.1021, 8261.266
621.5842, 8323.645
622.0663, 8372.780
622.5484, 8405.509
623.0305, 8413.213
623.5126, 8396.350
623.9948, 8365.275
624.4769, 8322.653
624.9590, 8273.052
625.4411, 8224.233
625.9232, 8175.667
626.4053, 8130.432
626.8875, 8096.413
627.3696, 8056.704
627.8517, 7989.727
628.3338, 7917.662
628.8159, 7883.923
629.2980, 7902.958
629.7802, 7913.097
630.2623, 7841.627
630.7444, 7718.814
631.2265, 7628.631
631.7086, 7577.056
632.1907, 7528.936
632.6729, 7465.085
633.1550, 7394.186
633.6371, 7337.265
634.1192, 7304.736
634.6013, 7263.620
635.0834, 7208.511
635.5656, 7150.655
636.0477, 7086.063
636.5298, 7025.052
637.0119, 6987.189
637.4940, 6981.459
637.9761, 6981.256
638.4583, 6954.727
638.9404, 6911.901
639.4225, 6886.604
639.9046, 6882.484
640.3867, 6876.212
640.8688, 6850.690
641.3510, 6818.334
641.8331, 6812.535
642.3152, 6855.427
642.7973, 6883.483
643.2794, 6872.082
643.7615, 6870.656
644.2437, 6907.648
644.7258, 6973.260
645.2079, 7045.671
645.6900, 7116.386
646.1721, 7194.464
646.6542, 7291.986
647.1364, 7404.358
647.6185, 7516.510
648.1006, 7626.810
648.5827, 7742.408
649.0648, 7863.238
649.5469, 7996.864
650.0291, 8161.453
650.5112, 8377.968
650.9933, 8587.733
651.4754, 8792.232
651.9575, 8989.650
652.4396, 9170.783
652.9218, 9346.341
653.4039, 9537.643
653.8860, 9753.030
654.3681, 9974.206
654.8502, 10182.20
655.3323, 10380.64
655.8145, 10581.26
656.2966, 10784.78
656.7787, 10977.90
657.2608, 11155.99
657.7429, 11315.35
658.2250, 11448.86
658.7072, 11547.62
659.1893, 11638.79
659.6714, 11733.06
660.1535, 11809.13
660.6356, 11856.49
661.1177, 11879.43
661.5999, 11885.57
662.0820, 11876.79
662.5641, 11853.50
663.0462, 11814.59
663.5283, 11762.06
664.0104, 11701.42
664.4926, 11632.14
664.9747, 11543.70
665.4568, 11430.11
665.9389, 11297.30
666.4210, 11158.65
666.9031, 11021.30
667.3853, 10856.00
667.8674, 10637.12
668.3495, 10418.76
668.8316, 10219.43
