##NAMES=Alamosite
##RRUFFID=R060067
##IDEAL CHEMISTRY=Pb^2+^SiO_3_
##LOCALITY=Alamos, Sonora, Mexico
##OWNER=RRUFF
##SOURCE=University of Arizona Mineral Museum
##DESCRIPTION=Aggregate of transparent parallel acicular crystals
##STATUS=The identification of this mineral is confirmed by single-crystal X-ray diffraction and chemical analysis.
##URL=rruff.info/R060067
##MEASURED CHEMISTRY=Pb_1.00_Si_1.00_O_3_
130.6109, 1016.325
131.0930, 1017.864
131.5751, 1020.685
132.0572, 1024.080
132.5394, 1027.764
133.0215, 1032.107
133.5036, 1038.330
133.9857, 1046.141
134.4678, 1056.390
134.9499, 1069.256
135.4321, 1084.650
135.9142, 1102.670
136.3963, 1123.563
136.8784, 1147.017
137.3605, 1170.811
137.8426, 1195.405
138.3248, 1219.943
138.8069, 1245.371
139.2890, 1271.180
139.7711, 1294.415
140.2532, 1313.204
140.7353, 1327.450
141.2175, 1338.623
141.6996, 1350.620
142.1817, 1357.559
142.6638, 1353.027
143.1459, 1336.190
143.6280, 1311.334
144.1102, 1277.237
144.5923, 1237.529
145.0744, 1197.395
145.5565, 1157.011
146.0386, 1117.760
146.5207, 1083.691
147.0029, 1056.274
147.4850, 1032.589
147.9671, 1010.285
148.4492, 989.8959
148.9313, 972.5775
149.4134, 958.9455
149.8955, 948.9816
150.3777, 943.3159
150.8598, 944.5168
151.3419, 948.3431
151.8240, 953.4139
152.3061, 959.9133
152.7882, 968.8999
153.2704, 981.6882
153.7525, 999.1146
154.2346, 1017.868
154.7167, 1038.100
155.1988, 1059.380
155.6809, 1081.726
156.1631, 1105.115
156.6452, 1129.213
157.1273, 1153.987
157.6094, 1182.618
158.0915, 1204.076
158.5736, 1214.280
159.0558, 1219.416
159.5379, 1225.523
160.0200, 1234.409
160.5021, 1243.540
160.9842, 1247.781
161.4663, 1245.840
161.9485, 1244.405
162.4306, 1243.303
162.9127, 1243.804
163.3948, 1248.408
163.8769, 1258.178
164.3590, 1272.337
164.8412, 1289.377
165.3233, 1309.487
165.8054, 1331.000
166.2875, 1355.743
166.7696, 1382.670
167.2517, 1403.612
167.7339, 1417.597
168.2160, 1421.851
168.6981, 1413.958
169.1802, 1392.952
169.6623, 1364.181
170.1444, 1332.437
170.6266, 1297.823
171.1087, 1259.908
171.5908, 1214.314
172.0729, 1167.830
172.5550, 1123.945
173.0371, 1083.624
173.5193, 1047.890
174.0014, 1017.893
174.4835, 994.1707
174.9656, 976.1512
175.4477, 963.8812
175.9298, 955.8636
176.4120, 951.5265
176.8941, 950.6481
177.3762, 952.1498
177.8583, 953.0809
178.3404, 953.1543
178.8225, 952.9630
179.3047, 952.5897
179.7868, 952.0034
180.2689, 951.7468
180.7510, 952.2098
181.2331, 952.3973
181.7152, 947.6383
182.1974, 936.5616
182.6795, 922.1296
183.1616, 904.2412
183.6437, 883.2750
184.1258, 859.0687
184.6079, 831.0387
185.0900, 800.1724
185.5722, 773.6859
186.0543, 752.3395
186.5364, 733.3262
187.0185, 715.4551
187.5006, 699.0998
187.9827, 684.9818
188.4649, 673.3861
188.9470, 664.9088
189.4291, 660.2051
189.9112, 660.5597
190.3933, 663.2324
190.8754, 666.9823
191.3576, 671.7834
191.8397, 677.1058
192.3218, 683.0246
192.8039, 689.1758
193.2860, 694.8182
193.7681, 699.9437
194.2503, 704.4836
194.7324, 708.5110
195.2145, 712.1207
195.6966, 714.7027
196.1787, 714.9698
196.6608, 714.2119
197.1430, 713.8647
197.6251, 714.4468
198.1072, 715.5468
198.5893, 716.1891
199.0714, 715.6783
199.5535, 716.6262
200.0357, 720.8008
200.5178, 726.6682
200.9999, 732.4267
201.4820, 737.0152
201.9641, 741.3684
202.4462, 748.1395
202.9284, 758.3279
203.4105, 769.5738
203.8926, 781.7728
204.3747, 794.2907
204.8568, 805.9938
205.3389, 815.8375
205.8211, 824.9038
206.3032, 837.9056
206.7853, 857.3749
207.2674, 878.2694
207.7495, 900.4587
208.2316, 923.2504
208.7138, 945.9359
209.1959, 968.0687
209.6780, 989.7513
210.1601, 1011.026
210.6422, 1033.206
211.1243, 1053.525
211.6065, 1072.137
212.0886, 1088.511
212.5707, 1102.046
213.0528, 1112.463
213.5349, 1119.575
214.0170, 1120.704
214.4992, 1115.881
214.9813, 1105.869
215.4634, 1089.798
215.9455, 1068.614
216.4276, 1043.614
216.9097, 1015.455
217.3919, 984.3807
217.8740, 952.9347
218.3561, 919.8226
218.8382, 887.8507
219.3203, 858.8259
219.8024, 832.0255
220.2845, 805.2424
220.7667, 776.7921
221.2488, 747.2886
221.7309, 720.1805
222.2130, 695.2574
222.6951, 672.5973
223.1772, 652.6566
223.6594, 635.1408
224.1415, 618.7671
224.6236, 602.9285
225.1057, 587.6608
225.5878, 572.7692
226.0699, 557.7580
226.5521, 543.5611
227.0342, 531.2087
227.5163, 520.4925
227.9984, 509.3549
228.4805, 495.6594
228.9626, 481.4551
229.4448, 470.6616
229.9269, 465.0764
230.4090, 460.6241
230.8911, 453.5618
231.3732, 443.8983
231.8553, 434.7557
232.3375, 427.4240
232.8196, 421.5244
233.3017, 416.8953
233.7838, 413.9955
234.2659, 411.1690
234.7480, 406.2551
235.2302, 398.9432
235.7123, 392.5737
236.1944, 389.2277
236.6765, 386.9449
237.1586, 384.0909
237.6407, 380.2641
238.1229, 376.3216
238.6050, 373.1590
239.0871, 370.7863
239.5692, 369.2235
240.0513, 369.5230
240.5334, 370.0406
241.0156, 369.4478
241.4977, 367.4424
241.9798, 365.2102
242.4619, 364.3490
242.9440, 365.1634
243.4261, 366.1912
243.9083, 366.8871
244.3904, 367.9066
244.8725, 369.9301
245.3546, 373.0179
245.8367, 376.3290
246.3188, 378.6279
246.8010, 379.4971
247.2831, 380.6409
247.7652, 382.3695
248.2473, 384.2641
248.7294, 385.8581
249.2115, 387.1833
249.6937, 388.8481
250.1758, 391.8531
250.6579, 397.0707
251.1400, 401.3055
251.6221, 403.4084
252.1042, 405.5471
252.5864, 409.1091
253.0685, 414.1609
253.5506, 419.6212
254.0327, 424.1806
254.5148, 427.3606
254.9969, 431.1252
255.4790, 435.5523
255.9612, 440.4016
256.4433, 445.5329
256.9254, 450.9325
257.4075, 456.6865
257.8896, 462.8112
258.3718, 469.1781
258.8539, 476.5436
259.3360, 485.0896
259.8181, 494.2140
260.3002, 503.5435
260.7823, 513.1300
261.2645, 523.3564
261.7466, 534.6713
262.2287, 547.2770
262.7108, 559.4498
263.1929, 570.6063
263.6750, 581.9319
264.1572, 594.5472
264.6393, 608.0629
265.1214, 621.1807
265.6035, 633.1136
266.0856, 643.8436
266.5677, 651.9214
267.0499, 657.6207
267.5320, 661.1827
268.0141, 663.2057
268.4962, 663.2839
268.9783, 660.1512
269.4604, 652.7167
269.9426, 641.2208
270.4247, 629.2336
270.9068, 617.1609
271.3889, 604.2598
271.8710, 589.5792
272.3531, 573.7926
272.8352, 558.3812
273.3174, 544.0647
273.7995, 530.8902
274.2816, 519.1870
274.7637, 510.5098
275.2458, 501.2108
275.7279, 489.9529
276.2101, 477.2683
276.6922, 464.0512
277.1743, 450.3456
277.6564, 436.9305
278.1385, 426.1124
278.6206, 419.1588
279.1028, 411.8995
279.5849, 402.5551
280.0670, 392.2642
280.5491, 382.7247
281.0312, 374.3559
281.5133, 367.5560
281.9955, 363.7990
282.4776, 363.9641
282.9597, 363.2477
283.4418, 359.4274
283.9239, 354.2659
284.4060, 350.5521
284.8882, 349.0613
285.3703, 348.8012
285.8524, 348.5533
286.3345, 348.2836
286.8166, 348.2490
287.2987, 348.6638
287.7809, 349.2799
288.2630, 349.5970
288.7451, 349.4581
289.2272, 349.6802
289.7093, 351.3527
290.1914, 354.3935
290.6736, 357.3207
291.1557, 359.9221
291.6378, 362.3154
292.1199, 364.4677
292.6020, 366.3548
293.0841, 368.5096
293.5663, 371.3157
294.0484, 374.7895
294.5305, 378.8061
295.0126, 383.4887
295.4947, 388.6113
295.9768, 394.1903
296.4590, 400.1850
296.9411, 406.0367
297.4232, 411.6349
297.9053, 416.6619
298.3874, 420.5173
298.8695, 422.3096
299.3517, 423.8966
299.8338, 427.2773
300.3159, 432.0247
300.7980, 435.1707
301.2801, 435.3192
301.7622, 432.8651
302.2444, 428.7042
302.7265, 421.4245
303.2086, 415.7852
303.6907, 416.2506
304.1728, 420.9929
304.6549, 423.1362
305.1371, 419.7328
305.6192, 413.8322
306.1013, 409.6970
306.5834, 407.2799
307.0655, 406.0692
307.5476, 406.4903
308.0298, 407.9233
308.5119, 408.7648
308.9940, 408.3863
309.4761, 408.1134
309.9582, 409.4214
310.4403, 412.1132
310.9225, 415.6711
311.4046, 421.0773
311.8867, 426.8908
312.3688, 430.4470
312.8509, 431.1187
313.3330, 431.5546
313.8152, 434.5266
314.2973, 439.1921
314.7794, 442.7201
315.2615, 443.3504
315.7436, 443.3091
316.2257, 445.3781
316.7079, 449.7021
317.1900, 453.6506
317.6721, 455.6870
318.1542, 456.1015
318.6363, 455.9687
319.1184, 456.1419
319.6006, 454.8052
320.0827, 450.2381
320.5648, 442.6991
321.0469, 433.9884
321.5290, 424.2658
322.0111, 414.2112
322.4933, 404.7685
322.9754, 395.6122
323.4575, 387.9411
323.9396, 383.0309
324.4217, 380.1870
324.9038, 377.0798
325.3860, 372.5410
325.8681, 368.5177
326.3502, 367.9393
326.8323, 370.6627
327.3144, 374.0496
327.7965, 376.9523
328.2787, 379.9837
328.7608, 384.1899
329.2429, 389.7811
329.7250, 396.2473
330.2071, 403.3030
330.6892, 410.8807
331.1714, 418.7571
331.6535, 427.2511
332.1356, 435.8242
332.6177, 443.6596
333.0998, 450.7239
333.5819, 458.0571
334.0641, 466.4498
334.5462, 475.6848
335.0283, 484.8401
335.5104, 492.8520
335.9925, 501.7873
336.4746, 513.9169
336.9568, 528.5094
337.4389, 541.6319
337.9210, 550.8258
338.4031, 558.3614
338.8852, 569.7278
339.3673, 586.2599
339.8495, 602.6892
340.3316, 616.0160
340.8137, 627.7618
341.2958, 641.2006
341.7779, 657.4132
342.2600, 674.9057
342.7421, 691.4023
343.2242, 706.5524
343.7064, 723.3582
344.1885, 743.5276
344.6706, 765.0604
345.1527, 786.1337
345.6348, 806.5456
346.1169, 825.7437
346.5991, 843.2936
347.0812, 859.0150
347.5633, 873.1942
348.0454, 886.4798
348.5275, 897.8455
349.0096, 907.1147
349.4918, 914.0394
349.9739, 917.7925
350.4560, 918.3177
350.9381, 914.9568
351.4202, 904.7656
351.9023, 884.8880
352.3845, 862.8884
352.8666, 841.7777
353.3487, 819.9222
353.8308, 793.6952
354.3129, 761.2935
354.7950, 726.1176
355.2772, 694.5260
355.7593, 667.5392
356.2414, 642.1480
356.7235, 618.0814
357.2056, 595.5756
357.6877, 575.1929
358.1699, 556.9068
358.6520, 540.0336
359.1341, 523.6411
359.6162, 507.5515
360.0983, 493.7350
360.5804, 482.1417
361.0626, 472.5478
361.5447, 465.0901
362.0268, 459.5106
362.5089, 455.1890
362.9910, 451.7639
363.4731, 449.1660
363.9553, 446.9286
364.4374, 444.2894
364.9195, 442.8272
365.4016, 444.1124
365.8837, 446.4109
366.3658, 447.2042
366.8480, 445.4550
367.3301, 442.2785
367.8122, 440.0995
368.2943, 439.9503
368.7764, 439.2318
369.2585, 437.8001
369.7407, 435.9503
370.2228, 433.8712
370.7049, 431.6066
371.1870, 429.0803
371.6691, 426.0580
372.1512, 422.2787
372.6334, 419.7204
373.1155, 419.0212
373.5976, 418.8478
374.0797, 418.6581
374.5618, 418.6241
375.0439, 419.2310
375.5261, 420.8410
376.0082, 423.2884
376.4903, 425.7316
376.9724, 427.9879
377.4545, 430.5366
377.9366, 433.2368
378.4188, 436.3463
378.9009, 440.2789
379.3830, 445.1413
379.8651, 450.4201
380.3472, 455.3701
380.8293, 460.2179
381.3115, 464.0703
381.7936, 466.7134
382.2757, 468.4553
382.7578, 469.3387
383.2399, 469.4106
383.7220, 468.8150
384.2042, 467.8320
384.6863, 466.3957
385.1684, 463.4855
385.6505, 458.1342
386.1326, 452.5643
386.6147, 447.8471
387.0969, 443.4977
387.5790, 438.7823
388.0611, 433.3947
388.5432, 427.3506
389.0253, 420.3093
389.5074, 411.8181
389.9896, 404.1994
390.4717, 398.6416
390.9538, 394.0832
391.4359, 389.6519
391.9180, 385.2028
392.4001, 381.4848
392.8823, 379.3156
393.3644, 378.5095
393.8465, 377.9848
394.3286, 377.8216
394.8107, 377.5198
395.2928, 376.4388
395.7750, 374.8225
396.2571, 373.5766
396.7392, 373.9152
397.2213, 374.4278
397.7034, 372.4115
398.1855, 367.5765
398.6677, 363.7469
399.1498, 363.5780
399.6319, 365.8507
400.1140, 367.4668
400.5961, 367.8836
401.0782, 368.3559
401.5604, 369.7613
402.0425, 371.8186
402.5246, 373.7736
403.0067, 375.4438
403.4888, 376.7859
403.9709, 377.6104
404.4531, 377.8703
404.9352, 378.2042
405.4173, 378.8082
405.8994, 379.4872
406.3815, 380.0774
406.8636, 380.5557
407.3458, 380.9525
407.8279, 381.3710
408.3100, 381.7555
408.7921, 381.3716
409.2742, 379.6774
409.7563, 377.9314
410.2385, 376.7605
410.7206, 375.8323
411.2027, 374.5723
411.6848, 372.7441
412.1669, 370.4406
412.6490, 367.8742
413.1311, 365.4293
413.6133, 361.9400
414.0954, 356.3911
414.5775, 350.5876
415.0596, 345.6437
415.5417, 341.7749
416.0238, 338.8356
416.5060, 336.8466
416.9881, 335.8605
417.4702, 334.0623
417.9523, 330.7519
418.4344, 327.3367
418.9165, 323.5183
419.3987, 319.9692
419.8808, 317.7774
420.3629, 317.4897
420.8450, 318.1100
421.3271, 317.4054
421.8092, 314.5404
422.2914, 312.4753
422.7735, 312.0425
423.2556, 312.0615
423.7377, 311.6237
424.2198, 310.8027
424.7019, 310.5340
425.1841, 311.7338
425.6662, 314.2925
426.1483, 317.1208
426.6304, 320.5392
427.1125, 323.6743
427.5946, 325.9200
428.0768, 327.7315
428.5589, 329.7211
429.0410, 332.0831
429.5231, 334.7653
430.0052, 337.8484
430.4873, 341.3477
430.9695, 344.6123
431.4516, 347.3527
431.9337, 349.8683
432.4158, 352.4171
432.8979, 355.0027
433.3800, 357.7959
433.8622, 360.8337
434.3443, 364.1406
434.8264, 367.7466
435.3085, 371.6281
435.7906, 375.9488
436.2727, 380.7453
436.7549, 386.1610
437.2370, 392.4516
437.7191, 400.0823
438.2012, 408.1061
438.6833, 416.1279
439.1654, 424.1756
439.6476, 432.2207
440.1297, 440.1663
440.6118, 448.5157
441.0939, 458.3936
441.5760, 471.0458
442.0581, 481.7033
442.5403, 490.3002
443.0224, 496.7234
443.5045, 500.7997
443.9866, 502.5798
444.4687, 502.4063
444.9508, 500.7248
445.4330, 497.3237
445.9151, 489.5554
446.3972, 473.7218
446.8793, 457.8634
447.3614, 442.8682
447.8435, 428.5732
448.3257, 414.5671
448.8078, 400.7774
449.2899, 387.5601
449.7720, 375.3348
450.2541, 363.9445
450.7362, 354.2453
451.2184, 346.3242
451.7005, 340.0925
452.1826, 336.3969
452.6647, 334.4154
453.1468, 332.2348
453.6289, 328.5325
454.1111, 324.0808
454.5932, 320.9218
455.0753, 319.0704
455.5574, 318.3981
456.0395, 319.3874
456.5216, 321.2855
457.0038, 323.5876
457.4859, 326.2367
457.9680, 329.3649
458.4501, 333.2880
458.9322, 337.8154
459.4143, 341.9346
459.8965, 345.0933
460.3786, 349.0532
460.8607, 355.9012
461.3428, 364.6770
461.8249, 373.0206
462.3070, 380.5021
462.7892, 387.4445
463.2713, 394.5966
463.7534, 401.5239
464.2355, 406.6692
464.7176, 409.6122
465.1997, 410.1706
465.6819, 407.6962
466.1640, 401.8806
466.6461, 394.5834
467.1282, 385.2796
467.6103, 375.0793
468.0924, 364.5376
468.5746, 353.9111
469.0567, 343.4671
469.5388, 333.3464
470.0209, 323.7165
470.5030, 315.4979
470.9851, 308.6868
471.4673, 303.4489
471.9494, 300.5194
472.4315, 298.8059
472.9136, 297.2787
473.3957, 295.6751
473.8778, 294.3496
474.3600, 293.7832
474.8421, 294.0688
475.3242, 294.4216
475.8063, 294.7320
476.2884, 295.2451
476.7705, 295.8676
477.2527, 296.7808
477.7348, 298.3521
478.2169, 300.8423
478.6990, 303.7387
479.1811, 306.0672
479.6632, 307.7181
480.1454, 309.7933
480.6275, 312.5056
481.1096, 315.8258
481.5917, 319.8324
482.0738, 324.4526
482.5559, 329.1235
483.0380, 332.9344
483.5201, 336.9174
484.0023, 343.1749
484.4844, 351.8558
484.9665, 360.2012
485.4486, 366.1854
485.9307, 371.0531
486.4128, 378.2816
486.8950, 388.9969
487.3771, 399.4650
487.8592, 408.5986
488.3413, 416.6459
488.8234, 424.2560
489.3055, 431.5149
489.7877, 437.4271
490.2698, 441.0217
490.7519, 442.2766
491.2340, 441.6691
491.7161, 438.2422
492.1982, 434.3944
492.6804, 432.2297
493.1625, 429.6571
493.6446, 423.3644
494.1267, 412.1784
494.6088, 398.1553
495.0909, 384.4774
495.5731, 371.0547
496.0552, 358.2757
496.5373, 346.1514
497.0194, 334.6780
497.5015, 323.7656
497.9836, 313.5677
498.4658, 304.4321
498.9479, 296.6310
499.4300, 289.8460
499.9121, 283.3291
500.3942, 277.0228
500.8763, 271.6346
501.3585, 267.8564
501.8406, 264.7177
502.3227, 261.2285
502.8048, 257.3874
503.2869, 253.7985
503.7690, 250.8490
504.2512, 248.2779
504.7333, 245.7043
505.2154, 243.0871
505.6975, 240.6884
506.1796, 238.7640
506.6617, 237.1074
507.1439, 235.0704
507.6260, 232.5735
508.1081, 229.8815
508.5902, 226.7956
509.0723, 223.6921
509.5544, 220.8794
510.0366, 218.4708
510.5187, 216.6059
511.0008, 215.4859
511.4829, 215.1082
511.9650, 214.5797
512.4471, 213.8194
512.9293, 213.0046
513.4114, 212.0511
513.8935, 211.1164
514.3756, 210.3377
514.8577, 209.7654
515.3398, 209.4168
515.8220, 209.4332
516.3041, 209.8811
516.7862, 209.9716
517.2683, 209.6090
517.7504, 208.9732
518.2325, 207.8989
518.7147, 206.6915
519.1968, 205.8591
519.6789, 205.5761
520.1610, 205.7207
520.6431, 206.3121
521.1252, 207.2898
521.6074, 208.1669
522.0895, 208.8305
522.5716, 209.3513
523.0537, 209.7687
523.5358, 210.0959
524.0179, 210.4010
524.5001, 210.6348
524.9822, 210.9052
525.4643, 211.1136
525.9464, 211.4090
526.4285, 212.3895
526.9106, 214.4106
527.3928, 216.6588
527.8749, 217.5702
528.3570, 216.3259
528.8391, 215.6066
529.3212, 216.4804
529.8033, 216.8658
530.2855, 215.1212
530.7676, 211.9084
531.2497, 209.0446
531.7318, 207.6323
532.2139, 207.1082
532.6960, 205.9430
533.1782, 203.8023
533.6603, 201.9731
534.1424, 200.9481
534.6245, 200.0755
535.1066, 198.8638
535.5887, 197.4203
536.0709, 196.3046
536.5530, 195.9744
537.0351, 196.1224
537.5172, 196.0505
537.9993, 195.7226
538.4814, 196.0462
538.9636, 197.8523
539.4457, 200.0883
539.9278, 201.1203
540.4099, 200.9361
540.8920, 199.9408
541.3741, 197.1492
541.8563, 194.3192
542.3384, 193.5405
542.8205, 194.6137
543.3026, 195.6292
543.7847, 195.3370
544.2668, 194.1733
544.7490, 193.7254
545.2311, 194.4856
545.7132, 195.3356
546.1953, 196.9259
546.6774, 198.0877
547.1595, 197.5242
547.6417, 195.5500
548.1238, 193.8000
548.6059, 193.6081
549.0880, 194.5319
549.5701, 194.7028
550.0522, 193.7072
550.5344, 193.0251
551.0165, 193.3557
551.4986, 194.0210
551.9807, 194.6099
552.4628, 195.0726
552.9449, 195.3478
553.4271, 195.3485
553.9092, 195.1598
554.3913, 194.7992
554.8734, 194.2674
555.3555, 194.1358
555.8376, 194.9634
556.3198, 196.1916
556.8019, 196.2781
557.2840, 194.7691
557.7661, 193.4779
558.2482, 192.7467
558.7303, 192.3797
559.2125, 192.2410
559.6946, 192.2971
560.1767, 192.5381
560.6588, 192.9746
561.1409, 193.5583
561.6230, 194.0661
562.1052, 194.3076
562.5873, 194.8191
563.0694, 195.6212
563.5515, 196.6926
564.0336, 198.2605
564.5157, 200.1581
564.9979, 201.6911
565.4800, 202.0952
565.9621, 201.9529
566.4442, 202.8956
566.9263, 205.0948
567.4084, 207.2308
567.8906, 209.0353
568.3727, 210.3242
568.8548, 210.6340
569.3369, 209.8642
569.8190, 209.7790
570.3011, 211.5114
570.7833, 213.8382
571.2654, 215.5973
571.7475, 216.7845
572.2296, 217.6700
572.7117, 218.3288
573.1938, 219.0241
573.6760, 220.4298
574.1581, 223.0683
574.6402, 225.4732
575.1223, 227.3857
575.6044, 229.3188
576.0865, 231.5657
576.5687, 234.0991
577.0508, 236.6790
577.5329, 239.0866
578.0150, 241.7666
578.4971, 245.9464
578.9792, 251.9940
579.4614, 257.3046
579.9435, 260.5951
580.4256, 263.9176
580.9077, 269.1973
581.3898, 275.8450
581.8719, 281.6207
582.3541, 285.0855
582.8362, 287.9096
583.3183, 292.3582
583.8004, 297.6509
584.2825, 300.7458
584.7646, 300.6160
585.2468, 298.2613
585.7289, 294.8618
586.2110, 290.3861
586.6931, 284.7845
587.1752, 277.1617
587.6573, 269.5025
588.1394, 262.6303
588.6215, 256.2159
589.1036, 249.5917
589.5858, 242.5460
590.0679, 235.5434
590.5500, 229.0417
591.0321, 222.9733
591.5142, 218.1567
591.9963, 215.0034
592.4785, 212.5539
592.9606, 210.6890
593.4427, 209.0600
593.9248, 207.0520
594.4069, 204.3566
594.8890, 202.0565
595.3712, 201.5591
595.8533, 201.9382
596.3354, 200.7331
596.8175, 197.5453
597.2996, 194.4197
597.7817, 192.8229
598.2639, 192.5178
598.7460, 192.2900
599.2281, 192.3797
599.7102, 192.2148
600.1923, 191.4726
600.6744, 190.6082
601.1566, 190.0207
601.6387, 189.7379
602.1208, 189.5934
602.6029, 189.4905
603.0850, 189.3855
603.5671, 189.0383
604.0493, 188.2287
604.5314, 187.7675
605.0135, 188.1973
605.4956, 188.7552
605.9777, 188.8115
606.4598, 188.4560
606.9420, 188.3765
607.4241, 189.5205
607.9062, 190.6867
608.3883, 190.1243
608.8704, 188.1433
609.3525, 186.3395
609.8347, 185.1649
610.3168, 184.7957
610.7989, 185.6257
611.2810, 188.0082
611.7631, 189.8960
612.2452, 191.4406
612.7274, 192.3562
613.2095, 192.0015
613.6916, 191.1171
614.1737, 190.8587
614.6558, 191.5905
615.1379, 192.6331
615.6201, 193.0422
616.1022, 192.7859
616.5843, 192.9873
617.0664, 193.8849
617.5485, 194.8136
618.0306, 195.2255
618.5128, 195.5921
618.9949, 196.6631
619.4770, 198.7075
619.9591, 200.4740
620.4412, 200.9114
620.9233, 200.7858
621.4055, 201.1394
621.8876, 202.0832
622.3697, 203.6240
622.8518, 205.9010
623.3339, 208.5539
623.8160, 210.5182
624.2982, 211.3769
624.7803, 212.1843
625.2624, 212.7339
625.7445, 213.4212
626.2266, 214.2835
626.7087, 215.4955
627.1909, 217.4912
