##NAMES=Albite
##RRUFFID=R060054
##IDEAL CHEMISTRY=NaAlSi_3_O_8_
##LOCALITY=Mt. Erebus, Antarctica
##OWNER=RRUFF
##SOURCE=Marcus Origlieri
##DESCRIPTION=Dark gray bladed crystal
##STATUS=The identification of this mineral has been confirmed by X-ray diffraction and chemical analysis
##URL=rruff.info/R060054
##MEASURED CHEMISTRY=(Na_0.67_K_0.18_Ca_0.15_)_Σ=1_Al_1.00_(Si_2.85_Al_0.15_)_Σ=3_O_8_
123.0269, 881.2816
123.5090, 880.2222
123.9911, 879.7769
124.4732, 879.9503
124.9554, 880.5489
125.4375, 881.4467
125.9196, 882.6393
126.4017, 884.2512
126.8838, 886.4950
127.3659, 889.6255
127.8481, 892.7209
128.3302, 895.8848
128.8123, 898.9639
129.2944, 901.7523
129.7765, 904.1566
130.2586, 906.4410
130.7408, 909.2617
131.2229, 912.7557
131.7050, 915.4575
132.1871, 915.8665
132.6692, 914.7601
133.1513, 915.0921
133.6335, 918.1429
134.1156, 922.6815
134.5977, 927.3751
135.0798, 932.2185
135.5619, 936.9953
136.0440, 941.3277
136.5262, 945.0956
137.0083, 949.2908
137.4904, 954.1439
137.9725, 959.5469
138.4546, 965.7975
138.9367, 972.9853
139.4189, 980.2863
139.9010, 985.9211
140.3831, 988.2643
140.8652, 991.7899
141.3473, 997.3226
141.8294, 1004.059
142.3116, 1011.229
142.7937, 1018.496
143.2758, 1025.866
143.7579, 1033.614
144.2400, 1042.262
144.7221, 1050.703
145.2043, 1058.569
145.6864, 1066.155
146.1685, 1073.825
146.6506, 1081.822
147.1327, 1090.163
147.6148, 1099.236
148.0970, 1110.112
148.5791, 1120.537
149.0612, 1128.896
149.5433, 1135.587
150.0254, 1142.962
150.5075, 1153.033
150.9896, 1165.660
151.4718, 1177.277
151.9539, 1186.744
152.4360, 1195.851
152.9181, 1206.552
153.4002, 1219.076
153.8823, 1231.911
154.3645, 1243.495
154.8466, 1254.425
155.3287, 1265.655
155.8108, 1277.803
156.2929, 1290.473
156.7750, 1302.735
157.2572, 1314.294
157.7393, 1325.984
158.2214, 1338.651
158.7035, 1351.825
159.1856, 1364.435
159.6677, 1375.764
160.1499, 1385.832
160.6320, 1395.389
161.1141, 1404.347
161.5962, 1412.750
162.0783, 1420.895
162.5604, 1428.613
163.0426, 1435.345
163.5247, 1440.523
164.0068, 1443.952
164.4889, 1446.710
164.9710, 1448.610
165.4531, 1450.107
165.9353, 1451.560
166.4174, 1452.904
166.8995, 1453.746
167.3816, 1453.643
167.8637, 1452.657
168.3458, 1450.236
168.8280, 1445.480
169.3101, 1440.103
169.7922, 1435.598
170.2743, 1432.202
170.7564, 1428.783
171.2385, 1423.648
171.7207, 1416.451
172.2028, 1407.919
172.6849, 1397.038
173.1670, 1385.201
173.6491, 1374.063
174.1312, 1364.102
174.6133, 1354.643
175.0955, 1344.346
175.5776, 1332.842
176.0597, 1322.353
176.5418, 1314.146
177.0239, 1307.421
177.5060, 1300.134
177.9882, 1291.384
178.4703, 1282.347
178.9524, 1274.472
179.4345, 1267.768
179.9166, 1261.694
180.3987, 1256.268
180.8809, 1251.375
181.3630, 1246.221
181.8451, 1240.436
182.3272, 1234.439
182.8093, 1228.448
183.2914, 1222.474
183.7736, 1216.920
184.2557, 1212.409
184.7378, 1209.117
185.2199, 1205.486
185.7020, 1200.744
186.1841, 1195.797
186.6663, 1191.009
187.1484, 1186.477
187.6305, 1182.374
188.1126, 1179.017
188.5947, 1176.758
189.0768, 1174.386
189.5590, 1171.968
190.0411, 1169.280
190.5232, 1166.035
191.0053, 1162.173
191.4874, 1157.986
191.9695, 1153.940
192.4517, 1149.879
192.9338, 1146.336
193.4159, 1143.779
193.8980, 1141.439
194.3801, 1138.564
194.8622, 1134.876
195.3443, 1130.748
195.8265, 1127.036
196.3086, 1124.484
196.7907, 1121.462
197.2728, 1117.375
197.7549, 1113.006
198.2370, 1109.389
198.7192, 1106.988
199.2013, 1105.207
199.6834, 1102.438
200.1655, 1097.970
200.6476, 1093.599
201.1297, 1089.843
201.6119, 1086.331
202.0940, 1082.405
202.5761, 1077.711
203.0582, 1072.662
203.5403, 1068.416
204.0224, 1065.173
204.5046, 1062.084
204.9867, 1058.880
205.4688, 1055.620
205.9509, 1052.364
206.4330, 1049.033
206.9151, 1045.916
207.3973, 1043.608
207.8794, 1042.440
208.3615, 1041.160
208.8436, 1038.881
209.3257, 1035.785
209.8078, 1032.841
210.2900, 1030.320
210.7721, 1028.261
211.2542, 1026.762
211.7363, 1026.004
212.2184, 1025.110
212.7005, 1022.936
213.1827, 1019.467
213.6648, 1017.069
214.1469, 1017.721
214.6290, 1018.898
215.1111, 1018.057
215.5932, 1014.682
216.0754, 1011.304
216.5575, 1011.300
217.0396, 1015.445
217.5217, 1017.797
218.0038, 1014.910
218.4859, 1010.917
218.9680, 1008.203
219.4502, 1007.265
219.9323, 1007.139
220.4144, 1006.396
220.8965, 1004.465
221.3786, 1003.892
221.8607, 1006.200
222.3429, 1009.090
222.8250, 1011.352
223.3071, 1012.663
223.7892, 1013.164
224.2713, 1012.939
224.7534, 1011.559
225.2356, 1010.462
225.7177, 1009.405
226.1998, 1008.807
226.6819, 1009.129
227.1640, 1010.406
227.6461, 1012.144
228.1283, 1013.543
228.6104, 1014.192
229.0925, 1015.316
229.5746, 1017.127
230.0567, 1019.181
230.5388, 1021.273
231.0210, 1023.310
231.5031, 1025.201
231.9852, 1026.843
232.4673, 1028.191
232.9494, 1029.274
233.4315, 1029.573
233.9137, 1029.945
234.3958, 1031.004
234.8779, 1032.900
235.3600, 1035.478
235.8421, 1038.606
236.3242, 1042.806
236.8064, 1046.276
237.2885, 1048.488
237.7706, 1050.321
238.2527, 1052.503
238.7348, 1055.188
239.2169, 1058.118
239.6991, 1061.005
240.1812, 1063.955
240.6633, 1066.475
241.1454, 1067.442
241.6275, 1068.589
242.1096, 1072.018
242.5918, 1078.050
243.0739, 1084.607
243.5560, 1089.210
244.0381, 1091.657
244.5202, 1094.238
245.0023, 1097.014
245.4845, 1100.103
245.9666, 1103.716
246.4487, 1107.899
246.9308, 1112.258
247.4129, 1116.453
247.8950, 1120.508
248.3772, 1124.448
248.8593, 1127.751
249.3414, 1131.199
249.8235, 1136.017
250.3056, 1142.472
250.7877, 1148.797
251.2699, 1153.072
251.7520, 1155.914
252.2341, 1159.297
252.7162, 1164.036
253.1983, 1169.324
253.6804, 1173.879
254.1626, 1177.495
254.6447, 1181.519
255.1268, 1187.335
255.6089, 1194.187
256.0910, 1200.845
256.5731, 1206.926
257.0552, 1212.743
257.5374, 1218.824
258.0195, 1225.285
258.5016, 1231.439
258.9837, 1236.608
259.4658, 1241.341
259.9479, 1246.214
260.4301, 1251.266
260.9122, 1256.674
261.3943, 1262.892
261.8764, 1270.185
262.3585, 1277.156
262.8406, 1282.346
263.3228, 1287.243
263.8049, 1293.383
264.2870, 1301.420
264.7691, 1309.971
265.2512, 1316.969
265.7333, 1322.046
266.2155, 1327.480
266.6976, 1334.784
267.1797, 1342.328
267.6618, 1348.827
268.1439, 1353.929
268.6260, 1358.559
269.1082, 1363.735
269.5903, 1369.486
270.0724, 1375.705
270.5545, 1382.869
271.0366, 1390.170
271.5187, 1397.143
272.0009, 1403.713
272.4830, 1410.085
272.9651, 1416.627
273.4472, 1423.467
273.9293, 1429.718
274.4114, 1434.555
274.8936, 1439.329
275.3757, 1444.717
275.8578, 1450.718
276.3399, 1456.972
276.8220, 1463.171
277.3041, 1469.292
277.7863, 1475.346
278.2684, 1482.137
278.7505, 1488.158
279.2326, 1492.445
279.7147, 1495.299
280.1968, 1497.833
280.6790, 1501.088
281.1611, 1505.127
281.6432, 1508.234
282.1253, 1509.323
282.6074, 1510.478
283.0895, 1512.809
283.5717, 1515.710
284.0538, 1517.880
284.5359, 1518.404
285.0180, 1517.348
285.5001, 1515.469
285.9822, 1512.257
286.4644, 1508.706
286.9465, 1504.627
287.4286, 1500.441
287.9107, 1496.808
288.3928, 1494.129
288.8749, 1492.177
289.3571, 1489.971
289.8392, 1487.545
290.3213, 1484.750
290.8034, 1480.969
291.2855, 1477.034
291.7676, 1473.920
292.2498, 1472.090
292.7319, 1471.144
293.2140, 1470.182
293.6961, 1470.088
294.1782, 1468.425
294.6603, 1463.195
295.1425, 1457.454
295.6246, 1454.213
296.1067, 1454.313
296.5888, 1455.948
297.0709, 1455.940
297.5530, 1452.982
298.0351, 1450.846
298.5172, 1449.308
298.9994, 1448.643
299.4815, 1449.346
299.9636, 1451.339
300.4457, 1453.791
300.9278, 1455.717
301.4099, 1457.048
301.8921, 1458.037
302.3742, 1458.020
302.8563, 1458.293
303.3384, 1459.717
303.8205, 1462.151
304.3026, 1464.728
304.7848, 1466.528
305.2669, 1467.370
305.7490, 1469.543
306.2311, 1474.776
306.7132, 1479.523
307.1953, 1482.257
307.6775, 1483.538
308.1596, 1484.597
308.6417, 1486.193
309.1238, 1488.388
309.6059, 1491.878
310.0880, 1497.929
310.5702, 1503.965
311.0523, 1509.911
311.5344, 1515.463
312.0165, 1520.317
312.4986, 1524.318
312.9807, 1527.512
313.4629, 1530.072
313.9450, 1530.554
314.4271, 1532.300
314.9092, 1536.263
315.3913, 1541.177
315.8734, 1545.852
316.3556, 1549.876
316.8377, 1553.554
317.3198, 1557.454
317.8019, 1561.770
318.2840, 1565.935
318.7661, 1570.440
319.2483, 1574.478
319.7304, 1577.061
320.2125, 1578.282
320.6946, 1579.426
321.1767, 1582.050
321.6588, 1586.613
322.1410, 1590.930
322.6231, 1595.456
323.1052, 1599.396
323.5873, 1602.238
324.0694, 1604.135
324.5515, 1605.583
325.0337, 1607.011
325.5158, 1608.417
325.9979, 1609.396
326.4800, 1609.169
326.9621, 1609.359
327.4442, 1610.424
327.9264, 1612.184
328.4085, 1614.434
328.8906, 1617.114
329.3727, 1619.964
329.8548, 1621.895
330.3369, 1622.320
330.8191, 1622.469
331.3012, 1621.973
331.7833, 1621.492
332.2654, 1621.846
332.7475, 1623.301
333.2296, 1625.206
333.7118, 1626.431
334.1939, 1627.245
334.6760, 1626.689
335.1581, 1622.913
335.6402, 1619.297
336.1223, 1618.850
336.6045, 1621.552
337.0866, 1624.470
337.5687, 1624.077
338.0508, 1619.464
338.5329, 1615.856
339.0150, 1611.857
339.4972, 1610.119
339.9793, 1614.777
340.4614, 1622.962
340.9435, 1627.452
341.4256, 1621.932
341.9077, 1607.494
342.3898, 1597.688
342.8719, 1596.322
343.3541, 1595.550
343.8362, 1593.990
344.3183, 1591.958
344.8004, 1590.243
345.2825, 1589.299
345.7646, 1588.393
346.2468, 1585.409
346.7289, 1578.705
347.2110, 1572.968
347.6931, 1568.978
348.1752, 1565.914
348.6573, 1563.494
349.1395, 1561.508
349.6216, 1559.245
350.1037, 1555.360
350.5858, 1549.084
351.0679, 1544.278
351.5500, 1542.796
352.0322, 1541.462
352.5143, 1538.813
352.9964, 1534.923
353.4785, 1530.640
353.9606, 1526.588
354.4427, 1522.772
354.9249, 1519.092
355.4070, 1516.031
355.8891, 1512.474
356.3712, 1507.316
356.8533, 1501.584
357.3354, 1497.080
357.8176, 1495.051
358.2997, 1494.184
358.7818, 1491.041
359.2639, 1484.447
359.7460, 1478.432
360.2281, 1474.605
360.7103, 1471.542
361.1924, 1467.860
361.6745, 1463.189
362.1566, 1458.657
362.6387, 1456.065
363.1208, 1455.664
363.6030, 1454.094
364.0851, 1450.318
364.5672, 1445.561
365.0493, 1440.356
365.5314, 1434.839
366.0135, 1429.352
366.4957, 1424.076
366.9778, 1419.040
367.4599, 1414.173
367.9420, 1409.013
368.4241, 1404.997
368.9063, 1403.760
369.3884, 1404.016
369.8705, 1403.534
370.3526, 1401.268
370.8347, 1398.100
371.3168, 1395.303
371.7990, 1392.947
372.2811, 1390.412
372.7632, 1387.373
373.2453, 1384.033
373.7274, 1380.611
374.2095, 1377.080
374.6917, 1373.635
375.1738, 1370.680
375.6559, 1368.029
376.1380, 1364.548
376.6201, 1359.391
377.1022, 1354.295
377.5844, 1351.571
378.0665, 1350.915
378.5486, 1349.459
379.0307, 1345.481
379.5128, 1340.355
379.9949, 1336.012
380.4771, 1332.600
380.9592, 1329.819
381.4413, 1327.445
381.9234, 1325.571
382.4055, 1324.432
382.8876, 1325.108
383.3698, 1325.495
383.8519, 1324.162
384.3340, 1321.331
384.8161, 1317.648
385.2982, 1313.057
385.7803, 1308.275
386.2624, 1305.164
386.7445, 1304.143
387.2267, 1303.035
387.7088, 1301.155
388.1909, 1298.893
388.6730, 1296.661
389.1551, 1294.536
389.6372, 1292.760
390.1194, 1291.729
390.6015, 1291.641
391.0836, 1290.798
391.5657, 1288.491
392.0478, 1286.056
392.5299, 1284.332
393.0121, 1283.212
393.4942, 1282.073
393.9763, 1280.451
394.4584, 1278.561
394.9405, 1277.565
395.4226, 1277.264
395.9048, 1278.016
396.3869, 1281.310
396.8690, 1285.119
397.3511, 1286.781
397.8332, 1285.516
398.3153, 1282.953
398.7975, 1281.564
399.2796, 1281.781
399.7617, 1282.141
400.2438, 1282.703
400.7259, 1283.341
401.2080, 1284.476
401.6902, 1285.725
402.1723, 1285.905
402.6544, 1283.894
403.1365, 1279.943
403.6186, 1277.176
404.1007, 1276.723
404.5829, 1276.187
405.0650, 1275.183
405.5471, 1273.854
406.0292, 1272.440
406.5113, 1271.031
406.9934, 1269.431
407.4756, 1267.306
407.9577, 1264.666
408.4398, 1261.432
408.9219, 1257.254
409.4040, 1252.737
409.8861, 1248.257
410.3683, 1243.759
410.8504, 1238.842
411.3325, 1232.590
411.8146, 1225.391
412.2967, 1220.654
412.7788, 1219.896
413.2610, 1219.019
413.7431, 1216.034
414.2252, 1211.909
414.7073, 1207.928
415.1894, 1204.492
415.6715, 1201.395
416.1537, 1198.412
416.6358, 1195.549
417.1179, 1192.694
417.6000, 1189.792
418.0821, 1186.893
418.5642, 1184.010
419.0464, 1181.146
419.5285, 1178.334
420.0106, 1175.127
420.4927, 1172.054
420.9748, 1170.501
421.4569, 1170.827
421.9391, 1171.577
422.4212, 1172.123
422.9033, 1172.229
423.3854, 1171.130
423.8675, 1167.817
424.3496, 1164.162
424.8318, 1161.242
425.3139, 1159.016
425.7960, 1157.434
426.2781, 1156.577
426.7602, 1156.170
427.2423, 1155.708
427.7245, 1155.145
428.2066, 1154.677
428.6887, 1154.636
429.1708, 1154.531
429.6529, 1153.617
430.1350, 1151.914
430.6172, 1150.400
431.0992, 1150.009
431.5814, 1150.762
432.0635, 1150.894
432.5456, 1149.694
433.0277, 1148.801
433.5098, 1148.798
433.9919, 1149.428
434.4741, 1150.326
434.9562, 1151.339
435.4383, 1152.348
435.9204, 1153.113
436.4025, 1153.601
436.8846, 1153.892
437.3668, 1153.556
437.8489, 1153.403
438.3310, 1154.001
438.8131, 1155.284
439.2952, 1156.750
439.7773, 1157.918
440.2595, 1158.883
440.7416, 1160.762
441.2237, 1165.008
441.7058, 1167.976
442.1879, 1167.204
442.6700, 1165.468
443.1522, 1166.249
443.6343, 1170.749
444.1164, 1176.264
444.5985, 1179.004
445.0806, 1178.652
445.5627, 1179.531
446.0449, 1182.844
446.5270, 1186.953
447.0091, 1190.975
447.4912, 1194.868
447.9733, 1198.610
448.4554, 1201.754
448.9376, 1204.931
449.4197, 1209.449
449.9018, 1215.465
450.3839, 1221.617
450.8660, 1226.876
451.3481, 1232.109
451.8303, 1238.955
452.3124, 1248.179
452.7945, 1256.976
453.2766, 1263.637
453.7587, 1268.866
454.2408, 1273.768
454.7230, 1278.424
455.2051, 1283.996
455.6872, 1292.071
456.1693, 1302.881
456.6514, 1312.429
457.1335, 1319.323
457.6157, 1326.258
458.0978, 1334.462
458.5799, 1343.938
459.0620, 1354.641
459.5441, 1366.626
460.0262, 1379.282
460.5084, 1390.872
460.9905, 1401.087
461.4726, 1410.566
461.9547, 1418.218
462.4368, 1425.952
462.9189, 1435.081
463.4011, 1445.699
463.8832, 1457.279
464.3653, 1469.539
464.8474, 1482.391
465.3295, 1494.356
465.8116, 1504.497
466.2938, 1514.953
466.7759, 1526.251
467.2580, 1537.951
467.7401, 1549.881
468.2222, 1561.868
468.7043, 1573.342
469.1865, 1583.461
469.6686, 1592.158
470.1507, 1600.065
470.6328, 1606.597
471.1149, 1613.051
471.5970, 1621.294
472.0792, 1630.116
472.5613, 1636.374
473.0434, 1638.014
473.5255, 1637.010
474.0076, 1636.281
474.4897, 1635.854
474.9719, 1634.519
475.4540, 1632.009
475.9361, 1628.076
476.4182, 1622.649
476.9003, 1615.741
477.3824, 1607.488
477.8645, 1597.045
478.3466, 1585.642
478.8288, 1575.510
479.3109, 1566.780
479.7930, 1557.127
480.2751, 1544.344
480.7572, 1529.057
481.2393, 1515.639
481.7215, 1505.257
482.2036, 1495.208
482.6857, 1484.372
483.1678, 1473.548
483.6499, 1463.613
484.1320, 1454.881
484.6142, 1447.280
485.0963, 1440.718
485.5784, 1435.179
486.0605, 1430.814
486.5426, 1427.483
487.0247, 1425.309
487.5069, 1424.198
487.9890, 1424.309
488.4711, 1426.097
488.9532, 1429.838
489.4353, 1434.784
489.9174, 1439.036
490.3996, 1441.737
490.8817, 1446.644
491.3638, 1456.661
491.8459, 1467.267
492.3280, 1475.144
492.8102, 1481.006
493.2923, 1488.773
493.7744, 1501.782
494.2565, 1518.018
494.7386, 1533.072
495.2207, 1546.681
495.7029, 1560.550
496.1850, 1575.412
496.6671, 1591.108
497.1492, 1607.348
497.6313, 1624.051
498.1134, 1641.470
498.5956, 1659.544
499.0777, 1678.469
499.5598, 1698.638
500.0419, 1720.107
500.5240, 1742.441
501.0061, 1765.008
501.4883, 1787.943
501.9704, 1812.970
502.4525, 1841.755
502.9346, 1870.187
503.4167, 1896.518
503.8988, 1921.823
504.3810, 1947.359
504.8631, 1973.589
505.3452, 2000.435
505.8273, 2028.037
506.3094, 2056.731
506.7915, 2084.121
507.2737, 2112.702
507.7558, 2137.429
508.2379, 2156.539
508.7200, 2170.674
509.2021, 2181.058
509.6842, 2188.300
510.1664, 2191.898
510.6485, 2191.112
511.1306, 2185.960
511.6127, 2176.478
512.0948, 2163.334
512.5769, 2144.594
513.0590, 2118.429
513.5411, 2085.958
514.0233, 2051.146
514.5054, 2016.383
514.9875, 1979.875
515.4696, 1938.880
515.9517, 1893.695
516.4338, 1848.088
516.9160, 1803.264
517.3981, 1759.615
517.8802, 1717.189
518.3623, 1676.068
518.8444, 1636.151
519.3265, 1597.267
519.8087, 1559.746
520.2908, 1523.008
520.7729, 1487.550
521.2550, 1455.390
521.7371, 1428.111
522.2192, 1404.643
522.7014, 1380.724
523.1835, 1354.246
523.6656, 1330.221
524.1477, 1309.425
524.6298, 1290.689
525.1119, 1273.241
525.5941, 1256.779
526.0762, 1241.394
526.5583, 1227.134
527.0404, 1213.907
527.5225, 1200.748
528.0046, 1186.860
528.4868, 1174.585
528.9689, 1165.699
529.4510, 1158.043
529.9331, 1149.477
530.4152, 1139.661
530.8973, 1130.517
531.3795, 1124.105
531.8616, 1119.541
532.3437, 1114.278
532.8258, 1108.092
533.3079, 1101.304
533.7900, 1093.555
534.2722, 1085.424
534.7543, 1078.641
535.2364, 1073.675
535.7185, 1069.247
536.2006, 1064.873
536.6827, 1060.695
537.1649, 1057.036
537.6470, 1053.914
538.1291, 1050.966
538.6112, 1047.834
539.0933, 1044.520
539.5754, 1041.204
540.0576, 1037.358
540.5397, 1034.175
541.0218, 1032.733
541.5039, 1031.684
541.9860, 1029.330
542.4681, 1025.308
542.9503, 1020.826
543.4324, 1017.319
543.9145, 1014.814
544.3966, 1012.133
544.8787, 1008.763
545.3608, 1006.030
545.8430, 1004.997
546.3251, 1004.662
546.8072, 1003.647
547.2893, 1001.514
547.7714, 999.0345
548.2535, 996.5897
548.7357, 994.3213
549.2178, 992.8037
549.6999, 992.2822
550.1820, 991.8865
550.6641, 990.8478
551.1462, 989.2452
551.6284, 987.8953
552.1105, 987.1331
552.5926, 986.2486
553.0747, 984.5972
553.5568, 982.7677
554.0389, 981.8430
554.5211, 982.0317
555.0032, 982.3210
555.4853, 981.4760
555.9674, 979.3552
556.4495, 977.7606
556.9316, 977.3096
557.4138, 976.6884
557.8959, 975.4952
558.3780, 974.0207
558.8601, 972.6122
559.3422, 971.3752
559.8243, 970.2123
560.3065, 968.9528
560.7886, 967.6188
561.2707, 966.6198
561.7528, 966.0452
562.2349, 965.6686
562.7170, 965.6846
563.1992, 965.7366
563.6813, 965.1146
564.1634, 963.3068
564.6455, 961.7548
565.1276, 961.9806
565.6097, 962.9531
566.0919, 962.5345
566.5740, 960.3226
567.0561, 957.4840
567.5382, 954.8733
568.0203, 952.5075
568.5024, 950.7629
568.9846, 950.7151
569.4667, 949.8383
569.9488, 947.0964
570.4309, 943.5089
570.9130, 939.9480
571.3951, 936.7031
571.8773, 934.0448
572.3594, 932.4919
572.8415, 931.9026
573.3236, 929.9675
573.8057, 926.2527
574.2878, 921.9463
574.7700, 916.6947
575.2521, 911.4885
575.7342, 907.5051
576.2163, 904.9487
576.6984, 902.6871
577.1805, 900.0748
577.6627, 897.1886
578.1448, 893.9102
578.6269, 890.1963
579.1090, 887.2646
579.5911, 886.2917
580.0732, 886.3365
580.5554, 884.4348
581.0375, 879.6674
581.5196, 875.2285
582.0017, 871.4164
582.4838, 868.3963
582.9659, 866.7967
583.4481, 866.2881
583.9302, 865.6301
584.4123, 863.9491
584.8944, 861.4825
585.3765, 859.0709
585.8586, 856.7510
586.3408, 854.4231
586.8229, 851.3217
587.3050, 848.8466
587.7871, 848.5101
588.2692, 849.7615
588.7513, 850.3292
589.2334, 848.7575
589.7155, 845.9412
590.1976, 843.1933
590.6797, 840.5089
591.1619, 837.9760
591.6440, 835.6381
592.1261, 833.4571
592.6082, 831.2100
593.0903, 828.8562
593.5724, 827.4583
594.0546, 828.4982
594.5367, 829.2518
595.0188, 827.7023
595.5009, 824.5972
595.9830, 821.6298
596.4651, 819.4444
596.9473, 817.6252
597.4294, 815.4398
597.9115, 812.6135
598.3936, 810.7635
598.8757, 811.0153
599.3578, 811.0940
599.8400, 810.1844
600.3221, 808.7570
600.8042, 807.5050
601.2863, 806.6614
601.7684, 805.8860
602.2505, 805.0441
602.7327, 804.0231
603.2148, 802.0193
603.6969, 798.5859
604.1790, 795.7265
604.6611, 795.2941
605.1432, 796.3505
605.6254, 795.6636
606.1075, 792.0319
606.5896, 788.9055
607.0717, 787.5848
607.5538, 787.1781
608.0359, 787.1100
608.5181, 787.0865
609.0002, 786.3899
609.4823, 784.3714
609.9644, 781.4609
610.4465, 779.6255
610.9286, 779.9297
611.4108, 779.2188
611.8929, 775.6169
612.3750, 772.2545
612.8571, 771.6982
613.3392, 773.3211
613.8214, 774.3129
614.3035, 772.8483
614.7856, 770.2781
615.2677, 768.5500
615.7498, 767.6194
616.2319, 767.0825
616.7141, 767.0096
617.1962, 766.8632
617.6783, 765.8620
618.1604, 763.9834
618.6425, 762.6495
619.1246, 762.5325
619.6068, 762.3105
