##NAMES=Albite
##RRUFFID=R050402
##IDEAL CHEMISTRY=NaAlSi_3_O_8_
##LOCALITY=Urbano mine, Golconda District, Brazil
##OWNER=RRUFF
##SOURCE=Bob Downs
##DESCRIPTION=Colorless tabular single crystals associated with fluorapatite R050401
##STATUS=The identification of this mineral has been confirmed by X-ray diffraction and chemical analysis
##URL=rruff.info/R050402
##MEASURED CHEMISTRY=Na_1.00_Al_1.00_Si_3.00_O_8_
92.35352, 16.03212
92.83563, 15.82471
93.31775, 15.73679
93.79987, 15.74282
94.28198, 15.86508
94.76410, 16.19847
95.24622, 16.83217
95.72833, 17.61212
96.21045, 18.20393
96.69257, 18.60485
97.17468, 18.91627
97.65680, 19.11814
98.13892, 19.21760
98.62103, 19.58759
99.10315, 20.36045
99.58527, 21.49144
100.0674, 22.72166
100.5495, 24.12765
101.0316, 25.44040
101.5137, 26.18710
101.9958, 26.14755
102.4780, 26.33202
102.9601, 27.04323
103.4422, 28.31329
103.9243, 29.89508
104.4064, 31.81178
104.8885, 34.03223
105.3707, 36.62547
105.8528, 39.99921
106.3349, 43.13761
106.8170, 45.50912
107.2991, 46.07284
107.7813, 47.85777
108.2634, 51.36303
108.7455, 56.17670
109.2276, 60.77616
109.7097, 64.87964
110.1918, 69.01624
110.6740, 73.41195
111.1561, 78.32616
111.6382, 83.21471
112.1203, 88.20029
112.6024, 93.23975
113.0845, 97.78169
113.5667, 102.5242
114.0488, 106.2989
114.5309, 108.3609
115.0130, 106.6076
115.4951, 104.9131
115.9772, 104.6672
116.4594, 105.8411
116.9415, 106.6207
117.4236, 105.5985
117.9057, 104.0727
118.3878, 103.4347
118.8699, 104.7677
119.3521, 106.6866
119.8342, 108.3471
120.3163, 109.6439
120.7984, 111.2691
121.2805, 113.8260
121.7626, 116.9855
122.2448, 120.1851
122.7269, 123.0881
123.2090, 125.9390
123.6911, 128.9195
124.1732, 132.0086
124.6553, 135.3948
125.1375, 139.5336
125.6196, 144.1914
126.1017, 148.6282
126.5838, 151.7538
127.0659, 154.4683
127.5480, 158.5389
128.0302, 164.5460
128.5123, 171.3435
128.9944, 177.1783
129.4765, 182.1818
129.9586, 187.5823
130.4407, 194.4028
130.9229, 202.4038
131.4050, 210.6888
131.8871, 218.9316
132.3692, 227.2803
132.8513, 235.7645
133.3334, 243.9592
133.8156, 251.5836
134.2977, 259.1584
134.7798, 267.5355
135.2619, 276.5475
135.7440, 286.2036
136.2261, 296.3703
136.7083, 307.2337
137.1904, 318.7444
137.6725, 331.1696
138.1546, 344.8068
138.6367, 359.6261
139.1188, 375.9999
139.6010, 394.1645
140.0831, 414.0319
140.5652, 435.3766
141.0473, 457.9606
141.5294, 482.5846
142.0115, 510.0559
142.4937, 541.1161
142.9758, 573.7834
143.4579, 608.3620
143.9400, 645.4284
144.4221, 681.0576
144.9042, 716.6847
145.3864, 750.2117
145.8685, 777.2811
146.3506, 797.3455
146.8327, 812.2016
147.3148, 821.9233
147.7969, 823.3323
148.2791, 826.5805
148.7612, 830.4542
149.2433, 836.1730
149.7254, 846.8146
150.2075, 864.9208
150.6896, 885.6222
151.1718, 907.2657
151.6539, 933.4180
152.1360, 955.4453
152.6181, 971.1559
153.1002, 982.3713
153.5823, 994.4343
154.0645, 1005.089
154.5466, 1018.670
155.0287, 1037.049
155.5108, 1059.756
155.9929, 1088.328
156.4750, 1122.651
156.9572, 1162.771
157.4393, 1208.440
157.9214, 1261.081
158.4035, 1318.731
158.8856, 1380.275
159.3677, 1449.590
159.8499, 1518.910
160.3320, 1590.551
160.8141, 1662.407
161.2962, 1721.338
161.7783, 1768.348
162.2604, 1797.381
162.7426, 1803.465
163.2247, 1783.628
163.7068, 1742.192
164.1889, 1675.000
164.6710, 1583.999
165.1531, 1487.176
165.6353, 1383.886
166.1174, 1282.611
166.5995, 1192.490
167.0816, 1116.223
167.5637, 1052.406
168.0458, 1000.911
168.5280, 962.0998
169.0101, 932.4755
169.4922, 913.9771
169.9743, 902.8063
170.4564, 893.8256
170.9385, 886.7142
171.4207, 879.8270
171.9028, 871.4266
172.3849, 861.4248
172.8670, 851.4365
173.3491, 841.4510
173.8312, 832.3180
174.3134, 825.6456
174.7955, 822.3386
175.2776, 821.8488
175.7597, 823.4088
176.2418, 826.9324
176.7239, 833.1953
177.2061, 843.7205
177.6882, 857.7996
178.1703, 873.2517
178.6524, 889.3552
179.1345, 906.2635
179.6166, 924.0391
180.0988, 942.8948
180.5809, 962.4213
181.0630, 982.5247
181.5451, 1003.190
182.0272, 1023.491
182.5093, 1043.833
182.9915, 1063.669
183.4736, 1081.984
183.9557, 1099.417
184.4378, 1113.389
184.9199, 1120.891
185.4020, 1121.991
185.8842, 1118.037
186.3663, 1110.717
186.8484, 1099.084
187.3305, 1079.480
187.8126, 1050.758
188.2947, 1015.821
188.7769, 977.6191
189.2590, 936.2924
189.7411, 894.8511
190.2232, 853.7653
190.7053, 813.4658
191.1874, 775.5327
191.6696, 739.5350
192.1517, 706.1854
192.6338, 676.6492
193.1159, 650.9540
193.5980, 628.0537
194.0801, 607.6095
194.5623, 589.6381
195.0444, 573.3141
195.5265, 558.7089
196.0086, 545.7072
196.4907, 534.0862
196.9728, 523.8350
197.4550, 514.9896
197.9371, 507.3813
198.4192, 500.9912
198.9013, 496.8602
199.3834, 495.4306
199.8655, 495.9341
200.3477, 496.2202
200.8298, 495.9254
201.3119, 497.1166
201.7940, 501.1099
202.2761, 508.0108
202.7582, 516.4247
203.2404, 526.0662
203.7225, 537.2626
204.2046, 551.0214
204.6867, 567.5294
205.1688, 586.0364
205.6509, 606.3533
206.1331, 628.9317
206.6152, 651.3401
207.0973, 674.2492
207.5794, 696.4277
208.0615, 714.8210
208.5436, 730.4551
209.0258, 739.6645
209.5079, 740.7180
209.9900, 734.1745
210.4721, 716.8080
210.9542, 686.6405
211.4363, 646.0633
211.9185, 601.8945
212.4006, 551.9744
212.8827, 502.7328
213.3648, 458.9474
213.8469, 420.5902
214.3290, 385.7934
214.8112, 354.1888
215.2933, 326.1979
215.7754, 302.6011
216.2575, 284.3805
216.7396, 268.6272
217.2217, 253.5626
217.7038, 238.4522
218.1860, 226.6082
218.6681, 219.4993
219.1502, 215.6910
219.6323, 209.7953
220.1144, 200.5050
220.5965, 191.4599
221.0787, 184.9866
221.5608, 182.1555
222.0429, 178.9771
222.5250, 174.9587
223.0071, 170.4635
223.4892, 166.9833
223.9714, 164.6910
224.4535, 163.0900
224.9356, 162.0120
225.4177, 161.8594
225.8998, 161.2180
226.3819, 159.6770
226.8641, 157.6359
227.3462, 156.5273
227.8283, 156.5373
228.3104, 157.1869
228.7925, 158.2822
229.2746, 160.0291
229.7568, 161.7635
230.2389, 163.2995
230.7210, 164.8452
231.2031, 167.0137
231.6852, 169.8759
232.1673, 173.2437
232.6495, 177.0583
233.1316, 181.5334
233.6137, 185.9514
234.0958, 190.0915
234.5779, 194.1575
235.0600, 198.7143
235.5422, 204.1993
236.0243, 209.6196
236.5064, 214.5184
236.9885, 218.6069
237.4706, 222.8053
237.9527, 227.0628
238.4349, 231.3958
238.9170, 235.7727
239.3991, 240.0441
239.8812, 244.5794
240.3633, 249.4413
240.8454, 254.2802
241.3276, 260.3457
241.8097, 267.9279
242.2918, 276.5483
242.7739, 284.9984
243.2560, 292.5615
243.7381, 301.0560
244.2203, 311.0966
244.7024, 322.6385
245.1845, 335.8247
245.6666, 350.5619
246.1487, 366.9592
246.6308, 385.5156
247.1130, 406.1850
247.5951, 429.2113
248.0772, 454.7277
248.5593, 483.4956
249.0414, 512.6188
249.5235, 543.0450
250.0057, 573.1770
250.4878, 601.5822
250.9699, 630.8223
251.4520, 653.9513
251.9341, 669.7414
252.4162, 679.6717
252.8984, 675.0817
253.3805, 652.5511
253.8626, 617.8480
254.3447, 579.1348
254.8268, 532.6473
255.3089, 488.5822
255.7911, 449.7641
256.2732, 415.9424
256.7553, 387.7425
257.2374, 365.5368
257.7195, 348.5367
258.2017, 336.0003
258.6838, 328.7222
259.1659, 323.8568
259.6480, 320.7524
260.1301, 319.4256
260.6122, 319.9166
261.0944, 322.1962
261.5765, 326.3598
262.0586, 332.4837
262.5407, 340.4773
263.0228, 350.6429
263.5049, 363.2118
263.9871, 378.2289
264.4692, 393.7751
264.9513, 409.6136
265.4334, 426.5711
265.9155, 445.9994
266.3976, 468.1201
266.8798, 490.8682
267.3619, 514.0663
267.8440, 537.6824
268.3261, 560.1232
268.8082, 581.9745
269.2903, 601.3518
269.7725, 616.3887
270.2546, 626.4921
270.7367, 634.1824
271.2188, 639.5463
271.7009, 642.7157
272.1830, 643.8635
272.6652, 642.2828
273.1473, 640.5844
273.6294, 640.3004
274.1115, 641.4135
274.5936, 644.1364
275.0757, 648.4138
275.5579, 654.3661
276.0400, 662.4580
276.5221, 672.9621
277.0042, 684.4742
277.4863, 695.6721
277.9684, 706.3215
278.4506, 719.7611
278.9327, 736.1562
279.4148, 755.5143
279.8969, 777.8538
280.3790, 803.1731
280.8611, 831.4696
281.3433, 862.4344
281.8254, 896.2336
282.3075, 933.9029
282.7896, 975.4344
283.2717, 1021.387
283.7538, 1071.999
284.2360, 1127.185
284.7181, 1189.195
285.2002, 1259.164
285.6823, 1336.931
286.1644, 1422.514
286.6465, 1516.113
287.1287, 1613.774
287.6108, 1712.749
288.0929, 1812.647
288.5750, 1906.763
289.0571, 1997.296
289.5392, 2080.493
290.0214, 2142.594
290.5035, 2184.230
290.9856, 2199.386
291.4677, 2181.186
291.9498, 2130.186
292.4319, 2050.507
292.9141, 1936.565
293.3962, 1798.118
293.8783, 1651.624
294.3604, 1497.545
294.8425, 1348.498
295.3246, 1211.143
295.8068, 1085.525
296.2889, 974.8505
296.7710, 880.1611
297.2531, 798.4291
297.7352, 726.9467
298.2173, 665.7050
298.6995, 612.0856
299.1816, 566.2107
299.6637, 526.8183
300.1458, 492.6454
300.6279, 463.5388
301.1100, 438.5732
301.5922, 417.5099
302.0743, 400.0553
302.5564, 385.0966
303.0385, 371.9814
303.5206, 360.8548
304.0027, 351.8312
304.4849, 345.1688
304.9670, 339.9767
305.4491, 335.8322
305.9312, 332.6080
306.4133, 329.9992
306.8954, 327.7484
307.3776, 326.0953
307.8597, 325.4590
308.3418, 325.9152
308.8239, 326.7525
309.3060, 327.9169
309.7881, 329.0558
310.2703, 329.5758
310.7524, 329.1508
311.2345, 328.1077
311.7166, 326.7098
312.1987, 324.9536
312.6808, 322.6219
313.1630, 319.2194
313.6451, 315.2889
314.1272, 311.3804
314.6093, 307.5049
315.0914, 303.8931
315.5735, 300.6703
316.0557, 297.8324
316.5378, 295.3696
317.0199, 292.6317
317.5020, 290.6458
317.9841, 290.1890
318.4662, 291.9982
318.9484, 294.5481
319.4305, 297.0889
319.9126, 299.9668
320.3947, 304.0909
320.8768, 309.8147
321.3589, 316.7830
321.8411, 324.6225
322.3232, 332.4674
322.8053, 343.0118
323.2874, 356.9901
323.7695, 373.9285
324.2516, 393.0785
324.7338, 415.2140
325.2159, 438.7191
325.6980, 463.4441
326.1801, 489.8510
326.6622, 515.6649
327.1443, 543.4454
327.6265, 569.5792
328.1086, 590.5299
328.5907, 610.3137
329.0728, 620.1702
329.5549, 619.0687
330.0370, 606.9276
330.5192, 583.6071
331.0013, 542.5274
331.4834, 495.7220
331.9655, 450.5199
332.4476, 404.8359
332.9297, 364.1633
333.4119, 329.5213
333.8940, 300.4136
334.3761, 275.4164
334.8582, 255.5446
335.3403, 238.9736
335.8224, 225.1446
336.3046, 214.5667
336.7867, 205.1506
337.2688, 196.8164
337.7509, 189.5789
338.2330, 183.2812
338.7151, 177.9593
339.1973, 173.6208
339.6794, 170.4439
340.1615, 168.5148
340.6436, 166.4253
341.1257, 164.1221
341.6078, 161.8298
342.0899, 159.8282
342.5721, 158.1624
343.0542, 156.6314
343.5363, 155.0448
344.0184, 153.5748
344.5005, 153.1968
344.9826, 154.0557
345.4648, 154.9755
345.9469, 154.6008
346.4290, 153.1433
346.9111, 152.3887
347.3932, 152.9020
347.8753, 153.9708
348.3575, 154.3590
348.8396, 154.0787
349.3217, 153.2756
349.8038, 151.9343
350.2859, 150.1455
350.7680, 148.0528
351.2502, 145.6006
351.7323, 143.1223
352.2144, 141.0889
352.6965, 139.3546
353.1786, 137.5377
353.6607, 135.1655
354.1429, 132.7346
354.6250, 130.8923
355.1071, 129.6768
355.5892, 128.7403
356.0713, 127.8732
356.5534, 127.1018
357.0356, 126.4690
357.5177, 126.2983
357.9998, 126.0115
358.4819, 125.0320
358.9640, 123.4857
359.4461, 122.0987
359.9283, 121.2891
360.4104, 120.7796
360.8925, 120.3690
361.3746, 120.1421
361.8567, 119.7789
362.3388, 118.8774
362.8210, 117.7389
363.3031, 117.0271
363.7852, 117.4707
364.2673, 117.9700
364.7494, 117.9153
365.2315, 117.0041
365.7137, 116.4204
366.1958, 116.7264
366.6779, 117.3696
367.1600, 117.7027
367.6421, 117.3360
368.1242, 116.9827
368.6064, 116.8234
369.0885, 116.8737
369.5706, 116.8044
370.0527, 116.4778
370.5348, 116.1392
371.0169, 115.9607
371.4991, 116.1602
371.9812, 116.1380
372.4633, 115.6724
372.9454, 114.9637
373.4275, 114.7765
373.9096, 115.4321
374.3918, 116.0474
374.8739, 116.1400
375.3560, 115.5208
375.8381, 115.2335
376.3202, 115.3029
376.8023, 115.6730
377.2845, 116.3277
377.7666, 117.3147
378.2487, 118.2778
378.7308, 118.9623
379.2129, 119.4836
379.6950, 120.6992
380.1772, 122.7391
380.6593, 124.8528
381.1414, 126.3415
381.6235, 127.2495
382.1056, 128.0714
382.5877, 128.7963
383.0699, 129.6275
383.5520, 131.1452
384.0341, 133.2835
384.5162, 135.2245
384.9983, 136.1418
385.4804, 136.5448
385.9626, 137.5130
386.4447, 139.1596
386.9268, 141.3335
387.4089, 143.9444
387.8910, 146.9760
388.3731, 150.3342
388.8553, 153.7873
389.3374, 157.6733
389.8195, 162.2296
390.3016, 167.4053
390.7837, 173.3370
391.2658, 180.8438
391.7480, 188.7746
392.2301, 195.8959
392.7122, 201.3271
393.1943, 206.6348
393.6764, 212.2529
394.1585, 218.2779
394.6407, 224.8582
395.1228, 232.6201
395.6049, 240.5322
396.0870, 248.0327
396.5691, 254.6853
397.0512, 262.0083
397.5334, 271.2868
398.0155, 281.1086
398.4976, 289.5832
398.9797, 295.9482
399.4618, 301.6418
399.9439, 306.6918
400.4261, 311.0986
400.9082, 315.6923
401.3903, 319.3398
401.8724, 324.2404
402.3545, 331.7587
402.8366, 341.8374
403.3188, 354.5635
403.8009, 370.4987
404.2830, 388.8353
404.7651, 407.5728
405.2472, 426.2975
405.7293, 446.1211
406.2115, 468.5364
406.6936, 493.5345
407.1757, 515.9589
407.6578, 537.2800
408.1399, 552.1297
408.6220, 555.0479
409.1042, 546.0780
409.5863, 525.6887
410.0684, 490.0992
410.5505, 446.2448
411.0326, 406.8639
411.5147, 371.8898
411.9969, 343.5815
412.4790, 324.1478
412.9611, 312.1635
413.4432, 305.0198
413.9253, 302.7697
414.4074, 303.4117
414.8896, 306.0052
415.3717, 309.8585
415.8538, 313.3319
416.3359, 317.8142
416.8180, 320.1398
417.3001, 317.7068
417.7823, 310.3972
418.2644, 298.6537
418.7465, 279.4807
419.2286, 257.2936
419.7107, 236.4744
420.1928, 217.1465
420.6750, 200.3600
421.1571, 186.7905
421.6392, 175.9917
422.1213, 167.1826
422.6034, 160.8678
423.0855, 155.8947
423.5677, 151.9095
424.0498, 149.1490
424.5319, 146.5433
425.0140, 143.9041
425.4961, 141.4165
425.9782, 139.2568
426.4604, 137.4777
426.9425, 135.9462
427.4246, 134.5813
427.9067, 133.4194
428.3888, 132.8640
428.8709, 133.2220
429.3531, 133.6448
429.8352, 133.6074
430.3173, 132.9742
430.7994, 132.5993
431.2815, 132.5848
431.7636, 132.7026
432.2458, 132.5028
432.7279, 131.9519
433.2100, 131.6296
433.6921, 131.8088
434.1742, 132.3624
434.6563, 132.8507
435.1385, 133.2791
435.6206, 133.6497
436.1027, 133.7916
436.5848, 133.8725
437.0669, 134.4381
437.5490, 135.7612
438.0312, 137.1765
438.5133, 137.7791
438.9954, 137.8478
439.4775, 138.1540
439.9596, 139.1891
440.4417, 140.5818
440.9239, 142.0213
441.4060, 143.4906
441.8881, 145.0719
442.3702, 147.0288
442.8523, 149.0025
443.3344, 150.6531
443.8166, 151.4764
444.2987, 152.4467
444.7808, 153.9728
445.2629, 155.8861
445.7450, 157.7094
446.2271, 158.7548
446.7093, 160.1626
447.1914, 162.5001
447.6735, 166.2005
448.1556, 169.4515
448.6377, 171.7219
449.1198, 173.8670
449.6020, 176.7777
450.0841, 180.6532
450.5662, 184.7467
451.0483, 188.9357
451.5304, 193.2756
452.0125, 197.8537
452.4947, 202.6580
452.9768, 207.8539
453.4589, 213.7496
453.9410, 220.4171
454.4231, 226.6097
454.9052, 232.2448
455.3874, 237.8583
455.8695, 244.3451
456.3516, 251.6190
456.8337, 258.7788
457.3158, 265.4651
457.7979, 272.0275
458.2801, 278.8543
458.7622, 285.9970
459.2443, 294.1230
459.7264, 303.1198
460.2085, 313.5354
460.6906, 325.9301
461.1728, 340.3289
461.6549, 356.8317
462.1370, 375.5792
462.6191, 396.2394
463.1012, 417.9256
463.5833, 440.9150
464.0655, 464.3331
464.5476, 487.5529
465.0297, 510.5307
465.5118, 534.1021
465.9939, 558.1959
466.4760, 582.6647
466.9582, 607.1091
467.4403, 630.2322
467.9224, 656.0832
468.4045, 684.5442
468.8866, 715.6458
469.3687, 749.9074
469.8509, 786.0273
470.3330, 826.5750
470.8151, 871.8729
471.2972, 921.9835
471.7793, 977.1208
472.2614, 1037.448
472.7436, 1103.901
473.2257, 1177.955
473.7078, 1260.021
474.1899, 1345.755
474.6720, 1435.685
475.1541, 1528.289
475.6363, 1623.619
476.1184, 1720.700
476.6005, 1813.521
477.0826, 1903.087
477.5647, 1984.742
478.0468, 2057.642
478.5290, 2120.237
479.0111, 2158.358
479.4932, 2167.310
479.9753, 2143.935
480.4574, 2081.143
480.9395, 1972.085
481.4217, 1841.406
481.9038, 1693.475
482.3859, 1537.903
482.8680, 1390.635
483.3501, 1250.857
483.8322, 1126.136
484.3144, 1019.724
484.7965, 932.2048
485.2786, 856.8822
485.7607, 796.0469
486.2428, 745.8422
486.7249, 704.1425
487.2071, 671.8242
487.6892, 647.0892
488.1713, 630.3549
488.6534, 620.9476
489.1355, 617.9151
489.6176, 621.8253
490.0998, 630.7191
490.5819, 644.7199
491.0640, 663.4241
491.5461, 684.3489
492.0282, 707.5816
492.5103, 733.2133
492.9925, 761.7998
493.4746, 793.1729
493.9567, 823.8348
494.4388, 853.7366
494.9209, 884.1768
495.4030, 915.9271
495.8852, 949.5276
496.3673, 987.2443
496.8494, 1029.076
497.3315, 1075.748
497.8136, 1127.603
498.2957, 1185.039
498.7779, 1247.556
499.2600, 1312.289
499.7421, 1384.647
500.2242, 1468.381
500.7063, 1565.266
501.1884, 1671.510
501.6706, 1786.283
502.1527, 1909.107
502.6348, 2037.687
503.1169, 2173.995
503.5990, 2313.605
504.0811, 2458.857
504.5633, 2606.159
505.0454, 2747.453
505.5275, 2887.465
506.0096, 3009.611
506.4917, 3111.516
506.9738, 3196.198
507.4560, 3234.958
507.9381, 3228.719
508.4202, 3174.238
508.9023, 3060.912
509.3844, 2890.640
509.8665, 2692.016
510.3487, 2462.521
510.8308, 2221.476
511.3129, 1994.049
511.7950, 1781.315
512.2772, 1588.354
512.7593, 1418.388
513.2414, 1269.732
513.7235, 1138.940
514.2056, 1025.779
514.6877, 928.0742
515.1699, 849.0262
515.6520, 782.3951
516.1341, 722.7049
516.6162, 669.1459
517.0983, 621.4733
517.5804, 579.9779
518.0626, 543.8285
518.5447, 511.6633
519.0268, 484.3289
519.5089, 459.8388
519.9910, 438.4744
520.4731, 419.9933
520.9553, 401.8948
521.4374, 383.8195
521.9195, 366.9604
522.4016, 351.9936
522.8837, 339.1695
523.3658, 327.7847
523.8480, 318.1079
524.3301, 309.2555
524.8122, 300.0869
525.2943, 290.6898
525.7764, 281.7984
526.2585, 273.4669
526.7407, 265.9349
527.2228, 259.7568
527.7049, 254.7447
528.1870, 249.9829
528.6691, 244.7234
529.1512, 239.4373
529.6334, 234.6948
530.1155, 230.5016
530.5976, 226.5479
531.0797, 222.7720
531.5618, 219.0168
532.0439, 215.1418
532.5261, 210.5665
533.0082, 206.5825
533.4903, 203.9969
533.9724, 202.1473
534.4545, 199.5386
534.9366, 195.0427
535.4188, 190.9461
535.9009, 187.8307
536.3830, 185.6803
536.8651, 183.7383
537.3472, 182.0394
537.8293, 180.4937
538.3115, 179.2021
538.7936, 178.2292
539.2757, 176.5918
539.7578, 174.0713
540.2399, 171.4081
540.7220, 169.6275
541.2042, 168.6207
541.6863, 167.6258
542.1684, 166.3436
542.6505, 165.0167
543.1326, 164.1115
543.6147, 163.5008
544.0969, 162.6727
544.5790, 160.8821
545.0611, 159.0650
545.5432, 158.2714
546.0253, 158.6570
546.5074, 158.4998
546.9896, 156.4394
547.4717, 153.8941
547.9538, 152.0184
548.4359, 151.6842
548.9180, 151.0979
549.4001, 149.8168
549.8823, 148.2889
550.3644, 147.2762
550.8465, 146.9139
551.3286, 146.8373
551.8107, 147.1843
552.2928, 147.7975
552.7750, 147.3425
553.2571, 145.6082
553.7392, 143.8423
554.2213, 142.8446
554.7034, 142.5290
555.1855, 142.4184
555.6677, 142.5175
556.1498, 142.6139
556.6319, 142.5422
557.1140, 142.2961
557.5961, 141.8145
558.0782, 140.8736
558.5604, 140.0384
559.0425, 139.9119
559.5246, 140.2415
560.0067, 140.4690
560.4888, 140.1107
560.9709, 139.8303
561.4531, 140.0030
561.9352, 140.6387
562.4173, 141.1745
562.8994, 141.3273
563.3815, 141.5343
563.8636, 142.0732
564.3458, 143.2288
564.8279, 143.8959
565.3100, 143.8606
565.7921, 143.6178
566.2742, 143.7897
566.7563, 144.4023
567.2385, 145.1973
567.7206, 146.1650
568.2027, 147.2248
568.6848, 148.0624
569.1669, 148.7416
569.6490, 149.6596
570.1312, 151.2606
570.6133, 153.1378
571.0954, 154.5764
571.5775, 155.6189
572.0596, 156.8493
572.5417, 158.8079
573.0239, 161.0446
573.5060, 163.0723
573.9881, 164.5983
574.4702, 166.5412
574.9523, 169.5600
575.4344, 173.0368
575.9166, 176.1588
576.3987, 179.0285
576.8808, 181.3960
577.3629, 183.1947
577.8450, 184.4882
578.3271, 185.5477
578.8093, 186.4580
579.2914, 186.8880
579.7735, 186.8062
580.2556, 186.1584
580.7377, 184.3495
581.2198, 181.3316
581.7020, 177.6899
582.1841, 173.7399
582.6662, 169.5654
583.1483, 165.2392
583.6304, 160.8057
584.1125, 156.3974
584.5947, 151.8483
585.0768, 147.4914
585.5589, 143.8180
586.0410, 141.2868
586.5231, 139.1493
587.0052, 137.3060
587.4873, 135.6471
587.9694, 133.9093
588.4515, 131.5735
