##NAMES=Albite
##RRUFFID=R050253
##IDEAL CHEMISTRY=NaAlSi_3_O_8_
##LOCALITY=Madawaska/Faraday mine, Bancroft, Ontario, Canada
##OWNER=RRUFF
##SOURCE=Marcus Origlieri
##DESCRIPTION=Colorless to brown prismatic single crystals
##STATUS=The identification of this mineral has been confirmed by X-ray diffraction and chemical analysis
##URL=rruff.info/R050253
##MEASURED CHEMISTRY=(Na_0.99_Ca_0.01_)Al_1.00_(Si_0.99_Al_0.01_)_3_O_8_
93.12335, 0.0000000E+00
93.60547, 51.89243
94.08759, 50.51067
94.56970, 51.64653
95.05182, 54.64836
95.53394, 57.30611
96.01605, 58.39616
96.49817, 58.68965
96.98029, 60.50428
97.46240, 63.96349
97.94452, 68.30711
98.42664, 72.59469
98.90875, 76.84073
99.39087, 81.41037
99.87299, 86.35750
100.3551, 91.65847
100.8372, 97.55703
101.3193, 103.9841
101.8015, 111.0373
102.2836, 118.9057
102.7657, 127.9004
103.2478, 136.9419
103.7299, 145.3364
104.2120, 152.8935
104.6942, 160.7355
105.1763, 169.0668
105.6584, 177.7394
106.1405, 186.5928
106.6226, 195.7838
107.1047, 204.8777
107.5869, 213.4654
108.0690, 221.1827
108.5511, 229.0825
109.0332, 236.9348
109.5153, 244.8535
109.9974, 254.0645
110.4795, 264.1635
110.9617, 275.8828
111.4438, 289.7195
111.9259, 307.8724
112.4080, 326.1064
112.8901, 344.1121
113.3722, 362.1303
113.8544, 378.9385
114.3365, 394.8247
114.8186, 409.2071
115.3007, 421.6722
115.7828, 430.5498
116.2649, 438.6896
116.7471, 447.0085
117.2292, 455.8089
117.7113, 464.4147
118.1934, 472.4493
118.6755, 480.1584
119.1576, 487.9068
119.6398, 495.8242
120.1219, 503.9613
120.6040, 512.2158
121.0861, 520.4855
121.5682, 529.2405
122.0503, 539.2047
122.5325, 549.9662
123.0146, 560.4053
123.4967, 569.5532
123.9788, 578.1373
124.4609, 586.9817
124.9430, 595.7371
125.4252, 605.3293
125.9073, 616.6561
126.3894, 629.6357
126.8715, 643.7844
127.3536, 658.1064
127.8357, 673.3106
128.3179, 691.4230
128.8000, 714.1049
129.2821, 738.8920
129.7642, 761.3621
130.2463, 781.5114
130.7284, 801.8749
131.2106, 824.9706
131.6927, 850.4163
132.1748, 876.4505
132.6569, 901.9188
133.1390, 926.8376
133.6211, 949.7534
134.1033, 970.3766
134.5854, 991.2807
135.0675, 1009.327
135.5496, 1024.666
136.0317, 1041.217
136.5138, 1060.889
136.9960, 1083.436
137.4781, 1105.260
137.9602, 1125.977
138.4423, 1147.155
138.9244, 1171.215
139.4065, 1198.119
139.8887, 1228.194
140.3708, 1262.276
140.8529, 1301.284
141.3350, 1340.126
141.8171, 1378.153
142.2992, 1417.193
142.7814, 1460.949
143.2635, 1511.150
143.7456, 1563.119
144.2277, 1616.063
144.7098, 1671.554
145.1919, 1723.448
145.6741, 1771.536
146.1562, 1815.791
146.6383, 1852.693
147.1204, 1877.364
147.6025, 1900.853
148.0846, 1929.253
148.5668, 1964.154
149.0489, 2001.512
149.5310, 2046.218
150.0131, 2095.503
150.4952, 2129.070
150.9773, 2148.704
151.4595, 2151.495
151.9416, 2135.466
152.4237, 2087.801
152.9058, 2036.296
153.3879, 1978.167
153.8700, 1914.580
154.3522, 1863.281
154.8343, 1825.453
155.3164, 1799.511
155.7985, 1784.157
156.2806, 1778.889
156.7627, 1784.078
157.2449, 1801.158
157.7270, 1830.108
158.2091, 1864.775
158.6912, 1906.592
159.1733, 1952.701
159.6554, 2000.548
160.1376, 2056.375
160.6197, 2107.749
161.1018, 2152.460
161.5839, 2190.907
162.0660, 2216.504
162.5481, 2227.899
163.0303, 2225.097
163.5124, 2208.093
163.9945, 2167.634
164.4766, 2120.229
164.9587, 2071.665
165.4408, 2021.145
165.9230, 1977.595
166.4051, 1942.767
166.8872, 1917.570
167.3693, 1903.440
167.8514, 1904.390
168.3335, 1914.369
168.8157, 1930.677
169.2978, 1954.273
169.7799, 1978.505
170.2620, 2003.280
170.7441, 2025.655
171.2262, 2039.438
171.7084, 2037.876
172.1905, 2028.076
172.6726, 2015.700
173.1547, 2000.357
173.6368, 1986.262
174.1189, 1975.007
174.6011, 1967.410
175.0832, 1965.982
175.5653, 1973.808
176.0474, 1988.060
176.5295, 2004.798
177.0116, 2022.865
177.4938, 2044.949
177.9759, 2075.182
178.4580, 2112.599
178.9401, 2152.036
179.4222, 2190.268
179.9043, 2228.802
180.3865, 2270.396
180.8686, 2317.009
181.3507, 2364.636
181.8328, 2408.213
182.3149, 2447.823
182.7970, 2483.783
183.2792, 2518.687
183.7613, 2550.653
184.2434, 2574.591
184.7255, 2590.845
185.2076, 2597.347
185.6897, 2590.567
186.1718, 2570.606
186.6540, 2539.833
187.1361, 2499.123
187.6182, 2448.618
188.1003, 2390.117
188.5824, 2321.734
189.0645, 2246.990
189.5467, 2171.240
190.0288, 2093.726
190.5109, 2018.668
190.9930, 1948.618
191.4751, 1883.547
191.9572, 1823.420
192.4394, 1767.256
192.9215, 1716.054
193.4036, 1672.557
193.8857, 1636.692
194.3678, 1605.584
194.8499, 1577.365
195.3321, 1552.018
195.8142, 1529.475
196.2963, 1509.684
196.7784, 1492.914
197.2605, 1480.081
197.7426, 1471.235
198.2248, 1466.059
198.7069, 1464.934
199.1890, 1467.893
199.6711, 1472.566
200.1532, 1477.958
200.6353, 1484.665
201.1175, 1495.425
201.5996, 1510.008
202.0817, 1529.182
202.5638, 1553.793
203.0459, 1583.664
203.5280, 1618.204
204.0102, 1657.218
204.4923, 1700.748
204.9744, 1749.998
205.4565, 1806.237
205.9386, 1864.836
206.4207, 1923.079
206.9029, 1981.332
207.3850, 2035.365
207.8671, 2088.534
208.3492, 2138.323
208.8313, 2162.348
209.3134, 2159.990
209.7956, 2133.475
210.2777, 2082.036
210.7598, 2002.348
211.2419, 1911.369
211.7240, 1808.525
212.2061, 1695.114
212.6883, 1586.622
213.1704, 1481.699
213.6525, 1383.542
214.1346, 1296.327
214.6167, 1219.838
215.0988, 1152.647
215.5810, 1094.592
216.0631, 1045.872
216.5452, 1002.241
217.0273, 963.9434
217.5094, 930.2067
217.9915, 900.9828
218.4737, 876.7083
218.9558, 855.1027
219.4379, 836.4961
219.9200, 820.6129
220.4021, 805.7142
220.8842, 791.8323
221.3664, 779.0524
221.8485, 767.6809
222.3306, 757.7681
222.8127, 748.8755
223.2948, 741.1195
223.7769, 734.3898
224.2591, 728.6176
224.7412, 723.8069
225.2233, 719.8868
225.7054, 716.9476
226.1875, 715.7925
226.6696, 713.8507
227.1518, 710.4075
227.6339, 705.5475
228.1160, 701.7722
228.5981, 699.4648
229.0802, 697.7756
229.5623, 695.9148
230.0445, 693.1608
230.5266, 691.7617
231.0087, 692.3871
231.4908, 694.8933
231.9729, 697.1133
232.4550, 698.9931
232.9372, 700.6393
233.4193, 701.9412
233.9014, 702.1293
234.3835, 703.5812
234.8656, 707.0012
235.3477, 712.1373
235.8299, 716.8438
236.3120, 721.2459
236.7941, 725.1285
237.2762, 728.1712
237.7583, 729.4756
238.2404, 731.7956
238.7226, 735.6898
239.2047, 740.9943
239.6868, 746.0392
240.1689, 750.3865
240.6510, 755.0723
241.1331, 760.8721
241.6153, 768.3372
242.0974, 775.6627
242.5795, 782.1479
243.0616, 788.2031
243.5437, 796.1554
244.0258, 806.3522
244.5080, 818.0403
244.9901, 830.6552
245.4722, 843.5860
245.9543, 858.8152
246.4364, 876.9274
246.9185, 897.4999
247.4007, 918.6085
247.8828, 939.4471
248.3649, 961.7321
248.8470, 986.3151
249.3291, 1014.363
249.8112, 1042.811
250.2934, 1074.067
250.7755, 1105.403
251.2576, 1127.520
251.7397, 1139.693
252.2218, 1143.474
252.7039, 1139.223
253.1861, 1125.786
253.6682, 1106.823
254.1503, 1080.417
254.6324, 1048.949
255.1145, 1019.075
255.5966, 989.8505
256.0788, 963.9188
256.5609, 942.7835
257.0430, 926.6816
257.5251, 914.3912
258.0072, 906.3387
258.4893, 901.9008
258.9715, 899.5407
259.4536, 899.1343
259.9357, 901.0668
260.4178, 905.6370
260.8999, 913.0735
261.3820, 922.0601
261.8642, 932.6930
262.3463, 944.7845
262.8284, 957.9854
263.3105, 971.4523
263.7926, 987.8793
264.2747, 1008.788
264.7569, 1035.229
265.2390, 1060.498
265.7211, 1084.163
266.2032, 1107.393
266.6853, 1132.787
267.1674, 1161.139
267.6496, 1188.948
268.1317, 1215.119
268.6138, 1240.149
269.0959, 1261.318
269.5780, 1278.663
270.0602, 1292.127
270.5423, 1300.906
271.0244, 1304.281
271.5065, 1305.665
271.9886, 1305.265
272.4707, 1303.237
272.9529, 1302.616
273.4350, 1303.376
273.9171, 1305.591
274.3992, 1309.090
274.8813, 1313.592
275.3634, 1320.857
275.8456, 1331.429
276.3277, 1345.125
276.8098, 1360.601
277.2919, 1377.632
277.7740, 1397.103
278.2561, 1419.739
278.7382, 1445.437
279.2203, 1474.095
279.7025, 1505.268
280.1846, 1539.277
280.6667, 1578.612
281.1488, 1623.521
281.6309, 1672.530
282.1130, 1723.575
282.5952, 1776.606
283.0773, 1836.738
283.5594, 1904.609
284.0415, 1980.362
284.5236, 2062.886
285.0057, 2152.463
285.4879, 2249.161
285.9700, 2354.378
286.4521, 2467.635
286.9342, 2584.797
287.4163, 2707.517
287.8984, 2830.654
288.3806, 2947.206
288.8627, 3057.614
289.3448, 3150.304
289.8269, 3224.319
290.3090, 3277.168
290.7911, 3294.887
291.2733, 3277.588
291.7554, 3223.656
292.2375, 3124.719
292.7196, 2982.719
293.2017, 2822.010
293.6838, 2642.333
294.1660, 2451.393
294.6481, 2270.450
295.1302, 2101.098
295.6123, 1944.001
296.0944, 1799.310
296.5765, 1668.074
297.0587, 1552.402
297.5408, 1454.426
298.0229, 1370.834
298.5050, 1297.685
298.9871, 1234.644
299.4692, 1178.637
299.9514, 1128.905
300.4335, 1084.629
300.9156, 1045.947
301.3977, 1013.473
301.8798, 985.5056
302.3619, 960.4454
302.8441, 938.0632
303.3262, 918.3592
303.8083, 901.4143
304.2904, 887.0273
304.7725, 874.1414
305.2546, 862.4747
305.7368, 852.5206
306.2189, 845.6816
306.7010, 841.4266
307.1831, 837.5081
307.6652, 832.0154
308.1473, 826.3494
308.6295, 822.0797
309.1116, 819.4438
309.5937, 818.2119
310.0758, 818.9188
310.5579, 820.9291
311.0400, 822.7429
311.5222, 823.2336
312.0043, 823.4217
312.4864, 824.0558
312.9685, 825.2053
313.4506, 826.8648
313.9327, 830.1402
314.4149, 833.7491
314.8970, 835.7362
315.3791, 832.7860
315.8612, 829.9639
316.3433, 830.3805
316.8254, 834.2943
317.3076, 839.0765
317.7897, 843.7560
318.2718, 848.6571
318.7539, 854.1733
319.2360, 859.6117
319.7181, 866.4363
320.2003, 875.2000
320.6824, 885.8705
321.1645, 897.7878
321.6466, 909.6935
322.1287, 923.4075
322.6108, 940.1719
323.0930, 960.2527
323.5751, 983.3690
324.0572, 1009.912
324.5393, 1039.434
325.0214, 1071.173
325.5035, 1107.577
325.9857, 1144.198
326.4678, 1179.321
326.9499, 1214.541
327.4320, 1245.296
327.9141, 1275.017
328.3962, 1299.703
328.8784, 1311.874
329.3605, 1312.446
329.8426, 1299.597
330.3247, 1270.990
330.8068, 1222.419
331.2889, 1172.153
331.7711, 1116.721
332.2532, 1061.386
332.7353, 1012.279
333.2174, 970.2048
333.6995, 932.3552
334.1816, 898.3866
334.6638, 868.1099
335.1459, 843.0013
335.6280, 824.7615
336.1101, 809.8591
336.5922, 795.5357
337.0743, 780.9853
337.5565, 768.9792
338.0386, 760.1859
338.5207, 754.1411
339.0028, 748.5205
339.4849, 743.2228
339.9670, 738.5387
340.4492, 734.2586
340.9313, 730.2341
341.4134, 728.7042
341.8955, 730.7698
342.3776, 734.1740
342.8597, 733.9237
343.3419, 729.5945
343.8240, 725.2424
344.3061, 722.6132
344.7882, 721.6868
345.2703, 722.2013
345.7524, 724.4898
346.2346, 727.0338
346.7167, 727.6979
347.1988, 726.6534
347.6809, 725.6027
348.1630, 725.3329
348.6451, 725.4213
349.1273, 725.0428
349.6094, 724.2093
350.0915, 722.2225
350.5736, 717.4921
351.0557, 711.0515
351.5378, 705.7432
352.0200, 702.6660
352.5021, 700.5159
352.9842, 697.5127
353.4663, 693.7822
353.9484, 690.1266
354.4305, 687.0111
354.9127, 684.3195
355.3948, 681.8807
355.8769, 679.7078
356.3590, 677.7377
356.8411, 675.6995
357.3232, 673.8166
357.8054, 672.5438
358.2875, 672.9241
358.7696, 673.4621
359.2517, 672.7382
359.7338, 670.5891
360.2159, 668.6959
360.6981, 668.3242
361.1802, 668.6137
361.6623, 668.6039
362.1444, 667.9471
362.6265, 666.9349
363.1086, 665.1552
363.5908, 662.8386
364.0729, 661.5591
364.5550, 662.0905
365.0371, 663.6725
365.5192, 665.9632
366.0013, 670.5361
366.4835, 673.4438
366.9656, 673.2216
367.4477, 670.8289
367.9298, 668.4906
368.4119, 665.7252
368.8940, 663.7308
369.3762, 663.0502
369.8583, 664.2134
370.3404, 665.2021
370.8225, 666.2899
371.3046, 667.0731
371.7867, 667.0264
372.2689, 665.4755
372.7510, 664.0845
373.2331, 662.9877
373.7152, 662.1949
374.1973, 662.4010
374.6794, 664.1185
375.1616, 666.0895
375.6437, 667.4615
376.1258, 668.2929
376.6079, 668.2574
377.0900, 666.9976
377.5721, 665.0633
378.0543, 663.8075
378.5364, 663.1547
379.0185, 663.5750
379.5006, 665.8063
379.9827, 669.8728
380.4648, 672.9152
380.9470, 674.7287
381.4291, 675.9902
381.9112, 677.5799
382.3933, 679.4640
382.8754, 681.3586
383.3575, 683.1547
383.8397, 684.8792
384.3218, 686.4241
384.8039, 687.7848
385.2860, 689.4002
385.7681, 691.4983
386.2502, 694.1468
386.7324, 697.6669
387.2145, 702.5645
387.6966, 707.6334
388.1787, 711.1201
388.6608, 713.4544
389.1429, 716.1915
389.6251, 719.9958
390.1072, 724.7878
390.5893, 730.5916
391.0714, 737.4816
391.5535, 744.7801
392.0356, 751.8971
392.5178, 759.0847
392.9999, 766.8207
393.4820, 774.7190
393.9641, 783.7198
394.4462, 794.7404
394.9283, 807.6292
395.4105, 820.3434
395.8926, 831.5496
396.3747, 842.6773
396.8568, 854.7921
397.3389, 869.4744
397.8210, 883.2863
398.3032, 896.5098
398.7853, 908.4562
399.2674, 917.3781
399.7495, 922.1481
400.2316, 924.6314
400.7137, 925.0428
401.1959, 922.6861
401.6780, 920.6707
402.1601, 918.4599
402.6422, 916.9395
403.1243, 917.0101
403.6064, 918.5180
404.0885, 921.9732
404.5706, 927.4768
405.0528, 935.0189
405.5349, 944.8038
406.0170, 957.6839
406.4991, 970.6481
406.9812, 982.3116
407.4633, 992.9465
407.9455, 1000.235
408.4276, 1004.278
408.9097, 1004.494
409.3918, 998.8289
409.8739, 987.2039
410.3560, 974.6397
410.8382, 961.4570
411.3203, 948.9865
411.8024, 942.2924
412.2845, 941.5496
412.7666, 944.5058
413.2487, 949.5453
413.7309, 956.5980
414.2130, 965.5428
414.6951, 977.1731
415.1772, 989.6732
415.6593, 1003.311
416.1414, 1016.755
416.6236, 1023.895
417.1057, 1022.666
417.5878, 1012.533
418.0699, 991.1350
418.5520, 956.3063
419.0341, 919.3221
419.5163, 883.7571
419.9984, 850.5286
420.4805, 821.8718
420.9626, 798.1135
421.4447, 778.6445
421.9268, 764.3422
422.4090, 754.7335
422.8911, 746.0198
423.3732, 736.3878
423.8553, 727.7757
424.3374, 721.2240
424.8195, 717.3889
425.3017, 715.0760
425.7838, 715.1437
426.2659, 716.5568
426.7480, 717.2641
427.2301, 717.1964
427.7122, 716.4493
428.1944, 714.5574
428.6765, 711.1854
429.1586, 710.0818
429.6407, 712.1288
430.1228, 715.2073
430.6049, 717.4620
431.0871, 718.7283
431.5692, 719.8182
432.0513, 720.8245
432.5334, 721.7592
433.0155, 722.4494
433.4977, 722.8116
433.9798, 723.7677
434.4619, 726.1814
434.9440, 729.7751
435.4261, 732.6736
435.9082, 734.6698
436.3904, 736.9291
436.8725, 741.0145
437.3546, 746.5325
437.8367, 752.1178
438.3188, 757.0026
438.8009, 761.9963
439.2831, 768.1127
439.7652, 775.3251
440.2473, 783.2421
440.7294, 792.7366
441.2115, 802.3351
441.6936, 810.1253
442.1758, 815.1033
442.6579, 820.6611
443.1400, 828.7690
443.6221, 838.6741
444.1042, 849.4149
444.5863, 861.4189
445.0685, 873.3220
445.5506, 884.1404
446.0327, 893.9373
446.5148, 904.9250
446.9969, 917.6303
447.4790, 931.4571
447.9612, 946.0609
448.4433, 960.3044
448.9254, 976.7885
449.4075, 995.2952
449.8896, 1015.993
450.3717, 1039.296
450.8539, 1065.650
451.3360, 1093.400
451.8181, 1122.396
452.3002, 1152.926
452.7823, 1182.673
453.2644, 1212.006
453.7466, 1240.750
454.2287, 1269.917
454.7108, 1299.801
455.1929, 1326.191
455.6750, 1349.422
456.1571, 1367.900
456.6393, 1379.252
457.1214, 1383.532
457.6035, 1380.255
458.0856, 1366.296
458.5677, 1345.210
459.0498, 1322.816
459.5320, 1299.239
460.0141, 1278.001
460.4962, 1260.747
460.9783, 1248.075
461.4604, 1241.239
461.9425, 1240.594
462.4247, 1245.803
462.9068, 1257.888
463.3889, 1275.830
463.8710, 1296.726
464.3531, 1320.063
464.8352, 1345.131
465.3174, 1370.884
465.7995, 1396.763
466.2816, 1425.844
466.7637, 1458.767
467.2458, 1495.060
467.7279, 1534.307
468.2101, 1575.348
468.6922, 1620.737
469.1743, 1669.988
469.6564, 1723.363
470.1385, 1782.916
470.6206, 1847.488
471.1028, 1919.457
471.5849, 1999.638
472.0670, 2088.405
472.5491, 2184.773
473.0312, 2289.926
473.5133, 2403.509
473.9955, 2527.765
474.4776, 2663.135
474.9597, 2799.014
475.4418, 2934.235
475.9239, 3068.065
476.4060, 3200.284
476.8882, 3330.538
477.3703, 3447.382
477.8524, 3553.100
478.3345, 3638.500
478.8166, 3689.453
479.2987, 3705.769
479.7809, 3678.046
480.2630, 3590.014
480.7451, 3455.104
481.2272, 3291.512
481.7093, 3088.375
482.1914, 2877.816
482.6736, 2673.047
483.1557, 2476.361
483.6378, 2296.525
484.1199, 2136.337
484.6020, 1996.485
485.0841, 1878.472
485.5663, 1785.133
486.0484, 1706.199
486.5305, 1642.592
487.0126, 1592.010
487.4947, 1551.620
487.9768, 1522.152
488.4590, 1503.062
488.9411, 1495.107
489.4232, 1497.437
489.9053, 1507.496
490.3874, 1525.925
490.8695, 1550.654
491.3517, 1581.331
491.8338, 1618.292
492.3159, 1659.740
492.7980, 1706.393
493.2801, 1756.350
493.7622, 1806.843
494.2444, 1858.599
494.7265, 1912.690
495.2086, 1969.184
495.6907, 2029.762
496.1728, 2096.271
496.6549, 2168.723
497.1371, 2248.893
497.6192, 2334.953
498.1013, 2430.176
498.5834, 2535.631
499.0655, 2652.316
499.5476, 2781.742
500.0298, 2924.379
500.5119, 3080.618
500.9940, 3250.292
501.4761, 3436.756
501.9582, 3634.402
502.4403, 3843.228
502.9225, 4062.866
503.4046, 4289.294
503.8867, 4530.037
504.3688, 4766.284
504.8509, 4997.958
505.3330, 5224.908
505.8152, 5421.516
506.2973, 5597.869
506.7794, 5727.713
507.2615, 5797.674
507.7436, 5812.678
508.2257, 5743.257
508.7079, 5581.021
509.1900, 5345.889
509.6721, 5055.096
510.1542, 4711.122
510.6363, 4357.190
511.1184, 4000.025
511.6006, 3650.323
512.0826, 3337.707
512.5648, 3060.134
513.0469, 2812.109
513.5290, 2592.631
514.0111, 2399.165
514.4932, 2229.777
514.9753, 2084.798
515.4575, 1957.949
515.9396, 1846.800
516.4217, 1749.010
516.9038, 1661.514
517.3859, 1586.309
517.8680, 1518.123
518.3502, 1455.666
518.8323, 1398.852
519.3144, 1347.203
519.7965, 1301.075
520.2786, 1260.384
520.7607, 1225.986
521.2429, 1198.885
521.7250, 1172.720
522.2071, 1147.152
522.6892, 1122.866
523.1713, 1100.261
523.6534, 1079.641
524.1356, 1061.170
524.6177, 1045.199
525.0998, 1030.971
525.5819, 1017.367
526.0640, 1004.321
526.5461, 991.1599
527.0283, 976.1637
527.5104, 961.0453
527.9925, 951.2049
528.4746, 946.4248
528.9567, 941.6105
529.4388, 931.5880
529.9210, 919.3589
530.4031, 909.3320
530.8852, 902.7145
531.3673, 897.0461
531.8494, 890.7224
532.3315, 884.2156
532.8137, 878.3408
533.2958, 873.7521
533.7779, 869.3558
534.2600, 864.6699
534.7421, 859.7733
535.2242, 855.1472
535.7064, 850.6900
536.1885, 846.7136
536.6706, 843.5027
537.1527, 841.3621
537.6348, 838.7571
538.1169, 835.5966
538.5991, 832.1146
539.0812, 828.5770
539.5633, 825.0356
540.0454, 821.4120
540.5275, 817.6781
541.0096, 813.9678
541.4918, 810.3116
541.9739, 806.7864
542.4560, 803.8932
542.9381, 802.1711
543.4202, 801.1459
543.9023, 800.1563
544.3845, 799.1852
544.8666, 798.0909
545.3487, 796.8336
545.8308, 795.3653
546.3129, 793.6231
546.7950, 791.5469
547.2772, 789.2748
547.7593, 786.4034
548.2414, 783.4857
548.7235, 781.2922
549.2056, 780.2531
549.6877, 779.6532
550.1699, 779.9448
550.6520, 780.7566
551.1341, 779.9120
551.6162, 776.0811
552.0983, 772.8066
552.5804, 772.0632
553.0626, 774.2106
553.5447, 774.4476
554.0268, 772.2860
554.5089, 769.7339
554.9910, 769.0053
555.4731, 769.8683
555.9553, 770.5686
556.4374, 770.8525
556.9195, 770.6855
557.4016, 769.4687
557.8837, 767.6722
558.3658, 766.6870
558.8480, 767.7763
559.3301, 769.5115
559.8122, 770.7842
560.2943, 771.6316
560.7764, 772.3555
561.2585, 773.1622
561.7407, 773.8558
562.2228, 774.0963
562.7049, 773.3244
563.1870, 773.7899
563.6691, 777.0349
564.1512, 780.9234
564.6334, 783.5274
565.1155, 783.8954
565.5976, 784.8692
566.0797, 786.7701
566.5618, 789.4430
567.0439, 792.4394
567.5261, 795.7723
568.0082, 799.4542
568.4903, 803.6016
568.9724, 808.0656
569.4545, 812.0066
569.9366, 815.4791
570.4188, 819.1662
570.9009, 823.7050
571.3830, 828.8817
571.8651, 834.3340
572.3472, 840.1113
572.8293, 845.9908
573.3115, 851.6726
573.7936, 857.4626
574.2757, 863.6522
574.7578, 871.2776
575.2399, 878.2556
575.7220, 884.1842
576.2042, 889.0742
576.6863, 893.0063
577.1684, 895.6390
577.6505, 897.7850
578.1326, 899.9918
578.6147, 902.1976
579.0969, 902.4465
579.5790, 900.9760
580.0611, 896.9750
580.5432, 889.0173
581.0253, 877.2023
581.5074, 866.6427
581.9896, 857.9612
582.4717, 849.3588
582.9538, 838.1751
583.4359, 825.3679
583.9180, 813.6461
584.4001, 804.1106
584.8823, 795.6407
585.3644, 787.0607
585.8465, 778.6296
586.3286, 771.1330
586.8107, 764.5333
587.2928, 759.1909
587.7750, 755.8560
588.2571, 754.4467
588.7392, 752.7064
