##NAMES=Albite
##RRUFFID=R100169
##IDEAL CHEMISTRY=NaAlSi_3_O_8_
##LOCALITY=Rutherford#2 Mine, Amelia, Amelia county, Virginia, USA
##OWNER=RRUFF
##SOURCE=Mineralogical Museum, Harvard University
##DESCRIPTION=White to colorless tabular crystals
##STATUS=The identification of this mineral has been confirmed by single-crystal X-ray diffraction.
##URL=rruff.info/R100169
90.60547, 521.9231
91.08759, 535.7771
91.56970, 547.4579
92.05182, 545.6118
92.53394, 537.7969
93.01605, 527.7678
93.49817, 518.0710
93.98029, 509.1581
94.46240, 499.4773
94.94452, 487.9000
95.42664, 476.5063
95.90874, 466.7225
96.39086, 458.5749
96.87298, 451.2610
97.35509, 443.6230
97.83721, 434.8557
98.31933, 426.4826
98.80145, 417.9160
99.28356, 410.0470
99.76568, 403.6481
100.2478, 398.8900
100.7299, 395.2881
101.2120, 391.7617
101.6941, 386.6364
102.1763, 383.4988
102.6584, 383.1556
103.1405, 384.6857
103.6226, 386.7607
104.1047, 388.5676
104.5868, 390.3723
105.0690, 393.8687
105.5511, 399.6336
106.0332, 406.0385
106.5153, 411.6393
106.9974, 416.7032
107.4795, 423.7354
107.9617, 435.7327
108.4438, 451.3281
108.9259, 465.3674
109.4080, 477.2200
109.8901, 487.2272
110.3722, 496.5450
110.8544, 506.3130
111.3365, 512.1259
111.8186, 511.6357
112.3007, 505.7448
112.7828, 495.3548
113.2649, 479.9252
113.7471, 459.6976
114.2292, 438.6953
114.7113, 414.6174
115.1934, 391.7705
115.6755, 370.8644
116.1576, 352.3803
116.6397, 337.0421
117.1219, 326.0480
117.6040, 321.0174
118.0861, 315.5261
118.5682, 308.4056
119.0503, 301.7183
119.5324, 296.5916
120.0146, 293.3045
120.4967, 291.4830
120.9788, 290.5792
121.4609, 291.4938
121.9430, 292.0677
122.4251, 291.6898
122.9073, 291.1660
123.3894, 291.5106
123.8715, 293.1708
124.3536, 295.6895
124.8357, 297.8629
125.3178, 299.2733
125.8000, 301.2219
126.2821, 304.6177
126.7642, 309.0900
127.2463, 313.2359
127.7284, 316.5910
128.2105, 319.0494
128.6927, 320.4983
129.1748, 320.1406
129.6569, 320.1031
130.1390, 322.8510
130.6211, 328.8643
131.1032, 334.7847
131.5854, 338.4630
132.0675, 341.5387
132.5496, 345.4414
133.0317, 350.6544
133.5138, 357.0578
133.9959, 364.5172
134.4781, 373.6349
134.9602, 383.0156
135.4423, 391.4780
135.9244, 400.0748
136.4065, 410.1299
136.8886, 422.5165
137.3708, 437.2082
137.8529, 452.6933
138.3350, 466.9647
138.8171, 484.1918
139.2992, 505.4756
139.7813, 530.6298
140.2635, 559.1913
140.7456, 590.8074
141.2277, 625.9323
141.7098, 661.7737
142.1919, 701.6873
142.6740, 739.4212
143.1561, 773.9326
143.6383, 804.1406
144.1204, 826.4423
144.6025, 836.5966
145.0846, 832.5349
145.5667, 822.6400
146.0488, 803.2147
146.5310, 779.8574
147.0131, 757.3049
147.4952, 735.8336
147.9773, 717.8251
148.4594, 706.7179
148.9415, 701.3969
149.4237, 699.8076
149.9058, 702.9772
150.3879, 709.4847
150.8700, 715.1598
151.3521, 718.4737
151.8342, 722.1765
152.3164, 727.7291
152.7985, 735.1774
153.2806, 745.1902
153.7627, 757.6281
154.2448, 772.4601
154.7269, 791.9356
155.2091, 818.0500
155.6912, 848.1477
156.1733, 881.4172
156.6554, 917.7518
157.1375, 956.5959
157.6196, 998.0898
158.1018, 1043.878
158.5839, 1087.406
159.0660, 1132.976
159.5481, 1173.605
160.0302, 1205.738
160.5123, 1228.078
160.9945, 1240.190
161.4766, 1241.069
161.9587, 1226.531
162.4408, 1204.846
162.9229, 1172.423
163.4050, 1135.398
163.8871, 1097.757
164.3693, 1061.008
164.8514, 1027.275
165.3335, 1002.063
165.8156, 987.2335
166.2977, 978.4413
166.7798, 976.9828
167.2620, 981.0081
167.7441, 988.4453
168.2262, 998.9177
168.7083, 1011.099
169.1904, 1021.390
169.6725, 1030.992
170.1547, 1037.479
170.6368, 1038.471
171.1189, 1035.170
171.6010, 1031.347
172.0831, 1027.660
172.5652, 1025.482
173.0474, 1026.402
173.5295, 1030.222
174.0116, 1037.404
174.4937, 1048.440
174.9758, 1063.337
175.4579, 1081.224
175.9401, 1102.787
176.4222, 1126.982
176.9043, 1152.422
177.3864, 1178.770
177.8685, 1206.859
178.3506, 1238.369
178.8328, 1274.162
179.3149, 1310.613
179.7970, 1348.309
180.2791, 1385.356
180.7612, 1419.936
181.2433, 1451.670
181.7255, 1480.395
182.2076, 1506.506
182.6897, 1532.700
183.1718, 1550.159
183.6539, 1559.384
184.1360, 1560.068
184.6181, 1551.606
185.1003, 1533.659
185.5824, 1506.705
186.0645, 1472.633
186.5466, 1427.890
187.0287, 1379.023
187.5108, 1324.950
187.9930, 1268.234
188.4751, 1211.428
188.9572, 1156.122
189.4393, 1102.485
189.9214, 1052.196
190.4035, 1005.575
190.8857, 962.0730
191.3678, 921.6757
191.8499, 884.5734
192.3320, 850.9893
192.8141, 821.1376
193.2962, 794.9091
193.7784, 771.4500
194.2605, 750.1216
194.7426, 731.3757
195.2247, 715.3190
195.7068, 701.9286
196.1889, 691.1301
196.6711, 683.0839
197.1532, 677.7167
197.6353, 673.6397
198.1174, 669.5377
198.5995, 667.6782
199.0816, 669.3327
199.5638, 674.3806
200.0459, 681.9086
200.5280, 691.4777
201.0101, 703.5602
201.4922, 717.9139
201.9743, 733.7912
202.4565, 752.7831
202.9386, 776.6384
203.4207, 805.4615
203.9028, 836.9720
204.3849, 871.7850
204.8670, 907.9579
205.3492, 943.1064
205.8313, 978.9938
206.3134, 1010.854
206.7955, 1033.884
207.2776, 1048.749
207.7597, 1051.444
208.2419, 1038.186
208.7240, 1012.412
209.2061, 974.4307
209.6882, 922.5842
210.1703, 862.1601
210.6524, 800.7687
211.1346, 736.9684
211.6167, 677.1327
212.0988, 622.2371
212.5809, 572.3937
213.0630, 527.6613
213.5451, 488.3622
214.0273, 454.1349
214.5094, 424.6359
214.9915, 401.0698
215.4736, 380.6646
215.9557, 362.9400
216.4378, 347.3178
216.9200, 333.1178
217.4021, 320.1237
217.8842, 308.4131
218.3663, 298.4243
218.8484, 290.9891
219.3305, 284.3359
219.8127, 278.1414
220.2948, 272.5510
220.7769, 267.7814
221.2590, 263.9318
221.7411, 260.8178
222.2232, 257.9039
222.7054, 255.4250
223.1875, 252.8805
223.6696, 249.9099
224.1517, 246.9678
224.6338, 244.5217
225.1159, 242.7659
225.5980, 241.7035
226.0802, 241.3720
226.5623, 242.3971
227.0444, 243.4408
227.5265, 244.4040
228.0086, 245.3368
228.4907, 246.1893
228.9729, 246.9157
229.4550, 247.7552
229.9371, 249.3472
230.4192, 251.6451
230.9013, 254.6792
231.3834, 259.2912
231.8656, 264.4593
232.3477, 268.5695
232.8298, 270.9271
233.3119, 272.2739
233.7940, 274.1789
234.2761, 276.6961
234.7583, 279.4440
235.2404, 282.3797
235.7225, 285.4731
236.2046, 288.6469
236.6867, 291.8482
237.1688, 295.2428
237.6510, 299.2975
238.1331, 304.0624
238.6152, 308.7956
239.0973, 312.5560
239.5794, 316.1538
240.0615, 321.3083
240.5437, 328.6089
241.0258, 337.4476
241.5079, 347.1816
241.9900, 357.7618
242.4721, 368.8070
242.9542, 379.4005
243.4364, 390.2950
243.9185, 403.1739
244.4006, 417.8556
244.8827, 435.7383
245.3648, 457.9687
245.8469, 484.1551
246.3290, 513.1801
246.8112, 545.1393
247.2933, 579.4472
247.7754, 615.7284
248.2575, 655.7202
248.7396, 694.3859
249.2217, 731.0394
249.7039, 764.4039
250.1860, 788.6389
250.6681, 801.6699
251.1502, 803.2299
251.6323, 791.7048
252.1144, 764.0147
252.5966, 727.0166
253.0787, 681.8023
253.5608, 631.6949
254.0429, 583.4788
254.5250, 540.4069
255.0071, 502.4110
255.4893, 468.7728
255.9714, 439.2782
256.4535, 415.4715
256.9356, 397.9218
257.4177, 385.3835
257.8998, 375.8253
258.3820, 368.3955
258.8641, 363.1097
259.3462, 360.0883
259.8283, 359.6805
260.3104, 361.2822
260.7925, 364.8278
261.2747, 369.8155
261.7568, 375.4084
262.2389, 381.0290
262.7210, 387.3463
263.2031, 396.4625
263.6852, 409.1710
264.1674, 423.6851
264.6495, 439.4169
265.1316, 456.3979
265.6137, 474.7489
266.0958, 494.5402
266.5779, 515.3362
267.0601, 536.3264
267.5422, 558.7571
268.0243, 578.7850
268.5064, 595.9584
268.9885, 610.9324
269.4706, 624.1302
269.9528, 635.7238
270.4349, 645.6756
270.9170, 653.7900
271.3991, 659.2576
271.8812, 664.2350
272.3633, 667.8370
272.8455, 671.7382
273.3276, 677.1613
273.8097, 684.4178
274.2918, 693.0020
274.7739, 701.8026
275.2560, 708.8506
275.7382, 720.7793
276.2202, 738.2772
276.7024, 758.9913
277.1845, 781.4273
277.6666, 805.4825
278.1487, 831.9830
278.6308, 861.7779
279.1129, 894.3209
279.5951, 932.3722
280.0772, 974.4708
280.5593, 1022.150
281.0414, 1076.035
281.5235, 1136.289
282.0056, 1202.710
282.4878, 1274.519
282.9699, 1351.379
283.4520, 1440.537
283.9341, 1543.328
284.4162, 1655.280
284.8983, 1777.086
285.3805, 1906.947
285.8626, 2042.683
286.3447, 2184.424
286.8268, 2331.316
287.3089, 2462.577
287.7910, 2589.760
288.2732, 2690.714
288.7553, 2764.027
289.2374, 2805.239
289.7195, 2806.167
290.2016, 2761.487
290.6837, 2674.146
291.1659, 2555.263
291.6480, 2385.176
292.1301, 2207.642
292.6122, 2019.924
293.0943, 1831.273
293.5764, 1652.681
294.0586, 1488.201
294.5407, 1338.244
295.0228, 1203.330
295.5049, 1085.952
295.9870, 982.0690
296.4691, 894.3665
296.9513, 818.9333
297.4334, 752.2369
297.9155, 693.3187
298.3976, 641.6621
298.8797, 596.8006
299.3618, 561.3331
299.8440, 529.0961
300.3261, 500.1568
300.8082, 474.5262
301.2903, 452.2589
301.7724, 433.3789
302.2545, 417.1422
302.7367, 402.6518
303.2188, 390.1416
303.7009, 379.2946
304.1830, 370.1472
304.6651, 362.3828
305.1472, 355.9505
305.6294, 350.7554
306.1115, 346.5739
306.5936, 343.2829
307.0757, 340.9145
307.5578, 338.9251
308.0399, 336.7958
308.5221, 335.4565
309.0042, 335.8860
309.4863, 337.5052
309.9684, 338.9122
310.4505, 339.2581
310.9326, 338.5964
311.4148, 337.2080
311.8969, 334.2940
312.3790, 331.6884
312.8611, 329.6012
313.3432, 328.1514
313.8253, 327.5259
314.3075, 327.8321
314.7896, 328.9047
315.2717, 330.3532
315.7538, 332.0347
316.2359, 334.3253
316.7180, 336.9309
317.2001, 340.3066
317.6823, 344.7469
318.1644, 350.3866
318.6465, 357.5240
319.1286, 366.5366
319.6107, 377.1529
320.0928, 390.9963
320.5750, 408.8891
321.0571, 429.3616
321.5392, 450.7176
322.0213, 473.0028
322.5034, 498.4201
322.9855, 528.7810
323.4677, 564.5938
323.9498, 605.5311
324.4319, 654.6350
324.9140, 705.2543
325.3961, 758.3215
325.8782, 810.7815
326.3604, 856.8824
326.8425, 893.4484
327.3246, 919.8097
327.8067, 927.8454
328.2888, 917.0361
328.7709, 891.7151
329.2531, 847.3320
329.7352, 790.0676
330.2173, 727.6289
330.6994, 663.2485
331.1815, 599.3941
331.6636, 542.3232
332.1458, 492.7505
332.6279, 449.9724
333.1100, 415.8662
333.5921, 387.8363
334.0742, 363.7540
334.5563, 343.0640
335.0385, 325.2787
335.5206, 309.9686
336.0027, 297.6663
336.4848, 286.7889
336.9669, 277.2614
337.4490, 268.9303
337.9312, 261.7323
338.4133, 255.6024
338.8954, 250.5715
339.3775, 246.7740
339.8596, 244.3225
340.3417, 241.5968
340.8239, 237.6758
341.3060, 234.4616
341.7881, 232.8800
342.2702, 232.5112
342.7523, 232.4975
343.2344, 232.3281
343.7166, 232.0441
344.1987, 231.8489
344.6808, 231.4443
345.1629, 231.5092
345.6450, 232.7849
346.1271, 234.2872
346.6093, 235.0046
347.0914, 234.5525
347.5735, 233.1205
348.0556, 230.9887
348.5377, 227.4946
349.0198, 224.4764
349.5020, 222.6936
349.9841, 220.7675
350.4662, 217.4529
350.9483, 212.8346
351.4304, 208.1629
351.9125, 204.8268
352.3947, 203.0105
352.8768, 201.3484
353.3589, 200.1440
353.8410, 198.7955
354.3231, 196.8505
354.8052, 194.5998
355.2874, 192.6784
355.7695, 191.5736
356.2516, 191.1085
356.7337, 190.2229
357.2158, 188.3900
357.6979, 186.8498
358.1800, 185.9058
358.6621, 185.3115
359.1443, 184.9054
359.6264, 184.6191
360.1085, 184.2317
360.5906, 183.1558
361.0727, 180.7427
361.5548, 179.3739
362.0370, 180.5306
362.5191, 181.7970
363.0012, 181.3442
363.4833, 179.2099
363.9654, 177.0926
364.4475, 177.1389
364.9297, 179.5781
365.4118, 180.2475
365.8939, 177.4165
366.3760, 174.6238
366.8581, 173.1414
367.3402, 172.7636
367.8224, 173.0128
368.3045, 173.8472
368.7866, 174.9234
369.2687, 175.0706
369.7508, 173.6827
370.2329, 172.7167
370.7151, 173.2536
371.1972, 174.3011
371.6793, 175.0053
372.1614, 175.1445
372.6435, 174.7042
373.1256, 173.2861
373.6078, 170.7639
374.0899, 169.1414
374.5720, 169.3733
375.0541, 170.2190
375.5362, 170.8652
376.0183, 171.2778
376.5005, 171.5576
376.9826, 171.6938
377.4647, 171.7395
377.9468, 171.9210
378.4289, 172.3296
378.9110, 172.6971
379.3932, 172.5088
379.8753, 172.1675
380.3574, 172.5636
380.8395, 174.6030
381.3216, 176.9211
381.8037, 177.6318
382.2859, 176.7022
382.7680, 175.8537
383.2501, 175.6900
383.7322, 176.1742
384.2143, 177.1497
384.6964, 178.6789
385.1786, 180.4573
385.6607, 182.2853
386.1428, 184.2175
386.6249, 186.5052
387.1070, 189.3174
387.5891, 192.1572
388.0713, 194.2817
388.5534, 195.7677
389.0355, 197.6250
389.5176, 199.9740
389.9997, 202.8399
390.4818, 206.4089
390.9640, 210.6579
391.4461, 214.9505
391.9282, 218.6400
392.4103, 222.0708
392.8924, 226.9111
393.3745, 233.7199
393.8567, 241.1873
394.3388, 248.7346
394.8209, 256.5820
395.3030, 265.4211
395.7851, 275.7575
396.2672, 286.2072
396.7494, 294.4731
397.2315, 300.1622
397.7136, 304.2419
398.1957, 307.0677
398.6778, 308.1165
399.1599, 306.3954
399.6420, 302.1440
400.1241, 296.8999
400.6063, 291.7396
401.0884, 286.5760
401.5705, 284.0993
402.0526, 285.0426
402.5347, 287.4169
403.0168, 290.6099
403.4990, 294.8476
403.9811, 300.8574
404.4632, 308.9911
404.9453, 318.3270
405.4274, 326.7852
405.9095, 335.4951
406.3917, 341.0334
406.8738, 344.4577
407.3559, 344.2686
407.8380, 338.4271
408.3201, 327.3280
408.8022, 313.8754
409.2844, 300.2971
409.7665, 286.5084
410.2486, 274.9103
410.7307, 265.7811
411.2128, 258.8454
411.6949, 254.0155
412.1771, 251.3057
412.6592, 250.9158
413.1413, 253.1098
413.6234, 257.1086
414.1055, 261.6701
414.5876, 267.5568
415.0698, 271.7132
415.5519, 274.2129
416.0340, 274.1427
416.5161, 270.4886
416.9982, 263.1731
417.4803, 253.3136
417.9625, 240.1533
418.4446, 224.5491
418.9267, 212.1843
419.4088, 204.2930
419.8909, 198.3317
420.3730, 193.1073
420.8552, 188.4885
421.3373, 184.3356
421.8194, 180.7014
422.3015, 177.4096
422.7836, 174.0552
423.2657, 170.6575
423.7479, 168.1894
424.2300, 167.3403
424.7121, 167.4098
425.1942, 167.2766
425.6763, 166.9409
426.1584, 166.4297
426.6406, 165.5489
427.1227, 164.5574
427.6048, 163.8996
428.0869, 163.6506
428.5690, 163.6557
429.0511, 163.8130
429.5333, 164.1319
430.0154, 164.4797
430.4975, 165.0533
430.9796, 165.4700
431.4617, 165.5412
431.9438, 165.2839
432.4260, 164.5602
432.9081, 163.1882
433.3902, 161.7917
433.8723, 161.9336
434.3544, 165.3431
434.8365, 167.4258
435.3187, 166.8000
435.8008, 165.6111
436.2829, 165.7133
436.7650, 167.2318
437.2471, 169.0604
437.7292, 170.1737
438.2114, 170.5567
438.6935, 170.9792
439.1756, 171.2091
439.6577, 171.7458
440.1398, 173.0470
440.6219, 174.6152
441.1040, 175.6649
441.5862, 175.8663
442.0683, 175.8094
442.5504, 176.5948
443.0325, 178.4722
443.5146, 180.4419
443.9967, 182.6277
444.4789, 184.7090
444.9610, 186.4419
445.4431, 187.8814
445.9252, 189.3008
446.4073, 190.8514
446.8894, 192.5276
447.3716, 194.2542
447.8537, 195.8936
448.3358, 197.9276
448.8179, 200.6325
449.3000, 203.8258
449.7821, 207.3472
450.2643, 211.1433
450.7464, 215.3697
451.2285, 220.2565
451.7106, 225.7274
452.1927, 231.2407
452.6748, 236.5990
453.1570, 242.1089
453.6391, 248.4878
454.1212, 255.4613
454.6033, 261.5658
455.0854, 265.9629
455.5675, 269.6872
456.0497, 273.6757
456.5318, 277.8670
457.0139, 281.7221
457.4960, 284.7862
457.9781, 287.5626
458.4602, 291.4691
458.9424, 296.5483
459.4245, 302.3913
459.9066, 308.9664
460.3887, 316.2377
460.8708, 324.3051
461.3529, 333.1175
461.8351, 342.2862
462.3172, 351.5043
462.7993, 360.7064
463.2814, 370.3577
463.7635, 380.6137
464.2456, 391.0988
464.7278, 401.0770
465.2099, 411.5371
465.6920, 423.8014
466.1741, 438.4343
466.6562, 454.7868
467.1383, 471.4618
467.6205, 487.6821
468.1026, 507.1676
468.5847, 530.2717
469.0668, 556.5775
469.5489, 585.5493
470.0310, 617.6348
470.5132, 653.4724
470.9953, 692.9808
471.4774, 736.9993
471.9595, 787.7138
472.4416, 845.2385
472.9237, 908.7406
473.4059, 979.5137
473.8880, 1055.340
474.3701, 1136.282
474.8522, 1222.155
475.3343, 1306.255
475.8164, 1389.688
476.2986, 1467.076
476.7807, 1527.466
477.2628, 1570.102
477.7449, 1592.047
478.2270, 1590.566
478.7091, 1564.576
479.1913, 1516.584
479.6734, 1437.078
480.1555, 1346.389
480.6376, 1248.316
481.1197, 1147.315
481.6018, 1051.085
482.0839, 961.8450
482.5660, 881.4789
483.0482, 812.3076
483.5303, 756.2004
484.0124, 708.1138
484.4945, 668.3506
484.9766, 635.8355
485.4587, 610.8090
485.9409, 592.4307
486.4230, 579.1620
486.9051, 570.0980
487.3872, 565.2516
487.8693, 564.8105
488.3514, 569.7982
488.8336, 577.6270
489.3157, 588.5104
489.7978, 601.3337
490.2799, 615.6248
490.7620, 631.1747
491.2441, 647.6326
491.7263, 664.6995
492.2084, 682.3940
492.6905, 700.5241
493.1726, 718.2454
493.6547, 738.3555
494.1368, 761.3587
494.6190, 787.5059
495.1011, 817.0498
495.5832, 849.8151
496.0653, 887.3314
496.5474, 929.8923
497.0295, 977.8474
497.5117, 1031.550
497.9938, 1090.670
498.4759, 1157.296
498.9580, 1232.947
499.4401, 1318.736
499.9222, 1416.798
500.4044, 1526.667
500.8865, 1649.574
501.3686, 1789.943
501.8507, 1943.900
502.3328, 2107.990
502.8149, 2280.903
503.2971, 2457.095
503.7792, 2630.683
504.2613, 2810.165
504.7434, 2957.117
505.2255, 3084.506
505.7076, 3170.825
506.1898, 3209.119
506.6719, 3198.264
507.1540, 3134.703
507.6361, 3015.883
508.1182, 2851.250
508.6003, 2658.921
509.0825, 2425.586
509.5646, 2199.556
510.0467, 1977.766
510.5288, 1771.633
511.0109, 1586.221
511.4930, 1421.634
511.9752, 1276.156
512.4573, 1149.974
512.9394, 1041.311
513.4215, 946.7539
513.9036, 866.6453
514.3857, 796.4220
514.8679, 736.0804
515.3500, 683.7839
515.8321, 636.5024
516.3142, 594.1578
516.7963, 557.1225
517.2784, 526.7839
517.7606, 501.1162
518.2427, 477.7451
518.7248, 456.3531
519.2069, 436.2043
519.6890, 416.7586
520.1711, 398.1224
520.6533, 381.5864
521.1354, 367.3537
521.6175, 354.4350
522.0996, 343.1496
522.5817, 332.8754
523.0638, 322.9987
523.5460, 313.5011
524.0281, 304.8309
524.5102, 297.5818
524.9923, 291.7337
525.4744, 285.6125
525.9565, 278.5617
526.4387, 272.1977
526.9208, 266.8897
527.4029, 262.3375
527.8850, 258.4902
528.3671, 255.2711
528.8492, 251.9612
529.3314, 247.5758
529.8135, 242.2788
530.2956, 237.6090
530.7777, 233.7742
531.2598, 230.3474
531.7419, 227.1833
532.2241, 224.2352
532.7062, 221.3937
533.1883, 218.5981
533.6704, 216.0101
534.1525, 213.8520
534.6346, 211.9655
535.1168, 209.8996
535.5989, 207.5306
536.0810, 205.2244
536.5631, 203.4224
537.0452, 202.1488
537.5273, 200.5397
538.0095, 198.2448
538.4916, 196.0312
538.9737, 194.2982
539.4558, 192.7778
539.9379, 190.9273
540.4200, 188.6135
540.9022, 186.3851
541.3843, 185.1057
541.8664, 185.0060
542.3485, 184.5540
542.8306, 183.5573
543.3127, 182.3975
543.7948, 180.9742
544.2769, 179.5317
544.7590, 178.4590
545.2411, 177.9204
545.7233, 177.6006
546.2054, 177.1905
546.6875, 176.6825
547.1696, 175.9120
547.6517, 174.6164
548.1339, 173.5065
548.6160, 173.6637
549.0981, 174.5457
549.5802, 174.5302
550.0623, 172.3690
550.5444, 170.2414
551.0266, 169.7912
551.5087, 170.4094
551.9908, 170.7589
552.4729, 170.4431
552.9550, 169.6344
553.4371, 168.4339
553.9193, 166.6530
554.4014, 165.6579
554.8835, 165.9935
555.3656, 166.3921
555.8477, 166.5821
556.3298, 166.4822
556.8120, 165.8257
557.2941, 164.5546
557.7762, 163.3555
558.2583, 163.3803
558.7404, 164.8359
559.2225, 165.7472
559.7047, 165.6070
560.1868, 165.5006
560.6689, 166.1913
561.1510, 167.1915
561.6331, 167.6085
562.1152, 167.0008
562.5974, 166.2374
563.0795, 165.9782
563.5616, 166.2118
564.0437, 167.0706
564.5258, 168.7403
565.0079, 170.3045
565.4901, 170.8596
565.9722, 170.4329
566.4543, 170.2016
566.9364, 169.5390
567.4185, 169.7785
567.9006, 172.2195
568.3828, 175.5701
568.8649, 177.8960
569.3470, 178.7449
569.8291, 179.2622
570.3112, 180.7611
570.7933, 183.3074
571.2755, 185.7462
571.7576, 187.7263
572.2397, 190.0695
572.7218, 193.1662
573.2039, 196.6246
573.6860, 200.0852
574.1682, 203.4613
574.6503, 206.6310
575.1324, 209.2839
575.6145, 211.5970
576.0966, 214.7169
576.5787, 219.1958
577.0609, 222.5625
577.5430, 223.1145
578.0251, 221.4510
578.5072, 219.2778
578.9893, 216.6444
579.4714, 213.4632
579.9536, 209.4090
580.4357, 204.9445
580.9178, 200.6492
581.3999, 196.5761
581.8820, 192.2692
582.3641, 187.2935
582.8463, 181.8684
583.3284, 177.2246
583.8105, 173.6853
584.2926, 170.4981
584.7747, 167.5477
585.2568, 164.9352
585.7390, 162.8692
586.2211, 161.2549
586.7032, 159.6531
587.1853, 157.5748
587.6674, 155.4106
588.1495, 154.5207
