##NAMES=Albite
##RRUFFID=R050253
##IDEAL CHEMISTRY=NaAlSi_3_O_8_
##LOCALITY=Madawaska/Faraday mine, Bancroft, Ontario, Canada
##OWNER=RRUFF
##SOURCE=Marcus Origlieri
##DESCRIPTION=Colorless to brown prismatic single crystals
##STATUS=The identification of this mineral has been confirmed by X-ray diffraction and chemical analysis
##URL=rruff.info/R050253
##MEASURED CHEMISTRY=(Na_0.99_Ca_0.01_)Al_1.00_(Si_0.99_Al_0.01_)_3_O_8_
92.52344, 973.8721
93.00555, 949.9727
93.48767, 946.5441
93.96979, 977.6836
94.45190, 1004.405
94.93402, 1015.006
95.41614, 1018.322
95.89825, 1020.171
96.38037, 1022.919
96.86249, 1026.620
97.34460, 1028.655
97.82672, 1029.974
98.30884, 1030.475
98.79095, 1029.971
99.27307, 1027.473
99.75519, 1022.916
100.2373, 1018.970
100.7194, 1015.597
101.2015, 1014.130
101.6837, 1015.322
102.1658, 1017.449
102.6479, 1018.786
103.1300, 1018.724
103.6121, 1018.267
104.0942, 1019.227
104.5764, 1021.338
105.0585, 1024.259
105.5406, 1028.194
106.0227, 1032.884
106.5048, 1037.418
106.9869, 1041.247
107.4691, 1044.540
107.9512, 1047.499
108.4333, 1049.912
108.9154, 1052.546
109.3975, 1056.115
109.8796, 1060.594
110.3618, 1065.996
110.8439, 1074.820
111.3260, 1083.432
111.8081, 1088.674
112.2902, 1089.184
112.7723, 1085.660
113.2544, 1079.914
113.7366, 1069.499
114.2187, 1059.871
114.7008, 1052.511
115.1829, 1046.476
115.6650, 1040.227
116.1471, 1032.516
116.6293, 1023.319
117.1114, 1016.867
117.5935, 1014.124
118.0756, 1012.687
118.5577, 1011.792
119.0398, 1011.411
119.5220, 1011.826
120.0041, 1013.263
120.4862, 1015.897
120.9683, 1019.633
121.4504, 1025.209
121.9325, 1031.426
122.4147, 1036.961
122.8968, 1041.482
123.3789, 1046.216
123.8610, 1053.455
124.3431, 1062.715
124.8252, 1070.774
125.3074, 1075.488
125.7895, 1078.071
126.2716, 1082.192
126.7537, 1089.620
127.2358, 1097.193
127.7179, 1101.730
128.2001, 1103.496
128.6822, 1105.755
129.1643, 1111.408
129.6464, 1120.807
130.1285, 1130.521
130.6107, 1140.373
131.0928, 1150.298
131.5749, 1159.806
132.0570, 1168.936
132.5391, 1178.728
133.0212, 1190.797
133.5034, 1206.289
133.9855, 1222.251
134.4676, 1237.480
134.9497, 1253.486
135.4318, 1271.498
135.9139, 1291.964
136.3960, 1314.616
136.8782, 1338.490
137.3603, 1363.602
137.8424, 1390.118
138.3245, 1418.037
138.8066, 1447.348
139.2887, 1477.711
139.7709, 1508.734
140.2530, 1540.756
140.7351, 1575.180
141.2172, 1612.594
141.6993, 1651.071
142.1814, 1691.382
142.6636, 1732.575
143.1457, 1770.810
143.6278, 1804.318
144.1099, 1831.891
144.5920, 1853.460
145.0741, 1868.362
145.5563, 1877.490
146.0384, 1879.643
146.5205, 1873.443
147.0026, 1867.995
147.4847, 1866.360
147.9668, 1869.359
148.4490, 1879.487
148.9311, 1898.744
149.4132, 1925.278
149.8953, 1954.931
150.3774, 1989.647
150.8595, 2024.834
151.3417, 2058.553
151.8238, 2091.311
152.3059, 2123.705
152.7880, 2155.397
153.2701, 2186.751
153.7522, 2220.974
154.2344, 2256.953
154.7165, 2297.240
155.1986, 2343.118
155.6807, 2394.081
156.1628, 2449.055
156.6449, 2507.037
157.1271, 2568.179
157.6092, 2631.498
158.0913, 2700.616
158.5734, 2768.797
159.0555, 2836.524
159.5376, 2901.686
160.0198, 2958.387
160.5019, 3001.037
160.9840, 3028.802
161.4661, 3036.277
161.9482, 3022.398
162.4303, 2990.466
162.9125, 2938.695
163.3946, 2867.149
163.8767, 2787.059
164.3588, 2710.235
164.8409, 2636.228
165.3230, 2571.177
165.8052, 2515.394
166.2873, 2469.468
166.7694, 2435.803
167.2515, 2415.466
167.7336, 2406.146
168.2157, 2407.539
168.6979, 2418.515
169.1800, 2430.699
169.6621, 2442.718
170.1442, 2453.449
170.6263, 2457.786
171.1084, 2451.999
171.5906, 2442.208
172.0727, 2432.679
172.5548, 2423.649
173.0369, 2416.133
173.5190, 2410.147
174.0011, 2405.514
174.4833, 2405.480
174.9654, 2412.083
175.4475, 2422.857
175.9296, 2437.375
176.4117, 2455.344
176.8938, 2476.085
177.3760, 2499.219
177.8581, 2525.634
178.3402, 2551.903
178.8223, 2577.980
179.3044, 2603.759
179.7865, 2629.293
180.2687, 2654.547
180.7508, 2679.025
181.2329, 2702.078
181.7150, 2725.902
182.1971, 2743.913
182.6792, 2757.824
183.1614, 2765.898
183.6435, 2766.791
184.1256, 2760.027
184.6077, 2745.955
185.0898, 2725.232
185.5719, 2698.767
186.0541, 2662.567
186.5362, 2613.159
187.0183, 2555.073
187.5004, 2492.855
187.9825, 2427.767
188.4646, 2360.911
188.9468, 2293.395
189.4289, 2222.943
189.9110, 2157.353
190.3931, 2099.175
190.8752, 2047.082
191.3573, 1997.886
191.8395, 1950.106
192.3216, 1905.566
192.8037, 1867.861
193.2858, 1837.157
193.7679, 1810.363
194.2500, 1786.363
194.7322, 1765.276
195.2143, 1747.163
195.6964, 1732.320
196.1785, 1720.794
196.6606, 1711.322
197.1427, 1703.618
197.6249, 1699.026
198.1070, 1699.707
198.5891, 1705.482
199.0712, 1710.980
199.5533, 1712.885
200.0354, 1715.320
200.5176, 1721.410
200.9997, 1731.566
201.4818, 1744.940
201.9639, 1760.827
202.4460, 1779.320
202.9281, 1799.765
203.4103, 1821.603
203.8924, 1845.631
204.3745, 1873.089
204.8566, 1904.358
205.3387, 1937.050
205.8208, 1969.184
206.3030, 2003.230
206.7851, 2029.529
207.2672, 2052.901
207.7493, 2065.680
208.2314, 2062.027
208.7135, 2040.464
209.1957, 2003.405
209.6778, 1953.740
210.1599, 1886.295
210.6420, 1814.955
211.1241, 1735.911
211.6062, 1656.801
212.0884, 1582.292
212.5705, 1514.400
213.0526, 1452.974
213.5347, 1397.659
214.0168, 1350.146
214.4989, 1307.782
214.9811, 1270.492
215.4632, 1237.772
215.9453, 1209.535
216.4274, 1185.642
216.9095, 1165.500
217.3916, 1148.066
217.8737, 1134.501
218.3559, 1122.144
218.8380, 1111.374
219.3201, 1101.532
219.8022, 1091.624
220.2843, 1081.321
220.7664, 1071.535
221.2486, 1064.088
221.7307, 1059.646
222.2128, 1055.478
222.6949, 1051.393
223.1770, 1047.322
223.6591, 1042.977
224.1413, 1038.159
224.6234, 1033.622
225.1055, 1030.942
225.5876, 1030.254
226.0697, 1029.551
226.5518, 1028.399
227.0340, 1026.890
227.5161, 1025.049
227.9982, 1022.726
228.4803, 1020.485
228.9624, 1018.913
229.4445, 1017.914
229.9267, 1017.845
230.4088, 1019.458
230.8909, 1022.100
231.3730, 1024.224
231.8551, 1025.509
232.3372, 1026.262
232.8194, 1026.622
233.3015, 1026.661
233.7836, 1026.891
234.2657, 1027.511
234.7478, 1028.517
235.2299, 1029.955
235.7121, 1032.073
236.1942, 1034.284
236.6763, 1036.148
237.1584, 1037.734
237.6405, 1039.310
238.1227, 1040.614
238.6048, 1041.893
239.0869, 1044.612
239.5690, 1049.780
240.0511, 1055.187
240.5332, 1059.603
241.0154, 1063.284
241.4975, 1066.766
241.9796, 1070.083
242.4617, 1073.390
242.9438, 1077.804
243.4259, 1083.786
243.9081, 1090.449
244.3902, 1097.580
244.8723, 1105.026
245.3544, 1112.441
245.8365, 1119.363
246.3186, 1126.007
246.8008, 1134.434
247.2829, 1145.808
247.7650, 1157.739
248.2471, 1169.867
248.7292, 1181.990
249.2113, 1194.304
249.6935, 1207.489
250.1756, 1220.727
250.6577, 1228.260
251.1398, 1225.666
251.6219, 1221.872
252.1040, 1219.850
252.5862, 1217.630
253.0683, 1212.063
253.5504, 1201.191
254.0325, 1185.925
254.5146, 1170.825
254.9967, 1154.222
255.4789, 1139.977
255.9610, 1128.067
256.4431, 1118.995
256.9252, 1113.627
257.4073, 1112.502
257.8894, 1114.788
258.3716, 1117.378
258.8537, 1120.266
259.3358, 1123.518
259.8179, 1125.957
260.3000, 1129.161
260.7821, 1135.360
261.2643, 1145.582
261.7464, 1158.402
262.2285, 1170.173
262.7106, 1178.359
263.1927, 1188.653
263.6748, 1201.406
264.1570, 1216.258
264.6391, 1232.635
265.1212, 1250.344
265.6033, 1269.801
266.0854, 1291.568
266.5675, 1316.291
267.0497, 1342.726
267.5318, 1371.611
268.0139, 1401.748
268.4960, 1432.055
268.9781, 1462.141
269.4602, 1492.238
269.9424, 1522.828
270.4245, 1554.772
270.9066, 1584.861
271.3887, 1612.074
271.8708, 1638.004
272.3529, 1664.508
272.8351, 1691.931
273.3172, 1718.164
273.7993, 1740.363
274.2814, 1756.955
274.7635, 1776.084
275.2456, 1797.469
275.7278, 1821.609
276.2099, 1849.033
276.6920, 1879.758
277.1741, 1913.261
277.6562, 1948.892
278.1383, 1987.180
278.6205, 2027.637
279.1026, 2069.944
279.5847, 2115.029
280.0668, 2163.668
280.5489, 2216.048
281.0310, 2271.390
281.5132, 2328.845
281.9953, 2389.298
282.4774, 2454.070
282.9595, 2523.744
283.4416, 2597.097
283.9237, 2673.575
284.4059, 2752.972
284.8880, 2835.504
285.3701, 2921.214
285.8522, 3010.046
286.3343, 3101.220
286.8164, 3200.155
287.2986, 3294.602
287.7807, 3384.278
288.2628, 3465.975
288.7449, 3527.296
289.2270, 3566.466
289.7091, 3576.339
290.1913, 3548.635
290.6734, 3483.595
291.1555, 3388.044
291.6376, 3255.993
292.1197, 3095.736
292.6018, 2925.060
293.0840, 2746.108
293.5661, 2567.245
294.0482, 2397.991
294.5303, 2237.141
295.0124, 2090.793
295.4945, 1963.931
295.9767, 1854.179
296.4588, 1757.264
296.9409, 1673.063
297.4230, 1599.764
297.9051, 1536.279
298.3872, 1481.458
298.8694, 1432.634
299.3515, 1389.965
299.8336, 1352.534
300.3157, 1318.679
300.7978, 1288.029
301.2799, 1261.077
301.7621, 1239.309
302.2442, 1221.654
302.7263, 1205.537
303.2084, 1190.053
303.6905, 1176.020
304.1726, 1164.217
304.6548, 1154.698
305.1369, 1147.421
305.6190, 1143.217
306.1011, 1141.165
306.5832, 1139.312
307.0653, 1136.853
307.5475, 1135.177
308.0296, 1135.906
308.5117, 1138.951
308.9938, 1142.346
309.4759, 1145.967
309.9580, 1148.876
310.4402, 1149.689
310.9223, 1147.911
311.4044, 1145.372
311.8865, 1143.256
312.3686, 1141.461
312.8507, 1139.279
313.3329, 1136.123
313.8150, 1132.993
314.2971, 1130.857
314.7792, 1129.694
315.2613, 1129.520
315.7434, 1130.303
316.2256, 1132.081
316.7077, 1135.090
317.1898, 1139.691
317.6719, 1144.933
318.1540, 1149.820
318.6361, 1154.497
319.1183, 1159.738
319.6004, 1165.743
320.0825, 1172.527
320.5646, 1180.094
321.0467, 1188.411
321.5288, 1197.654
322.0110, 1207.895
322.4931, 1219.211
322.9752, 1231.874
323.4573, 1245.594
323.9394, 1260.902
324.4215, 1278.973
324.9037, 1299.756
325.3858, 1320.909
325.8679, 1342.776
326.3500, 1363.262
326.8321, 1379.789
327.3142, 1393.301
327.7964, 1400.609
328.2785, 1400.109
328.7606, 1391.639
329.2427, 1373.494
329.7248, 1342.252
330.2069, 1303.998
330.6891, 1266.502
331.1712, 1229.560
331.6533, 1195.372
332.1354, 1164.565
332.6175, 1137.309
333.0996, 1114.601
333.5818, 1097.358
334.0639, 1082.601
334.5460, 1066.731
335.0281, 1050.198
335.5102, 1036.653
335.9923, 1028.010
336.4745, 1022.547
336.9566, 1018.475
337.4387, 1015.865
337.9208, 1012.848
338.4029, 1007.624
338.8850, 1000.881
339.3671, 994.8766
339.8492, 989.3113
340.3314, 985.0052
340.8135, 983.1844
341.2956, 983.5880
341.7777, 984.0383
342.2598, 983.5843
342.7419, 982.4156
343.2241, 980.9926
343.7062, 979.0325
344.1883, 977.4345
344.6704, 976.6671
345.1525, 976.5964
345.6346, 976.9815
346.1168, 977.8720
346.5989, 978.9011
347.0810, 979.6224
347.5631, 980.1202
348.0452, 979.9902
348.5273, 979.5074
349.0095, 978.1843
349.4916, 975.0394
349.9737, 969.8796
350.4558, 964.1680
350.9379, 959.1345
351.4200, 954.7965
351.9022, 950.8441
352.3843, 947.1434
352.8664, 943.9376
353.3485, 941.4872
353.8306, 939.7496
354.3127, 938.5366
354.7949, 937.9456
355.2770, 937.6844
355.7591, 936.5061
356.2412, 933.0823
356.7233, 930.5378
357.2054, 931.0816
357.6876, 933.1685
358.1697, 933.6440
358.6518, 931.2067
359.1339, 927.2813
359.6160, 924.4177
360.0981, 922.6866
360.5803, 921.6716
361.0624, 922.1613
361.5445, 922.8972
362.0266, 922.3040
362.5087, 920.2280
362.9908, 918.2249
363.4730, 918.0959
363.9551, 920.2411
364.4372, 920.7293
364.9193, 918.2409
365.4014, 915.4602
365.8835, 913.5491
366.3657, 912.5600
366.8478, 912.4153
367.3299, 913.2206
367.8120, 914.6769
368.2941, 915.0233
368.7762, 912.7795
369.2584, 911.3056
369.7405, 911.9645
370.2226, 913.4567
370.7047, 914.0690
371.1868, 913.1875
371.6689, 911.5165
372.1511, 910.2786
372.6332, 909.6699
373.1153, 909.1662
373.5974, 908.6241
374.0795, 908.2805
374.5616, 908.5058
375.0438, 909.1873
375.5259, 909.6810
376.0080, 909.2441
376.4901, 907.7288
376.9722, 907.3959
377.4543, 909.6196
377.9365, 911.5258
378.4186, 912.4067
378.9007, 912.3551
379.3828, 911.3079
379.8649, 909.1053
380.3470, 906.5707
380.8292, 906.5212
381.3113, 911.1184
381.7934, 914.8486
382.2755, 917.1457
382.7576, 918.4367
383.2397, 918.8287
383.7219, 918.4590
384.2040, 917.8309
384.6861, 917.4541
385.1682, 917.1808
385.6503, 917.7878
386.1324, 920.2588
386.6146, 922.7800
387.0967, 924.3459
387.5788, 925.3093
388.0609, 926.7814
388.5430, 929.7233
389.0251, 933.7392
389.5073, 936.8675
389.9894, 938.4280
390.4715, 940.3132
390.9536, 943.2818
391.4357, 946.7806
391.9178, 950.1223
392.4000, 953.0092
392.8821, 956.0955
393.3642, 960.6835
393.8463, 967.1000
394.3284, 972.3047
394.8105, 974.1530
395.2927, 975.9170
395.7748, 980.2314
396.2569, 986.9302
396.7390, 993.6234
397.2211, 998.9229
397.7032, 1002.966
398.1854, 1006.318
398.6675, 1009.258
399.1496, 1010.884
399.6317, 1009.855
400.1138, 1007.229
400.5959, 1004.646
401.0781, 1002.168
401.5602, 1000.352
402.0423, 999.8165
402.5244, 1000.545
403.0065, 1002.218
403.4886, 1004.904
403.9708, 1008.372
404.4529, 1012.417
404.9350, 1017.285
405.4171, 1021.428
405.8992, 1024.120
406.3813, 1025.617
406.8635, 1026.948
407.3456, 1028.575
407.8277, 1028.024
408.3098, 1022.313
408.7919, 1011.519
409.2740, 1000.278
409.7562, 987.3265
410.2383, 975.3203
410.7204, 966.1202
411.2025, 959.4606
411.6846, 953.8990
412.1667, 948.7003
412.6489, 943.9772
413.1310, 940.1506
413.6131, 937.4129
414.0952, 935.0551
414.5773, 933.2271
415.0594, 931.5892
415.5416, 929.7233
416.0237, 927.5477
416.5058, 925.3858
416.9879, 923.7270
417.4700, 922.8869
417.9521, 920.8571
418.4343, 916.9031
418.9164, 912.6976
419.3985, 908.4120
419.8806, 904.4950
420.3627, 901.7993
420.8448, 900.8669
421.3270, 901.3362
421.8091, 901.8997
422.2912, 903.4426
422.7733, 903.6930
423.2554, 901.0389
423.7375, 897.9807
424.2197, 896.8488
424.7018, 898.0180
425.1839, 900.0058
425.6660, 901.2596
426.1481, 901.7975
426.6302, 901.4498
427.1124, 898.5751
427.5945, 896.4771
428.0766, 896.8369
428.5587, 898.7784
429.0408, 900.5660
429.5229, 901.2529
430.0051, 901.2599
430.4872, 901.6153
430.9693, 902.5372
431.4514, 903.0729
431.9335, 902.0320
432.4156, 901.0334
432.8978, 901.5989
433.3799, 903.9122
433.8620, 906.2534
434.3441, 907.0904
434.8262, 906.7654
435.3083, 906.7179
435.7905, 906.9637
436.2726, 907.7894
436.7547, 909.7092
437.2368, 912.3702
437.7189, 915.0237
438.2010, 917.2096
438.6832, 919.5560
439.1653, 923.1237
439.6474, 927.6523
440.1295, 931.2125
440.6116, 932.7793
441.0938, 933.1926
441.5759, 933.7791
442.0580, 934.2514
442.5401, 935.8809
443.0222, 940.1484
443.5043, 945.1953
443.9865, 948.6604
444.4686, 950.2717
444.9507, 951.5785
445.4328, 953.8812
445.9149, 957.1817
446.3970, 960.4210
446.8792, 963.4163
447.3613, 966.5558
447.8434, 969.4501
448.3255, 972.7003
448.8076, 977.5026
449.2897, 984.3519
449.7719, 992.1716
450.2540, 998.9222
450.7361, 1003.587
451.2182, 1009.488
451.7003, 1016.892
452.1824, 1025.101
452.6646, 1034.006
453.1467, 1043.431
453.6288, 1053.066
454.1109, 1062.834
454.5930, 1072.520
455.0751, 1081.074
455.5573, 1087.851
456.0394, 1094.495
456.5215, 1100.884
457.0036, 1107.570
457.4857, 1115.025
457.9678, 1123.346
458.4500, 1132.598
458.9321, 1142.505
459.4142, 1153.068
459.8963, 1166.244
460.3784, 1183.759
460.8605, 1201.646
461.3427, 1217.531
461.8248, 1232.061
462.3069, 1246.891
462.7890, 1262.982
463.2711, 1279.311
463.7532, 1294.020
464.2354, 1307.271
464.7175, 1321.480
465.1996, 1337.367
465.6817, 1354.912
466.1638, 1373.698
466.6459, 1393.474
467.1281, 1415.737
467.6102, 1440.983
468.0923, 1468.966
468.5744, 1499.683
469.0565, 1533.255
469.5386, 1567.507
470.0208, 1600.214
470.5029, 1632.275
470.9850, 1669.829
471.4671, 1713.195
471.9492, 1760.764
472.4313, 1813.435
472.9135, 1869.747
473.3956, 1927.823
473.8777, 1987.001
474.3598, 2048.508
474.8419, 2114.408
475.3240, 2187.586
475.8062, 2253.269
476.2883, 2315.667
476.7704, 2367.695
477.2525, 2411.384
477.7346, 2441.671
478.2167, 2449.898
478.6989, 2431.404
479.1810, 2389.491
479.6631, 2329.339
480.1452, 2247.174
480.6273, 2157.910
481.1094, 2055.335
481.5916, 1953.330
482.0737, 1857.217
482.5558, 1768.925
483.0379, 1691.589
483.5200, 1627.960
484.0021, 1576.693
484.4843, 1533.231
484.9664, 1497.300
485.4485, 1469.514
485.9306, 1451.230
486.4127, 1441.311
486.8948, 1438.693
487.3770, 1443.766
487.8591, 1454.409
488.3412, 1470.236
488.8233, 1490.513
489.3054, 1514.227
489.7875, 1541.304
490.2697, 1569.736
490.7518, 1597.687
491.2339, 1625.042
491.7160, 1652.716
492.1981, 1681.091
492.6802, 1709.265
493.1624, 1734.992
493.6445, 1760.273
494.1266, 1788.652
494.6087, 1821.620
495.0908, 1858.470
495.5729, 1898.301
496.0551, 1940.521
496.5372, 1987.624
497.0193, 2039.270
497.5014, 2095.191
497.9835, 2155.313
498.4656, 2219.755
498.9478, 2288.773
499.4299, 2362.384
499.9120, 2441.329
500.3941, 2526.854
500.8762, 2619.952
501.3583, 2718.998
501.8405, 2824.250
502.3226, 2934.702
502.8047, 3051.390
503.2868, 3173.923
503.7689, 3295.473
504.2510, 3419.502
504.7331, 3538.838
505.2152, 3637.264
505.6974, 3718.103
506.1795, 3764.335
506.6616, 3767.884
507.1437, 3728.087
507.6258, 3646.263
508.1079, 3517.194
508.5901, 3362.093
509.0722, 3179.548
509.5543, 2981.875
510.0364, 2783.819
510.5185, 2588.199
511.0006, 2404.658
511.4828, 2242.345
511.9649, 2101.172
512.4470, 1973.959
512.9291, 1860.310
513.4113, 1758.314
513.8934, 1669.737
514.3755, 1592.280
514.8576, 1524.377
515.3397, 1465.004
515.8218, 1413.446
516.3040, 1368.888
516.7861, 1332.049
517.2682, 1297.648
517.7503, 1265.749
518.2324, 1236.443
518.7145, 1209.523
519.1967, 1185.135
519.6788, 1163.541
520.1609, 1144.915
520.6430, 1128.339
521.1251, 1112.476
521.6072, 1097.181
522.0894, 1083.497
522.5715, 1071.919
523.0536, 1061.566
523.5357, 1052.107
524.0178, 1043.272
524.4999, 1034.177
524.9821, 1023.631
525.4642, 1013.508
525.9463, 1006.086
526.4284, 1001.017
526.9105, 996.0419
527.3926, 990.4294
527.8748, 984.5104
528.3569, 978.6797
528.8390, 972.9196
529.3211, 967.4551
529.8032, 961.8878
530.2853, 957.0067
530.7675, 954.0601
531.2496, 952.3586
531.7317, 949.8300
532.2138, 945.2791
532.6959, 939.5450
533.1780, 934.7600
533.6602, 930.7372
534.1423, 928.1050
534.6244, 928.3568
535.1065, 928.4904
535.5886, 926.5677
536.0707, 922.8762
536.5529, 918.7433
537.0350, 914.8882
537.5171, 911.3990
537.9992, 908.7342
538.4813, 907.1047
538.9634, 905.4070
539.4456, 902.8822
539.9277, 900.5557
540.4098, 899.4650
540.8919, 899.5872
541.3740, 899.8376
541.8561, 900.4095
542.3383, 900.4558
542.8204, 898.1553
543.3025, 893.6218
543.7846, 889.7390
544.2667, 888.1090
544.7488, 887.9269
545.2310, 887.2591
545.7131, 885.9684
546.1952, 884.6224
546.6773, 882.5406
547.1594, 880.9926
547.6415, 881.6824
548.1237, 884.1246
548.6058, 886.1456
549.0879, 886.2791
549.5700, 884.7009
550.0521, 881.9486
550.5342, 876.5135
551.0164, 872.6031
551.4985, 871.2042
551.9806, 870.8239
552.4627, 870.7275
552.9448, 870.6970
553.4269, 870.5041
553.9091, 869.9378
554.3912, 869.1180
554.8733, 868.3256
555.3554, 867.5286
555.8375, 866.9416
556.3196, 866.6962
556.8018, 866.6855
557.2839, 866.6832
557.7660, 866.6594
558.2481, 866.9833
558.7302, 868.3812
559.2123, 869.8489
559.6945, 869.7441
560.1766, 868.2829
560.6587, 867.6172
561.1408, 869.1438
561.6229, 872.0061
562.1050, 873.7750
562.5872, 873.3059
563.0693, 873.4608
563.5514, 875.1655
564.0335, 876.7756
564.5156, 876.5715
564.9977, 875.1107
565.4799, 874.5344
565.9620, 876.4323
566.4441, 879.8641
566.9262, 881.8245
567.4083, 881.6647
567.8904, 881.9603
568.3726, 883.4486
568.8547, 885.4153
569.3368, 887.7626
569.8189, 890.3077
570.3010, 892.2719
570.7831, 892.5196
571.2653, 892.4266
571.7474, 894.3384
572.2295, 898.0649
572.7116, 901.2179
573.1937, 902.6504
573.6758, 903.4333
574.1580, 905.3445
574.6401, 908.6055
575.1222, 911.6404
575.6043, 914.4390
576.0864, 916.8421
576.5685, 919.2751
577.0507, 921.1772
577.5328, 921.0369
578.0149, 918.0905
578.4970, 913.6604
578.9791, 910.4456
579.4612, 909.2204
579.9434, 907.0320
580.4255, 903.7535
580.9076, 899.5661
581.3897, 894.2747
581.8718, 888.1119
582.3539, 881.2449
582.8361, 873.3223
583.3182, 865.9838
583.8003, 861.7249
584.2824, 860.2315
584.7645, 858.4609
585.2466, 855.8663
585.7288, 852.7644
586.2108, 848.8986
586.6929, 844.5815
587.1750, 841.7483
587.6572, 841.7872
588.1393, 842.0311
588.6214, 841.0719
