##NAMES=Albite
##RRUFFID=R040129
##IDEAL CHEMISTRY=NaAlSi_3_O_8_
##LOCALITY=LaChance Quarry, Brunswick, Cumberland County, Maine, USA
##OWNER=RRUFF
##SOURCE=Bob Downs
##DESCRIPTION=Colorless fragment of a tabular single crystal
##STATUS=The identification of this mineral has been confirmed by X-ray diffraction and chemical analysis
##URL=rruff.info/R040129
##MEASURED CHEMISTRY=(Na_0.99_K_0.01_)Al_1.00_Si_3.00_O_8_
130.3772, 857.9589
130.8593, 911.2295
131.3414, 962.5072
131.8235, 1018.420
132.3056, 1078.751
132.7877, 1142.310
133.2699, 1205.990
133.7520, 1269.830
134.2341, 1340.041
134.7162, 1421.351
135.1983, 1514.111
135.6804, 1603.129
136.1626, 1685.232
136.6447, 1766.494
137.1268, 1859.438
137.6089, 1965.784
138.0910, 2075.377
138.5731, 2177.318
139.0553, 2267.440
139.5374, 2376.003
140.0195, 2509.127
140.5016, 2661.173
140.9837, 2802.499
141.4658, 2923.996
141.9480, 3051.283
142.4301, 3202.868
142.9122, 3391.870
143.3943, 3577.010
143.8764, 3757.750
144.3585, 3932.397
144.8407, 4093.698
145.3228, 4240.641
145.8049, 4373.862
146.2870, 4491.968
146.7691, 4584.885
147.2512, 4673.866
147.7334, 4758.616
148.2155, 4836.366
148.6976, 4926.399
149.1797, 5049.646
149.6618, 5179.397
150.1439, 5279.420
150.6261, 5345.881
151.1082, 5384.896
151.5903, 5391.608
152.0724, 5345.523
152.5545, 5313.545
153.0366, 5286.998
153.5188, 5278.379
154.0009, 5312.095
154.4830, 5411.585
154.9651, 5539.653
155.4472, 5680.385
155.9293, 5824.563
156.4115, 5991.080
156.8936, 6193.592
157.3757, 6424.370
157.8578, 6659.250
158.3399, 6913.616
158.8221, 7156.586
159.3042, 7370.680
159.7863, 7554.694
160.2684, 7706.028
160.7505, 7838.666
161.2326, 7947.872
161.7148, 7986.340
162.1969, 7911.463
162.6790, 7764.680
163.1611, 7587.523
163.6432, 7367.721
164.1253, 7140.334
164.6075, 6911.391
165.0896, 6680.666
165.5717, 6483.598
166.0538, 6327.275
166.5359, 6219.560
167.0180, 6170.311
167.5002, 6202.882
167.9823, 6282.466
168.4644, 6392.863
168.9465, 6537.234
169.4286, 6682.219
169.9107, 6820.620
170.3929, 6941.820
170.8750, 7026.989
171.3571, 7043.937
171.8392, 7028.598
172.3213, 7013.200
172.8034, 6996.884
173.2856, 6997.117
173.7677, 7026.458
174.2498, 7085.244
174.7319, 7173.526
175.2140, 7299.473
175.6961, 7452.819
176.1783, 7618.569
176.6604, 7792.955
177.1425, 7977.344
177.6246, 8174.705
178.1067, 8382.766
178.5888, 8600.387
179.0710, 8825.772
179.5531, 9056.831
180.0352, 9288.252
180.5173, 9525.596
180.9994, 9753.182
181.4815, 9936.781
181.9637, 10078.69
182.4458, 10200.24
182.9279, 10339.00
183.4100, 10478.75
183.8921, 10562.69
184.3742, 10580.19
184.8564, 10529.23
185.3385, 10395.69
185.8206, 10175.75
186.3027, 9905.810
186.7848, 9618.152
187.2669, 9311.292
187.7491, 8964.855
188.2312, 8552.576
188.7133, 8096.167
189.1954, 7658.432
189.6775, 7238.816
190.1596, 6853.254
190.6418, 6520.893
191.1239, 6242.682
191.6060, 5991.095
192.0881, 5749.469
192.5702, 5521.398
193.0524, 5341.803
193.5345, 5215.920
194.0166, 5125.646
194.4987, 5046.716
194.9808, 4978.588
195.4629, 4929.920
195.9451, 4913.086
196.4272, 4927.091
196.9093, 4927.621
197.3914, 4904.849
197.8735, 4881.864
198.3556, 4906.830
198.8378, 4985.086
199.3199, 5076.015
199.8020, 5148.372
200.2841, 5197.242
200.7662, 5294.729
201.2483, 5454.806
201.7305, 5656.723
202.2126, 5847.312
202.6947, 6020.294
203.1768, 6205.406
203.6589, 6427.694
204.1410, 6691.700
204.6232, 6947.933
205.1053, 7196.028
205.5874, 7431.767
206.0695, 7643.610
206.5516, 7834.562
207.0337, 7993.709
207.5159, 8130.890
207.9980, 8263.298
208.4801, 8280.729
208.9622, 8162.983
209.4443, 7919.973
209.9264, 7590.232
210.4086, 7154.716
210.8907, 6668.586
211.3728, 6168.476
211.8549, 5635.877
212.3370, 5136.529
212.8191, 4669.479
213.3013, 4241.010
213.7834, 3872.299
214.2655, 3572.341
214.7476, 3316.702
215.2297, 3089.303
215.7118, 2889.339
216.1940, 2713.984
216.6761, 2564.222
217.1582, 2439.057
217.6403, 2334.975
218.1224, 2260.845
218.6045, 2197.513
219.0867, 2124.657
219.5688, 2033.143
220.0509, 1955.243
220.5330, 1901.433
221.0151, 1871.488
221.4972, 1842.978
221.9794, 1817.774
222.4615, 1791.652
222.9436, 1757.990
223.4257, 1709.009
223.9078, 1668.369
224.3899, 1643.972
224.8721, 1637.015
225.3542, 1625.474
225.8363, 1604.307
226.3184, 1583.231
226.8005, 1575.375
227.2827, 1591.073
227.7648, 1600.132
228.2469, 1592.474
228.7290, 1564.938
229.2111, 1545.711
229.6932, 1537.662
230.1754, 1535.814
230.6575, 1533.841
231.1396, 1531.510
231.6217, 1529.479
232.1038, 1527.813
232.5859, 1526.395
233.0681, 1525.729
233.5502, 1524.471
234.0323, 1524.905
234.5144, 1530.534
234.9965, 1542.669
235.4786, 1557.827
235.9608, 1575.731
236.4429, 1597.031
236.9250, 1616.974
237.4071, 1635.149
237.8892, 1652.075
238.3713, 1667.472
238.8535, 1675.963
239.3356, 1692.055
239.8177, 1722.416
240.2998, 1772.524
240.7819, 1815.766
241.2640, 1849.310
241.7462, 1878.332
242.2283, 1911.446
242.7104, 1947.546
243.1925, 1989.611
243.6746, 2039.486
244.1567, 2099.759
244.6389, 2159.616
245.1210, 2217.076
245.6031, 2275.123
246.0852, 2337.704
246.5673, 2401.594
247.0494, 2475.745
247.5316, 2567.313
248.0137, 2686.945
248.4958, 2787.990
248.9779, 2865.596
249.4600, 2926.768
249.9421, 2984.757
250.4243, 3049.895
250.9064, 3094.320
251.3885, 3108.367
251.8706, 3090.655
252.3527, 3044.861
252.8348, 2964.588
253.3170, 2860.564
253.7991, 2749.710
254.2812, 2623.911
254.7633, 2508.926
255.2454, 2412.437
255.7275, 2333.594
256.2097, 2280.990
256.6918, 2261.927
257.1739, 2264.637
257.6560, 2266.877
258.1381, 2264.520
258.6202, 2270.303
259.1024, 2289.768
259.5845, 2324.750
260.0666, 2364.787
260.5487, 2409.416
261.0308, 2459.402
261.5129, 2519.842
261.9951, 2594.471
262.4772, 2669.377
262.9593, 2737.147
263.4414, 2795.647
263.9235, 2859.363
264.4056, 2927.885
264.8878, 3002.839
265.3699, 3091.753
265.8520, 3202.213
266.3341, 3307.183
266.8162, 3397.452
267.2983, 3471.054
267.7805, 3538.729
268.2626, 3603.158
268.7447, 3657.930
269.2268, 3689.322
269.7089, 3692.390
270.1910, 3689.733
270.6732, 3689.211
271.1553, 3691.058
271.6374, 3689.183
272.1195, 3676.036
272.6016, 3670.280
273.0837, 3703.108
273.5659, 3778.042
274.0480, 3873.128
274.5301, 3978.517
275.0122, 4093.175
275.4943, 4241.020
275.9764, 4426.985
276.4586, 4636.863
276.9407, 4849.273
277.4228, 5059.721
277.9049, 5287.234
278.3870, 5535.316
278.8691, 5804.136
279.3513, 6093.261
279.8334, 6397.485
280.3155, 6735.424
280.7976, 7144.453
281.2798, 7623.499
281.7619, 8115.098
282.2440, 8587.939
282.7261, 9049.878
283.2082, 9566.892
283.6903, 10146.27
284.1725, 10753.90
284.6546, 11354.04
285.1367, 11941.99
285.6188, 12530.31
286.1009, 13129.00
286.5830, 13731.56
287.0652, 14327.72
287.5473, 14920.18
288.0294, 15457.91
288.5115, 15919.00
288.9936, 16293.59
289.4757, 16492.19
289.9579, 16500.17
290.4400, 16309.73
290.9221, 15878.96
291.4042, 15201.96
291.8863, 14357.87
292.3684, 13353.76
292.8506, 12227.69
293.3327, 11127.66
293.8148, 10070.30
294.2969, 9077.529
294.7790, 8160.963
295.2611, 7317.289
295.7433, 6575.735
296.2254, 5970.399
296.7075, 5476.826
297.1896, 5048.514
297.6717, 4671.551
298.1538, 4340.412
298.6360, 4058.181
299.1181, 3820.988
299.6002, 3613.598
300.0823, 3423.622
300.5644, 3252.889
301.0465, 3104.103
301.5287, 2983.253
302.0108, 2878.063
302.4929, 2775.658
302.9750, 2676.838
303.4571, 2591.995
303.9392, 2532.136
304.4214, 2488.490
304.9035, 2447.666
305.3856, 2405.571
305.8677, 2368.600
306.3498, 2348.008
306.8319, 2339.441
307.3141, 2327.032
307.7962, 2293.951
308.2783, 2256.212
308.7604, 2230.297
309.2425, 2224.488
309.7246, 2221.174
310.2068, 2205.981
310.6889, 2184.079
311.1710, 2168.697
311.6531, 2171.560
312.1352, 2180.101
312.6173, 2183.936
313.0995, 2178.151
313.5816, 2177.058
314.0637, 2189.641
314.5458, 2211.475
315.0279, 2234.258
315.5100, 2250.452
315.9922, 2270.045
316.4743, 2298.035
316.9564, 2335.198
317.4385, 2379.950
317.9206, 2433.007
318.4027, 2493.061
318.8849, 2558.286
319.3670, 2622.459
319.8491, 2696.763
320.3312, 2787.155
320.8133, 2896.457
321.2954, 3009.308
321.7776, 3123.878
322.2597, 3240.853
322.7418, 3360.966
323.2239, 3478.762
323.7060, 3605.255
324.1881, 3745.864
324.6703, 3901.955
325.1524, 4056.777
325.6345, 4211.142
326.1166, 4361.015
326.5987, 4505.131
327.0808, 4688.412
327.5630, 4813.410
328.0451, 4876.909
328.5272, 4877.873
329.0093, 4790.164
329.4914, 4580.808
329.9735, 4315.574
330.4557, 4032.322
330.9378, 3700.635
331.4199, 3402.994
331.9020, 3145.867
332.3841, 2926.480
332.8662, 2730.529
333.3484, 2557.541
333.8305, 2411.617
334.3126, 2297.147
334.7947, 2224.692
335.2768, 2153.896
335.7589, 2079.532
336.2411, 2007.700
336.7232, 1952.397
337.2053, 1916.291
337.6874, 1890.161
338.1695, 1870.630
338.6516, 1858.295
339.1338, 1848.763
339.6159, 1841.964
340.0980, 1838.102
340.5801, 1839.590
341.0622, 1847.382
341.5443, 1851.713
342.0265, 1846.994
342.5086, 1834.385
342.9907, 1823.866
343.4728, 1815.390
343.9549, 1809.550
344.4370, 1807.178
344.9192, 1808.224
345.4013, 1812.621
345.8834, 1823.209
346.3655, 1836.315
346.8476, 1841.915
347.3297, 1839.934
347.8119, 1832.903
348.2940, 1822.487
348.7761, 1808.767
349.2582, 1792.499
349.7403, 1774.371
350.2225, 1752.913
350.7046, 1722.441
351.1867, 1684.201
351.6688, 1649.948
352.1509, 1630.825
352.6331, 1620.314
353.1152, 1608.628
353.5973, 1593.002
354.0794, 1576.807
354.5615, 1561.701
355.0436, 1548.210
355.5258, 1537.936
356.0079, 1534.878
356.4900, 1533.692
356.9721, 1529.131
357.4542, 1519.101
357.9363, 1510.080
358.4185, 1507.470
358.9006, 1508.143
359.3827, 1506.683
359.8648, 1497.603
360.3469, 1488.524
360.8290, 1484.092
361.3112, 1485.428
361.7933, 1485.942
362.2754, 1482.215
362.7575, 1477.075
363.2396, 1473.582
363.7217, 1474.214
364.2039, 1474.819
364.6860, 1473.678
365.1681, 1470.737
365.6502, 1469.814
366.1323, 1473.229
366.6144, 1477.638
367.0966, 1480.791
367.5787, 1486.488
368.0608, 1485.994
368.5429, 1474.379
369.0250, 1454.700
369.5071, 1442.803
369.9893, 1440.698
370.4714, 1443.996
370.9535, 1451.618
371.4356, 1467.616
371.9177, 1478.455
372.3998, 1482.969
372.8820, 1482.743
373.3641, 1480.926
373.8462, 1477.134
374.3283, 1472.684
374.8104, 1466.522
375.2925, 1457.772
375.7747, 1458.488
376.2568, 1471.382
376.7389, 1488.371
377.2210, 1499.002
377.7031, 1503.061
378.1852, 1503.532
378.6674, 1499.205
379.1495, 1492.139
379.6316, 1491.419
380.1137, 1497.402
380.5958, 1506.562
381.0779, 1517.226
381.5601, 1528.847
382.0422, 1537.584
382.5243, 1541.511
383.0064, 1543.809
383.4885, 1549.690
383.9706, 1558.927
384.4528, 1569.403
384.9349, 1577.586
385.4170, 1586.674
385.8991, 1603.822
386.3812, 1632.814
386.8633, 1661.560
387.3455, 1676.948
387.8276, 1683.364
388.3097, 1691.091
388.7918, 1699.756
389.2739, 1715.300
389.7560, 1744.668
390.2382, 1789.311
390.7203, 1836.598
391.2024, 1873.846
391.6845, 1911.764
392.1666, 1963.284
392.6487, 2057.383
393.1309, 2142.468
393.6130, 2192.522
394.0951, 2210.396
394.5772, 2229.321
395.0593, 2251.139
395.5414, 2280.881
396.0236, 2321.555
396.5057, 2383.010
396.9878, 2444.458
397.4699, 2511.930
397.9520, 2578.857
398.4341, 2623.982
398.9163, 2631.611
399.3984, 2633.614
399.8805, 2641.373
400.3626, 2657.994
400.8447, 2670.912
401.3268, 2677.896
401.8090, 2682.813
402.2911, 2688.977
402.7732, 2690.910
403.2553, 2708.659
403.7374, 2751.130
404.2195, 2816.856
404.7017, 2878.866
405.1838, 2936.087
405.6659, 2993.184
406.1480, 3063.426
406.6301, 3147.865
407.1122, 3200.443
407.5944, 3212.112
408.0765, 3187.849
408.5586, 3132.507
409.0407, 3046.349
409.5228, 2951.110
410.0049, 2850.393
410.4871, 2752.341
410.9692, 2678.820
411.4513, 2632.750
411.9334, 2608.067
412.4155, 2600.984
412.8976, 2609.737
413.3798, 2628.924
413.8619, 2662.583
414.3440, 2701.771
414.8261, 2746.611
415.3082, 2796.749
415.7903, 2822.534
416.2725, 2807.595
416.7546, 2756.925
417.2367, 2674.263
417.7188, 2535.142
418.2009, 2394.420
418.6830, 2273.270
419.1652, 2170.193
419.6473, 2084.481
420.1294, 2019.908
420.6115, 1968.693
421.0937, 1926.952
421.5758, 1899.536
422.0579, 1871.949
422.5400, 1837.912
423.0221, 1803.427
423.5042, 1777.692
423.9864, 1764.756
424.4685, 1756.653
424.9506, 1753.457
425.4327, 1755.934
425.9148, 1753.383
426.3969, 1741.875
426.8791, 1729.818
427.3612, 1724.794
427.8433, 1728.546
428.3254, 1734.167
428.8075, 1741.819
429.2896, 1750.278
429.7718, 1754.771
430.2539, 1754.696
430.7360, 1753.959
431.2181, 1752.936
431.7002, 1752.083
432.1823, 1759.647
432.6645, 1777.783
433.1466, 1798.571
433.6287, 1810.099
434.1108, 1814.049
434.5929, 1818.763
435.0750, 1826.710
435.5572, 1837.930
436.0393, 1854.030
436.5214, 1874.768
437.0035, 1895.086
437.4856, 1909.542
437.9677, 1921.374
438.4499, 1934.307
438.9320, 1946.690
439.4141, 1964.824
439.8962, 1994.279
440.3783, 2032.974
440.8604, 2076.435
441.3426, 2121.978
441.8247, 2171.686
442.3068, 2227.447
442.7889, 2290.480
443.2710, 2354.619
443.7531, 2415.380
444.2353, 2477.366
444.7174, 2546.738
445.1995, 2622.805
445.6816, 2707.039
446.1637, 2802.119
446.6458, 2906.382
447.1280, 3012.793
447.6101, 3126.219
448.0922, 3236.851
448.5743, 3335.418
449.0564, 3410.985
449.5385, 3508.416
450.0207, 3637.229
450.5028, 3780.313
450.9849, 3903.006
451.4670, 3999.929
451.9491, 4098.261
452.4312, 4210.909
452.9134, 4334.815
453.3955, 4449.027
453.8776, 4552.306
454.3597, 4651.998
454.8418, 4771.343
455.3239, 4897.387
455.8061, 4970.721
456.2882, 4974.300
456.7703, 4926.370
457.2524, 4841.478
457.7345, 4724.721
458.2166, 4594.250
458.6988, 4442.851
459.1809, 4293.452
459.6630, 4164.011
460.1451, 4050.861
460.6272, 3989.621
461.1093, 4038.757
461.5915, 4141.879
462.0736, 4228.170
462.5557, 4222.150
463.0378, 4246.347
463.5199, 4346.064
464.0020, 4516.743
464.4842, 4724.053
464.9663, 4963.941
465.4484, 5235.169
465.9305, 5539.060
466.4126, 5890.682
466.8947, 6254.132
467.3769, 6622.938
467.8590, 7004.696
468.3411, 7417.692
468.8232, 7863.833
469.3053, 8335.592
469.7874, 8839.715
470.2696, 9374.348
470.7517, 9904.350
471.2338, 10425.09
471.7159, 10950.83
472.1980, 11486.34
472.6801, 12033.93
473.1623, 12589.48
473.6444, 13153.64
474.1265, 13731.22
474.6086, 14342.85
475.0907, 14982.06
475.5728, 15606.91
476.0550, 16241.21
476.5371, 16833.14
477.0192, 17327.57
477.5013, 17727.25
477.9834, 17922.52
478.4655, 17830.97
478.9477, 17481.90
479.4298, 16912.32
479.9119, 16064.68
480.3940, 15078.21
480.8761, 13951.18
481.3582, 12735.97
481.8404, 11596.90
482.3225, 10568.12
482.8046, 9644.630
483.2867, 8814.000
483.7688, 8071.466
484.2509, 7436.179
484.7331, 6932.415
485.2152, 6528.445
485.6973, 6187.442
486.1794, 5913.030
486.6615, 5695.978
487.1436, 5539.597
487.6258, 5438.561
488.1079, 5366.044
488.5900, 5318.136
489.0721, 5311.442
489.5542, 5353.661
490.0363, 5444.733
490.5185, 5586.597
491.0006, 5780.622
491.4827, 6017.270
491.9648, 6270.162
492.4470, 6547.344
492.9291, 6892.757
493.4112, 7322.546
493.8933, 7820.048
494.3754, 8349.310
494.8575, 8916.420
495.3397, 9527.438
495.8218, 10198.21
496.3039, 10920.42
496.7860, 11675.56
497.2681, 12470.82
497.7502, 13303.30
498.2324, 14205.02
498.7145, 15138.39
499.1966, 16069.90
499.6787, 16964.46
500.1608, 17871.05
500.6429, 18808.18
501.1251, 19774.45
501.6072, 20737.77
502.0893, 21689.41
502.5714, 22656.06
503.0535, 23656.52
503.5356, 24712.54
504.0178, 25760.62
504.4999, 26869.71
504.9820, 27897.66
505.4641, 28686.07
505.9462, 29260.56
506.4283, 29460.01
506.9105, 29234.25
507.3926, 28594.85
507.8747, 27536.00
508.3568, 26041.51
508.8389, 24325.75
509.3210, 22395.79
509.8032, 20343.99
510.2853, 18381.99
510.7674, 16521.80
511.2495, 14814.02
511.7316, 13314.32
512.2137, 11999.96
512.6959, 10846.60
513.1780, 9848.456
513.6601, 8988.183
514.1422, 8283.609
514.6243, 7721.586
515.1064, 7215.744
515.5886, 6736.449
516.0707, 6298.274
516.5528, 5915.903
517.0349, 5596.574
517.5170, 5314.030
517.9991, 5083.146
518.4813, 4883.124
518.9634, 4689.557
519.4455, 4495.062
519.9276, 4319.774
520.4097, 4167.454
520.8918, 4039.204
521.3740, 3927.713
521.8561, 3836.385
522.3382, 3750.550
522.8203, 3658.435
523.3024, 3561.708
523.7845, 3476.793
524.2667, 3405.210
524.7488, 3341.455
525.2309, 3277.253
525.7130, 3213.177
526.1951, 3152.368
526.6772, 3093.421
527.1594, 3039.667
527.6415, 2997.058
528.1236, 2964.285
528.6057, 2934.601
529.0878, 2912.288
529.5699, 2886.601
530.0521, 2846.440
530.5342, 2785.052
531.0163, 2732.051
531.4984, 2700.907
531.9805, 2680.711
532.4626, 2659.672
532.9448, 2637.001
533.4269, 2612.454
533.9090, 2584.507
534.3911, 2554.503
534.8732, 2528.836
535.3553, 2508.309
535.8375, 2490.173
536.3196, 2475.195
536.8017, 2463.679
537.2838, 2443.027
537.7659, 2410.409
538.2480, 2377.347
538.7302, 2356.693
539.2123, 2346.969
539.6944, 2340.010
540.1765, 2335.701
540.6586, 2330.320
541.1407, 2316.088
541.6229, 2295.515
542.1050, 2277.416
542.5871, 2266.384
543.0692, 2260.009
543.5513, 2258.786
544.0334, 2262.618
544.5156, 2262.367
544.9977, 2252.318
545.4798, 2237.245
545.9619, 2220.610
546.4440, 2198.361
546.9261, 2181.575
547.4083, 2174.858
547.8904, 2173.959
548.3725, 2171.689
548.8546, 2169.908
549.3367, 2163.213
549.8188, 2146.672
550.3010, 2122.142
550.7831, 2113.185
551.2652, 2123.287
551.7473, 2137.369
552.2294, 2147.058
552.7115, 2152.133
553.1937, 2146.814
553.6758, 2128.063
554.1579, 2109.658
554.6400, 2114.235
555.1221, 2133.617
555.6042, 2143.586
556.0864, 2124.095
556.5685, 2103.157
557.0506, 2117.241
557.5327, 2155.564
558.0148, 2177.715
558.4969, 2146.033
558.9791, 2105.584
559.4612, 2083.416
559.9433, 2084.643
560.4254, 2092.494
560.9075, 2112.365
561.3896, 2132.840
561.8718, 2143.552
562.3539, 2133.106
562.8360, 2132.927
563.3181, 2150.092
563.8002, 2176.591
564.2823, 2191.430
564.7645, 2190.803
565.2466, 2195.222
565.7287, 2214.488
566.2108, 2245.496
566.6929, 2273.171
567.1750, 2297.195
567.6572, 2320.037
568.1393, 2341.380
568.6214, 2363.035
569.1035, 2387.686
569.5856, 2415.823
570.0677, 2447.638
570.5499, 2488.569
571.0320, 2532.546
571.5141, 2570.250
571.9962, 2593.419
572.4783, 2614.507
572.9604, 2635.977
573.4426, 2658.534
573.9247, 2686.021
574.4068, 2726.704
574.8889, 2765.158
575.3710, 2794.554
575.8531, 2812.386
576.3353, 2833.155
576.8174, 2859.660
577.2995, 2884.654
577.7816, 2903.516
578.2637, 2916.794
578.7458, 2916.648
579.2280, 2902.180
579.7101, 2873.370
580.1922, 2826.408
580.6743, 2763.368
581.1564, 2695.966
581.6385, 2625.965
582.1207, 2556.499
582.6028, 2491.266
583.0849, 2431.025
583.5670, 2377.182
584.0491, 2332.435
584.5313, 2293.400
585.0134, 2257.683
585.4955, 2225.212
585.9776, 2195.378
586.4597, 2169.852
586.9418, 2146.298
587.4240, 2122.003
587.9061, 2089.421
588.3882, 2067.762
588.8703, 2063.510
589.3524, 2070.292
589.8345, 2069.626
590.3167, 2060.600
590.7988, 2047.310
591.2809, 2029.427
591.7630, 2008.554
592.2451, 1993.651
592.7272, 1984.780
593.2094, 1980.388
593.6915, 1973.098
594.1736, 1970.596
594.6557, 1995.958
595.1378, 2062.043
595.6199, 2114.517
596.1021, 2101.444
596.5842, 2051.776
597.0663, 2006.623
597.5485, 1974.764
598.0306, 1955.458
598.5127, 1953.963
598.9948, 1966.447
599.4769, 1976.430
599.9590, 1982.716
600.4412, 1986.629
600.9233, 1987.719
601.4054, 1985.654
601.8875, 1987.205
602.3696, 1994.724
602.8517, 2000.029
603.3339, 1993.265
603.8160, 1975.687
604.2981, 1965.377
604.7802, 1965.629
605.2623, 1969.255
605.7444, 1965.421
606.2266, 1957.418
606.7087, 1954.243
607.1908, 1960.949
607.6729, 1971.820
608.1550, 1986.116
608.6371, 2001.491
609.1193, 2010.806
609.6014, 2003.462
610.0835, 1995.921
610.5656, 1997.633
611.0477, 2011.031
611.5298, 2018.502
612.0120, 2012.403
612.4941, 2007.216
612.9762, 2014.652
613.4583, 2041.465
613.9404, 2054.609
614.4225, 2047.948
614.9047, 2035.727
615.3868, 2040.327
615.8689, 2060.386
616.3510, 2076.738
616.8331, 2080.958
617.3152, 2082.286
617.7974, 2097.527
618.2795, 2123.075
618.7616, 2145.653
619.2437, 2152.965
619.7258, 2158.137
620.2079, 2170.837
620.6901, 2191.563
621.1722, 2215.502
621.6543, 2248.073
622.1364, 2278.448
622.6185, 2297.980
623.1006, 2297.276
623.5828, 2306.740
624.0649, 2332.604
624.5470, 2362.919
625.0291, 2380.611
625.5112, 2381.147
625.9933, 2395.004
626.4755, 2431.645
