##NAMES=Albite
##RRUFFID=R050402
##IDEAL CHEMISTRY=NaAlSi_3_O_8_
##LOCALITY=Urbano mine, Golconda District, Brazil
##OWNER=RRUFF
##SOURCE=Bob Downs
##DESCRIPTION=Colorless tabular single crystals associated with fluorapatite R050401
##STATUS=The identification of this mineral has been confirmed by X-ray diffraction and chemical analysis
##URL=rruff.info/R050402
##MEASURED CHEMISTRY=Na_1.00_Al_1.00_Si_3.00_O_8_
93.48767, 127.3559
93.96979, 131.5773
94.45190, 134.9676
94.93402, 136.4323
95.41614, 135.3270
95.89825, 133.1878
96.38037, 131.5174
96.86249, 130.1605
97.34460, 128.7556
97.82672, 127.2415
98.30884, 126.0005
98.79095, 125.2777
99.27307, 124.7145
99.75519, 123.8196
100.2373, 122.6438
100.7194, 121.3940
101.2015, 120.5620
101.6837, 120.2024
102.1658, 120.0925
102.6479, 120.1077
103.1300, 120.2432
103.6121, 120.4249
104.0942, 120.3287
104.5764, 120.2221
105.0585, 120.6528
105.5406, 121.8929
106.0227, 123.8069
106.5048, 126.0671
106.9869, 129.0293
107.4691, 131.7565
107.9512, 133.6500
108.4333, 134.9605
108.9154, 136.2995
109.3975, 138.1439
109.8796, 140.5206
110.3618, 143.2091
110.8439, 146.3208
111.3260, 149.6372
111.8081, 153.6394
112.2902, 158.0629
112.7723, 161.8685
113.2544, 163.6179
113.7366, 162.9092
114.2187, 160.3518
114.7008, 155.3882
115.1829, 149.0490
115.6650, 142.0027
116.1471, 134.4519
116.6293, 126.7394
117.1114, 119.6376
117.5935, 112.8092
118.0756, 107.0245
118.5577, 102.7004
119.0398, 99.57542
119.5220, 96.98427
120.0041, 94.66402
120.4862, 92.76971
120.9683, 91.46247
121.4504, 90.85844
121.9325, 90.61456
122.4147, 90.41701
122.8968, 90.23736
123.3789, 90.44336
123.8610, 91.45824
124.3431, 92.89801
124.8252, 94.50385
125.3074, 96.29620
125.7895, 98.08978
126.2716, 99.42148
126.7537, 99.87187
127.2358, 100.6000
127.7179, 102.0535
128.2001, 103.9303
128.6822, 105.8584
129.1643, 107.5992
129.6464, 109.1778
130.1285, 110.8158
130.6107, 112.1617
131.0928, 113.9365
131.5749, 116.4975
132.0570, 119.6542
132.5391, 122.9779
133.0212, 126.0494
133.5033, 128.7883
133.9855, 131.9834
134.4676, 135.7816
134.9497, 139.8078
135.4318, 143.7104
135.9139, 147.5046
136.3960, 151.6554
136.8782, 156.6807
137.3603, 162.7352
137.8424, 169.2349
138.3245, 175.9939
138.8066, 183.2287
139.2887, 191.1010
139.7709, 199.5809
140.2530, 208.8241
140.7351, 219.0224
141.2172, 229.9725
141.6993, 241.9883
142.1814, 255.6075
142.6636, 270.4229
143.1457, 285.1309
143.6278, 299.5478
144.1099, 313.4987
144.5920, 327.5494
145.0741, 341.5857
145.5563, 354.2561
146.0384, 364.8533
146.5205, 373.5329
147.0026, 378.6927
147.4847, 377.5611
147.9668, 374.2750
148.4490, 369.9549
148.9311, 365.1142
149.4132, 361.0505
149.8953, 359.7620
150.3774, 361.9114
150.8595, 365.8924
151.3417, 372.3052
151.8238, 379.6492
152.3059, 386.8655
152.7880, 393.4879
153.2701, 399.7004
153.7522, 405.8549
154.2344, 410.4973
154.7165, 416.8449
155.1986, 424.8347
155.6807, 434.6291
156.1628, 446.3959
156.6449, 460.1733
157.1271, 476.0029
157.6092, 494.3663
158.0913, 515.6843
158.5734, 538.5430
159.0555, 562.9226
159.5376, 588.5699
160.0198, 615.2181
160.5019, 643.4891
160.9840, 672.1008
161.4661, 696.9918
161.9482, 720.8773
162.4303, 738.7693
162.9125, 747.8602
163.3946, 748.2208
163.8767, 739.7368
164.3588, 719.1175
164.8409, 689.7758
165.3230, 657.0590
165.8052, 619.6682
166.2873, 581.2969
166.7694, 546.7823
167.2515, 515.8446
167.7336, 489.5440
168.2157, 468.7123
168.6979, 452.2670
169.1800, 439.5348
169.6621, 430.7079
170.1442, 425.0909
170.6263, 420.7929
171.1084, 418.2222
171.5906, 416.5129
172.0727, 415.8474
172.5548, 415.6209
173.0369, 414.8373
173.5190, 412.6295
174.0011, 409.3637
174.4833, 408.1459
174.9654, 410.1979
175.4475, 413.3797
175.9296, 417.2573
176.4117, 421.9379
176.8938, 427.7698
177.3760, 435.0595
177.8581, 443.8333
178.3402, 453.1224
178.8223, 462.9469
179.3044, 473.1650
179.7865, 483.8755
180.2687, 494.9572
180.7508, 506.1166
181.2329, 517.0868
181.7150, 527.9059
182.1971, 538.2581
182.6792, 548.5302
183.1614, 558.1026
183.6435, 567.0414
184.1256, 575.1649
184.6077, 581.6882
185.0898, 586.1319
185.5719, 588.0974
186.0541, 586.9344
186.5362, 582.4285
187.0183, 574.8599
187.5004, 564.3102
187.9825, 550.7345
188.4646, 534.7879
188.9468, 516.1323
189.4289, 495.3015
189.9110, 473.7106
190.3931, 450.6000
190.8752, 427.2625
191.3573, 405.3229
191.8395, 384.7665
192.3216, 366.0614
192.8037, 350.0294
193.2858, 336.0744
193.7679, 323.0667
194.2500, 310.2720
194.7322, 298.0504
195.2143, 287.3701
195.6964, 278.4272
196.1785, 271.0553
196.6606, 265.0604
197.1427, 260.2378
197.6249, 256.2073
198.1070, 252.6458
198.5891, 249.6066
199.0712, 247.6558
199.5533, 247.1779
200.0354, 247.5307
200.5176, 248.4375
200.9997, 249.9278
201.4818, 252.1314
201.9639, 255.2240
202.4460, 259.2215
202.9281, 263.3596
203.4103, 266.7524
203.8924, 271.1200
204.3745, 277.3061
204.8566, 285.0049
205.3387, 293.2384
205.8208, 301.1388
206.3030, 308.6340
206.7851, 316.8271
207.2672, 327.6744
207.7493, 337.3693
208.2314, 345.0772
208.7135, 350.3459
209.1957, 352.6419
209.6778, 351.5107
210.1599, 346.8721
210.6420, 338.3270
211.1241, 325.8178
211.6062, 310.4174
212.0884, 291.4078
212.5705, 269.5508
213.0526, 247.1667
213.5347, 225.9485
214.0168, 206.0168
214.4989, 188.4839
214.9811, 173.6038
215.4632, 160.6081
215.9453, 149.1905
216.4274, 139.2539
216.9095, 130.5899
217.3916, 123.1073
217.8737, 116.9208
218.3559, 111.5574
218.8380, 107.1268
219.3201, 103.3929
219.8022, 100.2924
220.2843, 97.81918
220.7664, 95.55086
221.2486, 93.12269
221.7307, 90.60919
222.2128, 88.41726
222.6949, 86.63805
223.1770, 85.18674
223.6591, 84.02998
224.1413, 83.18775
224.6234, 82.47340
225.1055, 81.79916
225.5876, 81.16093
226.0697, 80.55525
226.5518, 79.89214
227.0340, 79.30921
227.5161, 79.03645
227.9982, 79.12466
228.4803, 79.35106
228.9624, 79.56182
229.4445, 79.82959
229.9267, 80.26343
230.4088, 80.85760
230.8909, 81.67397
231.3730, 82.87667
231.8551, 84.59558
232.3372, 86.37621
232.8194, 88.04454
233.3015, 89.66961
233.7836, 91.34487
234.2657, 93.11996
234.7478, 94.94969
235.2299, 96.74073
235.7121, 98.52850
236.1942, 100.2127
236.6763, 101.6121
237.1584, 102.9691
237.6405, 104.5100
238.1227, 106.3220
238.6048, 108.4408
239.0869, 110.9816
239.5690, 114.1911
240.0511, 117.4375
240.5332, 120.2595
241.0154, 123.1866
241.4975, 126.7539
241.9796, 131.1909
242.4617, 136.2505
242.9438, 141.2257
243.4259, 145.7234
243.9081, 150.8524
244.3902, 156.3942
244.8723, 162.6731
245.3544, 170.0766
245.8365, 178.7760
246.3186, 188.4072
246.8008, 198.2381
247.2829, 207.8756
247.7650, 218.3431
248.2471, 229.4035
248.7292, 241.3611
249.2113, 254.8708
249.6935, 270.0667
250.1756, 285.9929
250.6577, 300.9290
251.1398, 316.3405
251.6219, 328.0104
252.1040, 337.4117
252.5862, 342.4561
253.0683, 340.9569
253.5504, 332.3745
254.0325, 318.0725
254.5146, 299.9348
254.9967, 274.9073
255.4789, 251.6043
255.9610, 229.5726
256.4431, 209.5904
256.9252, 192.2537
257.4073, 177.6856
257.8894, 165.6684
258.3716, 155.9257
258.8537, 149.0193
259.3358, 143.7385
259.8179, 140.4414
260.3000, 138.5246
260.7821, 137.5910
261.2643, 137.5431
261.7464, 138.2405
262.2285, 139.4883
262.7106, 141.3192
263.1927, 144.2144
263.6748, 148.8119
264.1570, 154.0715
264.6391, 158.9390
265.1212, 163.3414
265.6033, 168.2006
266.0854, 174.3529
266.5675, 181.9169
267.0497, 189.8699
267.5318, 198.1975
268.0139, 206.8651
268.4960, 216.2680
268.9781, 226.3136
269.4602, 235.7537
269.9424, 243.7232
270.4245, 250.1116
270.9066, 255.5417
271.3887, 260.1411
271.8708, 263.7070
272.3529, 265.8165
272.8351, 266.5569
273.3172, 266.7548
273.7993, 266.5176
274.2814, 266.2298
274.7635, 266.8947
275.2456, 268.6797
275.7278, 271.2517
276.2099, 274.2471
276.6920, 277.7332
277.1741, 282.2377
277.6562, 287.8079
278.1383, 294.8694
278.6205, 303.4769
279.1026, 313.6898
279.5847, 325.4863
280.0668, 338.7935
280.5489, 353.6881
281.0310, 370.3135
281.5132, 388.7735
281.9953, 409.1660
282.4774, 430.9408
282.9595, 454.0124
283.4416, 478.7379
283.9237, 504.9767
284.4059, 532.8829
284.8880, 563.5670
285.3701, 597.5739
285.8522, 634.1279
286.3343, 672.4014
286.8164, 712.3010
287.2986, 752.9811
287.7807, 795.1241
288.2628, 837.9193
288.7449, 878.9907
289.2270, 919.8699
289.7091, 955.4629
290.1913, 985.0566
290.6734, 1007.779
291.1555, 1018.938
291.6376, 1017.589
292.1197, 1003.036
292.6018, 971.5521
293.0840, 919.4168
293.5661, 858.4959
294.0482, 792.8745
294.5303, 724.9619
295.0124, 657.9178
295.4945, 591.7654
295.9767, 528.4510
296.4588, 471.1454
296.9409, 419.6391
297.4230, 374.8803
297.9051, 339.0271
298.3872, 309.3123
298.8694, 283.4014
299.3515, 260.9899
299.8336, 241.4850
300.3157, 224.1374
300.7978, 208.9094
301.2799, 195.5050
301.7621, 184.1414
302.2442, 174.4652
302.7263, 166.4163
303.2084, 160.0849
303.6905, 154.7642
304.1726, 149.6498
304.6548, 144.7268
305.1369, 140.6855
305.6190, 138.0167
306.1011, 136.0935
306.5832, 134.4979
307.0653, 133.1929
307.5475, 132.1425
308.0296, 131.2477
308.5117, 130.5335
308.9938, 130.3365
309.4759, 130.9955
309.9580, 131.8685
310.4402, 132.6591
310.9223, 133.3162
311.4044, 133.6808
311.8865, 133.6042
312.3686, 133.1383
312.8507, 132.4852
313.3329, 131.5698
313.8150, 130.5909
314.2971, 129.5035
314.7792, 128.4388
315.2613, 127.6340
315.7434, 127.1735
316.2256, 127.0505
316.7077, 127.1997
317.1898, 127.5322
317.6719, 128.4151
318.1540, 130.1278
318.6361, 132.4093
319.1183, 135.0073
319.6004, 137.8229
320.0825, 141.0369
320.5646, 144.8572
321.0467, 149.2721
321.5288, 154.3652
322.0110, 160.2179
322.4931, 166.8002
322.9752, 173.9372
323.4573, 181.5620
323.9394, 190.3123
324.4215, 201.0557
324.9037, 213.6949
325.3858, 226.7381
325.8679, 239.9605
326.3500, 253.5097
326.8321, 268.0565
327.3142, 283.3100
327.7964, 297.4371
328.2785, 310.3143
328.7606, 321.3502
329.2427, 328.0824
329.7248, 331.1566
330.2069, 328.0643
330.6891, 316.6773
331.1712, 298.8664
331.6533, 278.0357
332.1354, 254.2153
332.6175, 229.0915
333.0996, 205.7207
333.5818, 183.6949
334.0639, 164.4285
334.5460, 149.6050
335.0281, 137.6685
335.5102, 127.3715
335.9923, 118.4369
336.4745, 110.8080
336.9566, 104.4863
337.4387, 99.53297
337.9208, 95.27327
338.4029, 91.79080
338.8850, 88.74687
339.3671, 85.70473
339.8492, 82.58311
340.3314, 79.98074
340.8135, 78.64339
341.2956, 78.34508
341.7777, 77.68748
342.2598, 76.15326
342.7419, 74.60160
343.2241, 73.80421
343.7062, 73.64287
344.1883, 73.57980
344.6704, 73.36540
345.1525, 73.07030
345.6346, 72.84238
346.1168, 72.69091
346.5989, 72.60122
347.0810, 72.64156
347.5631, 72.73189
348.0452, 72.72630
348.5273, 72.60072
349.0095, 72.35245
349.4916, 72.03960
349.9737, 71.66924
350.4558, 70.96268
350.9379, 69.60111
351.4200, 67.92516
351.9022, 66.51311
352.3843, 65.46887
352.8664, 64.48495
353.3485, 63.35181
353.8306, 62.11108
354.3127, 60.91114
354.7949, 59.74807
355.2770, 58.71077
355.7591, 57.93870
356.2412, 57.42308
356.7233, 56.92549
357.2054, 56.33709
357.6876, 55.72117
358.1697, 55.17244
358.6518, 54.70278
359.1339, 54.30076
359.6160, 53.97968
360.0981, 53.72678
360.5803, 53.48178
361.0624, 53.24125
361.5445, 53.00446
362.0266, 52.77567
362.5087, 52.55317
362.9908, 52.32862
363.4730, 52.10130
363.9551, 51.86580
364.4372, 51.59666
364.9193, 51.23176
365.4014, 50.93792
365.8835, 50.78348
366.3657, 50.74933
366.8478, 50.84984
367.3299, 51.12603
367.8120, 51.38721
368.2941, 51.29628
368.7762, 50.77902
369.2584, 50.27394
369.7405, 49.73690
370.2226, 49.29917
370.7047, 49.14648
371.1868, 49.28371
371.6689, 49.48007
372.1511, 49.52597
372.6332, 49.41274
373.1153, 49.37531
373.5974, 49.52848
374.0795, 49.63782
374.5616, 49.54012
375.0438, 49.30442
375.5259, 49.11988
376.0080, 49.09743
376.4901, 49.18308
376.9722, 49.18587
377.4543, 48.78724
377.9365, 48.71378
378.4186, 49.34352
378.9007, 50.19812
379.3828, 50.68604
379.8649, 50.66327
380.3470, 50.51791
380.8292, 50.81319
381.3113, 51.78273
381.7934, 52.50615
382.2755, 52.83050
382.7576, 53.07760
383.2397, 53.41969
383.7219, 53.85319
384.2040, 54.27352
384.6861, 54.58138
385.1682, 54.79513
385.6503, 55.20208
386.1324, 55.95775
386.6146, 56.74595
387.0967, 57.41649
387.5788, 58.11800
388.0609, 59.03580
388.5430, 60.24661
389.0251, 61.70989
389.5073, 63.39545
389.9894, 65.51681
390.4715, 67.41214
390.9536, 68.73416
391.4357, 70.08849
391.9178, 71.96084
392.4000, 74.32524
392.8821, 76.73318
393.3642, 78.66045
393.8463, 80.08176
394.3284, 82.00269
394.8105, 84.63460
395.2927, 87.59795
395.7748, 90.84158
396.2569, 94.29085
396.7390, 97.91336
397.2211, 101.7527
397.7032, 105.6247
398.1854, 109.1418
398.6675, 112.3759
399.1496, 115.0642
399.6317, 117.0804
400.1138, 118.5671
400.5959, 119.5944
401.0781, 120.1735
401.5602, 120.2360
402.0423, 119.2755
402.5244, 117.4566
403.0065, 116.5711
403.4886, 116.7327
403.9708, 118.0989
404.4529, 120.7478
404.9350, 124.5233
405.4171, 129.0960
405.8992, 134.4750
406.3813, 140.4751
406.8635, 147.1843
407.3456, 154.7632
407.8277, 161.7693
408.3098, 168.6131
408.7919, 173.7932
409.2740, 175.1464
409.7562, 172.2110
410.2383, 166.3672
410.7204, 157.0719
411.2025, 145.4050
411.6846, 134.1177
412.1667, 123.5041
412.6489, 114.4179
413.1310, 108.2044
413.6131, 104.6756
414.0952, 102.5645
414.5773, 102.2284
415.0594, 102.8329
415.5416, 103.9949
416.0237, 105.5517
416.5058, 106.8322
416.9879, 107.5625
417.4700, 107.5887
417.9521, 106.1053
418.4343, 102.8769
418.9164, 98.73145
419.3985, 93.30311
419.8806, 87.25745
420.3627, 81.48326
420.8448, 76.25362
421.3270, 71.58501
421.8091, 67.50240
422.2912, 64.09939
422.7733, 61.19278
423.2554, 58.73792
423.7375, 56.77494
424.2197, 55.58797
424.7018, 54.97589
425.1839, 54.35535
425.6660, 53.27934
426.1481, 51.86229
426.6302, 50.86233
427.1124, 50.52565
427.5945, 50.35851
428.0766, 50.46440
428.5587, 50.62685
429.0408, 50.61895
429.5229, 50.37861
430.0051, 50.03709
430.4872, 49.70533
430.9693, 49.28801
431.4514, 49.28351
431.9335, 50.45399
432.4156, 51.37618
432.8978, 51.32755
433.3799, 50.54891
433.8620, 49.69593
434.3441, 49.08218
434.8262, 48.75105
435.3083, 48.95370
435.7905, 49.97234
436.2726, 50.73837
436.7547, 50.59728
437.2368, 50.17512
437.7189, 50.01076
438.2010, 50.21282
438.6832, 50.52859
439.1653, 50.80505
439.6474, 51.02915
440.1295, 51.10966
440.6116, 50.97257
441.0938, 50.80397
441.5759, 50.65994
442.0580, 50.58901
442.5401, 50.80669
443.0222, 51.71314
443.5043, 52.69967
443.9865, 53.04707
444.4686, 52.82803
444.9507, 52.73016
445.4328, 53.08152
445.9149, 53.74656
446.3970, 54.41485
446.8792, 55.05623
447.3613, 55.77381
447.8434, 56.65467
448.3255, 57.60023
448.8076, 58.50565
449.2897, 59.35325
449.7719, 60.12840
450.2540, 60.78386
450.7361, 61.30862
451.2182, 62.07874
451.7003, 63.11086
452.1824, 64.32581
452.6646, 65.65237
453.1467, 67.15610
453.6288, 69.01866
454.1109, 71.32598
454.5930, 73.80034
455.0751, 75.90022
455.5573, 77.42891
456.0394, 78.94650
456.5215, 80.37920
457.0036, 81.86247
457.4857, 83.63846
457.9678, 85.57146
458.4500, 87.20885
458.9321, 88.08156
459.4142, 88.40959
459.8963, 89.51595
460.3784, 91.65083
460.8605, 94.15658
461.3427, 96.91518
461.8248, 99.89442
462.3069, 103.1686
462.7890, 106.7545
463.2711, 110.3226
463.7532, 113.3441
464.2354, 115.9024
464.7175, 118.9372
465.1996, 122.6202
465.6817, 126.7106
466.1638, 130.9241
466.6459, 135.3695
467.1281, 140.3915
467.6102, 146.1063
468.0923, 152.4239
468.5744, 159.1358
469.0565, 166.3172
469.5386, 174.1834
470.0208, 182.7974
470.5029, 192.1890
470.9850, 202.2771
471.4671, 212.9374
471.9492, 224.6521
472.4313, 237.3968
472.9135, 251.3962
473.3956, 266.9115
473.8777, 283.9278
474.3598, 302.4493
474.8419, 322.5137
475.3240, 344.0618
475.8062, 366.0817
476.2883, 389.0889
476.7704, 411.9774
477.2525, 435.7929
477.7346, 458.7791
478.2167, 479.7253
478.6989, 498.0407
479.1810, 511.8945
479.6631, 519.5125
480.1452, 521.3466
480.6273, 514.0626
481.1094, 493.3234
481.5916, 467.7661
482.0737, 437.5291
482.5558, 404.7778
483.0379, 372.0666
483.5200, 340.2109
484.0021, 310.2805
484.4843, 284.1837
484.9664, 261.9509
485.4485, 242.9539
485.9306, 227.7456
486.4127, 215.4585
486.8948, 205.8624
487.3770, 198.7390
487.8591, 193.3594
488.3412, 189.2085
488.8233, 186.5641
489.3054, 186.1671
489.7875, 188.1129
490.2697, 191.4039
490.7518, 195.8399
491.2339, 201.2271
491.7160, 207.0528
492.1981, 213.3090
492.6802, 219.9291
493.1624, 226.6560
493.6445, 233.7648
494.1266, 241.6151
494.6087, 250.3039
495.0908, 259.7336
495.5729, 269.8029
496.0551, 280.5217
496.5372, 292.7377
497.0193, 306.0454
497.5014, 321.0055
497.9835, 337.6469
498.4656, 356.1498
498.9478, 376.7108
499.4299, 399.4122
499.9120, 424.3956
500.3941, 451.5775
500.8762, 480.9529
501.3583, 513.3839
501.8405, 549.2091
502.3226, 587.6726
502.8047, 628.0222
503.2868, 670.9628
503.7689, 717.4431
504.2510, 768.5645
504.7331, 822.0826
505.2152, 875.4045
505.6974, 929.6876
506.1795, 977.7437
506.6616, 1020.593
507.1437, 1053.294
507.6258, 1075.258
508.1079, 1085.670
508.5901, 1079.668
509.0722, 1052.721
509.5543, 1009.168
510.0364, 952.2376
510.5185, 882.2894
511.0006, 807.5817
511.4828, 729.4625
511.9649, 651.4534
512.4470, 580.9525
512.9291, 517.3454
513.4113, 460.6124
513.8934, 412.2095
514.3755, 370.2595
514.8576, 333.7538
515.3397, 302.1611
515.8218, 274.9272
516.3040, 251.6973
516.7861, 232.1968
517.2682, 214.7756
517.7503, 199.9438
518.2324, 186.7188
518.7145, 175.2565
519.1967, 165.1118
519.6788, 155.8947
520.1609, 147.5025
520.6430, 139.9937
521.1251, 133.5407
521.6072, 128.0869
522.0894, 122.8576
522.5715, 117.7520
523.0536, 113.0363
523.5357, 108.7567
524.0178, 104.8728
524.4999, 101.3962
524.9821, 98.34379
525.4642, 95.48753
525.9463, 92.48909
526.4284, 89.47597
526.9105, 87.00185
527.3926, 85.27494
527.8748, 83.74693
528.3569, 82.00677
528.8390, 80.11855
529.3211, 78.27724
529.8032, 76.37852
530.2853, 74.67959
530.7675, 73.48395
531.2496, 72.56673
531.7317, 71.45082
532.2138, 69.98924
532.6959, 68.47185
533.1780, 67.27257
533.6602, 66.10139
534.1423, 65.72218
534.6244, 65.18787
535.1065, 64.50686
535.5886, 63.23983
536.0707, 62.72962
536.5529, 61.91586
537.0350, 61.08995
537.5171, 60.68615
537.9992, 59.50434
538.4813, 59.09384
538.9634, 58.37554
539.4456, 57.79787
539.9277, 56.91534
540.4098, 56.12696
540.8919, 55.38137
541.3740, 54.67765
541.8561, 54.06243
542.3383, 53.58083
542.8204, 53.38114
543.3025, 53.42375
543.7846, 53.30386
544.2667, 52.86265
544.7488, 52.34868
545.2310, 52.06215
545.7131, 51.97360
546.1952, 51.81215
546.6773, 51.52147
547.1594, 51.16280
547.6415, 50.75905
548.1237, 50.31948
548.6058, 49.82786
549.0879, 49.27499
549.5700, 48.75156
550.0521, 48.41621
550.5342, 48.33693
551.0164, 48.24912
551.4985, 48.19699
551.9806, 48.09450
552.4627, 47.82624
552.9448, 47.49272
553.4269, 47.28012
553.9091, 47.27969
554.3912, 47.40665
554.8733, 47.56997
555.3554, 47.80913
555.8375, 47.79549
556.3196, 47.26628
556.8018, 46.72631
557.2839, 46.49360
557.7660, 46.50236
558.2481, 46.57837
558.7302, 46.74836
559.2123, 46.85427
559.6945, 46.62419
560.1766, 46.15653
560.6587, 45.95614
561.1408, 46.24978
561.6229, 46.60449
562.1050, 46.41086
562.5872, 45.54013
563.0693, 45.07621
563.5514, 45.20112
564.0335, 45.56612
564.5156, 46.18185
564.9977, 46.87152
565.4799, 47.33755
565.9620, 47.46205
566.4441, 47.39846
566.9262, 47.37611
567.4083, 47.39486
567.8904, 47.45285
568.3726, 47.37167
568.8547, 47.52921
569.3368, 48.23692
569.8189, 49.22588
570.3010, 50.03811
570.7831, 50.49074
571.2653, 50.83792
571.7474, 51.43328
572.2295, 52.22814
572.7116, 52.77944
573.1937, 52.87321
573.6758, 53.07042
574.1580, 54.00700
574.6401, 55.46783
575.1222, 56.60537
575.6043, 56.98086
576.0864, 57.42621
576.5685, 58.46646
577.0507, 59.80759
577.5328, 60.98310
578.0149, 61.87292
578.4970, 62.60944
578.9791, 63.38079
579.4612, 64.21258
579.9434, 64.43449
580.4255, 63.49681
580.9076, 62.57859
581.3897, 62.17905
581.8718, 61.74994
582.3539, 60.61530
582.8361, 58.65561
583.3182, 56.42250
583.8003, 54.33870
584.2824, 52.41537
584.7645, 50.78664
585.2466, 49.49604
585.7288, 48.35526
586.2108, 47.24187
586.6929, 46.24353
587.1750, 45.55122
587.6572, 45.25790
588.1393, 44.91845
588.6214, 44.24078
589.1035, 43.44539
589.5856, 42.83680
