##NAMES=Alforsite
##RRUFFID=R070356
##IDEAL CHEMISTRY=Ba_5_(PO_4_)_3_Cl
##LOCALITY=Madrelena mine, Tres Pozos, Baja California Norte, Mexico
##OWNER=Michael Scott
##SOURCE=Michael Scott
##DESCRIPTION=Colorless fragment
##STATUS=The identification of this mineral has been confirmed only by single crystal X-ray diffraction.
##URL=rruff.info/R070356
166.0538, 23614.90
166.5359, 23705.39
167.0180, 23808.89
167.5002, 23949.95
167.9823, 24098.25
168.4644, 24232.04
168.9465, 24349.29
169.4286, 24455.11
169.9107, 24544.71
170.3929, 24624.83
170.8750, 24712.00
171.3571, 24846.68
171.8392, 24977.85
172.3213, 25040.63
172.8034, 25011.54
173.2856, 24962.69
173.7677, 24945.48
174.2498, 24960.10
174.7319, 25006.89
175.2140, 25115.80
175.6961, 25250.10
176.1783, 25354.55
176.6604, 25418.07
177.1425, 25448.70
177.6246, 25435.22
178.1067, 25385.50
178.5888, 25350.01
179.0710, 25383.51
179.5531, 25458.43
180.0352, 25510.97
180.5173, 25513.29
180.9994, 25498.69
181.4815, 25520.57
181.9637, 25578.50
182.4458, 25652.44
182.9279, 25735.33
183.4100, 25823.01
183.8921, 25900.27
184.3742, 25955.43
184.8564, 26000.77
185.3385, 26067.37
185.8206, 26157.52
186.3027, 26248.26
186.7848, 26310.07
187.2669, 26347.64
187.7491, 26398.46
188.2312, 26476.84
188.7133, 26578.24
189.1954, 26695.98
189.6775, 26834.39
190.1596, 26966.31
190.6418, 27055.06
191.1239, 27101.08
191.6060, 27141.73
192.0881, 27181.47
192.5702, 27223.66
193.0524, 27304.46
193.5345, 27431.90
194.0166, 27576.37
194.4987, 27688.43
194.9808, 27766.05
195.4629, 27842.58
195.9451, 27933.88
196.4272, 28040.73
196.9093, 28142.55
197.3914, 28238.22
197.8735, 28329.64
198.3556, 28420.81
198.8378, 28511.86
199.3199, 28599.87
199.8020, 28688.46
200.2841, 28778.71
200.7662, 28839.20
201.2483, 28860.63
201.7305, 28858.17
202.2126, 28869.51
202.6947, 28897.97
203.1768, 28927.93
203.6589, 28950.01
204.1410, 28963.10
204.6232, 28977.45
205.1053, 29001.18
205.5874, 29023.61
206.0695, 29001.67
206.5516, 28919.99
207.0337, 28834.26
207.5159, 28784.36
207.9980, 28778.85
208.4801, 28771.75
208.9622, 28753.73
209.4443, 28729.96
209.9264, 28731.45
210.4086, 28772.59
210.8907, 28810.13
211.3728, 28800.46
211.8549, 28719.12
212.3370, 28676.51
212.8191, 28702.08
213.3013, 28784.90
213.7834, 28832.09
214.2655, 28829.87
214.7476, 28814.11
215.2297, 28811.38
215.7118, 28816.74
216.1940, 28851.89
216.6761, 28935.94
217.1582, 29065.03
217.6403, 29141.08
218.1224, 29148.02
218.6045, 29122.38
219.0867, 29092.45
219.5688, 29045.67
220.0509, 29026.90
220.5330, 29058.74
221.0151, 29143.56
221.4972, 29181.20
221.9794, 29148.56
222.4615, 29094.95
222.9436, 29072.35
223.4257, 29090.24
223.9078, 29121.11
224.3899, 29165.20
224.8721, 29226.04
225.3542, 29261.48
225.8363, 29269.34
226.3184, 29254.26
226.8005, 29215.49
227.2827, 29128.50
227.7648, 29065.44
228.2469, 29047.10
228.7290, 29078.14
229.2111, 29119.75
229.6932, 29183.87
230.1754, 29248.40
230.6575, 29285.28
231.1396, 29289.65
231.6217, 29273.39
232.1038, 29231.11
232.5859, 29151.86
233.0681, 29106.95
233.5502, 29108.25
234.0323, 29135.28
234.5144, 29158.81
234.9965, 29173.97
235.4786, 29193.75
235.9608, 29223.39
236.4429, 29265.22
236.9250, 29304.58
237.4071, 29342.10
237.8892, 29376.46
238.3713, 29403.22
238.8535, 29410.23
239.3356, 29430.33
239.8177, 29479.60
240.2998, 29572.35
240.7819, 29639.27
241.2640, 29675.36
241.7462, 29689.63
242.2283, 29696.57
242.7104, 29692.22
243.1925, 29686.86
243.6746, 29680.45
244.1567, 29665.65
244.6389, 29676.97
245.1210, 29724.62
245.6031, 29792.11
246.0852, 29851.80
246.5673, 29906.24
247.0494, 29948.38
247.5316, 29972.98
248.0137, 29972.61
248.4958, 29980.77
248.9779, 30003.46
249.4600, 30031.30
249.9421, 30042.73
250.4243, 30019.72
250.9064, 30012.91
251.3885, 30047.25
251.8706, 30143.59
252.3527, 30211.94
252.8348, 30247.39
253.3170, 30258.02
253.7991, 30252.57
254.2812, 30212.07
254.7633, 30192.12
255.2454, 30220.40
255.7275, 30315.41
256.2097, 30388.46
256.6918, 30432.43
257.1739, 30458.58
257.6560, 30490.85
258.1381, 30540.49
258.6202, 30572.71
259.1024, 30564.66
259.5845, 30496.05
260.0666, 30474.60
260.5487, 30516.41
261.0308, 30593.30
261.5129, 30659.14
261.9951, 30716.25
262.4772, 30755.11
262.9593, 30762.75
263.4414, 30725.38
263.9235, 30728.49
264.4056, 30793.30
264.8878, 30878.87
265.3699, 30904.14
265.8520, 30840.89
266.3341, 30798.76
266.8162, 30830.81
267.2983, 30953.22
267.7805, 31043.98
268.2626, 31097.07
268.7447, 31124.17
269.2268, 31140.49
269.7089, 31141.13
270.1910, 31148.79
270.6732, 31180.59
271.1553, 31242.17
271.6374, 31263.01
272.1195, 31225.62
272.6016, 31173.19
273.0837, 31185.99
273.5659, 31278.70
274.0480, 31361.23
274.5301, 31389.29
275.0122, 31359.75
275.4943, 31367.78
275.9764, 31423.67
276.4586, 31497.80
276.9407, 31547.86
277.4228, 31571.87
277.9049, 31584.06
278.3870, 31579.05
278.8691, 31558.93
279.3513, 31577.09
279.8334, 31640.95
280.3155, 31723.99
280.7976, 31799.90
281.2798, 31868.90
281.7619, 31910.90
282.2440, 31908.11
282.7261, 31867.26
283.2082, 31835.24
283.6903, 31809.68
284.1725, 31801.74
284.6546, 31837.23
285.1367, 31913.88
285.6188, 31979.28
286.1009, 32009.58
286.5830, 32013.08
287.0652, 32022.51
287.5473, 32037.03
288.0294, 32061.82
288.5115, 32111.74
288.9936, 32182.88
289.4757, 32240.59
289.9579, 32266.98
290.4400, 32273.48
290.9221, 32292.97
291.4042, 32326.18
291.8863, 32363.13
292.3684, 32393.46
292.8506, 32418.71
293.3327, 32446.87
293.8148, 32487.13
294.2969, 32528.18
294.7790, 32540.18
295.2611, 32523.09
295.7433, 32512.52
296.2254, 32558.54
296.7075, 32638.12
297.1896, 32681.71
297.6717, 32643.65
298.1538, 32582.76
298.6360, 32596.38
299.1181, 32679.24
299.6002, 32767.79
300.0823, 32811.94
300.5644, 32827.99
301.0465, 32848.28
301.5287, 32887.18
302.0108, 32926.26
302.4929, 32944.17
302.9750, 32942.92
303.4571, 32933.05
303.9392, 32901.94
304.4214, 32872.36
304.9035, 32878.27
305.3856, 32943.30
305.8677, 33020.66
306.3498, 33077.86
306.8319, 33114.82
307.3141, 33132.09
307.7962, 33101.71
308.2783, 33064.57
308.7604, 33064.79
309.2425, 33125.59
309.7246, 33193.34
310.2068, 33234.95
310.6889, 33257.05
311.1710, 33277.55
311.6531, 33305.90
312.1352, 33335.47
312.6173, 33360.02
313.0995, 33375.51
313.5816, 33394.12
314.0637, 33419.25
314.5458, 33451.73
315.0279, 33493.21
315.5100, 33567.18
315.9922, 33633.10
316.4743, 33663.59
316.9564, 33645.44
317.4385, 33633.59
317.9206, 33649.54
318.4027, 33681.85
318.8849, 33714.48
319.3670, 33740.24
319.8491, 33768.17
320.3312, 33805.55
320.8133, 33856.67
321.2954, 33894.54
321.7776, 33902.84
322.2597, 33899.89
322.7418, 33905.24
323.2239, 33937.44
323.7060, 33962.44
324.1881, 33958.85
324.6703, 33920.66
325.1524, 33925.75
325.6345, 34026.97
326.1166, 34148.34
326.5987, 34229.57
327.0808, 34236.83
327.5630, 34243.24
328.0451, 34258.32
328.5272, 34281.41
329.0093, 34297.73
329.4914, 34302.02
329.9735, 34303.95
330.4557, 34309.29
330.9378, 34316.68
331.4199, 34329.34
331.9020, 34342.95
332.3841, 34361.27
332.8662, 34407.96
333.3484, 34507.77
333.8305, 34597.75
334.3126, 34638.20
334.7947, 34606.36
335.2768, 34595.61
335.7589, 34618.85
336.2411, 34661.13
336.7232, 34679.88
337.2053, 34662.02
337.6874, 34658.60
338.1695, 34706.88
338.6516, 34817.20
339.1338, 34879.96
339.6159, 34880.05
340.0980, 34852.36
340.5801, 34854.51
341.0622, 34888.87
341.5443, 34932.29
342.0265, 34980.23
342.5086, 35031.09
342.9907, 35075.30
343.4728, 35113.16
343.9549, 35141.64
344.4370, 35146.60
344.9192, 35131.73
345.4013, 35134.16
345.8834, 35177.07
346.3655, 35243.77
346.8476, 35289.02
347.3297, 35312.32
347.8119, 35325.83
348.2940, 35334.52
348.7761, 35341.52
349.2582, 35355.45
349.7403, 35377.12
350.2225, 35408.77
350.7046, 35459.88
351.1867, 35528.23
351.6688, 35593.28
352.1509, 35645.82
352.6331, 35684.35
353.1152, 35704.55
353.5973, 35699.30
354.0794, 35687.20
354.5615, 35675.69
355.0436, 35669.04
355.5258, 35680.24
356.0079, 35733.59
356.4900, 35798.38
356.9721, 35848.79
357.4542, 35880.12
357.9363, 35899.70
358.4185, 35894.77
358.9006, 35882.63
359.3827, 35893.25
359.8648, 35967.51
360.3469, 36044.43
360.8290, 36090.26
361.3112, 36098.51
361.7933, 36102.95
362.2754, 36104.14
362.7575, 36110.96
363.2396, 36133.14
363.7217, 36190.92
364.2039, 36245.96
364.6860, 36291.48
365.1681, 36327.29
365.6502, 36348.21
366.1323, 36327.95
366.6144, 36308.32
367.0966, 36318.39
367.5787, 36381.00
368.0608, 36446.82
368.5429, 36528.89
369.0250, 36617.06
369.5071, 36654.36
369.9893, 36593.27
370.4714, 36536.46
370.9535, 36537.60
371.4356, 36632.07
371.9177, 36703.38
372.3998, 36743.91
372.8820, 36763.83
373.3641, 36783.07
373.8462, 36798.96
374.3283, 36820.96
374.8104, 36853.58
375.2925, 36897.97
375.7747, 36944.81
376.2568, 36997.46
376.7389, 37046.69
377.2210, 37075.17
377.7031, 37081.07
378.1852, 37092.18
378.6674, 37114.68
379.1495, 37149.27
379.6316, 37208.56
380.1137, 37295.43
380.5958, 37376.49
381.0779, 37413.80
381.5601, 37415.52
382.0422, 37418.61
382.5243, 37429.98
383.0064, 37448.86
383.4885, 37474.19
383.9706, 37506.13
384.4528, 37543.95
384.9349, 37601.32
385.4170, 37660.95
385.8991, 37691.45
386.3812, 37681.71
386.8633, 37664.54
387.3455, 37656.98
387.8276, 37664.64
388.3097, 37700.75
388.7918, 37799.01
389.2739, 37910.95
389.7560, 37993.68
390.2382, 38041.19
390.7203, 38092.50
391.2024, 38168.27
391.6845, 38259.18
392.1666, 38355.61
392.6487, 38461.40
393.1309, 38564.99
393.6130, 38654.92
394.0951, 38733.68
394.5772, 38826.09
395.0593, 38948.34
395.5414, 39080.10
396.0236, 39207.54
396.5057, 39319.17
396.9878, 39438.38
397.4699, 39568.10
397.9520, 39706.64
398.4341, 39846.77
398.9163, 39975.26
399.3984, 40118.97
399.8805, 40288.74
400.3626, 40491.10
400.8447, 40700.75
401.3268, 40921.31
401.8090, 41146.27
402.2911, 41369.59
402.7732, 41585.09
403.2553, 41809.09
403.7374, 42045.08
404.2195, 42293.02
404.7017, 42555.84
405.1838, 42839.89
405.6659, 43124.63
406.1480, 43400.50
406.6301, 43669.27
407.1122, 43893.90
407.5944, 44056.17
408.0765, 44183.12
408.5586, 44345.90
409.0407, 44544.15
409.5228, 44719.79
410.0049, 44840.61
410.4871, 44907.91
410.9692, 44921.87
411.4513, 44878.04
411.9334, 44797.99
412.4155, 44682.64
412.8976, 44546.12
413.3798, 44433.37
413.8619, 44372.53
414.3440, 44338.88
414.8261, 44308.62
415.3082, 44280.98
415.7903, 44257.18
416.2725, 44214.20
416.7546, 44184.13
417.2367, 44203.14
417.7188, 44300.00
418.2009, 44429.02
418.6830, 44570.48
419.1652, 44727.53
419.6473, 44906.35
420.1294, 45136.18
420.6115, 45369.70
421.0937, 45580.09
421.5758, 45734.57
422.0579, 45920.57
422.5400, 46195.80
423.0221, 46500.05
423.5042, 46740.17
423.9864, 46887.43
424.4685, 46997.50
424.9506, 47089.58
425.4327, 47166.11
425.9148, 47176.38
426.3969, 47111.45
426.8791, 46990.70
427.3612, 46831.36
427.8433, 46636.70
428.3254, 46392.65
428.8075, 46087.82
429.2896, 45735.95
429.7718, 45389.75
430.2539, 45050.59
430.7360, 44707.04
431.2181, 44338.45
431.7002, 43950.20
432.1823, 43626.97
432.6645, 43380.68
433.1466, 43172.71
433.6287, 42956.01
434.1108, 42734.36
434.5929, 42525.57
435.0750, 42341.17
435.5572, 42174.52
436.0393, 42009.87
436.5214, 41848.06
437.0035, 41706.42
437.4856, 41621.75
437.9677, 41560.18
438.4499, 41469.13
438.9320, 41305.63
439.4141, 41160.14
439.8962, 41113.96
440.3783, 41137.95
440.8604, 41155.64
441.3426, 41124.38
441.8247, 41083.96
442.3068, 41058.95
442.7889, 41056.80
443.2710, 41047.07
443.7531, 41014.43
444.2353, 40972.95
444.7174, 40937.60
445.1995, 40918.39
445.6816, 40897.24
446.1637, 40858.38
446.6458, 40806.88
447.1280, 40799.70
447.6101, 40879.85
448.0922, 40957.02
448.5743, 40976.02
449.0564, 40904.64
449.5385, 40862.66
450.0207, 40862.20
450.5028, 40884.25
450.9849, 40893.48
451.4670, 40887.64
451.9491, 40879.39
452.4312, 40865.52
452.9134, 40850.59
453.3955, 40879.07
453.8776, 40956.61
454.3597, 41036.36
454.8418, 41074.15
455.3239, 41075.15
455.8061, 41055.83
456.2882, 41010.27
456.7703, 40960.91
457.2524, 40939.07
457.7345, 40941.30
458.2166, 40953.27
458.6988, 40962.33
459.1809, 40978.86
459.6630, 41023.40
460.1451, 41104.46
460.6272, 41168.29
461.1093, 41158.60
461.5915, 41118.56
462.0736, 41101.98
462.5557, 41156.39
463.0378, 41208.14
463.5199, 41216.24
464.0020, 41189.27
464.4842, 41194.01
464.9663, 41288.70
465.4484, 41385.80
465.9305, 41436.61
466.4126, 41393.41
466.8947, 41387.05
467.3769, 41444.41
467.8590, 41526.72
468.3411, 41568.60
468.8232, 41546.77
469.3053, 41530.48
469.7874, 41540.92
470.2696, 41576.11
470.7517, 41597.83
471.2338, 41601.78
471.7159, 41605.26
472.1980, 41625.24
472.6801, 41661.36
473.1623, 41692.76
473.6444, 41715.42
474.1265, 41734.73
474.6086, 41761.26
475.0907, 41793.70
475.5728, 41823.52
476.0550, 41849.77
476.5371, 41869.34
477.0192, 41865.13
477.5013, 41835.89
477.9834, 41828.84
478.4655, 41905.38
478.9477, 42018.47
479.4298, 42105.56
479.9119, 42140.78
480.3940, 42156.38
480.8761, 42162.81
481.3582, 42161.87
481.8404, 42158.52
482.3225, 42133.89
482.8046, 42124.16
483.2867, 42149.18
483.7688, 42220.67
484.2509, 42292.07
484.7331, 42381.93
485.2152, 42457.96
485.6973, 42488.87
486.1794, 42446.10
486.6615, 42405.82
487.1436, 42372.89
487.6258, 42350.09
488.1079, 42353.24
488.5900, 42388.36
489.0721, 42432.90
489.5542, 42476.11
490.0363, 42518.17
490.5185, 42558.58
491.0006, 42596.46
491.4827, 42634.43
491.9648, 42682.72
492.4470, 42736.88
492.9291, 42770.28
493.4112, 42765.09
493.8933, 42741.12
494.3754, 42720.20
494.8575, 42704.13
495.3397, 42705.34
495.8218, 42744.72
496.3039, 42799.63
496.7860, 42851.82
497.2681, 42906.88
497.7502, 42929.27
498.2324, 42843.87
498.7145, 42730.45
499.1966, 42695.86
499.6787, 42871.42
500.1608, 43030.62
500.6429, 43094.22
501.1251, 43067.05
501.6072, 43051.06
502.0893, 43065.84
502.5714, 43082.13
503.0535, 43084.36
503.5356, 43058.47
504.0178, 43052.36
504.4999, 43069.61
504.9820, 43103.59
505.4641, 43146.48
505.9462, 43199.42
506.4283, 43254.74
506.9105, 43311.12
507.3926, 43367.63
507.8747, 43426.18
508.3568, 43488.00
508.8389, 43531.38
509.3210, 43522.45
509.8032, 43483.31
510.2853, 43478.44
510.7674, 43520.81
511.2495, 43576.36
511.7316, 43616.07
512.2137, 43642.97
512.6959, 43662.77
513.1780, 43674.02
513.6601, 43682.48
514.1422, 43686.70
514.6243, 43688.89
515.1064, 43703.45
515.5886, 43754.70
516.0707, 43807.10
516.5528, 43837.91
517.0349, 43835.80
517.5170, 43830.40
517.9991, 43799.37
518.4813, 43776.33
518.9634, 43808.59
519.4455, 43937.14
519.9276, 44051.42
520.4097, 44132.84
520.8918, 44181.57
521.3740, 44205.12
521.8561, 44200.76
522.3382, 44180.28
522.8203, 44134.07
523.3024, 44066.66
523.7845, 44059.28
524.2667, 44126.91
524.7488, 44215.04
525.2309, 44259.26
525.7130, 44269.10
526.1951, 44275.08
526.6772, 44271.09
527.1594, 44284.73
527.6415, 44378.21
528.1236, 44528.54
528.6057, 44636.41
529.0878, 44607.96
529.5699, 44538.55
530.0521, 44495.52
530.5342, 44488.45
531.0163, 44502.24
531.4984, 44551.77
531.9805, 44611.36
532.4626, 44653.94
532.9448, 44655.96
533.4269, 44664.53
533.9090, 44684.28
534.3911, 44714.32
534.8732, 44751.69
535.3553, 44802.57
535.8375, 44849.89
536.3196, 44882.09
536.8017, 44898.13
537.2838, 44933.91
537.7659, 44995.84
538.2480, 45057.40
538.7302, 45077.05
539.2123, 45064.21
539.6944, 45087.29
540.1765, 45174.04
540.6586, 45279.34
541.1407, 45341.33
541.6229, 45368.73
542.1050, 45394.09
542.5871, 45446.17
543.0692, 45496.68
543.5513, 45508.25
544.0334, 45479.52
544.5156, 45471.15
544.9977, 45501.95
545.4798, 45570.34
545.9619, 45678.56
546.4440, 45881.18
546.9261, 46042.98
547.4083, 46127.89
547.8904, 46163.85
548.3725, 46196.90
548.8546, 46206.64
549.3367, 46248.59
549.8188, 46347.95
550.3010, 46497.89
550.7831, 46614.95
551.2652, 46690.53
551.7473, 46762.21
552.2294, 46857.81
552.7115, 46975.02
553.1937, 47086.27
553.6758, 47188.22
554.1579, 47289.02
554.6400, 47390.51
555.1221, 47498.67
555.6042, 47629.54
556.0864, 47807.47
556.5685, 47993.74
557.0506, 48142.70
557.5327, 48265.18
558.0148, 48399.25
558.4969, 48560.21
558.9791, 48741.69
559.4612, 48936.64
559.9433, 49140.80
560.4254, 49372.77
560.9075, 49689.96
561.3896, 50004.87
561.8718, 50248.76
562.3539, 50430.21
562.8360, 50524.74
563.3181, 50523.45
563.8002, 50436.95
564.2823, 50271.30
564.7645, 50008.64
565.2466, 49752.97
565.7287, 49546.58
566.2108, 49382.15
566.6929, 49225.34
567.1750, 49076.67
567.6572, 48952.16
568.1393, 48855.80
568.6214, 48796.94
569.1035, 48813.39
569.5856, 48929.64
570.0677, 49044.52
570.5499, 49063.68
571.0320, 49029.03
571.5141, 49007.32
571.9962, 49026.11
572.4783, 49059.27
572.9604, 49127.80
573.4426, 49213.31
573.9247, 49224.48
574.4068, 49099.52
574.8889, 48938.34
575.3710, 48769.06
575.8531, 48584.98
576.3353, 48439.48
576.8174, 48341.31
577.2995, 48270.90
577.7816, 48207.27
578.2637, 48149.05
578.7458, 48118.63
579.2280, 48123.04
579.7101, 48149.74
580.1922, 48182.72
580.6743, 48220.40
581.1564, 48253.80
581.6385, 48264.59
582.1207, 48276.36
582.6028, 48320.70
583.0849, 48395.31
583.5670, 48484.73
584.0491, 48589.35
584.5313, 48698.96
585.0134, 48814.05
585.4955, 48950.54
585.9776, 49039.19
586.4597, 49006.51
586.9418, 48939.66
587.4240, 48938.12
587.9061, 49034.58
588.3882, 49154.14
588.8703, 49328.57
589.3524, 49510.24
589.8345, 49540.85
590.3167, 49384.15
590.7988, 49214.84
591.2809, 49117.56
591.7630, 49072.80
592.2451, 48979.66
592.7272, 48836.52
593.2094, 48684.27
593.6915, 48541.18
594.1736, 48416.40
594.6557, 48333.86
595.1378, 48307.37
595.6199, 48287.33
596.1021, 48241.93
596.5842, 48178.49
597.0663, 48107.09
597.5485, 48001.61
598.0306, 47920.94
598.5127, 47882.25
598.9948, 47883.80
599.4769, 47917.97
599.9590, 48033.94
600.4412, 48121.19
600.9233, 48129.14
601.4054, 48049.47
601.8875, 48029.79
602.3696, 48088.79
602.8517, 48162.36
603.3339, 48190.12
603.8160, 48176.73
604.2981, 48182.66
604.7802, 48218.38
605.2623, 48261.07
605.7444, 48270.14
606.2266, 48261.64
606.7087, 48279.13
607.1908, 48367.31
607.6729, 48458.09
608.1550, 48500.34
608.6371, 48501.13
609.1193, 48484.83
609.6014, 48449.92
610.0835, 48409.62
610.5656, 48356.23
611.0477, 48279.73
611.5298, 48272.47
612.0120, 48385.93
612.4941, 48519.73
612.9762, 48611.62
613.4583, 48660.59
613.9404, 48662.68
614.4225, 48598.64
614.9047, 48520.87
615.3868, 48501.57
615.8689, 48538.35
616.3510, 48606.43
616.8331, 48717.57
617.3152, 48831.14
617.7974, 48873.21
618.2795, 48859.70
618.7616, 48854.84
619.2437, 48888.85
619.7258, 48948.53
620.2079, 49033.69
620.6901, 49143.30
621.1722, 49244.78
621.6543, 49382.47
622.1364, 49469.46
622.6185, 49430.49
623.1006, 49148.04
623.5828, 49000.96
624.0649, 49057.45
624.5470, 49186.76
625.0291, 49224.44
625.5112, 49147.02
625.9933, 49107.49
626.4755, 49144.43
626.9576, 49219.34
627.4397, 49254.37
627.9218, 49253.30
628.4039, 49244.96
628.8860, 49217.86
629.3682, 49205.25
629.8503, 49286.11
630.3324, 49443.42
630.8145, 49547.48
631.2966, 49452.52
631.7787, 49325.14
632.2609, 49288.97
632.7430, 49383.35
633.2251, 49476.24
633.7072, 49553.12
634.1893, 49610.83
634.6714, 49647.16
635.1536, 49659.81
635.6357, 49651.11
636.1178, 49604.19
636.5999, 49553.88
637.0820, 49577.46
637.5641, 49678.52
638.0463, 49761.54
638.5284, 49784.61
639.0105, 49780.85
639.4926, 49826.59
639.9747, 49912.29
640.4568, 49981.30
640.9390, 49977.63
641.4211, 49956.36
641.9032, 49977.86
642.3853, 50046.15
642.8674, 50093.61
643.3495, 50083.96
643.8317, 50050.11
644.3138, 50010.79
644.7959, 49940.73
645.2780, 49922.65
645.7601, 49988.37
646.2422, 50078.01
646.7244, 50115.95
647.2065, 50088.16
647.6886, 50082.07
648.1707, 50120.07
648.6528, 50177.07
649.1349, 50197.47
649.6171, 50187.07
650.0992, 50187.44
650.5813, 50229.75
651.0634, 50286.11
651.5455, 50327.51
652.0276, 50354.20
652.5098, 50365.27
652.9919, 50350.49
653.4740, 50327.64
653.9561, 50297.01
654.4382, 50249.59
654.9203, 50252.38
655.4025, 50371.96
655.8846, 50496.57
656.3667, 50544.99
656.8488, 50480.63
657.3309, 50451.25
657.8130, 50467.55
658.2952, 50509.28
658.7773, 50548.43
659.2594, 50586.43
659.7415, 50641.16
660.2236, 50733.06
660.7057, 50817.71
661.1879, 50814.16
661.6700, 50748.87
662.1521, 50695.61
662.6342, 50688.86
663.1163, 50706.66
663.5984, 50752.75
664.0806, 50820.01
