##NAMES=Allanite-(Ce)
##RRUFFID=R060418
##IDEAL CHEMISTRY=CaCeAl_2_Fe^2+^(Si_2_O_7_)(SiO_4_)O(OH)
##LOCALITY=Aquarius Range, Mohave County, Arizona, USA
##OWNER=RRUFF
##SOURCE=John Weber
##DESCRIPTION=Dark brown partially metamict, note that a fragment of this sample was heated and is posted at R080044
##STATUS=The identification of this mineral has been confirmed by X-ray diffraction and chemical analysis
##URL=rruff.info/R060418
##MEASURED CHEMISTRY=Ca_1.00_(Ce^3+^_0.36_Nd_0.18_La_0.13_Y_0.09_Th_0.07_Mn_0.06_Ca_0.06_Ti_0.05_)_Σ=1_Fe^2+^_1.00_(Al_1.88_Fe^3+^_0.12_)_Σ=2_[Si_2.00_O_7_][Si_1.00_O_4_]O(OH)
198.0042, 242.4366
198.4863, 243.2924
198.9684, 243.1160
199.4506, 242.6790
199.9327, 241.9218
200.4148, 241.0820
200.8969, 240.7150
201.3790, 240.8728
201.8611, 241.2032
202.3433, 241.6271
202.8254, 242.1886
203.3075, 242.2715
203.7896, 241.6410
204.2717, 240.6715
204.7538, 240.4650
205.2360, 241.2553
205.7181, 241.9273
206.2002, 241.5301
206.6823, 239.7389
207.1644, 239.0576
207.6465, 240.0242
208.1287, 242.0284
208.6108, 243.3291
209.0929, 243.8607
209.5750, 243.8759
210.0571, 243.3056
210.5392, 241.8727
211.0214, 241.2161
211.5035, 241.7773
211.9856, 243.1141
212.4677, 243.6137
212.9498, 242.9585
213.4319, 242.1972
213.9141, 241.9489
214.3962, 242.2977
214.8783, 242.9344
215.3604, 244.0742
215.8425, 245.4536
216.3246, 245.8364
216.8067, 244.7627
217.2889, 243.5844
217.7710, 243.1493
218.2531, 243.6971
218.7352, 244.2990
219.2173, 245.0210
219.6994, 245.7389
220.1816, 245.7905
220.6637, 244.8634
221.1458, 243.8021
221.6279, 243.1819
222.1100, 243.2393
222.5921, 243.0696
223.0743, 242.4666
223.5564, 241.5760
224.0385, 241.0653
224.5206, 241.0603
225.0027, 241.2580
225.4848, 241.4372
225.9670, 241.4058
226.4491, 241.8878
226.9312, 243.2994
227.4133, 245.3063
227.8954, 246.3191
228.3775, 246.0563
228.8597, 245.1945
229.3418, 244.0629
229.8239, 242.4588
230.3060, 241.0067
230.7881, 239.4884
231.2702, 238.1187
231.7524, 238.1452
232.2345, 240.3848
232.7166, 242.8413
233.1987, 244.4098
233.6808, 245.1010
234.1629, 244.7827
234.6451, 242.8261
235.1272, 239.7995
235.6093, 238.2427
236.0914, 238.8482
236.5735, 239.9683
237.0556, 240.7388
237.5378, 241.1253
238.0199, 241.2144
238.5020, 240.7883
238.9841, 240.0671
239.4662, 240.0573
239.9483, 241.4921
240.4305, 242.6523
240.9126, 242.5609
241.3947, 240.5699
241.8768, 238.7056
242.3589, 236.7006
242.8410, 234.9027
243.3232, 234.7274
243.8053, 237.3566
244.2874, 239.9833
244.7695, 241.0989
245.2516, 239.9170
245.7337, 238.9882
246.2159, 238.4270
246.6980, 238.1541
247.1801, 237.9122
247.6622, 237.5706
248.1443, 237.4434
248.6264, 237.7886
249.1086, 239.1101
249.5907, 239.6557
250.0728, 239.0740
250.5549, 237.7948
251.0370, 236.9144
251.5191, 236.3778
252.0013, 236.3350
252.4834, 237.0213
252.9655, 239.0571
253.4476, 240.1549
253.9297, 239.9849
254.4118, 239.0290
254.8940, 238.3468
255.3761, 238.0391
255.8582, 237.8230
256.3403, 237.5924
256.8224, 237.3448
257.3046, 237.0481
257.7867, 236.5640
258.2688, 236.1125
258.7509, 236.2486
259.2330, 237.4125
259.7151, 238.2492
260.1973, 238.1021
260.6794, 236.6517
261.1615, 235.6615
261.6436, 235.2245
262.1257, 235.1777
262.6078, 235.3547
263.0900, 235.9842
263.5721, 236.2886
264.0542, 235.8174
264.5363, 234.3374
265.0184, 233.7357
265.5005, 234.3614
265.9827, 235.4494
266.4648, 235.8495
266.9469, 235.3014
267.4290, 234.8202
267.9111, 234.7620
268.3932, 235.1628
268.8754, 235.3697
269.3575, 235.3585
269.8396, 235.1818
270.3217, 234.8126
270.8038, 234.1220
271.2859, 233.7385
271.7681, 233.9753
272.2502, 234.7950
272.7323, 235.1567
273.2144, 234.9711
273.6965, 234.4913
274.1786, 233.8655
274.6608, 232.9938
275.1429, 232.5269
275.6250, 232.8002
276.1071, 233.6643
276.5892, 233.8687
277.0714, 233.2038
277.5535, 232.4700
278.0356, 232.5237
278.5177, 233.4581
278.9998, 234.2293
279.4819, 234.7076
279.9641, 234.8464
280.4462, 234.2591
280.9283, 232.7823
281.4104, 231.2706
281.8925, 230.3797
282.3746, 230.1142
282.8568, 230.2291
283.3389, 230.9337
283.8210, 231.8071
284.3031, 231.4823
284.7852, 229.8374
285.2673, 228.0673
285.7495, 226.8865
286.2316, 226.2885
286.7137, 226.2809
287.1958, 227.0793
287.6779, 228.1543
288.1600, 228.2486
288.6422, 227.3442
289.1243, 226.5191
289.6064, 226.6728
290.0885, 227.5717
290.5706, 227.9363
291.0527, 227.5218
291.5349, 226.8417
292.0170, 226.8843
292.4991, 227.5621
292.9812, 227.9344
293.4633, 227.1026
293.9454, 225.5237
294.4276, 224.7429
294.9097, 224.9465
295.3918, 225.5175
295.8739, 225.6417
296.3560, 225.4315
296.8381, 225.4213
297.3203, 226.1372
297.8024, 227.1776
298.2845, 227.7081
298.7666, 227.6922
299.2487, 227.3919
299.7308, 226.8999
300.2130, 226.3095
300.6951, 225.8980
301.1772, 225.9042
301.6593, 226.0881
302.1414, 226.1434
302.6235, 226.0688
303.1057, 225.8599
303.5878, 225.3264
304.0699, 224.6727
304.5520, 224.2915
305.0341, 224.3918
305.5162, 224.7439
305.9984, 225.3327
306.4805, 226.0773
306.9626, 226.4559
307.4447, 225.7724
307.9268, 224.6105
308.4089, 223.7072
308.8911, 223.1982
309.3732, 223.0798
309.8553, 223.6685
310.3374, 224.7300
310.8195, 225.4814
311.3016, 225.1601
311.7838, 224.4845
312.2659, 224.1636
312.7480, 224.5633
313.2301, 224.7724
313.7122, 223.9281
314.1943, 222.4927
314.6765, 221.4580
315.1586, 221.6341
315.6407, 222.0950
316.1228, 222.2580
316.6049, 221.9917
317.0870, 221.6757
317.5692, 221.2974
318.0513, 221.0130
318.5334, 221.0455
319.0155, 222.0704
319.4976, 222.9103
319.9797, 222.8833
320.4619, 221.8606
320.9440, 221.0543
321.4261, 221.1486
321.9082, 221.4896
322.3903, 221.4576
322.8724, 220.3045
323.3546, 219.3814
323.8367, 219.1621
324.3188, 219.6237
324.8009, 219.9576
325.2830, 220.0150
325.7651, 219.9181
326.2473, 219.7464
326.7294, 219.4914
327.2115, 219.1904
327.6936, 218.6779
328.1757, 218.0684
328.6578, 217.8937
329.1400, 218.5240
329.6221, 219.2919
330.1042, 219.9520
330.5863, 220.7575
331.0684, 221.0228
331.5505, 220.4208
332.0327, 219.3347
332.5148, 218.6026
332.9969, 218.2349
333.4790, 218.2028
333.9611, 218.6055
334.4432, 219.6701
334.9254, 220.1967
335.4075, 219.9590
335.8896, 219.3573
336.3717, 218.9191
336.8538, 218.6594
337.3359, 218.5368
337.8180, 218.5993
338.3001, 218.8426
338.7823, 218.9143
339.2644, 218.7811
339.7465, 218.5535
340.2286, 218.2991
340.7107, 217.9969
341.1928, 217.8606
341.6750, 218.0304
342.1571, 218.3744
342.6392, 218.3168
343.1213, 217.8026
343.6034, 217.1910
344.0855, 216.7049
344.5677, 216.3469
345.0498, 216.1135
345.5319, 216.0881
346.0140, 216.0533
346.4961, 215.4049
346.9782, 214.1779
347.4604, 213.2078
347.9425, 212.9438
348.4246, 213.3212
348.9067, 214.3677
349.3888, 216.2535
349.8709, 217.9702
350.3531, 218.0508
350.8352, 216.8486
351.3173, 215.6798
351.7994, 215.1164
352.2815, 214.9283
352.7636, 214.6720
353.2458, 214.3455
353.7279, 214.2552
354.2100, 214.9555
354.6921, 216.0229
355.1742, 216.7175
355.6563, 216.6988
356.1385, 216.3394
356.6206, 215.8188
357.1027, 215.1964
357.5848, 214.7816
358.0669, 214.9168
358.5490, 215.2635
359.0312, 215.5235
359.5133, 215.6735
359.9954, 215.6585
360.4775, 215.3400
360.9596, 214.8359
361.4417, 214.4002
361.9239, 214.0475
362.4060, 213.8577
362.8881, 214.0033
363.3702, 214.6276
363.8523, 214.9053
364.3344, 214.2070
364.8166, 213.1474
365.2987, 212.4220
365.7808, 212.2934
366.2629, 212.4346
366.7450, 212.9977
367.2271, 213.9695
367.7093, 214.4144
368.1914, 213.5020
368.6735, 212.4799
369.1556, 212.1624
369.6377, 213.5613
370.1198, 214.4291
370.6020, 214.3006
371.0841, 213.5237
371.5662, 213.4199
372.0483, 214.7746
372.5304, 215.8425
373.0125, 215.7874
373.4947, 214.0234
373.9768, 212.8338
374.4589, 212.4135
374.9410, 212.3975
375.4231, 212.2168
375.9052, 211.8206
376.3874, 211.4030
376.8695, 210.9847
377.3516, 210.5698
377.8337, 210.4295
378.3158, 210.6467
378.7979, 210.9163
379.2801, 210.8148
379.7622, 210.3084
380.2443, 210.2961
380.7264, 211.2509
381.2085, 212.5625
381.6906, 212.2789
382.1728, 210.3655
382.6549, 208.6240
383.1370, 208.5181
383.6191, 209.6557
384.1012, 210.5041
384.5833, 210.8755
385.0655, 211.0546
385.5476, 211.4761
386.0297, 212.0468
386.5118, 212.4108
386.9939, 212.4434
387.4760, 212.1526
387.9582, 211.2563
388.4403, 209.7375
388.9224, 208.6872
389.4045, 209.6184
389.8866, 211.4177
390.3687, 212.4950
390.8509, 211.8517
391.3330, 210.8334
391.8151, 210.2825
392.2972, 210.1382
392.7793, 210.1327
393.2614, 210.3641
393.7436, 210.5382
394.2257, 210.3535
394.7078, 209.4602
395.1899, 208.9413
395.6720, 209.6513
396.1541, 210.8937
396.6363, 211.5501
397.1184, 210.7735
397.6005, 209.9017
398.0826, 209.3803
398.5647, 209.2710
399.0468, 209.1830
399.5290, 209.0937
400.0111, 209.0034
400.4932, 208.9061
400.9753, 208.6147
401.4574, 208.5758
401.9395, 208.9251
402.4217, 209.5786
402.9038, 210.1564
403.3859, 210.7463
403.8680, 211.1333
404.3501, 211.1615
404.8322, 210.6861
405.3144, 210.3646
405.7965, 210.2381
406.2786, 210.2199
406.7607, 210.1286
407.2428, 209.9115
407.7249, 209.9300
408.2071, 210.4666
408.6892, 211.3760
409.1713, 211.5530
409.6534, 210.8648
410.1355, 210.2153
410.6176, 210.8290
411.0998, 212.3883
411.5819, 212.8361
412.0640, 211.3327
412.5461, 209.2866
413.0282, 209.0668
413.5103, 210.4513
413.9925, 212.1019
414.4746, 213.8257
414.9567, 215.1403
415.4388, 215.0217
415.9209, 213.2602
416.4030, 211.2751
416.8852, 210.0062
417.3673, 209.3392
417.8494, 209.0744
418.3315, 209.4365
418.8136, 209.9234
419.2957, 210.4156
419.7779, 210.8440
420.2600, 210.7940
420.7421, 209.4812
421.2242, 207.9800
421.7063, 207.1159
422.1884, 207.2676
422.6706, 207.5883
423.1527, 207.8956
423.6348, 208.2324
424.1169, 208.6778
424.5990, 209.6450
425.0811, 210.3409
425.5633, 210.4906
426.0454, 210.0378
426.5275, 209.4039
427.0096, 208.1790
427.4917, 207.0840
427.9738, 206.7799
428.4560, 207.8012
428.9381, 208.4730
429.4202, 208.5040
429.9023, 208.0739
430.3844, 207.7964
430.8665, 207.7152
431.3487, 207.6675
431.8308, 207.5932
432.3129, 207.4966
432.7950, 207.3434
433.2771, 207.1610
433.7592, 206.8519
434.2414, 206.1493
434.7235, 205.1028
435.2056, 204.3037
435.6877, 204.0108
436.1698, 204.0359
436.6519, 203.9083
437.1341, 203.6512
437.6162, 203.6284
438.0983, 204.4398
438.5804, 205.5909
439.0625, 206.1763
439.5446, 205.9490
440.0268, 205.4790
440.5089, 205.1368
440.9910, 204.9288
441.4731, 204.8713
441.9552, 205.2557
442.4373, 205.5645
442.9195, 205.4158
443.4016, 204.8060
443.8837, 204.1367
444.3658, 203.3022
444.8479, 202.6192
445.3300, 202.3626
445.8122, 203.2070
446.2943, 203.6560
446.7764, 203.0733
447.2585, 201.9005
447.7406, 201.2692
448.2227, 201.6360
448.7049, 202.1838
449.1870, 202.8160
449.6691, 203.6431
450.1512, 203.8224
450.6333, 202.9891
451.1154, 201.9101
451.5976, 201.3106
452.0797, 201.3039
452.5618, 201.4430
453.0439, 201.7202
453.5260, 202.0729
454.0081, 202.3318
454.4903, 202.4988
454.9724, 202.5696
455.4545, 202.5654
455.9366, 202.4734
456.4187, 202.1807
456.9008, 201.6691
457.3830, 201.0366
457.8651, 200.2243
458.3472, 199.3558
458.8293, 198.9255
459.3114, 199.4365
459.7935, 200.0961
460.2757, 199.7227
460.7578, 198.5115
461.2399, 197.4573
461.7220, 197.2721
462.2041, 197.4798
462.6862, 197.6681
463.1684, 197.7865
463.6505, 197.8478
464.1326, 197.8511
464.6147, 197.8068
465.0968, 197.7270
465.5789, 197.8725
466.0611, 197.7309
466.5432, 196.8369
467.0253, 195.3121
467.5074, 194.4442
467.9895, 195.0705
468.4716, 195.8355
468.9538, 196.1074
469.4359, 195.7288
469.9180, 195.1676
470.4001, 194.1976
470.8822, 193.1916
471.3643, 192.7259
471.8465, 192.9259
472.3286, 193.3320
472.8107, 194.0150
473.2928, 194.8186
473.7749, 194.6629
474.2570, 193.3539
474.7392, 192.0995
475.2213, 192.0386
475.7034, 192.9509
476.1855, 193.2251
476.6676, 192.5588
477.1497, 191.6977
477.6319, 191.7049
478.1140, 192.3727
478.5961, 193.0249
479.0782, 193.3123
479.5603, 193.4671
480.0424, 193.8074
480.5246, 194.3003
481.0067, 194.6690
481.4888, 194.6211
481.9709, 194.4367
482.4530, 194.4311
482.9352, 194.8840
483.4173, 194.9618
483.8994, 193.8494
484.3815, 192.2554
484.8636, 191.2708
485.3457, 191.8879
485.8279, 192.3721
486.3100, 192.0742
486.7921, 190.9889
487.2742, 190.4906
487.7563, 191.0626
488.2384, 191.7324
488.7206, 191.9079
489.2027, 191.2533
489.6848, 191.0973
490.1669, 191.7815
490.6490, 192.6203
491.1311, 192.3014
491.6133, 190.5920
492.0954, 189.3937
492.5775, 189.5361
493.0596, 190.5693
493.5417, 190.6808
494.0238, 189.8536
494.5060, 189.0586
494.9881, 189.1542
495.4702, 189.8242
495.9523, 190.2604
496.4344, 190.3119
496.9165, 190.3172
497.3987, 190.8906
497.8808, 191.6364
498.3629, 191.7968
498.8450, 190.3766
499.3271, 188.8474
499.8092, 188.1433
500.2914, 188.1772
500.7735, 188.4795
501.2556, 189.4042
501.7377, 190.1488
502.2198, 190.1129
502.7019, 188.7172
503.1841, 187.8956
503.6662, 188.4561
504.1483, 189.4797
504.6304, 189.8688
505.1125, 189.0290
505.5946, 188.5235
506.0768, 188.7074
506.5589, 189.4216
507.0410, 189.9314
507.5231, 190.3078
508.0052, 190.2775
508.4873, 189.3877
508.9695, 187.6348
509.4516, 186.9090
509.9337, 187.3813
510.4158, 188.2044
510.8979, 188.3423
511.3800, 187.9616
511.8622, 187.8430
512.3443, 188.3358
512.8264, 188.9754
513.3085, 189.0649
513.7906, 188.7482
514.2728, 188.5400
514.7549, 188.9165
515.2370, 189.4083
515.7191, 189.6597
516.2012, 189.6447
516.6833, 189.3705
517.1655, 188.6700
517.6476, 187.8066
518.1297, 186.9978
518.6118, 185.8395
519.0939, 185.3003
519.5760, 185.9868
520.0582, 187.3765
520.5403, 188.2272
521.0224, 188.2279
521.5045, 188.1097
521.9866, 188.0806
522.4688, 188.1380
522.9509, 187.9114
523.4330, 187.2045
523.9151, 186.6586
524.3972, 186.9256
524.8793, 188.0268
525.3615, 188.7388
525.8436, 188.8877
526.3257, 188.8088
526.8078, 188.9748
527.2899, 189.3465
527.7720, 189.7546
528.2542, 190.2863
528.7363, 190.6923
529.2184, 190.4091
529.7005, 189.5901
530.1826, 189.0582
530.6647, 189.8398
531.1469, 190.8145
531.6290, 190.8710
532.1111, 189.6207
532.5932, 188.6325
533.0753, 188.8255
533.5574, 189.4642
534.0396, 189.7822
534.5217, 189.1309
535.0038, 188.7658
535.4859, 189.0094
535.9680, 189.6738
536.4501, 190.1795
536.9323, 190.5083
537.4144, 190.7142
537.8965, 190.8483
538.3786, 190.9163
538.8607, 190.5723
539.3428, 189.6809
539.8250, 188.7959
540.3071, 188.3964
540.7892, 188.4659
541.2713, 188.9644
541.7534, 190.0575
542.2355, 191.0950
542.7177, 190.8815
543.1998, 189.7973
543.6819, 189.0598
544.1640, 189.5179
544.6461, 190.3812
545.1282, 190.8865
545.6104, 191.1057
546.0925, 191.5027
546.5746, 192.7132
547.0567, 193.9054
547.5388, 194.4985
548.0209, 194.2692
548.5031, 193.9085
548.9852, 193.3242
549.4673, 192.7870
549.9494, 192.5976
550.4315, 193.1436
550.9136, 193.4010
551.3958, 192.9936
551.8779, 192.2951
552.3600, 192.5582
552.8421, 194.0984
553.3242, 195.4990
553.8063, 196.1846
554.2885, 196.2113
554.7706, 195.8798
555.2527, 195.1465
555.7348, 194.5236
556.2169, 194.5222
556.6990, 194.9775
557.1812, 195.5527
557.6633, 196.2879
558.1454, 196.7763
558.6275, 196.4494
559.1096, 195.6282
559.5917, 194.8690
560.0739, 194.4010
560.5560, 194.0556
561.0381, 193.9039
561.5202, 193.8532
562.0023, 193.5003
562.4844, 192.1869
562.9666, 191.0223
563.4487, 190.5566
563.9308, 190.9205
564.4129, 191.3410
564.8950, 191.9695
565.3771, 192.4851
565.8593, 192.5568
566.3414, 192.0294
566.8235, 191.7558
567.3056, 191.9196
567.7877, 192.2122
568.2698, 192.0087
568.7520, 191.3387
569.2341, 190.7237
569.7162, 190.3813
570.1983, 190.2031
570.6804, 189.9763
571.1625, 189.7184
571.6447, 189.5272
572.1268, 189.5443
572.6089, 189.6173
573.0910, 189.5323
573.5731, 189.2199
574.0552, 189.1240
574.5374, 189.8970
575.0195, 190.7567
575.5016, 190.9751
575.9837, 189.5761
576.4658, 188.5616
576.9479, 188.2331
577.4301, 188.3602
577.9122, 188.5445
578.3943, 188.9489
578.8764, 189.0523
579.3585, 188.5806
579.8406, 187.6548
580.3228, 187.1832
580.8049, 187.2192
581.2870, 187.3620
581.7691, 187.4219
582.2512, 187.3793
582.7333, 187.0141
583.2155, 186.2602
583.6976, 185.7436
584.1797, 186.4048
584.6617, 187.6175
585.1439, 188.3276
585.6260, 188.0971
586.1081, 187.5804
586.5902, 187.0606
587.0723, 186.5484
587.5544, 186.0731
588.0366, 185.2546
588.5187, 184.8506
589.0008, 185.4776
589.4829, 187.0350
589.9650, 187.6341
590.4471, 186.6899
590.9293, 185.5270
591.4114, 184.6906
591.8935, 184.1545
592.3756, 184.1981
592.8577, 185.0271
593.3398, 185.8772
593.8220, 185.8264
594.3041, 185.0005
594.7862, 184.3928
595.2683, 184.2272
595.7504, 184.2251
596.2325, 184.0583
596.7147, 183.7643
597.1968, 183.4414
597.6789, 183.0698
598.1610, 182.7390
598.6431, 182.4574
599.1252, 182.2559
599.6074, 182.2619
600.0895, 182.7793
600.5716, 183.2930
601.0537, 183.5509
601.5358, 183.4863
602.0179, 183.3872
602.5001, 183.4960
602.9822, 183.3323
603.4643, 182.3001
603.9464, 179.8365
604.4285, 178.8495
604.9106, 179.9004
605.3928, 181.7503
605.8749, 182.6293
606.3570, 182.5769
606.8391, 182.0465
607.3212, 180.9470
607.8033, 179.7379
608.2855, 179.1432
608.7676, 179.0529
609.2497, 179.0437
609.7318, 178.7987
610.2139, 178.6030
610.6960, 178.7159
611.1782, 179.1394
611.6603, 179.5948
612.1424, 180.3831
612.6245, 180.8876
613.1066, 180.6298
613.5887, 178.9661
614.0709, 177.9883
614.5530, 178.0806
615.0351, 178.5097
615.5172, 178.4840
615.9993, 177.8854
616.4814, 177.3489
616.9636, 176.9199
617.4457, 176.6634
617.9278, 176.8799
618.4099, 177.4997
618.8920, 177.8083
619.3741, 177.2471
619.8563, 176.3962
620.3384, 176.1721
620.8205, 176.4648
621.3026, 176.7310
621.7847, 176.5164
622.2668, 176.2554
622.7490, 176.3757
623.2311, 176.9713
623.7132, 177.2669
624.1953, 176.9752
624.6774, 176.3709
625.1595, 175.6043
625.6417, 174.2768
626.1238, 173.6402
626.6059, 174.0224
627.0880, 174.7495
627.5701, 174.8612
628.0522, 174.2756
628.5344, 173.8883
629.0165, 173.9108
629.4986, 174.1950
629.9807, 174.7067
630.4628, 175.3238
630.9449, 175.3922
631.4271, 173.7671
631.9092, 171.9581
632.3913, 171.9166
632.8734, 173.3670
633.3555, 174.5306
633.8376, 174.3063
634.3198, 173.6924
634.8019, 173.2331
635.2840, 172.9801
635.7661, 172.8953
636.2482, 173.1071
636.7303, 173.3719
637.2125, 173.5703
637.6946, 173.8212
638.1767, 173.6058
638.6588, 172.7678
639.1409, 171.7049
639.6230, 170.9669
640.1052, 170.5389
640.5873, 170.2532
641.0694, 170.1048
641.5515, 170.0223
642.0336, 169.8954
642.5157, 169.7465
642.9979, 169.6387
643.4800, 169.4677
643.9621, 169.4617
644.4442, 169.8568
644.9263, 170.5952
645.4084, 171.3302
645.8906, 172.4990
646.3727, 173.1545
646.8548, 172.5348
647.3369, 170.3616
647.8190, 169.2407
648.3011, 169.7080
648.7833, 170.4392
649.2654, 170.4055
649.7475, 169.5293
650.2296, 168.8011
650.7117, 168.2592
651.1938, 167.9231
651.6760, 167.9242
652.1581, 168.1662
652.6402, 168.3766
653.1223, 168.5422
653.6044, 168.5280
654.0865, 168.0065
654.5687, 167.2408
655.0508, 166.7349
655.5329, 166.8822
656.0150, 167.1051
656.4971, 167.1679
656.9792, 167.1143
657.4614, 167.2072
657.9435, 167.6795
658.4256, 167.9837
658.9077, 167.9017
659.3898, 167.4503
659.8719, 167.0323
660.3541, 166.6384
660.8362, 166.3200
661.3183, 166.1456
661.8004, 166.0807
662.2825, 165.9720
662.7646, 165.8091
663.2468, 165.6499
663.7289, 165.6355
664.2110, 165.6220
664.6931, 165.3692
665.1752, 164.6680
665.6573, 164.1471
666.1395, 164.0721
666.6216, 164.3316
667.1037, 164.7884
667.5858, 165.8864
668.0679, 166.5820
668.5500, 166.7221
669.0322, 166.4433
669.5143, 165.9858
669.9964, 165.2972
670.4785, 164.6807
670.9606, 164.2706
671.4427, 163.9619
671.9249, 163.2931
672.4070, 162.3470
672.8891, 161.8310
673.3712, 162.7226
673.8533, 163.9423
674.3354, 164.0221
674.8176, 163.0560
675.2997, 162.3790
675.7818, 163.0981
676.2639, 163.9901
676.7460, 164.2217
677.2281, 163.4388
677.7103, 163.0530
678.1924, 163.4007
678.6745, 163.8676
679.1566, 163.9808
679.6387, 163.6414
680.1208, 163.4036
680.6030, 163.2793
681.0851, 163.2952
681.5672, 163.7777
682.0493, 164.4984
682.5314, 164.3598
683.0135, 162.7684
683.4957, 161.0180
683.9778, 160.5277
684.4599, 160.8593
684.9420, 161.2023
685.4241, 161.1990
685.9063, 161.2071
686.3884, 161.5180
686.8705, 161.9707
687.3526, 161.9802
687.8347, 161.0136
688.3168, 160.3612
688.7990, 160.5172
689.2811, 161.3116
