##NAMES=Allanpringite
##RRUFFID=R080147
##IDEAL CHEMISTRY=Fe^3+^_3_(PO_4_)_2_(OH)_3_&#183;5H_2_O
##LOCALITY=Mark mine, Essershausen, Weilburg, Wetzlar, Hesse, Germany
##OWNER=RRUFF
##SOURCE=Steffan Jahn
##DESCRIPTION=Bundles of acicular yellow crystals on matrix.
##STATUS=The identification of this mineral has been confirmed by single-crystal X-ray diffraction.
##URL=rruff.info/R080147
90.52570, 0.0000000E+00
91.00781, 35.66988
91.48993, 38.58820
91.97205, 39.75621
92.45416, 37.55609
92.93628, 33.67702
93.41840, 32.11034
93.90051, 34.14803
94.38263, 37.58032
94.86475, 38.53220
95.34686, 37.02907
95.82898, 35.50743
96.31110, 35.99133
96.79321, 38.32733
97.27533, 41.03829
97.75745, 44.13784
98.23956, 47.29930
98.72168, 48.76295
99.20380, 48.17941
99.68591, 46.95049
100.1680, 46.35159
100.6501, 46.31551
101.1323, 47.29538
101.6144, 49.71427
102.0965, 53.73435
102.5786, 57.12433
103.0607, 59.55782
103.5428, 61.67413
104.0250, 64.60165
104.5071, 68.54331
104.9892, 72.90925
105.4713, 77.28347
105.9534, 80.75938
106.4355, 86.22924
106.9177, 94.34197
107.3998, 104.4639
107.8819, 114.8912
108.3640, 124.5341
108.8461, 135.2326
109.3282, 148.0203
109.8104, 165.5217
110.2925, 181.8075
110.7746, 195.4597
111.2567, 206.9094
111.7388, 220.1427
112.2209, 236.9100
112.7031, 254.7139
113.1852, 272.0259
113.6673, 291.3241
114.1494, 307.2995
114.6315, 317.0597
115.1136, 320.4135
115.5958, 324.9862
116.0779, 333.1581
116.5600, 343.8262
117.0421, 355.7017
117.5242, 369.1017
118.0063, 383.1721
118.4885, 397.6460
118.9706, 412.5007
119.4527, 427.7198
119.9348, 443.0160
120.4169, 458.6055
120.8990, 475.1496
121.3812, 492.4567
121.8633, 511.0381
122.3454, 531.5618
122.8275, 554.9927
123.3096, 578.5233
123.7917, 600.2706
124.2739, 620.2252
124.7560, 638.3527
125.2381, 652.7145
125.7202, 665.5828
126.2023, 680.9132
126.6844, 700.9134
127.1666, 722.1871
127.6487, 739.0958
128.1308, 752.0076
128.6129, 765.5471
129.0950, 786.0975
129.5771, 811.2031
130.0593, 831.8195
130.5414, 843.0264
131.0235, 848.7649
131.5056, 858.5342
131.9877, 869.5541
132.4698, 877.4912
132.9520, 881.2601
133.4341, 881.2012
133.9162, 883.5289
134.3983, 891.1933
134.8804, 903.3617
135.3625, 913.9525
135.8447, 922.6269
136.3268, 930.8114
136.8089, 940.7645
137.2910, 952.8008
137.7731, 964.9555
138.2552, 976.0162
138.7374, 985.4416
139.2195, 998.1823
139.7016, 1015.752
140.1837, 1035.295
140.6658, 1049.984
141.1479, 1057.724
141.6301, 1065.760
142.1122, 1077.859
142.5943, 1096.098
143.0764, 1112.619
143.5585, 1126.346
144.0406, 1138.373
144.5228, 1153.401
145.0049, 1173.301
145.4870, 1193.670
145.9691, 1211.648
146.4512, 1224.512
146.9333, 1239.946
147.4155, 1259.872
147.8976, 1283.772
148.3797, 1304.715
148.8618, 1319.051
149.3439, 1333.301
149.8260, 1351.609
150.3082, 1378.225
150.7903, 1404.322
151.2724, 1428.951
151.7545, 1451.922
152.2366, 1476.390
152.7188, 1504.541
153.2009, 1533.212
153.6830, 1559.545
154.1651, 1581.868
154.6472, 1603.286
155.1293, 1624.410
155.6115, 1645.580
156.0936, 1664.712
156.5757, 1681.657
157.0578, 1696.431
157.5399, 1708.808
158.0220, 1717.832
158.5042, 1725.388
158.9863, 1732.048
159.4684, 1737.929
159.9505, 1743.003
160.4326, 1747.257
160.9147, 1750.717
161.3969, 1753.401
161.8790, 1756.212
162.3611, 1757.647
162.8432, 1756.549
163.3253, 1752.089
163.8074, 1747.248
164.2896, 1743.560
164.7717, 1740.418
165.2538, 1736.631
165.7359, 1731.126
166.2180, 1725.020
166.7001, 1718.977
167.1823, 1712.899
167.6644, 1707.467
168.1465, 1704.490
168.6286, 1702.777
169.1107, 1698.989
169.5928, 1689.268
170.0750, 1677.409
170.5571, 1667.245
171.0392, 1660.281
171.5213, 1654.367
172.0034, 1648.334
172.4855, 1642.045
172.9677, 1635.029
173.4498, 1626.162
173.9319, 1616.533
174.4140, 1607.761
174.8961, 1600.742
175.3782, 1594.196
175.8604, 1586.324
176.3425, 1577.238
176.8246, 1568.251
177.3067, 1560.100
177.7888, 1552.647
178.2709, 1545.811
178.7531, 1539.941
179.2352, 1534.279
179.7173, 1527.125
180.1994, 1518.529
180.6815, 1510.633
181.1636, 1505.197
181.6458, 1501.972
182.1279, 1500.461
182.6100, 1501.073
183.0921, 1503.021
183.5742, 1504.520
184.0563, 1505.488
184.5385, 1507.057
185.0206, 1510.373
185.5027, 1515.280
185.9848, 1520.910
186.4669, 1527.179
186.9490, 1533.914
187.4312, 1540.621
187.9133, 1547.057
188.3954, 1554.237
188.8775, 1563.757
189.3596, 1575.318
189.8417, 1586.558
190.3239, 1595.839
190.8060, 1603.860
191.2881, 1614.052
191.7702, 1626.677
192.2523, 1640.060
192.7344, 1652.339
193.2166, 1663.477
193.6987, 1674.037
194.1808, 1684.707
194.6629, 1695.307
195.1450, 1703.477
195.6271, 1708.369
196.1093, 1712.995
196.5914, 1722.171
197.0735, 1736.198
197.5556, 1750.899
198.0377, 1765.090
198.5198, 1778.894
199.0020, 1790.311
199.4841, 1798.962
199.9662, 1805.879
200.4483, 1812.581
200.9304, 1818.958
201.4125, 1825.713
201.8947, 1833.040
202.3768, 1840.907
202.8589, 1850.325
203.3410, 1862.588
203.8231, 1874.765
204.3052, 1880.418
204.7874, 1878.205
205.2695, 1875.385
205.7516, 1875.709
206.2337, 1879.985
206.7158, 1881.522
207.1979, 1879.009
207.6801, 1874.962
208.1622, 1875.414
208.6443, 1882.197
209.1264, 1887.837
209.6085, 1887.992
210.0906, 1880.779
210.5728, 1876.769
211.0549, 1876.594
211.5370, 1879.381
212.0191, 1883.446
212.5012, 1889.274
212.9833, 1895.302
213.4655, 1900.599
213.9476, 1904.765
214.4297, 1909.902
214.9118, 1916.380
215.3939, 1923.689
215.8760, 1930.537
216.3581, 1936.169
216.8403, 1942.764
217.3224, 1951.659
217.8045, 1964.116
218.2866, 1975.190
218.7687, 1984.900
219.2508, 1993.029
219.7330, 1998.310
220.2151, 1999.058
220.6972, 1999.934
221.1793, 2004.136
221.6614, 2015.477
222.1435, 2019.437
222.6257, 2013.496
223.1078, 2000.730
223.5899, 1989.745
224.0720, 1982.533
224.5541, 1973.885
225.0362, 1961.125
225.5184, 1943.319
226.0005, 1923.941
226.4826, 1902.289
226.9647, 1879.334
227.4468, 1857.115
227.9289, 1836.430
228.4111, 1815.590
228.8932, 1793.944
229.3753, 1771.847
229.8574, 1748.095
230.3395, 1721.361
230.8216, 1693.500
231.3038, 1669.313
231.7859, 1650.526
232.2680, 1633.100
232.7501, 1615.026
233.2322, 1594.807
233.7143, 1577.459
234.1965, 1564.018
234.6786, 1553.125
235.1607, 1540.615
235.6428, 1524.651
236.1249, 1509.687
236.6070, 1497.836
237.0892, 1490.521
237.5713, 1483.091
238.0534, 1475.200
238.5355, 1467.264
239.0176, 1460.360
239.4997, 1454.417
239.9819, 1449.474
240.4640, 1445.722
240.9461, 1443.755
241.4282, 1441.450
241.9103, 1438.291
242.3924, 1434.969
242.8746, 1433.420
243.3567, 1435.454
243.8388, 1436.529
244.3209, 1434.295
244.8030, 1426.366
245.2851, 1421.715
245.7673, 1421.471
246.2494, 1424.063
246.7315, 1426.237
247.2136, 1428.203
247.6957, 1429.434
248.1778, 1429.565
248.6600, 1428.069
249.1421, 1426.983
249.6242, 1425.870
250.1063, 1425.378
250.5884, 1426.813
251.0705, 1430.606
251.5527, 1435.602
252.0348, 1441.514
252.5169, 1448.720
252.9990, 1455.686
253.4811, 1462.703
253.9632, 1469.350
254.4454, 1474.578
254.9275, 1477.441
255.4096, 1480.737
255.8917, 1485.575
256.3738, 1492.363
256.8560, 1498.541
257.3381, 1503.440
257.8202, 1508.336
258.3023, 1515.458
258.7844, 1525.565
259.2665, 1536.122
259.7487, 1546.660
260.2308, 1557.305
260.7129, 1566.465
261.1950, 1573.228
261.6771, 1579.453
262.1592, 1587.277
262.6414, 1596.020
263.1235, 1608.004
263.6056, 1624.566
264.0877, 1646.254
264.5698, 1666.449
265.0519, 1684.732
265.5341, 1702.023
266.0162, 1719.351
266.4983, 1736.241
266.9804, 1754.275
267.4625, 1774.004
267.9446, 1795.255
268.4268, 1818.120
268.9089, 1842.515
269.3910, 1867.867
269.8731, 1893.714
270.3552, 1919.733
270.8373, 1946.936
271.3195, 1976.147
271.8016, 2007.021
272.2837, 2036.556
272.7658, 2063.876
273.2479, 2092.670
273.7300, 2127.977
274.2122, 2170.992
274.6943, 2212.208
275.1764, 2249.134
275.6585, 2282.579
276.1406, 2316.135
276.6227, 2349.289
277.1049, 2384.321
277.5870, 2424.022
278.0691, 2468.912
278.5512, 2512.641
279.0333, 2554.095
279.5154, 2593.772
279.9976, 2633.396
280.4797, 2673.269
280.9618, 2712.051
281.4439, 2749.153
281.9260, 2784.379
282.4081, 2820.759
282.8903, 2859.497
283.3724, 2898.662
283.8545, 2934.043
284.3366, 2965.623
284.8187, 2993.669
285.3008, 3017.978
285.7830, 3038.774
286.2651, 3055.894
286.7472, 3069.059
287.2293, 3079.336
287.7114, 3090.390
288.1935, 3102.151
288.6757, 3107.469
289.1578, 3099.524
289.6399, 3080.659
290.1220, 3064.146
290.6041, 3051.790
291.0862, 3038.095
291.5684, 3014.390
292.0505, 2981.258
292.5326, 2945.679
293.0147, 2911.138
293.4968, 2876.728
293.9789, 2838.530
294.4611, 2796.724
294.9432, 2751.767
295.4253, 2701.885
295.9074, 2648.386
296.3895, 2598.153
296.8716, 2555.980
297.3538, 2518.154
297.8359, 2476.938
298.3180, 2431.902
298.8001, 2385.460
299.2822, 2337.719
299.7643, 2289.544
300.2465, 2243.961
300.7286, 2202.938
301.2107, 2164.561
301.6928, 2125.709
302.1749, 2086.772
302.6570, 2048.353
303.1392, 2010.921
303.6213, 1974.602
304.1034, 1940.588
304.5855, 1909.487
305.0676, 1879.994
305.5497, 1849.900
306.0319, 1819.602
306.5140, 1789.587
306.9961, 1760.014
307.4782, 1731.397
307.9603, 1703.827
308.4424, 1677.091
308.9246, 1652.278
309.4067, 1631.110
309.8888, 1612.775
310.3709, 1594.567
310.8530, 1574.726
311.3351, 1554.746
311.8173, 1535.817
312.2994, 1517.804
312.7815, 1501.190
313.2636, 1487.994
313.7457, 1476.420
314.2278, 1463.110
314.7100, 1443.279
315.1921, 1423.891
315.6742, 1409.965
316.1563, 1402.973
316.6384, 1395.577
317.1205, 1383.461
317.6027, 1369.616
318.0848, 1357.896
318.5669, 1352.202
319.0490, 1346.445
319.5311, 1337.168
320.0132, 1324.004
320.4954, 1313.338
320.9775, 1309.289
321.4596, 1307.443
321.9417, 1304.126
322.4238, 1296.245
322.9059, 1289.244
323.3881, 1284.747
323.8702, 1282.602
324.3523, 1280.199
324.8344, 1276.136
325.3165, 1272.407
325.7986, 1270.155
326.2808, 1271.780
326.7629, 1272.185
327.2450, 1270.036
327.7271, 1266.169
328.2092, 1263.875
328.6913, 1264.579
329.1735, 1265.629
329.6556, 1265.934
330.1377, 1264.659
330.6198, 1264.205
331.1019, 1264.779
331.5840, 1266.089
332.0662, 1267.709
332.5483, 1270.316
333.0304, 1272.203
333.5125, 1272.480
333.9946, 1270.596
334.4767, 1269.949
334.9589, 1270.638
335.4410, 1272.455
335.9231, 1275.197
336.4052, 1278.916
336.8873, 1283.431
337.3694, 1288.973
337.8515, 1295.436
338.3336, 1301.369
338.8158, 1307.092
339.2979, 1311.683
339.7800, 1313.805
340.2621, 1312.944
340.7442, 1313.190
341.2263, 1315.255
341.7085, 1318.914
342.1906, 1323.348
342.6727, 1328.593
343.1548, 1334.638
343.6369, 1342.538
344.1190, 1351.970
344.6012, 1358.351
345.0833, 1360.289
345.5654, 1360.597
346.0475, 1364.012
346.5296, 1370.401
347.0117, 1378.309
347.4939, 1388.144
347.9760, 1398.876
348.4581, 1407.119
348.9402, 1412.431
349.4223, 1416.688
349.9044, 1422.661
350.3866, 1429.590
350.8687, 1434.914
351.3508, 1435.341
351.8329, 1434.585
352.3150, 1439.672
352.7971, 1450.443
353.2793, 1460.548
353.7614, 1464.117
354.2435, 1464.038
354.7256, 1465.148
355.2077, 1469.985
355.6898, 1475.052
356.1720, 1476.480
356.6541, 1475.171
357.1362, 1474.999
357.6183, 1479.867
358.1004, 1485.980
358.5826, 1489.945
359.0647, 1490.844
359.5468, 1490.277
360.0289, 1488.467
360.5110, 1485.833
360.9931, 1483.164
361.4753, 1482.027
361.9574, 1479.966
362.4395, 1475.542
362.9216, 1468.374
363.4037, 1460.524
363.8858, 1451.772
364.3680, 1442.990
364.8501, 1435.068
365.3322, 1431.351
365.8143, 1425.424
366.2964, 1414.993
366.7785, 1400.097
367.2607, 1385.481
367.7428, 1370.308
368.2249, 1356.313
368.7070, 1344.579
369.1891, 1338.767
369.6712, 1330.457
370.1534, 1318.504
370.6355, 1303.804
371.1176, 1289.009
371.5997, 1272.894
372.0818, 1258.182
372.5639, 1245.931
373.0461, 1236.578
373.5282, 1228.038
374.0103, 1220.363
374.4924, 1213.232
374.9745, 1206.370
375.4566, 1199.888
375.9388, 1193.110
376.4209, 1185.460
376.9030, 1177.040
377.3851, 1171.321
377.8672, 1168.939
378.3493, 1167.107
378.8315, 1162.943
379.3136, 1156.382
379.7957, 1150.381
380.2778, 1145.273
380.7599, 1141.222
381.2420, 1138.547
381.7242, 1137.287
382.2063, 1137.020
382.6884, 1137.360
383.1705, 1138.449
383.6526, 1141.338
384.1347, 1146.579
384.6169, 1151.639
385.0990, 1152.712
385.5811, 1150.726
386.0632, 1148.653
386.5453, 1146.636
387.0274, 1145.886
387.5096, 1149.051
387.9917, 1156.086
388.4738, 1162.917
388.9559, 1165.516
389.4380, 1166.151
389.9201, 1167.882
390.4023, 1172.557
390.8844, 1177.597
391.3665, 1181.185
391.8486, 1183.693
392.3307, 1186.342
392.8128, 1188.389
393.2950, 1191.647
393.7771, 1198.077
394.2592, 1209.943
394.7413, 1219.593
395.2234, 1222.754
395.7055, 1222.433
396.1877, 1223.287
396.6698, 1227.380
397.1519, 1231.794
397.6340, 1235.727
398.1161, 1239.107
398.5982, 1242.404
399.0804, 1246.789
399.5625, 1250.440
400.0446, 1251.907
400.5267, 1248.218
401.0088, 1246.831
401.4909, 1249.408
401.9731, 1254.875
402.4552, 1258.895
402.9373, 1261.372
403.4194, 1262.581
403.9015, 1262.348
404.3836, 1260.100
404.8658, 1258.773
405.3479, 1258.764
405.8300, 1259.121
406.3121, 1258.261
406.7942, 1255.964
407.2763, 1253.846
407.7585, 1252.437
408.2406, 1251.609
408.7227, 1250.844
409.2048, 1250.165
409.6869, 1249.287
410.1690, 1248.152
410.6512, 1246.670
411.1333, 1244.230
411.6154, 1240.450
412.0975, 1236.166
412.5796, 1232.648
413.0617, 1229.758
413.5439, 1226.719
414.0260, 1222.776
414.5081, 1218.510
414.9902, 1215.585
415.4723, 1214.420
415.9544, 1211.263
416.4366, 1200.910
416.9187, 1187.085
417.4008, 1175.403
417.8829, 1170.002
418.3650, 1165.509
418.8471, 1158.620
419.3293, 1149.731
419.8114, 1140.921
420.2935, 1134.288
420.7756, 1127.292
421.2577, 1118.048
421.7398, 1103.839
422.2220, 1091.805
422.7041, 1086.113
423.1862, 1083.134
423.6683, 1076.326
424.1504, 1061.076
424.6325, 1045.576
425.1147, 1032.060
425.5968, 1020.532
426.0789, 1009.344
426.5610, 998.0424
427.0431, 987.4825
427.5252, 978.6784
428.0074, 972.6939
428.4895, 965.9515
428.9716, 957.9539
429.4537, 949.0674
429.9358, 940.4373
430.4179, 932.0013
430.9001, 924.0938
431.3822, 917.2497
431.8643, 911.4946
432.3464, 904.8666
432.8285, 897.1234
433.3106, 889.2910
433.7928, 882.8486
434.2749, 877.6317
434.7570, 872.1849
435.2391, 865.6891
435.7212, 858.9879
436.2033, 853.7813
436.6855, 850.0309
437.1676, 846.8547
437.6497, 844.0430
438.1318, 841.3013
438.6139, 838.0247
439.0960, 833.9118
439.5782, 830.0240
440.0603, 827.2413
440.5424, 825.2920
441.0245, 823.7073
441.5066, 821.5802
441.9887, 820.3048
442.4709, 821.3351
442.9530, 824.5779
443.4351, 827.0735
443.9172, 827.5975
444.3993, 826.9763
444.8814, 825.7080
445.3636, 821.7403
445.8457, 819.9872
446.3278, 822.5892
446.8099, 827.8781
447.2920, 831.7900
447.7741, 833.8675
448.2563, 834.9725
448.7384, 834.9815
449.2205, 833.6199
449.7026, 833.4532
450.1847, 834.8992
450.6668, 837.0314
451.1490, 838.8373
451.6311, 839.9426
452.1132, 842.2773
452.5953, 846.3099
453.0774, 851.6254
453.5595, 857.7178
454.0417, 864.7594
454.5238, 871.1334
455.0059, 875.9241
455.4880, 879.2750
455.9701, 881.5324
456.4522, 882.3549
456.9344, 884.3350
457.4165, 891.6397
457.8986, 902.5052
458.3807, 911.6382
458.8628, 916.2449
459.3449, 919.7341
459.8271, 926.2026
460.3092, 935.1155
460.7913, 944.2617
461.2734, 953.2818
461.7555, 961.3835
462.2376, 967.5598
462.7198, 971.1083
463.2019, 975.1376
463.6840, 981.2289
464.1661, 988.5154
464.6482, 995.9484
465.1303, 1005.366
465.6125, 1012.676
466.0946, 1015.291
466.5767, 1013.913
467.0588, 1014.918
467.5409, 1021.059
468.0230, 1027.665
468.5052, 1032.634
468.9873, 1035.006
469.4694, 1038.235
469.9515, 1042.953
470.4336, 1047.986
470.9157, 1051.706
471.3979, 1053.859
471.8800, 1055.471
472.3621, 1056.549
472.8442, 1057.316
473.3263, 1058.701
473.8084, 1060.646
474.2906, 1063.641
474.7727, 1068.933
475.2548, 1075.833
475.7369, 1080.807
476.2190, 1083.233
476.7011, 1084.778
477.1833, 1087.519
477.6654, 1091.053
478.1475, 1094.263
478.6296, 1095.664
479.1117, 1097.230
479.5938, 1101.463
480.0760, 1108.014
480.5581, 1114.376
481.0402, 1118.740
481.5223, 1122.607
482.0044, 1127.344
482.4865, 1133.634
482.9687, 1139.488
483.4508, 1143.488
483.9329, 1146.860
484.4150, 1151.292
484.8971, 1159.161
485.3792, 1165.962
485.8614, 1169.923
486.3435, 1171.330
486.8256, 1174.436
487.3077, 1180.318
487.7898, 1186.582
488.2719, 1191.907
488.7541, 1195.710
489.2362, 1200.407
489.7183, 1206.875
490.2004, 1213.095
490.6825, 1215.482
491.1646, 1213.583
491.6468, 1212.620
492.1289, 1215.071
492.6110, 1219.043
493.0931, 1218.279
493.5752, 1212.829
494.0573, 1207.462
494.5395, 1206.246
495.0216, 1207.443
495.5037, 1207.376
495.9858, 1205.516
496.4679, 1202.992
496.9500, 1201.617
497.4322, 1200.165
497.9143, 1196.619
498.3964, 1188.266
498.8785, 1179.337
499.3606, 1172.645
499.8427, 1167.582
500.3249, 1161.727
500.8070, 1153.481
501.2891, 1144.753
501.7712, 1136.809
502.2533, 1130.602
502.7354, 1122.846
503.2176, 1111.104
503.6997, 1098.876
504.1818, 1089.844
504.6639, 1085.940
505.1460, 1081.619
505.6281, 1076.032
506.1103, 1069.415
506.5924, 1063.143
507.0745, 1057.606
507.5566, 1051.004
508.0387, 1041.735
508.5208, 1029.999
509.0030, 1019.977
509.4851, 1011.849
509.9672, 1004.460
510.4493, 996.3233
510.9314, 987.8726
511.4135, 980.5671
511.8957, 974.9988
512.3778, 970.5179
512.8599, 967.4983
513.3420, 965.1637
513.8242, 961.2306
514.3063, 951.7209
514.7884, 942.0712
515.2705, 937.4079
515.7526, 938.1133
516.2347, 937.8185
516.7169, 933.4824
517.1990, 927.4399
517.6811, 921.4238
518.1632, 915.2383
518.6453, 909.7153
519.1274, 905.1731
519.6096, 901.2667
520.0917, 897.4559
520.5738, 893.6823
521.0559, 890.0837
521.5380, 886.5432
522.0201, 883.1116
522.5023, 881.0463
522.9844, 881.0344
523.4665, 880.4212
523.9486, 876.5863
524.4307, 869.7427
524.9128, 864.6296
525.3950, 861.8000
525.8771, 860.2755
526.3592, 859.4959
526.8413, 859.1032
527.3234, 857.7137
527.8055, 854.2171
528.2877, 850.0701
528.7698, 846.9244
529.2519, 844.6060
529.7340, 842.2629
530.2161, 839.3013
530.6982, 836.2236
531.1804, 833.3433
531.6625, 830.7696
532.1446, 828.3255
532.6267, 825.3727
533.1088, 822.8495
533.5909, 821.6666
534.0731, 823.4916
534.5552, 824.7553
535.0373, 825.1394
535.5194, 824.8177
536.0015, 824.1614
536.4836, 822.9553
536.9658, 821.7919
537.4479, 820.3754
537.9300, 818.8198
538.4121, 820.8651
538.8942, 827.4408
539.3763, 833.6185
539.8585, 833.8448
540.3406, 829.4568
540.8227, 828.5363
541.3048, 832.6334
541.7869, 838.4198
542.2690, 842.8090
542.7512, 845.6806
543.2333, 846.6931
543.7154, 842.9370
544.1975, 839.5809
544.6796, 842.4088
545.1617, 849.8925
545.6439, 855.1863
546.1260, 852.3195
546.6081, 848.5089
547.0902, 848.1500
547.5723, 852.5267
548.0544, 856.9583
548.5366, 862.4069
549.0187, 866.7316
549.5008, 867.8525
549.9829, 862.7202
550.4650, 860.0695
550.9471, 861.6100
551.4293, 865.5211
551.9114, 867.4846
552.3935, 867.1502
552.8756, 866.5342
553.3577, 866.0310
553.8398, 865.8707
554.3220, 867.6508
554.8041, 871.4557
555.2862, 874.9262
555.7683, 876.1107
556.2504, 875.6816
556.7325, 875.0291
557.2147, 874.3766
557.6968, 873.2652
558.1789, 871.2817
558.6610, 868.5823
559.1431, 865.4215
559.6252, 860.9656
560.1074, 857.0134
560.5895, 854.5943
561.0716, 853.2930
561.5537, 851.7760
562.0358, 849.1360
562.5179, 846.8440
563.0001, 845.7719
563.4822, 846.1714
563.9643, 844.9709
564.4464, 840.9568
564.9285, 837.0563
565.4106, 835.7458
565.8928, 837.5511
566.3749, 838.4114
566.8570, 837.8363
567.3391, 836.6569
567.8212, 835.8934
568.3033, 835.5707
568.7855, 835.9678
569.2676, 837.5468
569.7497, 839.5191
570.2318, 840.7218
570.7139, 841.2659
571.1960, 841.7418
571.6782, 841.9504
572.1603, 842.5861
572.6424, 844.2169
573.1245, 846.9225
573.6066, 850.2897
574.0887, 854.4349
574.5709, 859.0477
575.0530, 863.9358
575.5351, 869.6952
576.0172, 874.9271
576.4993, 879.6565
576.9814, 883.8370
577.4636, 887.0260
577.9457, 888.3180
578.4278, 891.0740
578.9099, 896.3334
579.3920, 903.5000
579.8741, 910.2950
580.3563, 916.6115
580.8384, 923.6029
581.3205, 933.1602
581.8026, 943.9294
582.2847, 951.2331
582.7668, 954.9289
583.2490, 957.5685
583.7311, 960.5870
584.2131, 964.0746
584.6953, 968.2791
585.1774, 973.4871
585.6595, 978.8034
586.1416, 984.1747
586.6237, 989.2468
587.1058, 993.5726
