##NAMES=Allanite-(Ce)
##RRUFFID=R080044
##IDEAL CHEMISTRY=CaCeAl_2_Fe^2+^(Si_2_O_7_)(SiO_4_)O(OH)
##LOCALITY=Aquarius Range, Mohave County, Arizona, USA
##OWNER=RRUFF
##SOURCE=John Weber
##DESCRIPTION=Dark brown fragment from metamict sample R060418, after heating at T = 850 C for 18 hours
##STATUS=The identification of this mineral has been confirmed only by X-ray diffraction
##URL=rruff.info/R080044
198.4863, 847.6418
198.9684, 845.9335
199.4506, 844.7003
199.9327, 843.7925
200.4148, 843.9318
200.8969, 847.7637
201.3790, 856.2322
201.8611, 863.5671
202.3433, 866.1111
202.8254, 863.5319
203.3075, 859.7535
203.7896, 853.6300
204.2717, 847.7127
204.7538, 850.3227
205.2360, 863.9183
205.7181, 876.8736
206.2002, 881.6393
206.6823, 876.9191
207.1644, 872.2168
207.6465, 867.6174
208.1287, 863.8454
208.6108, 863.0390
209.0929, 865.4555
209.5750, 870.0690
210.0571, 878.1728
210.5392, 892.3337
211.0214, 897.0436
211.5035, 886.3199
211.9856, 866.7841
212.4677, 863.1151
212.9498, 881.6179
213.4319, 901.8867
213.9140, 910.6442
214.3962, 903.8091
214.8783, 900.2975
215.3604, 902.3984
215.8425, 908.9075
216.3246, 915.3329
216.8067, 922.4855
217.2889, 928.1154
217.7710, 930.0109
218.2531, 925.6462
218.7352, 925.3482
219.2173, 931.7415
219.6994, 942.9055
220.1816, 949.0165
220.6637, 947.5058
221.1458, 945.5197
221.6279, 948.1910
222.1100, 958.6417
222.5921, 965.2782
223.0743, 965.6750
223.5564, 961.4969
224.0385, 960.7690
224.5206, 965.0420
225.0027, 970.3445
225.4848, 974.4474
225.9670, 977.3782
226.4491, 979.0897
226.9312, 979.8796
227.4133, 979.5192
227.8954, 976.2950
228.3775, 967.9269
228.8597, 960.1259
229.3418, 957.4238
229.8239, 964.7631
230.3060, 965.3598
230.7881, 955.1277
231.2702, 936.8143
231.7524, 923.7305
232.2345, 916.6612
232.7166, 913.7969
233.1987, 915.0081
233.6808, 923.7387
234.1629, 928.7044
234.6451, 927.8001
235.1272, 922.4938
235.6093, 919.5686
236.0914, 921.3969
236.5735, 922.3598
237.0556, 919.0032
237.5378, 908.8008
238.0199, 899.8666
238.5020, 893.0782
238.9841, 887.8751
239.4662, 882.2086
239.9483, 875.7762
240.4305, 869.3408
240.9126, 863.1407
241.3947, 856.7620
241.8768, 851.4821
242.3589, 846.8952
242.8410, 843.4701
243.3232, 843.4139
243.8053, 849.9760
244.2874, 855.4160
244.7695, 855.4388
245.2516, 847.1286
245.7337, 839.7714
246.2159, 833.0762
246.6980, 827.5421
247.1801, 825.2683
247.6622, 828.3895
248.1443, 831.4785
248.6264, 831.6130
249.1086, 826.6176
249.5907, 824.0172
250.0728, 825.0152
250.5549, 828.1781
251.0370, 829.5603
251.5191, 828.0937
252.0013, 826.5754
252.4834, 826.5660
252.9655, 829.6229
253.4476, 829.7569
253.9297, 824.5297
254.4118, 817.4819
254.8940, 817.4042
255.3761, 829.2203
255.8582, 839.2963
256.3403, 841.1307
256.8224, 831.3494
257.3046, 824.6203
257.7867, 822.2065
258.2688, 822.0673
258.7509, 820.1271
259.2330, 815.3719
259.7151, 810.8853
260.1973, 807.6032
260.6794, 805.4244
261.1615, 805.3347
261.6436, 808.2090
262.1257, 812.4183
262.6078, 815.2555
263.0900, 816.4421
263.5721, 816.9158
264.0542, 816.9120
264.5363, 816.3897
265.0184, 815.4533
265.5005, 813.1457
265.9827, 811.5304
266.4648, 814.4092
266.9469, 823.8928
267.4290, 831.6733
267.9111, 834.8196
268.3932, 832.9862
268.8754, 831.7374
269.3575, 831.1644
269.8396, 830.9973
270.3217, 831.3954
270.8038, 833.0173
271.2859, 832.3012
271.7681, 826.2888
272.2502, 815.3992
272.7323, 813.8624
273.2144, 824.8525
273.6965, 838.8007
274.1786, 845.2637
274.6608, 843.1516
275.1429, 839.5766
275.6250, 835.4658
276.1071, 831.1667
276.5892, 829.5471
277.0714, 831.1826
277.5535, 833.9362
278.0356, 836.0070
278.5177, 837.3698
278.9998, 838.2648
279.4819, 838.6980
279.9641, 838.7059
280.4462, 838.3500
280.9283, 837.5506
281.4104, 836.7095
281.8925, 836.5585
282.3746, 837.1328
282.8568, 835.7864
283.3389, 830.7010
283.8210, 824.5388
284.3031, 825.9371
284.7852, 835.7361
285.2673, 846.2252
285.7495, 852.4357
286.2316, 854.5574
286.7137, 853.9119
287.1958, 849.1021
287.6779, 843.9481
288.1600, 848.9480
288.6422, 864.3108
289.1243, 876.9386
289.6064, 874.7730
290.0885, 861.2927
290.5706, 855.3434
291.0527, 859.9185
291.5349, 869.2808
292.0170, 874.5582
292.4991, 876.0191
292.9812, 877.3534
293.4633, 881.9883
293.9454, 888.1867
294.4276, 889.4506
294.9097, 884.6134
295.3918, 878.4784
295.8739, 877.8649
296.3560, 881.6428
296.8381, 884.4205
297.3203, 881.4794
297.8024, 876.1674
298.2845, 876.3328
298.7666, 882.6036
299.2487, 889.5437
299.7308, 891.4606
300.2130, 889.6223
300.6951, 887.6350
301.1772, 886.6121
301.6593, 886.4266
302.1414, 888.1007
302.6235, 891.5269
303.1057, 892.8171
303.5878, 885.0594
304.0699, 873.1953
304.5520, 866.6923
305.0341, 871.4534
305.5162, 880.2594
305.9984, 886.1608
306.4805, 889.3923
306.9626, 891.9329
307.4447, 896.5053
307.9268, 900.7338
308.4089, 901.0089
308.8911, 894.1016
309.3732, 886.5836
309.8553, 882.7449
310.3374, 882.4425
310.8195, 885.1942
311.3016, 895.6651
311.7838, 906.4985
312.2659, 910.0358
312.7480, 901.3359
313.2301, 893.4863
313.7122, 896.1085
314.1943, 905.2337
314.6765, 912.4656
315.1586, 913.1790
315.6407, 911.4221
316.1228, 909.0017
316.6049, 905.5404
317.0870, 904.1388
317.5692, 906.4449
318.0513, 911.5820
318.5334, 918.3337
319.0155, 930.4324
319.4976, 940.5323
319.9797, 943.9958
320.4619, 939.8828
320.9440, 937.4309
321.4261, 938.9385
321.9082, 943.5613
322.3903, 950.5136
322.8724, 966.4744
323.3546, 977.8255
323.8367, 977.4929
324.3188, 966.0530
324.8009, 960.7119
325.2830, 970.4000
325.7651, 983.2784
326.2473, 991.6789
326.7294, 989.2596
327.2115, 988.8915
327.6936, 992.6074
328.1757, 999.6470
328.6578, 1006.262
329.1400, 1011.625
329.6221, 1017.256
330.1042, 1024.242
330.5863, 1037.682
331.0684, 1043.748
331.5505, 1036.371
332.0327, 1022.696
332.5148, 1019.212
332.9969, 1034.402
333.4790, 1048.389
333.9611, 1054.298
334.4432, 1050.078
334.9254, 1045.618
335.4075, 1040.502
335.8896, 1035.491
336.3717, 1031.504
336.8538, 1028.273
337.3359, 1026.741
337.8180, 1027.040
338.3001, 1029.164
338.7823, 1034.858
339.2644, 1046.464
339.7465, 1056.967
340.2286, 1058.777
340.7107, 1050.615
341.1928, 1041.244
341.6750, 1031.857
342.1571, 1022.741
342.6392, 1015.771
343.1213, 1011.151
343.6034, 1007.318
344.0855, 1004.004
344.5677, 1001.115
345.0498, 994.6124
345.5319, 982.5715
346.0140, 969.1686
346.4961, 963.6559
346.9782, 965.7322
347.4604, 967.4169
347.9425, 962.2072
348.4246, 952.6263
348.9067, 949.7816
349.3888, 955.6809
349.8709, 961.2169
350.3531, 952.0153
350.8352, 932.0693
351.3173, 916.2676
351.7994, 914.8096
352.2815, 920.1132
352.7636, 918.6731
353.2458, 910.4791
353.7279, 902.4229
354.2100, 902.3006
354.6921, 905.9911
355.1742, 906.2431
355.6563, 899.0732
356.1385, 889.3981
356.6206, 880.0642
357.1027, 871.5710
357.5848, 866.5877
358.0669, 870.7879
358.5490, 877.1419
359.0312, 878.3073
359.5133, 870.4064
359.9954, 862.8002
360.4775, 861.8168
360.9596, 865.0683
361.4417, 867.4834
361.9239, 868.3477
362.4060, 866.8320
362.8881, 861.6323
363.3702, 851.7751
363.8523, 842.8625
364.3344, 837.1981
364.8166, 833.2677
365.2987, 829.3113
365.7808, 822.3212
366.2629, 817.9755
366.7450, 818.5117
367.2271, 823.9291
367.7093, 829.7890
368.1914, 840.0160
368.6735, 847.7350
369.1556, 848.3961
369.6377, 833.5665
370.1198, 822.0002
370.6020, 814.7674
371.0841, 811.3350
371.5662, 809.7970
372.0483, 809.9286
372.5304, 812.2356
373.0125, 817.6012
373.4947, 828.2433
373.9768, 835.4395
374.4589, 838.7596
374.9410, 839.0599
375.4231, 836.8229
375.9052, 830.1514
376.3874, 826.4447
376.8695, 829.5228
377.3516, 839.1495
377.8337, 842.1776
378.3158, 836.9318
378.7979, 829.9603
379.2801, 828.3037
379.7622, 832.2503
380.2443, 835.0733
380.7264, 835.5576
381.2085, 834.0462
381.6906, 830.5303
382.1728, 824.9500
382.6549, 820.5052
383.1370, 819.0167
383.6191, 820.4053
384.1012, 825.4719
384.5833, 835.3915
385.0655, 845.3347
385.5476, 847.4672
386.0297, 843.7277
386.5118, 841.0662
386.9939, 845.6007
387.4760, 852.0822
387.9582, 851.1744
388.4403, 842.6235
388.9224, 835.4689
389.4045, 838.4061
389.8866, 847.0084
390.3687, 855.2413
390.8509, 862.4006
391.3330, 867.1057
391.8151, 866.4484
392.2972, 861.8805
392.7793, 859.2845
393.2614, 864.8047
393.7436, 871.3348
394.2257, 873.1954
394.7078, 866.6991
395.1899, 862.0914
395.6720, 863.5755
396.1541, 869.1248
396.6363, 875.4861
397.1184, 882.7880
397.6005, 889.9125
398.0826, 897.2047
398.5647, 905.0523
399.0468, 909.6609
399.5290, 907.4838
400.0111, 903.6980
400.4932, 902.3988
400.9753, 903.5050
401.4574, 907.4617
401.9395, 917.1133
402.4217, 930.2513
402.9038, 935.2621
403.3859, 925.4215
403.8680, 917.3276
404.3501, 919.9832
404.8322, 937.3860
405.3144, 951.6042
405.7965, 962.2905
406.2786, 970.0239
406.7607, 974.8477
407.2428, 976.0872
407.7249, 978.1809
408.2071, 983.1812
408.6892, 990.4042
409.1713, 995.0206
409.6534, 996.6874
410.1355, 997.7988
410.6176, 1000.672
411.0998, 1005.006
411.5819, 1009.070
412.0640, 1012.632
412.5461, 1015.592
413.0282, 1017.167
413.5103, 1017.700
413.9925, 1019.246
414.4746, 1025.643
414.9567, 1032.972
415.4388, 1033.719
415.9209, 1026.575
416.4030, 1019.638
416.8852, 1019.266
417.3673, 1023.685
417.8494, 1029.938
418.3315, 1040.753
418.8136, 1049.895
419.2957, 1052.627
419.7779, 1049.679
420.2600, 1046.060
420.7421, 1041.936
421.2242, 1039.314
421.7063, 1040.276
422.1884, 1048.495
422.6706, 1054.031
423.1527, 1052.099
423.6348, 1046.165
424.1169, 1042.757
424.5990, 1046.564
425.0811, 1049.396
425.5633, 1047.307
426.0454, 1038.773
426.5275, 1036.031
427.0096, 1042.988
427.4917, 1052.599
427.9738, 1059.408
428.4560, 1063.626
428.9381, 1064.353
429.4202, 1060.325
429.9023, 1052.971
430.3844, 1046.823
430.8665, 1042.028
431.3487, 1038.142
431.8308, 1034.382
432.3129, 1030.593
432.7950, 1031.412
433.2771, 1038.552
433.7592, 1045.846
434.2414, 1043.082
434.7235, 1031.338
435.2056, 1023.898
435.6877, 1027.228
436.1698, 1035.916
436.6519, 1038.053
437.1341, 1033.940
437.6162, 1029.187
438.0983, 1027.498
438.5804, 1028.045
439.0625, 1029.504
439.5446, 1031.742
440.0268, 1034.581
440.5089, 1039.348
440.9910, 1044.568
441.4731, 1047.177
441.9552, 1041.132
442.4373, 1035.730
442.9195, 1038.651
443.4016, 1049.822
443.8837, 1058.780
444.3658, 1059.143
444.8479, 1056.692
445.3300, 1055.985
445.8122, 1060.393
446.2943, 1063.333
446.7764, 1062.431
447.2585, 1059.222
447.7406, 1057.648
448.2227, 1058.214
448.7049, 1060.276
449.1870, 1064.977
449.6691, 1073.740
450.1512, 1075.664
450.6333, 1065.339
451.1154, 1054.066
451.5976, 1054.120
452.0797, 1070.449
452.5618, 1081.462
453.0439, 1082.933
453.5260, 1077.453
454.0081, 1072.117
454.4903, 1066.626
454.9724, 1063.199
455.4545, 1063.615
455.9366, 1067.418
456.4187, 1072.584
456.9008, 1079.685
457.3830, 1084.371
457.8651, 1079.541
458.3472, 1067.651
458.8293, 1056.777
459.3114, 1049.257
459.7935, 1044.191
460.2757, 1041.725
460.7578, 1041.186
461.2399, 1039.167
461.7220, 1031.944
462.2041, 1023.127
462.6862, 1016.674
463.1684, 1013.917
463.6505, 1010.175
464.1326, 1001.187
464.6147, 990.4467
465.0968, 982.3281
465.5789, 982.2256
466.0611, 981.0261
466.5432, 975.0199
467.0253, 964.7086
467.5074, 956.0209
467.9895, 949.8433
468.4716, 945.2934
468.9538, 942.1811
469.4359, 941.5904
469.9180, 940.0871
470.4001, 937.2101
470.8822, 933.7015
471.3643, 931.3012
471.8465, 931.6839
472.3286, 927.8779
472.8107, 915.9609
473.2928, 898.2555
473.7749, 887.8113
474.2570, 885.4424
474.7392, 886.4186
475.2213, 888.2701
475.7034, 890.7681
476.1855, 892.3550
476.6676, 892.8510
477.1497, 892.5006
477.6319, 891.8307
478.1140, 890.6436
478.5961, 888.2538
479.0782, 883.1578
479.5603, 877.4549
480.0424, 873.5760
480.5246, 871.3759
481.0067, 869.7911
481.4888, 866.7150
481.9709, 864.7215
482.4530, 867.4600
482.9352, 879.6838
483.4173, 886.4221
483.8994, 875.3450
484.3815, 856.4324
484.8636, 845.0003
485.3457, 848.2962
485.8279, 855.5004
486.3100, 867.0970
486.7921, 882.9141
487.2742, 889.9879
487.7563, 881.6751
488.2384, 871.4586
488.7206, 867.0964
489.2027, 871.4525
489.6848, 873.8185
490.1669, 873.1592
490.6490, 871.4804
491.1311, 872.6860
491.6133, 877.4964
492.0954, 879.9385
492.5775, 876.9031
493.0596, 870.4200
493.5417, 868.4568
494.0238, 871.0593
494.5060, 874.5092
494.9881, 876.1470
495.4702, 876.4858
495.9523, 877.1143
496.4344, 878.4636
496.9165, 878.9455
497.3987, 875.3110
497.8808, 869.8143
498.3629, 866.7861
498.8450, 871.5147
499.3271, 876.3508
499.8092, 875.0443
500.2914, 868.8251
500.7735, 864.6375
501.2556, 868.0771
501.7377, 872.1783
502.2198, 872.0947
502.7019, 864.0474
503.1841, 860.3230
503.6662, 866.5156
504.1483, 876.1378
504.6304, 881.6091
505.1125, 880.7950
505.5946, 879.1925
506.0768, 877.4986
506.5589, 875.6431
507.0410, 872.9385
507.5231, 868.7092
508.0052, 865.5032
508.4873, 865.7574
508.9695, 869.5163
509.4516, 868.7592
509.9337, 862.5438
510.4158, 855.5212
510.8979, 852.4334
511.3800, 852.9954
511.8622, 856.6637
512.3443, 865.3154
512.8264, 874.0072
513.3085, 876.0440
513.7906, 872.4658
514.2728, 866.9892
514.7549, 859.7859
515.2370, 852.8519
515.7191, 847.6571
516.2012, 844.2991
516.6833, 843.0048
517.1655, 845.2826
517.6476, 848.8958
518.1297, 851.9454
518.6118, 854.2899
519.0939, 855.7460
519.5760, 855.4323
520.0582, 854.2459
520.5403, 854.4414
521.0224, 858.1865
521.5045, 860.2551
521.9866, 858.8793
522.4688, 854.0435
522.9509, 849.2719
523.4330, 844.2150
523.9151, 839.9284
524.3972, 837.4858
524.8793, 836.9339
525.3615, 836.2313
525.8436, 835.1268
526.3257, 833.9741
526.8078, 833.4990
527.2899, 833.5208
527.7720, 833.1293
528.2542, 831.0200
528.7363, 829.0472
529.2184, 830.0488
529.7005, 833.6238
530.1826, 837.6365
530.6647, 841.0084
531.1469, 844.1062
531.6290, 847.6527
532.1111, 852.1328
532.5932, 855.0504
533.0753, 853.7157
533.5574, 851.0864
534.0396, 850.2504
534.5217, 854.2607
535.0038, 857.1441
535.4859, 857.3369
535.9680, 855.7795
536.4501, 855.3359
536.9323, 855.7994
537.4144, 857.7892
537.8965, 862.2983
538.3786, 869.4311
538.8607, 873.4250
539.3428, 873.6558
539.8250, 872.5382
540.3071, 872.1679
540.7892, 872.4480
541.2713, 872.4618
541.7534, 872.0557
542.2355, 871.3705
542.7177, 869.0248
543.1998, 866.2570
543.6819, 867.1080
544.1640, 879.7087
544.6461, 892.3491
545.1282, 890.7895
545.6104, 877.5560
546.0925, 868.4025
546.5746, 875.2275
547.0567, 886.2982
547.5388, 893.7234
548.0209, 895.1657
548.5031, 897.0842
548.9852, 903.5934
549.4673, 909.9208
549.9494, 910.8145
550.4315, 900.7171
550.9136, 893.6543
551.3958, 890.6929
551.8779, 891.7722
552.3600, 897.9487
552.8421, 911.3673
553.3242, 922.5060
553.8063, 927.4418
554.2885, 926.5871
554.7706, 921.3331
555.2527, 911.0609
555.7348, 902.9416
556.2169, 905.9066
556.6990, 915.7933
557.1812, 921.7812
557.6633, 921.7570
558.1454, 919.2518
558.6275, 917.7269
559.1096, 916.1075
559.5917, 912.4506
560.0739, 901.3867
560.5560, 892.4907
561.0381, 891.6174
561.5202, 897.3583
562.0023, 903.2944
562.4844, 908.5500
562.9666, 913.0184
563.4487, 917.3054
563.9308, 922.4523
564.4129, 922.1832
564.8950, 913.3834
565.3771, 902.5540
565.8593, 893.9758
566.3414, 886.6494
566.8235, 886.7414
567.3056, 897.0099
567.7877, 911.6307
568.2698, 920.6797
568.7520, 924.3740
569.2341, 924.8768
569.7162, 921.7486
570.1983, 916.8586
570.6804, 912.4459
571.1625, 908.8553
571.6447, 908.2118
572.1268, 914.3387
572.6089, 922.6895
573.0910, 929.0689
573.5731, 933.0425
574.0552, 935.1991
574.5374, 933.8881
575.0195, 931.8795
575.5016, 931.7513
575.9837, 937.9662
576.4658, 941.0778
576.9479, 937.1532
577.4301, 930.2841
577.9122, 928.7522
578.3943, 935.1442
578.8764, 941.6025
579.3585, 945.6232
579.8406, 947.7894
580.3228, 952.3839
580.8049, 959.5996
581.2870, 967.9370
581.7691, 978.1962
582.2512, 989.0723
582.7333, 994.9578
583.2155, 995.2912
583.6975, 993.3239
584.1796, 989.9457
584.6617, 986.8874
585.1439, 987.5494
585.6260, 995.7291
586.1081, 1002.640
586.5902, 1000.676
587.0723, 993.8739
587.5544, 990.0550
588.0366, 992.3884
588.5187, 997.0103
589.0008, 1004.322
589.4829, 1013.919
589.9650, 1019.592
590.4471, 1018.341
590.9293, 1017.002
591.4114, 1018.892
591.8935, 1024.477
592.3756, 1030.545
592.8577, 1038.085
593.3398, 1043.425
593.8220, 1040.781
594.3041, 1031.437
594.7862, 1026.017
595.2683, 1027.580
595.7504, 1030.682
596.2325, 1027.064
596.7147, 1019.216
597.1968, 1013.655
597.6789, 1015.128
598.1610, 1018.323
598.6431, 1020.327
599.1252, 1021.002
599.6074, 1019.924
600.0895, 1011.414
600.5716, 1005.804
601.0537, 1010.817
601.5358, 1031.335
602.0179, 1040.221
602.5001, 1028.365
602.9822, 1013.594
603.4643, 1009.864
603.9464, 1020.856
604.4285, 1028.221
604.9106, 1030.427
605.3928, 1029.628
605.8749, 1028.538
606.3570, 1027.210
606.8391, 1026.258
607.3212, 1025.234
607.8033, 1025.470
608.2855, 1030.633
608.7676, 1039.246
609.2497, 1046.084
609.7318, 1048.227
610.2139, 1047.379
610.6960, 1043.473
611.1782, 1036.726
611.6603, 1031.853
612.1424, 1032.181
612.6245, 1033.634
613.1066, 1033.537
613.5887, 1030.259
614.0709, 1028.812
614.5530, 1029.637
615.0351, 1031.920
615.5172, 1035.181
615.9993, 1039.938
616.4814, 1043.661
616.9636, 1046.340
617.4457, 1047.305
617.9278, 1044.017
618.4099, 1036.959
618.8920, 1031.225
619.3741, 1029.230
619.8563, 1029.450
620.3384, 1030.307
620.8205, 1031.625
621.3026, 1032.550
621.7847, 1033.074
622.2668, 1032.664
622.7490, 1030.085
623.2311, 1024.882
623.7132, 1021.890
624.1953, 1023.985
624.6774, 1027.690
625.1595, 1030.690
625.6417, 1033.394
626.1238, 1034.432
626.6059, 1033.054
627.0880, 1030.865
627.5701, 1030.142
628.0522, 1031.084
628.5344, 1031.225
629.0165, 1029.056
629.4986, 1027.286
629.9807, 1033.788
630.4628, 1046.640
630.9449, 1055.349
631.4271, 1051.045
631.9092, 1042.412
632.3913, 1037.656
632.8734, 1036.735
633.3555, 1039.002
633.8376, 1050.164
634.3198, 1059.661
634.8019, 1059.171
635.2840, 1044.835
635.7661, 1036.896
636.2482, 1042.676
636.7303, 1051.038
637.2125, 1054.051
637.6946, 1048.676
638.1767, 1046.909
638.6588, 1049.645
639.1409, 1055.313
639.6230, 1063.754
640.1052, 1074.519
640.5873, 1079.162
641.0694, 1073.474
641.5515, 1064.208
642.0336, 1061.297
642.5157, 1063.271
642.9979, 1065.827
643.4800, 1066.771
643.9621, 1067.588
644.4442, 1070.993
644.9263, 1075.946
645.4084, 1076.309
645.8906, 1062.365
646.3727, 1050.127
646.8548, 1048.310
647.3369, 1058.469
647.8190, 1066.842
648.3011, 1073.855
648.7833, 1078.339
649.2654, 1078.528
649.7475, 1073.960
650.2296, 1071.080
650.7117, 1070.636
651.1938, 1070.373
651.6760, 1066.194
652.1581, 1059.766
652.6402, 1056.712
653.1223, 1059.677
653.6044, 1063.931
654.0865, 1066.353
654.5687, 1066.882
655.0508, 1065.456
655.5329, 1060.321
656.0150, 1054.988
656.4971, 1049.016
656.9792, 1043.404
657.4614, 1043.345
657.9435, 1054.609
658.4256, 1063.387
658.9077, 1063.890
659.3898, 1056.623
659.8719, 1055.021
660.3541, 1060.307
660.8362, 1065.502
661.3183, 1065.630
661.8004, 1061.583
662.2825, 1055.964
662.7646, 1048.735
663.2468, 1043.217
663.7289, 1044.840
664.2110, 1048.970
664.6931, 1049.772
665.1752, 1046.029
665.6573, 1038.695
666.1395, 1022.682
666.6216, 1005.388
667.1037, 995.9179
667.5858, 1002.977
668.0679, 1008.570
668.5500, 1010.375
669.0322, 1010.369
669.5143, 1013.789
669.9964, 1022.177
670.4785, 1026.276
670.9606, 1021.901
671.4427, 1012.247
671.9249, 1005.753
672.4070, 1002.186
672.8891, 999.9899
673.3712, 997.3724
673.8533, 996.1767
674.3354, 1000.581
674.8176, 1009.857
675.2997, 1015.876
675.7818, 1010.596
676.2639, 1003.745
676.7460, 1002.392
677.2281, 1010.163
677.7103, 1011.695
678.1924, 1002.665
678.6745, 991.1758
679.1566, 982.2140
679.6387, 975.1679
680.1208, 974.9517
680.6030, 984.0505
681.0851, 994.0804
681.5672, 994.2753
682.0493, 986.2266
682.5314, 975.9001
683.0135, 963.0612
683.4957, 952.6066
683.9778, 951.8203
684.4599, 956.9767
684.9420, 961.0761
685.4241, 960.6406
685.9063, 959.6183
686.3884, 959.5849
686.8705, 960.1677
687.3526, 960.1734
687.8347, 962.2938
688.3168, 959.6993
688.7990, 948.7230
689.2811, 931.1008
689.7632, 919.3387
690.2453, 913.9260
690.7274, 911.1646
691.2095, 910.3875
691.6917, 910.5676
692.1738, 907.5667
692.6559, 901.5789
693.1380, 897.1771
693.6201, 900.5212
694.1022, 905.3991
694.5844, 905.0880
695.0665, 897.8292
