##NAMES=Allanite-(Ce)
##RRUFFID=R050043
##IDEAL CHEMISTRY=CaCeAl_2_Fe^2+^(Si_2_O_7_)(SiO_4_)O(OH)
##LOCALITY=Arendal, Norway
##OWNER=RRUFF
##SOURCE=University of Arizona Mineral Museum
##DESCRIPTION=Black patially metamict fragment, note that a fragment of this sample was heated and is posted at R080092
##STATUS=The identification of this mineral has been confirmed by X-ray diffraction and chemical analysis
##URL=rruff.info/R050043
##MEASURED CHEMISTRY=Ca_1.00_(Ce^3+^_0.22_Ca_0.21_La_0.11_Nd_0.11_Mn_0.08_Gd_0.07_Th_0.06_Y_0.06_Ti_0.05_Mg_0.03_)_Σ=1_(Al_1.82_Fe^3+^_0.40_Fe^2+^_0.78_)_Σ=3_[Si_2.00_O_7_][Si_1.00_O_4_]O(OH)
184.1767, 2418.102
184.6588, 2409.961
185.1409, 2407.081
185.6230, 2421.245
186.1051, 2441.629
186.5873, 2455.470
187.0694, 2456.261
187.5515, 2448.777
188.0336, 2444.886
188.5157, 2442.608
188.9978, 2448.493
189.4800, 2471.405
189.9621, 2498.599
190.4442, 2516.817
190.9263, 2519.784
191.4084, 2512.389
191.8905, 2505.467
192.3727, 2495.781
192.8548, 2493.007
193.3369, 2503.068
193.8190, 2517.513
194.3011, 2527.971
194.7832, 2531.078
195.2654, 2530.299
195.7475, 2532.696
196.2296, 2538.023
196.7117, 2547.617
197.1938, 2566.428
197.6759, 2586.246
198.1581, 2599.849
198.6402, 2604.874
199.1223, 2604.138
199.6044, 2601.791
200.0865, 2593.645
200.5686, 2592.855
201.0508, 2611.621
201.5329, 2630.129
202.0150, 2628.468
202.4971, 2602.585
202.9792, 2570.263
203.4613, 2562.765
203.9435, 2598.387
204.4256, 2617.528
204.9077, 2607.747
205.3898, 2590.109
205.8719, 2576.988
206.3540, 2571.581
206.8362, 2571.355
207.3183, 2573.543
207.8004, 2579.689
208.2825, 2584.254
208.7646, 2587.627
209.2467, 2589.353
209.7289, 2586.033
210.2110, 2579.028
210.6931, 2575.707
211.1752, 2588.064
211.6573, 2625.646
212.1395, 2642.888
212.6216, 2624.475
213.1037, 2600.360
213.5858, 2580.319
214.0679, 2567.298
214.5500, 2562.983
215.0322, 2571.280
215.5143, 2595.337
215.9964, 2610.759
216.4785, 2609.594
216.9606, 2607.372
217.4427, 2610.848
217.9249, 2618.603
218.4070, 2624.913
218.8891, 2624.545
219.3712, 2617.254
219.8533, 2612.239
220.3354, 2611.200
220.8176, 2610.937
221.2997, 2612.014
221.7818, 2613.210
222.2639, 2612.173
222.7460, 2606.852
223.2281, 2597.798
223.7103, 2591.333
224.1924, 2585.369
224.6745, 2584.919
225.1566, 2594.929
225.6387, 2610.303
226.1208, 2624.236
226.6030, 2633.034
227.0851, 2636.824
227.5672, 2635.658
228.0493, 2622.967
228.5314, 2614.161
229.0135, 2612.599
229.4957, 2615.762
229.9778, 2620.910
230.4599, 2626.833
230.9420, 2633.756
231.4241, 2642.851
231.9062, 2657.973
232.3884, 2668.235
232.8705, 2671.807
233.3526, 2671.010
233.8347, 2666.568
234.3168, 2658.946
234.7989, 2650.869
235.2811, 2647.059
235.7632, 2648.542
236.2453, 2652.127
236.7274, 2661.276
237.2095, 2669.634
237.6916, 2672.938
238.1738, 2670.399
238.6559, 2664.212
239.1380, 2654.442
239.6201, 2636.742
240.1022, 2632.016
240.5843, 2655.357
241.0665, 2680.056
241.5486, 2694.522
242.0307, 2697.903
242.5128, 2694.897
242.9949, 2687.857
243.4770, 2675.966
243.9592, 2669.944
244.4413, 2675.376
244.9234, 2681.774
245.4055, 2684.965
245.8876, 2685.859
246.3697, 2687.940
246.8519, 2696.020
247.3340, 2708.333
247.8161, 2707.286
248.2982, 2677.121
248.7803, 2654.717
249.2624, 2655.149
249.7446, 2670.554
250.2267, 2689.371
250.7088, 2708.131
251.1909, 2723.434
251.6730, 2722.760
252.1551, 2694.076
252.6373, 2674.084
253.1194, 2678.828
253.6015, 2695.478
254.0836, 2711.966
254.5657, 2724.774
255.0478, 2732.722
255.5300, 2732.723
256.0121, 2722.742
256.4942, 2712.494
256.9763, 2701.611
257.4584, 2693.370
257.9406, 2689.520
258.4227, 2690.383
258.9048, 2697.800
259.3869, 2719.057
259.8690, 2755.306
260.3511, 2778.745
260.8333, 2778.153
261.3154, 2767.582
261.7975, 2754.271
262.2796, 2739.294
262.7617, 2728.056
263.2438, 2725.253
263.7260, 2729.866
264.2081, 2736.790
264.6902, 2748.530
265.1723, 2757.681
265.6544, 2757.152
266.1365, 2749.511
266.6187, 2743.182
267.1008, 2740.197
267.5829, 2741.547
268.0650, 2751.693
268.5471, 2774.032
269.0292, 2794.330
269.5114, 2803.323
269.9935, 2803.435
270.4756, 2796.494
270.9577, 2774.920
271.4398, 2753.066
271.9219, 2749.751
272.4041, 2765.529
272.8862, 2781.130
273.3683, 2786.657
273.8504, 2786.073
274.3325, 2787.753
274.8146, 2793.740
275.2968, 2798.962
275.7789, 2799.888
276.2610, 2797.147
276.7431, 2792.552
277.2252, 2784.995
277.7073, 2778.329
278.1895, 2778.783
278.6716, 2786.397
279.1537, 2798.077
279.6358, 2818.301
280.1179, 2840.639
280.6000, 2852.753
281.0822, 2851.157
281.5643, 2844.156
282.0464, 2839.885
282.5285, 2838.133
283.0106, 2842.122
283.4927, 2862.234
283.9749, 2881.918
284.4570, 2882.032
284.9391, 2862.641
285.4212, 2844.153
285.9033, 2844.192
286.3854, 2862.554
286.8676, 2873.516
287.3497, 2873.410
287.8318, 2870.244
288.3139, 2867.077
288.7960, 2863.927
289.2781, 2859.691
289.7603, 2853.248
290.2424, 2846.091
290.7245, 2844.854
291.2066, 2856.477
291.6887, 2865.031
292.1708, 2867.585
292.6530, 2865.976
293.1351, 2861.254
293.6172, 2853.917
294.0993, 2846.648
294.5814, 2844.444
295.0635, 2851.382
295.5457, 2855.862
296.0278, 2856.250
296.5099, 2855.535
296.9920, 2855.183
297.4741, 2855.708
297.9562, 2857.812
298.4384, 2863.102
298.9205, 2873.049
299.4026, 2875.683
299.8847, 2865.285
300.3668, 2853.542
300.8489, 2839.325
301.3311, 2826.943
301.8131, 2824.936
302.2953, 2840.305
302.7774, 2869.053
303.2595, 2891.006
303.7416, 2905.634
304.2237, 2913.202
304.7058, 2910.395
305.1880, 2902.922
305.6701, 2897.078
306.1522, 2895.257
306.6343, 2894.423
307.1164, 2887.690
307.5985, 2871.258
308.0807, 2863.265
308.5628, 2875.406
309.0449, 2891.252
309.5270, 2902.589
310.0091, 2908.230
310.4912, 2909.471
310.9734, 2903.979
311.4555, 2892.948
311.9376, 2891.486
312.4197, 2910.021
312.9018, 2924.387
313.3839, 2914.107
313.8661, 2887.928
314.3482, 2868.962
314.8303, 2873.957
315.3124, 2889.725
315.7945, 2891.020
316.2766, 2875.013
316.7588, 2861.044
317.2409, 2859.388
317.7230, 2866.768
318.2051, 2878.943
318.6872, 2900.213
319.1693, 2917.713
319.6515, 2920.866
320.1336, 2911.613
320.6157, 2897.546
321.0978, 2878.959
321.5799, 2860.296
322.0620, 2846.914
322.5442, 2837.032
323.0263, 2838.252
323.5084, 2866.602
323.9905, 2901.396
324.4726, 2911.885
324.9547, 2893.073
325.4369, 2869.778
325.9190, 2867.164
326.4011, 2887.925
326.8832, 2896.130
327.3653, 2878.533
327.8474, 2861.058
328.3296, 2859.760
328.8117, 2871.147
329.2938, 2883.022
329.7759, 2888.477
330.2580, 2888.576
330.7401, 2887.944
331.2223, 2891.812
331.7044, 2888.376
332.1865, 2867.057
332.6686, 2842.075
333.1507, 2831.220
333.6328, 2839.084
334.1150, 2852.771
334.5971, 2851.782
335.0792, 2826.611
335.5613, 2812.719
336.0434, 2814.716
336.5255, 2822.415
337.0077, 2834.206
337.4898, 2847.627
337.9719, 2858.105
338.4540, 2861.518
338.9361, 2858.624
339.4182, 2856.129
339.9004, 2853.900
340.3825, 2852.370
340.8646, 2852.973
341.3467, 2853.793
341.8288, 2852.422
342.3109, 2847.893
342.7931, 2841.194
343.2752, 2832.176
343.7573, 2819.759
344.2394, 2812.979
344.7215, 2819.643
345.2036, 2828.296
345.6858, 2828.626
346.1679, 2820.384
346.6500, 2813.188
347.1321, 2815.872
347.6142, 2824.196
348.0963, 2825.203
348.5785, 2815.425
349.0606, 2805.205
349.5427, 2803.899
350.0248, 2808.840
350.5069, 2812.363
350.9890, 2814.623
351.4712, 2813.812
351.9533, 2804.754
352.4354, 2789.759
352.9175, 2782.336
353.3996, 2791.857
353.8817, 2809.400
354.3639, 2809.432
354.8460, 2781.591
355.3281, 2761.918
355.8102, 2760.527
356.2923, 2770.533
356.7744, 2788.403
357.2566, 2812.267
357.7387, 2831.277
358.2208, 2831.500
358.7029, 2807.219
359.1850, 2796.299
359.6671, 2810.645
360.1493, 2824.468
360.6314, 2824.452
361.1135, 2814.905
361.5956, 2807.258
362.0777, 2808.543
362.5598, 2815.564
363.0420, 2816.664
363.5241, 2809.729
364.0062, 2799.691
364.4883, 2783.260
364.9704, 2766.770
365.4525, 2754.648
365.9347, 2748.185
366.4168, 2747.188
366.8989, 2755.158
367.3810, 2773.339
367.8631, 2779.722
368.3452, 2763.325
368.8274, 2746.913
369.3095, 2742.708
369.7916, 2747.364
370.2737, 2752.892
370.7558, 2758.113
371.2379, 2759.986
371.7201, 2747.934
372.2022, 2719.189
372.6843, 2704.153
373.1664, 2725.450
373.6485, 2762.290
374.1306, 2782.889
374.6128, 2783.710
375.0949, 2777.681
375.5770, 2768.824
376.0591, 2758.251
376.5412, 2747.190
377.0233, 2735.465
377.5055, 2726.605
377.9876, 2724.766
378.4697, 2730.840
378.9518, 2737.115
379.4339, 2746.532
379.9160, 2753.400
380.3982, 2753.010
380.8803, 2747.073
381.3624, 2740.132
381.8445, 2734.406
382.3266, 2730.212
382.8087, 2728.556
383.2909, 2735.539
383.7730, 2736.849
384.2551, 2722.324
384.7372, 2708.480
385.2193, 2712.129
385.7014, 2733.823
386.1836, 2758.320
386.6657, 2769.829
387.1478, 2767.745
387.6299, 2763.585
388.1120, 2758.909
388.5941, 2749.843
389.0763, 2731.061
389.5584, 2708.217
390.0405, 2689.219
390.5226, 2676.323
391.0047, 2671.456
391.4868, 2683.294
391.9690, 2715.000
392.4511, 2731.913
392.9332, 2714.570
393.4153, 2687.751
393.8974, 2674.246
394.3795, 2674.334
394.8617, 2679.615
395.3438, 2690.535
395.8259, 2702.468
396.3080, 2706.546
396.7901, 2701.627
397.2722, 2695.210
397.7544, 2690.851
398.2365, 2689.528
398.7186, 2694.205
399.2007, 2717.911
399.6828, 2732.958
400.1649, 2722.050
400.6471, 2696.949
401.1292, 2675.770
401.6113, 2664.364
402.0934, 2661.225
402.5755, 2664.901
403.0576, 2679.140
403.5398, 2688.718
404.0219, 2697.047
404.5040, 2698.414
404.9861, 2682.450
405.4682, 2656.874
405.9503, 2640.633
406.4325, 2646.854
406.9146, 2668.597
407.3967, 2680.543
407.8788, 2676.020
408.3609, 2675.376
408.8430, 2689.492
409.3252, 2704.178
409.8073, 2706.256
410.2894, 2694.410
410.7715, 2681.221
411.2536, 2678.141
411.7357, 2683.237
412.2179, 2686.774
412.7000, 2687.815
413.1821, 2688.020
413.6642, 2687.407
414.1463, 2686.842
414.6284, 2688.583
415.1106, 2696.716
415.5927, 2702.782
416.0748, 2697.009
416.5569, 2683.676
417.0390, 2677.764
417.5211, 2685.942
418.0033, 2697.514
418.4854, 2695.820
418.9675, 2675.688
419.4496, 2659.354
419.9317, 2647.994
420.4138, 2640.376
420.8960, 2636.133
421.3781, 2634.899
421.8602, 2636.198
422.3423, 2639.915
422.8244, 2645.537
423.3065, 2651.081
423.7887, 2659.332
424.2708, 2662.846
424.7529, 2656.470
425.2350, 2648.468
425.7171, 2645.862
426.1992, 2649.433
426.6814, 2654.734
427.1635, 2658.241
427.6456, 2659.978
428.1277, 2660.432
428.6098, 2661.438
429.0919, 2657.494
429.5741, 2638.023
430.0562, 2613.918
430.5383, 2602.824
431.0204, 2612.998
431.5025, 2628.020
431.9846, 2634.811
432.4668, 2635.246
432.9489, 2636.249
433.4310, 2639.926
433.9131, 2643.439
434.3952, 2643.140
434.8773, 2638.592
435.3595, 2634.489
435.8416, 2632.181
436.3237, 2629.389
436.8058, 2625.393
437.2879, 2619.766
437.7701, 2609.907
438.2522, 2593.832
438.7343, 2577.121
439.2164, 2574.819
439.6985, 2599.001
440.1806, 2616.294
440.6628, 2625.559
441.1449, 2629.177
441.6270, 2627.344
442.1091, 2621.078
442.5912, 2612.583
443.0733, 2602.692
443.5555, 2592.207
444.0376, 2584.181
444.5197, 2578.746
445.0018, 2575.408
445.4839, 2574.419
445.9660, 2575.291
446.4482, 2578.831
446.9303, 2585.787
447.4124, 2590.125
447.8945, 2587.365
448.3766, 2579.506
448.8587, 2567.956
449.3409, 2552.117
449.8230, 2543.537
450.3051, 2554.993
450.7872, 2583.419
451.2693, 2597.146
451.7514, 2584.932
452.2336, 2572.335
452.7157, 2566.022
453.1978, 2564.958
453.6799, 2570.686
454.1620, 2582.672
454.6441, 2591.639
455.1263, 2583.458
455.6084, 2552.873
456.0905, 2535.020
456.5726, 2541.912
457.0547, 2549.957
457.5368, 2551.867
458.0190, 2550.336
458.5011, 2550.511
458.9832, 2554.767
459.4653, 2560.484
459.9474, 2565.348
460.4295, 2569.412
460.9117, 2567.078
461.3938, 2553.131
461.8759, 2538.100
462.3580, 2530.677
462.8401, 2530.064
463.3222, 2533.069
463.8044, 2545.898
464.2865, 2556.453
464.7686, 2548.736
465.2507, 2527.965
465.7328, 2516.315
466.2149, 2524.627
466.6971, 2542.708
467.1792, 2550.430
467.6613, 2540.047
468.1434, 2535.399
468.6255, 2543.666
469.1076, 2551.339
469.5898, 2546.775
470.0719, 2533.914
470.5540, 2526.585
471.0361, 2534.806
471.5182, 2550.869
472.0003, 2550.084
472.4825, 2523.584
472.9646, 2504.467
473.4467, 2507.555
473.9288, 2514.832
474.4109, 2514.351
474.8930, 2506.113
475.3752, 2498.584
475.8573, 2498.571
476.3394, 2501.581
476.8215, 2497.216
477.3036, 2485.172
477.7857, 2481.295
478.2679, 2498.018
478.7500, 2524.196
479.2321, 2531.405
479.7142, 2512.410
480.1963, 2495.974
480.6784, 2485.743
481.1606, 2481.599
481.6427, 2487.284
482.1248, 2500.355
482.6069, 2510.001
483.0890, 2507.432
483.5711, 2495.511
484.0533, 2490.562
484.5354, 2499.332
485.0175, 2503.987
485.4996, 2501.565
485.9817, 2494.908
486.4638, 2481.666
486.9460, 2463.935
487.4281, 2454.607
487.9102, 2472.697
488.3923, 2506.525
488.8744, 2517.804
489.3565, 2502.560
489.8387, 2486.243
490.3208, 2482.762
490.8029, 2485.577
491.2850, 2479.623
491.7671, 2459.515
492.2492, 2446.211
492.7314, 2451.954
493.2135, 2465.373
493.6956, 2474.139
494.1777, 2476.966
494.6598, 2478.680
495.1419, 2483.321
495.6241, 2489.733
496.1062, 2490.421
496.5883, 2481.394
497.0704, 2471.910
497.5525, 2463.377
498.0346, 2454.418
498.5168, 2439.497
498.9989, 2420.695
499.4810, 2411.616
499.9631, 2429.919
500.4452, 2466.693
500.9273, 2487.504
501.4095, 2490.013
501.8916, 2486.077
502.3737, 2477.309
502.8558, 2466.967
503.3379, 2460.229
503.8200, 2457.799
504.3022, 2456.497
504.7843, 2456.513
505.2664, 2456.262
505.7485, 2453.342
506.2306, 2447.950
506.7127, 2442.724
507.1949, 2439.408
507.6770, 2437.638
508.1591, 2435.787
508.6412, 2431.726
509.1233, 2430.879
509.6054, 2436.479
510.0876, 2442.954
510.5697, 2446.402
511.0518, 2446.663
511.5339, 2445.707
512.0161, 2445.084
512.4982, 2444.180
512.9803, 2439.463
513.4624, 2429.262
513.9445, 2426.313
514.4266, 2440.692
514.9088, 2459.674
515.3909, 2466.191
515.8730, 2459.420
516.3551, 2451.964
516.8372, 2449.421
517.3193, 2446.550
517.8015, 2434.121
518.2836, 2415.785
518.7657, 2407.635
519.2478, 2419.254
519.7299, 2441.568
520.2120, 2452.902
520.6942, 2447.871
521.1763, 2441.795
521.6584, 2431.401
522.1405, 2423.144
522.6226, 2421.521
523.1047, 2424.906
523.5869, 2428.902
524.0690, 2431.459
524.5511, 2432.908
525.0332, 2434.645
525.5153, 2436.640
525.9974, 2433.486
526.4796, 2420.553
526.9617, 2407.531
527.4438, 2407.443
527.9259, 2418.425
528.4080, 2424.194
528.8901, 2417.156
529.3723, 2409.576
529.8544, 2409.299
530.3365, 2413.606
530.8186, 2417.056
531.3007, 2417.778
531.7828, 2417.251
532.2650, 2417.905
532.7471, 2420.566
533.2292, 2419.197
533.7113, 2410.566
534.1934, 2401.411
534.6755, 2393.293
535.1577, 2386.070
535.6398, 2377.702
536.1219, 2366.829
536.6040, 2362.026
537.0861, 2377.329
537.5682, 2405.324
538.0504, 2420.948
538.5325, 2420.235
539.0146, 2414.898
539.4967, 2413.029
539.9788, 2413.256
540.4609, 2408.879
540.9431, 2395.880
541.4252, 2384.269
541.9073, 2374.080
542.3894, 2367.441
542.8715, 2368.597
543.3536, 2376.304
543.8358, 2382.994
544.3179, 2381.755
544.8000, 2375.499
545.2821, 2379.967
545.7642, 2404.815
546.2463, 2413.686
546.7285, 2379.357
547.2106, 2338.885
547.6927, 2321.697
548.1748, 2327.318
548.6569, 2334.708
549.1390, 2333.143
549.6211, 2329.969
550.1032, 2335.706
550.5853, 2347.758
551.0674, 2353.733
551.5496, 2348.236
552.0317, 2336.946
552.5138, 2328.896
552.9959, 2324.996
553.4780, 2321.275
553.9601, 2314.753
554.4423, 2311.518
554.9244, 2318.487
555.4065, 2328.972
555.8886, 2331.259
556.3707, 2320.828
556.8528, 2308.038
557.3350, 2305.950
557.8171, 2313.282
558.2992, 2320.340
558.7813, 2327.271
559.2634, 2330.526
559.7455, 2325.773
560.2277, 2315.659
560.7098, 2309.005
561.1919, 2306.781
561.6740, 2306.397
562.1561, 2309.953
562.6382, 2313.186
563.1204, 2309.428
563.6025, 2299.737
564.0846, 2293.110
564.5667, 2296.979
565.0488, 2307.378
565.5309, 2308.194
566.0131, 2295.770
566.4952, 2282.987
566.9773, 2266.143
567.4594, 2254.529
567.9415, 2258.885
568.4236, 2275.352
568.9058, 2285.772
569.3879, 2278.243
569.8700, 2265.199
570.3521, 2259.717
570.8342, 2259.425
571.3163, 2255.994
571.7985, 2246.717
572.2806, 2234.874
572.7627, 2223.038
573.2448, 2209.891
573.7269, 2209.303
574.2090, 2239.958
574.6912, 2260.229
575.1733, 2252.506
575.6554, 2232.794
576.1375, 2219.496
576.6196, 2216.446
577.1017, 2214.034
577.5839, 2199.893
578.0660, 2179.433
578.5481, 2172.036
579.0302, 2179.074
579.5123, 2190.240
579.9944, 2204.472
580.4766, 2216.939
580.9587, 2215.770
581.4408, 2196.819
581.9229, 2184.251
582.4050, 2187.953
582.8871, 2193.127
583.3693, 2191.232
583.8514, 2182.828
584.3335, 2168.329
584.8156, 2147.861
585.2977, 2129.976
585.7798, 2132.010
586.2620, 2156.610
586.7441, 2169.265
587.2262, 2162.959
587.7083, 2153.550
588.1904, 2149.522
588.6725, 2148.488
589.1547, 2146.674
589.6368, 2143.241
590.1189, 2139.882
590.6010, 2138.709
591.0831, 2137.357
591.5652, 2131.327
592.0474, 2121.363
592.5295, 2113.492
593.0116, 2111.829
593.4937, 2114.826
593.9758, 2118.406
594.4579, 2125.261
594.9401, 2126.246
595.4222, 2114.737
595.9043, 2102.451
596.3864, 2094.598
596.8685, 2090.661
597.3506, 2088.958
597.8328, 2090.381
598.3149, 2090.914
598.7970, 2085.499
599.2791, 2076.471
599.7612, 2067.834
600.2433, 2060.304
600.7255, 2061.698
601.2076, 2082.079
601.6897, 2117.078
602.1718, 2130.879
602.6539, 2107.268
603.1360, 2083.641
603.6182, 2054.805
604.1003, 2033.208
604.5824, 2032.962
605.0645, 2049.843
605.5466, 2065.016
606.0287, 2068.384
606.5109, 2063.315
606.9930, 2051.964
607.4751, 2035.448
607.9572, 2023.212
608.4393, 2018.050
608.9214, 2015.700
609.4036, 2011.875
609.8857, 2006.568
610.3678, 2003.530
610.8499, 2003.166
611.3320, 2004.318
611.8141, 2010.178
612.2963, 2015.262
612.7784, 2012.486
613.2605, 2002.316
613.7426, 1992.361
614.2247, 1988.155
614.7068, 1988.405
615.1890, 1991.595
615.6711, 1998.051
616.1532, 1999.394
616.6353, 1991.136
617.1174, 1980.572
617.5995, 1974.831
618.0817, 1974.030
618.5638, 1978.566
619.0459, 1998.702
619.5280, 2012.340
620.0101, 2009.542
620.4922, 1996.114
620.9744, 1974.849
621.4565, 1949.121
621.9386, 1930.329
622.4207, 1930.214
622.9028, 1944.586
623.3849, 1958.676
623.8671, 1973.378
624.3492, 1982.066
624.8313, 1979.805
625.3134, 1974.012
625.7955, 1975.493
626.2776, 1983.721
626.7598, 1984.285
627.2419, 1966.718
627.7240, 1950.224
628.2061, 1946.014
628.6882, 1948.445
629.1703, 1948.899
629.6525, 1945.471
630.1346, 1942.091
630.6167, 1942.755
631.0988, 1946.758
631.5809, 1951.405
632.0630, 1958.679
632.5452, 1957.984
633.0273, 1937.703
633.5094, 1916.219
633.9915, 1919.011
634.4736, 1944.356
634.9557, 1956.469
635.4379, 1937.882
635.9200, 1915.214
636.4021, 1901.559
636.8842, 1894.286
637.3663, 1887.843
637.8484, 1881.276
638.3306, 1879.335
638.8127, 1888.728
639.2948, 1906.530
639.7769, 1914.445
640.2590, 1911.015
640.7411, 1902.391
641.2233, 1884.697
641.7054, 1867.961
642.1875, 1864.611
642.6696, 1873.357
643.1517, 1878.256
643.6339, 1873.797
644.1160, 1867.070
644.5981, 1859.469
645.0802, 1853.100
645.5623, 1851.583
646.0444, 1855.324
646.5266, 1861.301
647.0087, 1867.333
647.4908, 1872.870
647.9729, 1875.225
648.4550, 1874.141
648.9371, 1870.494
649.4193, 1861.729
649.9014, 1853.502
650.3835, 1853.945
650.8656, 1861.168
651.3477, 1861.183
651.8298, 1840.505
652.3120, 1824.794
652.7941, 1830.166
653.2762, 1845.645
653.7583, 1857.433
654.2404, 1862.931
654.7225, 1866.513
655.2047, 1872.254
655.6868, 1878.036
656.1689, 1874.550
656.6510, 1859.101
657.1331, 1851.955
657.6152, 1862.678
658.0974, 1875.158
658.5795, 1873.853
659.0616, 1861.547
659.5437, 1850.132
660.0258, 1839.473
660.5079, 1831.309
660.9901, 1828.805
661.4722, 1827.458
661.9543, 1818.962
662.4364, 1805.798
662.9185, 1802.070
663.4006, 1819.548
663.8828, 1845.286
664.3649, 1848.000
664.8470, 1826.704
665.3291, 1815.622
665.8112, 1822.679
666.2933, 1834.480
666.7755, 1844.081
667.2576, 1850.225
667.7397, 1848.223
668.2218, 1828.837
668.7039, 1816.383
669.1860, 1823.538
669.6682, 1832.771
670.1503, 1828.157
670.6324, 1813.356
671.1145, 1801.885
671.5966, 1800.488
672.0787, 1804.385
672.5609, 1807.291
673.0430, 1809.492
673.5251, 1813.566
674.0072, 1820.320
674.4893, 1825.991
674.9714, 1829.309
