##NAMES=Allactite
##RRUFFID=R070175
##IDEAL CHEMISTRY=Mn^2+^_7_(As^5+^O_4_)_2_(OH)_8_
##LOCALITY=Langban, Filipstad, Varmland, Sweden
##OWNER=Michael Scott
##SOURCE=Michael Scott
##DESCRIPTION=Brownish red vitreous massive
##STATUS=The identification of this mineral has been confirmed by X-ray diffraction and chemical analysis
##URL=rruff.info/R070175
##MEASURED CHEMISTRY=(Mn_6.85_Mg_0.10_Ca_0.05_)_Σ=7_(As_1.00_O_4_)_2_(OH)_8_ ;to (Mn_6.75_Mg_0.19_Ca_0.16_)_Σ=7_(As_1.00_O_4_)_2_(OH)_8_
103.4714, 26.08207
103.9535, 26.31227
104.4357, 27.30270
104.9178, 30.46770
105.3999, 33.87166
105.8820, 35.63684
106.3641, 34.84001
106.8462, 32.69347
107.3284, 31.76065
107.8105, 32.31434
108.2926, 33.79016
108.7747, 36.43402
109.2568, 39.60137
109.7389, 42.71472
110.2211, 45.53809
110.7032, 47.93533
111.1853, 49.22158
111.6674, 46.57216
112.1495, 46.18707
112.6316, 50.96881
113.1138, 58.49982
113.5959, 65.08437
114.0780, 68.26280
114.5601, 68.20993
115.0422, 68.28847
115.5243, 66.95774
116.0064, 67.29875
116.4886, 71.50894
116.9707, 78.21847
117.4528, 84.18817
117.9349, 86.65960
118.4170, 85.16988
118.8991, 87.10143
119.3813, 93.50775
119.8634, 101.4431
120.3455, 110.4769
120.8276, 120.1277
121.3097, 129.3123
121.7918, 136.9429
122.2740, 142.7041
122.7561, 149.1912
123.2382, 154.6704
123.7203, 162.0455
124.2024, 173.2186
124.6845, 188.4040
125.1667, 206.7552
125.6488, 228.0257
126.1309, 252.7880
126.6130, 277.5507
127.0951, 302.8138
127.5772, 327.6598
128.0594, 351.7168
128.5415, 375.0935
129.0236, 395.8977
129.5057, 410.2911
129.9878, 418.5330
130.4699, 428.6147
130.9521, 442.0940
131.4342, 458.2960
131.9163, 476.8721
132.3984, 498.4305
132.8805, 520.1564
133.3626, 537.8417
133.8448, 552.1101
134.3269, 568.2657
134.8090, 587.7247
135.2911, 610.4677
135.7732, 636.0474
136.2553, 663.9894
136.7375, 695.9697
137.2196, 733.0668
137.7017, 774.7627
138.1838, 821.3071
138.6659, 870.7591
139.1480, 924.5366
139.6302, 987.5074
140.1123, 1060.120
140.5944, 1145.312
141.0765, 1243.761
141.5586, 1355.287
142.0407, 1474.466
142.5229, 1605.576
143.0050, 1747.116
143.4871, 1869.903
143.9692, 1967.857
144.4513, 2044.419
144.9334, 2102.185
145.4156, 2141.829
145.8977, 2165.326
146.3798, 2168.628
146.8619, 2149.716
147.3440, 2137.283
147.8261, 2127.265
148.3083, 2131.407
148.7904, 2158.390
149.2725, 2207.835
149.7546, 2270.871
150.2367, 2338.661
150.7188, 2410.475
151.2010, 2491.167
151.6831, 2586.065
152.1652, 2686.320
152.6473, 2786.834
153.1294, 2887.474
153.6115, 2991.744
154.0937, 3108.131
154.5758, 3247.208
155.0579, 3362.352
155.5400, 3436.004
156.0221, 3498.687
156.5042, 3570.717
156.9864, 3653.236
157.4685, 3728.876
157.9506, 3779.344
158.4327, 3815.617
158.9148, 3793.692
159.3969, 3710.541
159.8791, 3582.268
160.3612, 3406.369
160.8433, 3187.970
161.3254, 2949.588
161.8075, 2719.926
162.2896, 2492.283
162.7718, 2290.843
163.2539, 2117.068
163.7360, 1963.737
164.2181, 1826.606
164.7002, 1704.496
165.1823, 1599.345
165.6645, 1514.796
166.1466, 1460.424
166.6287, 1408.598
167.1108, 1359.568
167.5929, 1312.417
168.0750, 1264.865
168.5572, 1217.089
169.0393, 1172.448
169.5214, 1136.067
170.0035, 1111.828
170.4856, 1088.678
170.9677, 1063.302
171.4499, 1040.879
171.9320, 1026.796
172.4141, 1021.646
172.8962, 1020.596
173.3783, 1016.794
173.8604, 1007.570
174.3426, 1001.681
174.8247, 1000.203
175.3068, 1001.192
175.7889, 1003.380
176.2710, 1006.406
176.7531, 1010.258
177.2353, 1014.907
177.7174, 1020.600
178.1995, 1026.762
178.6816, 1034.685
179.1637, 1042.277
179.6458, 1046.906
180.1279, 1048.270
180.6101, 1049.740
181.0922, 1056.229
181.5743, 1071.741
182.0564, 1080.108
182.5385, 1074.839
183.0206, 1066.249
183.5028, 1063.137
183.9849, 1067.046
184.4670, 1074.054
184.9491, 1079.470
185.4312, 1082.228
185.9133, 1088.095
186.3955, 1099.666
186.8776, 1112.871
187.3597, 1124.355
187.8418, 1133.540
188.3239, 1141.731
188.8060, 1150.538
189.2882, 1160.396
189.7703, 1167.536
190.2524, 1169.639
190.7345, 1170.364
191.2166, 1172.785
191.6987, 1177.280
192.1809, 1182.225
192.6630, 1185.251
193.1451, 1185.971
193.6272, 1192.364
194.1093, 1211.891
194.5914, 1232.494
195.0736, 1245.781
195.5557, 1250.729
196.0378, 1247.192
196.5199, 1233.390
197.0020, 1208.496
197.4841, 1184.646
197.9663, 1167.810
198.4484, 1148.065
198.9305, 1111.289
199.4126, 1058.845
199.8947, 1013.519
200.3768, 995.5475
200.8590, 1004.838
201.3411, 1008.207
201.8232, 1000.079
202.3053, 990.3049
202.7874, 987.6277
203.2695, 991.4154
203.7517, 992.4056
204.2338, 983.0894
204.7159, 965.0888
205.1980, 951.3610
205.6801, 944.5829
206.1622, 939.8948
206.6444, 935.8612
207.1265, 931.9246
207.6086, 924.7304
208.0907, 911.0082
208.5728, 892.6514
209.0549, 878.0812
209.5371, 872.6406
210.0192, 865.6179
210.5013, 849.0578
210.9834, 825.0458
211.4655, 802.3347
211.9476, 785.1157
212.4298, 772.8011
212.9119, 762.9154
213.3940, 756.1986
213.8761, 750.4379
214.3582, 744.3825
214.8403, 738.3594
215.3225, 733.5784
215.8046, 730.7596
216.2867, 729.2711
216.7688, 726.9574
217.2509, 721.0182
217.7330, 719.8378
218.2152, 731.2042
218.6973, 749.8515
219.1794, 763.3292
219.6615, 766.4992
220.1436, 763.6974
220.6257, 762.6442
221.1079, 763.3381
221.5900, 764.9398
222.0721, 767.5511
222.5542, 770.8460
223.0363, 774.3790
223.5184, 778.1641
224.0006, 781.7284
224.4827, 784.2061
224.9648, 785.4675
225.4469, 786.8566
225.9290, 785.8499
226.4111, 786.1005
226.8932, 794.4968
227.3754, 813.2394
227.8575, 833.6634
228.3396, 844.6001
228.8217, 845.1280
229.3038, 848.3561
229.7859, 860.3605
230.2681, 873.6053
230.7502, 877.7579
231.2323, 871.4658
231.7144, 866.4331
232.1965, 875.1259
232.6786, 898.4892
233.1608, 917.3536
233.6429, 926.6528
234.1250, 934.0698
234.6071, 945.8047
235.0892, 962.0402
235.5714, 979.0734
236.0535, 994.1680
236.5356, 1007.393
237.0177, 1021.788
237.4998, 1038.322
237.9819, 1055.130
238.4641, 1070.477
238.9462, 1084.840
239.4283, 1100.756
239.9104, 1120.263
240.3925, 1142.405
240.8746, 1161.252
241.3568, 1174.223
241.8389, 1187.188
242.3210, 1201.379
242.8031, 1217.120
243.2852, 1235.589
243.7673, 1257.736
244.2495, 1282.198
244.7316, 1305.034
245.2137, 1327.006
245.6958, 1346.720
246.1779, 1363.861
246.6600, 1378.460
247.1422, 1390.149
247.6243, 1398.648
248.1064, 1405.437
248.5885, 1413.268
249.0706, 1421.075
249.5527, 1432.081
250.0349, 1448.792
250.5170, 1467.651
250.9991, 1483.909
251.4812, 1496.719
251.9633, 1510.989
252.4454, 1533.838
252.9276, 1569.615
253.4097, 1601.938
253.8918, 1625.557
254.3739, 1649.809
254.8560, 1681.947
255.3381, 1722.177
255.8203, 1765.610
256.3024, 1807.538
256.7845, 1847.724
257.2666, 1889.440
257.7487, 1936.703
258.2308, 1981.249
258.7130, 2016.900
259.1951, 2046.139
259.6772, 2076.126
260.1593, 2112.035
260.6414, 2153.489
261.1235, 2196.885
261.6057, 2250.419
262.0878, 2296.668
262.5699, 2328.185
263.0520, 2349.900
263.5341, 2368.628
264.0162, 2387.501
264.4984, 2407.878
264.9805, 2434.471
265.4626, 2478.227
265.9447, 2514.037
266.4268, 2537.204
266.9089, 2553.193
267.3911, 2564.872
267.8732, 2573.795
268.3553, 2584.339
268.8374, 2606.189
269.3195, 2652.079
269.8016, 2683.150
270.2838, 2696.465
270.7659, 2698.728
271.2480, 2691.792
271.7301, 2677.298
272.2122, 2659.070
272.6943, 2641.666
273.1765, 2626.290
273.6586, 2606.261
274.1407, 2577.368
274.6228, 2547.453
275.1049, 2516.874
275.5870, 2487.411
276.0692, 2461.929
276.5513, 2441.534
277.0334, 2426.698
277.5155, 2423.155
277.9976, 2435.214
278.4797, 2454.473
278.9619, 2477.210
279.4440, 2504.815
279.9261, 2540.521
280.4082, 2587.908
280.8903, 2641.647
281.3724, 2687.519
281.8546, 2719.010
282.3367, 2758.656
282.8188, 2818.529
283.3009, 2886.470
283.7830, 2951.511
284.2651, 3010.090
284.7473, 3066.799
285.2294, 3127.064
285.7115, 3191.437
286.1936, 3255.246
286.6757, 3319.464
287.1578, 3380.610
287.6400, 3435.247
288.1221, 3483.162
288.6042, 3528.115
289.0863, 3572.568
289.5684, 3616.242
290.0505, 3656.533
290.5327, 3687.929
291.0148, 3724.884
291.4969, 3785.028
291.9790, 3861.852
292.4611, 3931.425
292.9432, 3990.444
293.4254, 4033.904
293.9075, 4049.036
294.3896, 4032.099
294.8717, 4006.901
295.3538, 3985.989
295.8359, 3968.512
296.3181, 3952.901
296.8002, 3946.513
297.2823, 3934.336
297.7644, 3901.382
298.2465, 3850.292
298.7286, 3797.781
299.2108, 3752.289
299.6929, 3708.513
300.1750, 3655.116
300.6571, 3592.315
301.1392, 3521.865
301.6213, 3440.010
302.1034, 3351.273
302.5855, 3263.638
303.0677, 3179.649
303.5498, 3095.145
304.0319, 3004.118
304.5140, 2903.070
304.9961, 2806.503
305.4782, 2713.854
305.9604, 2626.911
306.4425, 2547.793
306.9246, 2476.519
307.4067, 2411.121
307.8888, 2349.778
308.3709, 2291.945
308.8531, 2249.662
309.3352, 2222.138
309.8173, 2207.371
310.2994, 2209.602
310.7815, 2223.825
311.2636, 2241.677
311.7458, 2258.957
312.2279, 2274.659
312.7100, 2284.678
313.1921, 2274.262
313.6742, 2276.949
314.1563, 2296.214
314.6385, 2328.482
315.1206, 2374.422
315.6027, 2432.806
316.0848, 2494.444
316.5669, 2543.203
317.0490, 2568.373
317.5312, 2609.958
318.0133, 2679.459
318.4954, 2754.839
318.9775, 2826.560
319.4596, 2893.954
319.9417, 2959.729
320.4239, 3024.769
320.9060, 3089.840
321.3881, 3159.783
321.8702, 3246.043
322.3523, 3320.265
322.8344, 3371.614
323.3166, 3406.134
323.7987, 3431.588
324.2808, 3449.841
324.7629, 3463.668
325.2450, 3479.398
325.7271, 3499.036
326.2093, 3510.766
326.6914, 3501.335
327.1735, 3487.733
327.6556, 3486.044
328.1377, 3499.149
328.6198, 3513.013
329.1020, 3520.969
329.5841, 3521.639
330.0662, 3508.506
330.5483, 3480.161
331.0304, 3437.767
331.5125, 3376.994
331.9947, 3301.350
332.4768, 3225.770
332.9589, 3160.574
333.4410, 3095.047
333.9231, 3010.493
334.4052, 2906.161
334.8874, 2811.117
335.3695, 2745.908
335.8516, 2706.724
336.3337, 2668.133
336.8158, 2625.268
337.2979, 2588.151
337.7801, 2557.487
338.2622, 2535.974
338.7443, 2530.944
339.2264, 2546.119
339.7085, 2574.540
340.1906, 2602.899
340.6728, 2627.101
341.1549, 2660.501
341.6370, 2702.648
342.1191, 2754.946
342.6012, 2818.864
343.0833, 2894.655
343.5655, 2982.055
344.0476, 3083.043
344.5297, 3199.326
345.0118, 3307.125
345.4939, 3389.908
345.9760, 3481.870
346.4582, 3600.428
346.9403, 3734.516
347.4224, 3864.186
347.9045, 3978.702
348.3866, 4084.369
348.8687, 4195.250
349.3509, 4306.525
349.8330, 4433.639
350.3151, 4594.521
350.7972, 4758.998
351.2793, 4903.930
351.7614, 5025.123
352.2436, 5137.654
352.7257, 5254.688
353.2078, 5376.201
353.6899, 5496.862
354.1720, 5615.004
354.6541, 5733.279
355.1363, 5859.349
355.6184, 5987.026
356.1005, 6100.338
356.5826, 6191.865
357.0647, 6266.042
357.5468, 6333.673
358.0290, 6396.374
358.5111, 6436.245
358.9932, 6447.521
359.4753, 6427.006
359.9574, 6377.591
360.4395, 6300.884
360.9217, 6190.157
361.4038, 6033.586
361.8859, 5841.225
362.3680, 5628.845
362.8501, 5397.365
363.3322, 5163.819
363.8144, 4946.906
364.2965, 4746.661
364.7786, 4568.083
365.2607, 4429.042
365.7428, 4296.410
366.2249, 4142.608
366.7071, 3973.322
367.1892, 3817.462
367.6713, 3692.861
368.1534, 3595.521
368.6355, 3502.056
369.1176, 3404.442
369.5998, 3321.740
370.0819, 3265.022
370.5640, 3220.152
371.0461, 3172.088
371.5282, 3116.880
372.0103, 3061.554
372.4925, 3014.902
372.9746, 2977.174
373.4567, 2947.490
373.9388, 2933.480
374.4209, 2920.661
374.9030, 2905.937
375.3852, 2887.912
375.8673, 2863.704
376.3494, 2828.447
376.8315, 2788.918
377.3136, 2767.647
377.7957, 2773.852
378.2779, 2771.761
378.7600, 2736.916
379.2421, 2693.793
379.7242, 2664.668
380.2063, 2654.074
380.6884, 2648.149
381.1706, 2636.750
381.6527, 2621.049
382.1348, 2604.520
382.6169, 2585.907
383.0990, 2571.201
383.5811, 2569.848
384.0633, 2579.065
384.5454, 2584.522
385.0275, 2578.616
385.5096, 2571.900
385.9917, 2573.640
386.4738, 2582.636
386.9560, 2592.573
387.4381, 2600.398
387.9202, 2606.449
388.4023, 2611.210
388.8844, 2606.825
389.3665, 2613.438
389.8487, 2645.061
390.3308, 2682.027
390.8129, 2703.868
391.2950, 2708.009
391.7771, 2707.876
392.2592, 2718.422
392.7414, 2741.664
393.2235, 2754.664
393.7056, 2759.244
394.1877, 2751.159
394.6698, 2720.609
395.1519, 2678.441
395.6341, 2643.024
396.1162, 2623.975
396.5983, 2607.695
397.0804, 2565.781
397.5625, 2490.780
398.0446, 2419.807
398.5268, 2356.470
399.0089, 2302.297
399.4910, 2262.286
399.9731, 2234.636
400.4552, 2207.861
400.9373, 2174.187
401.4194, 2136.455
401.9016, 2101.476
402.3837, 2070.069
402.8658, 2038.907
403.3479, 2003.473
403.8300, 1967.966
404.3121, 1942.264
404.7943, 1930.124
405.2764, 1923.031
405.7585, 1917.815
406.2406, 1914.430
406.7227, 1912.075
407.2048, 1910.349
407.6870, 1911.714
408.1691, 1919.194
408.6512, 1933.381
409.1333, 1953.242
409.6154, 1985.523
410.0975, 2016.850
410.5797, 2036.763
411.0618, 2049.671
411.5439, 2066.848
412.0260, 2094.953
412.5081, 2131.669
412.9902, 2169.698
413.4724, 2208.531
413.9545, 2249.877
414.4366, 2290.159
414.9187, 2335.282
415.4008, 2393.929
415.8829, 2464.648
416.3651, 2534.063
416.8472, 2587.795
417.3293, 2628.654
417.8114, 2678.162
418.2935, 2739.164
418.7756, 2803.306
419.2578, 2874.921
419.7399, 2944.692
420.2220, 2996.767
420.7041, 3024.079
421.1862, 3041.002
421.6683, 3061.056
422.1505, 3080.388
422.6326, 3084.903
423.1147, 3069.688
423.5968, 3042.609
424.0789, 3010.329
424.5610, 2971.615
425.0432, 2938.965
425.5253, 2917.496
426.0074, 2898.338
426.4895, 2874.906
426.9716, 2848.826
427.4537, 2825.502
427.9359, 2807.790
428.4180, 2794.696
428.9001, 2782.852
429.3822, 2768.420
429.8643, 2762.127
430.3464, 2759.746
430.8286, 2768.199
431.3107, 2797.942
431.7928, 2845.663
432.2749, 2894.368
432.7570, 2929.457
433.2391, 2953.075
433.7213, 2979.086
434.2034, 3008.270
434.6855, 3038.552
435.1676, 3070.754
435.6497, 3102.759
436.1318, 3133.188
436.6140, 3162.672
437.0961, 3186.066
437.5782, 3193.944
438.0603, 3192.209
438.5424, 3199.932
439.0245, 3221.837
439.5067, 3247.346
439.9888, 3267.058
440.4709, 3281.014
440.9530, 3295.204
441.4351, 3307.158
441.9172, 3321.959
442.3994, 3340.960
442.8815, 3364.833
443.3636, 3396.135
443.8457, 3435.994
444.3278, 3479.321
444.8099, 3516.927
445.2921, 3542.858
445.7742, 3577.587
446.2563, 3630.217
446.7384, 3681.932
447.2205, 3716.411
447.7026, 3742.058
448.1848, 3782.108
448.6669, 3855.250
449.1490, 3941.881
449.6311, 3993.767
450.1132, 4002.722
450.5953, 4008.803
451.0775, 4025.584
451.5596, 4040.687
452.0417, 4043.624
452.5238, 4034.039
453.0059, 4019.020
453.4880, 4009.760
453.9702, 3994.117
454.4523, 3950.649
454.9344, 3878.175
455.4165, 3793.957
455.8986, 3705.677
456.3807, 3614.303
456.8629, 3524.303
457.3450, 3433.701
457.8271, 3346.181
458.3092, 3259.011
458.7913, 3177.262
459.2734, 3106.298
459.7556, 3046.852
460.2377, 2994.193
460.7198, 2944.713
461.2019, 2898.272
461.6840, 2856.581
462.1661, 2815.031
462.6483, 2785.349
463.1304, 2775.856
463.6125, 2776.299
464.0946, 2776.569
464.5767, 2773.869
465.0588, 2769.416
465.5410, 2765.375
466.0231, 2761.189
466.5052, 2752.809
466.9873, 2740.518
467.4694, 2722.454
467.9515, 2694.201
468.4337, 2658.943
468.9158, 2624.163
469.3979, 2593.718
469.8800, 2560.619
470.3621, 2522.577
470.8442, 2478.433
471.3264, 2423.615
471.8085, 2356.878
472.2906, 2284.387
472.7727, 2214.064
473.2548, 2145.620
473.7369, 2078.124
474.2191, 2013.527
474.7012, 1947.699
475.1833, 1877.120
475.6654, 1804.908
476.1475, 1736.482
476.6296, 1674.088
477.1118, 1615.959
477.5939, 1558.571
478.0760, 1501.234
478.5581, 1450.467
479.0402, 1410.054
479.5223, 1373.213
480.0045, 1336.078
480.4866, 1299.122
480.9687, 1263.510
481.4508, 1228.831
481.9329, 1196.789
482.4150, 1169.952
482.8972, 1147.551
483.3793, 1125.376
483.8614, 1102.461
484.3435, 1078.435
484.8256, 1051.630
485.3077, 1019.436
485.7899, 997.0508
486.2720, 994.9204
486.7541, 992.9456
487.2362, 977.4919
487.7183, 953.6208
488.2004, 933.8978
488.6826, 924.7195
489.1647, 920.3786
489.6468, 908.1996
490.1289, 883.9428
490.6110, 865.4312
491.0931, 859.2306
491.5753, 854.4821
492.0574, 846.6425
492.5395, 835.9602
493.0216, 823.9240
493.5037, 809.7827
493.9858, 796.1273
494.4680, 786.6700
494.9501, 781.1645
495.4322, 778.5616
495.9143, 781.2061
496.3964, 781.3503
496.8785, 764.1051
497.3607, 726.1798
497.8428, 703.0368
498.3249, 708.9756
498.8070, 720.5530
499.2891, 725.7860
499.7712, 724.3853
500.2533, 717.4253
500.7354, 705.2570
501.2176, 690.8139
501.6997, 679.7186
502.1818, 672.4736
502.6639, 667.4586
503.1460, 667.2523
503.6281, 666.8627
504.1103, 662.3784
504.5924, 656.0245
505.0745, 653.5754
505.5566, 659.1035
506.0387, 667.1524
506.5208, 671.9316
507.0030, 673.2531
507.4851, 667.5741
507.9672, 651.0762
508.4493, 633.2492
508.9314, 625.9180
509.4135, 629.1397
509.8957, 630.6236
510.3778, 629.4702
510.8599, 626.0980
511.3420, 617.9802
511.8241, 608.2525
512.3063, 603.6561
512.7884, 606.7775
513.2705, 613.1330
513.7526, 615.6653
514.2347, 613.6606
514.7169, 610.7873
515.1990, 606.7367
515.6811, 602.0760
516.1632, 595.0436
516.6453, 587.9846
517.1274, 585.2172
517.6096, 589.1104
518.0917, 594.8772
518.5738, 598.2902
519.0559, 599.3009
519.5380, 597.1653
520.0201, 591.2240
520.5023, 583.9497
520.9844, 576.9538
521.4665, 570.3931
521.9486, 565.4731
522.4307, 562.4811
522.9128, 560.8275
523.3950, 560.6098
523.8771, 561.4706
524.3592, 563.3477
524.8413, 566.0494
525.3234, 568.5097
525.8055, 569.3219
526.2877, 568.4579
526.7698, 569.0717
527.2519, 573.8987
527.7340, 575.9243
528.2161, 569.4783
528.6982, 561.2053
529.1804, 559.3735
529.6625, 565.9905
530.1446, 572.6345
530.6267, 572.6743
531.1088, 568.5944
531.5909, 565.4840
532.0731, 563.8087
532.5552, 562.5322
533.0373, 560.6768
533.5194, 558.9019
534.0015, 559.9084
534.4836, 568.5814
534.9658, 572.3237
535.4479, 564.0553
535.9300, 554.5732
536.4121, 553.5577
536.8942, 560.2393
537.3763, 567.3200
537.8585, 569.7979
538.3406, 568.9390
538.8227, 568.5125
539.3048, 568.4352
539.7869, 569.1439
540.2690, 571.5776
540.7512, 574.1045
541.2333, 575.5729
541.7154, 575.9714
542.1975, 575.5190
542.6796, 574.0536
543.1617, 571.9592
543.6439, 569.3737
544.1260, 566.4464
544.6081, 563.7766
545.0902, 561.6496
545.5723, 559.3096
546.0544, 555.1862
546.5366, 547.6393
547.0187, 544.8513
547.5008, 551.7776
547.9828, 557.6126
548.4650, 557.8022
548.9471, 554.6502
549.4292, 551.3163
549.9113, 548.8526
550.3934, 548.1964
550.8755, 552.0150
551.3577, 559.2885
551.8398, 562.6031
552.3219, 560.5090
552.8040, 557.0037
553.2861, 554.0570
553.7682, 551.8080
554.2504, 550.5364
554.7325, 551.1297
555.2146, 551.1880
555.6967, 550.0284
556.1788, 547.9279
556.6609, 543.6203
557.1431, 538.0778
557.6252, 536.1708
558.1073, 542.3748
558.5894, 553.9100
559.0715, 558.5396
559.5536, 553.6761
560.0358, 547.9634
560.5179, 539.9283
561.0000, 533.9099
561.4821, 533.3707
561.9642, 537.7677
562.4464, 543.4598
562.9285, 551.8153
563.4106, 558.3524
563.8927, 555.9097
564.3748, 546.7343
564.8569, 539.8989
565.3391, 538.4882
565.8212, 540.1443
566.3033, 542.1212
566.7854, 544.6106
567.2675, 546.2300
567.7496, 546.6382
568.2318, 546.6923
568.7139, 545.6500
569.1960, 544.8514
569.6781, 546.9171
570.1602, 552.2496
570.6423, 556.6373
571.1245, 554.3416
571.6066, 546.9620
572.0887, 542.9202
572.5708, 542.7838
573.0529, 544.5262
573.5350, 548.5300
574.0172, 552.9770
574.4993, 553.6741
574.9814, 548.8160
575.4635, 546.2343
575.9456, 549.3374
576.4277, 554.0552
576.9099, 557.1528
577.3920, 558.8303
577.8741, 561.0665
578.3562, 565.0428
578.8383, 568.9623
579.3204, 567.8400
579.8026, 559.3826
580.2847, 556.9433
580.7668, 566.7548
581.2489, 576.4022
581.7310, 577.9960
582.2131, 574.5115
582.6953, 572.3433
583.1774, 573.5121
583.6595, 575.3190
584.1416, 576.3005
584.6237, 576.5752
585.1058, 576.2570
585.5880, 575.3954
586.0701, 573.9570
586.5522, 571.4955
587.0343, 568.6965
587.5164, 569.9659
587.9985, 579.9008
588.4807, 586.5181
588.9628, 585.5289
589.4449, 583.7375
589.9270, 587.5142
590.4091, 595.2468
590.8912, 599.2747
591.3734, 593.4041
591.8555, 584.1082
592.3376, 580.2404
592.8197, 581.0502
593.3018, 581.9915
593.7839, 581.7606
594.2661, 581.8511
594.7482, 584.1744
595.2303, 588.9072
595.7124, 591.7863
596.1945, 593.0045
596.6766, 592.4293
597.1588, 587.8005
597.6409, 582.6590
