##NAMES=Allabogdanite
##RRUFFID=R070012
##IDEAL CHEMISTRY=(Fe,Ni)_2_P
##LOCALITY=Onello meteorite, Bol'shoy Dolguchan River, Onello River Basin, Aldan, Yakutia, Russia
##OWNER=Michael Scott
##SOURCE=Michael Scott
##DESCRIPTION=Black lath embedded in epoxy, co-type sample
##STATUS=The identification of this mineral has been confirmed only by single crystal X-ray diffraction.
##URL=rruff.info/R070012
133.6266, 1039.177
134.1087, 1019.106
134.5908, 1031.348
135.0729, 1059.229
135.5550, 1077.442
136.0372, 1085.146
136.5193, 1089.212
137.0014, 1090.293
137.4835, 1087.345
137.9656, 1094.940
138.4477, 1119.354
138.9299, 1153.072
139.4120, 1169.151
139.8941, 1163.596
140.3762, 1149.536
140.8583, 1136.746
141.3404, 1126.604
141.8226, 1113.519
142.3047, 1093.523
142.7868, 1066.187
143.2689, 1052.566
143.7510, 1059.873
144.2331, 1074.695
144.7152, 1078.808
145.1974, 1062.097
145.6795, 1050.496
146.1616, 1052.253
146.6437, 1073.075
147.1258, 1093.222
147.6079, 1119.369
148.0901, 1144.729
148.5722, 1149.422
149.0543, 1109.797
149.5364, 1070.497
150.0185, 1051.125
150.5006, 1068.398
150.9828, 1085.651
151.4649, 1104.689
151.9470, 1124.701
152.4291, 1136.224
152.9112, 1131.697
153.3933, 1122.486
153.8755, 1116.555
154.3576, 1114.149
154.8397, 1115.551
155.3218, 1123.339
155.8039, 1139.434
156.2860, 1149.438
156.7682, 1147.396
157.2503, 1138.752
157.7324, 1130.214
158.2145, 1124.980
158.6966, 1118.923
159.1787, 1109.828
159.6609, 1095.509
160.1430, 1082.508
160.6251, 1071.182
161.1072, 1062.557
161.5893, 1059.075
162.0714, 1064.780
162.5536, 1074.235
163.0357, 1084.155
163.5178, 1098.980
163.9999, 1108.385
164.4820, 1104.314
164.9641, 1088.766
165.4463, 1074.285
165.9284, 1065.682
166.4105, 1061.834
166.8926, 1061.532
167.3747, 1067.409
167.8568, 1074.492
168.3390, 1079.565
168.8211, 1082.352
169.3032, 1084.373
169.7853, 1088.753
170.2674, 1092.901
170.7495, 1092.287
171.2317, 1078.539
171.7138, 1061.945
172.1959, 1054.801
172.6780, 1061.351
173.1601, 1067.213
173.6422, 1053.953
174.1244, 1027.944
174.6065, 1010.138
175.0886, 1021.539
175.5707, 1046.601
176.0528, 1062.242
176.5349, 1061.122
177.0171, 1052.600
177.4992, 1043.559
177.9813, 1034.739
178.4634, 1032.008
178.9455, 1048.857
179.4276, 1075.497
179.9098, 1089.191
180.3919, 1073.541
180.8740, 1045.642
181.3561, 1035.151
181.8382, 1042.773
182.3203, 1054.980
182.8025, 1058.405
183.2846, 1054.894
183.7667, 1052.032
184.2488, 1051.770
184.7309, 1054.583
185.2130, 1064.408
185.6951, 1083.662
186.1773, 1101.290
186.6594, 1098.953
187.1415, 1078.475
187.6236, 1059.582
188.1057, 1054.440
188.5878, 1060.391
189.0700, 1064.723
189.5521, 1066.375
190.0342, 1065.641
190.5163, 1062.046
190.9984, 1055.485
191.4805, 1049.058
191.9627, 1042.326
192.4448, 1035.942
192.9269, 1040.232
193.4090, 1062.612
193.8911, 1093.495
194.3732, 1101.613
194.8554, 1084.171
195.3375, 1060.293
195.8196, 1046.047
196.3017, 1041.538
196.7838, 1042.469
197.2659, 1050.659
197.7481, 1064.191
198.2302, 1068.423
198.7123, 1060.970
199.1944, 1051.174
199.6765, 1052.019
200.1586, 1065.287
200.6408, 1075.559
201.1229, 1076.021
201.6050, 1066.486
202.0871, 1060.038
202.5692, 1056.584
203.0513, 1056.294
203.5335, 1060.009
204.0156, 1068.310
204.4977, 1078.045
204.9798, 1090.112
205.4619, 1106.020
205.9440, 1111.748
206.4262, 1104.657
206.9083, 1088.724
207.3904, 1072.173
207.8725, 1052.836
208.3546, 1038.755
208.8367, 1036.990
209.3189, 1051.743
209.8010, 1060.678
210.2831, 1060.021
210.7652, 1052.391
211.2473, 1050.183
211.7294, 1056.230
212.2116, 1062.197
212.6937, 1060.460
213.1758, 1047.358
213.6579, 1038.808
214.1400, 1038.473
214.6221, 1045.714
215.1043, 1050.828
215.5864, 1054.022
216.0685, 1054.980
216.5506, 1052.662
217.0327, 1045.075
217.5148, 1039.292
217.9970, 1037.000
218.4791, 1038.352
218.9612, 1040.812
219.4433, 1045.220
219.9254, 1049.793
220.4075, 1051.351
220.8897, 1046.642
221.3718, 1045.606
221.8539, 1052.370
222.3360, 1069.367
222.8181, 1083.181
223.3002, 1095.626
223.7824, 1103.605
224.2645, 1098.624
224.7466, 1068.251
225.2287, 1046.385
225.7108, 1050.067
226.1929, 1096.201
226.6750, 1119.826
227.1572, 1111.781
227.6393, 1083.831
228.1214, 1065.447
228.6035, 1058.218
229.0856, 1058.433
229.5677, 1066.059
230.0499, 1087.388
230.5320, 1101.309
231.0141, 1105.043
231.4962, 1100.565
231.9783, 1096.049
232.4604, 1092.933
232.9426, 1087.970
233.4247, 1076.951
233.9068, 1049.192
234.3889, 1038.869
234.8710, 1057.735
235.3531, 1101.012
235.8353, 1122.750
236.3174, 1113.960
236.7995, 1093.912
237.2816, 1075.720
237.7637, 1056.489
238.2458, 1044.956
238.7280, 1044.650
239.2101, 1055.357
239.6922, 1062.650
240.1743, 1064.645
240.6564, 1065.094
241.1385, 1067.731
241.6207, 1074.995
242.1028, 1080.045
242.5849, 1080.714
243.0670, 1076.445
243.5491, 1075.035
244.0313, 1078.276
244.5134, 1082.879
244.9955, 1084.654
245.4776, 1080.775
245.9597, 1079.028
246.4418, 1081.879
246.9240, 1090.356
247.4061, 1097.703
247.8882, 1104.434
248.3703, 1109.619
248.8524, 1112.635
249.3345, 1116.861
249.8167, 1112.718
250.2988, 1092.715
250.7809, 1047.079
251.2630, 1025.921
251.7451, 1040.563
252.2272, 1073.107
252.7094, 1091.009
253.1915, 1086.876
253.6736, 1080.712
254.1557, 1080.621
254.6378, 1090.789
255.1199, 1092.861
255.6021, 1080.991
256.0842, 1063.832
256.5663, 1062.396
257.0484, 1087.241
257.5305, 1109.479
258.0126, 1115.443
258.4948, 1098.395
258.9769, 1083.542
259.4590, 1068.691
259.9411, 1057.022
260.4232, 1059.038
260.9053, 1082.789
261.3875, 1105.543
261.8696, 1113.791
262.3517, 1099.986
262.8338, 1095.906
263.3159, 1106.780
263.7980, 1127.573
264.2802, 1141.510
264.7623, 1148.848
265.2444, 1149.022
265.7265, 1139.195
266.2086, 1115.050
266.6907, 1097.365
267.1729, 1088.793
267.6550, 1087.879
268.1371, 1089.272
268.6192, 1092.944
269.1013, 1098.918
269.5834, 1108.224
270.0656, 1122.038
270.5477, 1133.413
271.0298, 1142.225
271.5119, 1147.813
271.9940, 1146.627
272.4761, 1128.311
272.9583, 1137.961
273.4404, 1142.438
273.9225, 1142.019
274.4046, 1122.041
274.8867, 1127.319
275.3688, 1122.476
275.8510, 1117.217
276.3331, 1126.051
276.8152, 1108.917
277.2973, 1117.527
277.7794, 1100.441
278.2615, 1097.397
278.7437, 1108.578
279.2258, 1129.653
279.7079, 1140.862
280.1900, 1141.177
280.6721, 1135.694
281.1542, 1126.854
281.6364, 1114.347
282.1185, 1105.291
282.6006, 1101.327
283.0827, 1101.898
283.5648, 1106.617
284.0469, 1116.658
284.5291, 1124.811
285.0112, 1120.774
285.4933, 1105.093
285.9754, 1096.335
286.4575, 1102.443
286.9396, 1118.129
287.4217, 1125.391
287.9038, 1123.756
288.3860, 1116.937
288.8681, 1103.212
289.3502, 1084.428
289.8323, 1077.151
290.3144, 1091.358
290.7965, 1118.635
291.2787, 1136.526
291.7608, 1144.820
292.2429, 1146.323
292.7250, 1141.382
293.2071, 1131.164
293.6892, 1121.344
294.1714, 1113.755
294.6535, 1107.872
295.1356, 1101.903
295.6177, 1095.759
296.0998, 1091.690
296.5819, 1091.878
297.0641, 1095.882
297.5462, 1102.339
298.0283, 1113.194
298.5104, 1124.952
298.9925, 1132.101
299.4746, 1134.642
299.9568, 1133.729
300.4389, 1125.254
300.9210, 1113.912
301.4031, 1110.786
301.8852, 1129.505
302.3673, 1152.889
302.8495, 1156.919
303.3316, 1141.845
303.8137, 1122.503
304.2958, 1106.384
304.7779, 1094.836
305.2600, 1090.660
305.7422, 1099.883
306.2243, 1113.713
306.7064, 1125.423
307.1885, 1134.984
307.6706, 1139.647
308.1527, 1132.072
308.6349, 1119.646
309.1170, 1112.732
309.5991, 1118.728
310.0812, 1128.956
310.5633, 1138.610
311.0454, 1147.642
311.5276, 1153.911
312.0097, 1156.180
312.4918, 1155.028
312.9739, 1151.090
313.4560, 1139.044
313.9381, 1128.846
314.4203, 1127.735
314.9024, 1134.981
315.3845, 1141.609
315.8666, 1144.154
316.3487, 1143.757
316.8308, 1141.490
317.3130, 1133.820
317.7951, 1127.879
318.2772, 1126.268
318.7593, 1128.886
319.2414, 1134.656
319.7235, 1148.902
320.2057, 1163.266
320.6878, 1171.130
321.1699, 1164.710
321.6520, 1158.043
322.1341, 1154.821
322.6162, 1154.753
323.0984, 1154.554
323.5805, 1156.046
324.0626, 1155.803
324.5447, 1151.520
325.0268, 1132.686
325.5089, 1121.004
325.9911, 1126.184
326.4732, 1145.624
326.9553, 1152.121
327.4374, 1126.576
327.9195, 1099.313
328.4016, 1087.638
328.8838, 1104.824
329.3659, 1121.097
329.8480, 1136.671
330.3301, 1150.687
330.8122, 1158.315
331.2943, 1157.720
331.7765, 1152.619
332.2586, 1144.154
332.7407, 1125.938
333.2228, 1116.428
333.7049, 1121.181
334.1870, 1135.652
334.6692, 1139.784
335.1513, 1126.330
335.6334, 1114.300
336.1155, 1116.058
336.5976, 1138.289
337.0797, 1152.584
337.5619, 1154.495
338.0440, 1148.699
338.5261, 1149.250
339.0082, 1158.254
339.4903, 1167.213
339.9724, 1171.170
340.4546, 1169.629
340.9367, 1167.094
341.4188, 1162.668
341.9009, 1158.698
342.3830, 1161.836
342.8651, 1173.048
343.3473, 1182.389
343.8294, 1184.544
344.3115, 1179.872
344.7936, 1171.292
345.2757, 1157.522
345.7578, 1143.267
346.2400, 1133.706
346.7221, 1129.172
347.2042, 1132.588
347.6863, 1154.410
348.1684, 1186.197
348.6505, 1197.088
349.1327, 1182.495
349.6148, 1162.446
350.0969, 1162.969
350.5790, 1179.454
351.0611, 1194.152
351.5432, 1194.416
352.0254, 1188.903
352.5075, 1194.519
352.9896, 1213.241
353.4717, 1228.159
353.9538, 1217.936
354.4359, 1192.798
354.9181, 1173.089
355.4002, 1175.837
355.8823, 1182.869
356.3644, 1172.221
356.8465, 1143.422
357.3286, 1123.231
357.8108, 1138.847
358.2929, 1170.682
358.7750, 1193.353
359.2571, 1190.054
359.7392, 1181.434
360.2213, 1179.472
360.7035, 1183.672
361.1856, 1184.795
361.6677, 1169.998
362.1498, 1154.519
362.6319, 1151.378
363.1140, 1180.011
363.5962, 1205.194
364.0783, 1215.012
364.5604, 1211.290
365.0425, 1207.373
365.5246, 1208.713
366.0067, 1209.274
366.4889, 1205.371
366.9710, 1186.949
367.4531, 1175.248
367.9352, 1175.957
368.4173, 1186.059
368.8994, 1192.240
369.3815, 1194.471
369.8636, 1192.553
370.3458, 1185.857
370.8279, 1167.848
371.3100, 1156.152
371.7921, 1151.803
372.2742, 1153.444
372.7563, 1158.326
373.2385, 1168.658
373.7206, 1178.502
374.2027, 1185.177
374.6848, 1187.751
375.1669, 1191.058
375.6490, 1195.793
376.1312, 1200.523
376.6133, 1202.468
377.0954, 1200.803
377.5775, 1199.778
378.0596, 1202.171
378.5417, 1207.730
379.0239, 1207.768
379.5060, 1200.920
379.9881, 1192.654
380.4702, 1189.964
380.9523, 1192.678
381.4344, 1196.601
381.9166, 1201.600
382.3987, 1206.518
382.8808, 1208.038
383.3629, 1206.070
383.8450, 1201.718
384.3271, 1190.704
384.8093, 1177.270
385.2914, 1176.076
385.7735, 1199.514
386.2556, 1229.527
386.7377, 1240.230
387.2198, 1233.318
387.7020, 1221.719
388.1841, 1210.127
388.6662, 1200.898
389.1483, 1198.066
389.6304, 1207.021
390.1125, 1215.536
390.5947, 1215.199
391.0768, 1207.135
391.5589, 1194.745
392.0410, 1167.734
392.5231, 1144.584
393.0052, 1141.200
393.4874, 1169.117
393.9695, 1195.124
394.4516, 1205.138
394.9337, 1204.736
395.4158, 1204.129
395.8979, 1207.593
396.3801, 1210.108
396.8622, 1209.095
397.3443, 1203.040
397.8264, 1198.093
398.3085, 1193.416
398.7906, 1190.812
399.2728, 1192.653
399.7549, 1208.069
400.2370, 1217.661
400.7191, 1215.564
401.2012, 1200.682
401.6833, 1190.872
402.1655, 1188.427
402.6476, 1188.929
403.1297, 1188.621
403.6118, 1186.745
404.0939, 1186.102
404.5760, 1187.841
405.0582, 1191.218
405.5403, 1191.765
406.0224, 1188.664
406.5045, 1185.092
406.9866, 1182.162
407.4688, 1179.646
407.9509, 1183.045
408.4330, 1195.558
408.9151, 1210.640
409.3972, 1213.816
409.8793, 1205.030
410.3615, 1193.138
410.8436, 1178.016
411.3257, 1163.168
411.8078, 1163.894
412.2899, 1183.984
412.7720, 1206.725
413.2542, 1210.395
413.7363, 1199.963
414.2184, 1190.145
414.7005, 1189.026
415.1826, 1191.605
415.6647, 1191.790
416.1469, 1189.362
416.6290, 1187.711
417.1111, 1188.623
417.5932, 1191.954
418.0753, 1197.447
418.5574, 1212.734
419.0396, 1223.312
419.5217, 1216.391
420.0038, 1195.270
420.4859, 1181.586
420.9680, 1189.617
421.4501, 1204.604
421.9323, 1216.369
422.4144, 1222.469
422.8965, 1226.499
423.3786, 1228.729
423.8607, 1229.391
424.3428, 1229.139
424.8250, 1233.548
425.3071, 1232.054
425.7892, 1218.804
426.2713, 1183.550
426.7534, 1163.794
427.2355, 1164.987
427.7177, 1178.227
428.1998, 1191.831
428.6819, 1208.339
429.1640, 1219.151
429.6461, 1220.011
430.1282, 1211.146
430.6104, 1206.856
431.0925, 1207.769
431.5746, 1211.504
432.0567, 1216.740
432.5388, 1223.550
433.0209, 1228.579
433.5031, 1231.786
433.9852, 1232.234
434.4673, 1224.986
434.9494, 1210.326
435.4315, 1198.330
435.9136, 1200.311
436.3958, 1210.613
436.8779, 1213.782
437.3600, 1205.798
437.8421, 1195.554
438.3242, 1193.168
438.8063, 1196.573
439.2885, 1199.954
439.7706, 1198.742
440.2527, 1197.056
440.7348, 1200.848
441.2169, 1211.557
441.6990, 1216.939
442.1812, 1200.756
442.6633, 1178.520
443.1454, 1168.484
443.6275, 1189.854
444.1096, 1211.250
444.5917, 1221.644
445.0739, 1221.421
445.5560, 1219.241
446.0381, 1215.041
446.5202, 1210.627
447.0023, 1207.065
447.4844, 1202.582
447.9666, 1201.460
448.4487, 1205.920
448.9308, 1213.611
449.4129, 1218.180
449.8950, 1218.694
450.3771, 1217.539
450.8593, 1215.521
451.3413, 1212.667
451.8235, 1209.263
452.3056, 1205.977
452.7877, 1201.078
453.2698, 1188.240
453.7519, 1165.849
454.2340, 1155.870
454.7162, 1170.641
455.1983, 1201.379
455.6804, 1216.066
456.1625, 1214.039
456.6446, 1207.925
457.1267, 1209.851
457.6089, 1216.224
458.0910, 1215.945
458.5731, 1203.206
459.0552, 1189.432
459.5373, 1191.280
460.0194, 1204.374
460.5016, 1214.225
460.9837, 1209.273
461.4658, 1199.243
461.9479, 1193.398
462.4300, 1193.838
462.9121, 1192.626
463.3943, 1182.733
463.8764, 1169.667
464.3585, 1160.692
464.8406, 1158.281
465.3227, 1159.952
465.8048, 1167.661
466.2870, 1181.288
466.7691, 1189.488
467.2512, 1184.134
467.7333, 1177.787
468.2154, 1178.306
468.6975, 1191.790
469.1797, 1202.380
469.6618, 1209.954
470.1439, 1213.993
470.6260, 1211.985
471.1081, 1201.073
471.5902, 1191.015
472.0724, 1187.201
472.5545, 1190.258
473.0366, 1185.779
473.5187, 1170.404
474.0008, 1157.004
474.4829, 1166.417
474.9651, 1196.360
475.4472, 1218.971
475.9293, 1223.263
476.4114, 1216.757
476.8935, 1213.839
477.3756, 1214.339
477.8578, 1215.598
478.3399, 1217.642
478.8220, 1218.671
479.3041, 1214.969
479.7862, 1203.463
480.2683, 1193.156
480.7505, 1193.044
481.2326, 1199.111
481.7147, 1202.860
482.1968, 1202.386
482.6789, 1197.370
483.1610, 1184.545
483.6432, 1162.059
484.1253, 1146.837
484.6074, 1145.847
485.0895, 1152.594
485.5716, 1161.423
486.0537, 1180.258
486.5359, 1190.722
487.0180, 1185.479
487.5001, 1169.475
487.9822, 1166.803
488.4643, 1185.164
488.9464, 1204.269
489.4286, 1214.405
489.9107, 1214.180
490.3928, 1211.907
490.8749, 1207.339
491.3570, 1201.323
491.8391, 1193.244
492.3213, 1183.210
492.8034, 1178.395
493.2855, 1185.395
493.7676, 1197.864
494.2497, 1197.104
494.7318, 1183.447
495.2140, 1171.209
495.6961, 1174.471
496.1782, 1186.650
496.6603, 1196.544
497.1424, 1202.183
497.6245, 1204.549
498.1067, 1205.081
498.5888, 1202.952
499.0709, 1196.369
499.5530, 1174.721
500.0351, 1156.186
500.5172, 1153.097
500.9994, 1168.922
501.4815, 1180.948
501.9636, 1182.599
502.4457, 1178.921
502.9278, 1174.430
503.4099, 1163.449
503.8921, 1159.502
504.3742, 1168.607
504.8563, 1186.227
505.3384, 1192.352
505.8205, 1181.402
506.3026, 1169.759
506.7848, 1166.742
507.2669, 1174.459
507.7490, 1174.342
508.2311, 1164.220
508.7132, 1151.312
509.1953, 1144.452
509.6775, 1143.390
510.1596, 1145.215
510.6417, 1148.181
511.1238, 1153.956
511.6059, 1159.968
512.0880, 1172.071
512.5701, 1179.001
513.0522, 1181.036
513.5344, 1163.510
514.0165, 1171.242
514.4986, 1168.852
514.9807, 1166.046
515.4628, 1177.333
515.9449, 1162.652
516.4271, 1173.715
516.9092, 1174.502
517.3913, 1179.992
517.8734, 1175.297
518.3555, 1173.748
518.8376, 1182.387
519.3198, 1185.385
519.8019, 1179.518
520.2840, 1185.307
520.7661, 1170.270
521.2482, 1173.508
521.7303, 1184.631
522.2125, 1179.276
522.6946, 1185.251
523.1767, 1186.911
523.6588, 1172.208
524.1409, 1176.210
524.6230, 1186.841
525.1052, 1186.739
525.5873, 1174.708
526.0694, 1161.427
526.5515, 1157.049
527.0336, 1159.815
527.5157, 1165.747
527.9979, 1176.396
528.4800, 1185.205
528.9621, 1181.424
529.4442, 1169.344
529.9263, 1161.535
530.4084, 1169.011
530.8906, 1179.925
531.3727, 1186.197
531.8548, 1186.771
532.3369, 1185.988
532.8190, 1186.512
533.3011, 1185.713
533.7833, 1181.198
534.2654, 1163.084
534.7475, 1152.979
535.2296, 1158.451
535.7117, 1173.603
536.1938, 1176.765
536.6760, 1160.973
537.1581, 1146.503
537.6402, 1143.061
538.1223, 1151.866
538.6044, 1155.549
539.0865, 1152.667
539.5687, 1149.053
540.0508, 1155.103
540.5329, 1168.623
541.0150, 1171.258
541.4971, 1152.862
541.9792, 1128.424
542.4614, 1123.078
542.9435, 1133.662
543.4256, 1145.448
543.9077, 1153.868
544.3898, 1156.809
544.8719, 1149.323
545.3541, 1129.075
545.8362, 1112.764
546.3183, 1107.781
546.8004, 1111.072
547.2825, 1119.272
547.7646, 1141.868
548.2468, 1157.697
548.7289, 1157.022
549.2110, 1144.824
549.6931, 1143.361
550.1752, 1164.139
550.6573, 1179.836
551.1395, 1175.622
551.6216, 1145.180
552.1037, 1135.159
552.5858, 1151.675
553.0679, 1175.095
553.5500, 1180.992
554.0322, 1170.149
554.5143, 1163.315
554.9964, 1167.458
555.4785, 1175.589
555.9606, 1174.535
556.4427, 1165.585
556.9249, 1155.649
557.4070, 1145.956
557.8891, 1139.031
558.3712, 1140.519
558.8533, 1152.225
559.3354, 1158.881
559.8176, 1143.083
560.2997, 1121.828
560.7818, 1112.532
561.2639, 1134.214
561.7460, 1151.942
562.2281, 1155.620
562.7103, 1149.223
563.1924, 1148.255
563.6745, 1157.599
564.1566, 1166.129
564.6387, 1170.342
565.1208, 1170.257
565.6030, 1164.834
566.0851, 1151.533
566.5672, 1138.956
567.0493, 1136.999
567.5314, 1145.220
568.0135, 1153.274
568.4957, 1159.462
568.9778, 1164.173
569.4599, 1168.471
569.9420, 1171.967
570.4241, 1172.810
570.9063, 1166.655
571.3884, 1159.430
571.8705, 1158.743
572.3526, 1164.836
572.8347, 1167.854
573.3168, 1159.282
573.7990, 1147.159
574.2811, 1138.219
574.7632, 1132.815
575.2453, 1131.938
575.7274, 1139.622
576.2095, 1151.334
576.6917, 1158.128
577.1738, 1159.232
577.6559, 1156.220
578.1380, 1145.962
578.6201, 1129.703
579.1022, 1131.017
579.5844, 1154.397
580.0665, 1178.648
580.5486, 1187.370
581.0307, 1182.196
581.5128, 1172.596
581.9949, 1158.103
582.4771, 1144.878
582.9592, 1141.430
583.4413, 1145.260
583.9234, 1150.190
584.4055, 1152.773
584.8876, 1156.129
585.3698, 1165.406
585.8519, 1178.771
586.3340, 1186.389
586.8161, 1178.166
587.2982, 1167.417
587.7803, 1162.038
588.2625, 1166.006
588.7446, 1167.005
589.2267, 1162.019
589.7088, 1155.508
590.1909, 1152.528
590.6730, 1154.799
591.1552, 1156.057
591.6373, 1155.540
592.1194, 1153.184
592.6015, 1147.210
593.0836, 1137.182
593.5657, 1130.335
594.0479, 1131.724
594.5300, 1139.092
595.0121, 1148.637
595.4942, 1160.499
595.9763, 1167.127
596.4584, 1155.901
596.9406, 1137.851
597.4227, 1127.600
597.9048, 1132.173
598.3869, 1139.272
598.8690, 1144.835
599.3511, 1148.741
599.8333, 1150.882
600.3154, 1150.794
600.7975, 1149.273
601.2796, 1142.632
601.7617, 1131.349
602.2438, 1138.042
602.7260, 1174.848
603.2081, 1208.698
603.6902, 1216.130
604.1723, 1195.067
604.6544, 1174.756
605.1365, 1155.274
605.6187, 1140.977
606.1008, 1141.169
606.5829, 1152.756
607.0650, 1163.085
607.5471, 1169.781
608.0292, 1171.457
608.5114, 1162.189
608.9935, 1145.422
609.4756, 1133.194
609.9577, 1138.474
610.4398, 1145.337
610.9219, 1141.631
611.4041, 1123.829
611.8862, 1113.906
612.3683, 1124.162
612.8504, 1138.753
613.3325, 1145.300
613.8146, 1138.121
614.2968, 1134.135
614.7789, 1134.701
615.2610, 1138.352
615.7431, 1144.065
616.2252, 1152.620
616.7073, 1154.979
617.1895, 1144.402
617.6716, 1126.742
618.1537, 1117.891
618.6358, 1117.384
619.1179, 1121.283
619.6000, 1127.743
620.0822, 1136.546
620.5643, 1149.590
621.0464, 1168.985
621.5285, 1181.969
622.0106, 1175.936
622.4927, 1162.211
622.9749, 1152.904
623.4570, 1154.771
623.9391, 1156.271
624.4212, 1155.532
624.9033, 1153.357
625.3854, 1150.905
625.8676, 1145.205
626.3497, 1146.220
626.8318, 1161.229
627.3139, 1187.681
627.7960, 1200.300
628.2781, 1198.329
628.7603, 1188.732
629.2424, 1172.613
629.7245, 1153.507
630.2066, 1140.185
