##NAMES=Allanite-(Ce)
##RRUFFID=R050043
##IDEAL CHEMISTRY=CaCeAl_2_Fe^2+^(Si_2_O_7_)(SiO_4_)O(OH)
##LOCALITY=Arendal, Norway
##OWNER=RRUFF
##SOURCE=University of Arizona Mineral Museum
##DESCRIPTION=Black patially metamict fragment, note that a fragment of this sample was heated and is posted at R080092
##STATUS=The identification of this mineral has been confirmed by X-ray diffraction and chemical analysis
##URL=rruff.info/R050043
##MEASURED CHEMISTRY=Ca_1.00_(Ce^3+^_0.22_Ca_0.21_La_0.11_Nd_0.11_Mn_0.08_Gd_0.07_Th_0.06_Y_0.06_Ti_0.05_Mg_0.03_)_Σ=1_(Al_1.82_Fe^3+^_0.40_Fe^2+^_0.78_)_Σ=3_[Si_2.00_O_7_][Si_1.00_O_4_]O(OH)
139.444, 15480.000
140.280, 15470.000
141.116, 16050.000
141.951, 16210.000
142.786, 16010.000
143.621, 16050.000
144.456, 16101.175
145.291, 16134.767
146.126, 16330.000
146.961, 16350.000
147.796, 16730.000
148.630, 16820.000
149.465, 16934.713
150.299, 16430.000
151.133, 17010.000
151.968, 17020.000
152.802, 16810.000
153.636, 17080.000
154.469, 17400.000
155.303, 17210.000
156.137, 17000.000
156.971, 17140.000
157.804, 17039.100
158.637, 17360.000
159.471, 17260.000
160.304, 17410.000
161.137, 17473.748
161.970, 17680.000
162.803, 17490.000
163.636, 17600.000
164.469, 17492.018
165.301, 17770.000
166.134, 17550.000
166.966, 17980.000
167.798, 18140.000
168.631, 17850.000
169.463, 17710.000
170.295, 18340.000
171.127, 18330.000
171.959, 18070.000
172.790, 18320.000
173.622, 18570.000
174.454, 18700.000
175.285, 18882.504
176.116, 18986.012
176.948, 18990.000
177.779, 19130.000
178.610, 18860.000
179.441, 18870.000
180.272, 19400.000
181.102, 19390.000
181.933, 19160.000
182.764, 19100.000
183.594, 19136.059
184.425, 19780.000
185.255, 19350.000
186.085, 19870.000
186.915, 20220.000
187.745, 20240.000
188.575, 20599.010
189.405, 20400.000
190.235, 20910.000
191.064, 20680.000
191.894, 20690.000
192.723, 20900.000
193.552, 20810.936
194.382, 21180.000
195.211, 21010.000
196.040, 21520.000
196.869, 21860.000
197.698, 21990.000
198.526, 22344.279
199.355, 22310.000
200.183, 22630.000
201.012, 22790.000
201.840, 22590.000
202.668, 22910.000
203.497, 23640.000
204.325, 23500.000
205.153, 23280.000
205.981, 23950.000
206.808, 24600.000
207.636, 24120.000
208.464, 24260.000
209.291, 25160.000
210.118, 25790.000
210.946, 25140.000
211.773, 25550.000
212.600, 26390.000
213.427, 26700.000
214.254, 27273.990
215.081, 27629.447
215.907, 28110.000
216.734, 28120.000
217.560, 28200.000
218.387, 28270.000
219.213, 28448.236
220.039, 29310.000
220.866, 29130.000
221.692, 29220.000
222.518, 30110.000
223.343, 30000.000
224.169, 29280.000
224.995, 29900.000
225.820, 30220.000
226.646, 30130.000
227.471, 30316.010
228.296, 29560.000
229.122, 29930.000
229.947, 29320.000
230.772, 28610.000
231.596, 28870.000
232.421, 28980.000
233.246, 28230.000
234.070, 27580.000
234.895, 28130.000
235.719, 28010.000
236.544, 27520.000
237.368, 26700.000
238.192, 27260.000
239.016, 27160.000
239.840, 26520.000
240.664, 26410.000
241.487, 26560.000
242.311, 26810.000
243.135, 26180.000
243.958, 26250.000
244.781, 26500.000
245.605, 26710.000
246.428, 26210.000
247.251, 25840.000
248.074, 26440.000
248.897, 26610.000
249.719, 26260.000
250.542, 26030.000
251.365, 26590.000
252.187, 26470.000
253.009, 26020.000
253.832, 26000.000
254.654, 25948.615
255.476, 26450.000
256.298, 26210.000
257.120, 26210.000
257.942, 26690.000
258.763, 26710.000
259.585, 26170.000
260.407, 26330.000
261.228, 26710.000
262.049, 26550.000
262.870, 26695.094
263.692, 26160.000
264.513, 26570.000
265.334, 25880.000
266.154, 25540.000
266.975, 25770.000
267.796, 25359.820
268.616, 25760.000
269.437, 25240.000
270.257, 25560.000
271.078, 25670.000
271.898, 25470.000
272.718, 25010.000
273.538, 25090.000
274.358, 24800.307
275.177, 24900.000
275.997, 24620.000
276.817, 24850.000
277.636, 25070.000
278.456, 24750.000
279.275, 24945.211
280.094, 24560.000
280.913, 24780.000
281.732, 24400.000
282.551, 23980.000
283.370, 24200.000
284.189, 23797.732
285.008, 24250.000
285.826, 23600.000
286.645, 24090.000
287.463, 24380.000
288.281, 23930.000
289.099, 23570.000
289.918, 24160.000
290.736, 23940.000
291.553, 23740.000
292.371, 23230.000
293.189, 23660.000
294.007, 24150.000
294.824, 23840.000
295.641, 24231.795
296.459, 23870.000
297.276, 24210.000
298.093, 23840.000
298.910, 23300.000
299.727, 23880.000
300.544, 23790.000
301.361, 23570.000
302.177, 23380.000
302.994, 23650.000
303.810, 23433.766
304.627, 23640.000
305.443, 23490.000
306.259, 23960.000
307.075, 24320.000
307.891, 23690.000
308.707, 23540.000
309.523, 24200.000
310.339, 24110.000
311.154, 23550.000
311.970, 23610.000
312.785, 23495.268
313.601, 23538.957
314.416, 23690.000
315.231, 23790.000
316.046, 24250.000
316.861, 24150.000
317.676, 23620.000
318.491, 23860.000
319.305, 24180.000
320.120, 24310.000
320.934, 24486.908
321.749, 24452.906
322.563, 24400.000
323.377, 24310.000
324.191, 23570.000
325.005, 23570.000
325.819, 23387.320
326.633, 24240.000
327.447, 23540.000
328.260, 23500.000
329.074, 24140.000
329.887, 24020.000
330.701, 23430.000
331.514, 23250.000
332.327, 23750.000
333.140, 23940.000
333.953, 23290.000
334.766, 23120.000
335.579, 23750.000
336.392, 23590.000
337.204, 23130.000
338.017, 23440.000
338.829, 23720.000
339.641, 23620.000
340.454, 23310.000
341.266, 23360.000
342.078, 23125.340
342.890, 23540.000
343.701, 23080.000
344.513, 23230.000
345.325, 23830.000
346.136, 23850.000
346.948, 23610.000
347.759, 23530.000
348.571, 24180.000
349.382, 24070.000
350.193, 23980.000
351.004, 23910.000
351.815, 23975.848
352.625, 24139.883
353.436, 24290.000
354.247, 24590.000
355.057, 25010.000
355.868, 25140.000
356.678, 25362.342
357.488, 25429.955
358.298, 25470.000
359.109, 25510.000
359.919, 25648.598
360.728, 25430.000
361.538, 25910.000
362.348, 25780.000
363.157, 25840.000
363.967, 25470.000
364.776, 25539.402
365.586, 26440.000
366.395, 25770.000
367.204, 25780.000
368.013, 26500.000
368.822, 26170.000
369.631, 25550.000
370.439, 25770.000
371.248, 25324.033
372.057, 26080.000
372.865, 25220.000
373.674, 25560.000
374.482, 26230.000
375.290, 26100.000
376.098, 26325.869
376.906, 25470.000
377.714, 26040.000
378.522, 26200.000
379.329, 25530.000
380.137, 25670.000
380.945, 26200.000
381.752, 25960.000
382.559, 25890.000
383.367, 26000.000
384.174, 25965.076
384.981, 26400.000
385.788, 26090.000
386.595, 26170.000
387.401, 26101.533
388.208, 26740.000
389.015, 26250.000
389.821, 27020.000
390.628, 27420.000
391.434, 27040.000
392.240, 27100.000
393.046, 26730.000
393.852, 27400.000
394.658, 27540.000
395.464, 27320.000
396.270, 26740.000
397.076, 27620.000
397.881, 27640.000
398.687, 26980.000
399.492, 26820.000
400.297, 26786.955
401.102, 26568.742
401.908, 26690.000
402.713, 26850.000
403.518, 26587.104
404.322, 26789.805
405.127, 26650.000
405.932, 26980.000
406.736, 27210.000
407.541, 27450.000
408.345, 27525.256
409.149, 26570.000
409.954, 27340.000
410.758, 27020.000
411.562, 26390.000
412.365, 26550.000
413.169, 26950.000
413.973, 26730.000
414.777, 26450.000
415.580, 26130.000
416.384, 26171.449
417.187, 26150.098
417.990, 26260.000
418.793, 26530.000
419.596, 26580.000
420.399, 26990.000
421.202, 26938.838
422.005, 26966.484
422.808, 26870.000
423.610, 26680.000
424.413, 26500.000
425.215, 26040.000
426.018, 26077.666
426.820, 26057.186
427.622, 26060.000
428.424, 26220.000
429.226, 26340.000
430.028, 26230.000
430.829, 26330.000
431.631, 25520.000
432.433, 26200.000
433.234, 26200.000
434.036, 25490.000
434.837, 25620.000
435.638, 25770.000
436.439, 25650.000
437.240, 25500.000
438.041, 24790.000
438.842, 25050.000
439.643, 25460.000
440.443, 24730.000
441.244, 24340.000
442.045, 24900.000
442.845, 24560.000
443.645, 24630.000
444.445, 24732.633
445.245, 23900.000
446.045, 24460.000
446.845, 24050.000
447.645, 23250.000
448.445, 23700.000
449.245, 24070.000
450.044, 23600.000
450.844, 23944.926
451.643, 23280.000
452.442, 23670.000
453.241, 23370.000
454.041, 22600.000
454.840, 22950.000
455.638, 23310.000
456.437, 23230.000
457.236, 23378.480
458.035, 22650.000
458.833, 23130.000
459.632, 22790.000
460.430, 22270.000
461.228, 22580.000
462.026, 23040.000
462.824, 22570.000
463.622, 22200.000
464.420, 22500.000
465.218, 22460.000
466.016, 22570.000
466.813, 22618.939
467.611, 22170.000
468.408, 22690.000
469.206, 22430.000
470.003, 22585.461
470.800, 22070.000
471.597, 22400.000
472.394, 22270.000
473.191, 21970.000
473.988, 21760.000
474.785, 21713.684
475.581, 21503.438
476.378, 21610.000
477.174, 21480.000
477.970, 21359.262
478.767, 21810.000
479.563, 21340.000
480.359, 21600.000
481.155, 21860.000
481.951, 21770.000
482.747, 21320.000
483.542, 21520.000
484.338, 21620.000
485.133, 21760.000
485.929, 21220.000
486.724, 21460.000
487.519, 21270.000
488.315, 21650.000
489.110, 21110.000
489.905, 20740.000
490.699, 20900.000
491.494, 20642.516
492.289, 20890.000
493.083, 20680.000
493.878, 20830.000
494.672, 20900.000
495.467, 20830.000
496.261, 20560.000
497.055, 20710.000
497.849, 20550.000
498.643, 20790.000
499.437, 20290.000
500.231, 20310.000
501.024, 20115.566
501.818, 20090.000
502.612, 20130.875
503.405, 20020.000
504.198, 20250.000
504.991, 20260.000
505.785, 20306.164
506.578, 20239.883
507.371, 20170.000
508.163, 19950.000
508.956, 19740.000
509.749, 19550.000
510.542, 19496.422
511.334, 19690.000
512.126, 19450.000
512.919, 19710.000
513.711, 19710.000
514.503, 19550.000
515.295, 19260.000
516.087, 19320.000
516.879, 19480.000
517.671, 19320.000
518.462, 19230.000
519.254, 19326.086
520.046, 19180.000
520.837, 19390.000
521.628, 19030.000
522.419, 18960.000
523.211, 19080.000
524.002, 19130.000
524.793, 19120.000
525.583, 19163.324
526.374, 19270.000
527.165, 19070.000
527.956, 18870.000
528.746, 18620.000
529.536, 18700.000
530.327, 18980.000
531.117, 18750.000
531.907, 18490.000
532.697, 18900.000
533.487, 18970.000
534.277, 18510.000
535.067, 18500.000
535.856, 18600.000
536.646, 18860.000
537.436, 18750.000
538.225, 18400.000
539.014, 18350.000
539.804, 18640.000
540.593, 19000.000
541.382, 18958.764
542.171, 18500.000
542.960, 18800.000
543.748, 18850.000
544.537, 18190.000
545.326, 18410.000
546.114, 18370.000
546.903, 18970.000
547.691, 18160.000
548.479, 18310.000
549.267, 18600.000
550.055, 18640.000
550.843, 18713.910
551.631, 18720.033
552.419, 18640.000
553.207, 18620.000
553.994, 18420.000
554.782, 18440.000
555.569, 18410.000
556.357, 18399.027
557.144, 18530.000
557.931, 18530.000
558.718, 18630.000
559.505, 18810.000
560.292, 18400.000
561.079, 18760.000
561.865, 18710.000
562.652, 19110.000
563.439, 18860.000
564.225, 18700.000
565.011, 19040.000
565.798, 19460.000
566.584, 19100.000
567.370, 19120.000
568.156, 19010.000
568.942, 19016.293
569.728, 19110.709
570.513, 19290.000
571.299, 19290.000
572.084, 19650.000
572.870, 19630.000
573.655, 19737.789
574.441, 19590.000
575.226, 19730.000
576.011, 19870.000
576.796, 19620.000
577.581, 19690.000
578.366, 20050.000
579.150, 19880.000
579.935, 20010.000
580.719, 19760.000
581.504, 19830.000
582.288, 20130.000
583.073, 19920.000
583.857, 19770.000
584.641, 19830.000
585.425, 19804.178
586.209, 19730.000
586.993, 19960.000
587.776, 20090.000
588.560, 20130.000
589.344, 20238.189
590.127, 20309.143
590.910, 20290.000
591.694, 20320.000
592.477, 20290.000
593.260, 20010.000
594.043, 20230.000
594.826, 20490.000
595.609, 20340.000
596.392, 20614.926
597.174, 20518.547
597.957, 20760.000
598.739, 20420.000
599.522, 20170.000
600.304, 20190.000
601.086, 20610.000
601.868, 20270.000
602.650, 20330.000
603.432, 20550.000
604.214, 20480.000
604.996, 20670.000
605.778, 20540.000
606.559, 20370.000
607.341, 20200.000
608.122, 20690.000
608.904, 20520.000
609.685, 20650.000
610.466, 20340.000
611.247, 20760.000
612.028, 20620.000
612.809, 20630.000
613.590, 20750.000
614.370, 20970.000
615.151, 20990.000
615.932, 21202.414
616.712, 20530.000
617.492, 21150.000
618.273, 21200.000
619.053, 20320.000
619.833, 21100.000
620.613, 20870.000
621.393, 21140.000
622.173, 20520.000
622.952, 20800.000
623.732, 20980.000
624.511, 21100.000
625.291, 20670.000
626.070, 20930.000
626.850, 20900.000
627.629, 21090.000
628.408, 21240.000
629.187, 20740.000
629.966, 21000.000
630.745, 21210.000
631.523, 20880.000
632.302, 21070.000
633.081, 20960.000
633.859, 21080.000
634.637, 21360.000
635.416, 20960.000
636.194, 21100.000
636.972, 21030.000
637.750, 21480.000
638.528, 21370.000
639.306, 21540.000
640.084, 21620.000
640.861, 21340.000
641.639, 21060.000
642.417, 21220.000
643.194, 21430.000
643.971, 21700.000
644.749, 20990.000
645.526, 21120.000
646.303, 21910.000
647.080, 21320.000
647.857, 21510.000
648.633, 21080.000
649.410, 21490.000
650.187, 21510.000
650.963, 21560.000
651.740, 21681.154
652.516, 21440.000
653.292, 21590.000
654.069, 21430.000
654.845, 21110.000
655.621, 21460.000
656.397, 21580.000
657.172, 21400.000
657.948, 21590.000
658.724, 21220.000
659.499, 21540.000
660.275, 21550.000
661.050, 21380.000
661.825, 21200.000
662.601, 21330.000
663.376, 21205.082
664.151, 21370.000
664.926, 21170.000
665.701, 21080.000
666.475, 21008.436
667.250, 21400.000
668.025, 21020.000
668.799, 21270.000
669.574, 21400.000
670.348, 21320.000
671.122, 21475.725
671.896, 21280.000
672.670, 21480.000
673.444, 21230.000
674.218, 21040.000
674.992, 21050.000
675.766, 21150.000
676.539, 21460.000
677.313, 20980.000
678.086, 20890.000
678.860, 21100.000
679.633, 21400.000
680.406, 20750.000
681.179, 20700.000
681.952, 21130.000
682.725, 20910.000
683.498, 21220.000
684.271, 20640.000
685.043, 20800.000
685.816, 21310.000
686.588, 20810.000
687.361, 20470.000
688.133, 20790.000
688.905, 21040.000
689.677, 20990.000
690.449, 21076.125
691.221, 20730.000
691.993, 20780.000
692.765, 20910.000
693.537, 20440.000
694.308, 20330.000
695.080, 20820.000
695.851, 21010.000
696.623, 20540.000
697.394, 20490.000
698.165, 20620.000
698.936, 20840.000
699.707, 20730.000
700.478, 20832.314
701.249, 20630.000
702.019, 20710.000
702.790, 20740.000
703.561, 20440.000
704.331, 20480.000
705.102, 20750.000
705.872, 20510.000
706.642, 20450.000
707.412, 20350.000
708.182, 20730.000
708.952, 20780.000
709.722, 20620.000
710.492, 20270.000
711.261, 20720.000
712.031, 20780.000
712.800, 20590.000
713.570, 20140.000
714.339, 20660.000
715.108, 20490.000
715.878, 20290.000
716.647, 20280.000
717.416, 20430.000
718.185, 20600.000
718.953, 20210.000
719.722, 20250.000
720.491, 20120.000
721.259, 20430.000
722.028, 20280.000
722.796, 20100.000
723.564, 19910.000
724.332, 19884.172
725.101, 19855.211
725.869, 19870.000
726.637, 19870.000
727.404, 19920.000
728.172, 19750.000
728.940, 19830.000
729.707, 19650.000
730.475, 20010.000
731.242, 19760.000
732.010, 19830.000
732.777, 19490.000
733.544, 19580.000
734.311, 19800.000
735.078, 19670.000
735.845, 19370.000
736.612, 19270.000
737.378, 19380.000
738.145, 19550.000
738.912, 19390.000
739.678, 19406.449
740.444, 19220.000
741.211, 19210.000
741.977, 19090.000
742.743, 19020.000
743.509, 19110.000
744.275, 19020.000
745.041, 19010.000
745.807, 18920.000
746.572, 18750.000
747.338, 19010.000
748.103, 18990.000
748.869, 18590.000
749.634, 18890.000
750.399, 18720.000
751.164, 18880.000
751.929, 18680.000
752.694, 18760.000
753.459, 18600.000
754.224, 18800.000
754.989, 18490.000
755.753, 18430.000
756.518, 18640.000
757.282, 18760.000
758.047, 18710.000
758.811, 18370.000
759.575, 18610.000
760.339, 18550.000
761.103, 18850.000
761.867, 18764.316
762.631, 18570.000
763.395, 18540.000
764.159, 18530.000
764.922, 18180.000
765.686, 18360.000
766.449, 18670.000
767.213, 18290.000
767.976, 18530.000
768.739, 18210.000
769.502, 18450.000
770.265, 18410.000
771.028, 18510.000
771.791, 18510.650
772.553, 18506.883
773.316, 18420.000
774.079, 18460.000
774.841, 18380.000
775.604, 18280.000
776.366, 18270.000
777.128, 18267.793
777.890, 18350.000
778.652, 18340.000
779.414, 18340.000
780.176, 18370.000
780.938, 18250.000
781.700, 18280.000
782.461, 18300.000
783.223, 18460.000
783.984, 18480.000
784.745, 18503.184
785.507, 18495.975
786.268, 18500.000
787.029, 18400.000
787.790, 18380.000
788.551, 18370.000
789.312, 18324.881
790.072, 18170.000
790.833, 18310.000
791.594, 18440.000
792.354, 18490.000
793.115, 18280.000
793.875, 18300.000
794.635, 18260.000
795.395, 18510.000
796.155, 18590.000
796.915, 18420.000
797.675, 18410.000
798.435, 18420.000
799.195, 18370.000
799.954, 18500.000
800.714, 18380.000
801.473, 18230.000
802.233, 18620.000
802.992, 18620.000
803.751, 18510.000
804.510, 18460.000
805.269, 18570.000
806.028, 18680.000
806.787, 18540.000
807.546, 18500.000
808.305, 18760.000
809.063, 18640.000
809.822, 18770.000
810.580, 18530.000
811.339, 18700.000
812.097, 18750.000
812.855, 19090.000
813.613, 19051.197
814.371, 18840.000
815.129, 19010.000
815.887, 19060.000
816.645, 18880.000
817.402, 18980.000
818.160, 19170.000
818.917, 19400.000
819.675, 19030.000
820.432, 19100.000
821.189, 19300.000
821.946, 19510.000
822.703, 19380.000
823.460, 19350.000
824.217, 19460.000
824.974, 19520.000
825.731, 19590.000
826.488, 19560.000
827.244, 19730.000
828.001, 19970.000
828.757, 19880.000
829.513, 19930.000
830.269, 20030.000
831.026, 19920.000
831.782, 20170.000
832.538, 20360.000
833.293, 20280.000
834.049, 20475.605
834.805, 20510.000
835.561, 20600.000
836.316, 20660.000
837.072, 20660.000
837.827, 21050.000
838.582, 21040.000
839.337, 21070.000
840.092, 20910.000
840.847, 21360.000
841.602, 21410.000
842.357, 21510.000
843.112, 21500.000
843.867, 21780.000
844.621, 21920.000
845.376, 22160.000
846.130, 22040.000
846.885, 22400.000
847.639, 22400.000
848.393, 22750.000
849.147, 22720.000
849.901, 23000.000
850.655, 22970.000
851.409, 23410.000
852.163, 23160.000
852.916, 23590.000
853.670, 23960.000
854.423, 24040.000
855.177, 24320.000
855.930, 24330.000
856.683, 24810.000
857.436, 25100.000
858.189, 25300.000
858.942, 25300.000
859.695, 25380.000
860.448, 25653.582
861.201, 26210.000
861.953, 26400.000
862.706, 26819.680
863.458, 27220.000
864.211, 27460.000
864.963, 27880.000
865.715, 28030.000
866.468, 28230.000
867.220, 28628.336
867.972, 29130.000
868.723, 29240.000
869.475, 29820.000
870.227, 29920.000
870.979, 30323.723
871.730, 30510.000
872.482, 31110.000
873.233, 31670.000
873.984, 32220.000
874.735, 32552.094
875.487, 32969.367
876.238, 33050.000
876.989, 33580.000
877.739, 33690.000
878.490, 33930.000
879.241, 34260.000
879.991, 34480.000
880.742, 35100.000
881.492, 35040.000
882.243, 35600.000
882.993, 35750.000
883.743, 36140.000
884.493, 36120.000
885.243, 36180.000
885.993, 36500.000
886.743, 36770.000
887.493, 36750.000
888.243, 36170.000
888.992, 36840.000
889.742, 36620.000
890.491, 36980.000
891.241, 36200.000
891.990, 36760.000
892.739, 36410.000
893.488, 36360.000
894.237, 36490.000
894.986, 35890.000
895.735, 35900.000
896.484, 35820.000
897.232, 35730.000
897.981, 35360.000
898.729, 34980.000
899.478, 35220.000
900.226, 34440.000
900.974, 34120.000
901.723, 33460.000
902.471, 33670.000
903.219, 33170.000
903.967, 32860.000
904.714, 32150.000
905.462, 31460.000
906.210, 31640.000
906.957, 31280.000
907.705, 30420.000
908.452, 30020.000
909.200, 29610.000
909.947, 28830.000
910.694, 28530.000
911.441, 28160.000
912.188, 27890.000
912.935, 27490.000
913.682, 26870.000
914.429, 26670.000
915.175, 25850.000
915.922, 25720.000
916.668, 25600.000
917.415, 25140.000
918.161, 24430.000
918.907, 24350.000
919.653, 23920.000
920.400, 23720.000
921.146, 23390.000
921.891, 23200.000
922.637, 23060.000
923.383, 22710.000
924.129, 22450.000
924.874, 22300.000
925.620, 22140.000
926.365, 21930.000
927.110, 21560.000
927.856, 21630.000
928.601, 21360.000
929.346, 21330.000
930.091, 21070.000
930.836, 20940.000
931.581, 20750.000
932.325, 20630.000
933.070, 20470.000
933.815, 20340.000
934.559, 20246.783
935.303, 20240.000
936.048, 20120.000
936.792, 20060.000
937.536, 20100.000
938.280, 19860.000
939.024, 20080.000
939.768, 19880.000
940.512, 19470.000
941.256, 19750.000
941.999, 19730.000
