##NAMES=Allanpringite
##RRUFFID=R080147
##IDEAL CHEMISTRY=Fe^3+^_3_(PO_4_)_2_(OH)_3_&#183;5H_2_O
##LOCALITY=Mark mine, Essershausen, Weilburg, Wetzlar, Hesse, Germany
##OWNER=RRUFF
##SOURCE=Steffan Jahn
##DESCRIPTION=Bundles of acicular yellow crystals on matrix.
##STATUS=The identification of this mineral has been confirmed by single-crystal X-ray diffraction.
##URL=rruff.info/R080147
93.30109, 0.0000000E+00
93.78320, 489.8703
94.26532, 489.3126
94.74744, 491.4581
95.22955, 495.0903
95.71167, 499.4507
96.19379, 500.5940
96.67590, 499.3738
97.15802, 496.6049
97.64014, 491.5179
98.12225, 485.1259
98.60437, 479.2031
99.08649, 474.5299
99.56860, 470.6767
100.0507, 466.9356
100.5328, 462.6690
101.0150, 457.9116
101.4971, 452.2455
101.9792, 445.5477
102.4613, 440.2094
102.9434, 438.1687
103.4255, 437.2663
103.9077, 435.9190
104.3898, 433.5011
104.8719, 430.8408
105.3540, 429.8379
105.8361, 432.0240
106.3182, 433.1324
106.8004, 431.6624
107.2825, 428.8862
107.7646, 426.3150
108.2467, 424.9055
108.7288, 424.5049
109.2109, 423.1748
109.6931, 420.1335
110.1752, 416.9320
110.6573, 413.6083
111.1394, 410.3846
111.6215, 407.7047
112.1036, 406.0549
112.5858, 405.6173
113.0679, 404.7447
113.5500, 403.8788
114.0321, 402.3505
114.5142, 398.9829
114.9964, 393.6005
115.4785, 388.4757
115.9606, 386.8788
116.4427, 388.5778
116.9248, 389.7566
117.4069, 388.6985
117.8891, 386.5758
118.3712, 386.1069
118.8533, 388.8026
119.3354, 391.6905
119.8175, 391.3917
120.2996, 388.2218
120.7818, 385.5811
121.2639, 386.9915
121.7460, 392.6840
122.2281, 395.9748
122.7102, 392.2683
123.1923, 388.0147
123.6745, 386.7161
124.1566, 388.9254
124.6387, 392.6530
125.1208, 395.1090
125.6029, 395.7874
126.0850, 396.1266
126.5672, 396.2780
127.0493, 396.2141
127.5314, 395.7014
128.0135, 394.6738
128.4956, 393.5419
128.9777, 393.4616
129.4599, 395.6043
129.9420, 397.5904
130.4241, 399.4887
130.9062, 401.1000
131.3883, 402.0752
131.8704, 402.1578
132.3526, 401.5395
132.8347, 401.3189
133.3168, 401.5562
133.7989, 402.0227
134.2810, 402.9546
134.7632, 404.1936
135.2453, 404.8686
135.7274, 404.0204
136.2095, 402.2107
136.6916, 401.4910
137.1737, 403.2927
137.6559, 405.4196
138.1380, 405.1253
138.6201, 401.8035
139.1022, 398.9263
139.5843, 399.5516
140.0664, 401.9781
140.5486, 403.8947
141.0307, 404.2151
141.5128, 403.3807
141.9949, 402.4656
142.4770, 400.5229
142.9591, 400.1049
143.4413, 402.9864
143.9234, 407.9127
144.4055, 412.6763
144.8876, 415.8109
145.3697, 417.3122
145.8518, 417.8046
146.3340, 415.2965
146.8161, 413.5005
147.2982, 413.7101
147.7803, 415.7212
148.2624, 418.5565
148.7445, 421.2586
149.2267, 423.5901
149.7088, 426.7914
150.1909, 432.0312
150.6730, 437.0287
151.1551, 440.4585
151.6372, 442.1789
152.1194, 442.9319
152.6015, 443.5839
153.0836, 444.0649
153.5657, 444.6222
154.0478, 444.7603
154.5299, 445.2039
155.0121, 447.1697
155.4942, 451.0893
155.9763, 455.1652
156.4584, 456.1572
156.9405, 453.8432
157.4226, 452.0140
157.9048, 452.0899
158.3869, 453.3417
158.8690, 454.2055
159.3511, 454.1562
159.8332, 453.7763
160.3153, 454.1709
160.7975, 455.4302
161.2796, 455.7217
161.7617, 453.1727
162.2438, 448.0365
162.7259, 443.8676
163.2081, 441.9979
163.6902, 441.0384
164.1723, 440.1348
164.6544, 439.1859
165.1365, 438.0658
165.6186, 436.4890
166.1008, 434.2759
166.5829, 432.4642
167.0650, 431.7448
167.5471, 431.1436
168.0292, 429.9645
168.5113, 428.0593
168.9935, 425.9503
169.4756, 424.5719
169.9577, 424.5138
170.4398, 424.0613
170.9219, 423.2721
171.4040, 422.0197
171.8862, 419.7596
172.3683, 416.3726
172.8504, 412.8030
173.3325, 411.3238
173.8146, 415.5660
174.2967, 417.6218
174.7789, 415.7751
175.2610, 412.1353
175.7431, 409.2750
176.2252, 408.3707
176.7073, 408.6463
177.1894, 407.5174
177.6716, 404.6235
178.1537, 400.9843
178.6358, 395.8043
179.1179, 390.0244
179.6000, 385.4218
180.0821, 382.9773
180.5643, 382.2274
181.0464, 381.6540
181.5285, 381.3660
182.0106, 381.0564
182.4927, 380.7841
182.9748, 380.4487
183.4570, 379.4676
183.9391, 377.0353
184.4212, 374.1295
184.9033, 372.8268
185.3854, 373.9358
185.8675, 375.3634
186.3497, 375.1804
186.8318, 373.3320
187.3139, 371.7967
187.7960, 371.4406
188.2781, 371.9283
188.7602, 373.1374
189.2424, 375.3749
189.7245, 377.5974
190.2066, 378.2162
190.6887, 376.7183
191.1708, 375.4774
191.6530, 375.4559
192.1351, 376.0013
192.6172, 376.7225
193.0993, 377.5459
193.5814, 378.2242
194.0635, 378.0772
194.5457, 376.2787
195.0278, 375.3506
195.5099, 376.0943
195.9920, 377.6774
196.4741, 379.4132
196.9562, 381.0159
197.4384, 382.4233
197.9205, 383.3820
198.4026, 382.8015
198.8847, 383.3436
199.3668, 386.5503
199.8489, 390.5688
200.3311, 393.1516
200.8132, 393.1273
201.2953, 391.2686
201.7774, 390.6359
202.2595, 393.0290
202.7416, 394.7098
203.2238, 394.9846
203.7059, 394.3972
204.1880, 393.5944
204.6701, 392.8716
205.1522, 392.3672
205.6343, 392.7666
206.1165, 395.3110
206.5986, 397.2498
207.0807, 397.5655
207.5628, 396.8939
208.0449, 396.5653
208.5270, 397.4141
209.0092, 398.9029
209.4913, 398.7316
209.9734, 394.8128
210.4555, 392.0547
210.9376, 393.0587
211.4197, 396.7137
211.9019, 400.0262
212.3840, 401.5575
212.8661, 401.6306
213.3482, 401.3400
213.8303, 400.4096
214.3124, 399.5846
214.7946, 399.3242
215.2767, 399.5560
215.7588, 399.8594
216.2409, 399.9002
216.7230, 400.0567
217.2052, 400.9756
217.6873, 402.9645
218.1694, 405.0667
218.6515, 406.5423
219.1336, 407.4171
219.6157, 408.2359
220.0979, 409.4727
220.5800, 410.5466
221.0621, 410.5912
221.5442, 409.2275
222.0263, 408.0122
222.5084, 408.9976
222.9906, 412.4908
223.4727, 414.8576
223.9548, 414.5227
224.4369, 412.7884
224.9190, 410.0732
225.4011, 406.3661
225.8833, 402.8866
226.3654, 401.2037
226.8475, 401.6709
227.3296, 402.2711
227.8117, 403.0880
228.2938, 403.5857
228.7760, 403.3956
229.2581, 402.4416
229.7402, 400.8927
230.2223, 398.8442
230.7044, 396.0524
231.1865, 393.5225
231.6687, 391.0970
232.1508, 389.1234
232.6329, 388.1318
233.1150, 388.0938
233.5971, 388.2202
234.0792, 387.2505
234.5614, 384.3675
235.0435, 382.4431
235.5256, 382.3422
236.0077, 382.4825
236.4898, 381.9177
236.9719, 380.4805
237.4541, 378.5815
237.9362, 376.6543
238.4183, 374.2599
238.9004, 373.0521
239.3825, 373.8878
239.8646, 375.0433
240.3468, 375.1937
240.8289, 374.2843
241.3110, 373.4340
241.7931, 374.1691
242.2752, 377.5179
242.7573, 379.4080
243.2395, 378.7807
243.7216, 377.7169
244.2037, 377.8832
244.6858, 379.2887
245.1679, 380.3491
245.6501, 379.0979
246.1322, 374.5273
246.6143, 371.8305
247.0964, 371.6611
247.5785, 372.6343
248.0606, 374.4272
248.5428, 376.7386
249.0249, 378.5481
249.5070, 378.7171
249.9891, 376.8973
250.4712, 375.8618
250.9533, 376.0204
251.4355, 376.5872
251.9176, 376.9800
252.3997, 377.2024
252.8818, 377.7560
253.3639, 379.2409
253.8460, 381.6510
254.3282, 383.1259
254.8103, 382.8527
255.2924, 382.3145
255.7745, 382.5875
256.2566, 383.6419
256.7387, 384.7039
257.2209, 385.1721
257.7030, 385.1544
258.1851, 385.4855
258.6672, 386.1322
259.1493, 387.1469
259.6314, 388.6360
260.1136, 390.5716
260.5957, 392.7309
261.0778, 395.0880
261.5599, 397.5564
262.0420, 399.9714
262.5241, 402.9322
263.0063, 405.1273
263.4884, 404.7221
263.9705, 402.1203
264.4526, 401.0078
264.9347, 403.8744
265.4168, 408.8758
265.8990, 412.1566
266.3811, 413.0123
266.8632, 413.6405
267.3453, 415.6857
267.8274, 418.9824
268.3095, 422.3320
268.7917, 425.5807
269.2738, 428.3838
269.7559, 430.1182
270.2380, 430.5084
270.7201, 431.2970
271.2022, 433.8512
271.6844, 437.9590
272.1665, 442.3013
272.6486, 446.8819
273.1307, 451.1836
273.6128, 455.0576
274.0949, 458.5151
274.5771, 460.8850
275.0592, 461.0962
275.5413, 459.5820
276.0234, 458.7571
276.5055, 458.6279
276.9876, 459.8799
277.4698, 463.4734
277.9519, 468.9371
278.4340, 473.9206
278.9161, 477.0931
279.3982, 478.6344
279.8803, 479.1659
280.3625, 477.7276
280.8446, 476.8605
281.3267, 478.4251
281.8088, 481.6518
282.2909, 484.7959
282.7730, 487.2010
283.2552, 488.7833
283.7373, 488.9659
284.2194, 486.6612
284.7015, 485.0212
285.1836, 486.0317
285.6658, 488.4582
286.1479, 490.6220
286.6300, 492.0677
287.1121, 492.4814
287.5942, 490.8213
288.0764, 486.1400
288.5585, 481.5827
289.0406, 478.4078
289.5227, 475.9017
290.0048, 473.6780
290.4869, 471.8085
290.9691, 469.3317
291.4512, 463.9507
291.9333, 454.2242
292.4154, 446.2597
292.8975, 443.8515
293.3796, 442.5244
293.8618, 438.5961
294.3439, 431.1335
294.8260, 422.7080
295.3081, 417.0663
295.7902, 415.1279
296.2723, 411.6307
296.7545, 403.7175
297.2366, 395.3925
297.7187, 389.0222
298.2008, 384.7617
298.6829, 381.0915
299.1650, 376.5457
299.6472, 371.0196
300.1293, 365.4843
300.6114, 359.8227
301.0935, 354.3453
301.5756, 349.1019
302.0577, 344.1642
302.5399, 339.6181
303.0220, 335.5870
303.5041, 332.0676
303.9862, 328.8632
304.4683, 326.6014
304.9504, 323.8998
305.4326, 319.9207
305.9147, 315.2000
306.3968, 310.6839
306.8789, 306.8800
307.3610, 303.7581
307.8431, 301.3266
308.3253, 300.0677
308.8074, 298.7773
309.2895, 297.2546
309.7716, 295.4682
310.2537, 293.3398
310.7358, 290.7912
311.2180, 288.0428
311.7001, 285.5627
312.1822, 283.2562
312.6643, 281.4189
313.1464, 280.5472
313.6285, 279.8338
314.1107, 278.5911
314.5928, 276.6387
315.0749, 274.3458
315.5570, 271.9862
316.0391, 269.1729
316.5212, 267.7478
317.0034, 269.1965
317.4855, 271.0767
317.9676, 272.2946
318.4497, 272.6608
318.9318, 272.3746
319.4139, 271.2633
319.8961, 269.1305
320.3782, 268.1535
320.8603, 269.8778
321.3424, 271.3594
321.8245, 271.3901
322.3066, 270.2493
322.7888, 268.7329
323.2709, 267.1660
323.7530, 265.6892
324.2351, 265.4846
324.7172, 267.5531
325.1993, 269.5535
325.6815, 270.7851
326.1636, 271.5034
326.6457, 272.0469
327.1278, 272.5311
327.6099, 273.0492
328.0920, 274.0767
328.5742, 276.5470
329.0563, 277.4048
329.5384, 274.4056
330.0205, 270.5361
330.5026, 268.3675
330.9847, 268.6295
331.4669, 270.2082
331.9490, 271.7180
332.4311, 273.1910
332.9132, 274.4549
333.3953, 275.2333
333.8774, 275.9807
334.3596, 277.0434
334.8417, 278.3860
335.3238, 279.5913
335.8059, 280.0608
336.2880, 279.7767
336.7701, 280.1044
337.2523, 281.2377
337.7344, 282.8768
338.2165, 285.6903
338.6986, 288.9041
339.1807, 290.7296
339.6628, 289.4398
340.1450, 286.0816
340.6271, 284.7500
341.1092, 286.5331
341.5913, 288.2845
342.0735, 288.6877
342.5556, 288.4145
343.0377, 288.1129
343.5198, 287.8790
344.0019, 288.1486
344.4840, 290.1211
344.9662, 294.5068
345.4483, 297.5303
345.9304, 296.7249
346.4125, 294.8531
346.8946, 293.4572
347.3767, 292.7947
347.8589, 293.0844
348.3410, 295.1773
348.8231, 299.0058
349.3052, 301.4279
349.7873, 301.0175
350.2694, 300.1869
350.7516, 300.8725
351.2337, 302.7106
351.7158, 304.0526
352.1979, 303.3788
352.6800, 301.4134
353.1621, 300.6839
353.6443, 301.7331
354.1264, 302.8717
354.6085, 303.2921
355.0906, 303.1244
355.5727, 302.3557
356.0548, 300.3890
356.5370, 298.5353
357.0191, 299.1013
357.5012, 302.3793
357.9833, 304.7812
358.4654, 304.2227
358.9475, 302.3270
359.4297, 301.1812
359.9118, 301.1911
360.3939, 300.8531
360.8760, 298.5216
361.3581, 294.6866
361.8402, 291.8528
362.3224, 290.8286
362.8045, 290.6478
363.2866, 290.3779
363.7687, 290.0281
364.2508, 289.6878
364.7329, 289.7332
365.2151, 289.7027
365.6972, 288.5814
366.1793, 286.0928
366.6614, 283.6833
367.1435, 282.9549
367.6256, 283.1826
368.1078, 282.1084
368.5899, 278.3573
369.0720, 274.0956
369.5541, 271.2350
370.0362, 269.5583
370.5183, 267.5421
371.0005, 264.1293
371.4826, 260.2824
371.9647, 258.2314
372.4468, 258.6081
372.9289, 258.9560
373.4110, 258.2113
373.8932, 256.8184
374.3753, 255.6878
374.8574, 255.1133
375.3395, 254.4808
375.8216, 252.9716
376.3037, 250.5016
376.7859, 247.8821
377.2680, 244.5683
377.7501, 241.5500
378.2322, 239.8410
378.7143, 239.3969
379.1964, 239.3496
379.6786, 239.2139
380.1607, 238.9153
380.6428, 237.7903
381.1249, 234.3817
381.6070, 231.8727
382.0891, 232.1098
382.5713, 233.9525
383.0534, 235.1112
383.5355, 234.5583
384.0176, 233.1956
384.4997, 233.0346
384.9818, 236.0677
385.4640, 236.9648
385.9461, 233.2069
386.4282, 228.7604
386.9103, 227.4059
387.3924, 229.4653
387.8745, 232.3638
388.3567, 233.3519
388.8388, 232.1363
389.3209, 231.0845
389.8030, 229.9039
390.2851, 229.1419
390.7672, 229.5477
391.2494, 230.4960
391.7315, 230.6676
392.2136, 229.2266
392.6957, 226.6940
393.1778, 225.0915
393.6599, 224.8655
394.1421, 225.0416
394.6242, 225.9609
395.1063, 226.9661
395.5884, 227.4420
396.0706, 227.2512
396.5527, 226.7207
397.0348, 226.2737
397.5169, 225.9649
397.9990, 225.5265
398.4811, 225.0358
398.9633, 224.3381
399.4454, 223.0592
399.9275, 221.4945
400.4096, 220.3672
400.8917, 220.3081
401.3738, 221.0098
401.8560, 221.1195
402.3381, 220.3453
402.8202, 219.5186
403.3023, 218.7271
403.7844, 218.0918
404.2665, 217.9534
404.7487, 218.4734
405.2308, 218.7566
405.7129, 217.2828
406.1950, 213.8919
406.6771, 211.5874
407.1592, 211.2559
407.6414, 211.8851
408.1235, 213.2878
408.6056, 215.1652
409.0877, 216.1077
409.5698, 214.5738
410.0519, 211.6375
410.5341, 209.7373
411.0162, 208.9770
411.4983, 209.1232
411.9804, 211.1664
412.4625, 213.7612
412.9446, 214.3965
413.4268, 211.5501
413.9089, 208.5744
414.3910, 208.4480
414.8731, 210.6381
415.3552, 212.7504
415.8373, 214.3487
416.3195, 214.9989
416.8016, 213.4014
417.2837, 209.3822
417.7658, 206.5311
418.2479, 206.3619
418.7300, 207.5562
419.2122, 209.0576
419.6943, 210.6659
420.1764, 211.3876
420.6585, 210.0629
421.1406, 206.9903
421.6227, 205.6287
422.1049, 207.3165
422.5870, 209.0462
423.0691, 210.1489
423.5512, 210.3944
424.0333, 209.0516
424.5154, 205.7593
424.9976, 201.7859
425.4797, 199.5764
425.9618, 200.4944
426.4439, 200.5205
426.9260, 198.7960
427.4081, 196.8788
427.8903, 196.0245
428.3724, 196.1358
428.8545, 196.1348
429.3366, 195.0332
429.8187, 192.9184
430.3008, 191.8329
430.7830, 192.5070
431.2651, 193.4941
431.7472, 194.9402
432.2293, 196.4409
432.7114, 197.5952
433.1935, 198.2465
433.6757, 198.3748
434.1578, 197.8255
434.6399, 196.3559
435.1220, 195.0680
435.6041, 193.5760
436.0862, 192.6999
436.5684, 193.4649
437.0505, 195.3355
437.5326, 196.5886
438.0147, 195.7779
438.4968, 193.5197
438.9789, 191.9002
439.4611, 190.8664
439.9432, 190.6258
440.4253, 191.9308
440.9074, 193.7692
441.3895, 195.0253
441.8716, 195.3776
442.3538, 195.6956
442.8359, 196.9245
443.3180, 198.8838
443.8001, 200.4547
444.2822, 201.4618
444.7643, 201.9719
445.2465, 201.8660
445.7286, 201.2722
446.2107, 200.7047
446.6928, 199.6700
447.1749, 199.1482
447.6570, 200.6445
448.1392, 203.9306
448.6213, 206.8921
449.1034, 208.5053
449.5855, 208.9534
450.0677, 208.5305
450.5498, 206.2889
451.0319, 205.2762
451.5140, 207.3528
451.9961, 210.5825
452.4782, 212.4039
452.9604, 212.4053
453.4425, 212.1910
453.9246, 213.4610
454.4067, 216.4097
454.8888, 218.8099
455.3709, 220.2275
455.8531, 221.6591
456.3352, 224.1079
456.8173, 226.6797
457.2994, 227.5279
457.7815, 225.7756
458.2636, 222.9953
458.7458, 222.6236
459.2279, 226.1235
459.7100, 229.0369
460.1921, 230.9352
460.6742, 232.5456
461.1563, 234.3135
461.6385, 236.2054
462.1206, 237.9119
462.6027, 239.2507
463.0848, 240.1972
463.5669, 240.5704
464.0490, 240.1309
464.5312, 239.5842
465.0133, 238.9785
465.4954, 238.4846
465.9775, 238.1833
466.4596, 238.0673
466.9417, 238.4702
467.4239, 240.2605
467.9060, 243.0975
468.3881, 244.6305
468.8702, 244.2363
469.3523, 243.0444
469.8344, 241.6427
470.3166, 240.1659
470.7987, 239.0810
471.2808, 239.1398
471.7629, 239.1463
472.2450, 237.6222
472.7271, 234.9305
473.2093, 233.0157
473.6914, 232.8555
474.1735, 233.5945
474.6556, 233.5864
475.1377, 232.6817
475.6198, 231.6929
476.1020, 230.3494
476.5841, 229.2316
477.0662, 229.2737
477.5483, 230.2637
478.0304, 230.6236
478.5125, 228.9491
478.9947, 225.6267
479.4768, 224.1445
479.9589, 227.0569
480.4410, 228.6784
480.9231, 227.4472
481.4052, 225.0093
481.8874, 222.8509
482.3695, 221.4245
482.8516, 220.6493
483.3337, 220.7120
483.8158, 221.8653
484.2979, 221.6324
484.7801, 218.0554
485.2622, 215.3093
485.7443, 215.6790
486.2264, 217.6121
486.7085, 218.4463
487.1906, 216.8738
487.6728, 214.5073
488.1549, 213.8349
488.6370, 214.9830
489.1191, 215.7760
489.6012, 215.6441
490.0833, 215.0953
490.5655, 214.7573
491.0476, 214.5342
491.5297, 213.7544
492.0118, 211.7336
492.4939, 209.2434
492.9760, 207.2518
493.4582, 205.7601
493.9403, 204.4243
494.4224, 203.0667
494.9045, 201.7559
495.3866, 200.7201
495.8687, 200.0977
496.3509, 199.3428
496.8330, 198.1064
497.3151, 196.7991
497.7972, 196.0668
498.2793, 195.8693
498.7614, 195.3296
499.2436, 193.5567
499.7257, 190.6798
500.2078, 188.9801
500.6899, 189.6090
501.1720, 190.0263
501.6541, 190.0409
502.1363, 189.5398
502.6184, 188.2582
503.1005, 186.2021
503.5826, 183.9063
504.0647, 181.8891
504.5468, 180.0942
505.0290, 179.2154
505.5111, 180.2432
505.9932, 180.9635
506.4753, 180.3150
506.9575, 178.8676
507.4396, 177.5478
507.9217, 176.7244
508.4038, 176.0335
508.8859, 175.0216
509.3680, 173.7041
509.8502, 172.4258
510.3323, 171.3281
510.8144, 170.1748
511.2965, 168.4310
511.7786, 166.2841
512.2607, 164.8613
512.7429, 164.9536
513.2250, 165.4758
513.7071, 165.5888
514.1892, 165.3239
514.6713, 164.8605
515.1534, 164.2138
515.6356, 163.6015
516.1177, 163.5300
516.5998, 164.6552
517.0819, 164.7964
517.5640, 163.1178
518.0461, 161.0796
518.5283, 159.4362
519.0104, 158.3208
519.4925, 157.7418
519.9746, 157.7099
520.4567, 158.1962
520.9388, 159.2588
521.4210, 162.0347
521.9031, 163.1860
522.3852, 161.2470
522.8673, 158.5883
523.3494, 156.8180
523.8315, 156.0300
524.3137, 155.4176
524.7958, 154.0955
525.2779, 152.5046
525.7600, 152.5896
526.2421, 155.0047
526.7242, 156.5870
527.2064, 154.7341
527.6885, 151.9458
528.1706, 151.6111
528.6527, 154.3940
529.1348, 157.2190
529.6169, 158.8847
530.0991, 159.4631
530.5812, 158.9384
531.0633, 157.3217
531.5454, 154.9747
532.0275, 151.7880
532.5096, 148.0946
532.9918, 146.3219
533.4739, 147.1199
533.9560, 148.6562
534.4381, 151.8595
534.9202, 154.9261
535.4023, 155.3879
535.8845, 153.0926
536.3666, 150.4154
536.8487, 149.8402
537.3308, 151.3567
537.8129, 152.1413
538.2950, 151.3285
538.7772, 150.9105
539.2593, 152.1927
539.7414, 153.6433
540.2235, 153.1143
540.7056, 150.1435
541.1877, 147.3774
541.6699, 148.1983
542.1520, 151.9397
542.6341, 153.6904
543.1162, 152.3755
543.5983, 150.8714
544.0804, 151.2029
544.5626, 152.5953
545.0447, 153.6602
545.5268, 154.1616
546.0089, 154.4204
546.4910, 154.6129
546.9731, 154.6981
547.4553, 154.4005
547.9374, 153.6550
548.4195, 153.2680
548.9016, 154.1226
549.3837, 156.2580
549.8658, 157.8994
550.3480, 159.3938
550.8301, 160.0946
551.3122, 159.1396
551.7943, 157.5947
552.2764, 156.7840
552.7585, 157.0385
553.2407, 157.7036
553.7228, 158.0329
554.2049, 158.0114
554.6870, 157.8916
555.1691, 157.3646
555.6512, 157.1983
556.1334, 158.2171
556.6155, 159.4915
557.0976, 159.7257
557.5797, 158.4899
558.0618, 156.8733
558.5439, 155.5303
559.0261, 154.5811
559.5082, 154.7730
559.9903, 156.5379
560.4724, 157.9315
560.9545, 157.1114
561.4366, 154.5826
561.9188, 153.1292
562.4009, 153.6614
562.8830, 154.1625
563.3651, 153.6685
563.8472, 152.7854
564.3293, 152.4510
564.8115, 152.8164
565.2936, 153.1878
565.7757, 152.7971
566.2578, 151.6383
566.7399, 151.1797
567.2220, 152.5228
567.7042, 153.2404
568.1863, 151.8443
568.6684, 150.2326
569.1505, 150.9566
569.6326, 154.2857
570.1147, 157.2934
570.5969, 156.3257
571.0790, 152.2151
571.5611, 150.3975
572.0432, 151.5318
572.5253, 153.2631
573.0074, 154.6134
573.4896, 155.7445
573.9717, 157.0585
574.4538, 158.8443
574.9359, 159.8410
575.4180, 158.3994
575.9001, 156.2979
576.3823, 156.4199
576.8644, 158.8958
577.3465, 161.2801
577.8286, 161.7615
578.3107, 160.7909
578.7928, 160.5888
579.2750, 162.1658
579.7571, 163.1951
580.2392, 162.6222
580.7213, 162.1462
581.2034, 163.3421
581.6855, 166.0580
582.1677, 169.0161
582.6498, 171.4531
583.1319, 173.1856
583.6140, 173.2298
584.0961, 170.9044
584.5782, 169.2383
585.0604, 169.5885
585.5425, 170.5214
586.0246, 170.8238
586.5067, 170.5046
586.9889, 170.2333
587.4710, 170.2566
587.9531, 170.5093
588.4352, 171.0517
588.9174, 171.8075
589.3995, 172.3416
589.8816, 172.4256
