##NAMES=Allanite-(Ce)
##RRUFFID=R060418
##IDEAL CHEMISTRY=CaCeAl_2_Fe^2+^(Si_2_O_7_)(SiO_4_)O(OH)
##LOCALITY=Aquarius Range, Mohave County, Arizona, USA
##OWNER=RRUFF
##SOURCE=John Weber
##DESCRIPTION=Dark brown partially metamict, note that a fragment of this sample was heated and is posted at R080044
##STATUS=The identification of this mineral has been confirmed by X-ray diffraction and chemical analysis
##URL=rruff.info/R060418
##MEASURED CHEMISTRY=Ca_1.00_(Ce^3+^_0.36_Nd_0.18_La_0.13_Y_0.09_Th_0.07_Mn_0.06_Ca_0.06_Ti_0.05_)_Σ=1_Fe^2+^_1.00_(Al_1.88_Fe^3+^_0.12_)_Σ=2_[Si_2.00_O_7_][Si_1.00_O_4_]O(OH)
152.8323, 1742.220
153.3145, 1741.781
153.7966, 1741.222
154.2787, 1740.143
154.7608, 1738.652
155.2429, 1736.933
155.7250, 1735.019
156.2072, 1732.811
156.6893, 1731.961
157.1714, 1733.554
157.6535, 1735.191
158.1356, 1736.345
158.6177, 1736.749
159.0999, 1735.917
159.5820, 1733.247
160.0641, 1728.351
160.5462, 1723.804
161.0283, 1718.049
161.5104, 1713.651
161.9926, 1713.422
162.4747, 1717.661
162.9568, 1722.908
163.4389, 1725.832
163.9210, 1726.512
164.4031, 1725.710
164.8853, 1722.665
165.3674, 1718.454
165.8495, 1714.229
166.3316, 1709.612
166.8137, 1706.542
167.2958, 1708.070
167.7780, 1713.042
168.2601, 1717.185
168.7422, 1718.186
169.2243, 1716.642
169.7064, 1714.787
170.1885, 1712.316
170.6707, 1710.297
171.1528, 1709.325
171.6349, 1709.319
172.1170, 1709.867
172.5991, 1711.206
173.0812, 1713.447
173.5634, 1714.089
174.0455, 1710.977
174.5276, 1707.752
175.0097, 1705.703
175.4918, 1704.948
175.9739, 1705.118
176.4561, 1706.126
176.9382, 1708.603
177.4203, 1709.709
177.9024, 1709.261
178.3845, 1707.771
178.8666, 1704.395
179.3488, 1699.620
179.8309, 1695.567
180.3130, 1695.494
180.7951, 1702.468
181.2772, 1706.510
181.7593, 1706.067
182.2415, 1704.127
182.7236, 1702.865
183.2057, 1702.795
183.6878, 1702.936
184.1699, 1701.649
184.6520, 1697.055
185.1342, 1695.034
185.6163, 1698.511
186.0984, 1703.440
186.5805, 1705.211
187.0626, 1702.364
187.5447, 1697.376
188.0269, 1694.336
188.5090, 1693.588
188.9911, 1692.866
189.4732, 1691.118
189.9553, 1689.157
190.4374, 1688.622
190.9196, 1690.309
191.4017, 1692.818
191.8838, 1694.297
192.3659, 1694.823
192.8480, 1694.516
193.3301, 1692.997
193.8123, 1690.565
194.2944, 1688.214
194.7765, 1685.755
195.2586, 1684.080
195.7407, 1684.280
196.2228, 1686.386
196.7050, 1688.382
197.1871, 1688.943
197.6692, 1688.101
198.1513, 1686.352
198.6334, 1682.238
199.1155, 1678.623
199.5977, 1677.830
200.0798, 1679.877
200.5619, 1682.504
201.0440, 1683.868
201.5261, 1684.014
202.0082, 1682.636
202.4904, 1676.043
202.9725, 1670.545
203.4546, 1670.555
203.9367, 1676.050
204.4188, 1682.619
204.9009, 1684.651
205.3831, 1680.635
205.8652, 1676.572
206.3473, 1672.107
206.8294, 1668.070
207.3115, 1664.860
207.7936, 1662.594
208.2758, 1661.254
208.7579, 1660.949
209.2400, 1662.300
209.7221, 1663.363
210.2042, 1664.673
210.6863, 1665.397
211.1685, 1664.512
211.6506, 1662.023
212.1327, 1659.260
212.6148, 1658.266
213.0969, 1660.788
213.5790, 1661.341
214.0612, 1658.237
214.5433, 1654.362
215.0254, 1651.940
215.5075, 1651.510
215.9896, 1652.173
216.4717, 1652.823
216.9539, 1653.914
217.4360, 1653.612
217.9181, 1650.031
218.4002, 1645.963
218.8823, 1644.662
219.3644, 1646.940
219.8466, 1650.081
220.3287, 1650.212
220.8108, 1646.742
221.2929, 1643.757
221.7750, 1642.316
222.2571, 1641.450
222.7393, 1639.760
223.2214, 1636.836
223.7035, 1633.848
224.1856, 1632.740
224.6677, 1633.366
225.1498, 1633.099
225.6320, 1630.197
226.1141, 1626.250
226.5962, 1624.091
227.0783, 1624.583
227.5604, 1625.673
228.0425, 1625.258
228.5247, 1623.665
229.0068, 1622.020
229.4889, 1620.684
229.9710, 1619.610
230.4531, 1618.689
230.9352, 1617.921
231.4174, 1617.306
231.8995, 1616.510
232.3816, 1615.770
232.8637, 1615.873
233.3458, 1618.548
233.8279, 1622.495
234.3101, 1623.062
234.7922, 1618.106
235.2743, 1613.148
235.7564, 1611.566
236.2385, 1612.262
236.7206, 1613.080
237.2028, 1613.035
237.6849, 1612.160
238.1670, 1610.568
238.6491, 1608.067
239.1312, 1605.046
239.6133, 1600.916
240.0955, 1596.532
240.5776, 1593.376
241.0597, 1592.711
241.5418, 1593.883
242.0239, 1593.611
242.5060, 1590.298
242.9882, 1587.724
243.4703, 1586.897
243.9524, 1587.442
244.4345, 1589.107
244.9166, 1592.105
245.3987, 1595.704
245.8809, 1596.225
246.3630, 1590.341
246.8451, 1585.536
247.3272, 1583.905
247.8093, 1584.020
248.2914, 1583.971
248.7736, 1582.697
249.2557, 1580.617
249.7378, 1579.485
250.2199, 1580.728
250.7020, 1581.158
251.1841, 1579.698
251.6663, 1577.445
252.1484, 1575.790
252.6305, 1575.408
253.1126, 1575.831
253.5947, 1575.547
254.0768, 1573.183
254.5590, 1571.795
255.0411, 1571.836
255.5232, 1572.828
256.0053, 1574.839
256.4874, 1577.867
256.9695, 1580.692
257.4517, 1580.359
257.9338, 1571.987
258.4159, 1566.170
258.8980, 1564.064
259.3801, 1564.054
259.8622, 1564.936
260.3444, 1566.236
260.8265, 1567.237
261.3086, 1566.503
261.7907, 1561.533
262.2728, 1558.814
262.7549, 1560.468
263.2371, 1563.398
263.7192, 1564.331
264.2013, 1562.430
264.6834, 1559.465
265.1655, 1558.073
265.6476, 1559.118
266.1298, 1559.799
266.6119, 1560.075
267.0940, 1559.969
267.5761, 1559.287
268.0582, 1558.033
268.5403, 1556.804
269.0225, 1556.245
269.5046, 1556.458
269.9867, 1557.309
270.4688, 1560.519
270.9509, 1563.308
271.4330, 1562.627
271.9152, 1558.286
272.3973, 1553.466
272.8794, 1551.401
273.3615, 1552.331
273.8436, 1551.772
274.3257, 1547.538
274.8079, 1543.269
275.2900, 1542.575
275.7721, 1545.382
276.2542, 1547.901
276.7363, 1547.096
277.2184, 1543.252
277.7006, 1540.395
278.1827, 1538.886
278.6648, 1538.098
279.1469, 1537.846
279.6290, 1538.056
280.1111, 1538.216
280.5933, 1537.904
281.0754, 1537.373
281.5575, 1537.449
282.0396, 1538.642
282.5217, 1539.828
283.0038, 1540.668
283.4860, 1541.053
283.9681, 1540.267
284.4502, 1537.511
284.9323, 1533.757
285.4144, 1530.945
285.8965, 1528.947
286.3787, 1528.070
286.8608, 1529.059
287.3429, 1531.447
287.8250, 1533.701
288.3071, 1535.669
288.7892, 1536.749
289.2714, 1535.767
289.7535, 1532.438
290.2356, 1529.638
290.7177, 1529.132
291.1998, 1530.182
291.6819, 1530.718
292.1641, 1530.016
292.6462, 1529.249
293.1283, 1530.552
293.6104, 1533.590
294.0925, 1534.673
294.5746, 1530.633
295.0568, 1523.932
295.5389, 1519.590
296.0210, 1518.582
296.5031, 1518.753
296.9852, 1518.572
297.4673, 1518.129
297.9495, 1517.632
298.4316, 1517.588
298.9137, 1517.363
299.3958, 1515.336
299.8779, 1510.853
300.3600, 1507.654
300.8422, 1510.290
301.3243, 1515.644
301.8064, 1518.173
302.2885, 1515.026
302.7706, 1510.189
303.2527, 1508.337
303.7349, 1509.653
304.2170, 1511.274
304.6991, 1512.375
305.1812, 1512.724
305.6633, 1511.981
306.1454, 1509.930
306.6276, 1507.208
307.1097, 1503.529
307.5918, 1499.059
308.0739, 1496.737
308.5560, 1498.511
309.0381, 1502.162
309.5203, 1505.313
310.0024, 1507.948
310.4845, 1509.724
310.9666, 1510.231
311.4487, 1509.613
311.9308, 1508.485
312.4130, 1506.668
312.8951, 1504.777
313.3772, 1503.738
313.8593, 1503.341
314.3414, 1502.171
314.8235, 1498.103
315.3057, 1492.785
315.7878, 1491.049
316.2699, 1494.752
316.7520, 1498.540
317.2341, 1497.743
317.7162, 1494.063
318.1984, 1491.047
318.6805, 1489.940
319.1626, 1490.248
319.6447, 1491.778
320.1268, 1494.986
320.6089, 1497.155
321.0911, 1496.250
321.5732, 1493.435
322.0553, 1489.978
322.5374, 1485.563
323.0195, 1481.482
323.5016, 1478.987
323.9838, 1478.063
324.4659, 1478.490
324.9480, 1481.662
325.4301, 1485.077
325.9122, 1485.293
326.3943, 1481.523
326.8765, 1477.788
327.3586, 1477.661
327.8407, 1480.379
328.3228, 1481.544
328.8049, 1479.440
329.2870, 1476.450
329.7692, 1475.013
330.2513, 1475.008
330.7334, 1475.285
331.2155, 1475.383
331.6976, 1475.359
332.1797, 1475.554
332.6619, 1476.315
333.1440, 1476.402
333.6261, 1474.211
334.1082, 1470.527
334.5903, 1467.075
335.0724, 1462.912
335.5546, 1460.000
336.0367, 1462.292
336.5188, 1470.409
337.0009, 1477.029
337.4830, 1476.531
337.9651, 1472.134
338.4473, 1470.109
338.9294, 1472.477
339.4115, 1475.183
339.8936, 1474.501
340.3757, 1470.919
340.8578, 1468.255
341.3400, 1468.510
341.8221, 1469.737
342.3042, 1468.827
342.7863, 1465.439
343.2684, 1461.985
343.7505, 1459.167
344.2327, 1457.162
344.7148, 1456.691
345.1969, 1458.296
345.6790, 1460.395
346.1611, 1461.105
346.6432, 1460.645
347.1254, 1460.111
347.6075, 1459.713
348.0896, 1459.424
348.5717, 1459.196
349.0538, 1459.022
349.5359, 1459.064
350.0181, 1459.892
350.5002, 1461.044
350.9823, 1460.660
351.4644, 1456.377
351.9465, 1452.473
352.4286, 1452.449
352.9108, 1455.583
353.3929, 1458.514
353.8750, 1459.843
354.3571, 1459.699
354.8392, 1458.387
355.3214, 1455.512
355.8035, 1452.574
356.2856, 1449.687
356.7677, 1447.180
357.2498, 1445.866
357.7319, 1446.109
358.2141, 1446.857
358.6962, 1446.477
359.1783, 1444.623
359.6604, 1443.864
360.1425, 1444.857
360.6246, 1446.850
361.1068, 1449.857
361.5889, 1453.669
362.0710, 1456.326
362.5531, 1455.877
363.0352, 1452.358
363.5173, 1450.163
363.9995, 1449.930
364.4816, 1450.234
364.9637, 1451.077
365.4458, 1451.963
365.9279, 1451.444
366.4100, 1448.507
366.8922, 1444.265
367.3743, 1442.472
367.8564, 1445.041
368.3385, 1447.148
368.8206, 1448.332
369.3027, 1448.669
369.7849, 1447.936
370.2670, 1446.135
370.7491, 1444.080
371.2312, 1442.922
371.7133, 1443.028
372.1954, 1443.003
372.6776, 1442.449
373.1597, 1442.104
373.6418, 1443.242
374.1239, 1445.265
374.6060, 1445.748
375.0881, 1442.389
375.5703, 1435.395
376.0524, 1431.534
376.5345, 1433.070
377.0166, 1435.038
377.4987, 1436.756
377.9808, 1438.122
378.4630, 1439.196
378.9451, 1440.007
379.4272, 1440.408
379.9093, 1440.060
380.3914, 1438.898
380.8735, 1436.967
381.3557, 1432.746
381.8378, 1428.897
382.3199, 1427.667
382.8020, 1429.169
383.2841, 1431.713
383.7662, 1433.721
384.2484, 1435.390
384.7305, 1435.131
385.2126, 1428.924
385.6947, 1424.638
386.1768, 1426.608
386.6589, 1432.329
387.1411, 1436.561
387.6232, 1435.959
388.1053, 1431.906
388.5874, 1429.544
389.0695, 1430.439
389.5516, 1430.035
390.0338, 1424.903
390.5159, 1419.464
390.9980, 1418.693
391.4801, 1423.892
391.9622, 1430.230
392.4443, 1431.043
392.9265, 1425.549
393.4086, 1422.235
393.8907, 1424.091
394.3728, 1426.613
394.8549, 1427.744
395.3370, 1427.378
395.8192, 1425.648
396.3013, 1421.573
396.7834, 1416.216
397.2655, 1413.361
397.7476, 1413.834
398.2297, 1414.686
398.7119, 1413.916
399.1940, 1412.720
399.6761, 1412.871
400.1582, 1415.341
400.6403, 1418.070
401.1224, 1418.746
401.6046, 1417.496
402.0867, 1416.435
402.5688, 1416.238
403.0509, 1416.445
403.5330, 1416.477
404.0151, 1416.329
404.4973, 1416.254
404.9794, 1416.542
405.4615, 1416.926
405.9436, 1416.786
406.4257, 1415.974
406.9078, 1415.317
407.3900, 1415.655
407.8721, 1416.787
408.3542, 1417.549
408.8363, 1417.915
409.3184, 1417.855
409.8005, 1417.185
410.2827, 1416.037
410.7648, 1414.841
411.2469, 1413.767
411.7290, 1412.787
412.2111, 1411.762
412.6932, 1410.318
413.1754, 1409.708
413.6575, 1410.490
414.1396, 1412.016
414.6217, 1413.929
415.1038, 1416.054
415.5859, 1417.794
416.0681, 1418.642
416.5502, 1418.609
417.0323, 1417.108
417.5144, 1412.867
417.9965, 1408.734
418.4786, 1405.829
418.9608, 1403.889
419.4429, 1402.169
419.9250, 1400.272
420.4071, 1398.516
420.8892, 1397.807
421.3713, 1399.021
421.8535, 1400.034
422.3356, 1401.190
422.8177, 1401.872
423.2998, 1401.357
423.7819, 1399.712
424.2640, 1397.821
424.7462, 1396.654
425.2283, 1396.283
425.7104, 1395.452
426.1925, 1393.716
426.6746, 1391.968
427.1567, 1389.920
427.6389, 1388.147
428.1210, 1387.724
428.6031, 1389.345
429.0852, 1391.832
429.5673, 1392.698
430.0494, 1391.486
430.5316, 1390.337
431.0137, 1390.150
431.4958, 1389.904
431.9779, 1389.179
432.4600, 1387.863
432.9421, 1385.607
433.4243, 1380.695
433.9064, 1374.318
434.3885, 1372.335
434.8706, 1377.006
435.3527, 1381.420
435.8348, 1380.605
436.3170, 1376.632
436.7991, 1372.518
437.2812, 1368.230
437.7633, 1365.109
438.2454, 1365.548
438.7275, 1368.879
439.2097, 1370.271
439.6918, 1367.497
440.1739, 1362.899
440.6560, 1359.605
441.1381, 1357.433
441.6202, 1356.816
442.1024, 1359.811
442.5845, 1363.370
443.0666, 1363.510
443.5487, 1360.057
444.0308, 1356.226
444.5129, 1354.354
444.9951, 1354.279
445.4772, 1354.188
445.9593, 1354.774
446.4414, 1354.563
446.9235, 1352.797
447.4056, 1350.045
447.8878, 1346.794
448.3699, 1343.254
448.8520, 1340.253
449.3341, 1339.200
449.8162, 1341.174
450.2983, 1342.066
450.7805, 1341.848
451.2626, 1340.760
451.7447, 1338.436
452.2268, 1335.320
452.7089, 1332.348
453.1910, 1330.137
453.6732, 1328.595
454.1553, 1327.380
454.6374, 1326.631
455.1195, 1325.989
455.6016, 1325.646
456.0837, 1325.209
456.5659, 1324.270
457.0480, 1322.781
457.5301, 1321.168
458.0122, 1319.952
458.4943, 1319.111
458.9764, 1317.906
459.4586, 1316.173
459.9407, 1314.271
460.4228, 1312.102
460.9049, 1309.963
461.3870, 1308.576
461.8691, 1308.805
462.3513, 1308.871
462.8334, 1305.796
463.3155, 1299.757
463.7976, 1295.542
464.2797, 1295.528
464.7618, 1296.920
465.2440, 1296.120
465.7261, 1293.128
466.2082, 1289.998
466.6903, 1286.982
467.1724, 1284.420
467.6545, 1283.051
468.1367, 1282.845
468.6188, 1282.447
469.1009, 1280.839
469.5830, 1278.343
470.0651, 1276.541
470.5472, 1275.836
471.0294, 1275.220
471.5115, 1274.802
471.9936, 1274.180
472.4757, 1272.578
472.9578, 1269.880
473.4399, 1267.102
473.9221, 1265.600
474.4042, 1265.816
474.8863, 1264.689
475.3684, 1260.305
475.8505, 1256.747
476.3326, 1256.415
476.8148, 1257.770
477.2969, 1258.221
477.7790, 1256.522
478.2611, 1253.226
478.7432, 1249.126
479.2253, 1243.318
479.7075, 1239.364
480.1896, 1239.681
480.6717, 1240.303
481.1538, 1238.699
481.6359, 1235.256
482.1180, 1232.303
482.6002, 1231.570
483.0823, 1232.420
483.5644, 1233.536
484.0465, 1235.519
484.5286, 1235.427
485.0107, 1229.524
485.4929, 1222.076
485.9750, 1218.341
486.4571, 1219.398
486.9392, 1221.403
487.4213, 1223.164
487.9034, 1224.039
488.3856, 1221.699
488.8677, 1215.285
489.3498, 1209.517
489.8319, 1209.136
490.3140, 1213.663
490.7961, 1215.466
491.2783, 1212.689
491.7604, 1209.202
492.2425, 1205.978
492.7246, 1203.421
493.2067, 1202.397
493.6888, 1203.214
494.1710, 1204.976
494.6531, 1206.420
495.1352, 1207.783
495.6173, 1207.957
496.0994, 1206.283
496.5815, 1204.246
497.0637, 1202.083
497.5458, 1200.161
498.0279, 1199.184
498.5100, 1199.625
498.9921, 1200.823
499.4742, 1201.241
499.9564, 1201.066
500.4385, 1199.557
500.9206, 1194.155
501.4027, 1189.317
501.8848, 1188.318
502.3669, 1190.813
502.8491, 1193.798
503.3312, 1195.515
503.8133, 1196.167
504.2954, 1196.416
504.7775, 1196.430
505.2596, 1195.153
505.7418, 1190.663
506.2239, 1185.404
506.7060, 1183.140
507.1881, 1184.810
507.6702, 1186.337
508.1523, 1185.891
508.6345, 1183.920
509.1166, 1180.188
509.5987, 1174.639
510.0808, 1171.001
510.5629, 1173.070
511.0450, 1180.152
511.5272, 1183.974
512.0093, 1182.313
512.4914, 1180.514
512.9735, 1180.734
513.4556, 1181.467
513.9377, 1180.422
514.4199, 1177.103
514.9020, 1173.122
515.3841, 1170.497
515.8662, 1169.377
516.3483, 1168.623
516.8304, 1169.026
517.3126, 1168.958
517.7947, 1167.701
518.2768, 1165.763
518.7589, 1163.942
519.2410, 1162.567
519.7231, 1161.192
520.2053, 1158.409
520.6874, 1153.920
521.1695, 1152.786
521.6516, 1158.167
522.1337, 1163.872
522.6158, 1165.990
523.0980, 1165.121
523.5801, 1162.833
524.0622, 1158.285
524.5443, 1153.930
525.0264, 1152.739
525.5085, 1154.260
525.9907, 1156.109
526.4728, 1157.839
526.9549, 1158.706
527.4370, 1156.903
527.9191, 1151.599
528.4012, 1149.010
528.8834, 1153.473
529.3655, 1157.654
529.8476, 1154.975
530.3297, 1147.516
530.8118, 1142.126
531.2939, 1142.574
531.7761, 1146.699
532.2582, 1149.033
532.7403, 1148.590
533.2224, 1148.058
533.7045, 1147.459
534.1866, 1146.799
534.6688, 1146.281
535.1509, 1145.715
535.6330, 1144.430
536.1151, 1141.559
536.5972, 1138.231
537.0793, 1138.188
537.5615, 1142.779
538.0436, 1145.061
538.5257, 1140.839
539.0078, 1135.169
539.4899, 1132.179
539.9720, 1131.982
540.4542, 1133.156
540.9363, 1137.043
541.4184, 1140.903
541.9005, 1139.543
542.3826, 1133.153
542.8647, 1128.486
543.3469, 1129.668
543.8290, 1134.176
544.3111, 1135.349
544.7932, 1131.744
545.2753, 1128.744
545.7574, 1126.796
546.2396, 1125.942
546.7217, 1127.068
547.2038, 1129.555
547.6859, 1130.891
548.1680, 1129.057
548.6501, 1125.167
549.1323, 1124.425
549.6144, 1129.858
550.0965, 1133.187
550.5786, 1132.559
551.0607, 1130.548
551.5428, 1128.764
552.0250, 1127.421
552.5071, 1126.097
552.9892, 1124.255
553.4713, 1122.278
553.9534, 1121.426
554.4355, 1121.935
554.9177, 1122.375
555.3998, 1122.120
555.8819, 1121.537
556.3640, 1121.100
556.8461, 1120.815
557.3282, 1120.675
557.8104, 1121.094
558.2925, 1121.413
558.7746, 1120.429
559.2567, 1118.314
559.7388, 1117.025
560.2209, 1118.023
560.7031, 1120.224
561.1852, 1120.171
561.6673, 1115.402
562.1494, 1111.775
562.6315, 1110.208
563.1136, 1109.145
563.5958, 1107.582
564.0779, 1105.443
564.5600, 1102.966
565.0421, 1100.144
565.5242, 1097.399
566.0063, 1096.622
566.4885, 1099.192
566.9706, 1099.698
567.4527, 1094.050
567.9348, 1088.004
568.4169, 1085.613
568.8990, 1086.776
569.3812, 1088.779
569.8633, 1091.369
570.3454, 1093.370
570.8275, 1092.653
571.3096, 1089.371
571.7917, 1085.758
572.2739, 1082.482
572.7560, 1079.755
573.2381, 1078.135
573.7202, 1078.013
574.2023, 1077.375
574.6844, 1075.386
575.1666, 1073.389
575.6487, 1072.735
576.1308, 1072.851
576.6129, 1071.809
577.0950, 1068.507
577.5771, 1064.537
578.0593, 1063.906
578.5414, 1068.932
579.0235, 1070.943
579.5056, 1067.253
579.9877, 1062.517
580.4698, 1057.724
580.9520, 1053.563
581.4341, 1051.443
581.9162, 1052.853
582.3983, 1054.760
582.8804, 1051.974
583.3625, 1045.129
583.8447, 1041.599
584.3268, 1044.194
584.8089, 1048.022
585.2910, 1047.813
585.7731, 1043.991
586.2552, 1040.914
586.7374, 1040.071
587.2195, 1038.903
587.7016, 1034.917
588.1837, 1030.018
588.6658, 1028.055
589.1479, 1030.041
589.6301, 1032.923
590.1122, 1032.744
590.5943, 1029.011
591.0764, 1026.931
591.5585, 1027.810
592.0406, 1028.882
592.5228, 1030.249
593.0049, 1031.098
593.4870, 1030.313
593.9691, 1027.641
594.4512, 1024.363
594.9333, 1021.332
595.4155, 1018.646
595.8976, 1016.879
596.3797, 1016.209
596.8618, 1015.828
597.3439, 1015.486
597.8260, 1015.034
598.3082, 1014.176
598.7903, 1012.869
599.2724, 1011.287
599.7545, 1009.191
600.2366, 1007.033
600.7188, 1005.615
601.2009, 1004.767
601.6830, 1003.139
602.1651, 999.6163
602.6472, 995.0894
603.1293, 993.0850
603.6115, 996.1807
604.0936, 997.0085
604.5757, 992.6894
605.0578, 988.2916
605.5399, 987.7355
606.0220, 989.9681
606.5042, 990.8391
606.9863, 987.5475
607.4684, 982.4222
607.9505, 978.9170
608.4326, 977.0183
608.9147, 976.5185
609.3969, 978.0323
609.8790, 979.7052
610.3611, 979.5274
610.8432, 977.6195
611.3253, 975.1009
611.8074, 971.3211
612.2896, 967.7579
612.7717, 964.8753
613.2538, 962.8217
613.7359, 962.2095
614.2180, 963.0895
614.7001, 963.9844
615.1823, 962.9101
615.6644, 959.6830
616.1465, 958.3568
616.6286, 961.1842
617.1107, 962.7973
617.5928, 961.3284
618.0750, 958.3607
618.5571, 955.2780
619.0392, 952.3972
619.5213, 949.8542
620.0034, 947.6240
620.4855, 945.8420
620.9677, 944.9949
621.4498, 945.1373
621.9319, 945.3078
622.4140, 945.1641
622.8961, 944.6348
623.3782, 943.4916
623.8604, 941.6432
624.3425, 939.5866
624.8246, 936.1338
625.3067, 933.5975
625.7888, 934.9220
626.2709, 938.3730
626.7531, 939.4590
627.2352, 935.9241
627.7173, 930.2335
628.1994, 926.8265
628.6815, 926.0219
629.1636, 925.7228
629.6458, 926.4328
630.1279, 926.8391
630.6100, 926.4874
631.0921, 925.3781
631.5742, 923.3013
632.0563, 919.7652
632.5385, 916.5985
633.0206, 915.8925
633.5027, 916.3008
633.9848, 914.4557
634.4669, 909.9653
634.9490, 906.7519
635.4312, 908.1762
635.9133, 912.8729
636.3954, 914.3422
636.8775, 908.7657
637.3596, 905.0164
637.8417, 904.6219
638.3239, 905.1248
638.8060, 904.9193
639.2881, 904.0035
639.7702, 903.0995
640.2523, 902.6527
640.7344, 902.4205
641.2166, 902.1603
641.6987, 901.9088
642.1808, 900.4606
642.6629, 896.6500
643.1450, 893.0823
643.6271, 893.2814
644.1093, 895.9315
