##NAMES=Allanite-(Ce)
##RRUFFID=R050043
##IDEAL CHEMISTRY=CaCeAl_2_Fe^2+^(Si_2_O_7_)(SiO_4_)O(OH)
##LOCALITY=Arendal, Norway
##OWNER=RRUFF
##SOURCE=University of Arizona Mineral Museum
##DESCRIPTION=Black patially metamict fragment, note that a fragment of this sample was heated and is posted at R080092
##STATUS=The identification of this mineral has been confirmed by X-ray diffraction and chemical analysis
##URL=rruff.info/R050043
##MEASURED CHEMISTRY=Ca_1.00_(Ce^3+^_0.22_Ca_0.21_La_0.11_Nd_0.11_Mn_0.08_Gd_0.07_Th_0.06_Y_0.06_Ti_0.05_Mg_0.03_)_Σ=1_(Al_1.82_Fe^3+^_0.40_Fe^2+^_0.78_)_Σ=3_[Si_2.00_O_7_][Si_1.00_O_4_]O(OH)
170.3929, 2006.205
170.8750, 2022.922
171.3571, 2011.733
171.8392, 1991.452
172.3213, 1982.701
172.8034, 1989.835
173.2856, 2002.904
173.7677, 2013.796
174.2498, 2023.261
174.7319, 2033.660
175.2140, 2052.983
175.6961, 2072.706
176.1783, 2076.745
176.6604, 2055.028
177.1425, 2029.638
177.6246, 2032.428
178.1067, 2059.359
178.5888, 2084.422
179.0710, 2081.802
179.5531, 2063.216
180.0352, 2055.449
180.5173, 2069.372
180.9994, 2092.548
181.4815, 2106.744
181.9637, 2112.111
182.4458, 2109.647
182.9279, 2093.056
183.4100, 2067.398
183.8921, 2051.916
184.3742, 2056.253
184.8564, 2072.438
185.3385, 2081.500
185.8206, 2083.022
186.3027, 2083.403
186.7848, 2092.279
187.2669, 2107.803
187.7491, 2115.980
188.2312, 2105.946
188.7133, 2084.539
189.1954, 2079.207
189.6775, 2092.436
190.1596, 2110.839
190.6418, 2117.879
191.1239, 2113.772
191.6060, 2109.273
192.0881, 2109.614
192.5702, 2113.970
193.0524, 2115.067
193.5345, 2112.638
194.0166, 2107.672
194.4987, 2099.277
194.9808, 2086.875
195.4629, 2079.803
195.9451, 2087.119
196.4272, 2108.443
196.9093, 2116.376
197.3914, 2106.254
197.8735, 2088.722
198.3556, 2084.462
198.8378, 2095.066
199.3199, 2108.725
199.8020, 2120.849
200.2841, 2131.609
200.7662, 2136.299
201.2483, 2133.308
201.7305, 2125.324
202.2126, 2119.080
202.6947, 2115.214
203.1768, 2110.708
203.6589, 2100.955
204.1410, 2083.747
204.6232, 2078.650
205.1053, 2091.016
205.5874, 2115.023
206.0695, 2132.130
206.5516, 2142.184
207.0337, 2145.735
207.5159, 2141.019
207.9980, 2125.634
208.4801, 2113.750
208.9622, 2107.045
209.4443, 2105.166
209.9264, 2107.052
210.4086, 2114.066
210.8907, 2122.140
211.3728, 2128.675
211.8549, 2134.353
212.3370, 2135.835
212.8191, 2130.208
213.3013, 2119.104
213.7834, 2117.688
214.2655, 2131.767
214.7476, 2146.213
215.2297, 2146.815
215.7118, 2128.407
216.1940, 2109.797
216.6761, 2091.019
217.1582, 2072.648
217.6403, 2073.120
218.1224, 2102.214
218.6045, 2137.052
219.0867, 2155.526
219.5688, 2152.717
220.0509, 2144.282
220.5330, 2130.798
221.0151, 2111.795
221.4972, 2102.397
221.9794, 2106.467
222.4615, 2115.721
222.9436, 2121.787
223.4257, 2124.554
223.9078, 2124.151
224.3899, 2119.344
224.8721, 2109.416
225.3542, 2103.763
225.8363, 2103.661
226.3184, 2106.566
226.8005, 2109.506
227.2827, 2112.006
227.7648, 2115.577
228.2469, 2122.022
228.7290, 2132.628
229.2111, 2135.386
229.6932, 2125.810
230.1754, 2111.996
230.6575, 2104.665
231.1396, 2107.182
231.6217, 2110.340
232.1038, 2111.343
232.5859, 2109.361
233.0681, 2110.143
233.5502, 2116.464
234.0323, 2123.559
234.5144, 2123.756
234.9965, 2111.688
235.4786, 2101.790
235.9608, 2098.699
236.4429, 2103.783
236.9250, 2109.686
237.4071, 2117.927
237.8892, 2125.993
238.3713, 2129.607
238.8535, 2126.481
239.3356, 2122.716
239.8177, 2120.170
240.2998, 2119.124
240.7819, 2118.060
241.2640, 2116.031
241.7462, 2114.515
242.2283, 2116.574
242.7104, 2125.456
243.1925, 2132.548
243.6746, 2134.424
244.1567, 2128.938
244.6389, 2125.557
245.1210, 2124.754
245.6031, 2125.763
246.0852, 2127.699
246.5673, 2132.341
247.0494, 2134.793
247.5316, 2131.814
248.0137, 2119.227
248.4958, 2116.477
248.9779, 2130.304
249.4600, 2150.194
249.9421, 2155.177
250.4243, 2137.059
250.9064, 2118.792
251.3885, 2108.930
251.8706, 2109.940
252.3527, 2111.141
252.8348, 2112.166
253.3170, 2113.598
253.7991, 2116.693
254.2812, 2122.038
254.7633, 2127.891
255.2454, 2134.567
255.7275, 2143.880
256.2097, 2146.706
256.6918, 2141.056
257.1739, 2130.265
257.6560, 2119.487
258.1381, 2106.657
258.6202, 2098.104
259.1024, 2096.610
259.5845, 2103.478
260.0666, 2112.828
260.5487, 2127.586
261.0308, 2142.570
261.5129, 2147.040
261.9951, 2135.538
262.4772, 2126.550
262.9593, 2129.803
263.4414, 2150.283
263.9235, 2158.004
264.4056, 2147.605
264.8878, 2129.507
265.3699, 2122.784
265.8520, 2131.343
266.3341, 2139.996
266.8162, 2143.224
267.2983, 2140.554
267.7805, 2133.963
268.2626, 2119.947
268.7447, 2106.001
269.2268, 2108.100
269.7089, 2131.922
270.1910, 2151.368
270.6732, 2154.975
271.1553, 2140.884
271.6374, 2128.338
272.1195, 2117.203
272.6016, 2107.787
273.0837, 2101.285
273.5659, 2098.069
274.0480, 2095.644
274.5301, 2092.535
275.0122, 2088.641
275.4943, 2088.160
275.9764, 2092.045
276.4586, 2097.552
276.9407, 2099.867
277.4228, 2098.368
277.9049, 2098.874
278.3870, 2105.848
278.8691, 2118.717
279.3513, 2122.895
279.8334, 2116.321
280.3155, 2106.361
280.7976, 2103.692
281.2798, 2108.690
281.7619, 2112.567
282.2440, 2110.009
282.7261, 2102.565
283.2082, 2103.460
283.6903, 2114.314
284.1725, 2127.543
284.6546, 2133.938
285.1367, 2133.629
285.6188, 2131.361
286.1009, 2127.436
286.5830, 2122.768
287.0652, 2122.797
287.5473, 2128.468
288.0294, 2133.198
288.5115, 2125.847
288.9936, 2108.471
289.4757, 2098.399
289.9579, 2104.404
290.4400, 2121.060
290.9221, 2135.020
291.4042, 2146.394
291.8863, 2153.669
292.3684, 2154.024
292.8506, 2148.504
293.3327, 2141.405
293.8148, 2131.704
294.2969, 2122.574
294.7790, 2121.043
295.2611, 2127.135
295.7433, 2135.436
296.2254, 2143.548
296.7075, 2150.469
297.1896, 2153.211
297.6717, 2150.739
298.1538, 2143.931
298.6360, 2130.266
299.1181, 2110.595
299.6002, 2096.445
300.0823, 2101.278
300.5644, 2117.264
301.0465, 2129.376
301.5287, 2131.814
302.0108, 2131.129
302.4929, 2136.207
302.9750, 2145.690
303.4571, 2151.518
303.9392, 2146.575
304.4214, 2135.267
304.9035, 2122.693
305.3856, 2108.185
305.8677, 2096.217
306.3498, 2089.895
306.8319, 2089.305
307.3141, 2094.763
307.7962, 2113.364
308.2783, 2134.845
308.7604, 2149.757
309.2425, 2156.086
309.7246, 2155.115
310.2068, 2141.793
310.6889, 2121.042
311.1710, 2105.477
311.6531, 2103.713
312.1352, 2107.899
312.6173, 2113.748
313.0995, 2122.655
313.5816, 2126.865
314.0637, 2116.403
314.5458, 2099.088
315.0279, 2089.543
315.5100, 2104.719
315.9922, 2120.590
316.4743, 2121.779
316.9564, 2101.691
317.4385, 2086.988
317.9206, 2092.804
318.4027, 2107.831
318.8849, 2116.267
319.3670, 2107.661
319.8491, 2097.208
320.3312, 2090.046
320.8133, 2086.762
321.2954, 2085.521
321.7776, 2086.351
322.2597, 2088.867
322.7418, 2092.661
323.2239, 2102.585
323.7060, 2108.881
324.1881, 2107.206
324.6703, 2096.526
325.1524, 2089.855
325.6345, 2092.596
326.1166, 2097.364
326.5987, 2098.160
327.0808, 2086.016
327.5630, 2080.532
328.0451, 2088.940
328.5272, 2110.119
329.0093, 2119.111
329.4914, 2106.404
329.9735, 2089.989
330.4557, 2081.872
330.9378, 2088.846
331.4199, 2091.827
331.9020, 2085.144
332.3841, 2072.626
332.8662, 2075.140
333.3484, 2104.292
333.8305, 2130.835
334.3126, 2136.321
334.7947, 2110.648
335.2768, 2095.634
335.7589, 2097.066
336.2411, 2108.252
336.7232, 2112.484
337.2053, 2108.424
337.6874, 2101.188
338.1695, 2090.911
338.6516, 2076.421
339.1338, 2070.756
339.6159, 2076.129
340.0980, 2087.303
340.5801, 2096.550
341.0622, 2104.121
341.5443, 2108.242
342.0265, 2107.169
342.5086, 2101.493
342.9907, 2095.691
343.4728, 2089.134
343.9549, 2085.123
344.4370, 2090.201
344.9192, 2103.242
345.4013, 2113.771
345.8834, 2117.500
346.3655, 2116.141
346.8476, 2112.780
347.3297, 2107.324
347.8119, 2102.829
348.2940, 2102.274
348.7761, 2105.043
349.2582, 2109.897
349.7403, 2119.878
350.2225, 2128.407
350.7046, 2122.455
351.1867, 2103.923
351.6688, 2087.898
352.1509, 2086.655
352.6331, 2094.466
353.1152, 2104.082
353.5973, 2117.365
354.0794, 2125.518
354.5615, 2114.092
355.0436, 2089.657
355.5258, 2072.206
356.0079, 2080.852
356.4900, 2096.781
356.9721, 2102.461
357.4542, 2092.076
357.9363, 2082.050
358.4185, 2084.674
358.9006, 2093.566
359.3827, 2097.686
359.8648, 2086.686
360.3469, 2074.595
360.8290, 2068.638
361.3112, 2069.949
361.7933, 2073.673
362.2754, 2083.421
362.7575, 2092.870
363.2396, 2095.156
363.7217, 2081.816
364.2039, 2068.039
364.6860, 2054.667
365.1681, 2041.759
365.6502, 2039.383
366.1323, 2061.477
366.6144, 2086.661
367.0966, 2100.167
367.5787, 2086.760
368.0608, 2079.663
368.5429, 2083.500
369.0250, 2096.114
369.5071, 2106.736
369.9893, 2118.056
370.4714, 2124.283
370.9535, 2121.103
371.4356, 2100.456
371.9177, 2089.406
372.3998, 2092.302
372.8820, 2102.941
373.3641, 2107.213
373.8462, 2102.855
374.3283, 2097.990
374.8104, 2095.721
375.2925, 2096.196
375.7747, 2098.304
376.2568, 2103.713
376.7389, 2107.498
377.2210, 2099.959
377.7031, 2079.901
378.1852, 2065.984
378.6674, 2065.573
379.1495, 2075.741
379.6316, 2085.555
380.1137, 2095.277
380.5958, 2101.516
381.0779, 2100.136
381.5601, 2092.073
382.0422, 2081.140
382.5243, 2064.810
383.0064, 2050.124
383.4885, 2050.857
383.9706, 2065.442
384.4528, 2082.234
384.9349, 2097.973
385.4170, 2109.662
385.8991, 2110.573
386.3812, 2096.547
386.8633, 2082.053
387.3455, 2083.850
387.8276, 2095.669
388.3097, 2103.181
388.7918, 2092.668
389.2739, 2079.038
389.7560, 2075.349
390.2382, 2083.391
390.7203, 2091.797
391.2024, 2094.859
391.6845, 2094.764
392.1666, 2094.054
392.6487, 2095.304
393.1309, 2094.421
393.6130, 2087.729
394.0951, 2075.955
394.5772, 2067.746
395.0593, 2068.481
395.5414, 2071.448
396.0236, 2072.454
396.5057, 2069.551
396.9878, 2066.284
397.4699, 2062.269
397.9520, 2058.031
398.4341, 2055.215
398.9163, 2053.736
399.3984, 2053.814
399.8805, 2056.556
400.3626, 2065.202
400.8447, 2066.000
401.3268, 2052.470
401.8090, 2035.887
402.2911, 2033.698
402.7732, 2052.703
403.2553, 2068.488
403.7374, 2074.882
404.2195, 2072.150
404.7017, 2062.805
405.1838, 2043.470
405.6659, 2026.600
406.1480, 2025.791
406.6301, 2041.283
407.1122, 2055.271
407.5944, 2065.496
408.0765, 2071.432
408.5586, 2069.416
409.0407, 2059.614
409.5228, 2050.874
410.0049, 2050.357
410.4871, 2055.506
410.9692, 2059.534
411.4513, 2061.935
411.9334, 2062.494
412.4155, 2059.183
412.8976, 2053.547
413.3798, 2050.135
413.8619, 2050.227
414.3440, 2053.944
414.8261, 2064.900
415.3082, 2083.035
415.7903, 2095.322
416.2725, 2084.018
416.7546, 2065.719
417.2367, 2059.484
417.7188, 2087.343
418.2009, 2110.923
418.6830, 2106.669
419.1652, 2081.961
419.6473, 2064.023
420.1294, 2064.760
420.6115, 2072.458
421.0937, 2082.208
421.5758, 2097.886
422.0579, 2105.372
422.5400, 2097.080
423.0221, 2080.734
423.5042, 2068.751
423.9864, 2061.021
424.4685, 2058.407
424.9506, 2062.525
425.4327, 2073.979
425.9148, 2084.158
426.3969, 2094.821
426.8791, 2102.218
427.3612, 2101.970
427.8433, 2091.061
428.3254, 2081.974
428.8075, 2076.509
429.2896, 2074.033
429.7718, 2073.701
430.2539, 2076.466
430.7360, 2076.453
431.2181, 2066.471
431.7002, 2047.814
432.1823, 2040.699
432.6645, 2047.765
433.1466, 2060.938
433.6287, 2072.603
434.1108, 2081.879
434.5929, 2083.775
435.0750, 2068.131
435.5572, 2047.274
436.0393, 2045.615
436.5214, 2062.349
437.0035, 2080.450
437.4856, 2086.833
437.9677, 2086.118
438.4499, 2084.938
438.9320, 2086.709
439.4141, 2085.451
439.8962, 2072.031
440.3783, 2051.832
440.8604, 2038.334
441.3426, 2040.421
441.8247, 2048.865
442.3068, 2061.016
442.7889, 2078.889
443.2710, 2089.169
443.7531, 2083.668
444.2353, 2070.555
444.7174, 2058.763
445.1995, 2044.876
445.6816, 2037.673
446.1637, 2042.747
446.6458, 2058.388
447.1280, 2066.667
447.6101, 2063.528
448.0922, 2057.480
448.5743, 2053.072
449.0564, 2050.870
449.5385, 2049.072
450.0207, 2048.904
450.5028, 2047.976
450.9849, 2039.948
451.4670, 2022.777
451.9491, 2009.130
452.4312, 2003.220
452.9134, 2004.935
453.3955, 2016.348
453.8776, 2039.139
454.3597, 2059.403
454.8418, 2058.756
455.3239, 2042.516
455.8061, 2033.586
456.2882, 2040.040
456.7703, 2051.389
457.2524, 2053.066
457.7345, 2046.599
458.2166, 2038.174
458.6988, 2028.921
459.1809, 2020.952
459.6630, 2016.923
460.1451, 2017.299
460.6272, 2019.836
461.1093, 2025.790
461.5915, 2032.249
462.0736, 2035.455
462.5557, 2030.841
463.0378, 2026.039
463.5199, 2023.735
464.0020, 2023.761
464.4842, 2024.422
464.9663, 2025.260
465.4484, 2026.736
465.9305, 2029.538
466.4126, 2038.452
466.8947, 2039.935
467.3769, 2026.924
467.8590, 2009.582
468.3411, 2006.371
468.8232, 2028.864
469.3053, 2041.871
469.7874, 2031.830
470.2696, 2000.658
470.7517, 1984.897
471.2338, 1987.360
471.7159, 1996.585
472.1980, 2004.703
472.6801, 2011.675
473.1623, 2015.009
473.6444, 2014.140
474.1265, 2010.001
474.6086, 2001.955
475.0907, 1990.941
475.5728, 1983.039
476.0550, 1984.734
476.5371, 1990.454
477.0192, 1988.657
477.5013, 1978.786
477.9834, 1973.584
478.4655, 1989.809
478.9477, 2014.505
479.4298, 2030.349
479.9119, 2027.818
480.3940, 2021.054
480.8761, 2016.906
481.3582, 2014.269
481.8404, 2010.009
482.3225, 1995.948
482.8046, 1985.943
483.2867, 1988.142
483.7688, 2008.182
484.2509, 2023.202
484.7331, 2031.727
485.2152, 2034.055
485.6973, 2029.872
486.1794, 2013.934
486.6615, 2000.248
487.1436, 1989.919
487.6258, 1983.221
488.1079, 1982.978
488.5900, 1992.225
489.0721, 1999.524
489.5542, 1995.117
490.0363, 1978.783
490.5185, 1977.141
491.0006, 1994.533
491.4827, 2014.426
491.9648, 2011.043
492.4470, 1988.989
492.9291, 1973.481
493.4112, 1974.780
493.8933, 1986.107
494.3754, 2002.575
494.8575, 2022.434
495.3397, 2033.695
495.8218, 2020.894
496.3039, 1999.140
496.7860, 1984.846
497.2681, 1981.091
497.7502, 1981.390
498.2324, 1982.809
498.7145, 1985.999
499.1966, 1991.882
499.6787, 2006.863
500.1608, 2018.352
500.6429, 2020.411
501.1251, 2013.713
501.6072, 2010.075
502.0893, 2013.847
502.5714, 2017.682
503.0535, 2017.762
503.5356, 2011.046
504.0178, 2008.267
504.4999, 2011.875
504.9820, 2017.206
505.4641, 2016.212
505.9462, 2007.268
506.4283, 2000.464
506.9105, 1998.830
507.3926, 2001.554
507.8747, 2007.361
508.3568, 2016.616
508.8389, 2022.331
509.3210, 2013.848
509.8032, 1997.892
510.2853, 1995.149
510.7674, 2010.797
511.2495, 2028.513
511.7316, 2032.613
512.2137, 2026.348
512.6959, 2016.375
513.1780, 1995.491
513.6601, 1980.085
514.1422, 1984.855
514.6243, 2007.026
515.1064, 2027.118
515.5886, 2041.203
516.0707, 2048.296
516.5528, 2046.501
517.0349, 2029.155
517.5170, 2016.408
517.9991, 2012.279
518.4813, 2013.020
518.9634, 2014.164
519.4455, 2015.329
519.9276, 2017.686
520.4097, 2022.444
520.8918, 2028.783
521.3740, 2031.197
521.8561, 2028.565
522.3382, 2025.725
522.8203, 2026.383
523.3024, 2030.247
523.7845, 2031.874
524.2667, 2030.411
524.7488, 2028.861
525.2309, 2033.761
525.7130, 2042.269
526.1951, 2043.780
526.6772, 2026.969
527.1594, 2008.709
527.6415, 2013.219
528.1236, 2035.459
528.6057, 2053.423
529.0878, 2050.966
529.5699, 2041.632
530.0521, 2034.906
530.5342, 2032.059
531.0163, 2031.397
531.4984, 2033.961
531.9805, 2037.742
532.4626, 2040.614
532.9448, 2042.069
533.4269, 2042.799
533.9090, 2041.726
534.3911, 2039.858
534.8732, 2042.217
535.3553, 2053.887
535.8375, 2060.104
536.3196, 2051.130
536.8017, 2025.559
537.2838, 2013.745
537.7659, 2018.219
538.2480, 2027.771
538.7302, 2030.026
539.2123, 2026.180
539.6944, 2024.385
540.1765, 2026.623
540.6586, 2031.272
541.1407, 2038.208
541.6229, 2046.181
542.1050, 2050.840
542.5871, 2043.266
543.0692, 2035.642
543.5513, 2042.409
544.0334, 2064.065
544.5156, 2080.767
544.9977, 2076.696
545.4798, 2067.601
545.9619, 2066.522
546.4440, 2088.397
546.9261, 2099.762
547.4083, 2086.886
547.8904, 2062.405
548.3725, 2049.760
548.8546, 2057.753
549.3367, 2062.639
549.8188, 2055.889
550.3010, 2039.345
550.7831, 2036.725
551.2652, 2051.985
551.7473, 2068.008
552.2294, 2070.794
552.7115, 2061.929
553.1937, 2057.402
553.6758, 2059.031
554.1579, 2062.700
554.6400, 2062.132
555.1221, 2059.344
555.6042, 2060.429
556.0864, 2072.232
556.5685, 2084.117
557.0506, 2083.401
557.5327, 2073.329
558.0148, 2065.961
558.4969, 2071.757
558.9791, 2078.613
559.4612, 2078.248
559.9433, 2068.080
560.4254, 2059.796
560.9075, 2058.117
561.3896, 2057.765
561.8718, 2053.895
562.3539, 2042.896
562.8360, 2034.376
563.3181, 2028.684
563.8002, 2026.131
564.2823, 2028.899
564.7645, 2038.745
565.2466, 2045.681
565.7287, 2043.274
566.2108, 2034.506
566.6929, 2036.912
567.1750, 2051.074
567.6572, 2062.802
568.1393, 2056.723
568.6214, 2040.106
569.1035, 2027.273
569.5856, 2020.450
570.0677, 2017.162
570.5499, 2016.105
571.0320, 2017.001
571.5141, 2019.389
571.9962, 2029.624
572.4783, 2034.832
572.9604, 2023.497
573.4426, 2000.251
573.9247, 1988.808
574.4068, 2005.453
574.8889, 2023.410
575.3710, 2032.944
575.8531, 2033.024
576.3353, 2029.035
576.8174, 2018.495
577.2995, 2007.624
577.7816, 2003.626
578.2637, 2007.535
578.7458, 2006.207
579.2280, 1995.269
579.7101, 1982.824
580.1922, 1987.242
580.6743, 2005.129
581.1564, 2017.323
581.6385, 2009.276
582.1207, 1993.567
582.6028, 1986.783
583.0849, 1988.039
583.5670, 1989.900
584.0491, 1989.678
584.5313, 1987.239
585.0134, 1981.210
585.4955, 1968.801
585.9776, 1961.408
586.4597, 1968.617
586.9418, 1979.565
587.4240, 1981.592
587.9061, 1966.402
588.3882, 1954.568
588.8703, 1947.406
589.3524, 1945.239
589.8345, 1951.350
590.3167, 1969.208
590.7988, 1981.844
591.2809, 1978.939
591.7630, 1964.236
592.2451, 1957.103
592.7272, 1957.729
593.2094, 1961.360
593.6915, 1966.802
594.1736, 1971.879
594.6557, 1971.880
595.1378, 1965.302
595.6199, 1956.843
596.1021, 1947.970
596.5842, 1939.984
597.0663, 1934.721
597.5485, 1935.704
598.0306, 1936.510
598.5127, 1932.540
598.9948, 1926.020
599.4769, 1926.963
599.9590, 1948.006
600.4412, 1961.831
600.9233, 1956.146
601.4054, 1928.919
601.8875, 1915.044
602.3696, 1918.015
602.8517, 1926.052
603.3339, 1931.264
603.8160, 1933.521
604.2981, 1928.703
604.7802, 1915.117
605.2623, 1898.899
605.7444, 1884.786
606.2266, 1874.234
606.7087, 1872.187
607.1908, 1890.220
607.6729, 1907.100
608.1550, 1900.829
608.6371, 1878.554
609.1193, 1863.289
609.6014, 1871.582
610.0835, 1882.874
610.5656, 1887.830
611.0477, 1885.278
611.5298, 1880.507
612.0120, 1871.518
612.4941, 1862.652
612.9762, 1856.537
613.4583, 1852.984
613.9404, 1853.330
614.4225, 1858.729
614.9047, 1866.137
615.3868, 1872.264
615.8689, 1877.017
616.3510, 1878.192
616.8331, 1873.809
617.3152, 1867.293
617.7974, 1864.729
618.2795, 1864.883
618.7616, 1862.852
619.2437, 1852.841
619.7258, 1841.948
620.2079, 1834.216
620.6901, 1830.009
621.1722, 1831.103
621.6543, 1849.383
622.1364, 1865.286
622.6185, 1864.216
623.1006, 1832.422
623.5828, 1813.074
624.0649, 1810.848
624.5470, 1816.782
625.0291, 1820.140
625.5112, 1819.940
625.9933, 1822.773
626.4755, 1830.634
626.9576, 1841.006
627.4397, 1851.854
627.9218, 1862.079
628.4039, 1863.307
628.8860, 1841.225
629.3682, 1813.058
629.8503, 1804.943
630.3324, 1814.454
630.8145, 1823.102
631.2966, 1820.241
631.7787, 1812.507
632.2609, 1802.582
632.7430, 1788.142
633.2251, 1782.248
633.7072, 1798.490
634.1893, 1817.568
634.6714, 1823.003
635.1536, 1807.101
635.6357, 1794.107
636.1178, 1785.150
636.5999, 1780.634
637.0820, 1783.857
637.5641, 1795.277
638.0463, 1802.203
638.5284, 1798.201
639.0105, 1789.263
639.4926, 1789.625
639.9747, 1797.217
640.4568, 1800.125
640.9390, 1781.371
641.4211, 1760.972
641.9032, 1762.028
642.3853, 1786.078
642.8674, 1803.059
643.3495, 1792.029
643.8317, 1775.694
644.3138, 1770.375
644.7959, 1788.114
645.2780, 1796.743
645.7601, 1790.740
646.2422, 1780.474
646.7244, 1778.468
647.2065, 1786.323
647.6886, 1795.332
648.1707, 1806.519
648.6528, 1814.432
649.1349, 1802.892
649.6171, 1775.092
650.0992, 1753.284
650.5813, 1753.124
651.0634, 1761.345
651.5455, 1760.857
652.0276, 1753.515
652.5098, 1749.313
652.9919, 1759.854
653.4740, 1770.328
653.9561, 1769.221
654.4382, 1752.363
654.9203, 1742.985
655.4025, 1752.181
655.8846, 1762.978
656.3667, 1763.420
656.8488, 1748.869
657.3309, 1737.272
657.8130, 1728.281
658.2952, 1723.970
658.7773, 1730.063
659.2594, 1745.525
659.7415, 1757.993
660.2236, 1765.787
660.7057, 1766.514
661.1879, 1749.379
