##NAMES=Allanite-(La)
##RRUFFID=R070246
##IDEAL CHEMISTRY=CaLaFe^2+^Al_2_(Si_2_O_7_)(SiO_4_)O(OH)
##LOCALITY=Nueva Vizcaya Mine, Burguillos del Cerro, Badajoz, Extremadura, Spain
##OWNER=Michael Scott
##SOURCE=Michael Scott
##DESCRIPTION=Dark green prismatic crystal asociated with lustrous magnetite and pale green epidote
##STATUS=The identification of this mineral has been confirmed only by single crystal X-ray diffraction.
##URL=rruff.info/R070246
164.6075, 1489.310
165.0896, 1494.561
165.5717, 1501.322
166.0538, 1503.944
166.5359, 1505.016
167.0180, 1508.236
167.5002, 1518.368
167.9823, 1529.230
168.4644, 1535.190
168.9465, 1535.080
169.4286, 1535.322
169.9107, 1542.005
170.3929, 1552.543
170.8750, 1561.669
171.3571, 1567.640
171.8392, 1570.325
172.3213, 1567.779
172.8034, 1557.677
173.2856, 1549.297
173.7677, 1555.068
174.2498, 1571.037
174.7319, 1583.539
175.2140, 1580.301
175.6961, 1569.327
176.1783, 1562.681
176.6604, 1562.897
177.1425, 1567.561
177.6246, 1576.434
178.1067, 1588.564
178.5888, 1598.353
179.0710, 1599.328
179.5531, 1594.857
180.0352, 1592.555
180.5173, 1595.458
180.9994, 1600.137
181.4815, 1600.121
181.9637, 1595.566
182.4458, 1591.335
182.9279, 1591.354
183.4100, 1595.099
183.8921, 1600.715
184.3742, 1608.669
184.8564, 1617.729
185.3385, 1625.140
185.8206, 1630.984
186.3027, 1634.948
186.7848, 1635.921
187.2669, 1634.279
187.7491, 1632.838
188.2312, 1631.349
188.7133, 1630.759
189.1954, 1636.832
189.6775, 1651.174
190.1596, 1664.788
190.6418, 1665.254
191.1239, 1652.841
191.6060, 1639.487
192.0881, 1627.436
192.5702, 1617.389
193.0524, 1617.687
193.5345, 1630.951
194.0166, 1647.729
194.4987, 1651.801
194.9808, 1642.285
195.4629, 1633.358
195.9451, 1632.612
196.4272, 1639.844
196.9093, 1644.959
197.3914, 1646.979
197.8735, 1647.919
198.3556, 1652.106
198.8378, 1660.081
199.3199, 1667.745
199.8020, 1672.171
200.2841, 1672.974
200.7662, 1675.670
201.2483, 1680.577
201.7305, 1687.543
202.2126, 1698.050
202.6947, 1714.162
203.1768, 1726.102
203.6589, 1725.476
204.1410, 1709.818
204.6232, 1699.430
205.1053, 1697.237
205.5874, 1700.959
206.0695, 1702.528
206.5516, 1700.544
207.0337, 1700.079
207.5159, 1706.602
207.9980, 1722.855
208.4801, 1732.327
208.9622, 1731.940
209.4443, 1723.249
209.9264, 1712.791
210.4086, 1698.702
210.8907, 1686.561
211.3728, 1681.802
211.8549, 1687.042
212.3370, 1690.399
212.8191, 1689.145
213.3013, 1684.157
213.7834, 1683.230
214.2655, 1688.182
214.7476, 1694.291
215.2297, 1697.282
215.7118, 1696.026
216.1940, 1694.719
216.6761, 1693.407
217.1582, 1692.219
217.6403, 1694.843
218.1224, 1702.967
218.6045, 1712.596
219.0867, 1720.853
219.5688, 1729.828
220.0509, 1731.730
220.5330, 1721.209
221.0151, 1697.592
221.4972, 1688.267
221.9794, 1700.012
222.4615, 1718.370
222.9436, 1728.049
223.4257, 1726.067
223.9078, 1721.254
224.3899, 1714.136
224.8721, 1704.005
225.3542, 1699.934
225.8363, 1704.168
226.3184, 1712.287
226.8005, 1719.832
227.2827, 1728.684
227.7648, 1733.147
228.2469, 1730.892
228.7290, 1720.969
229.2111, 1711.375
229.6932, 1699.958
230.1754, 1690.719
230.6575, 1690.449
231.1396, 1707.827
231.6217, 1718.484
232.1038, 1712.179
232.5859, 1682.918
233.0681, 1670.454
233.5502, 1685.286
234.0323, 1709.369
234.5144, 1715.054
234.9965, 1688.956
235.4786, 1667.061
235.9608, 1661.746
236.4429, 1677.731
236.9250, 1688.088
237.4071, 1688.985
237.8892, 1686.554
238.3713, 1691.785
238.8535, 1712.987
239.3356, 1727.829
239.8177, 1727.288
240.2998, 1705.688
240.7819, 1690.116
241.2640, 1679.788
241.7462, 1675.683
242.2283, 1681.255
242.7104, 1706.302
243.1925, 1724.784
243.6746, 1725.749
244.1567, 1701.239
244.6389, 1686.717
245.1210, 1686.005
245.6031, 1692.978
246.0852, 1697.072
246.5673, 1697.314
247.0494, 1696.326
247.5316, 1694.917
248.0137, 1693.040
248.4958, 1690.483
248.9779, 1685.162
249.4600, 1680.363
249.9421, 1683.712
250.4243, 1702.269
250.9064, 1716.303
251.3885, 1716.262
251.8706, 1694.526
252.3527, 1684.616
252.8348, 1690.111
253.3170, 1705.153
253.7991, 1720.108
254.2812, 1738.158
254.7633, 1749.693
255.2454, 1749.225
255.7275, 1732.067
256.2097, 1720.590
256.6918, 1716.972
257.1739, 1717.663
257.6560, 1714.915
258.1381, 1704.267
258.6202, 1699.518
259.1024, 1708.805
259.5845, 1738.320
260.0666, 1755.063
260.5487, 1754.670
261.0308, 1744.763
261.5129, 1738.674
261.9951, 1736.655
262.4772, 1738.005
262.9593, 1743.054
263.4414, 1752.730
263.9235, 1762.546
264.4056, 1774.495
264.8878, 1784.810
265.3699, 1785.795
265.8520, 1774.019
266.3341, 1762.733
266.8162, 1757.596
267.2983, 1759.944
267.7805, 1759.705
268.2626, 1755.372
268.7447, 1750.135
269.2268, 1750.311
269.7089, 1757.627
270.1910, 1764.109
270.6732, 1765.512
271.1553, 1760.816
271.6374, 1762.358
272.1195, 1773.211
272.6016, 1785.797
273.0837, 1785.505
273.5659, 1769.365
274.0480, 1755.579
274.5301, 1752.063
275.0122, 1759.252
275.4943, 1765.085
275.9764, 1769.324
276.4586, 1772.652
276.9407, 1776.356
277.4228, 1780.578
277.9049, 1783.595
278.3870, 1784.528
278.8691, 1783.444
279.3513, 1781.656
279.8334, 1778.962
280.3155, 1776.088
280.7976, 1774.968
281.2798, 1775.807
281.7619, 1773.793
282.2440, 1764.762
282.7261, 1750.284
283.2082, 1742.094
283.6903, 1740.356
284.1725, 1744.305
284.6546, 1755.982
285.1367, 1774.891
285.6188, 1790.790
286.1009, 1801.662
286.5830, 1806.733
287.0652, 1799.268
287.5473, 1777.377
288.0294, 1754.649
288.5115, 1747.840
288.9936, 1755.185
289.4757, 1762.329
289.9579, 1765.022
290.4400, 1763.959
290.9221, 1760.308
291.4042, 1753.886
291.8863, 1747.147
292.3684, 1740.365
292.8506, 1734.686
293.3327, 1735.412
293.8148, 1749.049
294.2969, 1767.334
294.7790, 1772.732
295.2611, 1765.217
295.7433, 1755.578
296.2254, 1754.610
296.7075, 1759.084
297.1896, 1759.568
297.6717, 1750.000
298.1538, 1737.947
298.6360, 1736.383
299.1181, 1744.503
299.6002, 1752.944
300.0823, 1754.316
300.5644, 1750.988
301.0465, 1747.239
301.5287, 1743.333
302.0108, 1740.538
302.4929, 1741.271
302.9750, 1744.958
303.4571, 1748.269
303.9392, 1748.461
304.4214, 1747.093
304.9035, 1746.286
305.3856, 1746.767
305.8677, 1747.606
306.3498, 1747.556
306.8319, 1747.044
307.3141, 1747.594
307.7962, 1753.300
308.2783, 1759.010
308.7604, 1758.611
309.2425, 1747.581
309.7246, 1737.568
310.2068, 1738.379
310.6889, 1746.310
311.1710, 1751.741
311.6531, 1746.674
312.1352, 1739.380
312.6173, 1736.292
313.0995, 1739.745
313.5816, 1743.688
314.0637, 1745.080
314.5458, 1745.020
315.0279, 1745.599
315.5100, 1747.362
315.9922, 1750.164
316.4743, 1754.195
316.9564, 1759.806
317.4385, 1765.255
317.9206, 1770.844
318.4027, 1775.725
318.8849, 1778.717
319.3670, 1780.642
319.8491, 1779.622
320.3312, 1772.006
320.8133, 1754.997
321.2954, 1747.133
321.7776, 1757.955
322.2597, 1777.294
322.7418, 1794.314
323.2239, 1811.564
323.7060, 1822.261
324.1881, 1822.170
324.6703, 1810.105
325.1524, 1801.397
325.6345, 1798.933
326.1166, 1799.342
326.5987, 1799.912
327.0808, 1801.560
327.5630, 1802.209
328.0451, 1799.487
328.5272, 1793.835
329.0093, 1795.670
329.4914, 1815.391
329.9735, 1833.140
330.4557, 1834.697
330.9378, 1805.172
331.4199, 1785.574
331.9020, 1781.875
332.3841, 1790.937
332.8662, 1797.794
333.3484, 1802.351
333.8305, 1804.745
334.3126, 1804.213
334.7947, 1798.575
335.2768, 1797.004
335.7589, 1801.199
336.2411, 1809.023
336.7232, 1816.040
337.2053, 1823.185
337.6874, 1826.615
338.1695, 1822.936
338.6516, 1810.966
339.1338, 1802.697
339.6159, 1799.080
340.0980, 1798.130
340.5801, 1797.104
341.0622, 1796.077
341.5443, 1794.091
342.0265, 1789.774
342.5086, 1783.636
342.9907, 1780.510
343.4728, 1780.865
343.9549, 1782.498
344.4370, 1784.179
344.9192, 1785.553
345.4013, 1782.734
345.8834, 1770.929
346.3655, 1754.923
346.8476, 1748.424
347.3297, 1751.629
347.8119, 1758.666
348.2940, 1767.021
348.7761, 1775.209
349.2582, 1778.219
349.7403, 1771.968
350.2225, 1762.731
350.7046, 1759.732
351.1867, 1762.333
351.6688, 1765.817
352.1509, 1770.144
352.6331, 1772.329
353.1152, 1766.875
353.5973, 1749.320
354.0794, 1729.973
354.5615, 1715.451
355.0436, 1706.154
355.5258, 1703.289
356.0079, 1714.731
356.4900, 1728.901
356.9721, 1734.536
357.4542, 1727.263
357.9363, 1720.441
358.4185, 1723.485
358.9006, 1731.849
359.3827, 1737.663
359.8648, 1739.717
360.3469, 1736.960
360.8290, 1726.802
361.3112, 1707.645
361.7933, 1691.225
362.2754, 1679.289
362.7575, 1672.600
363.2396, 1671.994
363.7217, 1685.070
364.2039, 1696.858
364.6860, 1702.541
365.1681, 1701.974
365.6502, 1702.743
366.1323, 1710.510
366.6144, 1717.010
367.0966, 1716.445
367.5787, 1697.522
368.0608, 1685.253
368.5429, 1683.964
369.0250, 1691.446
369.5071, 1696.021
369.9893, 1692.811
370.4714, 1692.317
370.9535, 1701.628
371.4356, 1731.959
371.9177, 1744.826
372.3998, 1730.408
372.8820, 1703.002
373.3641, 1697.131
373.8462, 1722.599
374.3283, 1744.006
374.8104, 1743.414
375.2925, 1717.730
375.7747, 1708.914
376.2568, 1722.389
376.7389, 1741.833
377.2210, 1742.819
377.7031, 1723.827
378.1852, 1708.292
378.6674, 1703.531
379.1495, 1707.916
379.6316, 1717.045
380.1137, 1731.741
380.5958, 1743.033
381.0779, 1738.487
381.5601, 1721.655
382.0422, 1711.025
382.5243, 1712.830
383.0064, 1719.824
383.4885, 1719.802
383.9706, 1713.529
384.4528, 1706.653
384.9349, 1699.738
385.4170, 1695.521
385.8991, 1700.428
386.3812, 1718.503
386.8633, 1735.804
387.3455, 1735.506
387.8276, 1724.306
388.3097, 1717.525
388.7918, 1728.894
389.2739, 1744.001
389.7560, 1750.316
390.2382, 1746.148
390.7203, 1742.048
391.2024, 1747.894
391.6845, 1755.528
392.1666, 1755.583
392.6487, 1732.884
393.1309, 1713.298
393.6130, 1708.821
394.0951, 1718.386
394.5772, 1728.268
395.0593, 1738.198
395.5414, 1745.323
396.0236, 1747.725
396.5057, 1736.370
396.9878, 1730.701
397.4699, 1735.638
397.9520, 1748.006
398.4341, 1757.791
398.9163, 1764.383
399.3984, 1768.988
399.8805, 1771.560
400.3626, 1770.726
400.8447, 1772.096
401.3268, 1777.016
401.8090, 1783.143
402.2911, 1786.769
402.7732, 1786.093
403.2553, 1787.504
403.7374, 1792.723
404.2195, 1801.645
404.7017, 1813.329
405.1838, 1829.205
405.6659, 1844.087
406.1480, 1853.062
406.6301, 1856.126
407.1122, 1856.499
407.5944, 1852.800
408.0765, 1848.778
408.5586, 1854.782
409.0407, 1870.656
409.5228, 1887.819
410.0049, 1902.583
410.4871, 1914.161
410.9692, 1918.774
411.4513, 1914.395
411.9334, 1909.732
412.4155, 1914.715
412.8976, 1927.588
413.3798, 1942.886
413.8619, 1965.903
414.3440, 1985.833
414.8261, 1987.854
415.3082, 1971.802
415.7903, 1956.746
416.2725, 1954.545
416.7546, 1960.388
417.2367, 1968.933
417.7188, 1979.344
418.2009, 1991.041
418.6830, 2005.685
419.1652, 2021.934
419.6473, 2034.278
420.1294, 2038.640
420.6115, 2040.395
421.0937, 2042.562
421.5758, 2046.294
422.0579, 2048.680
422.5400, 2048.896
423.0221, 2047.647
423.5042, 2046.059
423.9864, 2043.187
424.4685, 2041.087
424.9506, 2039.908
425.4327, 2039.571
425.9148, 2041.835
426.3969, 2049.160
426.8791, 2056.284
427.3612, 2058.039
427.8433, 2052.326
428.3254, 2047.893
428.8075, 2046.319
429.2896, 2046.706
429.7718, 2045.858
430.2539, 2043.469
430.7360, 2041.441
431.2181, 2041.651
431.7002, 2043.819
432.1823, 2042.817
432.6645, 2037.262
433.1466, 2032.302
433.6287, 2037.777
434.1108, 2051.290
434.5929, 2060.778
435.0750, 2057.660
435.5572, 2048.888
436.0393, 2048.056
436.5214, 2054.735
437.0035, 2059.890
437.4856, 2053.436
437.9677, 2041.925
438.4499, 2034.640
438.9320, 2035.280
439.4141, 2038.404
439.8962, 2041.462
440.3783, 2044.103
440.8604, 2045.516
441.3426, 2042.786
441.8247, 2040.639
442.3068, 2041.921
442.7889, 2047.424
443.2710, 2054.045
443.7531, 2065.310
444.2353, 2075.558
444.7174, 2078.720
445.1995, 2059.861
445.6816, 2049.227
446.1637, 2056.149
446.6458, 2078.503
447.1280, 2094.808
447.6101, 2105.688
448.0922, 2109.813
448.5743, 2104.869
449.0564, 2084.759
449.5385, 2071.835
450.0207, 2067.959
450.5028, 2070.339
450.9849, 2075.910
451.4670, 2086.344
451.9491, 2091.085
452.4312, 2083.577
452.9134, 2065.855
453.3955, 2052.359
453.8776, 2042.792
454.3597, 2039.658
454.8418, 2052.578
455.3239, 2076.098
455.8061, 2085.822
456.2882, 2071.977
456.7703, 2048.763
457.2524, 2035.246
457.7345, 2029.835
458.2166, 2025.787
458.6988, 2015.550
459.1809, 2006.443
459.6630, 2009.970
460.1451, 2029.683
460.6272, 2044.290
461.1093, 2037.823
461.5915, 2019.169
462.0736, 1999.413
462.5557, 1974.268
463.0378, 1956.419
463.5199, 1955.142
464.0020, 1967.980
464.4842, 1976.422
464.9663, 1976.907
465.4484, 1971.743
465.9305, 1961.405
466.4126, 1938.225
466.8947, 1923.425
467.3769, 1920.984
467.8590, 1925.188
468.3411, 1927.324
468.8232, 1928.578
469.3053, 1924.949
469.7874, 1913.008
470.2696, 1893.580
470.7517, 1883.632
471.2338, 1886.136
471.7159, 1889.042
472.1980, 1878.675
472.6801, 1855.515
473.1623, 1843.072
473.6444, 1846.986
474.1265, 1858.216
474.6086, 1861.040
475.0907, 1856.716
475.5728, 1853.380
476.0550, 1859.116
476.5371, 1867.269
477.0192, 1866.328
477.5013, 1855.852
477.9834, 1842.341
478.4655, 1827.122
478.9477, 1812.979
479.4298, 1803.863
479.9119, 1803.124
480.3940, 1804.744
480.8761, 1804.948
481.3582, 1804.949
481.8404, 1808.271
482.3225, 1820.795
482.8046, 1832.999
483.2867, 1841.203
483.7688, 1845.486
484.2509, 1844.375
484.7331, 1835.558
485.2152, 1822.377
485.6973, 1806.845
486.1794, 1782.588
486.6615, 1767.133
487.1436, 1764.922
487.6258, 1773.391
488.1079, 1781.407
488.5900, 1789.995
489.0721, 1795.110
489.5542, 1793.307
490.0363, 1784.519
490.5185, 1776.262
491.0006, 1768.092
491.4827, 1762.803
491.9648, 1766.136
492.4470, 1776.543
492.9291, 1785.932
493.4112, 1793.484
493.8933, 1796.661
494.3754, 1786.654
494.8575, 1765.888
495.3397, 1750.216
495.8218, 1754.790
496.3039, 1767.471
496.7860, 1775.128
497.2681, 1775.240
497.7502, 1772.993
498.2324, 1768.664
498.7145, 1764.351
499.1966, 1762.828
499.6787, 1770.952
500.1608, 1775.929
500.6429, 1771.814
501.1251, 1759.267
501.6072, 1749.947
502.0893, 1746.465
502.5714, 1744.654
503.0535, 1742.286
503.5356, 1737.349
504.0178, 1737.354
504.4999, 1745.902
504.9820, 1756.096
505.4641, 1755.940
505.9462, 1742.874
506.4283, 1733.109
506.9105, 1733.054
507.3926, 1739.497
507.8747, 1737.673
508.3568, 1726.985
508.8389, 1719.007
509.3210, 1726.644
509.8032, 1743.550
510.2853, 1751.313
510.7674, 1746.266
511.2495, 1737.934
511.7316, 1734.909
512.2137, 1735.872
512.6959, 1738.151
513.1780, 1746.838
513.6601, 1751.309
514.1422, 1739.381
514.6243, 1714.133
515.1064, 1696.713
515.5886, 1703.672
516.0707, 1715.213
516.5528, 1719.141
517.0349, 1710.538
517.5170, 1701.452
517.9991, 1690.295
518.4813, 1680.366
518.9634, 1675.940
519.4455, 1677.773
519.9276, 1684.342
520.4097, 1698.938
520.8918, 1718.760
521.3740, 1725.319
521.8561, 1715.488
522.3382, 1702.742
522.8203, 1693.218
523.3024, 1687.283
523.7845, 1693.368
524.2667, 1715.329
524.7488, 1736.478
525.2309, 1731.247
525.7130, 1707.163
526.1951, 1690.692
526.6772, 1694.343
527.1594, 1706.716
527.6415, 1716.778
528.1236, 1724.527
528.6057, 1730.145
529.0878, 1734.413
529.5699, 1736.054
530.0521, 1732.531
530.5342, 1721.503
531.0163, 1714.478
531.4984, 1720.628
531.9805, 1730.232
532.4626, 1732.981
532.9448, 1714.596
533.4269, 1705.030
533.9090, 1712.529
534.3911, 1731.808
534.8732, 1741.624
535.3553, 1738.042
535.8375, 1732.456
536.3196, 1729.307
536.8017, 1728.585
537.2838, 1730.091
537.7659, 1734.511
538.2480, 1738.942
538.7302, 1739.313
539.2123, 1736.393
539.6944, 1735.495
540.1765, 1737.980
540.6586, 1742.596
541.1407, 1748.776
541.6229, 1755.920
542.1050, 1761.975
542.5871, 1766.865
543.0692, 1769.508
543.5513, 1765.653
544.0334, 1755.287
544.5156, 1752.019
544.9977, 1769.930
545.4798, 1793.137
545.9619, 1808.973
546.4440, 1812.004
546.9261, 1812.153
547.4083, 1804.492
547.8904, 1796.061
548.3725, 1800.578
548.8546, 1830.330
549.3367, 1852.453
549.8188, 1855.206
550.3010, 1841.107
550.7831, 1841.729
551.2652, 1861.290
551.7473, 1881.546
552.2294, 1886.682
552.7115, 1878.751
553.1937, 1879.592
553.6758, 1892.635
554.1579, 1907.384
554.6400, 1908.623
555.1221, 1900.784
555.6042, 1896.617
556.0864, 1902.711
556.5685, 1912.331
557.0506, 1921.462
557.5327, 1929.266
558.0148, 1932.407
558.4969, 1922.062
558.9791, 1911.966
559.4612, 1911.670
559.9433, 1924.261
560.4254, 1935.556
560.9075, 1942.362
561.3896, 1947.089
561.8718, 1952.395
562.3539, 1963.216
562.8360, 1965.935
563.3181, 1957.561
563.8002, 1941.441
564.2823, 1922.970
564.7645, 1899.908
565.2466, 1885.546
565.7287, 1888.520
566.2108, 1904.820
566.6929, 1915.373
567.1750, 1919.997
567.6572, 1921.029
568.1393, 1920.302
568.6214, 1917.347
569.1035, 1910.461
569.5856, 1898.402
570.0677, 1886.208
570.5499, 1875.140
571.0320, 1867.182
571.5141, 1865.353
571.9962, 1879.609
572.4783, 1891.393
572.9604, 1892.866
573.4426, 1885.220
573.9247, 1875.105
574.4068, 1856.691
574.8889, 1842.472
575.3710, 1838.510
575.8531, 1847.437
576.3353, 1853.071
576.8174, 1855.051
577.2995, 1854.191
577.7816, 1851.014
578.2637, 1845.448
578.7458, 1837.660
579.2280, 1826.266
579.7101, 1815.241
580.1922, 1811.619
580.6743, 1814.823
581.1564, 1821.586
581.6385, 1834.375
582.1207, 1847.755
582.6028, 1854.022
583.0849, 1853.702
583.5670, 1851.371
584.0491, 1845.484
584.5313, 1841.365
585.0134, 1845.278
585.4955, 1863.025
585.9776, 1872.713
586.4597, 1863.844
586.9418, 1846.003
587.4240, 1829.611
587.9061, 1808.227
588.3882, 1799.078
588.8703, 1808.028
589.3524, 1829.301
589.8345, 1847.735
590.3167, 1864.822
590.7988, 1872.908
591.2809, 1863.080
591.7630, 1840.657
592.2451, 1836.367
592.7272, 1850.899
593.2094, 1866.725
593.6915, 1869.542
594.1736, 1863.225
594.6557, 1852.215
595.1378, 1834.496
595.6199, 1824.836
596.1021, 1848.016
596.5842, 1882.715
597.0663, 1898.580
597.5485, 1861.872
598.0306, 1829.452
598.5127, 1821.389
598.9948, 1833.159
599.4769, 1844.446
599.9590, 1862.143
600.4412, 1869.226
600.9233, 1855.828
601.4054, 1819.676
601.8875, 1798.694
602.3696, 1795.763
602.8517, 1801.384
603.3339, 1812.457
603.8160, 1827.873
604.2981, 1827.302
604.7802, 1804.281
605.2623, 1779.849
605.7444, 1788.678
606.2266, 1818.622
606.7087, 1836.394
607.1908, 1819.982
607.6729, 1797.248
608.1550, 1790.314
608.6371, 1795.404
609.1193, 1800.001
609.6014, 1798.532
610.0835, 1795.882
610.5656, 1794.061
611.0477, 1793.194
611.5298, 1793.396
612.0120, 1796.340
612.4941, 1798.670
612.9762, 1797.365
613.4583, 1790.156
613.9404, 1788.362
614.4225, 1794.599
614.9047, 1802.540
615.3868, 1802.853
615.8689, 1795.991
616.3510, 1786.973
616.8331, 1773.757
617.3152, 1763.725
617.7974, 1774.596
618.2795, 1800.380
618.7616, 1818.375
619.2437, 1809.702
619.7258, 1793.204
620.2079, 1782.162
620.6901, 1777.382
621.1722, 1773.423
621.6543, 1766.514
622.1364, 1761.124
622.6185, 1761.021
623.1006, 1771.704
623.5828, 1775.364
624.0649, 1767.921
624.5470, 1757.199
625.0291, 1752.957
625.5112, 1756.509
625.9933, 1759.852
626.4755, 1762.273
626.9576, 1762.707
627.4397, 1756.845
627.9218, 1745.715
628.4039, 1737.151
628.8860, 1736.309
629.3682, 1739.579
629.8503, 1743.822
630.3324, 1748.543
630.8145, 1750.147
631.2966, 1743.847
631.7787, 1735.542
632.2609, 1729.753
632.7430, 1728.115
633.2251, 1724.779
633.7072, 1716.115
634.1893, 1706.893
634.6714, 1700.991
635.1536, 1699.360
635.6357, 1699.423
636.1178, 1702.569
636.5999, 1705.685
637.0820, 1699.753
637.5641, 1684.089
638.0463, 1678.475
638.5284, 1695.591
639.0105, 1721.164
639.4926, 1724.063
639.9747, 1707.804
640.4568, 1692.798
640.9390, 1695.272
641.4211, 1702.075
641.9032, 1700.655
642.3853, 1690.148
642.8674, 1678.618
643.3495, 1664.214
643.8317, 1653.332
644.3138, 1650.887
644.7959, 1664.227
645.2780, 1673.163
645.7601, 1676.842
646.2422, 1676.868
646.7244, 1674.150
647.2065, 1667.678
647.6886, 1664.108
648.1707, 1665.464
648.6528, 1669.126
649.1349, 1669.213
649.6171, 1666.360
650.0992, 1665.051
650.5813, 1668.594
651.0634, 1674.064
651.5455, 1678.885
652.0276, 1682.823
652.5098, 1684.366
652.9919, 1680.768
653.4740, 1676.045
653.9561, 1673.277
654.4382, 1673.554
654.9203, 1670.731
655.4025, 1655.567
655.8846, 1643.970
656.3667, 1649.189
656.8488, 1681.884
657.3309, 1696.698
657.8130, 1685.128
658.2952, 1668.178
658.7773, 1683.507
659.2594, 1727.152
659.7415, 1747.328
