##NAMES=Allactite
##RRUFFID=R070175
##IDEAL CHEMISTRY=Mn^2+^_7_(As^5+^O_4_)_2_(OH)_8_
##LOCALITY=Langban, Filipstad, Varmland, Sweden
##OWNER=Michael Scott
##SOURCE=Michael Scott
##DESCRIPTION=Brownish red vitreous massive
##STATUS=The identification of this mineral has been confirmed by X-ray diffraction and chemical analysis
##URL=rruff.info/R070175
##MEASURED CHEMISTRY=(Mn_6.85_Mg_0.10_Ca_0.05_)_Σ=7_(As_1.00_O_4_)_2_(OH)_8_ ;to (Mn_6.75_Mg_0.19_Ca_0.16_)_Σ=7_(As_1.00_O_4_)_2_(OH)_8_
103.8984, 32.37295
104.3806, 34.83994
104.8627, 36.93390
105.3448, 37.64180
105.8269, 39.29084
106.3090, 43.05745
106.7911, 52.03761
107.2733, 57.31363
107.7554, 55.50438
108.2375, 48.99262
108.7196, 47.82260
109.2017, 56.34758
109.6838, 67.22301
110.1659, 76.75266
110.6481, 83.91252
111.1302, 90.43161
111.6123, 96.15945
112.0944, 101.0645
112.5765, 106.3665
113.0586, 111.5162
113.5408, 117.4013
114.0229, 124.8838
114.5050, 136.9546
114.9871, 148.5312
115.4692, 156.7445
115.9513, 159.6520
116.4335, 164.8846
116.9156, 176.5531
117.3977, 192.7130
117.8798, 209.3259
118.3619, 225.1021
118.8440, 240.3233
119.3262, 255.2350
119.8083, 269.5869
120.2904, 284.2929
120.7725, 299.0946
121.2546, 314.3433
121.7367, 332.1634
122.2189, 354.5510
122.7010, 380.2281
123.1831, 407.6821
123.6652, 436.8323
124.1473, 467.2307
124.6294, 498.3659
125.1115, 530.2242
125.5937, 562.9600
126.0758, 597.8765
126.5579, 634.2857
127.0400, 669.0532
127.5221, 702.6832
128.0043, 733.8906
128.4864, 757.8082
128.9685, 772.4049
129.4506, 783.8965
129.9327, 802.8121
130.4148, 828.8951
130.8969, 854.8307
131.3791, 871.9090
131.8612, 882.0856
132.3433, 900.2500
132.8254, 930.1154
133.3075, 969.3397
133.7896, 1011.987
134.2718, 1058.410
134.7539, 1104.851
135.2360, 1145.426
135.7181, 1178.326
136.2002, 1217.283
136.6823, 1267.225
137.1645, 1328.344
137.6466, 1388.766
138.1287, 1445.909
138.6108, 1506.760
139.0929, 1583.806
139.5750, 1682.079
140.0572, 1782.204
140.5393, 1876.559
141.0214, 1962.543
141.5035, 2053.625
141.9856, 2159.327
142.4677, 2268.707
142.9499, 2350.350
143.4320, 2400.603
143.9141, 2425.888
144.3962, 2427.900
144.8783, 2398.137
145.3604, 2359.182
145.8425, 2304.633
146.3247, 2236.086
146.8068, 2188.399
147.2889, 2162.017
147.7710, 2156.745
148.2531, 2172.583
148.7352, 2220.668
149.2174, 2277.673
149.6995, 2338.739
150.1816, 2401.541
150.6637, 2476.738
151.1458, 2566.692
151.6279, 2667.569
152.1101, 2776.965
152.5922, 2907.466
153.0743, 3034.811
153.5564, 3150.894
154.0385, 3253.064
154.5206, 3350.865
155.0028, 3450.944
155.4849, 3547.997
155.9670, 3629.382
156.4491, 3699.945
156.9312, 3749.207
157.4133, 3772.339
157.8955, 3783.269
158.3776, 3750.979
158.8597, 3663.352
159.3418, 3522.757
159.8239, 3347.655
160.3060, 3109.107
160.7882, 2853.724
161.2703, 2620.110
161.7524, 2420.671
162.2345, 2244.578
162.7166, 2087.519
163.1987, 1948.784
163.6808, 1831.070
164.1630, 1742.129
164.6451, 1672.282
165.1272, 1608.951
165.6093, 1546.095
166.0914, 1488.707
166.5735, 1440.981
167.0557, 1404.223
167.5378, 1372.242
168.0199, 1342.107
168.5020, 1314.006
168.9841, 1288.635
169.4662, 1263.710
169.9484, 1242.944
170.4305, 1230.813
170.9126, 1230.820
171.3947, 1233.601
171.8768, 1231.452
172.3589, 1225.185
172.8411, 1218.051
173.3232, 1208.572
173.8053, 1200.226
174.2874, 1198.604
174.7695, 1208.046
175.2516, 1221.531
175.7338, 1231.893
176.2159, 1239.155
176.6980, 1244.273
177.1801, 1248.196
177.6622, 1250.597
178.1443, 1250.646
178.6264, 1246.948
179.1086, 1241.219
179.5907, 1235.576
180.0728, 1229.910
180.5549, 1226.144
181.0370, 1227.954
181.5191, 1233.813
182.0013, 1238.112
182.4834, 1235.132
182.9655, 1228.866
183.4476, 1230.711
183.9297, 1242.225
184.4118, 1256.730
184.8940, 1265.895
185.3761, 1270.198
185.8582, 1273.053
186.3403, 1275.209
186.8224, 1277.167
187.3046, 1281.604
187.7867, 1289.535
188.2688, 1298.540
188.7509, 1303.331
189.2330, 1303.876
189.7151, 1305.747
190.1973, 1314.299
190.6794, 1328.605
191.1615, 1339.720
191.6436, 1345.666
192.1257, 1348.435
192.6078, 1353.622
193.0900, 1361.675
193.5721, 1369.103
194.0542, 1375.163
194.5363, 1379.808
195.0184, 1375.377
195.5005, 1356.872
195.9826, 1328.484
196.4648, 1310.234
196.9469, 1304.811
197.4290, 1300.079
197.9111, 1280.520
198.3932, 1244.111
198.8753, 1215.339
199.3575, 1204.595
199.8396, 1209.811
200.3217, 1201.786
200.8038, 1176.215
201.2859, 1147.196
201.7680, 1134.500
202.2502, 1141.288
202.7323, 1147.332
203.2144, 1144.864
203.6965, 1133.226
204.1786, 1124.380
204.6607, 1118.573
205.1429, 1115.353
205.6250, 1114.503
206.1071, 1116.591
206.5892, 1119.071
207.0713, 1122.298
207.5534, 1127.762
208.0356, 1125.170
208.5177, 1111.447
208.9998, 1091.965
209.4819, 1078.268
209.9640, 1071.493
210.4461, 1067.668
210.9282, 1065.720
211.4104, 1066.848
211.8925, 1065.019
212.3746, 1058.894
212.8567, 1049.882
213.3388, 1042.087
213.8209, 1034.443
214.3031, 1029.956
214.7852, 1031.881
215.2673, 1043.909
215.7494, 1050.964
216.2315, 1049.951
216.7136, 1042.502
217.1958, 1037.453
217.6779, 1033.927
218.1600, 1034.072
218.6421, 1040.832
219.1242, 1059.046
219.6063, 1071.932
220.0885, 1075.970
220.5706, 1071.780
221.0527, 1069.396
221.5348, 1070.231
222.0169, 1071.102
222.4990, 1068.430
222.9812, 1058.844
223.4633, 1053.043
223.9454, 1053.534
224.4275, 1060.558
224.9096, 1068.424
225.3917, 1077.141
225.8739, 1086.858
226.3560, 1098.098
226.8381, 1112.684
227.3202, 1125.476
227.8023, 1135.112
228.2844, 1141.093
228.7665, 1147.551
229.2487, 1155.994
229.7308, 1163.569
230.2129, 1165.416
230.6950, 1154.585
231.1771, 1150.120
231.6592, 1159.034
232.1414, 1185.289
232.6235, 1206.088
233.1056, 1218.367
233.5877, 1227.003
234.0698, 1239.965
234.5519, 1262.595
235.0341, 1280.750
235.5162, 1288.562
235.9983, 1280.883
236.4804, 1280.067
236.9625, 1289.437
237.4446, 1304.088
237.9268, 1314.658
238.4089, 1317.115
238.8910, 1321.743
239.3731, 1332.620
239.8552, 1352.115
240.3373, 1371.789
240.8195, 1392.027
241.3016, 1412.263
241.7837, 1432.125
242.2658, 1453.864
242.7479, 1471.922
243.2300, 1483.216
243.7122, 1483.167
244.1943, 1486.555
244.6764, 1495.186
245.1585, 1506.886
245.6406, 1515.343
246.1227, 1516.834
246.6048, 1520.439
247.0870, 1531.648
247.5691, 1557.422
248.0512, 1574.986
248.5333, 1579.438
249.0154, 1575.487
249.4975, 1579.357
249.9797, 1593.312
250.4618, 1611.765
250.9439, 1632.318
251.4260, 1656.685
251.9081, 1679.141
252.3902, 1697.873
252.8724, 1714.588
253.3545, 1736.537
253.8366, 1765.778
254.3187, 1796.933
254.8008, 1826.846
255.2829, 1855.039
255.7651, 1883.144
256.2472, 1910.617
256.7293, 1938.250
257.2114, 1969.937
257.6935, 2008.022
258.1756, 2046.382
258.6577, 2079.489
259.1399, 2103.613
259.6220, 2133.905
260.1041, 2175.696
260.5862, 2225.773
261.0683, 2263.381
261.5504, 2282.809
262.0326, 2299.351
262.5147, 2323.844
262.9968, 2358.103
263.4789, 2394.128
263.9610, 2430.340
264.4431, 2467.440
264.9253, 2508.862
265.4074, 2557.715
265.8895, 2604.882
266.3716, 2644.110
266.8537, 2674.321
267.3358, 2698.983
267.8180, 2716.919
268.3001, 2729.508
268.7822, 2747.131
269.2643, 2772.938
269.7464, 2796.928
270.2285, 2812.625
270.7107, 2820.010
271.1928, 2817.975
271.6749, 2804.116
272.1570, 2780.466
272.6391, 2759.858
273.1212, 2743.721
273.6034, 2726.932
274.0855, 2706.663
274.5676, 2683.670
275.0497, 2650.823
275.5318, 2602.067
276.0139, 2542.540
276.4961, 2500.150
276.9782, 2476.336
277.4603, 2464.956
277.9424, 2462.443
278.4245, 2469.055
278.9066, 2480.529
279.3888, 2496.320
279.8709, 2516.364
280.3530, 2539.984
280.8351, 2567.336
281.3172, 2597.716
281.7993, 2631.553
282.2815, 2669.021
282.7636, 2704.288
283.2457, 2735.943
283.7278, 2764.692
284.2099, 2793.340
284.6920, 2822.181
285.1741, 2848.997
285.6563, 2871.650
286.1384, 2890.398
286.6205, 2905.626
287.1026, 2916.052
287.5847, 2924.110
288.0668, 2936.321
288.5490, 2952.834
289.0311, 2971.334
289.5132, 2991.032
289.9953, 3011.257
290.4774, 3030.319
290.9595, 3048.327
291.4417, 3064.486
291.9238, 3077.189
292.4059, 3086.329
292.8880, 3092.373
293.3701, 3098.663
293.8522, 3102.785
294.3344, 3095.161
294.8165, 3070.353
295.2986, 3036.498
295.7807, 3007.452
296.2628, 2982.815
296.7449, 2958.990
297.2271, 2932.257
297.7092, 2904.506
298.1913, 2881.005
298.6734, 2867.010
299.1555, 2852.277
299.6376, 2821.652
300.1198, 2776.644
300.6019, 2727.539
301.0840, 2680.561
301.5661, 2634.977
302.0482, 2590.174
302.5303, 2546.949
303.0125, 2502.221
303.4946, 2448.566
303.9767, 2388.737
304.4588, 2332.623
304.9409, 2285.201
305.4230, 2246.645
305.9052, 2216.550
306.3873, 2196.899
306.8694, 2182.429
307.3515, 2168.473
307.8336, 2156.109
308.3157, 2148.591
308.7979, 2150.837
309.2800, 2157.541
309.7621, 2162.832
310.2442, 2163.335
310.7263, 2167.430
311.2084, 2182.077
311.6906, 2204.753
312.1727, 2229.049
312.6548, 2250.638
313.1369, 2273.532
313.6190, 2298.876
314.1011, 2324.245
314.5833, 2359.361
315.0654, 2419.189
315.5475, 2492.113
316.0296, 2553.548
316.5117, 2578.201
316.9938, 2600.131
317.4760, 2639.300
317.9580, 2702.352
318.4402, 2769.129
318.9223, 2836.865
319.4044, 2903.933
319.8865, 2966.475
320.3686, 3025.009
320.8507, 3077.579
321.3329, 3123.300
321.8150, 3161.077
322.2971, 3193.983
322.7792, 3224.403
323.2613, 3249.762
323.7434, 3266.606
324.2256, 3273.620
324.7077, 3272.775
325.1898, 3262.953
325.6719, 3241.942
326.1540, 3221.798
326.6361, 3199.405
327.1183, 3179.573
327.6004, 3167.669
328.0825, 3170.538
328.5646, 3173.994
329.0467, 3177.802
329.5288, 3183.236
330.0110, 3177.811
330.4931, 3158.208
330.9752, 3129.983
331.4573, 3098.341
331.9394, 3061.570
332.4215, 3023.770
332.9037, 2984.687
333.3858, 2944.557
333.8679, 2905.619
334.3500, 2861.072
334.8321, 2825.940
335.3142, 2814.307
335.7964, 2834.291
336.2785, 2855.271
336.7606, 2871.163
337.2427, 2884.228
337.7248, 2908.225
338.2069, 2944.162
338.6891, 2988.400
339.1712, 3038.864
339.6533, 3094.934
340.1354, 3158.061
340.6175, 3226.277
341.0996, 3302.714
341.5818, 3398.564
342.0639, 3516.614
342.5460, 3635.631
343.0281, 3737.367
343.5102, 3822.935
343.9923, 3927.929
344.4745, 4057.904
344.9566, 4203.930
345.4387, 4348.594
345.9208, 4490.221
346.4029, 4634.087
346.8850, 4782.563
347.3672, 4935.173
347.8493, 5086.399
348.3314, 5236.167
348.8135, 5381.811
349.2956, 5514.907
349.7777, 5636.988
350.2599, 5759.342
350.7419, 5893.973
351.2241, 6031.524
351.7062, 6158.937
352.1883, 6275.373
352.6704, 6379.656
353.1525, 6461.227
353.6346, 6528.271
354.1168, 6599.720
354.5989, 6695.071
355.0810, 6791.743
355.5631, 6866.802
356.0452, 6919.781
356.5273, 6962.640
357.0095, 7014.013
357.4916, 7056.993
357.9737, 7069.772
358.4558, 7039.472
358.9379, 6981.940
359.4200, 6905.384
359.9022, 6809.375
360.3843, 6689.888
360.8664, 6538.016
361.3485, 6364.947
361.8306, 6181.329
362.3127, 5980.716
362.7949, 5778.365
363.2770, 5574.916
363.7591, 5372.105
364.2412, 5176.877
364.7233, 4984.350
365.2054, 4803.722
365.6876, 4641.632
366.1697, 4499.176
366.6518, 4371.861
367.1339, 4269.778
367.6160, 4183.393
368.0981, 4090.785
368.5803, 3972.811
369.0624, 3865.958
369.5445, 3784.963
370.0266, 3740.960
370.5087, 3692.271
370.9908, 3633.958
371.4730, 3573.703
371.9551, 3522.198
372.4372, 3482.550
372.9193, 3445.810
373.4014, 3409.081
373.8835, 3372.090
374.3657, 3342.237
374.8478, 3322.009
375.3299, 3305.488
375.8120, 3286.820
376.2941, 3265.662
376.7762, 3243.768
377.2584, 3222.693
377.7405, 3201.167
378.2226, 3172.502
378.7047, 3134.837
379.1868, 3097.514
379.6689, 3070.710
380.1511, 3053.455
380.6332, 3028.364
381.1153, 2989.276
381.5974, 2944.722
382.0795, 2915.778
382.5616, 2901.107
383.0438, 2886.444
383.5259, 2859.505
384.0080, 2825.337
384.4901, 2796.040
384.9722, 2772.656
385.4543, 2754.820
385.9364, 2743.208
386.4185, 2736.614
386.9007, 2731.142
387.3828, 2723.474
387.8649, 2716.456
388.3470, 2715.497
388.8291, 2721.936
389.3112, 2724.454
389.7934, 2709.098
390.2755, 2685.823
390.7576, 2669.036
391.2397, 2670.096
391.7218, 2674.193
392.2039, 2673.889
392.6861, 2669.037
393.1682, 2661.567
393.6503, 2654.411
394.1324, 2643.856
394.6145, 2626.874
395.0966, 2591.808
395.5788, 2562.076
396.0609, 2549.007
396.5430, 2547.652
397.0251, 2535.542
397.5072, 2497.048
397.9893, 2456.643
398.4715, 2425.656
398.9536, 2409.144
399.4357, 2394.160
399.9178, 2382.864
400.3999, 2372.594
400.8820, 2357.358
401.3642, 2330.840
401.8463, 2308.880
402.3284, 2298.102
402.8105, 2301.157
403.2926, 2296.889
403.7747, 2280.456
404.2569, 2263.016
404.7390, 2258.848
405.2211, 2270.468
405.7032, 2284.637
406.1853, 2298.451
406.6674, 2312.288
407.1496, 2328.452
407.6317, 2347.264
408.1138, 2367.059
408.5959, 2383.999
409.0780, 2399.286
409.5602, 2425.584
410.0423, 2468.924
410.5244, 2517.501
411.0065, 2547.995
411.4886, 2562.391
411.9707, 2576.703
412.4529, 2598.752
412.9350, 2628.446
413.4171, 2666.352
413.8992, 2714.405
414.3813, 2763.897
414.8634, 2803.948
415.3456, 2840.037
415.8277, 2883.031
416.3098, 2943.640
416.7919, 3009.466
417.2740, 3076.387
417.7561, 3143.004
418.2382, 3198.004
418.7203, 3225.657
419.2025, 3242.393
419.6846, 3263.778
420.1667, 3302.274
420.6488, 3337.990
421.1309, 3372.419
421.6130, 3401.678
422.0952, 3409.099
422.5773, 3377.709
423.0594, 3333.669
423.5415, 3288.947
424.0236, 3242.431
424.5057, 3198.988
424.9879, 3159.573
425.4700, 3123.575
425.9521, 3088.421
426.4342, 3053.041
426.9163, 3020.482
427.3984, 2991.692
427.8806, 2966.479
428.3627, 2944.356
428.8448, 2924.648
429.3269, 2909.058
429.8090, 2900.253
430.2911, 2899.126
430.7733, 2899.008
431.2554, 2897.472
431.7375, 2896.335
432.2196, 2902.771
432.7017, 2917.246
433.1838, 2934.678
433.6660, 2953.824
434.1481, 2973.344
434.6302, 2985.333
435.1123, 2986.360
435.5944, 2986.339
436.0765, 3001.835
436.5587, 3028.755
437.0408, 3051.904
437.5229, 3059.071
438.0050, 3059.967
438.4871, 3067.969
438.9692, 3084.246
439.4514, 3096.599
439.9335, 3085.520
440.4156, 3068.597
440.8977, 3068.364
441.3798, 3109.665
441.8619, 3153.745
442.3441, 3185.061
442.8262, 3204.429
443.3083, 3216.573
443.7904, 3210.346
444.2725, 3206.056
444.7546, 3216.859
445.2368, 3258.627
445.7189, 3291.097
446.2010, 3299.182
446.6831, 3296.766
447.1652, 3310.234
447.6473, 3357.843
448.1295, 3398.995
448.6116, 3421.340
449.0937, 3422.868
449.5758, 3424.619
450.0579, 3426.310
450.5400, 3428.592
451.0221, 3434.664
451.5042, 3447.775
451.9864, 3448.007
452.4685, 3428.624
452.9506, 3395.749
453.4327, 3371.753
453.9148, 3358.138
454.3969, 3336.190
454.8791, 3288.402
455.3612, 3220.800
455.8433, 3160.144
456.3254, 3109.561
456.8075, 3064.169
457.2896, 3020.409
457.7718, 2977.890
458.2539, 2937.455
458.7360, 2896.006
459.2181, 2858.294
459.7002, 2829.018
460.1823, 2807.927
460.6645, 2794.468
461.1466, 2792.826
461.6287, 2796.468
462.1108, 2798.912
462.5929, 2797.645
463.0750, 2796.333
463.5572, 2795.106
464.0393, 2794.840
464.5214, 2797.781
465.0035, 2814.559
465.4856, 2825.950
465.9677, 2822.525
466.4499, 2798.304
466.9320, 2777.697
467.4141, 2768.553
467.8962, 2758.854
468.3783, 2735.706
468.8604, 2692.652
469.3426, 2647.847
469.8247, 2601.703
470.3068, 2555.406
470.7889, 2517.657
471.2710, 2493.694
471.7531, 2463.417
472.2353, 2408.692
472.7174, 2328.703
473.1995, 2262.190
473.6816, 2213.444
474.1637, 2173.022
474.6458, 2127.645
475.1280, 2078.151
475.6101, 2030.632
476.0922, 1985.924
476.5743, 1945.363
477.0564, 1915.011
477.5385, 1894.155
478.0207, 1871.900
478.5028, 1837.944
478.9849, 1798.055
479.4670, 1759.210
479.9491, 1721.265
480.4312, 1687.923
480.9134, 1663.893
481.3955, 1646.421
481.8776, 1629.430
482.3597, 1612.749
482.8418, 1594.504
483.3239, 1572.692
483.8060, 1545.921
484.2881, 1522.453
484.7703, 1503.215
485.2524, 1488.473
485.7345, 1478.848
486.2166, 1481.166
486.6987, 1478.183
487.1808, 1464.972
487.6630, 1444.823
488.1451, 1433.237
488.6272, 1434.413
489.1093, 1434.970
489.5914, 1426.601
490.0735, 1408.290
490.5557, 1395.458
491.0378, 1389.340
491.5199, 1386.116
492.0020, 1380.715
492.4841, 1373.473
492.9662, 1367.566
493.4484, 1365.541
493.9305, 1364.258
494.4126, 1357.420
494.8947, 1345.496
495.3768, 1332.963
495.8589, 1320.604
496.3411, 1310.235
496.8232, 1304.662
497.3053, 1305.356
497.7874, 1307.250
498.2695, 1308.228
498.7516, 1308.142
499.2338, 1306.762
499.7159, 1302.073
500.1980, 1297.882
500.6801, 1295.975
501.1622, 1296.340
501.6443, 1296.733
502.1265, 1300.969
502.6086, 1302.066
503.0907, 1295.760
503.5728, 1274.727
504.0549, 1258.689
504.5370, 1247.889
505.0192, 1242.107
505.5013, 1242.270
505.9834, 1250.844
506.4655, 1257.234
506.9476, 1257.565
507.4297, 1252.455
507.9119, 1246.451
508.3940, 1239.258
508.8761, 1232.931
509.3582, 1230.583
509.8403, 1230.849
510.3224, 1227.259
510.8046, 1216.580
511.2867, 1206.825
511.7688, 1211.034
512.2509, 1224.753
512.7330, 1234.994
513.2151, 1234.856
513.6973, 1228.723
514.1794, 1216.408
514.6615, 1198.115
515.1436, 1187.198
515.6257, 1198.571
516.1078, 1215.526
516.5900, 1223.370
517.0721, 1202.290
517.5542, 1194.394
518.0363, 1222.447
518.5184, 1267.889
519.0005, 1284.235
519.4827, 1250.415
519.9648, 1213.949
520.4469, 1187.676
520.9290, 1171.453
521.4111, 1163.120
521.8932, 1164.359
522.3754, 1170.155
522.8575, 1176.460
523.3396, 1183.283
523.8217, 1191.960
524.3038, 1204.743
524.7859, 1216.010
525.2681, 1213.478
525.7502, 1198.914
526.2323, 1185.210
526.7144, 1181.165
527.1965, 1181.025
527.6786, 1173.482
528.1608, 1158.537
528.6429, 1148.572
529.1250, 1158.988
529.6071, 1176.418
530.0892, 1185.937
530.5714, 1179.735
531.0535, 1171.864
531.5356, 1167.493
532.0176, 1165.497
532.4998, 1163.481
532.9819, 1159.317
533.4640, 1156.663
533.9461, 1156.890
534.4282, 1160.174
534.9103, 1164.255
535.3925, 1171.703
535.8746, 1176.967
536.3567, 1174.534
536.8388, 1161.490
537.3209, 1153.551
537.8030, 1152.672
538.2852, 1156.699
538.7673, 1164.044
539.2494, 1174.630
539.7315, 1180.345
540.2136, 1174.307
540.6957, 1161.980
541.1779, 1156.236
541.6600, 1156.896
542.1421, 1160.120
542.6242, 1166.461
543.1063, 1172.285
543.5884, 1171.583
544.0706, 1160.068
544.5527, 1150.189
545.0348, 1150.908
545.5169, 1157.755
545.9990, 1163.560
546.4811, 1168.568
546.9633, 1169.840
547.4454, 1163.136
547.9275, 1148.840
548.4096, 1142.493
548.8917, 1151.298
549.3738, 1161.054
549.8560, 1164.414
550.3381, 1159.243
550.8202, 1153.131
551.3023, 1144.245
551.7844, 1137.017
552.2665, 1139.121
552.7487, 1151.003
553.2308, 1162.213
553.7129, 1170.935
554.1950, 1176.199
554.6771, 1173.175
555.1592, 1162.714
555.6414, 1154.027
556.1235, 1154.681
556.6056, 1160.086
557.0877, 1164.939
557.5698, 1168.899
558.0519, 1170.476
558.5341, 1167.645
559.0162, 1162.231
559.4983, 1156.487
559.9804, 1146.653
560.4625, 1141.283
560.9446, 1145.642
561.4268, 1156.794
561.9089, 1164.446
562.3910, 1167.880
562.8731, 1167.802
563.3552, 1163.119
563.8373, 1152.966
564.3195, 1146.952
564.8016, 1145.587
565.2837, 1147.473
565.7658, 1152.751
566.2479, 1161.568
566.7300, 1167.084
567.2122, 1167.605
567.6943, 1165.915
568.1764, 1166.940
568.6585, 1169.931
569.1406, 1171.442
569.6227, 1167.848
570.1049, 1163.078
570.5870, 1161.668
571.0691, 1163.488
571.5512, 1166.956
572.0333, 1173.213
572.5154, 1179.485
572.9976, 1182.918
573.4797, 1180.738
573.9618, 1181.680
574.4439, 1192.672
574.9260, 1206.240
575.4081, 1211.976
575.8903, 1202.677
576.3724, 1196.517
576.8545, 1198.344
577.3366, 1205.438
577.8187, 1204.479
578.3008, 1192.985
578.7830, 1181.887
579.2651, 1178.123
579.7472, 1180.754
580.2293, 1177.572
580.7114, 1167.445
581.1935, 1160.585
581.6757, 1169.996
582.1578, 1190.401
582.6399, 1210.395
583.1220, 1228.403
583.6041, 1242.208
584.0862, 1250.431
584.5684, 1252.783
585.0505, 1248.650
585.5326, 1225.271
586.0147, 1206.823
586.4968, 1208.347
586.9789, 1230.057
587.4611, 1244.245
587.9432, 1242.309
588.4253, 1236.390
588.9074, 1232.128
589.3895, 1230.512
589.8716, 1227.020
590.3538, 1219.039
590.8359, 1212.782
591.3180, 1218.275
591.8001, 1236.209
592.2822, 1251.664
592.7643, 1261.486
593.2465, 1266.260
593.7286, 1265.344
594.2107, 1259.504
594.6928, 1253.969
595.1749, 1251.039
595.6570, 1250.275
596.1392, 1251.517
596.6213, 1254.758
597.1034, 1258.846
597.5854, 1264.257
598.0676, 1269.664
