##NAMES=Alleghanyite
##RRUFFID=R060904
##IDEAL CHEMISTRY=Mn^2+^_5_(SiO_4_)_2_(OH)_2_
##LOCALITY=Near Bald Knob, Alleghany County, North Carolina, USA
##OWNER=Michael Scott
##SOURCE=Michael Scott
##DESCRIPTION=Pinkish-brown sub-rounded irregular grains
##STATUS=The identification of this mineral is confirmed by single-crystal X-ray diffraction and chemical analysis.
##URL=rruff.info/R060904
##MEASURED CHEMISTRY=(Mn^2+^_4.91_Mg_0.09_)_Σ=5.00_(Si_1.00_O_4_)_2_((OH)_1.57_F_0.43_)_Σ=2_ ; OH not measured but estimated by difference and stoichiometry
92.60040, 283.5889
93.08252, 280.4358
93.56464, 273.8438
94.04675, 268.3157
94.52887, 264.4522
95.01099, 260.8905
95.49310, 257.3783
95.97522, 253.6994
96.45734, 249.5390
96.93945, 244.4180
97.42157, 238.3884
97.90369, 233.6049
98.38580, 230.5499
98.86792, 228.4818
99.35004, 228.0118
99.83215, 228.5515
100.3143, 228.5747
100.7964, 226.1156
101.2785, 219.9586
101.7606, 217.0142
102.2427, 220.1300
102.7249, 223.7870
103.2070, 226.0338
103.6891, 226.2699
104.1712, 224.2816
104.6533, 219.3730
105.1354, 208.5076
105.6176, 201.2991
106.0997, 199.5458
106.5818, 199.8131
107.0639, 199.2432
107.5460, 197.1046
108.0281, 195.0300
108.5103, 196.1338
108.9924, 206.0508
109.4745, 211.2233
109.9566, 207.3779
110.4387, 199.9594
110.9208, 195.2514
111.4030, 195.7413
111.8851, 200.0739
112.3672, 204.9133
112.8493, 210.7883
113.3314, 216.3461
113.8135, 220.6476
114.2957, 224.4055
114.7778, 229.4444
115.2599, 237.0952
115.7420, 246.0687
116.2241, 251.7916
116.7062, 253.0554
117.1884, 253.0657
117.6705, 253.0222
118.1526, 252.8741
118.6347, 252.2592
119.1168, 250.4763
119.5989, 248.2669
120.0811, 247.7752
120.5632, 247.4599
121.0453, 250.0947
121.5274, 259.4646
122.0095, 275.6182
122.4916, 291.5121
122.9738, 301.3121
123.4559, 307.8376
123.9380, 317.4482
124.4201, 331.4525
124.9022, 348.9146
125.3843, 368.7240
125.8665, 390.7020
126.3486, 415.4251
126.8307, 443.7180
127.3128, 474.9953
127.7949, 508.8164
128.2770, 544.7941
128.7592, 583.2952
129.2413, 625.9037
129.7234, 673.9424
130.2055, 723.8283
130.6876, 776.0483
131.1697, 828.7340
131.6519, 877.0355
132.1340, 920.2293
132.6161, 957.5424
133.0982, 985.5223
133.5803, 1001.929
134.0624, 1010.670
134.5446, 1013.681
135.0267, 1011.720
135.5088, 1006.601
135.9909, 1000.968
136.4730, 994.6075
136.9551, 980.0377
137.4373, 950.2930
137.9194, 918.4261
138.4015, 887.1088
138.8836, 857.8727
139.3657, 834.2246
139.8478, 820.0258
140.3300, 816.2242
140.8121, 814.5622
141.2942, 816.6970
141.7763, 819.8326
142.2584, 820.3826
142.7405, 819.7244
143.2227, 823.8704
143.7048, 840.3871
144.1869, 872.4789
144.6690, 904.9441
145.1511, 934.6003
145.6333, 966.8742
146.1154, 1005.185
146.5975, 1049.607
147.0796, 1097.778
147.5617, 1145.981
148.0438, 1191.978
148.5260, 1244.424
149.0081, 1308.293
149.4902, 1374.265
149.9723, 1440.143
150.4544, 1504.030
150.9365, 1560.600
151.4187, 1601.153
151.9008, 1619.468
152.3829, 1632.527
152.8650, 1642.476
153.3471, 1646.984
153.8292, 1644.466
154.3114, 1634.522
154.7935, 1617.652
155.2756, 1594.713
155.7577, 1564.771
156.2398, 1528.959
156.7219, 1481.186
157.2041, 1431.380
157.6862, 1386.934
158.1683, 1350.370
158.6504, 1321.365
159.1325, 1299.566
159.6146, 1292.432
160.0968, 1282.786
160.5789, 1268.715
161.0610, 1253.081
161.5431, 1237.557
162.0252, 1222.804
162.5073, 1210.525
162.9895, 1204.348
163.4716, 1208.436
163.9537, 1213.673
164.4358, 1221.315
164.9179, 1229.425
165.4000, 1235.186
165.8822, 1237.440
166.3643, 1238.465
166.8464, 1243.728
167.3285, 1262.700
167.8106, 1272.170
168.2927, 1261.977
168.7749, 1243.451
169.2570, 1232.514
169.7391, 1235.995
170.2212, 1245.890
170.7033, 1242.630
171.1854, 1218.713
171.6676, 1194.422
172.1497, 1170.061
172.6318, 1147.800
173.1139, 1132.492
173.5960, 1126.833
174.0781, 1125.529
174.5603, 1114.956
175.0424, 1089.625
175.5245, 1065.588
176.0066, 1047.191
176.4887, 1031.869
176.9708, 1015.038
177.4530, 994.3634
177.9351, 972.4810
178.4172, 956.3384
178.8993, 947.9036
179.3814, 939.9440
179.8635, 930.3010
180.3457, 920.0018
180.8278, 910.9221
181.3099, 903.9859
181.7920, 898.2849
182.2741, 892.0269
182.7562, 886.5850
183.2384, 878.3217
183.7205, 862.4963
184.2026, 843.4994
184.6847, 829.0345
185.1668, 821.9088
185.6489, 821.3089
186.1311, 827.2928
186.6132, 843.0809
187.0953, 856.4212
187.5774, 861.4517
188.0595, 861.6326
188.5416, 864.2302
189.0238, 872.5295
189.5059, 883.0513
189.9880, 888.1163
190.4701, 886.0621
190.9522, 884.5742
191.4343, 885.9928
191.9165, 889.6489
192.3986, 894.4376
192.8807, 900.2453
193.3628, 906.5376
193.8449, 912.6814
194.3270, 919.5792
194.8092, 924.1758
195.2913, 925.6630
195.7734, 924.2050
196.2555, 919.1264
196.7376, 909.1234
197.2197, 898.0777
197.7019, 894.0481
198.1840, 898.6959
198.6661, 901.4498
199.1482, 898.8146
199.6303, 892.1885
200.1124, 883.5518
200.5946, 872.9220
201.0767, 861.9196
201.5588, 853.3210
202.0409, 847.0856
202.5230, 841.9212
203.0051, 838.1006
203.4873, 835.0087
203.9694, 831.3445
204.4515, 826.5085
204.9336, 821.9341
205.4157, 820.3971
205.8978, 822.2962
206.3800, 823.1683
206.8621, 821.6229
207.3442, 818.4524
207.8263, 814.7305
208.3084, 810.6326
208.7905, 806.3004
209.2727, 801.7412
209.7548, 796.8299
210.2369, 792.6715
210.7190, 789.3823
211.2011, 787.0221
211.6832, 786.0424
212.1654, 786.6651
212.6475, 787.5832
213.1296, 786.4072
213.6117, 782.7371
214.0938, 782.8863
214.5759, 793.9604
215.0581, 806.5045
215.5402, 807.5777
216.0223, 794.6543
216.5044, 780.0790
216.9865, 777.3382
217.4686, 787.1642
217.9508, 794.6466
218.4329, 797.5281
218.9150, 797.9390
219.3971, 796.8304
219.8792, 794.3961
220.3613, 793.2778
220.8435, 796.5576
221.3256, 804.5026
221.8077, 810.3040
222.2898, 811.0758
222.7719, 811.4948
223.2540, 816.6555
223.7362, 826.3751
224.2183, 834.4741
224.7004, 834.9402
225.1825, 827.8318
225.6646, 826.1976
226.1467, 837.0881
226.6289, 847.5345
227.1110, 847.2881
227.5931, 837.7236
228.0752, 828.6152
228.5573, 826.8751
229.0394, 832.0308
229.5216, 835.9890
230.0037, 838.5768
230.4858, 840.2745
230.9679, 841.4656
231.4500, 841.9948
231.9321, 841.0189
232.4143, 837.5371
232.8964, 832.3268
233.3785, 830.1796
233.8606, 833.3106
234.3427, 836.5029
234.8248, 837.7476
235.3070, 837.7264
235.7891, 837.5444
236.2712, 837.4045
236.7533, 838.1129
237.2354, 842.9365
237.7175, 856.2233
238.1997, 867.7817
238.6818, 875.5235
239.1639, 880.3766
239.6460, 883.6093
240.1281, 885.6951
240.6102, 886.8707
241.0924, 887.5873
241.5745, 883.3690
242.0566, 885.0732
242.5387, 897.8811
243.0208, 915.2525
243.5029, 930.1899
243.9851, 940.4260
244.4672, 947.7938
244.9493, 955.1913
245.4314, 961.4838
245.9135, 970.0815
246.3956, 981.5245
246.8778, 994.9029
247.3599, 1010.165
247.8420, 1027.049
248.3241, 1043.759
248.8062, 1057.915
249.2883, 1068.102
249.7705, 1079.577
250.2526, 1092.469
250.7347, 1106.333
251.2168, 1121.154
251.6989, 1136.812
252.1810, 1152.813
252.6632, 1168.935
253.1453, 1185.362
253.6274, 1200.250
254.1095, 1214.272
254.5916, 1226.280
255.0737, 1236.495
255.5559, 1244.367
256.0380, 1248.122
256.5201, 1245.223
257.0022, 1235.850
257.4843, 1234.577
257.9665, 1252.820
258.4486, 1267.907
258.9307, 1273.136
259.4128, 1271.648
259.8949, 1268.991
260.3770, 1268.246
260.8592, 1269.422
261.3413, 1272.576
261.8234, 1278.539
262.3055, 1285.626
262.7876, 1296.453
263.2697, 1307.132
263.7519, 1312.340
264.2340, 1309.477
264.7161, 1302.432
265.1982, 1300.284
265.6803, 1306.435
266.1624, 1310.164
266.6446, 1307.188
267.1267, 1302.754
267.6088, 1301.152
268.0909, 1303.554
268.5730, 1307.926
269.0551, 1313.483
269.5373, 1322.296
270.0194, 1322.575
270.5015, 1298.563
270.9836, 1274.937
271.4657, 1266.872
271.9478, 1275.273
272.4300, 1288.421
272.9121, 1296.721
273.3942, 1300.240
273.8763, 1303.269
274.3584, 1308.858
274.8405, 1310.462
275.3227, 1303.034
275.8048, 1288.119
276.2869, 1271.934
276.7690, 1254.940
277.2511, 1239.370
277.7332, 1234.133
278.2154, 1243.455
278.6975, 1254.583
279.1796, 1261.950
279.6617, 1265.103
280.1438, 1262.045
280.6259, 1247.092
281.1081, 1228.261
281.5902, 1218.302
282.0723, 1218.451
282.5544, 1217.165
283.0365, 1205.817
283.5186, 1189.241
284.0008, 1176.848
284.4829, 1171.270
284.9650, 1168.041
285.4471, 1166.320
285.9292, 1165.144
286.4113, 1157.299
286.8935, 1136.698
287.3756, 1110.607
287.8577, 1093.261
288.3398, 1085.207
288.8219, 1083.174
289.3040, 1091.030
289.7862, 1103.336
290.2683, 1108.098
290.7504, 1100.442
291.2325, 1089.434
291.7146, 1089.364
292.1967, 1102.860
292.6789, 1115.453
293.1610, 1127.582
293.6431, 1136.605
294.1252, 1138.475
294.6073, 1132.969
295.0894, 1125.008
295.5716, 1118.712
296.0537, 1113.778
296.5358, 1114.896
297.0179, 1125.971
297.5000, 1138.961
297.9821, 1151.274
298.4643, 1161.879
298.9464, 1168.834
299.4285, 1170.035
299.9106, 1166.289
300.3927, 1167.584
300.8748, 1175.362
301.3570, 1186.365
301.8391, 1204.375
302.3212, 1224.066
302.8033, 1238.198
303.2854, 1243.283
303.7675, 1241.424
304.2497, 1237.714
304.7318, 1228.557
305.2139, 1223.684
305.6960, 1229.526
306.1781, 1235.930
306.6602, 1233.317
307.1424, 1219.995
307.6245, 1203.193
308.1066, 1192.508
308.5887, 1189.633
309.0708, 1186.025
309.5529, 1180.673
310.0351, 1175.132
310.5172, 1171.598
310.9993, 1168.970
311.4814, 1163.273
311.9635, 1149.923
312.4456, 1130.124
312.9278, 1113.122
313.4099, 1099.627
313.8920, 1088.171
314.3741, 1080.138
314.8562, 1073.156
315.3383, 1062.516
315.8205, 1043.517
316.3026, 1022.795
316.7847, 1013.251
317.2668, 1017.333
317.7489, 1017.511
318.2310, 1003.424
318.7132, 982.4854
319.1953, 963.5770
319.6774, 947.3959
320.1595, 934.3633
320.6416, 926.9424
321.1237, 923.5880
321.6059, 917.3548
322.0880, 904.8738
322.5701, 890.9875
323.0522, 883.5371
323.5343, 883.1425
324.0164, 880.0472
324.4986, 868.3630
324.9807, 853.7731
325.4628, 843.9600
325.9449, 840.0574
326.4270, 837.7867
326.9091, 832.9484
327.3913, 825.2672
327.8734, 821.0624
328.3555, 824.5731
328.8376, 827.5798
329.3197, 825.5044
329.8018, 819.0634
330.2840, 810.2998
330.7661, 799.8367
331.2482, 788.9621
331.7303, 783.7365
332.2124, 791.4437
332.6945, 795.9644
333.1767, 792.5690
333.6588, 786.2439
334.1409, 782.9102
334.6230, 784.4825
335.1051, 788.1339
335.5872, 789.4148
336.0694, 787.8140
336.5515, 784.8245
337.0336, 779.7201
337.5157, 774.0560
337.9978, 767.6746
338.4799, 761.2342
338.9621, 756.5745
339.4442, 756.0255
339.9263, 759.2933
340.4084, 760.2684
340.8905, 757.3845
341.3727, 754.2396
341.8548, 752.9833
342.3369, 752.2536
342.8190, 749.6063
343.3011, 743.2565
343.7832, 735.5991
344.2654, 729.9321
344.7475, 726.0114
345.2296, 725.9207
345.7117, 735.5471
346.1938, 746.1248
346.6759, 746.4357
347.1581, 733.4755
347.6402, 721.7170
348.1223, 723.8336
348.6044, 734.9608
349.0865, 739.4695
349.5686, 733.0436
350.0508, 722.5703
350.5329, 714.1458
351.0150, 707.5909
351.4971, 705.0955
351.9792, 710.6832
352.4613, 718.0481
352.9435, 721.7484
353.4256, 721.6622
353.9077, 719.9353
354.3898, 717.7640
354.8719, 715.2286
355.3540, 713.0064
355.8362, 712.2019
356.3183, 710.3938
356.8004, 704.4621
357.2825, 697.8297
357.7646, 696.9515
358.2467, 704.2043
358.7289, 713.7803
359.2110, 714.3936
359.6931, 697.5993
360.1752, 688.3159
360.6573, 690.1075
361.1394, 695.3925
361.6216, 701.6378
362.1037, 707.3583
362.5858, 710.1044
363.0679, 706.9947
363.5500, 698.3587
364.0321, 691.1246
364.5143, 683.0690
364.9964, 679.8538
365.4785, 686.5303
365.9606, 697.7746
366.4427, 705.9076
366.9248, 707.4696
367.4070, 705.6301
367.8891, 705.0123
368.3712, 705.7700
368.8533, 705.9103
369.3354, 702.7848
369.8175, 700.6260
370.2997, 704.1436
370.7818, 713.8108
371.2639, 724.3763
371.7460, 734.8146
372.2281, 743.8558
372.7102, 748.0812
373.1924, 746.3285
373.6745, 743.7730
374.1566, 744.1550
374.6387, 747.7085
375.1208, 754.3165
375.6029, 766.4997
376.0851, 779.4423
376.5672, 790.0486
377.0493, 799.0794
377.5314, 809.0328
378.0135, 821.2599
378.4956, 834.8245
378.9778, 847.2009
379.4599, 856.7346
379.9420, 867.1015
380.4241, 875.6157
380.9062, 886.6861
381.3883, 907.0007
381.8705, 935.8828
382.3526, 963.8884
382.8347, 979.7132
383.3168, 981.8062
383.7989, 988.2061
384.2810, 1003.683
384.7632, 1018.809
385.2453, 1029.209
385.7274, 1037.564
386.2095, 1049.320
386.6916, 1068.439
387.1737, 1089.518
387.6559, 1101.291
388.1380, 1102.185
388.6201, 1102.074
389.1022, 1103.584
389.5843, 1105.382
390.0664, 1107.092
390.5486, 1108.812
391.0307, 1107.519
391.5128, 1099.019
391.9949, 1086.480
392.4770, 1078.177
392.9591, 1076.158
393.4413, 1072.806
393.9234, 1060.491
394.4055, 1040.098
394.8876, 1022.671
395.3697, 1011.219
395.8518, 1000.393
396.3340, 986.9055
396.8161, 971.7411
397.2982, 957.3187
397.7803, 944.6453
398.2624, 933.7484
398.7445, 924.7059
399.2267, 919.8407
399.7088, 913.2745
400.1909, 905.5817
400.6730, 895.8515
401.1551, 880.4188
401.6372, 861.1001
402.1194, 845.8214
402.6015, 843.1679
403.0836, 852.3270
403.5657, 855.2302
404.0478, 846.9655
404.5299, 839.0311
405.0121, 834.9751
405.4942, 833.1362
405.9763, 831.5396
406.4584, 829.6281
406.9405, 827.1438
407.4226, 823.6229
407.9048, 819.0818
408.3869, 814.1666
408.8690, 808.2467
409.3511, 803.0280
409.8332, 800.0928
410.3153, 799.3088
410.7975, 799.8185
411.2796, 802.1425
411.7617, 805.1367
412.2438, 806.6603
412.7259, 806.9058
413.2080, 809.6119
413.6902, 817.9313
414.1723, 830.1521
414.6544, 838.0765
415.1365, 837.1183
415.6186, 838.4321
416.1007, 846.4764
416.5829, 856.8045
417.0650, 863.8822
417.5471, 866.5791
418.0292, 868.4422
418.5113, 874.1295
418.9934, 884.7085
419.4756, 892.9407
419.9577, 894.4605
420.4398, 898.0933
420.9219, 910.5035
421.4040, 926.4833
421.8861, 935.9532
422.3683, 932.8669
422.8504, 924.1046
423.3325, 922.6866
423.8146, 929.6503
424.2967, 937.6636
424.7788, 947.0359
425.2610, 954.8327
425.7431, 957.1558
426.2252, 953.9801
426.7073, 952.7215
427.1894, 959.2494
427.6715, 969.0368
428.1537, 973.9728
428.6358, 973.3847
429.1179, 974.0258
429.6000, 981.8749
430.0821, 994.6392
430.5642, 999.6972
431.0464, 988.7458
431.5285, 980.9754
432.0106, 983.1292
432.4927, 991.0031
432.9748, 999.6197
433.4569, 1007.404
433.9391, 1015.268
434.4212, 1025.563
434.9033, 1041.158
435.3854, 1045.277
435.8675, 1025.188
436.3496, 1006.555
436.8318, 998.9952
437.3139, 999.1895
437.7960, 1000.266
438.2781, 999.1774
438.7602, 996.3428
439.2423, 992.4779
439.7245, 987.5936
440.2066, 981.5942
440.6887, 973.5923
441.1708, 965.1926
441.6529, 958.2623
442.1350, 952.7257
442.6172, 946.3708
443.0993, 938.3597
443.5814, 928.8871
444.0635, 917.3088
444.5456, 903.7930
445.0277, 891.6628
445.5099, 883.6735
445.9920, 878.3997
446.4741, 869.5983
446.9562, 851.7056
447.4383, 837.9933
447.9204, 834.6938
448.4026, 834.3647
448.8847, 827.6938
449.3668, 813.7377
449.8489, 800.6857
450.3310, 798.3420
450.8131, 807.5824
451.2953, 809.7485
451.7774, 798.9848
452.2595, 787.9041
452.7416, 781.3135
453.2237, 776.2688
453.7059, 767.8327
454.1880, 753.6685
454.6701, 739.2128
455.1522, 732.5685
455.6343, 732.9194
456.1165, 728.4709
456.5986, 713.8195
457.0807, 699.1539
457.5628, 697.6882
458.0449, 706.5759
458.5270, 709.3617
459.0092, 697.1333
459.4913, 682.4006
459.9734, 674.4717
460.4555, 672.1300
460.9376, 670.5525
461.4197, 667.6036
461.9019, 664.0062
462.3840, 661.4688
462.8661, 661.5859
463.3482, 659.7497
463.8303, 654.9056
464.3124, 649.1718
464.7946, 643.9395
465.2767, 639.0657
465.7588, 633.1509
466.2409, 624.2160
466.7230, 614.5944
467.2051, 613.5892
467.6873, 625.3772
468.1694, 633.2379
468.6515, 627.5995
469.1336, 618.5849
469.6157, 615.8560
470.0978, 620.5970
470.5800, 623.2742
471.0621, 616.0233
471.5442, 604.1753
472.0263, 597.4674
472.5084, 596.7518
472.9905, 595.4709
473.4727, 588.5029
473.9548, 577.4115
474.4369, 571.2116
474.9190, 573.8217
475.4011, 575.3623
475.8832, 573.0504
476.3654, 569.2491
476.8475, 567.0052
477.3296, 566.5794
477.8117, 565.1083
478.2938, 558.5554
478.7759, 546.9088
479.2581, 542.6396
479.7402, 551.9867
480.2223, 559.8964
480.7044, 560.4636
481.1865, 557.5588
481.6686, 556.0620
482.1508, 557.4942
482.6329, 558.9356
483.1150, 556.9757
483.5971, 552.6691
484.0792, 550.1188
484.5613, 550.0916
485.0435, 551.3867
485.5256, 553.2169
486.0077, 555.5992
486.4898, 558.3054
486.9719, 561.4240
487.4540, 564.7727
487.9362, 568.7524
488.4183, 572.7554
488.9004, 575.8743
489.3825, 577.8146
489.8646, 578.8149
490.3467, 579.1823
490.8289, 578.9110
491.3110, 577.9808
491.7931, 574.6760
492.2752, 572.5382
492.7573, 573.7833
493.2394, 576.6689
493.7216, 577.9364
494.2037, 575.8463
494.6858, 573.7710
495.1679, 576.9440
495.6500, 584.5414
496.1321, 588.8740
496.6143, 587.3101
497.0964, 584.7189
497.5785, 586.3834
498.0606, 591.8110
498.5427, 595.3801
499.0248, 595.1586
499.5070, 594.3477
499.9891, 593.9156
500.4712, 594.3118
500.9533, 596.9427
501.4354, 602.3007
501.9175, 607.9152
502.3997, 609.6877
502.8818, 606.3941
503.3639, 603.8849
503.8460, 599.6975
504.3281, 598.8927
504.8102, 604.7026
505.2924, 614.9893
505.7745, 626.4281
506.2566, 638.3534
506.7387, 648.7155
507.2208, 653.6873
507.7029, 653.9137
508.1851, 656.2068
508.6672, 662.2957
509.1493, 670.2413
509.6314, 678.9875
510.1135, 688.4089
510.5956, 695.6490
511.0778, 699.7298
511.5599, 702.3353
512.0420, 704.4638
512.5241, 705.7615
513.0062, 705.5387
513.4883, 703.5443
513.9705, 699.8876
514.4526, 694.4828
514.9347, 686.6975
515.4168, 679.8339
515.8989, 673.7113
516.3810, 668.8430
516.8632, 668.1308
517.3453, 668.1963
517.8274, 662.9461
518.3095, 649.2891
518.7916, 632.8146
519.2737, 618.7776
519.7559, 607.1379
520.2380, 597.3132
520.7201, 588.9338
521.2022, 583.5104
521.6843, 583.2009
522.1664, 588.0954
522.6486, 592.0085
523.1307, 598.7548
523.6128, 600.2966
524.0949, 587.9953
524.5770, 570.6043
525.0591, 561.2068
525.5413, 563.2946
526.0234, 569.8295
526.5055, 572.4722
526.9876, 570.9963
527.4697, 568.7988
527.9518, 563.8903
528.4340, 561.3218
528.9161, 565.6832
529.3982, 572.2872
529.8803, 574.2761
530.3624, 569.2279
530.8445, 563.4799
531.3267, 560.8048
531.8088, 560.9789
532.2909, 563.7122
532.7730, 568.9869
533.2551, 576.1504
533.7372, 585.5439
534.2194, 596.5424
534.7015, 603.0201
535.1836, 600.0898
535.6657, 599.3375
536.1478, 601.7950
536.6299, 607.6490
537.1121, 618.2413
537.5942, 632.9855
538.0763, 648.3326
538.5584, 661.4387
539.0405, 672.5737
539.5226, 683.3513
540.0048, 694.3613
540.4869, 703.1750
540.9690, 710.4728
541.4511, 713.8333
541.9332, 708.6584
542.4153, 693.1564
542.8975, 681.5255
543.3796, 682.0829
543.8617, 687.0283
544.3438, 689.2250
544.8259, 688.2161
545.3080, 685.7437
545.7902, 682.9931
546.2723, 678.7184
546.7544, 668.9609
547.2365, 647.9179
547.7186, 632.7536
548.2007, 627.0858
548.6829, 623.9477
549.1650, 620.6886
549.6471, 616.8073
550.1292, 611.7007
550.6113, 603.8046
551.0934, 596.5761
551.5756, 595.4518
552.0577, 599.8649
552.5398, 605.0458
553.0219, 610.0620
553.5040, 614.5725
553.9861, 618.1838
554.4683, 620.7903
554.9504, 623.0808
555.4325, 623.0145
555.9146, 624.8471
556.3967, 629.4944
556.8788, 637.4642
557.3610, 650.2388
557.8431, 667.9551
558.3252, 687.6467
558.8073, 706.8329
559.2894, 725.5520
559.7715, 738.6874
560.2537, 743.0408
560.7358, 747.8982
561.2179, 759.3580
561.7000, 773.2802
562.1821, 784.5733
562.6642, 792.4123
563.1464, 798.3951
563.6285, 804.5613
564.1106, 808.6590
564.5927, 806.6014
565.0748, 798.7172
565.5569, 789.6479
566.0391, 782.4830
566.5212, 776.4677
567.0033, 768.9613
567.4854, 761.6464
567.9675, 749.6033
568.4496, 726.3207
568.9318, 704.1293
569.4139, 691.6581
569.8960, 687.3572
570.3781, 684.1241
570.8602, 679.6566
571.3423, 672.6766
571.8245, 659.8363
572.3066, 642.1238
572.7887, 625.9989
573.2708, 613.0423
573.7529, 602.7077
574.2350, 594.2679
574.7172, 587.8093
575.1993, 583.7184
575.6814, 584.3205
576.1635, 584.4882
576.6456, 583.8546
577.1277, 581.0968
577.6099, 573.0928
578.0920, 559.6463
578.5741, 546.6003
579.0562, 541.0900
579.5383, 542.1431
580.0204, 541.9421
580.5026, 540.8340
580.9847, 537.1321
581.4668, 528.4265
581.9489, 517.4749
582.4310, 508.3153
582.9131, 499.6729
583.3953, 497.4405
583.8774, 510.6820
584.3595, 525.3742
584.8416, 529.0137
585.3237, 522.7216
