##NAMES=Alleghanyite
##RRUFFID=R060904
##IDEAL CHEMISTRY=Mn^2+^_5_(SiO_4_)_2_(OH)_2_
##LOCALITY=Near Bald Knob, Alleghany County, North Carolina, USA
##OWNER=Michael Scott
##SOURCE=Michael Scott
##DESCRIPTION=Pinkish-brown sub-rounded irregular grains
##STATUS=The identification of this mineral is confirmed by single-crystal X-ray diffraction and chemical analysis.
##URL=rruff.info/R060904
##MEASURED CHEMISTRY=(Mn^2+^_4.91_Mg_0.09_)_Σ=5.00_(Si_1.00_O_4_)_2_((OH)_1.57_F_0.43_)_Σ=2_ ; OH not measured but estimated by difference and stoichiometry
125.8621, 873.8752
126.3442, 901.0479
126.8263, 923.3977
127.3084, 940.7332
127.7905, 954.8058
128.2727, 966.4156
128.7548, 975.8047
129.2369, 983.5573
129.7190, 988.9959
130.2011, 992.9359
130.6832, 998.2587
131.1654, 1005.527
131.6475, 1012.230
132.1296, 1014.885
132.6117, 1013.592
133.0938, 1010.359
133.5759, 1003.987
134.0581, 995.0577
134.5402, 991.9061
135.0223, 995.8439
135.5044, 1004.820
135.9865, 1014.211
136.4686, 1023.820
136.9508, 1034.610
137.4329, 1048.801
137.9150, 1067.316
138.3971, 1081.054
138.8792, 1088.620
139.3613, 1090.412
139.8434, 1088.980
140.3256, 1084.546
140.8077, 1076.544
141.2898, 1063.472
141.7719, 1043.254
142.2540, 1023.914
142.7361, 1006.848
143.2183, 991.8842
143.7004, 979.7610
144.1825, 971.0434
144.6646, 964.6353
145.1467, 959.2756
145.6288, 954.1596
146.1110, 951.0987
146.5931, 950.4581
147.0752, 952.1606
147.5573, 956.4597
148.0394, 964.2574
148.5215, 974.3560
149.0037, 984.5915
149.4858, 989.7593
149.9679, 999.6502
150.4500, 1018.221
150.9321, 1054.825
151.4142, 1085.886
151.8964, 1111.682
152.3785, 1132.001
152.8606, 1146.016
153.3427, 1148.406
153.8248, 1148.509
154.3069, 1150.840
154.7890, 1157.838
155.2712, 1165.097
155.7533, 1171.596
156.2354, 1177.597
156.7175, 1185.147
157.1996, 1198.694
157.6817, 1211.899
158.1639, 1220.196
158.6460, 1217.093
159.1281, 1213.950
159.6102, 1214.802
160.0923, 1219.731
160.5744, 1223.481
161.0566, 1223.288
161.5387, 1221.185
162.0208, 1219.361
162.5029, 1219.951
162.9850, 1219.788
163.4671, 1217.278
163.9493, 1212.186
164.4314, 1205.622
164.9135, 1198.139
165.3956, 1189.543
165.8777, 1179.536
166.3598, 1168.059
166.8420, 1155.163
167.3241, 1138.960
167.8062, 1116.790
168.2883, 1100.243
168.7704, 1103.734
169.2525, 1119.149
169.7346, 1127.638
170.2168, 1113.257
170.6989, 1089.641
171.1810, 1070.278
171.6631, 1058.447
172.1452, 1049.638
172.6273, 1039.926
173.1095, 1029.839
173.5916, 1021.037
174.0737, 1017.086
174.5558, 1014.497
175.0379, 1007.782
175.5201, 993.2050
176.0022, 976.8305
176.4843, 965.3184
176.9664, 958.4642
177.4485, 954.4226
177.9306, 953.9825
178.4128, 955.3482
178.8949, 954.9032
179.3770, 952.7661
179.8591, 947.3670
180.3412, 933.4076
180.8233, 910.7453
181.3055, 889.7117
181.7876, 881.3928
182.2697, 882.8229
182.7518, 883.8981
183.2339, 879.5776
183.7160, 872.6583
184.1982, 869.5295
184.6803, 870.3096
185.1624, 873.8615
185.6445, 884.3851
186.1266, 899.2854
186.6087, 903.6563
187.0908, 879.0566
187.5730, 836.3300
188.0551, 821.5272
188.5372, 839.3671
189.0193, 868.8596
189.5014, 882.9877
189.9835, 882.4145
190.4657, 877.9859
190.9478, 871.9222
191.4299, 865.2087
191.9120, 866.8013
192.3941, 879.2311
192.8762, 895.3992
193.3584, 903.0831
193.8405, 902.0477
194.3226, 898.4655
194.8047, 893.0776
195.2868, 886.2433
195.7689, 888.6826
196.2511, 904.7993
196.7332, 926.2360
197.2153, 931.8655
197.6974, 919.6901
198.1795, 906.2669
198.6616, 903.9524
199.1438, 913.5402
199.6259, 916.7662
200.1080, 909.8555
200.5901, 896.5728
201.0722, 888.6932
201.5543, 887.1055
202.0364, 887.1093
202.5186, 885.2131
203.0007, 881.0366
203.4828, 877.9823
203.9649, 877.0555
204.4470, 877.4691
204.9291, 875.2354
205.4113, 869.1765
205.8934, 863.5714
206.3755, 862.2077
206.8576, 865.8732
207.3397, 869.8601
207.8218, 873.3958
208.3040, 876.5871
208.7861, 880.5699
209.2682, 885.9963
209.7503, 890.9138
210.2324, 893.8049
210.7145, 894.8700
211.1967, 892.9810
211.6788, 886.3153
212.1609, 875.3594
212.6430, 870.6491
213.1251, 874.6450
213.6072, 881.2656
214.0894, 883.7478
214.5715, 879.6745
215.0536, 878.4597
215.5357, 883.7515
216.0178, 895.8541
216.4999, 901.6127
216.9820, 897.5147
217.4642, 891.0844
217.9463, 892.0629
218.4284, 904.8458
218.9105, 914.2892
219.3926, 915.1128
219.8747, 906.0314
220.3569, 901.5690
220.8390, 903.4283
221.3211, 908.3302
221.8032, 912.3689
222.2853, 915.6397
222.7674, 917.8024
223.2496, 918.3669
223.7317, 916.8868
224.2138, 916.9920
224.6959, 920.1854
225.1780, 923.8165
225.6601, 923.2622
226.1423, 914.3000
226.6244, 909.1487
227.1065, 913.0471
227.5886, 929.4689
228.0707, 940.0848
228.5528, 944.4901
229.0350, 943.3438
229.5171, 936.8591
229.9992, 920.1196
230.4813, 906.1877
230.9634, 899.7880
231.4455, 902.9097
231.9276, 906.3766
232.4098, 909.9849
232.8919, 914.0734
233.3740, 919.6786
233.8561, 929.7686
234.3382, 936.5568
234.8203, 936.1438
235.3025, 924.3054
235.7846, 918.2972
236.2667, 919.5156
236.7488, 925.9590
237.2309, 934.0913
237.7130, 945.8146
238.1952, 956.1600
238.6773, 963.0707
239.1594, 965.3408
239.6415, 967.3647
240.1236, 968.1686
240.6057, 969.1089
241.0879, 973.4384
241.5700, 982.9487
242.0521, 993.0376
242.5342, 1001.645
243.0163, 1007.225
243.4984, 1015.704
243.9806, 1029.877
244.4627, 1045.977
244.9448, 1054.322
245.4269, 1047.927
245.9090, 1044.165
246.3911, 1051.045
246.8732, 1074.967
247.3554, 1093.107
247.8375, 1102.790
248.3196, 1107.521
248.8017, 1115.727
249.2838, 1129.199
249.7659, 1143.215
250.2481, 1156.561
250.7302, 1171.169
251.2123, 1179.699
251.6944, 1178.025
252.1765, 1171.858
252.6586, 1175.992
253.1408, 1198.132
253.6229, 1218.085
254.1050, 1226.413
254.5871, 1216.974
255.0692, 1212.352
255.5513, 1214.120
256.0334, 1220.085
256.5156, 1225.129
256.9977, 1228.722
257.4798, 1232.333
257.9619, 1235.975
258.4440, 1238.038
258.9261, 1245.576
259.4083, 1262.485
259.8904, 1282.962
260.3725, 1291.595
260.8546, 1281.217
261.3367, 1273.146
261.8188, 1279.244
262.3010, 1308.052
262.7831, 1322.291
263.2652, 1316.808
263.7473, 1299.905
264.2294, 1290.156
264.7115, 1290.405
265.1937, 1291.525
265.6758, 1288.844
266.1579, 1280.544
266.6400, 1276.489
267.1221, 1278.070
267.6042, 1282.869
268.0864, 1286.626
268.5685, 1290.279
269.0506, 1290.493
269.5327, 1285.439
270.0148, 1274.448
270.4969, 1260.863
270.9791, 1242.059
271.4612, 1223.481
271.9433, 1218.602
272.4254, 1232.121
272.9075, 1242.474
273.3896, 1237.831
273.8718, 1215.650
274.3539, 1200.678
274.8360, 1193.979
275.3181, 1192.811
275.8002, 1193.944
276.2823, 1198.486
276.7645, 1199.624
277.2466, 1191.206
277.7287, 1172.144
278.2108, 1165.970
278.6929, 1176.442
279.1750, 1192.642
279.6572, 1196.953
280.1393, 1188.238
280.6214, 1177.118
281.1035, 1166.036
281.5856, 1155.183
282.0677, 1151.687
282.5499, 1157.750
283.0320, 1165.610
283.5141, 1163.015
283.9962, 1149.555
284.4783, 1136.610
284.9604, 1128.844
285.4425, 1125.695
285.9247, 1122.729
286.4068, 1119.914
286.8889, 1117.510
287.3710, 1115.807
287.8531, 1114.811
288.3352, 1114.455
288.8174, 1113.587
289.2995, 1113.232
289.7816, 1119.692
290.2637, 1134.001
290.7458, 1147.729
291.2279, 1149.321
291.7101, 1140.627
292.1922, 1133.974
292.6743, 1134.286
293.1564, 1139.581
293.6385, 1145.104
294.1206, 1150.831
294.6028, 1156.847
295.0849, 1165.486
295.5670, 1175.156
296.0491, 1179.399
296.5312, 1171.588
297.0133, 1159.621
297.4955, 1159.970
297.9776, 1172.501
298.4597, 1186.931
298.9418, 1193.497
299.4239, 1195.093
299.9060, 1198.774
300.3882, 1208.289
300.8703, 1219.384
301.3524, 1224.922
301.8345, 1225.440
302.3166, 1226.545
302.7987, 1237.082
303.2809, 1250.198
303.7630, 1253.162
304.2451, 1235.937
304.7272, 1215.746
305.2093, 1213.377
305.6914, 1225.839
306.1736, 1237.561
306.6557, 1237.938
307.1378, 1232.129
307.6199, 1227.157
308.1020, 1226.722
308.5841, 1223.728
309.0663, 1208.047
309.5484, 1183.774
310.0305, 1165.214
310.5126, 1166.801
310.9947, 1174.062
311.4768, 1173.034
311.9590, 1157.825
312.4411, 1142.238
312.9232, 1135.887
313.4053, 1135.611
313.8874, 1134.186
314.3695, 1128.443
314.8517, 1120.374
315.3337, 1111.365
315.8159, 1101.857
316.2980, 1090.665
316.7801, 1074.822
317.2622, 1057.174
317.7443, 1042.399
318.2264, 1033.440
318.7086, 1026.905
319.1907, 1022.158
319.6728, 1019.971
320.1549, 1015.513
320.6370, 1005.035
321.1191, 992.2036
321.6013, 981.5243
322.0834, 975.4146
322.5655, 970.4283
323.0476, 965.5723
323.5297, 960.7221
324.0118, 956.3962
324.4940, 950.9656
324.9761, 946.8196
325.4582, 946.2313
325.9403, 954.4851
326.4224, 961.0467
326.9045, 963.8047
327.3867, 962.6024
327.8688, 960.5859
328.3509, 955.8472
328.8330, 951.5419
329.3151, 949.9578
329.7972, 956.5210
330.2794, 958.4863
330.7615, 951.2516
331.2436, 936.6378
331.7257, 930.5728
332.2078, 938.9158
332.6899, 949.4212
333.1721, 955.2100
333.6542, 955.3813
334.1363, 952.3113
334.6184, 944.3361
335.1005, 933.5171
335.5826, 926.5281
336.0648, 924.5745
336.5469, 924.2166
337.0290, 923.9904
337.5111, 924.0593
337.9932, 923.4933
338.4753, 921.9875
338.9575, 920.0612
339.4396, 919.1451
339.9217, 919.8049
340.4038, 919.1358
340.8859, 914.3534
341.3680, 905.1411
341.8502, 902.2997
342.3323, 907.6906
342.8144, 915.3179
343.2965, 916.5574
343.7786, 911.2910
344.2607, 904.4841
344.7429, 896.0837
345.2250, 887.3627
345.7071, 885.4663
346.1892, 891.1997
346.6713, 898.8305
347.1534, 902.7770
347.6355, 903.4565
348.1176, 903.4727
348.5998, 904.0844
349.0819, 904.1686
349.5640, 899.9914
350.0461, 891.6364
350.5282, 884.7809
351.0103, 883.7019
351.4925, 887.3971
351.9746, 894.8432
352.4567, 909.1943
352.9388, 921.9655
353.4209, 920.2031
353.9030, 906.7221
354.3852, 893.9954
354.8673, 890.5848
355.3494, 892.0539
355.8315, 892.8552
356.3136, 891.3000
356.7957, 891.1890
357.2779, 898.8846
357.7600, 910.4514
358.2421, 916.8585
358.7242, 908.6715
359.2063, 897.3837
359.6884, 890.9741
360.1706, 890.7220
360.6527, 892.6537
361.1348, 895.1018
361.6169, 898.5679
362.0990, 903.6651
362.5811, 915.8918
363.0633, 925.0104
363.5454, 924.8226
364.0275, 914.7461
364.5096, 907.4572
364.9917, 906.6784
365.4738, 909.7110
365.9560, 914.3727
366.4381, 921.5413
366.9202, 928.9465
367.4023, 936.6385
367.8844, 944.5138
368.3665, 951.5754
368.8487, 957.7058
369.3308, 963.1082
369.8129, 967.8410
370.2950, 971.9919
370.7771, 975.2421
371.2592, 976.4150
371.7414, 976.8166
372.2235, 979.9594
372.7056, 986.4195
373.1877, 994.8264
373.6698, 1005.991
374.1519, 1022.452
374.6341, 1029.257
375.1162, 1020.251
375.5983, 1008.111
376.0804, 1014.252
376.5625, 1043.637
377.0446, 1071.713
377.5267, 1089.493
378.0089, 1098.013
378.4910, 1111.286
378.9731, 1130.653
379.4552, 1149.907
379.9373, 1160.270
380.4194, 1162.232
380.9016, 1169.394
381.3837, 1187.053
381.8658, 1210.495
382.3479, 1227.077
382.8300, 1236.853
383.3121, 1246.942
383.7943, 1264.744
384.2764, 1287.035
384.7585, 1304.481
385.2406, 1314.209
385.7227, 1321.603
386.2048, 1335.599
386.6870, 1353.534
387.1691, 1366.342
387.6512, 1364.411
388.1333, 1356.300
388.6154, 1352.874
389.0975, 1355.719
389.5797, 1358.052
390.0618, 1353.720
390.5439, 1345.660
391.0260, 1338.480
391.5081, 1338.832
391.9902, 1336.818
392.4724, 1322.209
392.9545, 1295.971
393.4366, 1277.370
393.9187, 1286.309
394.4008, 1300.505
394.8829, 1301.831
395.3651, 1272.496
395.8472, 1244.739
396.3293, 1226.895
396.8114, 1216.974
397.2935, 1207.692
397.7756, 1196.424
398.2578, 1186.602
398.7399, 1180.048
399.2220, 1180.181
399.7041, 1177.098
400.1862, 1169.999
400.6683, 1159.871
401.1505, 1147.613
401.6326, 1127.123
402.1147, 1113.730
402.5968, 1115.315
403.0789, 1134.254
403.5610, 1135.916
404.0432, 1111.777
404.5253, 1082.209
405.0074, 1067.982
405.4895, 1073.042
405.9716, 1077.367
406.4537, 1077.530
406.9359, 1074.370
407.4180, 1070.905
407.9001, 1067.183
408.3822, 1062.742
408.8643, 1057.529
409.3464, 1051.441
409.8285, 1041.979
410.3106, 1026.953
410.7928, 1013.637
411.2749, 1015.823
411.7570, 1031.270
412.2391, 1045.378
412.7212, 1051.010
413.2033, 1050.542
413.6855, 1046.871
414.1676, 1039.917
414.6497, 1034.100
415.1318, 1034.548
415.6139, 1038.629
416.0960, 1041.860
416.5782, 1042.108
417.0603, 1041.520
417.5424, 1041.994
418.0245, 1043.218
418.5066, 1043.661
418.9887, 1042.368
419.4709, 1040.086
419.9530, 1036.963
420.4351, 1031.537
420.9172, 1028.460
421.3993, 1031.926
421.8814, 1038.605
422.3636, 1042.328
422.8457, 1037.412
423.3278, 1033.338
423.8099, 1033.783
424.2920, 1040.008
424.7741, 1045.450
425.2563, 1051.772
425.7384, 1056.097
426.2205, 1055.309
426.7026, 1043.651
427.1847, 1036.583
427.6668, 1038.927
428.1490, 1048.168
428.6311, 1048.639
429.1132, 1035.364
429.5953, 1022.782
430.0774, 1020.532
430.5595, 1030.531
431.0417, 1037.682
431.5238, 1041.281
432.0059, 1041.781
432.4880, 1039.070
432.9701, 1033.036
433.4522, 1027.146
433.9344, 1021.348
434.4165, 1016.787
434.8986, 1019.336
435.3807, 1029.515
435.8628, 1039.510
436.3449, 1040.187
436.8271, 1034.800
437.3092, 1032.038
437.7913, 1035.296
438.2734, 1040.608
438.7555, 1044.460
439.2376, 1046.755
439.7197, 1047.136
440.2018, 1044.653
440.6840, 1040.549
441.1661, 1035.586
441.6482, 1029.584
442.1303, 1024.157
442.6124, 1021.910
443.0945, 1020.276
443.5767, 1015.781
444.0588, 1003.148
444.5409, 991.5209
445.0230, 983.6992
445.5051, 979.7631
445.9872, 978.7403
446.4694, 985.7365
446.9515, 992.0455
447.4336, 992.2747
447.9157, 981.6632
448.3978, 971.6102
448.8799, 961.4896
449.3621, 952.2112
449.8442, 946.3405
450.3263, 944.8036
450.8084, 944.8990
451.2905, 946.1037
451.7726, 948.5298
452.2548, 950.2087
452.7369, 951.3828
453.2190, 951.2318
453.7011, 947.5646
454.1832, 940.2392
454.6653, 936.2159
455.1475, 938.1500
455.6296, 943.2748
456.1117, 945.0756
456.5938, 943.6760
457.0759, 941.6774
457.5580, 941.9531
458.0402, 942.7316
458.5223, 939.4023
459.0044, 930.6675
459.4865, 922.1122
459.9686, 920.1361
460.4507, 922.0413
460.9329, 922.5797
461.4150, 916.6891
461.8971, 910.8640
462.3792, 910.0078
462.8613, 913.7612
463.3434, 917.7340
463.8256, 922.7695
464.3077, 925.5326
464.7898, 923.0369
465.2719, 908.4335
465.7540, 898.4419
466.2361, 899.1274
466.7183, 906.3082
467.2004, 911.2720
467.6825, 910.9075
468.1646, 910.9329
468.6467, 914.1165
469.1288, 921.5936
469.6110, 921.4504
470.0930, 908.8401
470.5752, 894.6686
471.0573, 889.5943
471.5394, 897.1188
472.0215, 899.7067
472.5036, 893.3362
472.9857, 881.9137
473.4679, 875.2313
473.9500, 873.3975
474.4321, 875.5853
474.9142, 885.9683
475.3963, 900.9716
475.8784, 902.5757
476.3606, 888.7697
476.8427, 873.3182
477.3248, 873.2845
477.8069, 882.9728
478.2890, 888.8818
478.7711, 884.5882
479.2533, 876.9035
479.7354, 869.7957
480.2175, 864.2351
480.6996, 864.2900
481.1817, 880.5837
481.6638, 897.9850
482.1460, 903.8850
482.6281, 893.1519
483.1102, 882.5436
483.5923, 879.1367
484.0744, 878.5212
484.5565, 875.2314
485.0387, 859.1247
485.5208, 849.9617
486.0029, 855.5137
486.4850, 874.0997
486.9671, 887.2547
487.4492, 892.8983
487.9314, 895.3922
488.4135, 896.8360
488.8956, 897.1304
489.3777, 896.4669
489.8598, 894.0327
490.3419, 891.7380
490.8241, 893.8964
491.3062, 901.3597
491.7883, 905.2557
492.2704, 899.8493
492.7525, 889.4136
493.2346, 890.4389
493.7168, 902.9946
494.1989, 916.9080
494.6810, 925.5468
495.1631, 929.4348
495.6452, 928.2741
496.1273, 919.7770
496.6095, 913.4596
497.0916, 922.4693
497.5737, 940.3628
498.0558, 954.4606
498.5379, 956.5317
499.0201, 954.9411
499.5022, 954.4791
499.9843, 955.2214
500.4664, 955.0814
500.9485, 950.9585
501.4306, 947.2183
501.9127, 946.6752
502.3948, 948.1936
502.8770, 955.2518
503.3591, 970.6317
503.8412, 991.0328
504.3233, 1011.756
504.8054, 1036.661
505.2875, 1055.038
505.7697, 1061.083
506.2518, 1055.307
506.7339, 1061.266
507.2160, 1082.064
507.6981, 1106.359
508.1802, 1126.889
508.6624, 1143.614
509.1445, 1152.291
509.6266, 1149.907
510.1087, 1145.235
510.5908, 1154.914
511.0729, 1175.974
511.5551, 1193.325
512.0372, 1199.717
512.5193, 1198.375
513.0014, 1192.823
513.4835, 1183.214
513.9656, 1171.043
514.4478, 1154.585
514.9299, 1137.380
515.4120, 1122.572
515.8941, 1109.963
516.3762, 1101.611
516.8583, 1105.780
517.3405, 1113.511
517.8226, 1109.849
518.3047, 1075.736
518.7868, 1045.867
519.2689, 1032.886
519.7510, 1036.861
520.2332, 1033.779
520.7153, 1018.080
521.1974, 1002.089
521.6795, 993.4451
522.1616, 993.6863
522.6437, 996.6790
523.1259, 1004.015
523.6080, 1011.403
524.0901, 1009.226
524.5722, 996.8947
525.0543, 989.4443
525.5364, 994.6098
526.0186, 1007.036
526.5007, 1012.329
526.9828, 1010.775
527.4649, 1008.401
527.9470, 1008.070
528.4291, 1010.291
528.9113, 1016.756
529.3934, 1028.793
529.8755, 1040.429
530.3576, 1048.933
530.8397, 1053.922
531.3218, 1054.986
531.8040, 1043.634
532.2861, 1036.470
532.7682, 1043.451
533.2503, 1062.367
533.7324, 1076.199
534.2145, 1078.813
534.6967, 1079.022
535.1788, 1080.155
535.6609, 1081.082
536.1430, 1086.754
536.6251, 1099.577
537.1072, 1114.490
537.5894, 1123.881
538.0715, 1125.706
538.5536, 1133.521
539.0357, 1153.139
539.5178, 1178.260
539.9999, 1192.042
540.4821, 1194.329
540.9642, 1190.667
541.4463, 1182.167
541.9284, 1170.386
542.4105, 1157.628
542.8926, 1143.882
543.3748, 1132.354
543.8569, 1128.207
544.3390, 1127.372
544.8211, 1124.431
545.3032, 1119.289
545.7853, 1109.550
546.2675, 1089.904
546.7495, 1064.639
547.2316, 1044.194
547.7137, 1029.918
548.1959, 1022.388
548.6780, 1024.748
549.1601, 1038.928
549.6422, 1045.329
550.1243, 1040.380
550.6064, 1031.463
551.0886, 1022.862
551.5707, 1013.531
552.0528, 1008.427
552.5349, 1008.537
553.0170, 1012.121
553.4991, 1017.648
553.9813, 1025.118
554.4634, 1029.254
554.9455, 1025.891
555.4276, 1019.005
555.9097, 1016.358
556.3918, 1018.068
556.8740, 1025.453
557.3561, 1048.543
557.8382, 1073.824
558.3203, 1081.637
558.8024, 1065.212
559.2845, 1051.288
559.7667, 1058.026
560.2488, 1074.886
560.7309, 1089.128
561.2130, 1094.379
561.6951, 1099.916
562.1772, 1109.382
562.6594, 1121.338
563.1415, 1129.357
563.6236, 1133.263
564.1057, 1133.166
564.5878, 1128.184
565.0699, 1117.763
565.5521, 1108.446
566.0342, 1100.030
566.5163, 1093.146
566.9984, 1088.514
567.4805, 1086.099
567.9626, 1084.929
568.4448, 1085.437
568.9269, 1085.720
569.4090, 1083.847
569.8911, 1079.552
570.3732, 1071.793
570.8553, 1056.939
571.3375, 1040.452
571.8196, 1027.623
572.3017, 1018.179
572.7838, 1011.110
573.2659, 1006.846
573.7480, 1004.019
574.2302, 1002.286
574.7123, 1003.297
575.1944, 1000.720
575.6765, 989.0594
576.1586, 975.4667
576.6407, 967.9487
577.1229, 971.4096
577.6050, 971.6270
578.0871, 965.0706
578.5692, 954.5881
579.0513, 950.7450
579.5334, 955.1886
580.0156, 957.4854
580.4977, 949.9901
580.9798, 935.6852
581.4619, 931.4553
581.9440, 937.6684
582.4261, 942.3112
582.9083, 929.7480
583.3904, 909.6054
583.8725, 898.4780
584.3546, 900.6552
584.8367, 908.9240
585.3188, 925.0510
585.8010, 942.5212
586.2831, 951.1959
586.7652, 939.8922
587.2473, 927.2122
587.7294, 918.1078
588.2115, 912.5739
588.6937, 909.4818
589.1758, 909.3279
589.6579, 910.8511
590.1400, 913.9169
590.6221, 918.8466
591.1042, 923.4341
591.5864, 928.2358
592.0685, 931.3694
592.5506, 929.7708
593.0327, 923.7481
593.5148, 919.7687
593.9969, 918.9920
594.4791, 920.3277
594.9612, 923.5208
595.4433, 927.6934
595.9254, 930.0888
596.4075, 929.4645
596.8896, 926.4907
597.3718, 919.5222
597.8539, 909.7565
598.3360, 903.8435
598.8181, 906.3795
599.3002, 912.4616
599.7823, 919.6271
600.2645, 928.1970
600.7466, 935.9873
601.2287, 943.2125
601.7108, 949.2648
602.1929, 953.3259
602.6750, 954.2942
603.1572, 956.2125
603.6393, 959.8556
604.1214, 964.2716
604.6035, 968.6468
605.0856, 973.0780
605.5677, 973.2068
606.0499, 963.9879
606.5320, 950.9730
607.0141, 946.7930
607.4962, 950.7629
607.9783, 957.3193
608.4604, 962.7284
608.9425, 968.7363
609.4246, 978.6483
609.9067, 994.0875
610.3889, 1004.888
610.8710, 1003.796
611.3531, 997.2159
611.8352, 991.1583
612.3173, 983.6995
612.7994, 980.7100
613.2816, 986.7083
613.7637, 995.9140
614.2458, 996.4093
614.7279, 985.0372
615.2100, 973.5565
615.6921, 965.5098
616.1743, 959.9333
616.6564, 951.3304
617.1385, 939.4103
617.6206, 931.1272
618.1027, 929.9141
618.5848, 935.9006
