##NAMES=Alloriite
##RRUFFID=R070560
##IDEAL CHEMISTRY=(Na,K,Ca)_24_(Na,Ca)_4_Ca_4_(Si,Al)_48_O_96_(S^6+^O_4_)_4_(SO_3_,CO_3_)_2_(OH,Cl)_2_(H_2_O,OH)_4_
##LOCALITY=Monte Cavalluccio, near Campagnano di Roma, Rome, Latium, Italy
##OWNER=Michael Scott
##SOURCE=Michael Scott
##DESCRIPTION=Colorless prisms in vug
##STATUS=The identification of this mineral has been confirmed by single-crystal X-ray diffraction.
##URL=rruff.info/R070560
90.01007, 0.0000000E+00
90.49219, 77.00691
90.97430, 80.02530
91.45642, 81.10125
91.93854, 78.45881
92.42065, 74.38954
92.90277, 72.24783
93.38489, 72.35458
93.86700, 73.76775
94.34912, 76.40974
94.83124, 79.90187
95.31335, 81.96223
95.79547, 79.81141
96.27759, 74.67801
96.75970, 71.68676
97.24182, 71.95082
97.72394, 74.19790
98.20605, 75.94792
98.68817, 77.20398
99.17029, 77.96352
99.65240, 78.12173
100.1345, 77.64268
100.6166, 77.13854
101.0988, 76.97593
101.5809, 76.97411
102.0630, 75.26285
102.5451, 70.99741
103.0272, 66.49749
103.5093, 64.47034
103.9915, 65.81037
104.4736, 67.37132
104.9557, 68.40294
105.4378, 68.87070
105.9199, 68.92121
106.4020, 68.05556
106.8842, 67.01544
107.3663, 67.22913
107.8484, 70.50172
108.3305, 72.92959
108.8126, 72.98599
109.2947, 68.24712
109.7769, 65.16960
110.2590, 64.80997
110.7411, 66.29371
111.2232, 66.91259
111.7053, 64.46911
112.1874, 62.66314
112.6696, 63.17797
113.1517, 70.51249
113.6338, 75.50344
114.1159, 76.58936
114.5980, 74.06375
115.0801, 70.04232
115.5623, 61.30157
116.0444, 53.04490
116.5265, 49.30820
117.0086, 56.01401
117.4907, 63.10999
117.9728, 66.61247
118.4550, 66.30182
118.9371, 65.55228
119.4192, 65.63067
119.9013, 66.18771
120.3834, 66.77822
120.8655, 67.88090
121.3477, 68.53447
121.8298, 67.57343
122.3119, 64.52802
122.7940, 62.01428
123.2761, 62.67203
123.7582, 65.32221
124.2404, 67.33895
124.7225, 66.72500
125.2046, 64.90238
125.6867, 63.40603
126.1688, 62.18060
126.6509, 61.97743
127.1331, 63.95321
127.6152, 67.84812
128.0973, 72.37025
128.5794, 77.37528
129.0615, 82.37273
129.5436, 85.93326
130.0258, 86.93266
130.5079, 87.24757
130.9900, 90.43360
131.4721, 96.46135
131.9542, 103.4967
132.4363, 109.8348
132.9185, 115.6736
133.4006, 122.3147
133.8827, 129.8665
134.3648, 138.4699
134.8469, 148.9055
135.3290, 161.0242
135.8112, 175.7041
136.2933, 194.3738
136.7754, 217.3092
137.2575, 241.0164
137.7396, 263.6593
138.2217, 284.9955
138.7039, 311.5794
139.1860, 344.7611
139.6681, 381.1523
140.1502, 416.9428
140.6323, 452.2285
141.1144, 485.4225
141.5966, 515.5251
142.0787, 541.5850
142.5608, 568.3888
143.0429, 597.1491
143.5250, 625.9227
144.0071, 649.4608
144.4893, 664.4150
144.9714, 679.2410
145.4535, 697.5596
145.9356, 721.2172
146.4177, 744.9410
146.8998, 767.4661
147.3820, 789.8831
147.8641, 817.8835
148.3462, 853.2269
148.8283, 892.1326
149.3104, 933.1348
149.7925, 977.3605
150.2747, 1021.960
150.7568, 1066.668
151.2389, 1111.378
151.7210, 1154.724
152.2031, 1196.453
152.6852, 1236.545
153.1674, 1275.449
153.6495, 1314.032
154.1316, 1350.148
154.6137, 1383.558
155.0958, 1414.254
155.5779, 1442.278
156.0601, 1466.298
156.5422, 1488.313
157.0243, 1509.738
157.5064, 1532.414
157.9885, 1553.069
158.4706, 1569.905
158.9528, 1582.339
159.4349, 1595.592
159.9170, 1610.531
160.3991, 1627.134
160.8812, 1645.373
161.3633, 1664.030
161.8455, 1685.293
162.3276, 1711.030
162.8097, 1741.920
163.2918, 1772.974
163.7739, 1800.440
164.2560, 1824.814
164.7382, 1838.536
165.2203, 1855.511
165.7024, 1873.761
166.1845, 1889.461
166.6666, 1901.686
167.1487, 1913.208
167.6309, 1925.511
168.1130, 1938.387
168.5951, 1951.164
169.0772, 1963.163
169.5593, 1975.252
170.0414, 1988.762
170.5236, 2005.379
171.0057, 2020.132
171.4878, 2029.139
171.9699, 2033.454
172.4520, 2036.044
172.9341, 2037.993
173.4163, 2039.435
173.8984, 2040.639
174.3805, 2042.039
174.8626, 2042.561
175.3447, 2040.383
175.8268, 2036.058
176.3090, 2032.218
176.7911, 2030.825
177.2732, 2031.039
177.7553, 2031.613
178.2374, 2032.453
178.7195, 2033.223
179.2017, 2034.161
179.6838, 2035.102
180.1659, 2034.321
180.6480, 2028.211
181.1301, 2019.326
181.6122, 2013.631
182.0944, 2013.855
182.5765, 2017.396
183.0586, 2020.112
183.5407, 2021.968
184.0228, 2023.784
184.5049, 2026.978
184.9871, 2030.925
185.4692, 2033.115
185.9513, 2031.576
186.4334, 2028.231
186.9155, 2028.250
187.3976, 2031.916
187.8798, 2035.660
188.3619, 2035.278
188.8440, 2031.382
189.3261, 2027.850
189.8082, 2025.834
190.2903, 2025.167
190.7725, 2025.640
191.2546, 2027.498
191.7367, 2029.227
192.2188, 2029.243
192.7009, 2027.576
193.1830, 2024.680
193.6652, 2019.736
194.1473, 2013.331
194.6294, 2009.943
195.1115, 2010.116
195.5936, 2011.458
196.0757, 2011.220
196.5579, 2009.405
197.0400, 2006.106
197.5221, 2000.570
198.0042, 1993.059
198.4863, 1987.032
198.9684, 1982.436
199.4506, 1979.546
199.9327, 1979.642
200.4148, 1983.135
200.8969, 1985.827
201.3790, 1985.600
201.8611, 1982.316
202.3433, 1979.800
202.8254, 1978.079
203.3075, 1977.004
203.7896, 1976.705
204.2717, 1977.453
204.7538, 1977.428
205.2360, 1975.326
205.7181, 1970.737
206.2002, 1967.860
206.6823, 1967.252
207.1644, 1967.664
207.6465, 1966.711
208.1287, 1964.087
208.6108, 1961.268
209.0929, 1958.710
209.5750, 1956.284
210.0571, 1955.229
210.5392, 1956.332
211.0214, 1958.172
211.5035, 1957.445
211.9856, 1953.273
212.4677, 1949.116
212.9498, 1946.443
213.4319, 1945.415
213.9140, 1945.444
214.3962, 1946.936
214.8783, 1949.200
215.3604, 1950.585
215.8425, 1950.784
216.3246, 1950.736
216.8067, 1950.994
217.2889, 1951.921
217.7710, 1951.630
218.2531, 1949.448
218.7352, 1946.304
219.2173, 1944.456
219.6994, 1944.274
220.1816, 1944.609
220.6637, 1945.216
221.1458, 1946.778
221.6279, 1946.426
222.1100, 1942.926
222.5921, 1938.000
223.0743, 1936.496
223.5564, 1940.697
224.0385, 1944.430
224.5206, 1944.444
225.0027, 1938.756
225.4848, 1934.813
225.9670, 1932.958
226.4491, 1932.892
226.9312, 1934.164
227.4133, 1938.102
227.8954, 1941.202
228.3775, 1941.448
228.8597, 1936.987
229.3418, 1934.059
229.8239, 1932.654
230.3060, 1932.739
230.7881, 1934.630
231.2702, 1939.863
231.7524, 1944.475
232.2345, 1946.380
232.7166, 1943.905
233.1987, 1942.740
233.6808, 1943.934
234.1629, 1946.190
234.6451, 1945.791
235.1272, 1940.940
235.6093, 1936.205
236.0914, 1933.671
236.5735, 1934.290
237.0556, 1935.132
237.5378, 1936.370
238.0199, 1937.866
238.5020, 1939.318
238.9841, 1941.298
239.4662, 1942.491
239.9483, 1942.105
240.4305, 1938.926
240.9126, 1937.021
241.3947, 1936.633
241.8768, 1937.399
242.3589, 1938.523
242.8410, 1940.206
243.3232, 1941.844
243.8053, 1943.210
244.2874, 1944.439
244.7695, 1944.958
245.2516, 1944.446
245.7337, 1943.349
246.2159, 1942.649
246.6980, 1942.412
247.1801, 1942.510
247.6622, 1943.083
248.1443, 1944.734
248.6264, 1945.149
249.1086, 1943.760
249.5907, 1941.452
250.0728, 1940.049
250.5549, 1939.894
251.0370, 1940.057
251.5191, 1940.193
252.0013, 1940.244
252.4834, 1940.337
252.9655, 1940.287
253.4476, 1940.337
253.9297, 1941.105
254.4118, 1943.223
254.8940, 1944.800
255.3761, 1944.955
255.8582, 1943.134
256.3403, 1942.220
256.8224, 1942.877
257.3046, 1943.953
257.7867, 1943.569
258.2688, 1941.608
258.7509, 1938.475
259.2330, 1933.843
259.7151, 1927.107
260.1973, 1922.669
260.6794, 1921.553
261.1615, 1921.882
261.6436, 1920.828
262.1257, 1917.639
262.6078, 1914.884
263.0900, 1913.443
263.5721, 1913.432
264.0542, 1913.413
264.5363, 1913.547
265.0184, 1913.427
265.5005, 1912.208
265.9827, 1909.158
266.4648, 1907.125
266.9469, 1907.230
267.4290, 1909.519
267.9111, 1911.116
268.3932, 1912.151
268.8754, 1912.243
269.3575, 1910.394
269.8396, 1905.625
270.3217, 1902.577
270.8038, 1903.009
271.2859, 1906.684
271.7681, 1908.675
272.2502, 1908.783
272.7323, 1907.657
273.2144, 1905.313
273.6965, 1901.145
274.1786, 1899.167
274.6608, 1901.219
275.1429, 1906.428
275.6250, 1907.896
276.1071, 1904.516
276.5892, 1900.600
277.0714, 1900.680
277.5535, 1905.316
278.0356, 1908.762
278.5177, 1909.839
278.9998, 1908.974
279.4819, 1907.546
279.9641, 1905.324
280.4462, 1903.542
280.9283, 1904.130
281.4104, 1907.261
281.8925, 1907.179
282.3746, 1901.651
282.8568, 1893.389
283.3389, 1890.330
283.8210, 1892.878
284.3031, 1897.403
284.7852, 1902.140
285.2673, 1906.951
285.7495, 1910.241
286.2316, 1911.352
286.7137, 1911.418
287.1958, 1913.108
287.6779, 1916.462
288.1600, 1919.406
288.6422, 1920.049
289.1243, 1918.816
289.6064, 1919.094
290.0885, 1921.582
290.5706, 1924.617
291.0527, 1925.550
291.5349, 1924.483
292.0170, 1922.645
292.4991, 1920.452
292.9812, 1918.023
293.4633, 1915.406
293.9454, 1912.300
294.4276, 1910.299
294.9097, 1912.802
295.3918, 1918.902
295.8739, 1923.756
296.3560, 1923.697
296.8381, 1920.819
297.3203, 1920.128
297.8024, 1921.851
298.2845, 1924.431
298.7666, 1926.947
299.2487, 1929.093
299.7308, 1930.021
300.2130, 1928.822
300.6951, 1926.390
301.1772, 1923.437
301.6593, 1919.987
302.1414, 1918.092
302.6235, 1921.594
303.1057, 1927.922
303.5878, 1931.703
304.0699, 1929.454
304.5520, 1925.224
305.0341, 1923.690
305.5162, 1924.623
305.9984, 1926.003
306.4805, 1926.877
306.9626, 1927.159
307.4447, 1926.552
307.9268, 1924.089
308.4089, 1921.844
308.8911, 1922.032
309.3732, 1924.139
309.8553, 1926.106
310.3374, 1927.420
310.8195, 1927.657
311.3016, 1925.787
311.7838, 1919.891
312.2659, 1915.542
312.7480, 1918.092
313.2301, 1925.208
313.7122, 1931.109
314.1943, 1931.879
314.6765, 1931.343
315.1586, 1932.290
315.6407, 1935.487
316.1228, 1938.901
316.6049, 1942.132
317.0870, 1944.866
317.5692, 1946.541
318.0513, 1946.152
318.5334, 1945.297
319.0155, 1944.567
319.4976, 1943.932
319.9797, 1943.747
320.4619, 1943.388
320.9440, 1943.748
321.4261, 1945.823
321.9082, 1953.167
322.3903, 1959.037
322.8724, 1960.495
323.3546, 1957.382
323.8367, 1955.307
324.3188, 1956.643
324.8009, 1958.746
325.2830, 1959.590
325.7651, 1957.545
326.2473, 1955.869
326.7294, 1954.915
327.2115, 1954.717
327.6936, 1955.318
328.1757, 1957.578
328.6578, 1960.048
329.1400, 1962.035
329.6221, 1964.004
330.1042, 1964.811
330.5863, 1963.965
331.0684, 1961.901
331.5505, 1959.906
332.0327, 1957.600
332.5148, 1955.714
332.9969, 1954.346
333.4790, 1952.990
333.9611, 1953.737
334.4432, 1958.247
334.9254, 1963.882
335.4075, 1965.775
335.8896, 1961.889
336.3717, 1958.409
336.8538, 1957.277
337.3359, 1958.670
337.8180, 1960.740
338.3001, 1963.825
338.7823, 1967.107
339.2644, 1969.799
339.7465, 1972.077
340.2286, 1973.045
340.7107, 1972.101
341.1928, 1969.563
341.6750, 1967.669
342.1571, 1966.329
342.6392, 1965.787
343.1213, 1966.891
343.6034, 1969.665
344.0855, 1970.631
344.5677, 1968.654
345.0498, 1965.079
345.5319, 1963.172
346.0140, 1962.965
346.4961, 1963.509
346.9782, 1965.218
347.4604, 1967.501
347.9425, 1966.746
348.4246, 1961.892
348.9067, 1956.219
349.3888, 1954.886
349.8709, 1957.233
350.3531, 1959.494
350.8352, 1959.839
351.3173, 1958.825
351.7994, 1957.136
352.2815, 1954.719
352.7636, 1952.692
353.2458, 1952.150
353.7279, 1952.790
354.2100, 1953.962
354.6921, 1955.395
355.1742, 1957.215
355.6563, 1960.889
356.1385, 1965.978
356.6206, 1968.337
357.1027, 1960.872
357.5848, 1950.624
358.0669, 1946.232
358.5490, 1953.361
359.0312, 1961.776
359.5133, 1965.209
359.9954, 1964.683
360.4775, 1963.478
360.9596, 1962.172
361.4417, 1961.359
361.9239, 1961.582
362.4060, 1963.293
362.8881, 1964.933
363.3702, 1966.384
363.8523, 1967.307
364.3344, 1967.179
364.8166, 1963.722
365.2987, 1961.095
365.7808, 1961.161
366.2629, 1964.270
366.7450, 1967.752
367.2271, 1973.613
367.7093, 1978.526
368.1914, 1979.571
368.6735, 1970.378
369.1556, 1964.127
369.6377, 1964.077
370.1198, 1969.397
370.6020, 1972.967
371.0841, 1973.368
371.5662, 1973.345
372.0483, 1974.462
372.5304, 1978.131
373.0125, 1980.219
373.4947, 1979.967
373.9768, 1978.301
374.4589, 1977.311
374.9410, 1977.021
375.4231, 1977.358
375.9052, 1978.394
376.3874, 1980.221
376.8695, 1982.194
377.3516, 1984.552
377.8337, 1986.700
378.3158, 1987.628
378.7979, 1987.086
379.2801, 1987.327
379.7622, 1989.208
380.2443, 1992.322
380.7264, 1994.991
381.2085, 1997.182
381.6906, 1998.999
382.1728, 2000.076
382.6549, 2000.650
383.1370, 2002.366
383.6191, 2005.885
384.1012, 2009.992
384.5833, 2012.667
385.0655, 2014.050
385.5476, 2015.225
386.0297, 2016.481
386.5118, 2018.063
386.9939, 2020.543
387.4760, 2024.025
387.9582, 2027.943
388.4403, 2031.955
388.9224, 2036.051
389.4045, 2040.175
389.8866, 2046.117
390.3687, 2050.884
390.8509, 2050.838
391.3330, 2046.386
391.8151, 2042.138
392.2972, 2041.078
392.7793, 2041.437
393.2614, 2041.479
393.7436, 2040.221
394.2257, 2039.342
394.7078, 2039.587
395.1899, 2040.766
395.6720, 2042.378
396.1541, 2046.119
396.6363, 2048.810
397.1184, 2048.345
397.6005, 2042.926
398.0826, 2039.423
398.5647, 2039.725
399.0468, 2042.207
399.5290, 2044.892
400.0111, 2049.535
400.4932, 2052.311
400.9753, 2051.528
401.4574, 2047.201
401.9395, 2045.224
402.4217, 2046.006
402.9038, 2048.638
403.3859, 2052.964
403.8680, 2060.731
404.3501, 2065.841
404.8322, 2067.004
405.3144, 2065.625
405.7965, 2065.293
406.2786, 2066.121
406.7607, 2067.599
407.2428, 2069.595
407.7249, 2072.129
408.2071, 2074.911
408.6892, 2078.076
409.1713, 2081.118
409.6534, 2083.335
410.1355, 2084.752
410.6176, 2085.962
411.0998, 2086.726
411.5819, 2087.679
412.0640, 2090.511
412.5461, 2095.157
413.0282, 2100.602
413.5103, 2107.458
413.9925, 2114.322
414.4746, 2117.772
414.9567, 2116.307
415.4388, 2114.137
415.9209, 2115.974
416.4030, 2120.569
416.8852, 2124.872
417.3673, 2126.149
417.8494, 2127.228
418.3315, 2130.879
418.8136, 2137.250
419.2957, 2143.610
419.7779, 2148.150
420.2600, 2151.997
420.7421, 2156.208
421.2242, 2161.687
421.7063, 2167.024
422.1884, 2171.120
422.6706, 2174.578
423.1527, 2179.802
423.6348, 2190.234
424.1169, 2200.207
424.5990, 2207.105
425.0811, 2209.415
425.5633, 2211.572
426.0454, 2213.603
426.5275, 2215.642
427.0096, 2217.934
427.4917, 2221.008
427.9738, 2223.512
428.4560, 2225.077
428.9381, 2225.744
429.4202, 2226.145
429.9023, 2225.926
430.3844, 2226.036
430.8665, 2227.411
431.3487, 2230.363
431.8308, 2232.763
432.3129, 2234.803
432.7950, 2235.668
433.2771, 2232.309
433.7592, 2224.491
434.2414, 2218.662
434.7235, 2219.286
435.2056, 2224.509
435.6877, 2226.483
436.1698, 2224.967
436.6519, 2222.964
437.1341, 2223.258
437.6162, 2225.410
438.0983, 2228.413
438.5804, 2232.464
439.0625, 2236.600
439.5446, 2238.743
440.0268, 2239.751
440.5089, 2242.722
440.9910, 2251.052
441.4731, 2261.236
441.9552, 2270.692
442.4373, 2279.196
442.9195, 2286.033
443.4016, 2288.265
443.8837, 2289.458
444.3658, 2293.950
444.8479, 2305.215
445.3300, 2317.773
445.8122, 2330.252
446.2943, 2342.564
446.7764, 2355.256
447.2585, 2370.101
447.7406, 2384.017
448.2227, 2395.288
448.7049, 2401.527
449.1870, 2409.624
449.6691, 2421.153
450.1512, 2433.721
450.6333, 2442.906
451.1154, 2446.402
451.5976, 2451.641
452.0797, 2460.821
452.5618, 2473.704
453.0439, 2486.957
453.5260, 2500.882
454.0081, 2513.464
454.4903, 2522.760
454.9724, 2528.732
455.4545, 2533.661
455.9366, 2537.363
456.4187, 2540.989
456.9008, 2546.981
457.3830, 2555.055
457.8651, 2562.319
458.3472, 2568.290
458.8293, 2572.393
459.3114, 2573.305
459.7935, 2571.037
460.2757, 2567.291
460.7578, 2562.439
461.2399, 2557.268
461.7220, 2553.013
462.2041, 2550.627
462.6862, 2548.028
463.1684, 2545.086
463.6505, 2540.913
464.1326, 2533.517
464.6147, 2519.144
465.0968, 2503.690
465.5789, 2490.509
466.0611, 2480.148
466.5432, 2469.397
467.0253, 2457.966
467.5074, 2445.756
467.9895, 2432.732
468.4716, 2417.374
468.9538, 2402.847
469.4359, 2389.501
469.9180, 2377.246
470.4001, 2365.962
470.8822, 2356.895
471.3643, 2346.751
471.8465, 2333.422
472.3286, 2316.301
472.8107, 2303.083
473.2928, 2294.892
473.7749, 2288.322
474.2570, 2279.249
474.7392, 2267.719
475.2213, 2258.542
475.7034, 2253.718
476.1855, 2250.677
476.6676, 2243.256
477.1497, 2231.932
477.6319, 2221.664
478.1140, 2215.437
478.5961, 2212.052
479.0782, 2210.575
479.5603, 2211.171
480.0424, 2210.062
480.5246, 2202.156
481.0067, 2191.127
481.4888, 2182.235
481.9709, 2178.933
482.4530, 2176.026
482.9352, 2169.754
483.4173, 2161.512
483.8994, 2155.718
484.3815, 2156.842
484.8636, 2158.302
485.3457, 2156.622
485.8279, 2150.458
486.3100, 2145.275
486.7921, 2142.431
487.2742, 2140.282
487.7563, 2137.295
488.2384, 2132.395
488.7206, 2128.583
489.2027, 2126.738
489.6848, 2126.147
490.1669, 2124.212
490.6490, 2120.654
491.1311, 2116.702
491.6133, 2112.912
492.0954, 2109.280
492.5775, 2105.481
493.0596, 2101.308
493.5417, 2098.006
494.0238, 2098.373
494.5060, 2101.271
494.9881, 2100.926
495.4702, 2094.514
495.9523, 2086.413
496.4344, 2082.707
496.9165, 2082.732
497.3987, 2083.998
497.8808, 2086.363
498.3629, 2088.549
498.8450, 2089.204
499.3271, 2088.177
499.8092, 2086.640
500.2914, 2084.082
500.7735, 2081.828
501.2556, 2081.090
501.7377, 2083.826
502.2198, 2086.086
502.7019, 2087.103
503.1841, 2087.023
503.6662, 2086.291
504.1483, 2084.524
504.6304, 2082.545
505.1125, 2080.660
505.5946, 2078.926
506.0768, 2076.456
506.5589, 2072.046
507.0410, 2068.780
507.5231, 2069.970
508.0052, 2076.589
508.4873, 2081.495
508.9695, 2084.061
509.4516, 2084.253
509.9337, 2080.313
510.4158, 2072.567
510.8979, 2067.297
511.3800, 2068.801
511.8622, 2074.118
512.3443, 2076.935
512.8264, 2077.267
513.3085, 2076.109
513.7906, 2072.386
514.2728, 2068.292
514.7549, 2067.186
515.2370, 2070.776
515.7191, 2074.117
516.2012, 2073.820
516.6833, 2071.342
517.1655, 2068.922
517.6476, 2066.716
518.1297, 2065.278
518.6118, 2065.547
519.0939, 2067.270
519.5760, 2067.502
520.0582, 2064.486
520.5403, 2061.122
521.0224, 2058.709
521.5045, 2057.720
521.9866, 2056.001
522.4688, 2052.448
522.9509, 2049.349
523.4330, 2050.152
523.9151, 2055.804
524.3972, 2060.045
524.8793, 2061.313
525.3615, 2060.477
525.8436, 2059.669
526.3257, 2058.880
526.8078, 2057.910
527.2899, 2055.937
527.7720, 2053.814
528.2542, 2053.893
528.7363, 2056.340
529.2184, 2059.043
529.7005, 2060.912
530.1826, 2061.717
530.6647, 2060.891
531.1469, 2057.017
531.6290, 2053.611
532.1111, 2053.134
532.5932, 2054.505
533.0753, 2055.520
533.5574, 2055.295
534.0396, 2054.824
534.5217, 2054.097
535.0038, 2053.056
535.4859, 2053.245
535.9680, 2055.960
536.4501, 2058.619
536.9323, 2059.721
537.4144, 2058.823
537.8965, 2057.417
538.3786, 2055.039
538.8607, 2052.832
539.3428, 2053.037
539.8250, 2055.907
540.3071, 2057.969
540.7892, 2058.198
541.2713, 2057.045
541.7534, 2054.562
542.2355, 2051.033
542.7177, 2049.392
543.1998, 2053.903
543.6819, 2060.610
544.1640, 2062.900
544.6461, 2060.131
545.1282, 2056.685
545.6104, 2054.932
546.0925, 2054.483
546.5746, 2055.034
547.0567, 2058.173
547.5388, 2059.936
548.0209, 2057.159
548.5031, 2052.127
548.9852, 2049.821
549.4673, 2052.489
549.9494, 2056.442
550.4315, 2061.638
550.9136, 2068.062
551.3958, 2071.519
551.8779, 2070.974
552.3600, 2069.215
552.8421, 2067.892
553.3242, 2067.062
553.8063, 2066.128
554.2885, 2065.015
554.7706, 2063.949
555.2527, 2063.325
555.7348, 2063.070
556.2169, 2062.649
556.6990, 2061.602
557.1812, 2060.709
557.6633, 2061.537
558.1454, 2063.622
558.6275, 2065.236
559.1096, 2065.100
559.5917, 2064.280
560.0739, 2063.399
560.5560, 2062.497
561.0381, 2062.184
561.5202, 2063.213
562.0023, 2064.627
562.4844, 2065.737
562.9666, 2066.581
563.4487, 2066.856
563.9308, 2065.947
564.4129, 2064.712
564.8950, 2064.457
565.3771, 2065.322
565.8593, 2066.912
566.3414, 2069.703
566.8235, 2073.051
567.3056, 2073.680
567.7877, 2071.167
568.2698, 2068.882
568.7520, 2069.374
569.2341, 2071.801
569.7162, 2072.826
570.1983, 2072.283
570.6804, 2071.418
571.1625, 2071.959
571.6447, 2072.829
572.1268, 2071.806
572.6089, 2066.716
573.0910, 2063.243
573.5731, 2067.517
574.0552, 2075.513
574.5374, 2080.280
575.0195, 2075.910
575.5016, 2071.644
575.9837, 2071.278
576.4658, 2074.452
576.9479, 2075.460
577.4301, 2072.363
577.9122, 2069.254
578.3943, 2067.708
578.8764, 2067.760
579.3585, 2069.553
579.8406, 2073.666
580.3228, 2078.218
580.8049, 2081.167
581.2870, 2082.578
581.7691, 2084.072
582.2512, 2086.046
582.7333, 2087.806
583.2155, 2087.290
583.6975, 2085.483
584.1796, 2085.533
584.6617, 2091.267
585.1439, 2097.733
585.6260, 2099.928
