##NAMES=Alloriite
##RRUFFID=R070560
##IDEAL CHEMISTRY=(Na,K,Ca)_24_(Na,Ca)_4_Ca_4_(Si,Al)_48_O_96_(S^6+^O_4_)_4_(SO_3_,CO_3_)_2_(OH,Cl)_2_(H_2_O,OH)_4_
##LOCALITY=Monte Cavalluccio, near Campagnano di Roma, Rome, Latium, Italy
##OWNER=Michael Scott
##SOURCE=Michael Scott
##DESCRIPTION=Colorless prisms in vug
##STATUS=The identification of this mineral has been confirmed by single-crystal X-ray diffraction.
##URL=rruff.info/R070560
91.53320, 1337.774
92.01532, 1328.690
92.49744, 1321.823
92.97955, 1337.659
93.46167, 1357.752
93.94379, 1365.717
94.42590, 1369.046
94.90802, 1370.435
95.39014, 1370.045
95.87225, 1368.408
96.35437, 1363.846
96.83649, 1356.127
97.31860, 1346.910
97.80072, 1337.505
98.28284, 1326.969
98.76495, 1314.391
99.24707, 1301.833
99.72919, 1288.918
100.2113, 1276.982
100.6934, 1265.778
101.1755, 1255.428
101.6577, 1246.388
102.1398, 1238.972
102.6219, 1233.254
103.1040, 1228.531
103.5861, 1224.834
104.0682, 1221.529
104.5504, 1218.006
105.0325, 1214.234
105.5146, 1210.805
105.9967, 1208.570
106.4788, 1208.220
106.9609, 1206.919
107.4431, 1203.488
107.9252, 1199.206
108.4073, 1195.941
108.8894, 1194.451
109.3715, 1193.734
109.8536, 1191.948
110.3358, 1188.834
110.8179, 1185.873
111.3000, 1184.002
111.7821, 1183.112
112.2642, 1182.104
112.7463, 1180.123
113.2285, 1178.130
113.7106, 1177.232
114.1927, 1177.864
114.6748, 1178.920
115.1569, 1178.984
115.6390, 1178.006
116.1212, 1176.016
116.6033, 1171.615
117.0854, 1166.846
117.5675, 1163.992
118.0496, 1164.393
118.5317, 1167.183
119.0139, 1168.235
119.4960, 1165.526
119.9781, 1163.037
120.4602, 1161.296
120.9423, 1160.280
121.4244, 1159.939
121.9066, 1160.360
122.3887, 1161.682
122.8708, 1161.639
123.3529, 1159.142
123.8350, 1156.587
124.3171, 1155.098
124.7993, 1154.706
125.2814, 1154.768
125.7635, 1154.720
126.2456, 1154.557
126.7277, 1154.058
127.2098, 1151.924
127.6920, 1150.024
128.1741, 1150.844
128.6562, 1155.250
129.1383, 1160.505
129.6204, 1163.136
130.1025, 1163.489
130.5847, 1163.254
131.0668, 1162.837
131.5489, 1162.309
132.0310, 1161.912
132.5131, 1161.696
132.9952, 1161.657
133.4774, 1161.705
133.9595, 1161.849
134.4416, 1162.246
134.9237, 1162.890
135.4058, 1163.704
135.8879, 1165.418
136.3701, 1168.707
136.8522, 1172.638
137.3343, 1177.360
137.8164, 1182.831
138.2985, 1187.711
138.7806, 1189.409
139.2628, 1185.234
139.7449, 1182.734
140.2270, 1183.490
140.7091, 1185.543
141.1912, 1187.406
141.6733, 1188.394
142.1555, 1188.465
142.6376, 1187.439
143.1197, 1184.627
143.6018, 1181.360
144.0839, 1177.749
144.5660, 1173.750
145.0482, 1169.146
145.5303, 1163.717
146.0124, 1157.654
146.4945, 1152.338
146.9766, 1147.899
147.4587, 1143.889
147.9409, 1140.381
148.4230, 1137.248
148.9051, 1133.883
149.3872, 1129.460
149.8693, 1124.473
150.3514, 1121.158
150.8336, 1120.897
151.3157, 1121.504
151.7978, 1120.854
152.2799, 1118.710
152.7620, 1116.679
153.2441, 1116.726
153.7263, 1117.713
154.2084, 1117.620
154.6905, 1115.039
155.1726, 1111.037
155.6547, 1107.905
156.1368, 1105.816
156.6190, 1104.416
157.1011, 1103.741
157.5832, 1103.499
158.0653, 1103.100
158.5474, 1102.024
159.0295, 1100.348
159.5117, 1099.153
159.9938, 1098.901
160.4759, 1098.699
160.9580, 1098.309
161.4401, 1097.707
161.9222, 1096.892
162.4044, 1095.730
162.8865, 1094.014
163.3686, 1093.167
163.8507, 1093.970
164.3328, 1094.891
164.8149, 1095.175
165.2971, 1094.847
165.7792, 1094.499
166.2613, 1094.917
166.7434, 1096.745
167.2255, 1097.371
167.7076, 1096.531
168.1898, 1094.891
168.6719, 1092.566
169.1540, 1089.683
169.6361, 1086.890
170.1182, 1085.110
170.6003, 1084.709
171.0825, 1084.586
171.5646, 1084.956
172.0467, 1085.492
172.5288, 1085.833
173.0109, 1085.873
173.4930, 1085.722
173.9752, 1085.528
174.4573, 1085.300
174.9394, 1085.004
175.4215, 1084.582
175.9036, 1084.078
176.3857, 1083.692
176.8679, 1083.682
177.3500, 1083.441
177.8321, 1082.078
178.3142, 1079.511
178.7963, 1076.908
179.2784, 1074.857
179.7606, 1073.326
180.2427, 1072.251
180.7248, 1072.089
181.2069, 1071.972
181.6890, 1071.105
182.1711, 1069.410
182.6533, 1067.450
183.1354, 1065.527
183.6175, 1063.548
184.0996, 1062.360
184.5817, 1063.270
185.0638, 1064.380
185.5460, 1064.732
186.0281, 1064.100
186.5102, 1062.605
186.9923, 1060.275
187.4744, 1056.766
187.9565, 1053.297
188.4387, 1048.932
188.9208, 1045.269
189.4029, 1043.981
189.8850, 1045.452
190.3671, 1048.115
190.8492, 1048.922
191.3314, 1046.291
191.8135, 1044.261
192.2956, 1043.812
192.7777, 1043.647
193.2598, 1042.628
193.7419, 1040.311
194.2241, 1037.040
194.7062, 1033.640
195.1883, 1028.347
195.6704, 1025.120
196.1525, 1025.346
196.6346, 1027.272
197.1168, 1029.273
197.5989, 1030.710
198.0810, 1031.193
198.5631, 1029.389
199.0452, 1022.615
199.5273, 1017.239
200.0095, 1014.690
200.4916, 1014.134
200.9737, 1014.366
201.4558, 1014.997
201.9379, 1015.809
202.4200, 1016.163
202.9022, 1015.961
203.3843, 1015.614
203.8664, 1015.190
204.3485, 1014.722
204.8306, 1014.380
205.3127, 1014.413
205.7949, 1014.398
206.2770, 1013.418
206.7591, 1011.057
207.2412, 1008.711
207.7233, 1007.070
208.2054, 1006.094
208.6876, 1005.723
209.1697, 1006.685
209.6518, 1007.619
210.1339, 1006.517
210.6160, 1002.794
211.0981, 998.5167
211.5803, 995.0197
212.0624, 992.3061
212.5445, 990.6251
213.0266, 990.7584
213.5087, 991.6375
213.9908, 992.3602
214.4730, 992.8168
214.9551, 993.0239
215.4372, 993.1109
215.9193, 993.1710
216.4014, 992.5471
216.8836, 989.7475
217.3657, 986.9189
217.8478, 985.7288
218.3299, 986.6058
218.8120, 988.2285
219.2941, 988.7818
219.7763, 987.9397
220.2584, 987.0677
220.7405, 985.9716
221.2226, 985.1813
221.7047, 985.4852
222.1868, 987.0165
222.6690, 988.5652
223.1511, 987.9062
223.6332, 983.4388
224.1153, 980.4232
224.5974, 979.9581
225.0795, 980.4953
225.5617, 981.3038
226.0438, 982.0674
226.5259, 982.4018
227.0080, 981.4498
227.4901, 977.7918
227.9722, 975.5124
228.4544, 975.8616
228.9365, 976.7657
229.4186, 976.4218
229.9007, 974.4039
230.3828, 971.8223
230.8649, 970.6664
231.3471, 972.2722
231.8292, 973.2230
232.3113, 973.0274
232.7934, 972.5184
233.2755, 972.3919
233.7576, 972.8322
234.2398, 973.5363
234.7219, 974.0335
235.2040, 974.5195
235.6861, 974.3093
236.1682, 972.3334
236.6503, 970.2410
237.1325, 969.8057
237.6146, 971.4379
238.0967, 973.8145
238.5788, 974.9601
239.0609, 974.2145
239.5430, 973.6332
240.0252, 973.8654
240.5073, 974.0001
240.9894, 972.7186
241.4715, 969.7137
241.9536, 966.6025
242.4357, 965.7790
242.9179, 967.9687
243.4000, 969.2480
243.8821, 968.8289
244.3642, 967.5238
244.8463, 966.1394
245.3284, 964.8257
245.8106, 963.4713
246.2927, 961.7916
246.7748, 959.7450
247.2569, 958.3061
247.7390, 958.1804
248.2211, 958.4921
248.7033, 958.1555
249.1854, 956.9655
249.6675, 955.4812
250.1496, 954.4207
250.6317, 953.6541
251.1138, 952.1688
251.5960, 948.4713
252.0781, 944.4725
252.5602, 943.2491
253.0423, 945.5809
253.5244, 947.8113
254.0065, 945.9326
254.4887, 941.3105
254.9708, 937.5964
255.4529, 936.0931
255.9350, 935.8527
256.4171, 935.6701
256.8992, 935.5125
257.3813, 935.4089
257.8635, 935.6211
258.3456, 935.8859
258.8277, 935.6929
259.3098, 934.7470
259.7919, 933.3505
260.2740, 931.7374
260.7562, 929.7403
261.2383, 928.2313
261.7204, 928.2518
262.2025, 928.9241
262.6846, 929.1766
263.1667, 928.5367
263.6489, 927.5440
264.1310, 927.0237
264.6131, 927.1179
265.0952, 927.0615
265.5773, 926.3455
266.0594, 925.3773
266.5416, 924.5353
267.0237, 923.9572
267.5058, 923.4545
267.9879, 922.5734
268.4700, 921.0870
268.9521, 920.3292
269.4343, 921.8617
269.9164, 923.7522
270.3985, 924.4502
270.8806, 923.5358
271.3627, 921.9217
271.8448, 920.5868
272.3270, 919.4972
272.8091, 918.8227
273.2912, 918.6895
273.7733, 918.9470
274.2554, 919.7078
274.7375, 920.9591
275.2197, 922.2003
275.7018, 922.7926
276.1839, 922.6041
276.6660, 922.5843
277.1481, 923.3505
277.6302, 923.9479
278.1124, 923.8235
278.5945, 922.9774
279.0766, 921.8372
279.5587, 920.6146
280.0408, 919.2168
280.5229, 918.5790
281.0051, 919.3193
281.4872, 920.4125
281.9693, 921.9950
282.4514, 923.7002
282.9335, 924.5460
283.4156, 923.1357
283.8978, 919.3813
284.3799, 917.5803
284.8620, 919.9802
285.3441, 922.1801
285.8262, 922.1045
286.3083, 920.6179
286.7905, 919.8263
287.2726, 921.4854
287.7547, 925.2419
288.2368, 927.6296
288.7189, 927.1489
289.2010, 927.0132
289.6832, 928.5109
290.1653, 930.8207
290.6474, 932.7053
291.1295, 933.4508
291.6116, 933.2426
292.0938, 932.7421
292.5759, 931.3829
293.0580, 930.5958
293.5401, 930.8085
294.0222, 931.6260
294.5043, 932.5449
294.9865, 933.3300
295.4686, 934.2689
295.9507, 936.2975
296.4328, 941.0944
296.9149, 943.8575
297.3970, 942.3982
297.8792, 939.8735
298.3613, 939.1223
298.8434, 940.9654
299.3255, 944.0137
299.8076, 946.0462
300.2897, 946.8779
300.7719, 947.0013
301.2540, 946.2276
301.7361, 945.0370
302.2182, 943.2402
302.7003, 941.0651
303.1824, 939.5048
303.6646, 940.0740
304.1467, 943.7316
304.6288, 946.0107
305.1109, 945.8620
305.5930, 945.3535
306.0751, 945.6268
306.5573, 946.5006
307.0394, 946.9379
307.5215, 945.8541
308.0036, 943.0902
308.4857, 941.0272
308.9678, 939.7993
309.4500, 939.1793
309.9321, 939.8201
310.4142, 941.0195
310.8963, 941.3164
311.3784, 939.5215
311.8605, 936.0634
312.3427, 934.3843
312.8248, 936.6693
313.3069, 938.2592
313.7890, 937.4343
314.2711, 935.6943
314.7532, 935.2495
315.2354, 937.2620
315.7175, 940.6162
316.1996, 942.0242
316.6817, 940.1658
317.1638, 938.3301
317.6459, 936.8593
318.1281, 935.5932
318.6102, 934.3854
319.0923, 933.1898
319.5744, 932.0717
320.0565, 931.0883
320.5386, 930.0572
321.0208, 929.6277
321.5029, 930.0107
321.9850, 930.7509
322.4671, 931.8051
322.9492, 933.0330
323.4313, 934.0275
323.9135, 934.3770
324.3956, 934.0540
324.8777, 933.1574
325.3598, 931.1477
325.8419, 929.0524
326.3240, 927.2139
326.8062, 925.6151
327.2883, 924.0391
327.7704, 922.2418
328.2525, 920.2728
328.7346, 918.9390
329.2167, 919.0157
329.6989, 918.8826
330.1810, 918.2685
330.6631, 917.1813
331.1452, 915.5544
331.6273, 913.2794
332.1094, 910.6944
332.5916, 908.8879
333.0737, 908.3517
333.5558, 907.8019
334.0379, 906.7833
334.5200, 905.7640
335.0021, 905.3562
335.4843, 905.7293
335.9664, 906.2411
336.4485, 905.7685
336.9306, 903.8975
337.4127, 902.2553
337.8948, 901.0767
338.3770, 900.0869
338.8591, 899.1291
339.3412, 898.1864
339.8233, 897.3527
340.3055, 896.8605
340.7876, 896.7991
341.2697, 896.1778
341.7518, 894.6589
342.2339, 892.8582
342.7160, 890.3390
343.1982, 887.6906
343.6803, 886.2988
344.1624, 887.6329
344.6445, 890.8943
345.1266, 891.9769
345.6087, 889.8738
346.0909, 887.0920
346.5730, 883.9530
347.0551, 880.9133
347.5372, 878.5804
348.0193, 877.2054
348.5014, 876.5401
348.9836, 876.3057
349.4657, 876.7958
349.9478, 876.7280
350.4299, 875.5597
350.9120, 873.8278
351.3941, 871.6450
351.8763, 869.0671
352.3584, 866.7042
352.8405, 865.2205
353.3226, 864.6248
353.8047, 864.4031
354.2868, 865.0521
354.7690, 865.4647
355.2511, 864.7662
355.7332, 863.1650
356.2153, 861.6153
356.6974, 861.2303
357.1795, 861.4767
357.6617, 859.8316
358.1438, 854.9118
358.6259, 850.9872
359.1080, 851.5289
359.5901, 854.4022
360.0722, 856.2154
360.5544, 855.4376
361.0365, 853.4565
361.5186, 852.1138
362.0007, 851.4662
362.4828, 851.0995
362.9649, 851.3824
363.4471, 851.5325
363.9292, 850.4555
364.4113, 847.7575
364.8934, 845.0968
365.3755, 843.7269
365.8576, 843.5029
366.3398, 843.7545
366.8219, 844.6976
367.3040, 845.5141
367.7861, 845.1559
368.2682, 843.7494
368.7503, 842.5541
369.2325, 842.1557
369.7146, 842.2608
370.1967, 842.5728
370.6788, 843.1791
371.1609, 843.2598
371.6430, 841.6505
372.1252, 838.9542
372.6073, 837.2331
373.0894, 837.5897
373.5715, 838.3484
374.0536, 838.4501
374.5357, 837.8877
375.0179, 836.4681
375.5000, 833.7955
375.9821, 830.4875
376.4642, 828.0026
376.9463, 826.5720
377.4284, 825.3106
377.9106, 823.7211
378.3927, 822.1345
378.8748, 821.1441
379.3569, 820.9238
379.8390, 821.2184
380.3211, 821.8835
380.8033, 823.0850
381.2854, 823.5886
381.7675, 822.6180
382.2496, 821.4094
382.7317, 820.9002
383.2138, 821.1344
383.6960, 821.7546
384.1781, 822.6275
384.6602, 823.6783
385.1423, 823.9022
385.6244, 822.2492
386.1065, 821.0861
386.5887, 821.4889
387.0708, 822.8456
387.5529, 824.1082
388.0350, 824.8177
388.5171, 825.2179
388.9992, 825.8535
389.4814, 827.0286
389.9635, 827.9742
390.4456, 829.1497
390.9277, 829.8080
391.4098, 829.0162
391.8919, 826.8484
392.3741, 824.4696
392.8562, 823.1979
393.3383, 823.3100
393.8204, 822.3635
394.3025, 818.5940
394.7846, 815.6677
395.2668, 815.4045
395.7489, 816.8401
396.2310, 818.0949
396.7131, 818.0698
397.1952, 817.1082
397.6773, 816.3715
398.1595, 815.7607
398.6416, 815.5794
399.1237, 816.2884
399.6058, 817.1268
400.0879, 817.5822
400.5700, 817.4863
401.0522, 816.7719
401.5343, 815.0945
402.0164, 812.1945
402.4985, 809.8867
402.9806, 807.3591
403.4627, 806.3997
403.9449, 808.7463
404.4270, 813.3611
404.9091, 817.6950
405.3912, 820.4153
405.8733, 821.5920
406.3554, 821.0647
406.8376, 817.8822
407.3197, 815.3615
407.8018, 815.4962
408.2839, 816.6387
408.7660, 817.0521
409.2481, 816.1940
409.7303, 815.3284
410.2124, 816.1104
410.6945, 818.3873
411.1766, 819.5961
411.6587, 818.3303
412.1408, 816.9844
412.6230, 818.2150
413.1051, 821.6410
413.5872, 824.4199
414.0693, 824.9695
414.5514, 824.2880
415.0335, 823.6117
415.5157, 822.9257
415.9978, 823.2022
416.4799, 825.5589
416.9620, 829.3290
417.4441, 832.2877
417.9262, 833.7589
418.4084, 835.2033
418.8905, 837.4023
419.3726, 840.2065
419.8547, 843.1805
420.3368, 846.1332
420.8189, 849.3749
421.3011, 853.7427
421.7832, 859.9252
422.2653, 864.2593
422.7474, 865.0209
423.2295, 864.6776
423.7116, 865.2945
424.1938, 867.0080
424.6759, 868.8790
425.1580, 870.1371
425.6401, 870.8442
426.1222, 872.2187
426.6043, 875.4581
427.0865, 877.8629
427.5686, 878.3326
428.0507, 877.6975
428.5328, 877.0121
429.0149, 876.6926
429.4970, 876.7139
429.9792, 877.0809
430.4613, 878.1094
430.9434, 878.7832
431.4255, 879.3260
431.9076, 879.4006
432.3897, 878.6795
432.8719, 877.2911
433.3540, 875.6091
433.8361, 873.8220
434.3182, 872.0290
434.8003, 870.9863
435.2824, 871.4043
435.7646, 871.5068
436.2467, 870.3880
436.7288, 868.9933
437.2109, 868.3348
437.6930, 868.7305
438.1751, 869.7238
438.6573, 870.8316
439.1394, 872.0596
439.6215, 873.2161
440.1036, 873.4799
440.5857, 874.6259
441.0678, 877.8386
441.5500, 882.8527
442.0321, 888.5921
442.5142, 895.4863
442.9963, 902.3961
443.4784, 906.6696
443.9605, 907.8552
444.4427, 909.9514
444.9248, 915.3458
445.4069, 922.7432
445.8890, 929.7934
446.3711, 936.4706
446.8532, 942.6803
447.3354, 948.6848
447.8175, 954.1313
448.2996, 957.8490
448.7817, 959.3427
449.2638, 960.5859
449.7459, 963.8605
450.2281, 969.3262
450.7102, 974.0223
451.1923, 976.7197
451.6744, 979.6132
452.1565, 984.3795
452.6386, 990.5425
453.1208, 996.6214
453.6029, 1001.948
454.0850, 1006.444
454.5671, 1009.874
455.0492, 1011.232
455.5313, 1012.845
456.0135, 1015.082
456.4956, 1017.358
456.9777, 1019.265
457.4598, 1020.724
457.9419, 1021.922
458.4240, 1023.147
458.9062, 1024.418
459.3883, 1024.395
459.8704, 1021.722
460.3525, 1019.216
460.8346, 1018.161
461.3167, 1017.372
461.7989, 1015.291
462.2810, 1011.305
462.7631, 1006.158
463.2452, 1001.013
463.7273, 995.9816
464.2094, 990.2240
464.6916, 983.1532
465.1737, 975.7269
465.6558, 968.1572
466.1379, 960.6610
466.6200, 953.7789
467.1021, 948.1231
467.5843, 943.1238
468.0664, 937.7740
468.5485, 932.0593
469.0306, 925.9055
469.5127, 918.9117
469.9948, 911.6640
470.4770, 905.3368
470.9591, 900.3252
471.4412, 894.9047
471.9233, 887.4573
472.4054, 879.1999
472.8875, 872.5116
473.3697, 867.8566
473.8518, 864.1237
474.3339, 860.5876
474.8160, 857.2115
475.2981, 853.0058
475.7802, 847.0650
476.2624, 841.2845
476.7445, 836.3242
477.2266, 832.1224
477.7087, 828.6074
478.1908, 825.7224
478.6729, 823.3152
479.1551, 821.1907
479.6372, 819.7820
480.1193, 817.5555
480.6014, 813.9601
481.0835, 810.1427
481.5656, 806.6461
482.0478, 803.4900
482.5299, 800.4329
483.0120, 797.2543
483.4941, 794.1877
483.9762, 792.3825
484.4583, 792.8310
484.9405, 792.5158
485.4226, 789.9135
485.9047, 787.0214
486.3868, 785.9070
486.8689, 786.6165
487.3510, 786.7200
487.8332, 783.3416
488.3153, 777.4018
488.7974, 773.4568
489.2795, 772.2115
489.7616, 771.6413
490.2437, 770.8916
490.7259, 769.9323
491.2080, 768.6394
491.6901, 766.8936
492.1722, 765.0148
492.6543, 762.9225
493.1364, 760.8683
493.6186, 759.9114
494.1007, 760.5933
494.5828, 761.1533
495.0649, 759.1279
495.5470, 754.1489
496.0291, 751.1823
496.5113, 752.2396
496.9934, 753.6144
497.4755, 753.1772
497.9576, 751.3127
498.4397, 749.0378
498.9218, 746.8055
499.4040, 744.8907
499.8861, 743.9944
500.3682, 744.9136
500.8503, 745.4218
501.3324, 745.4889
501.8145, 745.2244
502.2967, 744.6129
502.7788, 743.7199
503.2609, 742.6403
503.7430, 741.3499
504.2251, 740.0196
504.7072, 739.4251
505.1894, 740.0047
505.6715, 740.3076
506.1536, 739.6456
506.6357, 738.7789
507.1178, 738.3329
507.5999, 738.3733
508.0821, 738.4538
508.5642, 738.5120
509.0463, 738.3568
509.5284, 737.0753
510.0105, 734.2415
510.4926, 732.0035
510.9748, 732.2040
511.4569, 733.8339
511.9390, 734.4788
512.4211, 733.7726
512.9032, 732.5037
513.3853, 730.5427
513.8674, 728.4081
514.3495, 726.9572
514.8317, 726.3693
515.3138, 726.6174
515.7959, 727.9830
516.2780, 730.6582
516.7601, 731.2477
517.2422, 728.5925
517.7244, 725.5107
518.2065, 722.2856
518.6886, 719.4469
519.1707, 717.8140
519.6528, 717.6366
520.1349, 718.1574
520.6171, 718.3015
521.0992, 718.0541
521.5813, 717.5065
522.0634, 716.1053
522.5455, 714.9649
523.0276, 714.8152
523.5098, 715.1717
523.9919, 715.0898
524.4740, 714.0867
524.9561, 712.6599
525.4382, 711.2867
525.9203, 709.9614
526.4025, 709.5046
526.8846, 710.5849
527.3667, 711.9620
527.8488, 712.4913
528.3309, 712.2599
528.8130, 711.7519
529.2952, 710.7374
529.7773, 709.7857
530.2594, 709.8434
530.7415, 710.5674
531.2236, 710.2009
531.7057, 707.7487
532.1879, 704.4404
532.6700, 702.6783
533.1521, 703.3218
533.6342, 703.6215
534.1163, 703.2542
534.5984, 702.7688
535.0806, 702.3407
535.5627, 702.0995
536.0448, 702.3419
536.5269, 703.3022
537.0090, 704.6505
537.4911, 705.3769
537.9733, 705.3356
538.4554, 704.9795
538.9375, 704.1960
539.4196, 703.2675
539.9017, 702.3785
540.3839, 701.5084
540.8660, 700.4764
541.3481, 698.8387
541.8302, 697.1429
542.3123, 696.8923
542.7944, 698.2945
543.2766, 699.3359
543.7587, 699.1148
544.2408, 698.2126
544.7229, 697.4800
545.2050, 696.9332
545.6871, 696.4186
546.1693, 696.0684
546.6514, 695.6149
547.1335, 694.6097
547.6156, 693.1298
548.0977, 691.6995
548.5798, 690.5505
549.0620, 689.8170
549.5441, 689.9606
550.0262, 692.4042
550.5083, 693.8091
550.9904, 693.2078
551.4725, 692.2766
551.9547, 692.5297
552.4368, 693.7509
552.9189, 694.5264
553.4010, 693.7019
553.8831, 691.7317
554.3652, 690.4689
554.8474, 690.1646
555.3295, 689.9596
555.8116, 689.8245
556.2937, 689.5891
556.7758, 689.0908
557.2579, 688.3387
557.7401, 687.5270
558.2222, 686.6176
558.7043, 685.7842
559.1864, 685.5219
559.6685, 685.8460
560.1506, 685.6192
560.6328, 683.8559
561.1149, 681.6150
561.5970, 681.5601
562.0791, 684.6265
562.5612, 686.4357
563.0433, 685.2620
563.5255, 683.2045
564.0076, 681.6592
564.4897, 680.8557
564.9718, 680.9793
565.4539, 682.3097
565.9360, 684.1309
566.4182, 683.8461
566.9003, 679.5284
567.3824, 676.7586
567.8645, 676.8308
568.3466, 677.6070
568.8287, 677.7983
569.3109, 677.4608
569.7930, 677.3813
570.2751, 678.3609
570.7572, 679.5818
571.2393, 678.9263
571.7214, 676.1779
572.2036, 674.1728
572.6857, 673.7325
573.1678, 674.5425
573.6499, 676.8693
574.1320, 680.6569
574.6141, 682.8468
575.0963, 681.6158
575.5784, 679.2241
576.0605, 677.1596
576.5426, 675.5887
577.0247, 674.7745
577.5068, 674.8895
577.9890, 675.5245
578.4711, 675.9008
578.9532, 675.7825
579.4353, 676.0263
579.9174, 676.9686
580.3995, 677.8945
580.8817, 678.8671
581.3638, 679.4971
581.8459, 678.8615
582.3280, 676.3945
582.8101, 673.5433
583.2922, 672.9959
583.7744, 674.9730
584.2565, 675.9608
584.7386, 675.0007
585.2207, 673.6766
585.7029, 672.9830
586.1850, 672.8000
586.6671, 672.8570
587.1492, 673.0346
