##NAMES=Alluaudite
##RRUFFID=R160080
##IDEAL CHEMISTRY=NaMn^2+^Fe^3+^_2_(PO_4_)_3_
##LOCALITY=Buranga pegmatite, Gatumba District, Western Province, Rwanda
##OWNER=UAMM
##SOURCE=Rock Currier
##DESCRIPTION=Vitreous, brownish-yellow large platelets in clusters with good cleavage in and on dark brown siliceous matrix.
##STATUS=The identification of this mineral has been confirmed only by single crystal X-ray diffraction.
##URL=rruff.info/R160080
##MEASURED CHEMISTRY=(Na_0.70_Mn_0.23_Ca_0.07_)_Σ=1.00_Mn_1.00_(Fe^3+^_1.50_Al_0.29_Mg_0.10_Mn_0.11_)_Σ=2.00_(PO_4_)_3_
8.813672e+001, 2.491632e+002
8.861884e+001, 2.525612e+002
8.910095e+001, 2.557912e+002
8.958307e+001, 2.588286e+002
9.006519e+001, 2.628097e+002
9.054730e+001, 2.691138e+002
9.102942e+001, 2.794614e+002
9.151154e+001, 2.892429e+002
9.199365e+001, 2.923000e+002
9.247577e+001, 2.897353e+002
9.295789e+001, 2.870228e+002
9.344000e+001, 2.884908e+002
9.392212e+001, 2.926092e+002
9.440424e+001, 2.956488e+002
9.488635e+001, 2.971050e+002
9.536847e+001, 2.976486e+002
9.585059e+001, 2.982738e+002
9.633270e+001, 2.989175e+002
9.681482e+001, 3.000285e+002
9.729694e+001, 3.017453e+002
9.777905e+001, 3.040656e+002
9.826117e+001, 3.078687e+002
9.874329e+001, 3.141242e+002
9.922540e+001, 3.222402e+002
9.970752e+001, 3.278239e+002
1.001896e+002, 3.302274e+002
1.006718e+002, 3.314052e+002
1.011539e+002, 3.335857e+002
1.016360e+002, 3.367929e+002
1.021181e+002, 3.408889e+002
1.026002e+002, 3.457480e+002
1.030823e+002, 3.512916e+002
1.035645e+002, 3.578461e+002
1.040466e+002, 3.650799e+002
1.045287e+002, 3.735191e+002
1.050108e+002, 3.844970e+002
1.054929e+002, 3.988261e+002
1.059750e+002, 4.143648e+002
1.064572e+002, 4.306851e+002
1.069393e+002, 4.511069e+002
1.074214e+002, 4.663176e+002
1.079035e+002, 4.737007e+002
1.083856e+002, 4.756619e+002
1.088677e+002, 4.802915e+002
1.093499e+002, 4.902299e+002
1.098320e+002, 5.009567e+002
1.103141e+002, 5.105316e+002
1.107962e+002, 5.194454e+002
1.112783e+002, 5.268478e+002
1.117604e+002, 5.328995e+002
1.122426e+002, 5.376074e+002
1.127247e+002, 5.404479e+002
1.132068e+002, 5.399730e+002
1.136889e+002, 5.383549e+002
1.141710e+002, 5.370872e+002
1.146531e+002, 5.382131e+002
1.151353e+002, 5.380765e+002
1.156174e+002, 5.347019e+002
1.160995e+002, 5.280919e+002
1.165816e+002, 5.223791e+002
1.170637e+002, 5.202158e+002
1.175458e+002, 5.193904e+002
1.180280e+002, 5.174735e+002
1.185101e+002, 5.116061e+002
1.189922e+002, 5.057351e+002
1.194743e+002, 5.022606e+002
1.199564e+002, 5.014336e+002
1.204385e+002, 5.018622e+002
1.209207e+002, 5.020653e+002
1.214028e+002, 5.029693e+002
1.218849e+002, 5.061897e+002
1.223670e+002, 5.168171e+002
1.228491e+002, 5.282851e+002
1.233312e+002, 5.328598e+002
1.238134e+002, 5.284537e+002
1.242955e+002, 5.218423e+002
1.247776e+002, 5.190281e+002
1.252597e+002, 5.192615e+002
1.257418e+002, 5.199960e+002
1.262239e+002, 5.193266e+002
1.267061e+002, 5.181514e+002
1.271882e+002, 5.182826e+002
1.276703e+002, 5.202599e+002
1.281524e+002, 5.231205e+002
1.286345e+002, 5.258314e+002
1.291166e+002, 5.283527e+002
1.295988e+002, 5.303663e+002
1.300809e+002, 5.316893e+002
1.305630e+002, 5.323007e+002
1.310451e+002, 5.320936e+002
1.315272e+002, 5.308185e+002
1.320093e+002, 5.288577e+002
1.324915e+002, 5.268557e+002
1.329736e+002, 5.247564e+002
1.334557e+002, 5.231082e+002
1.339378e+002, 5.225468e+002
1.344199e+002, 5.230490e+002
1.349020e+002, 5.237420e+002
1.353842e+002, 5.242782e+002
1.358663e+002, 5.248112e+002
1.363484e+002, 5.261418e+002
1.368305e+002, 5.282065e+002
1.373126e+002, 5.312618e+002
1.377947e+002, 5.362499e+002
1.382769e+002, 5.438825e+002
1.387590e+002, 5.498482e+002
1.392411e+002, 5.528881e+002
1.397232e+002, 5.529820e+002
1.402053e+002, 5.513353e+002
1.406874e+002, 5.473077e+002
1.411696e+002, 5.423624e+002
1.416517e+002, 5.383845e+002
1.421338e+002, 5.353491e+002
1.426159e+002, 5.333585e+002
1.430980e+002, 5.325454e+002
1.435801e+002, 5.331013e+002
1.440623e+002, 5.340793e+002
1.445444e+002, 5.355162e+002
1.450265e+002, 5.373966e+002
1.455086e+002, 5.397316e+002
1.459907e+002, 5.432404e+002
1.464728e+002, 5.463116e+002
1.469550e+002, 5.484027e+002
1.474371e+002, 5.490585e+002
1.479192e+002, 5.497501e+002
1.484013e+002, 5.503690e+002
1.488834e+002, 5.510311e+002
1.493655e+002, 5.520056e+002
1.498477e+002, 5.531629e+002
1.503298e+002, 5.547340e+002
1.508119e+002, 5.568137e+002
1.512940e+002, 5.598064e+002
1.517761e+002, 5.627048e+002
1.522583e+002, 5.649489e+002
1.527404e+002, 5.669689e+002
1.532225e+002, 5.700297e+002
1.537046e+002, 5.760921e+002
1.541867e+002, 5.818600e+002
1.546688e+002, 5.857864e+002
1.551510e+002, 5.862807e+002
1.556331e+002, 5.867481e+002
1.561152e+002, 5.873531e+002
1.565973e+002, 5.882272e+002
1.570794e+002, 5.898847e+002
1.575615e+002, 5.927849e+002
1.580437e+002, 5.963124e+002
1.585258e+002, 6.000960e+002
1.590079e+002, 6.042974e+002
1.594900e+002, 6.084984e+002
1.599721e+002, 6.122650e+002
1.604542e+002, 6.157736e+002
1.609364e+002, 6.200475e+002
1.614185e+002, 6.259912e+002
1.619006e+002, 6.325944e+002
1.623827e+002, 6.390443e+002
1.628648e+002, 6.463187e+002
1.633469e+002, 6.523188e+002
1.638291e+002, 6.558237e+002
1.643112e+002, 6.569512e+002
1.647933e+002, 6.572918e+002
1.652754e+002, 6.570941e+002
1.657575e+002, 6.566840e+002
1.662396e+002, 6.564041e+002
1.667218e+002, 6.570099e+002
1.672039e+002, 6.573089e+002
1.676860e+002, 6.565623e+002
1.681681e+002, 6.547764e+002
1.686502e+002, 6.522716e+002
1.691323e+002, 6.487350e+002
1.696145e+002, 6.447320e+002
1.700966e+002, 6.410529e+002
1.705787e+002, 6.381815e+002
1.710608e+002, 6.356711e+002
1.715429e+002, 6.330651e+002
1.720250e+002, 6.303196e+002
1.725072e+002, 6.279016e+002
1.729893e+002, 6.262500e+002
1.734714e+002, 6.251268e+002
1.739535e+002, 6.240905e+002
1.744356e+002, 6.230627e+002
1.749177e+002, 6.219694e+002
1.753999e+002, 6.205637e+002
1.758820e+002, 6.187731e+002
1.763641e+002, 6.171999e+002
1.768462e+002, 6.166272e+002
1.773283e+002, 6.167044e+002
1.778104e+002, 6.165341e+002
1.782926e+002, 6.154586e+002
1.787747e+002, 6.139153e+002
1.792568e+002, 6.127101e+002
1.797389e+002, 6.119484e+002
1.802210e+002, 6.110878e+002
1.807031e+002, 6.091407e+002
1.811853e+002, 6.064574e+002
1.816674e+002, 6.043899e+002
1.821495e+002, 6.043674e+002
1.826316e+002, 6.054270e+002
1.831137e+002, 6.050635e+002
1.835958e+002, 6.028943e+002
1.840780e+002, 6.003471e+002
1.845601e+002, 5.992372e+002
1.850422e+002, 5.994506e+002
1.855243e+002, 6.000476e+002
1.860064e+002, 6.007772e+002
1.864885e+002, 6.015519e+002
1.869707e+002, 6.019728e+002
1.874528e+002, 6.019807e+002
1.879349e+002, 6.017728e+002
1.884170e+002, 6.012883e+002
1.888991e+002, 6.005865e+002
1.893812e+002, 6.006986e+002
1.898634e+002, 6.027660e+002
1.903455e+002, 6.063867e+002
1.908276e+002, 6.090593e+002
1.913097e+002, 6.105357e+002
1.917918e+002, 6.112497e+002
1.922739e+002, 6.118622e+002
1.927561e+002, 6.123709e+002
1.932382e+002, 6.128359e+002
1.937203e+002, 6.133098e+002
1.942024e+002, 6.137800e+002
1.946845e+002, 6.141539e+002
1.951666e+002, 6.144185e+002
1.956488e+002, 6.145861e+002
1.961309e+002, 6.146081e+002
1.966130e+002, 6.144534e+002
1.970951e+002, 6.144364e+002
1.975772e+002, 6.148704e+002
1.980593e+002, 6.157673e+002
1.985415e+002, 6.163105e+002
1.990236e+002, 6.163802e+002
1.995057e+002, 6.161533e+002
1.999878e+002, 6.158560e+002
2.004699e+002, 6.153764e+002
2.009520e+002, 6.153893e+002
2.014342e+002, 6.166520e+002
2.019163e+002, 6.193514e+002
2.023984e+002, 6.210250e+002
2.028805e+002, 6.213285e+002
2.033626e+002, 6.206790e+002
2.038447e+002, 6.200193e+002
2.043269e+002, 6.193074e+002
2.048090e+002, 6.187278e+002
2.052911e+002, 6.185889e+002
2.057732e+002, 6.190684e+002
2.062553e+002, 6.187178e+002
2.067374e+002, 6.172197e+002
2.072196e+002, 6.149910e+002
2.077017e+002, 6.131643e+002
2.081838e+002, 6.118301e+002
2.086659e+002, 6.106493e+002
2.091480e+002, 6.096635e+002
2.096301e+002, 6.091369e+002
2.101123e+002, 6.074628e+002
2.105944e+002, 6.041900e+002
2.110765e+002, 5.998949e+002
2.115586e+002, 5.962365e+002
2.120407e+002, 5.933972e+002
2.125228e+002, 5.907708e+002
2.130050e+002, 5.880209e+002
2.134871e+002, 5.850640e+002
2.139692e+002, 5.823584e+002
2.144513e+002, 5.800436e+002
2.149334e+002, 5.779539e+002
2.154155e+002, 5.754157e+002
2.158977e+002, 5.720517e+002
2.163798e+002, 5.689535e+002
2.168619e+002, 5.668160e+002
2.173440e+002, 5.659907e+002
2.178261e+002, 5.650311e+002
2.183082e+002, 5.639026e+002
2.187904e+002, 5.625909e+002
2.192725e+002, 5.610259e+002
2.197546e+002, 5.590878e+002
2.202367e+002, 5.571328e+002
2.207188e+002, 5.553616e+002
2.212009e+002, 5.537900e+002
2.216831e+002, 5.523364e+002
2.221652e+002, 5.510324e+002
2.226473e+002, 5.498441e+002
2.231294e+002, 5.487664e+002
2.236115e+002, 5.480414e+002
2.240936e+002, 5.470409e+002
2.245758e+002, 5.453499e+002
2.250579e+002, 5.425111e+002
2.255400e+002, 5.401983e+002
2.260221e+002, 5.386863e+002
2.265042e+002, 5.376545e+002
2.269863e+002, 5.362409e+002
2.274685e+002, 5.342134e+002
2.279506e+002, 5.321390e+002
2.284327e+002, 5.303333e+002
2.289148e+002, 5.291039e+002
2.293969e+002, 5.272943e+002
2.298790e+002, 5.244064e+002
2.303612e+002, 5.210693e+002
2.308433e+002, 5.189639e+002
2.313254e+002, 5.186730e+002
2.318075e+002, 5.186853e+002
2.322896e+002, 5.183542e+002
2.327717e+002, 5.175005e+002
2.332539e+002, 5.167292e+002
2.337360e+002, 5.161115e+002
2.342181e+002, 5.155549e+002
2.347002e+002, 5.147855e+002
2.351823e+002, 5.134435e+002
2.356644e+002, 5.124309e+002
2.361466e+002, 5.121542e+002
2.366287e+002, 5.128944e+002
2.371108e+002, 5.136078e+002
2.375929e+002, 5.143306e+002
2.380750e+002, 5.150005e+002
2.385571e+002, 5.154318e+002
2.390393e+002, 5.153339e+002
2.395214e+002, 5.154679e+002
2.400035e+002, 5.161913e+002
2.404856e+002, 5.178342e+002
2.409677e+002, 5.190766e+002
2.414498e+002, 5.196425e+002
2.419320e+002, 5.199661e+002
2.424141e+002, 5.208703e+002
2.428962e+002, 5.227257e+002
2.433783e+002, 5.245741e+002
2.438604e+002, 5.259606e+002
2.443425e+002, 5.265085e+002
2.448247e+002, 5.281040e+002
2.453068e+002, 5.314219e+002
2.457889e+002, 5.353690e+002
2.462710e+002, 5.381469e+002
2.467531e+002, 5.388560e+002
2.472352e+002, 5.399379e+002
2.477174e+002, 5.422255e+002
2.481995e+002, 5.459500e+002
2.486816e+002, 5.495815e+002
2.491637e+002, 5.530983e+002
2.496458e+002, 5.565413e+002
2.501279e+002, 5.598946e+002
2.506101e+002, 5.630587e+002
2.510922e+002, 5.663688e+002
2.515743e+002, 5.699603e+002
2.520564e+002, 5.739288e+002
2.525385e+002, 5.775386e+002
2.530206e+002, 5.806443e+002
2.535028e+002, 5.835496e+002
2.539849e+002, 5.865200e+002
2.544670e+002, 5.895596e+002
2.549491e+002, 5.927432e+002
2.554312e+002, 5.961575e+002
2.559133e+002, 5.997949e+002
2.563955e+002, 6.033802e+002
2.568776e+002, 6.072673e+002
2.573597e+002, 6.107164e+002
2.578418e+002, 6.128316e+002
2.583239e+002, 6.130737e+002
2.588061e+002, 6.132829e+002
2.592882e+002, 6.137974e+002
2.597703e+002, 6.146159e+002
2.602524e+002, 6.155823e+002
2.607345e+002, 6.169263e+002
2.612166e+002, 6.181087e+002
2.616988e+002, 6.186061e+002
2.621809e+002, 6.181951e+002
2.626630e+002, 6.177254e+002
2.631451e+002, 6.173740e+002
2.636272e+002, 6.171064e+002
2.641093e+002, 6.165698e+002
2.645915e+002, 6.155884e+002
2.650736e+002, 6.146524e+002
2.655557e+002, 6.142656e+002
2.660378e+002, 6.147367e+002
2.665199e+002, 6.146514e+002
2.670020e+002, 6.135648e+002
2.674842e+002, 6.117685e+002
2.679663e+002, 6.109199e+002
2.684484e+002, 6.114016e+002
2.689305e+002, 6.119452e+002
2.694126e+002, 6.114799e+002
2.698947e+002, 6.095847e+002
2.703769e+002, 6.085969e+002
2.708590e+002, 6.091097e+002
2.713411e+002, 6.104901e+002
2.718232e+002, 6.105380e+002
2.723053e+002, 6.088483e+002
2.727874e+002, 6.070541e+002
2.732696e+002, 6.062307e+002
2.737517e+002, 6.065905e+002
2.742338e+002, 6.065709e+002
2.747159e+002, 6.061464e+002
2.751980e+002, 6.052285e+002
2.756801e+002, 6.035328e+002
2.761623e+002, 6.009603e+002
2.766444e+002, 5.980762e+002
2.771265e+002, 5.951199e+002
2.776086e+002, 5.920488e+002
2.780907e+002, 5.890973e+002
2.785728e+002, 5.863856e+002
2.790550e+002, 5.835828e+002
2.795371e+002, 5.799575e+002
2.800192e+002, 5.754022e+002
2.805013e+002, 5.708943e+002
2.809834e+002, 5.668838e+002
2.814655e+002, 5.633559e+002
2.819477e+002, 5.598490e+002
2.824298e+002, 5.564006e+002
2.829119e+002, 5.529459e+002
2.833940e+002, 5.493324e+002
2.838761e+002, 5.455452e+002
2.843582e+002, 5.419629e+002
2.848404e+002, 5.387690e+002
2.853225e+002, 5.359061e+002
2.858046e+002, 5.330636e+002
2.862867e+002, 5.302693e+002
2.867688e+002, 5.274750e+002
2.872509e+002, 5.247167e+002
2.877331e+002, 5.219782e+002
2.882152e+002, 5.189816e+002
2.886973e+002, 5.154570e+002
2.891794e+002, 5.116548e+002
2.896615e+002, 5.085375e+002
2.901436e+002, 5.061275e+002
2.906258e+002, 5.039013e+002
2.911079e+002, 5.011521e+002
2.915900e+002, 4.980555e+002
2.920721e+002, 4.955934e+002
2.925542e+002, 4.942928e+002
2.930363e+002, 4.935565e+002
2.935185e+002, 4.921464e+002
2.940006e+002, 4.900583e+002
2.944827e+002, 4.878429e+002
2.949648e+002, 4.856220e+002
2.954469e+002, 4.835318e+002
2.959290e+002, 4.821655e+002
2.964112e+002, 4.819078e+002
2.968933e+002, 4.818997e+002
2.973754e+002, 4.804735e+002
2.978575e+002, 4.778891e+002
2.983396e+002, 4.757358e+002
2.988217e+002, 4.755901e+002
2.993039e+002, 4.765426e+002
2.997860e+002, 4.767131e+002
3.002681e+002, 4.756889e+002
3.007502e+002, 4.743756e+002
3.012323e+002, 4.739576e+002
3.017144e+002, 4.741826e+002
3.021966e+002, 4.742097e+002
3.026787e+002, 4.733432e+002
3.031608e+002, 4.721045e+002
3.036429e+002, 4.711422e+002
3.041250e+002, 4.705140e+002
3.046071e+002, 4.701812e+002
3.050893e+002, 4.704536e+002
3.055714e+002, 4.710062e+002
3.060535e+002, 4.711507e+002
3.065356e+002, 4.701691e+002
3.070177e+002, 4.688843e+002
3.074998e+002, 4.679755e+002
3.079820e+002, 4.674572e+002
3.084641e+002, 4.674480e+002
3.089462e+002, 4.687794e+002
3.094283e+002, 4.704962e+002
3.099104e+002, 4.712738e+002
3.103925e+002, 4.697457e+002
3.108747e+002, 4.678133e+002
3.113568e+002, 4.666141e+002
3.118389e+002, 4.661239e+002
3.123210e+002, 4.661440e+002
3.128031e+002, 4.669467e+002
3.132852e+002, 4.680388e+002
3.137674e+002, 4.689389e+002
3.142495e+002, 4.693032e+002
3.147316e+002, 4.697142e+002
3.152137e+002, 4.706227e+002
3.156958e+002, 4.718457e+002
3.161779e+002, 4.727708e+002
3.166601e+002, 4.725645e+002
3.171422e+002, 4.723387e+002
3.176243e+002, 4.728774e+002
3.181064e+002, 4.746422e+002
3.185885e+002, 4.764687e+002
3.190706e+002, 4.780205e+002
3.195528e+002, 4.793586e+002
3.200349e+002, 4.806044e+002
3.205170e+002, 4.818406e+002
3.209991e+002, 4.829481e+002
3.214812e+002, 4.837980e+002
3.219633e+002, 4.842540e+002
3.224455e+002, 4.849389e+002
3.229276e+002, 4.860501e+002
3.234097e+002, 4.874377e+002
3.238918e+002, 4.889180e+002
3.243739e+002, 4.906470e+002
3.248560e+002, 4.922924e+002
3.253382e+002, 4.937438e+002
3.258203e+002, 4.949850e+002
3.263024e+002, 4.962539e+002
3.267845e+002, 4.974857e+002
3.272666e+002, 4.988115e+002
3.277487e+002, 5.003471e+002
3.282309e+002, 5.027100e+002
3.287130e+002, 5.045334e+002
3.291951e+002, 5.053461e+002
3.296772e+002, 5.052973e+002
3.301593e+002, 5.059103e+002
3.306414e+002, 5.077224e+002
3.311236e+002, 5.096703e+002
3.316057e+002, 5.111486e+002
3.320878e+002, 5.116112e+002
3.325699e+002, 5.126036e+002
3.330520e+002, 5.144670e+002
3.335341e+002, 5.168205e+002
3.340163e+002, 5.185677e+002
3.344984e+002, 5.193928e+002
3.349805e+002, 5.201039e+002
3.354626e+002, 5.210438e+002
3.359447e+002, 5.222939e+002
3.364268e+002, 5.234949e+002
3.369090e+002, 5.247033e+002
3.373911e+002, 5.258287e+002
3.378732e+002, 5.266497e+002
3.383553e+002, 5.270467e+002
3.388374e+002, 5.275671e+002
3.393195e+002, 5.283452e+002
3.398017e+002, 5.293810e+002
3.402838e+002, 5.309088e+002
3.407659e+002, 5.331233e+002
3.412480e+002, 5.353614e+002
3.417301e+002, 5.367972e+002
3.422122e+002, 5.373467e+002
3.426944e+002, 5.382819e+002
3.431765e+002, 5.399860e+002
3.436586e+002, 5.422291e+002
3.441407e+002, 5.441299e+002
3.446228e+002, 5.456401e+002
3.451049e+002, 5.472516e+002
3.455871e+002, 5.492767e+002
3.460692e+002, 5.517232e+002
3.465513e+002, 5.545549e+002
3.470334e+002, 5.579439e+002
3.475155e+002, 5.613681e+002
3.479977e+002, 5.638096e+002
3.484798e+002, 5.653703e+002
3.489619e+002, 5.667201e+002
3.494440e+002, 5.679423e+002
3.499261e+002, 5.692704e+002
3.504082e+002, 5.713939e+002
3.508904e+002, 5.744515e+002
3.513725e+002, 5.776486e+002
3.518546e+002, 5.804288e+002
3.523367e+002, 5.827348e+002
3.528188e+002, 5.844549e+002
3.533009e+002, 5.852411e+002
3.537831e+002, 5.855704e+002
3.542652e+002, 5.859460e+002
3.547473e+002, 5.863685e+002
3.552294e+002, 5.868176e+002
3.557115e+002, 5.872292e+002
3.561936e+002, 5.876743e+002
3.566758e+002, 5.882745e+002
3.571579e+002, 5.893304e+002
3.576400e+002, 5.902260e+002
3.581221e+002, 5.902975e+002
3.586042e+002, 5.897779e+002
3.590863e+002, 5.895058e+002
3.595685e+002, 5.904167e+002
3.600506e+002, 5.914225e+002
3.605327e+002, 5.916361e+002
3.610148e+002, 5.906223e+002
3.614969e+002, 5.895936e+002
3.619790e+002, 5.891630e+002
3.624612e+002, 5.890334e+002
3.629433e+002, 5.886917e+002
3.634254e+002, 5.880021e+002
3.639075e+002, 5.870494e+002
3.643896e+002, 5.857145e+002
3.648717e+002, 5.838987e+002
3.653539e+002, 5.824206e+002
3.658360e+002, 5.819879e+002
3.663181e+002, 5.817012e+002
3.668002e+002, 5.807264e+002
3.672823e+002, 5.782141e+002
3.677644e+002, 5.758344e+002
3.682466e+002, 5.738519e+002
3.687287e+002, 5.722357e+002
3.692108e+002, 5.706759e+002
3.696929e+002, 5.694335e+002
3.701750e+002, 5.680052e+002
3.706571e+002, 5.661179e+002
3.711393e+002, 5.632364e+002
3.716214e+002, 5.608391e+002
3.721035e+002, 5.592158e+002
3.725856e+002, 5.579766e+002
3.730677e+002, 5.561321e+002
3.735498e+002, 5.530165e+002
3.740320e+002, 5.505623e+002
3.745141e+002, 5.497767e+002
3.749962e+002, 5.509613e+002
3.754783e+002, 5.511116e+002
3.759604e+002, 5.499958e+002
3.764425e+002, 5.482298e+002
3.769247e+002, 5.463546e+002
3.774068e+002, 5.442819e+002
3.778889e+002, 5.427694e+002
3.783710e+002, 5.421639e+002
3.788531e+002, 5.422434e+002
3.793352e+002, 5.420754e+002
3.798174e+002, 5.416356e+002
3.802995e+002, 5.411185e+002
3.807816e+002, 5.406423e+002
3.812637e+002, 5.402098e+002
3.817458e+002, 5.399300e+002
3.822279e+002, 5.399012e+002
3.827101e+002, 5.398484e+002
3.831922e+002, 5.391852e+002
3.836743e+002, 5.379990e+002
3.841564e+002, 5.369351e+002
3.846385e+002, 5.364202e+002
3.851206e+002, 5.362481e+002
3.856028e+002, 5.360874e+002
3.860849e+002, 5.359449e+002
3.865670e+002, 5.355701e+002
3.870491e+002, 5.343619e+002
3.875312e+002, 5.327704e+002
3.880133e+002, 5.316934e+002
3.884955e+002, 5.318406e+002
3.889776e+002, 5.323163e+002
3.894597e+002, 5.324213e+002
3.899418e+002, 5.321614e+002
3.904239e+002, 5.315819e+002
3.909060e+002, 5.304820e+002
3.913882e+002, 5.291918e+002
3.918703e+002, 5.279652e+002
3.923524e+002, 5.267020e+002
3.928345e+002, 5.258086e+002
3.933166e+002, 5.256516e+002
3.937987e+002, 5.259929e+002
3.942809e+002, 5.263546e+002
3.947630e+002, 5.266122e+002
3.952451e+002, 5.268259e+002
3.957272e+002, 5.269445e+002
3.962093e+002, 5.269053e+002
3.966914e+002, 5.271560e+002
3.971736e+002, 5.279629e+002
3.976557e+002, 5.290078e+002
3.981378e+002, 5.300012e+002
3.986199e+002, 5.308553e+002
3.991020e+002, 5.317000e+002
3.995841e+002, 5.327427e+002
4.000663e+002, 5.338746e+002
4.005484e+002, 5.344075e+002
4.010305e+002, 5.346308e+002
4.015126e+002, 5.339473e+002
4.019947e+002, 5.320457e+002
4.024768e+002, 5.287997e+002
4.029590e+002, 5.246578e+002
4.034411e+002, 5.193580e+002
4.039232e+002, 5.133737e+002
4.044053e+002, 5.075070e+002
4.048874e+002, 5.017728e+002
4.053695e+002, 4.960791e+002
4.058517e+002, 4.902546e+002
4.063338e+002, 4.843844e+002
4.068159e+002, 4.790363e+002
4.072980e+002, 4.743149e+002
4.077801e+002, 4.697363e+002
4.082622e+002, 4.647105e+002
4.087444e+002, 4.592587e+002
4.092265e+002, 4.544595e+002
4.097086e+002, 4.505561e+002
4.101907e+002, 4.473280e+002
4.106728e+002, 4.443955e+002
