##NAMES=Alluaudite
##RRUFFID=R160081
##IDEAL CHEMISTRY=NaMn^2+^Fe^3+^_2_(PO_4_)_3_
##LOCALITY=Green Monster mine, Trimble, South Dakota, USA
##OWNER=UAMM
##SOURCE=Rock Currier
##DESCRIPTION=Dark green massive.
##STATUS=The identification of this mineral has been confirmed only by single crystal X-ray diffraction.
##URL=rruff.info/R160081
##MEASURED CHEMISTRY=(Na_0.97_Ca_0.06_)_∑=1.03_(Mn_0.81_Fe^2+^_0.12_Mg_0.02_)_∑=0.95_Fe^3+^_2_(PO_4_)_3_
8.813672e+001, 2.916454e+002
8.861884e+001, 2.947035e+002
8.910095e+001, 2.981278e+002
8.958307e+001, 3.022921e+002
9.006519e+001, 3.080495e+002
9.054730e+001, 3.163145e+002
9.102942e+001, 3.288498e+002
9.151154e+001, 3.408770e+002
9.199365e+001, 3.462336e+002
9.247577e+001, 3.459760e+002
9.295789e+001, 3.452555e+002
9.344000e+001, 3.475570e+002
9.392212e+001, 3.518819e+002
9.440424e+001, 3.564722e+002
9.488635e+001, 3.620083e+002
9.536847e+001, 3.676111e+002
9.585059e+001, 3.706144e+002
9.633270e+001, 3.708709e+002
9.681482e+001, 3.706937e+002
9.729694e+001, 3.717430e+002
9.777905e+001, 3.739974e+002
9.826117e+001, 3.779946e+002
9.874329e+001, 3.845816e+002
9.922540e+001, 3.931886e+002
9.970752e+001, 3.997863e+002
1.001896e+002, 4.039106e+002
1.006718e+002, 4.068759e+002
1.011539e+002, 4.100433e+002
1.016360e+002, 4.132713e+002
1.021181e+002, 4.172469e+002
1.026002e+002, 4.220325e+002
1.030823e+002, 4.275014e+002
1.035645e+002, 4.343304e+002
1.040466e+002, 4.422896e+002
1.045287e+002, 4.517329e+002
1.050108e+002, 4.635755e+002
1.054929e+002, 4.778717e+002
1.059750e+002, 4.942983e+002
1.064572e+002, 5.129811e+002
1.069393e+002, 5.366066e+002
1.074214e+002, 5.576144e+002
1.079035e+002, 5.747551e+002
1.083856e+002, 5.892993e+002
1.088677e+002, 6.049396e+002
1.093499e+002, 6.231971e+002
1.098320e+002, 6.416692e+002
1.103141e+002, 6.593057e+002
1.107962e+002, 6.815918e+002
1.112783e+002, 6.972759e+002
1.117604e+002, 7.062584e+002
1.122426e+002, 7.085323e+002
1.127247e+002, 7.028865e+002
1.132068e+002, 6.823574e+002
1.136889e+002, 6.574831e+002
1.141710e+002, 6.357107e+002
1.146531e+002, 6.195040e+002
1.151353e+002, 6.057419e+002
1.156174e+002, 5.930124e+002
1.160995e+002, 5.813548e+002
1.165816e+002, 5.722676e+002
1.170637e+002, 5.680385e+002
1.175458e+002, 5.661341e+002
1.180280e+002, 5.637596e+002
1.185101e+002, 5.583858e+002
1.189922e+002, 5.532859e+002
1.194743e+002, 5.504755e+002
1.199564e+002, 5.501708e+002
1.204385e+002, 5.511223e+002
1.209207e+002, 5.516549e+002
1.214028e+002, 5.529610e+002
1.218849e+002, 5.571202e+002
1.223670e+002, 5.685820e+002
1.228491e+002, 5.819686e+002
1.233312e+002, 5.914321e+002
1.238134e+002, 5.958673e+002
1.242955e+002, 5.982422e+002
1.247776e+002, 6.006490e+002
1.252597e+002, 6.031186e+002
1.257418e+002, 6.057549e+002
1.262239e+002, 6.087120e+002
1.267061e+002, 6.118975e+002
1.271882e+002, 6.151218e+002
1.276703e+002, 6.185333e+002
1.281524e+002, 6.217114e+002
1.286345e+002, 6.244323e+002
1.291166e+002, 6.265983e+002
1.295988e+002, 6.274091e+002
1.300809e+002, 6.258845e+002
1.305630e+002, 6.223429e+002
1.310451e+002, 6.180829e+002
1.315272e+002, 6.130732e+002
1.320093e+002, 6.077480e+002
1.324915e+002, 6.027637e+002
1.329736e+002, 5.980580e+002
1.334557e+002, 5.943367e+002
1.339378e+002, 5.925869e+002
1.344199e+002, 5.927692e+002
1.349020e+002, 5.931829e+002
1.353842e+002, 5.932549e+002
1.358663e+002, 5.932086e+002
1.363484e+002, 5.943513e+002
1.368305e+002, 5.968434e+002
1.373126e+002, 6.000691e+002
1.377947e+002, 6.034965e+002
1.382769e+002, 6.072203e+002
1.387590e+002, 6.107478e+002
1.392411e+002, 6.143137e+002
1.397232e+002, 6.179727e+002
1.402053e+002, 6.190385e+002
1.406874e+002, 6.168617e+002
1.411696e+002, 6.129822e+002
1.416517e+002, 6.092567e+002
1.421338e+002, 6.053251e+002
1.426159e+002, 6.024133e+002
1.430980e+002, 6.012068e+002
1.435801e+002, 6.023008e+002
1.440623e+002, 6.022051e+002
1.445444e+002, 5.998695e+002
1.450265e+002, 5.969760e+002
1.455086e+002, 5.965970e+002
1.459907e+002, 6.009935e+002
1.464728e+002, 6.049274e+002
1.469550e+002, 6.066553e+002
1.474371e+002, 6.051483e+002
1.479192e+002, 6.037559e+002
1.484013e+002, 6.023809e+002
1.488834e+002, 6.011346e+002
1.493655e+002, 6.002361e+002
1.498477e+002, 5.993500e+002
1.503298e+002, 5.991034e+002
1.508119e+002, 5.997692e+002
1.512940e+002, 6.021248e+002
1.517761e+002, 6.042325e+002
1.522583e+002, 6.058564e+002
1.527404e+002, 6.071488e+002
1.532225e+002, 6.085566e+002
1.537046e+002, 6.103424e+002
1.541867e+002, 6.120739e+002
1.546688e+002, 6.135724e+002
1.551510e+002, 6.154687e+002
1.556331e+002, 6.163627e+002
1.561152e+002, 6.152745e+002
1.565973e+002, 6.127743e+002
1.570794e+002, 6.111293e+002
1.575615e+002, 6.111230e+002
1.580437e+002, 6.119297e+002
1.585258e+002, 6.130338e+002
1.590079e+002, 6.139814e+002
1.594900e+002, 6.155732e+002
1.599721e+002, 6.181686e+002
1.604542e+002, 6.216697e+002
1.609364e+002, 6.255076e+002
1.614185e+002, 6.296165e+002
1.619006e+002, 6.339109e+002
1.623827e+002, 6.383209e+002
1.628648e+002, 6.434414e+002
1.633469e+002, 6.481288e+002
1.638291e+002, 6.514552e+002
1.643112e+002, 6.535576e+002
1.647933e+002, 6.561547e+002
1.652754e+002, 6.602347e+002
1.657575e+002, 6.651835e+002
1.662396e+002, 6.703553e+002
1.667218e+002, 6.761877e+002
1.672039e+002, 6.816740e+002
1.676860e+002, 6.863966e+002
1.681681e+002, 6.902957e+002
1.686502e+002, 6.930662e+002
1.691323e+002, 6.943390e+002
1.696145e+002, 6.943738e+002
1.700966e+002, 6.935054e+002
1.705787e+002, 6.916379e+002
1.710608e+002, 6.890689e+002
1.715429e+002, 6.858907e+002
1.720250e+002, 6.820608e+002
1.725072e+002, 6.781388e+002
1.729893e+002, 6.737975e+002
1.734714e+002, 6.696295e+002
1.739535e+002, 6.667283e+002
1.744356e+002, 6.659222e+002
1.749177e+002, 6.664930e+002
1.753999e+002, 6.677803e+002
1.758820e+002, 6.698229e+002
1.763641e+002, 6.720815e+002
1.768462e+002, 6.742624e+002
1.773283e+002, 6.763209e+002
1.778104e+002, 6.781575e+002
1.782926e+002, 6.795107e+002
1.787747e+002, 6.806390e+002
1.792568e+002, 6.823026e+002
1.797389e+002, 6.846970e+002
1.802210e+002, 6.864271e+002
1.807031e+002, 6.854039e+002
1.811853e+002, 6.821946e+002
1.816674e+002, 6.788616e+002
1.821495e+002, 6.767458e+002
1.826316e+002, 6.752535e+002
1.831137e+002, 6.729459e+002
1.835958e+002, 6.696137e+002
1.840780e+002, 6.659683e+002
1.845601e+002, 6.625555e+002
1.850422e+002, 6.595040e+002
1.855243e+002, 6.571957e+002
1.860064e+002, 6.562467e+002
1.864885e+002, 6.563075e+002
1.869707e+002, 6.561875e+002
1.874528e+002, 6.558333e+002
1.879349e+002, 6.552513e+002
1.884170e+002, 6.541556e+002
1.888991e+002, 6.526013e+002
1.893812e+002, 6.515441e+002
1.898634e+002, 6.516458e+002
1.903455e+002, 6.527560e+002
1.908276e+002, 6.539639e+002
1.913097e+002, 6.552354e+002
1.917918e+002, 6.565402e+002
1.922739e+002, 6.580594e+002
1.927561e+002, 6.598337e+002
1.932382e+002, 6.609877e+002
1.937203e+002, 6.609443e+002
1.942024e+002, 6.597613e+002
1.946845e+002, 6.582206e+002
1.951666e+002, 6.563985e+002
1.956488e+002, 6.542143e+002
1.961309e+002, 6.512563e+002
1.966130e+002, 6.473546e+002
1.970951e+002, 6.437912e+002
1.975772e+002, 6.412576e+002
1.980593e+002, 6.397629e+002
1.985415e+002, 6.387198e+002
1.990236e+002, 6.380847e+002
1.995057e+002, 6.378894e+002
1.999878e+002, 6.382225e+002
2.004699e+002, 6.390945e+002
2.009520e+002, 6.404545e+002
2.014342e+002, 6.425625e+002
2.019163e+002, 6.455554e+002
2.023984e+002, 6.476343e+002
2.028805e+002, 6.483831e+002
2.033626e+002, 6.484154e+002
2.038447e+002, 6.493535e+002
2.043269e+002, 6.514208e+002
2.048090e+002, 6.535903e+002
2.052911e+002, 6.553923e+002
2.057732e+002, 6.568886e+002
2.062553e+002, 6.577011e+002
2.067374e+002, 6.578492e+002
2.072196e+002, 6.572761e+002
2.077017e+002, 6.556467e+002
2.081838e+002, 6.526469e+002
2.086659e+002, 6.494529e+002
2.091480e+002, 6.468136e+002
2.096301e+002, 6.448879e+002
2.101123e+002, 6.426630e+002
2.105944e+002, 6.399413e+002
2.110765e+002, 6.369457e+002
2.115586e+002, 6.342805e+002
2.120407e+002, 6.319348e+002
2.125228e+002, 6.299374e+002
2.130050e+002, 6.282358e+002
2.134871e+002, 6.266837e+002
2.139692e+002, 6.260364e+002
2.144513e+002, 6.266002e+002
2.149334e+002, 6.279905e+002
2.154155e+002, 6.290948e+002
2.158977e+002, 6.298277e+002
2.163798e+002, 6.304246e+002
2.168619e+002, 6.309142e+002
2.173440e+002, 6.310948e+002
2.178261e+002, 6.317562e+002
2.183082e+002, 6.329189e+002
2.187904e+002, 6.345712e+002
2.192725e+002, 6.368095e+002
2.197546e+002, 6.400068e+002
2.202367e+002, 6.430836e+002
2.207188e+002, 6.454786e+002
2.212009e+002, 6.471491e+002
2.216831e+002, 6.483254e+002
2.221652e+002, 6.489869e+002
2.226473e+002, 6.491863e+002
2.231294e+002, 6.489532e+002
2.236115e+002, 6.479302e+002
2.240936e+002, 6.470940e+002
2.245758e+002, 6.471340e+002
2.250579e+002, 6.490293e+002
2.255400e+002, 6.492347e+002
2.260221e+002, 6.467083e+002
2.265042e+002, 6.427292e+002
2.269863e+002, 6.411478e+002
2.274685e+002, 6.437023e+002
2.279506e+002, 6.459277e+002
2.284327e+002, 6.456692e+002
2.289148e+002, 6.416603e+002
2.293969e+002, 6.380129e+002
2.298790e+002, 6.345859e+002
2.303612e+002, 6.315729e+002
2.308433e+002, 6.295597e+002
2.313254e+002, 6.290052e+002
2.318075e+002, 6.287043e+002
2.322896e+002, 6.280627e+002
2.327717e+002, 6.266232e+002
2.332539e+002, 6.259786e+002
2.337360e+002, 6.264380e+002
2.342181e+002, 6.275787e+002
2.347002e+002, 6.284609e+002
2.351823e+002, 6.289749e+002
2.356644e+002, 6.293678e+002
2.361466e+002, 6.297543e+002
2.366287e+002, 6.302287e+002
2.371108e+002, 6.303696e+002
2.375929e+002, 6.298051e+002
2.380750e+002, 6.290593e+002
2.385571e+002, 6.292891e+002
2.390393e+002, 6.310565e+002
2.395214e+002, 6.329216e+002
2.400035e+002, 6.343606e+002
2.404856e+002, 6.352496e+002
2.409677e+002, 6.361517e+002
2.414498e+002, 6.370328e+002
2.419320e+002, 6.379628e+002
2.424141e+002, 6.390703e+002
2.428962e+002, 6.403427e+002
2.433783e+002, 6.418397e+002
2.438604e+002, 6.435768e+002
2.443425e+002, 6.455451e+002
2.448247e+002, 6.478243e+002
2.453068e+002, 6.504372e+002
2.457889e+002, 6.533509e+002
2.462710e+002, 6.565048e+002
2.467531e+002, 6.596286e+002
2.472352e+002, 6.634630e+002
2.477174e+002, 6.684643e+002
2.481995e+002, 6.749376e+002
2.486816e+002, 6.807272e+002
2.491637e+002, 6.854641e+002
2.496458e+002, 6.898027e+002
2.501279e+002, 6.946719e+002
2.506101e+002, 7.005794e+002
2.510922e+002, 7.061111e+002
2.515743e+002, 7.106390e+002
2.520564e+002, 7.139587e+002
2.525385e+002, 7.181622e+002
2.530206e+002, 7.241815e+002
2.535028e+002, 7.302608e+002
2.539849e+002, 7.341287e+002
2.544670e+002, 7.353655e+002
2.549491e+002, 7.354114e+002
2.554312e+002, 7.343541e+002
2.559133e+002, 7.321389e+002
2.563955e+002, 7.300399e+002
2.568776e+002, 7.280145e+002
2.573597e+002, 7.261443e+002
2.578418e+002, 7.245116e+002
2.583239e+002, 7.231123e+002
2.588061e+002, 7.219181e+002
2.592882e+002, 7.209618e+002
2.597703e+002, 7.202337e+002
2.602524e+002, 7.195116e+002
2.607345e+002, 7.189764e+002
2.612166e+002, 7.181869e+002
2.616988e+002, 7.167317e+002
2.621809e+002, 7.145919e+002
2.626630e+002, 7.118818e+002
2.631451e+002, 7.084016e+002
2.636272e+002, 7.042700e+002
2.641093e+002, 7.009523e+002
2.645915e+002, 6.988078e+002
2.650736e+002, 6.968080e+002
2.655557e+002, 6.938339e+002
2.660378e+002, 6.893293e+002
2.665199e+002, 6.860720e+002
2.670020e+002, 6.846967e+002
2.674842e+002, 6.848801e+002
2.679663e+002, 6.851396e+002
2.684484e+002, 6.855763e+002
2.689305e+002, 6.858486e+002
2.694126e+002, 6.854984e+002
2.698947e+002, 6.841701e+002
2.703769e+002, 6.837763e+002
2.708590e+002, 6.845998e+002
2.713411e+002, 6.864182e+002
2.718232e+002, 6.886642e+002
2.723053e+002, 6.915355e+002
2.727874e+002, 6.942146e+002
2.732696e+002, 6.961041e+002
2.737517e+002, 6.970278e+002
2.742338e+002, 6.983710e+002
2.747159e+002, 7.004512e+002
2.751980e+002, 7.027841e+002
2.756801e+002, 7.041356e+002
2.761623e+002, 7.043702e+002
2.766444e+002, 7.042554e+002
2.771265e+002, 7.042776e+002
2.776086e+002, 7.044967e+002
2.780907e+002, 7.040988e+002
2.785728e+002, 7.031170e+002
2.790550e+002, 7.014358e+002
2.795371e+002, 6.986761e+002
2.800192e+002, 6.947362e+002
2.805013e+002, 6.905406e+002
2.809834e+002, 6.864473e+002
2.814655e+002, 6.824500e+002
2.819477e+002, 6.783989e+002
2.824298e+002, 6.743026e+002
2.829119e+002, 6.702126e+002
2.833940e+002, 6.660674e+002
2.838761e+002, 6.618450e+002
2.843582e+002, 6.581677e+002
2.848404e+002, 6.555225e+002
2.853225e+002, 6.536865e+002
2.858046e+002, 6.512361e+002
2.862867e+002, 6.480851e+002
2.867688e+002, 6.448186e+002
2.872509e+002, 6.422184e+002
2.877331e+002, 6.402300e+002
2.882152e+002, 6.380310e+002
2.886973e+002, 6.351614e+002
2.891794e+002, 6.319485e+002
2.896615e+002, 6.296090e+002
2.901436e+002, 6.281849e+002
2.906258e+002, 6.269977e+002
2.911079e+002, 6.252927e+002
2.915900e+002, 6.232142e+002
2.920721e+002, 6.215310e+002
2.925542e+002, 6.205801e+002
2.930363e+002, 6.200414e+002
2.935185e+002, 6.191312e+002
2.940006e+002, 6.178585e+002
2.944827e+002, 6.169163e+002
2.949648e+002, 6.172181e+002
2.954469e+002, 6.183083e+002
2.959290e+002, 6.186797e+002
2.964112e+002, 6.178246e+002
2.968933e+002, 6.165223e+002
2.973754e+002, 6.159940e+002
2.978575e+002, 6.161393e+002
2.983396e+002, 6.163583e+002
2.988217e+002, 6.161411e+002
2.993039e+002, 6.157311e+002
2.997860e+002, 6.157335e+002
3.002681e+002, 6.163738e+002
3.007502e+002, 6.169479e+002
3.012323e+002, 6.164924e+002
3.017144e+002, 6.152242e+002
3.021966e+002, 6.139321e+002
3.026787e+002, 6.129865e+002
3.031608e+002, 6.122669e+002
3.036429e+002, 6.116555e+002
3.041250e+002, 6.111754e+002
3.046071e+002, 6.106066e+002
3.050893e+002, 6.095716e+002
3.055714e+002, 6.082980e+002
3.060535e+002, 6.073014e+002
3.065356e+002, 6.066434e+002
3.070177e+002, 6.064506e+002
3.074998e+002, 6.073242e+002
3.079820e+002, 6.092851e+002
3.084641e+002, 6.105537e+002
3.089462e+002, 6.090653e+002
3.094283e+002, 6.063114e+002
3.099104e+002, 6.043397e+002
3.103925e+002, 6.049838e+002
3.108747e+002, 6.058460e+002
3.113568e+002, 6.049837e+002
3.118389e+002, 6.026498e+002
3.123210e+002, 6.007097e+002
3.128031e+002, 6.001631e+002
3.132852e+002, 6.004965e+002
3.137674e+002, 6.012656e+002
3.142495e+002, 6.027883e+002
3.147316e+002, 6.041383e+002
3.152137e+002, 6.047024e+002
3.156958e+002, 6.046717e+002
3.161779e+002, 6.046917e+002
3.166601e+002, 6.052532e+002
3.171422e+002, 6.058038e+002
3.176243e+002, 6.058910e+002
3.181064e+002, 6.050588e+002
3.185885e+002, 6.045380e+002
3.190706e+002, 6.048353e+002
3.195528e+002, 6.057137e+002
3.200349e+002, 6.067178e+002
3.205170e+002, 6.077868e+002
3.209991e+002, 6.088928e+002
3.214812e+002, 6.100450e+002
3.219633e+002, 6.112800e+002
3.224455e+002, 6.124345e+002
3.229276e+002, 6.135325e+002
3.234097e+002, 6.145263e+002
3.238918e+002, 6.153577e+002
3.243739e+002, 6.155212e+002
3.248560e+002, 6.160175e+002
3.253382e+002, 6.172891e+002
3.258203e+002, 6.194727e+002
3.263024e+002, 6.212884e+002
3.267845e+002, 6.224495e+002
3.272666e+002, 6.233394e+002
3.277487e+002, 6.242618e+002
3.282309e+002, 6.250842e+002
3.287130e+002, 6.260963e+002
3.291951e+002, 6.273128e+002
3.296772e+002, 6.287357e+002
3.301593e+002, 6.304117e+002
3.306414e+002, 6.326064e+002
3.311236e+002, 6.347735e+002
3.316057e+002, 6.365807e+002
3.320878e+002, 6.375005e+002
3.325699e+002, 6.390217e+002
3.330520e+002, 6.414609e+002
3.335341e+002, 6.444583e+002
3.340163e+002, 6.469959e+002
3.344984e+002, 6.488422e+002
3.349805e+002, 6.505646e+002
3.354626e+002, 6.523953e+002
3.359447e+002, 6.543640e+002
3.364268e+002, 6.563690e+002
3.369090e+002, 6.584628e+002
3.373911e+002, 6.605756e+002
3.378732e+002, 6.626957e+002
3.383553e+002, 6.650198e+002
3.388374e+002, 6.666674e+002
3.393195e+002, 6.671517e+002
3.398017e+002, 6.665299e+002
3.402838e+002, 6.665275e+002
3.407659e+002, 6.673490e+002
3.412480e+002, 6.682903e+002
3.417301e+002, 6.685341e+002
3.422122e+002, 6.680220e+002
3.426944e+002, 6.676718e+002
3.431765e+002, 6.677531e+002
3.436586e+002, 6.681052e+002
3.441407e+002, 6.681486e+002
3.446228e+002, 6.678549e+002
3.451049e+002, 6.675499e+002
3.455871e+002, 6.676513e+002
3.460692e+002, 6.680435e+002
3.465513e+002, 6.678348e+002
3.470334e+002, 6.667074e+002
3.475155e+002, 6.653457e+002
3.479977e+002, 6.650762e+002
3.484798e+002, 6.657672e+002
3.489619e+002, 6.663546e+002
3.494440e+002, 6.659397e+002
3.499261e+002, 6.650091e+002
3.504082e+002, 6.647570e+002
3.508904e+002, 6.653301e+002
3.513725e+002, 6.660948e+002
3.518546e+002, 6.663465e+002
3.523367e+002, 6.662618e+002
3.528188e+002, 6.663083e+002
3.533009e+002, 6.669901e+002
3.537831e+002, 6.677508e+002
3.542652e+002, 6.677355e+002
3.547473e+002, 6.669860e+002
3.552294e+002, 6.664228e+002
3.557115e+002, 6.668477e+002
3.561936e+002, 6.678212e+002
3.566758e+002, 6.687750e+002
3.571579e+002, 6.695642e+002
3.576400e+002, 6.702768e+002
3.581221e+002, 6.710065e+002
3.586042e+002, 6.717225e+002
3.590863e+002, 6.723319e+002
3.595685e+002, 6.729930e+002
3.600506e+002, 6.734099e+002
3.605327e+002, 6.732460e+002
3.610148e+002, 6.721466e+002
3.614969e+002, 6.712874e+002
3.619790e+002, 6.716550e+002
3.624612e+002, 6.725134e+002
3.629433e+002, 6.726235e+002
3.634254e+002, 6.703796e+002
3.639075e+002, 6.683863e+002
3.643896e+002, 6.679163e+002
3.648717e+002, 6.692797e+002
3.653539e+002, 6.703399e+002
3.658360e+002, 6.705826e+002
3.663181e+002, 6.703649e+002
3.668002e+002, 6.700237e+002
3.672823e+002, 6.696707e+002
3.677644e+002, 6.691025e+002
3.682466e+002, 6.681588e+002
3.687287e+002, 6.668781e+002
3.692108e+002, 6.657878e+002
3.696929e+002, 6.649576e+002
3.701750e+002, 6.642480e+002
3.706571e+002, 6.636239e+002
3.711393e+002, 6.633226e+002
3.716214e+002, 6.626921e+002
3.721035e+002, 6.616642e+002
3.725856e+002, 6.603258e+002
3.730677e+002, 6.588860e+002
3.735498e+002, 6.573431e+002
3.740320e+002, 6.556779e+002
3.745141e+002, 6.537502e+002
3.749962e+002, 6.514534e+002
3.754783e+002, 6.499940e+002
3.759604e+002, 6.496690e+002
3.764425e+002, 6.497202e+002
3.769247e+002, 6.492083e+002
3.774068e+002, 6.480391e+002
3.778889e+002, 6.469332e+002
3.783710e+002, 6.461568e+002
3.788531e+002, 6.455714e+002
3.793352e+002, 6.444001e+002
3.798174e+002, 6.425384e+002
3.802995e+002, 6.408624e+002
3.807816e+002, 6.401563e+002
3.812637e+002, 6.403246e+002
3.817458e+002, 6.406631e+002
3.822279e+002, 6.411408e+002
3.827101e+002, 6.416245e+002
3.831922e+002, 6.418595e+002
3.836743e+002, 6.418843e+002
3.841564e+002, 6.419426e+002
3.846385e+002, 6.419650e+002
3.851206e+002, 6.421563e+002
3.856028e+002, 6.430583e+002
3.860849e+002, 6.447426e+002
3.865670e+002, 6.465621e+002
3.870491e+002, 6.480809e+002
3.875312e+002, 6.492965e+002
3.880133e+002, 6.502012e+002
3.884955e+002, 6.503836e+002
3.889776e+002, 6.505944e+002
3.894597e+002, 6.516494e+002
3.899418e+002, 6.534268e+002
3.904239e+002, 6.552025e+002
3.909060e+002, 6.567501e+002
3.913882e+002, 6.579927e+002
3.918703e+002, 6.588175e+002
3.923524e+002, 6.590717e+002
3.928345e+002, 6.592059e+002
3.933166e+002, 6.592903e+002
3.937987e+002, 6.594164e+002
3.942809e+002, 6.597634e+002
3.947630e+002, 6.605295e+002
3.952451e+002, 6.614047e+002
3.957272e+002, 6.624119e+002
3.962093e+002, 6.636466e+002
3.966914e+002, 6.643087e+002
3.971736e+002, 6.635807e+002
3.976557e+002, 6.625154e+002
3.981378e+002, 6.620781e+002
3.986199e+002, 6.629979e+002
3.991020e+002, 6.638367e+002
3.995841e+002, 6.647232e+002
4.000663e+002, 6.655157e+002
4.005484e+002, 6.652043e+002
4.010305e+002, 6.627234e+002
4.015126e+002, 6.602918e+002
4.019947e+002, 6.591324e+002
4.024768e+002, 6.603122e+002
4.029590e+002, 6.602917e+002
4.034411e+002, 6.589524e+002
4.039232e+002, 6.565237e+002
4.044053e+002, 6.532744e+002
4.048874e+002, 6.489715e+002
4.053695e+002, 6.445418e+002
4.058517e+002, 6.401425e+002
4.063338e+002, 6.358339e+002
4.068159e+002, 6.318408e+002
4.072980e+002, 6.281160e+002
4.077801e+002, 6.248669e+002
4.082622e+002, 6.224590e+002
4.087444e+002, 6.208469e+002
4.092265e+002, 6.193033e+002
4.097086e+002, 6.175977e+002
4.101907e+002, 6.159884e+002
4.106728e+002, 6.151105e+002
4.111549e+002, 6.148991e+002
4.116371e+002, 6.147552e+002
4.121192e+002, 6.144509e+002
4.126013e+002, 6.139255e+002
