##NAMES=Almandine
##RRUFFID=R040076
##IDEAL CHEMISTRY=Fe^2+^_3_Al_2_(SiO_4_)_3_
##LOCALITY=Barton Garnet mine, Gore Mountain, Warren County, New York, USA
##OWNER=RRUFF
##SOURCE=University of Arizona Mineral Museum
##DESCRIPTION=Red coarsely crystalline
##STATUS=The identification of this mineral has been confirmed by X-ray diffraction and chemical analysis
##URL=rruff.info/R040076
##MEASURED CHEMISTRY=(Fe^2+^_1.38_Mg_1.26_Ca_0.33_Mn_0.03_)_Î£=3_Al_2.00_(Si_1.00_O_4_)_3_; trace amounts of Ti
127.8412, 957.0536
128.3233, 951.2891
128.8054, 956.2145
129.2875, 974.8776
129.7696, 999.4827
130.2518, 1017.120
130.7339, 1028.936
131.2160, 1034.356
131.6981, 1025.072
132.1802, 1003.394
132.6623, 987.2384
133.1445, 981.7244
133.6266, 986.5151
134.1087, 1001.683
134.5908, 1028.917
135.0729, 1062.133
135.5550, 1094.846
136.0372, 1127.994
136.5193, 1152.393
137.0014, 1155.249
137.4835, 1132.842
137.9656, 1137.537
138.4477, 1185.107
138.9299, 1257.944
139.4120, 1291.803
139.8941, 1275.497
140.3762, 1245.313
140.8583, 1228.753
141.3404, 1230.136
141.8226, 1231.774
142.3047, 1230.284
142.7868, 1225.560
143.2689, 1223.412
143.7510, 1226.978
144.2331, 1230.511
144.7152, 1226.046
145.1974, 1208.165
145.6795, 1190.715
146.1616, 1177.074
146.6437, 1166.955
147.1258, 1161.424
147.6079, 1160.103
148.0901, 1163.364
148.5722, 1172.457
149.0543, 1195.560
149.5364, 1217.334
150.0185, 1230.948
150.5006, 1228.926
150.9828, 1227.610
151.4649, 1229.245
151.9470, 1233.226
152.4291, 1232.636
152.9112, 1213.701
153.3933, 1197.350
153.8755, 1198.203
154.3576, 1246.240
154.8397, 1283.730
155.3218, 1295.625
155.8039, 1277.973
156.2860, 1259.031
156.7682, 1238.960
157.2503, 1221.686
157.7324, 1212.054
158.2145, 1219.758
158.6966, 1228.757
159.1787, 1231.848
159.6609, 1225.023
160.1430, 1219.360
160.6251, 1220.055
161.1072, 1224.557
161.5893, 1226.952
162.0714, 1227.339
162.5536, 1223.673
163.0357, 1214.335
163.5178, 1194.662
163.9999, 1174.054
164.4820, 1156.525
164.9641, 1141.764
165.4463, 1128.403
165.9284, 1113.857
166.4105, 1100.934
166.8926, 1092.661
167.3747, 1086.623
167.8568, 1087.939
168.3390, 1098.602
168.8211, 1118.229
169.3032, 1150.973
169.7853, 1225.459
170.2674, 1313.519
170.7495, 1365.903
171.2317, 1326.874
171.7138, 1256.594
172.1959, 1213.954
172.6780, 1207.525
173.1601, 1220.672
173.6422, 1248.542
174.1244, 1286.979
174.6065, 1321.785
175.0886, 1344.062
175.5707, 1357.999
176.0528, 1370.557
176.5349, 1385.960
177.0171, 1396.201
177.4992, 1388.600
177.9813, 1364.827
178.4634, 1338.772
178.9455, 1321.890
179.4276, 1310.800
179.9098, 1297.225
180.3919, 1276.240
180.8740, 1252.557
181.3561, 1232.328
181.8382, 1215.667
182.3203, 1203.345
182.8025, 1199.893
183.2846, 1202.870
183.7667, 1202.182
184.2488, 1189.785
184.7309, 1170.354
185.2130, 1158.776
185.6951, 1156.521
186.1773, 1156.737
186.6594, 1148.561
187.1415, 1132.957
187.6236, 1119.916
188.1057, 1115.617
188.5878, 1118.685
189.0700, 1123.109
189.5521, 1129.327
190.0342, 1134.857
190.5163, 1133.068
190.9984, 1123.638
191.4805, 1115.702
191.9627, 1114.948
192.4448, 1121.237
192.9269, 1134.276
193.4090, 1156.973
193.8911, 1184.656
194.3732, 1201.598
194.8554, 1206.269
195.3375, 1209.781
195.8196, 1224.935
196.3017, 1252.124
196.7838, 1273.394
197.2659, 1281.180
197.7481, 1278.443
198.2302, 1285.853
198.7123, 1305.438
199.1944, 1329.452
199.6765, 1349.182
200.1586, 1364.585
200.6408, 1377.602
201.1229, 1387.662
201.6050, 1394.586
202.0871, 1405.363
202.5692, 1420.927
203.0513, 1438.855
203.5335, 1455.166
204.0156, 1469.531
204.4977, 1483.512
204.9798, 1498.263
205.4619, 1514.025
205.9440, 1527.493
206.4262, 1538.126
206.9083, 1546.661
207.3904, 1555.277
207.8725, 1564.593
208.3546, 1572.191
208.8367, 1576.534
209.3189, 1577.224
209.8010, 1576.070
210.2831, 1572.478
210.7652, 1567.257
211.2473, 1563.882
211.7294, 1562.447
212.2116, 1562.748
212.6937, 1566.750
213.1758, 1578.692
213.6579, 1580.411
214.1400, 1566.566
214.6221, 1538.366
215.1043, 1514.410
215.5864, 1495.846
216.0685, 1479.584
216.5506, 1463.161
217.0327, 1446.930
217.5148, 1429.179
217.9970, 1408.346
218.4791, 1384.190
218.9612, 1363.557
219.4433, 1347.033
219.9254, 1333.579
220.4075, 1322.864
220.8897, 1317.870
221.3718, 1309.248
221.8539, 1291.940
222.3360, 1261.432
222.8181, 1243.921
223.3002, 1246.036
223.7824, 1257.087
224.2645, 1257.057
224.7466, 1239.508
225.2287, 1221.990
225.7108, 1211.778
226.1929, 1212.733
226.6750, 1210.337
227.1572, 1203.641
227.6393, 1193.950
228.1214, 1184.366
228.6035, 1175.136
229.0856, 1165.785
229.5677, 1155.426
230.0499, 1141.196
230.5320, 1133.003
231.0141, 1133.411
231.4962, 1140.281
231.9783, 1145.360
232.4604, 1149.843
232.9426, 1150.909
233.4247, 1145.577
233.9068, 1127.439
234.3889, 1116.714
234.8710, 1118.855
235.3531, 1131.766
235.8353, 1135.643
236.3174, 1125.919
236.7995, 1112.390
237.2816, 1101.887
237.7637, 1093.781
238.2458, 1090.160
238.7280, 1093.200
239.2101, 1102.745
239.6922, 1107.569
240.1743, 1104.577
240.6564, 1099.930
241.1385, 1100.017
241.6207, 1110.111
242.1028, 1115.340
242.5849, 1111.128
243.0670, 1096.346
243.5491, 1086.864
244.0313, 1086.439
244.5134, 1088.177
244.9955, 1083.315
245.4776, 1065.938
245.9597, 1052.161
246.4418, 1045.668
246.9240, 1046.928
247.4061, 1053.650
247.8882, 1070.366
248.3703, 1089.224
248.8524, 1098.454
249.3345, 1094.184
249.8167, 1086.882
250.2988, 1078.826
250.7809, 1069.089
251.2630, 1062.406
251.7451, 1060.036
252.2272, 1060.008
252.7094, 1058.403
253.1915, 1052.731
253.6736, 1049.733
254.1557, 1052.485
254.6378, 1063.417
255.1199, 1072.853
255.6021, 1081.871
256.0842, 1088.814
256.5663, 1088.925
257.0484, 1077.749
257.5305, 1067.495
258.0126, 1064.605
258.4948, 1073.903
258.9769, 1076.026
259.4590, 1065.844
259.9411, 1050.172
260.4232, 1049.384
260.9053, 1072.162
261.3875, 1093.974
261.8696, 1101.823
262.3517, 1091.417
262.8338, 1079.808
263.3159, 1066.285
263.7980, 1052.475
264.2802, 1044.508
264.7623, 1043.310
265.2444, 1045.923
265.7265, 1052.050
266.2086, 1063.854
266.6907, 1070.133
267.1729, 1067.218
267.6550, 1058.510
268.1371, 1057.388
268.6192, 1065.548
269.1013, 1077.487
269.5834, 1093.050
270.0656, 1116.233
270.5477, 1121.691
271.0298, 1097.892
271.5119, 1055.290
271.9940, 1041.797
272.4761, 1066.424
272.9583, 1097.517
273.4404, 1110.495
273.9225, 1101.629
274.4046, 1095.351
274.8867, 1096.552
275.3688, 1102.975
275.8510, 1103.628
276.3331, 1097.002
276.8152, 1089.155
277.2973, 1085.394
277.7794, 1086.173
278.2615, 1086.514
278.7437, 1084.714
279.2258, 1081.846
279.7079, 1083.247
280.1900, 1089.607
280.6721, 1097.584
281.1542, 1107.187
281.6364, 1118.922
282.1185, 1118.977
282.6006, 1097.351
283.0827, 1063.130
283.5648, 1057.765
284.0469, 1085.875
284.5291, 1118.849
285.0112, 1121.521
285.4933, 1095.375
285.9754, 1091.815
286.4575, 1137.410
286.9396, 1211.755
287.4217, 1238.663
287.9038, 1213.495
288.3860, 1174.238
288.8681, 1157.057
289.3502, 1159.928
289.8323, 1163.281
290.3144, 1161.068
290.7965, 1155.564
291.2787, 1154.129
291.7608, 1157.197
292.2429, 1159.408
292.7250, 1152.342
293.2071, 1138.578
293.6892, 1131.158
294.1714, 1137.224
294.6535, 1151.133
295.1356, 1161.089
295.6177, 1167.058
296.0998, 1171.134
296.5819, 1174.829
297.0641, 1178.248
297.5462, 1181.524
298.0283, 1183.385
298.5104, 1185.828
298.9925, 1192.670
299.4746, 1203.975
299.9568, 1217.011
300.4389, 1230.953
300.9210, 1244.879
301.4031, 1256.980
301.8852, 1264.822
302.3673, 1271.318
302.8495, 1281.694
303.3316, 1295.716
303.8137, 1307.610
304.2958, 1308.718
304.7779, 1304.646
305.2600, 1305.354
305.7422, 1314.152
306.2243, 1329.626
306.7064, 1355.275
307.1885, 1390.531
307.6706, 1419.498
308.1527, 1424.860
308.6349, 1418.462
309.1170, 1416.596
309.5991, 1411.864
310.0812, 1423.541
310.5633, 1483.472
311.0454, 1588.153
311.5276, 1669.595
312.0097, 1665.648
312.4918, 1623.823
312.9739, 1597.006
313.4560, 1620.037
313.9381, 1649.809
314.4203, 1659.514
314.9024, 1651.050
315.3845, 1648.420
315.8666, 1668.940
316.3487, 1698.062
316.8308, 1722.040
317.3130, 1734.817
317.7951, 1743.553
318.2772, 1748.731
318.7593, 1750.877
319.2414, 1755.109
319.7235, 1769.915
320.2057, 1784.031
320.6878, 1788.542
321.1699, 1767.420
321.6520, 1750.742
322.1341, 1747.144
322.6162, 1755.732
323.0984, 1767.035
323.5805, 1775.486
324.0626, 1788.305
324.5447, 1810.364
325.0268, 1854.959
325.5089, 1894.978
325.9911, 1924.320
326.4732, 1943.884
326.9553, 1966.505
327.4374, 1993.212
327.9195, 2022.852
328.4016, 2054.948
328.8838, 2088.019
329.3659, 2125.244
329.8480, 2167.217
330.3301, 2213.554
330.8122, 2262.819
331.2943, 2314.669
331.7765, 2370.076
332.2586, 2429.704
332.7407, 2494.964
333.2228, 2562.413
333.7049, 2634.689
334.1870, 2709.471
334.6692, 2776.121
335.1513, 2825.919
335.6334, 2882.701
336.1155, 2962.294
336.5976, 3076.099
337.0797, 3178.004
337.5619, 3262.235
338.0440, 3333.974
338.5261, 3403.592
339.0082, 3468.250
339.4903, 3538.439
339.9724, 3617.747
340.4546, 3706.493
340.9367, 3808.973
341.4188, 3930.781
341.9009, 4061.429
342.3830, 4175.886
342.8651, 4271.084
343.3473, 4375.101
343.8294, 4504.251
344.3115, 4657.971
344.7936, 4808.502
345.2757, 4950.456
345.7578, 5102.187
346.2400, 5314.981
346.7221, 5581.707
347.2042, 5825.333
347.6863, 5980.644
348.1684, 6080.515
348.6505, 6237.082
349.1327, 6461.651
349.6148, 6719.371
350.0969, 6982.499
350.5790, 7247.305
351.0611, 7499.929
351.5432, 7744.816
352.0254, 7968.528
352.5075, 8152.153
352.9896, 8292.972
353.4717, 8401.556
353.9538, 8493.628
354.4359, 8560.184
354.9181, 8580.190
355.4002, 8525.699
355.8823, 8432.924
356.3644, 8351.103
356.8465, 8281.592
357.3286, 8152.261
357.8108, 7870.964
358.2929, 7513.771
358.7750, 7174.781
359.2571, 6900.847
359.7392, 6644.236
360.2213, 6375.420
360.7035, 6095.907
361.1856, 5833.138
361.6677, 5602.563
362.1498, 5392.814
362.6319, 5191.295
363.1140, 4986.896
363.5962, 4798.313
364.0783, 4631.889
364.5604, 4486.590
365.0425, 4355.118
365.5246, 4237.590
366.0067, 4131.993
366.4889, 4037.133
366.9710, 3956.400
367.4531, 3881.227
367.9352, 3808.158
368.4173, 3739.230
368.8994, 3683.642
369.3815, 3659.488
369.8636, 3633.309
370.3458, 3590.613
370.8279, 3518.371
371.3100, 3451.043
371.7921, 3387.729
372.2742, 3329.112
372.7563, 3277.932
373.2385, 3240.769
373.7206, 3200.776
374.2027, 3149.384
374.6848, 3081.531
375.1669, 3025.096
375.6490, 2984.433
376.1312, 2950.632
376.6133, 2908.278
377.0954, 2855.884
377.5775, 2800.338
378.0596, 2743.725
378.5417, 2686.899
379.0239, 2623.999
379.5060, 2554.230
379.9881, 2482.391
380.4702, 2414.567
380.9523, 2350.214
381.4344, 2290.908
381.9166, 2239.880
382.3987, 2193.648
382.8808, 2135.874
383.3629, 2066.289
383.8450, 1996.549
384.3271, 1939.757
384.8093, 1892.411
385.2914, 1844.976
385.7735, 1792.749
386.2556, 1741.383
386.7377, 1702.487
387.2198, 1674.685
387.7020, 1645.961
388.1841, 1604.665
388.6662, 1558.766
389.1483, 1518.995
389.6304, 1491.563
390.1125, 1465.593
390.5947, 1429.489
391.0768, 1387.003
391.5589, 1350.930
392.0410, 1334.768
392.5231, 1323.111
393.0052, 1304.323
393.4874, 1274.413
393.9695, 1242.357
394.4516, 1205.890
394.9337, 1169.934
395.4158, 1143.519
395.8979, 1142.708
396.3801, 1140.332
396.8622, 1122.115
397.3443, 1078.959
397.8264, 1048.714
398.3085, 1047.568
398.7906, 1058.220
399.2728, 1059.941
399.7549, 1048.968
400.2370, 1032.452
400.7191, 1008.705
401.2012, 976.7051
401.6833, 953.2580
402.1655, 942.1443
402.6476, 936.1288
403.1297, 928.5891
403.6118, 916.5590
404.0939, 911.1749
404.5760, 918.6926
405.0582, 934.5981
405.5403, 931.0535
406.0224, 901.7472
406.5045, 871.4583
406.9866, 858.5286
407.4688, 863.9104
407.9509, 869.7793
408.4330, 875.1718
408.9151, 878.9292
409.3972, 878.8019
409.8793, 874.7650
410.3615, 867.2303
410.8436, 852.8487
411.3257, 834.6704
411.8078, 824.0353
412.2899, 822.4296
412.7720, 824.5778
413.2542, 826.7036
413.7363, 827.9012
414.2184, 825.4300
414.7005, 815.3900
415.1826, 802.3589
415.6647, 789.8927
416.1469, 778.1411
416.6290, 771.5035
417.1111, 778.9431
417.5932, 791.9240
418.0753, 799.0700
418.5574, 792.0296
419.0396, 782.3303
419.5217, 774.3351
420.0038, 768.2617
420.4859, 764.9583
420.9680, 770.5640
421.4501, 775.5925
421.9323, 772.9268
422.4144, 749.1025
422.8965, 734.3342
423.3786, 741.7356
423.8607, 762.7982
424.3428, 773.0906
424.8250, 756.5383
425.3071, 741.6531
425.7892, 739.9484
426.2713, 760.5290
426.7534, 769.5801
427.2355, 762.4756
427.7177, 746.7177
428.1998, 732.1314
428.6819, 716.1673
429.1640, 707.4182
429.6461, 711.3727
430.1282, 727.5287
430.6104, 732.6710
431.0925, 723.7787
431.5746, 711.5277
432.0567, 706.6136
432.5388, 709.2026
433.0209, 712.9831
433.5031, 717.3613
433.9852, 721.5256
434.4673, 722.4973
434.9494, 720.3830
435.4315, 719.6138
435.9136, 723.9454
436.3958, 732.0848
436.8779, 742.3171
437.3600, 756.4780
437.8421, 766.4594
438.3242, 758.9921
438.8063, 739.3344
439.2885, 722.2110
439.7706, 718.1613
440.2527, 718.3738
440.7348, 713.4966
441.2169, 701.9943
441.6990, 694.0597
442.1812, 698.3283
442.6633, 708.3279
443.1454, 716.3930
443.6275, 721.0237
444.1096, 722.4345
444.5917, 718.2270
445.0739, 709.0671
445.5560, 704.0784
446.0381, 709.5282
446.5202, 716.6635
447.0023, 720.3245
447.4844, 713.6895
447.9666, 712.1498
448.4487, 720.3113
448.9308, 733.3284
449.4129, 737.5331
449.8950, 728.1643
450.3771, 717.7256
450.8593, 710.6088
451.3413, 707.0063
451.8235, 705.9946
452.3056, 707.7292
452.7877, 711.8212
453.2698, 720.2455
453.7519, 733.9288
454.2340, 739.8558
454.7162, 728.8461
455.1983, 708.3599
455.6804, 706.6677
456.1625, 724.5870
456.6446, 747.4893
457.1267, 767.3386
457.6089, 782.5952
458.0910, 788.7072
458.5731, 780.9676
459.0552, 770.4749
459.5373, 770.9088
460.0194, 779.8491
460.5016, 789.3427
460.9837, 795.0051
461.4658, 799.0531
461.9479, 804.7319
462.4300, 813.6022
462.9121, 817.3686
463.3943, 805.0956
463.8764, 787.0636
464.3585, 776.7403
464.8406, 784.6415
465.3227, 794.4617
465.8048, 799.5349
466.2870, 799.7635
466.7691, 805.7090
467.2512, 829.0984
467.7333, 851.2870
468.2154, 860.0916
468.6975, 838.1744
469.1797, 831.8215
469.6618, 850.8047
470.1439, 884.4356
470.6260, 904.1511
471.1081, 905.9778
471.5902, 903.3324
472.0724, 898.7241
472.5545, 891.2817
473.0366, 898.1957
473.5187, 922.4222
474.0008, 952.4553
474.4829, 976.0375
474.9651, 993.2555
475.4472, 1004.307
475.9293, 1004.844
476.4114, 1002.330
476.8935, 1013.621
477.3756, 1037.781
477.8578, 1064.209
478.3399, 1084.530
478.8220, 1102.364
479.3041, 1123.531
479.7862, 1150.474
480.2683, 1177.612
480.7505, 1199.884
481.2326, 1219.260
481.7147, 1239.997
482.1968, 1270.526
482.6789, 1297.570
483.1610, 1314.768
483.6432, 1321.401
484.1253, 1319.821
484.6074, 1305.889
485.0895, 1286.302
485.5716, 1266.774
486.0537, 1246.696
486.5359, 1228.030
487.0180, 1212.318
487.5001, 1198.381
487.9822, 1179.882
488.4643, 1152.632
488.9464, 1128.013
489.4286, 1111.501
489.9107, 1104.168
490.3928, 1100.408
490.8749, 1100.882
491.3570, 1103.742
491.8391, 1105.810
492.3213, 1107.096
492.8034, 1110.779
493.2855, 1116.205
493.7676, 1125.443
494.2497, 1145.101
494.7318, 1174.905
495.2140, 1209.525
495.6961, 1244.335
496.1782, 1281.074
496.6603, 1321.637
497.1424, 1367.956
497.6245, 1416.302
498.1067, 1458.350
498.5888, 1500.380
499.0709, 1557.032
499.5530, 1641.759
500.0351, 1737.445
500.5172, 1843.231
500.9994, 1961.075
501.4815, 2058.016
501.9636, 2110.811
502.4457, 2147.957
502.9278, 2195.212
503.4099, 2275.644
503.8921, 2340.815
504.3742, 2392.636
504.8563, 2427.091
505.3384, 2425.714
505.8205, 2381.669
506.3026, 2315.368
506.7848, 2233.199
507.2669, 2132.213
507.7490, 2030.848
508.2311, 1927.047
508.7132, 1827.218
509.1953, 1740.376
509.6775, 1665.800
510.1596, 1590.499
510.6417, 1505.156
511.1238, 1420.586
511.6059, 1360.257
512.0880, 1322.576
512.5701, 1292.703
513.0522, 1260.817
513.5344, 1229.745
514.0165, 1203.379
514.4986, 1183.200
514.9807, 1165.381
515.4628, 1151.712
515.9449, 1138.138
516.4271, 1118.036
516.9092, 1072.043
517.3913, 1035.140
517.8734, 1027.301
518.3555, 1050.609
518.8376, 1061.049
519.3198, 1040.273
519.8019, 1014.806
520.2840, 1000.739
520.7661, 1005.332
521.2482, 1006.942
521.7303, 1002.188
522.2125, 995.3248
522.6946, 997.3683
523.1767, 1010.904
523.6588, 1022.392
524.1409, 1026.005
524.6230, 1022.569
525.1052, 1017.636
525.5873, 1010.822
526.0694, 1005.546
526.5515, 1005.419
527.0336, 1009.552
527.5157, 1016.482
527.9979, 1028.657
528.4800, 1038.267
528.9621, 1033.523
529.4442, 1018.698
529.9263, 1006.273
530.4084, 1005.349
530.8906, 1007.341
531.3727, 1005.263
531.8548, 997.5432
532.3369, 993.9952
532.8190, 1003.512
533.3011, 1015.890
533.7833, 1021.697
534.2654, 1009.641
534.7475, 1003.100
535.2296, 1003.873
535.7117, 1011.688
536.1938, 1026.415
536.6760, 1053.236
537.1581, 1077.514
537.6402, 1091.253
538.1223, 1092.967
538.6044, 1103.130
539.0865, 1123.081
539.5687, 1147.982
540.0508, 1174.013
540.5329, 1200.924
541.0150, 1223.082
541.4971, 1234.774
541.9792, 1246.577
542.4614, 1279.063
542.9435, 1328.086
543.4256, 1374.298
543.9077, 1401.545
544.3898, 1423.035
544.8719, 1450.031
545.3541, 1483.390
545.8362, 1524.583
546.3183, 1579.302
546.8004, 1640.579
547.2825, 1701.285
547.7646, 1761.584
548.2468, 1818.236
548.7289, 1863.893
549.2110, 1903.653
549.6931, 1958.925
550.1752, 2033.026
550.6573, 2117.877
551.1395, 2214.305
551.6216, 2325.951
552.1037, 2423.992
552.5858, 2503.040
553.0679, 2581.514
553.5500, 2684.694
554.0322, 2810.653
554.5143, 2933.782
554.9964, 3050.396
555.4785, 3158.391
555.9606, 3253.792
556.4427, 3336.683
556.9249, 3404.743
557.4070, 3462.413
557.8891, 3501.500
558.3712, 3511.756
558.8533, 3491.245
559.3354, 3449.619
559.8176, 3393.396
560.2997, 3318.048
560.7818, 3218.510
561.2639, 3074.999
561.7460, 2929.289
562.2281, 2794.655
562.7103, 2664.669
563.1924, 2516.316
563.6745, 2325.286
564.1566, 2148.525
564.6387, 2009.950
565.1208, 1912.378
565.6030, 1818.992
566.0851, 1731.106
566.5672, 1646.632
567.0493, 1561.600
567.5314, 1477.754
568.0135, 1401.804
568.4957, 1335.450
568.9778, 1278.273
569.4599, 1234.865
569.9420, 1202.249
570.4241, 1169.670
570.9063, 1127.782
571.3884, 1084.981
571.8705, 1048.205
572.3526, 1018.096
572.8347, 992.1674
573.3168, 970.2261
573.7990, 951.5665
574.2811, 936.0574
574.7632, 925.8959
575.2453, 915.3804
575.7274, 901.8687
576.2095, 887.6010
576.6917, 877.7044
577.1738, 876.5325
577.6559, 872.3602
578.1380, 859.9905
578.6201, 840.3606
579.1022, 829.6451
579.5844, 829.3211
580.0665, 832.4059
580.5486, 833.5779
581.0307, 833.3174
581.5128, 835.0773
581.9949, 839.4269
582.4771, 845.1993
582.9592, 850.5690
583.4413, 856.2156
583.9234, 863.8196
584.4055, 875.7598
584.8876, 888.6086
585.3698, 903.3405
585.8519, 918.1940
586.3340, 923.8861
586.8161, 909.0392
587.2982, 889.4351
587.7803, 873.1985
588.2625, 860.6083
588.7446, 853.3749
589.2267, 858.5632
589.7088, 864.3598
590.1909, 855.9709
590.6730, 824.7725
591.1552, 804.2271
591.6373, 804.1837
592.1194, 815.6942
592.6015, 808.6249
593.0836, 781.4633
593.5657, 760.1155
594.0479, 763.1147
594.5300, 782.0095
595.0121, 796.8571
595.4942, 807.4061
595.9763, 808.3226
596.4584, 784.0565
596.9406, 751.3890
597.4227, 732.7301
597.9048, 740.3531
598.3869, 751.2731
598.8690, 754.8430
599.3511, 754.2296
599.8333, 755.6772
600.3154, 767.2545
600.7975, 773.8719
601.2796, 768.5585
601.7617, 751.7843
602.2438, 744.0140
602.7260, 748.8139
603.2081, 756.4519
603.6902, 759.9182
604.1723, 758.5217
604.6544, 764.1076
605.1365, 779.6281
605.6187, 794.7840
606.1008, 792.9244
606.5829, 777.8258
607.0650, 765.4249
607.5471, 762.3654
608.0292, 762.5617
608.5114, 759.3227
608.9935, 753.3895
609.4756, 747.2933
609.9577, 741.9020
610.4398, 737.2158
610.9219, 733.4423
611.4041, 730.6466
611.8862, 728.0411
612.3683, 729.9404
612.8504, 728.9504
613.3325, 718.8029
613.8146, 690.1597
614.2968, 670.8431
614.7789, 664.6790
615.2610, 666.1708
615.7431, 664.5790
616.2252, 659.4016
616.7073, 656.4359
617.1895, 659.6429
617.6716, 665.7654
618.1537, 663.1989
618.6358, 652.8648
619.1179, 646.6453
619.6000, 658.8801
620.0822, 677.3207
620.5643, 685.8373
621.0464, 680.8904
621.5285, 675.6099
622.0106, 675.3091
