##NAMES=Almandine
##RRUFFID=R100046
##IDEAL CHEMISTRY=Fe^2+^_3_Al_2_(SiO_4_)_3_
##LOCALITY=Altai, Xinjiang Province, China
##OWNER=RRUFF
##SOURCE=William W Pinch
##DESCRIPTION=Red trapezohedron
##STATUS=The identification of this mineral has been confirmed only by single crystal X-ray diffraction.
##URL=rruff.info/R100046
91.53320, 102.8009
92.01532, 104.4293
92.49744, 104.7835
92.97955, 104.8728
93.46167, 103.8790
93.94379, 101.9641
94.42590, 99.97234
94.90802, 97.67602
95.39014, 94.34956
95.87225, 89.66833
96.35437, 85.38371
96.83649, 82.35894
97.31860, 80.02282
97.80072, 77.83794
98.28284, 75.48682
98.76495, 72.94158
99.24707, 70.43236
99.72919, 67.97627
100.2113, 65.53635
100.6934, 63.00985
101.1755, 60.45911
101.6577, 58.03674
102.1398, 55.82624
102.6219, 53.79913
103.1040, 52.15484
103.5861, 50.84629
104.0682, 49.80839
104.5504, 49.05832
105.0325, 48.57523
105.5146, 48.25158
105.9967, 47.96255
106.4788, 47.76379
106.9609, 47.42562
107.4431, 46.97667
107.9252, 46.36743
108.4073, 45.47335
108.8894, 44.18475
109.3715, 42.74944
109.8536, 41.61006
110.3358, 40.77486
110.8179, 40.03783
111.3000, 39.22637
111.7821, 38.36773
112.2642, 37.74256
112.7463, 37.55519
113.2285, 37.61855
113.7106, 37.77300
114.1927, 38.02158
114.6748, 38.27917
115.1569, 38.44871
115.6390, 38.56014
116.1212, 38.48977
116.6033, 38.09240
117.0854, 37.56503
117.5675, 37.07403
118.0496, 36.68525
118.5317, 36.41359
119.0139, 36.33851
119.4960, 36.68087
119.9781, 37.00409
120.4602, 37.18086
120.9423, 37.28327
121.4244, 37.47418
121.9066, 37.91156
122.3887, 38.64205
122.8708, 38.92509
123.3529, 38.47682
123.8350, 37.95012
124.3171, 37.58028
124.7993, 37.40643
125.2814, 37.41935
125.7635, 37.66026
126.2456, 38.20799
126.7277, 38.51963
127.2098, 38.38648
127.6920, 38.10277
128.1741, 37.96302
128.6562, 38.02703
129.1383, 38.22485
129.6204, 38.57588
130.1025, 39.06630
130.5847, 39.38441
131.0668, 39.27435
131.5489, 38.86366
132.0310, 38.59645
132.5131, 38.58982
132.9952, 38.74475
133.4774, 38.97485
133.9595, 39.27633
134.4416, 39.59638
134.9237, 39.85401
135.4058, 40.02259
135.8879, 40.32763
136.3701, 41.04256
136.8522, 41.76143
137.3343, 42.25365
137.8164, 42.46395
138.2985, 42.47990
138.7806, 42.42794
139.2628, 42.20536
139.7449, 42.11284
140.2270, 42.27464
140.7091, 42.51121
141.1912, 42.62014
141.6733, 42.51052
142.1555, 42.29985
142.6376, 42.39608
143.1197, 43.18304
143.6018, 43.86944
144.0839, 44.38914
144.5660, 44.75279
145.0482, 44.95898
145.5303, 44.98238
146.0124, 44.86606
146.4945, 44.94091
146.9766, 45.21155
147.4587, 45.61456
147.9409, 46.16689
148.4230, 46.84668
148.9051, 47.56907
149.3872, 48.30279
149.8693, 49.03119
150.3514, 49.70811
150.8336, 50.15426
151.3157, 50.65759
151.7978, 51.56990
152.2799, 52.96311
152.7620, 54.33446
153.2441, 55.21993
153.7263, 55.82403
154.2084, 56.48315
154.6905, 57.33411
155.1726, 58.30407
155.6547, 59.23465
156.1368, 60.08929
156.6190, 60.96497
157.1011, 61.94342
157.5832, 62.97873
158.0653, 63.99184
158.5474, 64.90237
159.0295, 65.72315
159.5117, 66.62204
159.9938, 67.58172
160.4759, 68.66296
160.9580, 69.91463
161.4401, 71.30659
161.9222, 72.77543
162.4044, 74.33382
162.8865, 76.08974
163.3686, 77.31228
163.8507, 77.05332
164.3328, 77.10905
164.8149, 78.43932
165.2971, 80.99067
165.7792, 83.97380
166.2613, 86.51042
166.7434, 88.45269
167.2255, 90.27436
167.7076, 92.63655
168.1898, 94.48422
168.6719, 95.06498
169.1540, 94.23577
169.6361, 92.35304
170.1182, 89.85062
170.6003, 86.56189
171.0825, 82.94691
171.5646, 78.68394
172.0467, 74.24197
172.5288, 70.08707
173.0109, 66.33114
173.4930, 62.99895
173.9752, 60.28456
174.4573, 58.22799
174.9394, 56.17796
175.4215, 53.79965
175.9036, 51.28111
176.3857, 49.05005
176.8679, 47.19551
177.3500, 45.71535
177.8321, 44.63588
178.3142, 43.98153
178.7963, 43.33017
179.2784, 42.35020
179.7606, 41.09063
180.2427, 40.02485
180.7248, 39.37598
181.2069, 38.89716
181.6890, 38.33543
182.1711, 37.66396
182.6533, 37.07886
183.1354, 36.86216
183.6175, 37.08616
184.0996, 37.10534
184.5817, 36.47236
185.0638, 35.76796
185.5460, 35.31011
186.0281, 35.16929
186.5102, 35.24286
186.9923, 35.41058
187.4744, 35.70385
187.9565, 36.01249
188.4387, 36.29928
188.9208, 36.60771
189.4029, 36.97117
189.8850, 37.40088
190.3671, 37.87475
190.8492, 38.35359
191.3314, 38.77853
191.8135, 39.31178
192.2956, 40.09705
192.7777, 40.91282
193.2598, 41.54071
193.7419, 41.89701
194.2241, 42.09304
194.7062, 42.39575
195.1883, 42.80526
195.6704, 43.34833
196.1525, 44.06302
196.6346, 44.89799
197.1168, 45.82763
197.5989, 46.84678
198.0810, 47.89573
198.5631, 48.79256
199.0452, 49.38023
199.5273, 50.03483
200.0095, 50.82716
200.4916, 51.72144
200.9737, 52.68330
201.4558, 53.72013
201.9379, 54.78119
202.4200, 55.70964
202.9022, 56.28076
203.3843, 57.10118
203.8664, 58.46225
204.3485, 60.25114
204.8306, 62.16355
205.3127, 64.09924
205.7949, 66.05700
206.2770, 68.05405
206.7591, 70.23391
207.2412, 72.18083
207.7233, 73.48057
208.2054, 74.24967
208.6876, 75.20814
209.1697, 76.83921
209.6518, 78.65842
210.1339, 79.96082
210.6160, 80.63982
211.0981, 81.01675
211.5803, 81.32478
212.0624, 81.56407
212.5445, 81.66243
213.0266, 81.61147
213.5087, 81.37418
213.9908, 80.94209
214.4730, 80.32671
214.9551, 79.45341
215.4372, 78.21928
215.9193, 76.58840
216.4014, 74.79126
216.8836, 72.66029
217.3657, 70.50499
217.8478, 68.52842
218.3299, 66.79028
218.8120, 65.16779
219.2941, 63.49911
219.7763, 61.74323
220.2584, 60.08341
220.7405, 58.56207
221.2226, 57.12499
221.7047, 55.69200
222.1868, 54.24995
222.6690, 52.93036
223.1511, 52.02672
223.6332, 51.89164
224.1153, 51.33991
224.5974, 49.91471
225.0795, 48.32243
225.5617, 47.05748
226.0438, 46.26202
226.5259, 45.75957
227.0080, 45.23479
227.4901, 44.55143
227.9722, 44.12593
228.4544, 44.21857
228.9365, 44.38624
229.4186, 44.29005
229.9007, 43.83607
230.3828, 43.15625
230.8649, 42.47522
231.3471, 41.75452
231.8292, 41.09579
232.3113, 40.41097
232.7934, 39.83105
233.2755, 39.51601
233.7576, 39.49495
234.2398, 39.59517
234.7219, 39.53229
235.2040, 39.18737
235.6861, 38.87378
236.1682, 38.58864
236.6503, 38.33472
237.1325, 38.11418
237.6146, 37.92861
238.0967, 37.78367
238.5788, 37.70388
239.0609, 37.78006
239.5430, 37.69190
240.0252, 37.31880
240.5073, 36.83079
240.9894, 36.36889
241.4715, 35.96540
241.9536, 35.64043
242.4357, 35.42979
242.9179, 35.35415
243.4000, 35.31445
243.8821, 35.35918
244.3642, 35.40986
244.8463, 35.40101
245.3284, 35.32217
245.8106, 35.13518
246.2927, 34.68682
246.7748, 33.95118
247.2569, 33.55995
247.7390, 34.00030
248.2211, 34.66351
248.7033, 34.71505
249.1854, 33.96724
249.6675, 33.11500
250.1496, 32.94878
250.6317, 33.35483
251.1138, 33.58990
251.5960, 33.30882
252.0781, 32.85632
252.5602, 32.72001
253.0423, 32.99004
253.5244, 33.30886
254.0065, 33.35781
254.4887, 33.20927
254.9708, 33.03677
255.4529, 32.83554
255.9350, 32.65330
256.4171, 32.59992
256.8992, 32.71883
257.3813, 32.78117
257.8635, 32.48264
258.3456, 32.02327
258.8277, 31.74951
259.3098, 31.83889
259.7919, 32.12077
260.2740, 32.38423
260.7562, 32.64178
261.2383, 32.82553
261.7204, 32.92301
262.2025, 32.91482
262.6846, 32.73448
263.1667, 32.28738
263.6489, 31.75186
264.1310, 31.36042
264.6131, 31.11928
265.0952, 30.99630
265.5773, 31.10140
266.0594, 31.27096
266.5416, 31.33890
267.0237, 31.23667
267.5058, 31.08555
267.9879, 31.04503
268.4700, 31.12941
268.9521, 31.26104
269.4343, 31.42574
269.9164, 31.62361
270.3985, 31.88386
270.8806, 32.22202
271.3627, 32.54020
271.8448, 32.70665
272.3270, 32.69833
272.8091, 32.66122
273.2912, 32.51730
273.7733, 32.42714
274.2554, 32.56755
274.7375, 32.95564
275.2197, 33.32259
275.7018, 33.30497
276.1839, 32.82060
276.6660, 32.48720
277.1481, 32.52001
277.6302, 32.63887
278.1124, 32.72724
278.5945, 32.77129
279.0766, 32.80586
279.5587, 32.88720
280.0408, 33.03147
280.5229, 33.07766
281.0051, 32.77306
281.4872, 32.58438
281.9693, 32.73848
282.4514, 33.19745
282.9335, 33.79147
283.4156, 34.47227
283.8978, 35.25014
284.3799, 35.62398
284.8620, 35.15564
285.3441, 34.69751
285.8262, 34.51757
286.3083, 34.57668
286.7905, 34.74570
287.2726, 34.94152
287.7547, 35.16608
288.2368, 35.44315
288.7189, 35.88125
289.2010, 36.23869
289.6832, 36.42842
290.1653, 36.50243
290.6474, 36.50548
291.1295, 36.42974
291.6116, 36.35639
292.0938, 36.66362
292.5759, 37.86635
293.0580, 38.69844
293.5401, 38.67968
294.0222, 38.28673
294.5043, 38.02643
294.9865, 38.12298
295.4686, 38.48976
295.9507, 38.93394
296.4328, 39.51873
296.9149, 40.06883
297.3970, 40.52814
297.8792, 40.96721
298.3613, 41.47817
298.8434, 42.08141
299.3255, 42.66705
299.8076, 43.02318
300.2897, 42.98448
300.7719, 43.09186
301.2540, 43.31631
301.7361, 43.70583
302.2182, 44.36709
302.7003, 45.27794
303.1824, 46.25575
303.6646, 47.07789
304.1467, 47.68499
304.6288, 48.34061
305.1109, 48.94841
305.5930, 49.68712
306.0751, 50.69368
306.5573, 51.92741
307.0394, 53.22108
307.5215, 54.40015
308.0036, 55.44965
308.4857, 56.71371
308.9678, 58.26041
309.4500, 59.97260
309.9321, 61.92962
310.4142, 64.03701
310.8963, 66.11034
311.3784, 68.02345
311.8605, 69.81107
312.3427, 71.72016
312.8248, 74.25315
313.3069, 76.31182
313.7890, 77.62852
314.2711, 78.39310
314.7532, 78.86117
315.2354, 79.15331
315.7175, 79.23911
316.1996, 79.00284
316.6817, 78.18066
317.1638, 77.43726
317.6459, 76.70261
318.1281, 76.14348
318.6102, 75.88559
319.0923, 75.97435
319.5744, 76.41421
320.0565, 77.25718
320.5386, 78.68762
321.0208, 80.10751
321.5029, 81.28538
321.9850, 82.59529
322.4671, 84.32811
322.9492, 86.48874
323.4313, 88.81174
323.9135, 90.96677
324.3956, 92.81255
324.8777, 95.22097
325.3598, 98.72404
325.8419, 102.3033
326.3240, 105.5528
326.8062, 108.5530
327.2883, 111.6869
327.7704, 115.3601
328.2525, 119.5029
328.7346, 122.9796
329.2167, 125.1362
329.6989, 127.3441
330.1810, 129.9404
330.6631, 132.8029
331.1452, 135.7275
331.6273, 138.6194
332.1094, 141.4651
332.5916, 144.1828
333.0737, 146.5068
333.5558, 149.1838
334.0379, 152.1784
334.5200, 155.6079
335.0021, 159.5444
335.4843, 164.0229
335.9664, 169.0195
336.4485, 174.4114
336.9306, 180.0765
337.4127, 186.5783
337.8948, 194.3044
338.3770, 202.5964
338.8591, 210.9170
339.3412, 219.3481
339.8233, 228.4629
340.3055, 238.9729
340.7876, 250.9163
341.2697, 263.4519
341.7518, 276.7927
342.2339, 290.5088
342.7160, 304.6486
343.1982, 319.0603
343.6803, 333.6260
344.1624, 348.7063
344.6445, 363.8069
345.1266, 376.5399
345.6087, 387.1750
346.0909, 394.6139
346.5730, 399.1876
347.0551, 400.7908
347.5372, 399.3055
348.0193, 394.6920
348.5014, 386.9355
348.9836, 375.5756
349.4657, 359.9903
349.9478, 343.0231
350.4299, 324.3076
350.9120, 305.1138
351.3941, 286.0976
351.8763, 267.4470
352.3584, 249.6295
352.8405, 233.1667
353.3226, 217.9930
353.8047, 204.2500
354.2868, 192.3771
354.7690, 181.6612
355.2511, 171.5439
355.7332, 162.0500
356.2153, 153.5398
356.6974, 146.2729
357.1795, 140.1725
357.6617, 135.0518
358.1438, 131.2548
358.6259, 127.8057
359.1080, 123.9765
359.5901, 120.1513
360.0722, 116.9484
360.5544, 114.6144
361.0365, 112.9737
361.5186, 111.8966
362.0007, 111.4581
362.4828, 111.0199
362.9649, 110.0472
363.4471, 109.1179
363.9292, 108.9359
364.4113, 109.6797
364.8934, 110.6938
365.3755, 111.4948
365.8576, 112.1315
366.3398, 112.8825
366.8219, 113.8554
367.3040, 114.9046
367.7861, 115.8899
368.2682, 116.8161
368.7503, 117.7106
369.2325, 118.7051
369.7146, 119.6447
370.1967, 120.3332
370.6788, 120.7903
371.1609, 120.7863
371.6430, 120.1236
372.1252, 118.8258
372.6073, 116.9996
373.0894, 114.4109
373.5715, 111.4945
374.0536, 108.4755
374.5357, 105.3988
375.0179, 102.5169
375.5000, 100.1674
375.9821, 97.92300
376.4642, 94.72017
376.9463, 90.26268
377.4284, 85.72293
377.9106, 81.34600
378.3927, 77.22091
378.8748, 73.55453
379.3569, 70.42458
379.8390, 67.58834
380.3211, 64.72652
380.8033, 61.81367
381.2854, 59.07433
381.7675, 56.58509
382.2496, 54.24918
382.7317, 51.95692
383.2138, 49.71841
383.6960, 47.66127
384.1781, 45.88908
384.6602, 44.39106
385.1423, 42.88033
385.6244, 41.09097
386.1065, 39.57873
386.5887, 38.71611
387.0708, 38.22562
387.5529, 37.64278
388.0350, 36.76414
388.5171, 35.68770
388.9992, 34.61734
389.4814, 33.41905
389.9635, 32.45951
390.4456, 31.84112
390.9277, 31.38835
391.4098, 31.02151
391.8919, 30.69614
392.3741, 30.32370
392.8562, 29.81057
393.3383, 29.14081
393.8204, 28.43181
394.3025, 27.54774
394.7846, 26.76600
395.2668, 26.19032
395.7489, 25.78380
396.2310, 25.47278
396.7131, 25.21761
397.1952, 25.01451
397.6773, 24.86759
398.1595, 24.93529
398.6416, 24.78069
399.1237, 24.10874
399.6058, 23.36425
400.0879, 22.97405
400.5700, 23.01633
401.0522, 23.17899
401.5343, 23.04295
402.0164, 22.52891
402.4985, 22.19577
402.9806, 22.27853
403.4627, 22.34521
403.9449, 22.08881
404.4270, 21.65503
404.9091, 21.46765
405.3912, 21.97785
405.8733, 22.82994
406.3554, 22.78263
406.8376, 21.39092
407.3197, 20.20943
407.8018, 20.03402
408.2839, 20.29671
408.7660, 20.47866
409.2481, 20.46356
409.7303, 20.33487
410.2124, 20.13529
410.6945, 19.87252
411.1766, 19.65813
411.6587, 19.50939
412.1408, 19.42813
412.6230, 19.42880
413.1051, 19.50095
413.5872, 19.56940
414.0693, 19.67781
414.5514, 19.73557
415.0335, 19.54423
415.5157, 19.06971
415.9978, 18.59750
416.4799, 18.27314
416.9620, 18.10636
417.4441, 18.08843
417.9262, 18.34158
418.4084, 18.58088
418.8905, 18.61825
419.3726, 18.51565
419.8547, 18.44413
420.3368, 18.47426
420.8189, 18.51575
421.3011, 18.40851
421.7832, 18.11252
422.2653, 17.84918
422.7474, 17.57115
423.2295, 17.38308
423.7116, 17.46774
424.1938, 17.78480
424.6759, 18.00094
425.1580, 17.80676
425.6401, 17.24444
426.1222, 17.10710
426.6043, 17.81903
427.0865, 18.39322
427.5686, 18.53781
428.0507, 18.41371
428.5328, 18.23283
429.0149, 18.07907
429.4970, 17.94996
429.9792, 17.83057
430.4613, 17.65703
430.9434, 17.64371
431.4255, 18.02102
431.9076, 18.33037
432.3897, 18.23547
432.8719, 17.81738
433.3540, 17.41603
433.8361, 17.31037
434.3182, 17.45204
434.8003, 17.47961
435.2824, 17.27220
435.7646, 17.13728
436.2467, 17.19802
436.7288, 17.33810
437.2109, 17.42157
437.6930, 17.40495
438.1751, 17.38571
438.6573, 17.52398
439.1394, 17.83877
439.6215, 18.03852
440.1036, 18.04386
440.5857, 17.96281
441.0678, 17.84319
441.5500, 17.69816
442.0321, 17.56883
442.5142, 17.42495
442.9963, 17.32916
443.4784, 17.43512
443.9605, 17.77099
444.4427, 18.09607
444.9248, 18.34229
445.4069, 18.46937
445.8890, 18.39626
446.3711, 18.03548
446.8532, 17.71005
447.3354, 17.59745
447.8175, 17.64920
448.2996, 17.79445
448.7817, 18.03465
449.2638, 18.25219
449.7459, 18.28274
450.2281, 18.11151
450.7102, 18.09082
451.1923, 18.34477
451.6744, 18.65374
452.1565, 18.89585
452.6386, 19.07800
453.1208, 19.24493
453.6029, 19.42197
454.0850, 19.59526
454.5671, 19.72699
455.0492, 19.87823
455.5313, 19.89286
456.0135, 19.50678
456.4956, 19.15938
456.9777, 19.28702
457.4598, 19.88651
457.9419, 20.57196
458.4240, 20.98868
458.9062, 21.13297
459.3883, 21.19576
459.8704, 21.02302
460.3525, 20.94419
460.8346, 21.05821
461.3167, 21.29573
461.7989, 21.57532
462.2810, 21.86773
462.7631, 22.16971
463.2452, 22.48133
463.7273, 22.80645
464.2094, 23.11819
464.6916, 23.41887
465.1737, 23.69749
465.6558, 23.83538
466.1379, 23.91961
466.6200, 24.25618
467.1021, 25.19224
467.5843, 26.40916
468.0664, 27.25785
468.5485, 27.70801
469.0306, 28.01352
469.5127, 28.11725
469.9948, 28.24930
470.4770, 28.77025
470.9591, 29.77509
471.4412, 30.85605
471.9233, 31.84692
472.4054, 32.76884
472.8875, 33.61703
473.3697, 34.38343
473.8518, 35.19258
474.3339, 36.14273
474.8160, 37.24379
475.2981, 38.48509
475.7802, 39.96268
476.2624, 41.46923
476.7445, 43.18367
477.2266, 44.82624
477.7087, 45.82148
478.1908, 45.94385
478.6729, 45.53485
479.1551, 45.22323
479.6372, 45.22196
480.1193, 44.78378
480.6014, 43.67921
481.0835, 42.40414
481.5656, 41.11036
482.0478, 39.88237
482.5299, 38.83886
483.0120, 38.07470
483.4941, 37.52363
483.9762, 36.94050
484.4583, 36.19868
484.9405, 35.69538
485.4226, 35.64777
485.9047, 35.75061
486.3868, 35.73508
486.8689, 35.58330
487.3510, 35.53993
487.8332, 35.81431
488.3153, 36.37235
488.7974, 37.04480
489.2795, 37.78540
489.7616, 38.74032
490.2437, 40.06813
490.7259, 41.65783
491.2080, 43.39211
491.6901, 45.22998
492.1722, 47.22692
492.6543, 49.38134
493.1364, 51.71743
493.6186, 54.23438
494.1007, 56.90503
494.5828, 59.99289
495.0649, 63.91541
495.5470, 68.77110
496.0291, 73.52725
496.5113, 77.91734
496.9934, 82.44273
497.4755, 87.71290
497.9576, 93.35511
498.4397, 98.58653
498.9218, 103.0258
499.4040, 106.6251
499.8861, 109.2526
500.3682, 111.2632
500.8503, 111.4382
501.3324, 109.5078
501.8145, 106.2117
502.2967, 101.6229
502.7788, 96.03047
503.2609, 89.94510
503.7430, 83.59507
504.2251, 77.12569
504.7072, 71.14980
505.1894, 65.65200
505.6715, 60.64260
506.1536, 56.14554
506.6357, 52.09846
507.1178, 48.50372
507.5999, 45.35926
508.0821, 42.65665
508.5642, 40.38530
509.0463, 38.55361
509.5284, 37.32152
510.0105, 36.86176
510.4926, 36.27492
510.9748, 34.78826
511.4569, 32.84544
511.9390, 31.51617
512.4211, 31.17567
512.9032, 30.88143
513.3853, 30.02276
513.8674, 28.94499
514.3495, 28.31806
514.8317, 28.28490
515.3138, 28.38335
515.7959, 28.12588
516.2780, 27.47430
516.7601, 27.03513
517.2422, 26.91123
517.7244, 26.84533
518.2065, 26.80073
518.6886, 26.74346
519.1707, 26.61552
519.6528, 26.40140
520.1349, 26.17297
520.6171, 26.06647
521.0992, 26.14907
521.5813, 26.07847
522.0634, 25.58602
522.5455, 25.20773
523.0276, 25.20047
523.5098, 25.43907
523.9919, 25.68766
524.4740, 25.85566
524.9561, 25.95431
525.4382, 25.99138
525.9203, 25.96585
526.4025, 25.90965
526.8846, 25.78829
527.3667, 25.69513
527.8488, 25.70923
528.3309, 25.82375
528.8130, 26.01787
529.2952, 26.36317
529.7773, 26.72567
530.2594, 26.92261
530.7415, 27.00718
531.2236, 27.26160
531.7057, 27.84707
532.1879, 28.56047
532.6700, 28.99859
533.1521, 28.98083
533.6342, 29.09805
534.1163, 29.37015
534.5984, 29.77051
535.0806, 30.31728
535.5627, 30.97924
536.0448, 31.69809
536.5269, 32.44059
537.0090, 33.18921
537.4911, 33.86054
537.9733, 34.36271
538.4554, 35.00710
538.9375, 35.79849
539.4196, 36.75909
539.9017, 37.99266
540.3839, 39.44189
540.8660, 40.86894
541.3481, 42.08725
541.8302, 43.20153
542.3123, 44.46487
542.7944, 45.89500
543.2766, 47.28269
543.7587, 48.41125
544.2408, 49.57209
544.7229, 51.16169
545.2050, 53.20259
545.6871, 55.41294
546.1693, 57.69304
546.6514, 60.08854
547.1335, 62.62913
547.6156, 65.32624
548.0977, 68.27282
548.5798, 71.52299
549.0620, 75.06770
549.5441, 78.84588
550.0262, 82.98045
550.5083, 87.19899
550.9904, 91.38444
551.4725, 95.74702
551.9547, 100.7546
552.4368, 106.1576
552.9189, 111.1213
553.4010, 114.9719
553.8831, 117.9148
554.3652, 120.7765
554.8474, 123.8134
555.3295, 126.0861
555.8116, 127.7685
556.2937, 128.2775
556.7758, 126.9321
557.2579, 123.7700
557.7401, 119.6717
558.2222, 114.8725
558.7043, 109.5911
559.1864, 104.0246
559.6685, 98.20918
560.1506, 92.38960
560.6328, 86.64074
561.1149, 81.05987
561.5970, 75.76719
562.0791, 70.73302
562.5612, 66.06240
563.0433, 61.79649
563.5255, 57.89939
564.0076, 54.28619
564.4897, 50.98395
564.9718, 48.06988
565.4539, 45.60619
565.9360, 43.52132
566.4182, 41.61427
566.9003, 39.96792
567.3824, 38.32300
567.8645, 36.49891
568.3466, 34.80088
568.8287, 33.44569
569.3109, 32.39751
569.7930, 31.51037
570.2751, 30.69984
570.7572, 29.97412
571.2393, 29.34447
571.7214, 28.80868
572.2036, 28.42417
572.6857, 28.29067
573.1678, 28.23612
573.6499, 28.05944
574.1320, 27.76544
574.6141, 27.44369
575.0963, 26.94778
575.5784, 26.57083
576.0605, 26.64721
576.5426, 27.07636
577.0247, 27.50994
577.5068, 27.79177
577.9890, 27.97692
578.4711, 28.14752
578.9532, 28.19097
579.4353, 28.52477
579.9174, 29.42946
580.3995, 30.30743
580.8817, 30.79111
581.3638, 31.04564
581.8459, 31.47244
582.3280, 32.28810
582.8101, 33.13472
583.2922, 33.39324
583.7744, 33.02477
584.2565, 32.63998
584.7386, 32.43393
585.2207, 32.04493
585.7029, 31.15689
586.1850, 29.90178
586.6671, 28.58388
587.1492, 27.12412
587.6313, 25.81763
588.1135, 24.93081
588.5956, 24.35363
589.0777, 23.84746
589.5598, 23.35439
590.0419, 22.88080
