##NAMES=Almandine
##RRUFFID=R040168
##IDEAL CHEMISTRY=Fe^2+^_3_Al_2_(SiO_4_)_3_
##LOCALITY=Pocos Dos Cavatos, Ceara, Brazil
##OWNER=RRUFF
##SOURCE=University of Arizona Mineral Museum
##DESCRIPTION=Dark red etched single crystal
##STATUS=The identification of this mineral has been confirmed by X-ray diffraction and chemical analysis
##URL=rruff.info/R040168
##MEASURED CHEMISTRY=(Fe^2+^_1.48_Mn_1.47_Ca_0.05_)_Î£=3_Al_2.00_(Si_1.00_O_4_)_3_; trace amounts of Ti and Y
124.5917, 22.40697
125.0739, 23.07276
125.5560, 22.93397
126.0381, 22.71519
126.5202, 23.95757
127.0023, 27.45495
127.4844, 32.05564
127.9666, 36.36048
128.4487, 40.36133
128.9308, 43.42752
129.4129, 44.14359
129.8950, 43.05153
130.3772, 42.92165
130.8593, 44.95200
131.3414, 48.55677
131.8235, 51.92212
132.3056, 55.10859
132.7877, 57.65621
133.2699, 58.30044
133.7520, 56.91831
134.2341, 56.58799
134.7162, 59.11185
135.1983, 64.50275
135.6804, 68.62530
136.1626, 70.96072
136.6447, 72.67171
137.1268, 76.22852
137.6089, 82.13213
138.0910, 88.02600
138.5731, 92.84573
139.0553, 96.80358
139.5374, 98.92326
140.0195, 98.78709
140.5016, 96.81284
140.9837, 94.35072
141.4658, 90.59496
141.9480, 87.58075
142.4301, 86.99543
142.9122, 90.38919
143.3943, 92.89986
143.8764, 93.76253
144.3585, 93.00666
144.8407, 92.28430
145.3228, 90.80371
145.8049, 89.96899
146.2870, 91.17363
146.7691, 95.69022
147.2512, 100.5594
147.7334, 105.4608
148.2155, 110.6736
148.6976, 114.8390
149.1797, 116.1951
149.6618, 117.0218
150.1439, 120.3001
150.6261, 128.8341
151.1082, 137.2653
151.5903, 144.0775
152.0724, 148.3216
152.5545, 152.9585
153.0366, 157.5850
153.5188, 162.7424
154.0009, 169.4647
154.4830, 180.0328
154.9651, 190.6804
155.4472, 199.7439
155.9293, 205.5124
156.4115, 211.8632
156.8936, 219.6259
157.3757, 228.6023
157.8578, 238.1969
158.3399, 246.2673
158.8221, 256.0217
159.3042, 269.6346
159.7863, 290.7183
160.2684, 312.7000
160.7505, 331.9349
161.2326, 349.3341
161.7148, 370.6234
162.1969, 402.9467
162.6790, 438.6630
163.1611, 469.9932
163.6432, 499.1709
164.1253, 519.8948
164.6075, 529.8895
165.0896, 529.1093
165.5717, 515.6505
166.0538, 478.5002
166.5359, 429.6543
167.0180, 386.2380
167.5002, 357.0378
167.9823, 334.4735
168.4644, 312.7291
168.9465, 291.0587
169.4286, 272.4486
169.9107, 259.9026
170.3929, 252.1324
170.8750, 246.1029
171.3571, 241.2026
171.8392, 236.9403
172.3213, 232.9674
172.8034, 229.4503
173.2856, 225.6659
173.7677, 220.0892
174.2498, 213.4028
174.7319, 208.0396
175.2140, 207.1968
175.6961, 208.2011
176.1783, 206.5603
176.6604, 200.3669
177.1425, 193.3088
177.6246, 190.4686
178.1067, 191.2968
178.5888, 192.0373
179.0710, 189.8840
179.5531, 185.6563
180.0352, 180.9774
180.5173, 175.7097
180.9994, 170.7608
181.4815, 168.5277
181.9637, 168.8909
182.4458, 168.7270
182.9279, 164.4094
183.4100, 157.0618
183.8921, 150.8624
184.3742, 147.2275
184.8564, 145.3946
185.3385, 144.1411
185.8206, 143.5380
186.3027, 142.5211
186.7848, 139.5011
187.2669, 134.7773
187.7491, 130.5245
188.2312, 127.4045
188.7133, 125.3479
189.1954, 124.0657
189.6775, 123.5684
190.1596, 123.8515
190.6418, 125.3213
191.1239, 127.9357
191.6060, 130.2309
192.0881, 131.6246
192.5702, 132.1701
193.0524, 132.1796
193.5345, 131.4939
194.0166, 130.6866
194.4987, 130.7380
194.9808, 131.7008
195.4629, 132.7291
195.9451, 133.4179
196.4272, 133.7827
196.9093, 133.8914
197.3914, 133.3290
197.8735, 133.1665
198.3556, 136.0424
198.8378, 142.4566
199.3199, 148.6537
199.8020, 152.0577
200.2841, 152.3551
200.7662, 154.2684
201.2483, 158.5424
201.7305, 164.1430
202.2126, 168.3499
202.6947, 170.7708
203.1768, 173.2630
203.6589, 177.1522
204.1410, 182.6586
204.6232, 187.6384
205.1053, 191.5518
205.5874, 194.9690
206.0695, 199.8831
206.5516, 206.6031
207.0337, 214.0086
207.5159, 221.1907
207.9980, 227.6676
208.4801, 235.6028
208.9622, 245.4789
209.4443, 257.0053
209.9264, 268.8530
210.4086, 281.1334
210.8907, 293.5635
211.3728, 305.4622
211.8549, 316.2952
212.3370, 329.0793
212.8191, 345.8473
213.3013, 365.4826
213.7834, 379.4840
214.2655, 386.4263
214.7476, 390.0392
215.2297, 393.4501
215.7118, 397.1929
216.1940, 399.2386
216.6761, 398.6960
217.1582, 395.7231
217.6403, 394.4445
218.1224, 397.0546
218.6045, 398.4587
219.0867, 393.0227
219.5688, 377.6869
220.0509, 362.8336
220.5330, 351.2171
221.0151, 342.7849
221.4972, 332.7546
221.9794, 320.2878
222.4615, 307.0657
222.9436, 294.3662
223.4257, 281.1369
223.9078, 270.6479
224.3899, 264.9196
224.8721, 264.5304
225.3542, 259.9117
225.8363, 248.4780
226.3184, 235.2311
226.8005, 226.1520
227.2827, 223.4458
227.7648, 220.8632
228.2469, 217.0306
228.7290, 211.9309
229.2111, 205.5616
229.6932, 196.2974
230.1754, 187.1540
230.6575, 182.3959
231.1396, 184.7641
231.6217, 186.7289
232.1038, 186.0228
232.5859, 181.9928
233.0681, 178.8179
233.5502, 176.8164
234.0323, 175.4490
234.5144, 174.0022
234.9965, 172.7833
235.4786, 170.9517
235.9608, 167.9324
236.4429, 163.2170
236.9250, 159.9037
237.4071, 158.5565
237.8892, 158.2898
238.3713, 157.7199
238.8535, 156.6658
239.3356, 155.6127
239.8177, 154.7367
240.2998, 154.1165
240.7819, 153.3306
241.2640, 152.1474
241.7462, 150.9204
242.2283, 150.2865
242.7104, 150.5465
243.1925, 150.9100
243.6746, 151.1808
244.1567, 151.4491
244.6389, 151.2346
245.1210, 150.1110
245.6031, 148.7581
246.0852, 148.5659
246.5673, 150.5667
247.0494, 151.9636
247.5316, 151.6301
248.0137, 148.9684
248.4958, 146.5006
248.9779, 143.9103
249.4600, 141.7087
249.9421, 141.0372
250.4243, 142.6540
250.9064, 144.4358
251.3885, 145.6833
251.8706, 146.3976
252.3527, 146.4430
252.8348, 145.2204
253.3170, 143.6985
253.7991, 143.9410
254.2812, 146.9746
254.7633, 149.8062
255.2454, 151.4164
255.7275, 151.7525
256.2097, 150.7242
256.6918, 147.1234
257.1739, 142.9980
257.6560, 142.8357
258.1381, 149.4061
258.6202, 154.1884
259.1024, 152.9506
259.5845, 143.2199
260.0666, 138.0701
260.5487, 139.1767
261.0308, 143.6091
261.5129, 146.0989
261.9951, 146.1158
262.4772, 145.3937
262.9593, 144.3739
263.4414, 142.8121
263.9235, 142.1061
264.4056, 142.3968
264.8878, 143.4093
265.3699, 144.9186
265.8520, 147.3842
266.3341, 149.0558
266.8162, 148.7533
267.2983, 145.8689
267.7805, 144.9878
268.2626, 146.4500
268.7447, 149.5606
269.2268, 153.7111
269.7089, 159.6107
270.1910, 163.9969
270.6732, 165.5179
271.1553, 163.9708
271.6374, 160.9603
272.1195, 155.7145
272.6016, 150.1309
273.0837, 147.6571
273.5659, 148.7527
274.0480, 150.5161
274.5301, 152.0477
275.0122, 153.3451
275.4943, 153.9832
275.9764, 153.5387
276.4586, 153.2312
276.9407, 155.6423
277.4228, 161.2214
277.9049, 165.3601
278.3870, 165.3363
278.8691, 161.4192
279.3513, 160.1940
279.8334, 162.3181
280.3155, 165.4438
280.7976, 166.0348
281.2798, 163.9493
281.7619, 162.5246
282.2440, 163.1206
282.7261, 165.5280
283.2082, 168.3713
283.6903, 171.7960
284.1725, 175.1205
284.6546, 177.2209
285.1367, 178.1391
285.6188, 179.4841
286.1009, 182.2858
286.5830, 186.0174
287.0652, 188.2541
287.5473, 188.8223
288.0294, 188.8145
288.5115, 189.3691
288.9936, 190.4270
289.4757, 191.3573
289.9579, 190.7975
290.4400, 190.2361
290.9221, 194.9839
291.4042, 205.4400
291.8863, 216.2256
292.3684, 221.1349
292.8506, 221.4321
293.3327, 222.7674
293.8148, 227.8007
294.2969, 234.4702
294.7790, 238.6675
295.2611, 240.4011
295.7433, 241.5431
296.2254, 243.5579
296.7075, 246.2970
297.1896, 249.2729
297.6717, 252.5476
298.1538, 255.8845
298.6360, 258.7272
299.1181, 261.1528
299.6002, 263.7636
300.0823, 267.5356
300.5644, 271.7925
301.0465, 275.1421
301.5287, 276.4639
302.0108, 277.6784
302.4929, 281.9169
302.9750, 288.5424
303.4571, 293.6659
303.9392, 291.9974
304.4214, 288.0808
304.9035, 288.3041
305.3856, 295.5979
305.8677, 305.1364
306.3498, 312.7853
306.8319, 319.0652
307.3141, 325.9964
307.7962, 334.1746
308.2783, 343.7476
308.7604, 355.0818
309.2425, 368.2410
309.7246, 382.6953
310.2068, 399.0123
310.6889, 416.5253
311.1710, 433.6780
311.6531, 450.4592
312.1352, 466.1705
312.6173, 479.3531
313.0995, 488.0115
313.5816, 498.8980
314.0637, 517.1495
314.5458, 539.7796
315.0279, 561.2908
315.5100, 578.8118
315.9922, 595.2371
316.4743, 611.8080
316.9564, 628.4569
317.4385, 646.1365
317.9206, 665.7482
318.4027, 686.4457
318.8849, 707.0465
319.3670, 729.4633
319.8491, 749.7694
320.3312, 765.8126
320.8133, 776.7565
321.2954, 787.9523
321.7776, 806.3842
322.2597, 823.4169
322.7418, 829.8467
323.2239, 818.5668
323.7060, 802.3371
324.1881, 783.2037
324.6703, 761.1210
325.1524, 737.7650
325.6345, 710.5327
326.1166, 683.7708
326.5987, 660.7354
327.0808, 643.3790
327.5630, 627.4648
328.0451, 611.6963
328.5272, 596.2624
329.0093, 585.2580
329.4914, 579.7993
329.9735, 577.9655
330.4557, 578.6755
330.9378, 582.4212
331.4199, 587.8353
331.9020, 594.4444
332.3841, 602.5912
332.8662, 614.1340
333.3484, 629.7880
333.8305, 647.5840
334.3126, 666.0899
334.7947, 683.5067
335.2768, 706.8618
335.7589, 737.8686
336.2411, 774.2039
336.7232, 811.0247
337.2053, 847.8195
337.6874, 885.8439
338.1695, 926.0134
338.6516, 967.9894
339.1338, 1011.208
339.6159, 1053.593
340.0980, 1099.935
340.5801, 1160.982
341.0622, 1239.628
341.5443, 1312.988
342.0265, 1369.923
342.5086, 1412.193
342.9907, 1463.046
343.4728, 1524.080
343.9549, 1585.748
344.4370, 1640.538
344.9192, 1687.234
345.4013, 1715.896
345.8834, 1723.026
346.3655, 1709.153
346.8476, 1672.329
347.3297, 1612.489
347.8119, 1538.522
348.2940, 1454.473
348.7761, 1362.512
349.2582, 1270.812
349.7403, 1177.824
350.2225, 1087.699
350.7046, 1005.311
351.1867, 929.9648
351.6688, 862.0245
352.1509, 800.4258
352.6331, 746.5059
353.1152, 702.6428
353.5973, 670.5775
354.0794, 646.4046
354.5615, 629.0593
355.0436, 617.2601
355.5258, 607.1071
356.0079, 595.5137
356.4900, 585.1526
356.9721, 578.8810
357.4542, 578.1459
357.9363, 578.0796
358.4185, 571.7731
358.9006, 564.7256
359.3827, 566.4514
359.8648, 589.3966
360.3469, 615.1458
360.8290, 633.3135
361.3112, 641.8268
361.7933, 651.9116
362.2754, 665.6600
362.7575, 683.4482
363.2396, 705.7810
363.7217, 735.8945
364.2039, 767.1509
364.6860, 796.8039
365.1681, 824.9040
365.6502, 857.1698
366.1323, 900.6719
366.6144, 944.8964
367.0966, 982.6628
367.5787, 1002.901
368.0608, 1029.662
368.5429, 1069.991
369.0250, 1119.936
369.5071, 1158.361
369.9893, 1182.048
370.4714, 1197.920
370.9535, 1209.110
371.4356, 1215.820
371.9177, 1217.933
372.3998, 1219.209
372.8820, 1213.880
373.3641, 1187.056
373.8462, 1132.170
374.3283, 1073.089
374.8104, 1019.592
375.2925, 971.7906
375.7747, 923.3148
376.2568, 874.4244
376.7389, 823.5396
377.2210, 767.1506
377.7031, 704.6002
378.1852, 646.0590
378.6674, 592.9861
379.1495, 546.3734
379.6316, 509.4847
380.1137, 483.1613
380.5958, 461.7473
381.0779, 442.2821
381.5601, 423.9560
382.0422, 404.1141
382.5243, 381.0705
383.0064, 357.0191
383.4885, 334.6540
383.9706, 313.9394
384.4528, 296.1636
384.9349, 282.9198
385.4170, 272.8514
385.8991, 263.3198
386.3812, 253.6519
386.8633, 245.1142
387.3455, 240.0265
387.8276, 237.0268
388.3097, 232.9022
388.7918, 224.9283
389.2739, 215.9316
389.7560, 208.1556
390.2382, 201.8414
390.7203, 195.9147
391.2024, 189.5351
391.6845, 183.3357
392.1666, 177.9685
392.6487, 173.1340
393.1309, 169.7139
393.6130, 169.3503
394.0951, 171.6116
394.5772, 171.7318
395.0593, 166.4866
395.5414, 159.9907
396.0236, 154.8581
396.5057, 150.7411
396.9878, 148.8290
397.4699, 151.1821
397.9520, 156.1062
398.4341, 158.2995
398.9163, 157.1571
399.3984, 153.8686
399.8805, 148.0329
400.3626, 137.1787
400.8447, 131.4218
401.3268, 133.2790
401.8090, 138.3828
402.2911, 140.5636
402.7732, 138.8502
403.2553, 136.6531
403.7374, 134.6032
404.2195, 132.7384
404.7017, 132.0315
405.1838, 132.9421
405.6659, 133.7608
406.1480, 132.8768
406.6301, 130.2724
407.1122, 126.9910
407.5944, 122.6261
408.0765, 118.2962
408.5586, 116.9986
409.0407, 118.6808
409.5228, 121.2790
410.0049, 124.6540
410.4871, 127.9008
410.9692, 127.6533
411.4513, 122.7209
411.9334, 117.7267
412.4155, 119.0395
412.8976, 124.7517
413.3798, 129.2853
413.8619, 129.6356
414.3440, 127.8715
414.8261, 125.4756
415.3082, 122.5092
415.7903, 120.5771
416.2725, 121.9460
416.7546, 124.4527
417.2367, 125.6598
417.7188, 123.8683
418.2009, 121.6221
418.6830, 119.7200
419.1652, 118.2163
419.6473, 117.3866
420.1294, 118.0387
420.6115, 118.8485
421.0937, 119.1164
421.5758, 118.6406
422.0579, 117.8424
422.5400, 116.6189
423.0221, 115.1381
423.5042, 113.6227
423.9864, 110.7188
424.4685, 109.3444
424.9506, 110.8030
425.4327, 115.4229
425.9148, 118.2578
426.3969, 118.1739
426.8791, 117.5971
427.3612, 119.1542
427.8433, 124.4785
428.3254, 126.6273
428.8075, 123.8271
429.2896, 117.4843
429.7718, 111.9632
430.2539, 107.0629
430.7360, 103.8984
431.2181, 103.7519
431.7002, 106.4137
432.1823, 109.0548
432.6645, 111.7290
433.1466, 113.7423
433.6287, 113.7505
434.1108, 112.0852
434.5929, 110.3382
435.0750, 108.5073
435.5572, 107.3037
436.0393, 109.0824
436.5214, 113.6487
437.0035, 116.8772
437.4856, 113.2567
437.9677, 106.9425
438.4499, 103.9918
438.9320, 107.5165
439.4141, 112.0739
439.8962, 113.8725
440.3783, 113.6826
440.8604, 113.5431
441.3426, 114.8247
441.8247, 116.0512
442.3068, 116.3229
442.7889, 115.3810
443.2710, 114.2607
443.7531, 113.1340
444.2353, 112.0116
444.7174, 110.8849
445.1995, 108.9029
445.6816, 107.8695
446.1637, 108.6780
446.6458, 111.0745
447.1280, 112.3605
447.6101, 111.5566
448.0922, 110.7231
448.5743, 111.0420
449.0564, 113.0021
449.5385, 114.9109
450.0207, 116.9509
450.5028, 118.7106
450.9849, 119.1051
451.4670, 117.7846
451.9491, 116.8590
452.4312, 117.2312
452.9134, 118.7494
453.3955, 120.4169
453.8776, 122.3047
454.3597, 123.8067
454.8418, 123.8330
455.3239, 122.8196
455.8061, 122.5214
456.2882, 123.2466
456.7703, 124.9996
457.2524, 128.2552
457.7345, 132.6896
458.2166, 137.0695
458.6988, 141.0536
459.1809, 144.3630
459.6630, 146.5581
460.1451, 147.5582
460.6272, 147.8891
461.1093, 146.8718
461.5915, 145.6877
462.0736, 145.8339
462.5557, 147.9655
463.0378, 151.3486
463.5199, 156.5853
464.0020, 163.2695
464.4842, 168.6892
464.9663, 171.2513
465.4484, 173.1095
465.9305, 175.2357
466.4126, 176.2417
466.8947, 180.2152
467.3769, 189.4582
467.8590, 200.6340
468.3411, 207.9297
468.8232, 208.2633
469.3053, 210.8808
469.7874, 218.9508
470.2696, 232.1091
470.7517, 243.8962
471.2338, 254.4124
471.7159, 263.1785
472.1980, 269.0137
472.6801, 272.0133
473.1623, 275.4865
473.6444, 280.0380
474.1265, 285.0473
474.6086, 292.0767
475.0907, 299.9612
475.5728, 301.1706
476.0550, 286.9362
476.5371, 265.0901
477.0192, 248.3221
477.5013, 237.0118
477.9834, 227.5137
478.4655, 216.9870
478.9477, 206.5559
479.4298, 197.8729
479.9119, 192.2061
480.3940, 187.2593
480.8761, 180.7206
481.3582, 173.8220
481.8404, 170.2232
482.3225, 174.4392
482.8046, 179.4921
483.2867, 181.7386
483.7688, 179.3617
484.2509, 179.4270
484.7331, 185.2698
485.2152, 192.3966
485.6973, 196.5599
486.1794, 195.1255
486.6615, 195.1387
487.1436, 197.1159
487.6258, 201.2625
488.1079, 209.0912
488.5900, 221.6124
489.0721, 234.9211
489.5542, 246.7566
490.0363, 257.1526
490.5185, 267.7140
491.0006, 277.9176
491.4827, 289.8781
491.9648, 307.8064
492.4470, 330.5192
492.9291, 351.0065
493.4112, 364.2436
493.8933, 375.8100
494.3754, 394.2553
494.8575, 418.9828
495.3397, 445.1101
495.8218, 472.4836
496.3039, 498.5197
496.7860, 519.8039
497.2681, 535.5067
497.7502, 549.1834
498.2324, 566.7386
498.7145, 582.4144
499.1966, 588.7075
499.6787, 580.3923
500.1608, 565.2242
500.6429, 544.6728
501.1251, 518.9009
501.6072, 489.3721
502.0893, 450.3954
502.5714, 412.4409
503.0535, 380.5437
503.5356, 357.4468
504.0178, 333.9330
504.4999, 309.2942
504.9820, 285.0895
505.4641, 262.3548
505.9462, 240.3243
506.4283, 224.3396
506.9105, 217.8147
507.3926, 218.2275
507.8747, 215.8890
508.3568, 210.7059
508.8389, 204.1602
509.3210, 196.1591
509.8032, 187.5647
510.2853, 180.8389
510.7674, 176.5206
511.2495, 173.0799
511.7316, 168.4638
512.2137, 163.5765
512.6959, 160.3159
513.1780, 160.8976
513.6601, 162.1353
514.1422, 161.9592
514.6243, 160.5290
515.1064, 159.1062
515.5886, 157.8142
516.0707, 156.9385
516.5528, 156.8186
517.0349, 158.3522
517.5170, 158.8432
517.9991, 156.8919
518.4813, 154.2038
518.9634, 152.9158
519.4455, 153.4068
519.9276, 154.7705
520.4097, 157.6375
520.8918, 161.3987
521.3740, 161.8093
521.8561, 157.9288
522.3382, 153.8130
522.8203, 151.7676
523.3024, 151.7764
523.7845, 153.9724
524.2667, 159.0259
524.7488, 163.7809
525.2309, 163.3862
525.7130, 159.2973
526.1951, 156.6685
526.6772, 158.4184
527.1594, 161.3917
527.6415, 161.5300
528.1236, 159.4772
528.6057, 158.0667
529.0878, 160.0555
529.5699, 162.5653
530.0521, 162.9262
530.5342, 159.9895
531.0163, 158.6200
531.4984, 162.6442
531.9805, 168.0417
532.4626, 170.5562
532.9448, 165.3918
533.4269, 162.4286
533.9090, 163.7852
534.3911, 168.2536
534.8732, 170.9176
535.3553, 170.6157
535.8375, 170.7447
536.3196, 172.9073
536.8017, 177.2343
537.2838, 181.0938
537.7659, 184.1587
538.2480, 187.9643
538.7302, 195.0494
539.2123, 204.8604
539.6944, 212.8837
540.1765, 217.4709
540.6586, 221.0933
541.1407, 227.5355
541.6229, 236.1703
542.1050, 244.8233
542.5871, 251.1805
543.0692, 257.7936
543.5513, 266.4745
544.0334, 277.2701
544.5156, 290.7890
544.9977, 310.8922
545.4798, 331.7841
545.9619, 348.5266
546.4440, 356.5764
546.9261, 365.8567
547.4083, 377.5613
547.8904, 391.4460
548.3725, 407.1657
548.8546, 427.8203
549.3367, 445.2476
549.8188, 456.2038
550.3010, 461.4715
550.7831, 470.9984
551.2652, 486.2785
551.7473, 500.8779
552.2294, 510.5575
552.7115, 515.4975
553.1937, 516.6422
553.6758, 513.8604
554.1579, 508.1365
554.6400, 502.1342
555.1221, 494.2792
555.6042, 480.0490
556.0864, 454.1955
556.5685, 424.7457
557.0506, 398.3330
557.5327, 374.7011
558.0148, 353.3622
558.4969, 335.0326
558.9791, 318.1319
559.4612, 301.7008
559.9433, 285.4668
560.4254, 270.8841
560.9075, 258.5542
561.3896, 247.8872
561.8718, 238.2213
562.3539, 230.5388
562.8360, 221.9946
563.3181, 211.3370
563.8002, 200.2768
564.2823, 193.5148
564.7645, 192.2524
565.2466, 190.0240
565.7287, 183.1020
566.2108, 173.0543
566.6929, 168.5423
567.1750, 169.8101
567.6572, 171.9078
568.1393, 170.6522
568.6214, 167.2540
569.1035, 164.0765
569.5856, 161.4453
570.0677, 159.1300
570.5499, 155.8536
571.0320, 152.9613
571.5141, 152.5445
571.9962, 159.4227
572.4783, 164.8872
572.9604, 164.5397
573.4426, 159.3877
573.9247, 154.8140
574.4068, 151.2559
574.8889, 148.8816
575.3710, 147.9973
575.8531, 148.9572
576.3353, 149.5624
576.8174, 149.6253
577.2995, 149.6035
577.7816, 149.7987
578.2637, 150.1659
578.7458, 151.4047
579.2280, 153.9045
579.7101, 156.7905
580.1922, 158.5780
580.6743, 159.3593
581.1564, 159.6576
581.6385, 159.1050
582.1207, 158.5329
582.6028, 159.3772
583.0849, 161.4319
583.5670, 163.1420
584.0491, 163.4503
584.5313, 163.1339
585.0134, 162.7513
585.4955, 162.3699
585.9776, 161.9870
586.4597, 160.3832
586.9418, 159.3082
587.4240, 160.8321
587.9061, 166.6388
588.3882, 172.5410
588.8703, 178.8078
589.3524, 184.6915
589.8345, 187.4735
590.3167, 186.2467
590.7988, 185.4364
591.2809, 187.3538
591.7630, 191.3310
592.2451, 194.3378
592.7272, 196.4152
593.2094, 196.5146
593.6915, 193.1512
594.1736, 187.3128
594.6557, 180.2807
595.1378, 171.8431
595.6199, 164.6147
596.1021, 161.2997
596.5842, 160.2797
597.0663, 159.2429
597.5485, 158.8451
598.0306, 156.8147
598.5127, 151.4592
598.9948, 143.6045
599.4769, 136.7220
599.9590, 129.8080
600.4412, 125.2502
600.9233, 124.4950
601.4054, 127.8614
601.8875, 130.1665
602.3696, 131.7451
602.8517, 131.3764
603.3339, 126.2343
603.8160, 116.9227
604.2981, 112.8405
604.7802, 115.9983
605.2623, 121.2642
605.7444, 122.0561
606.2266, 119.6313
606.7087, 117.3161
607.1908, 116.1544
607.6729, 115.7330
608.1550, 115.8311
608.6371, 116.4072
609.1193, 117.3301
609.6014, 118.7481
610.0835, 120.3286
610.5656, 122.2045
611.0477, 124.5879
611.5298, 125.4788
612.0120, 123.2345
612.4941, 121.0671
612.9762, 121.1069
613.4583, 123.7302
613.9404, 127.5208
614.4225, 133.1689
614.9047, 138.6285
615.3868, 140.4109
615.8689, 138.8311
616.3510, 137.8537
616.8331, 138.7108
617.3152, 140.6591
617.7974, 142.7377
618.2795, 144.9544
618.7616, 147.4403
619.2437, 150.7240
