##NAMES=Almandine
##RRUFFID=R050029
##IDEAL CHEMISTRY=Fe^2+^_3_Al_2_(SiO_4_)_3_
##LOCALITY=Barton Garnet mine, Gore Mountain, Warren County, New York, USA
##OWNER=RRUFF
##SOURCE=University of Arizona Mineral Museum
##DESCRIPTION=Reddish brown fragments
##STATUS=The identification of this mineral has been confirmed by X-ray diffraction and chemical analysis
##URL=rruff.info/R050029
##MEASURED CHEMISTRY=(Fe^2+^_1.34_Mg_1.26_Ca_0.37_Mn_0.03_)_Î£=3_Al_2.00_(Si_1.00_O_4_)_3_
133.2699, 358.3002
133.7520, 373.0744
134.2341, 390.7195
134.7162, 411.7497
135.1983, 436.2547
135.6804, 460.7885
136.1626, 486.0348
136.6447, 509.9924
137.1268, 527.9253
137.6089, 538.3535
138.0910, 547.4789
138.5731, 558.6240
139.0553, 572.8699
139.5374, 584.6271
140.0195, 593.2179
140.5016, 599.1150
140.9837, 603.6589
141.4658, 606.4771
141.9480, 608.5985
142.4301, 610.4810
142.9122, 611.4093
143.3943, 613.6310
143.8764, 617.6956
144.3585, 623.5322
144.8407, 629.6539
145.3228, 637.1215
145.8049, 644.0216
146.2870, 648.1614
146.7691, 644.4775
147.2512, 644.6135
147.7334, 651.8460
148.2155, 668.4128
148.6976, 682.3246
149.1797, 691.1151
149.6618, 697.9843
150.1439, 707.0701
150.6261, 721.8587
151.1082, 735.6306
151.5903, 746.5343
152.0724, 753.6910
152.5545, 759.7960
153.0366, 763.1469
153.5188, 765.5984
154.0009, 770.7722
154.4830, 785.3870
154.9651, 798.2739
155.4472, 804.3636
155.9293, 798.6604
156.4115, 792.5623
156.8936, 787.4016
157.3757, 783.3511
157.8578, 780.8923
158.3399, 782.0800
158.8221, 783.8079
159.3042, 784.0416
159.7863, 778.6159
160.2684, 775.2282
160.7505, 778.6555
161.2326, 787.8030
161.7148, 793.9529
162.1969, 791.0011
162.6790, 784.2136
163.1611, 778.7249
163.6432, 777.7787
164.1253, 777.2770
164.6075, 775.8972
165.0896, 773.6215
165.5717, 768.6251
166.0538, 753.3550
166.5359, 735.8655
167.0180, 727.5579
167.5002, 740.7094
167.9823, 759.9838
168.4644, 773.4294
168.9465, 779.4207
169.4286, 784.8232
169.9107, 795.4850
170.3929, 809.2529
170.8750, 821.8741
171.3571, 828.9143
171.8392, 834.5378
172.3213, 843.4587
172.8034, 856.7302
173.2856, 871.4577
173.7677, 886.6658
174.2498, 901.6304
174.7319, 913.6221
175.2140, 918.4064
175.6961, 919.8024
176.1783, 924.5260
176.6604, 936.0569
177.1425, 947.0767
177.6246, 946.9327
178.1067, 936.9830
178.5888, 926.0047
179.0710, 921.2755
179.5531, 920.3046
180.0352, 917.4962
180.5173, 910.6111
180.9994, 902.2313
181.4815, 897.3009
181.9637, 895.6633
182.4458, 893.7885
182.9279, 886.3329
183.4100, 875.4610
183.8921, 869.2913
184.3742, 871.2884
184.8564, 878.9592
185.3385, 887.0189
185.8206, 895.5635
186.3027, 904.1707
186.7848, 913.6689
187.2669, 923.5732
187.7491, 930.4776
188.2312, 931.3792
188.7133, 928.2749
189.1954, 928.7555
189.6775, 933.1991
190.1596, 939.5599
190.6418, 944.5133
191.1239, 948.1677
191.6060, 955.2458
192.0881, 968.9271
192.5702, 988.4510
193.0524, 1008.104
193.5345, 1028.687
194.0166, 1047.221
194.4987, 1056.197
194.9808, 1054.786
195.4629, 1056.368
195.9451, 1070.852
196.4272, 1098.001
196.9093, 1113.255
197.3914, 1112.507
197.8735, 1105.111
198.3556, 1109.002
198.8378, 1125.392
199.3199, 1145.082
199.8020, 1164.025
200.2841, 1182.116
200.7662, 1198.745
201.2483, 1214.194
201.7305, 1227.867
202.2126, 1237.063
202.6947, 1240.272
203.1768, 1244.639
203.6589, 1255.175
204.1410, 1272.709
204.6232, 1290.339
205.1053, 1308.775
205.5874, 1326.347
206.0695, 1335.861
206.5516, 1334.165
207.0337, 1332.688
207.5159, 1341.318
207.9980, 1363.398
208.4801, 1378.735
208.9622, 1383.758
209.4443, 1380.170
209.9264, 1375.812
210.4086, 1370.144
210.8907, 1364.768
211.3728, 1362.186
211.8549, 1364.844
212.3370, 1361.231
212.8191, 1346.598
213.3013, 1323.180
213.7834, 1310.526
214.2655, 1314.684
214.7476, 1319.859
215.2297, 1311.037
215.7118, 1282.029
216.1940, 1255.955
216.6761, 1237.419
217.1582, 1226.004
217.6403, 1214.304
218.1224, 1201.604
218.6045, 1189.752
219.0867, 1181.256
219.5688, 1178.741
220.0509, 1173.448
220.5330, 1163.200
221.0151, 1147.758
221.4972, 1132.160
221.9794, 1114.842
222.4615, 1098.955
222.9436, 1088.326
223.4257, 1086.154
223.9078, 1082.488
224.3899, 1074.442
224.8721, 1061.374
225.3542, 1050.999
225.8363, 1043.870
226.3184, 1038.817
226.8005, 1034.873
227.2827, 1034.032
227.7648, 1030.363
228.2469, 1020.852
228.7290, 1004.001
229.2111, 993.6740
229.6932, 993.5140
230.1754, 997.0432
230.6575, 995.5073
231.1396, 985.9193
231.6217, 976.4686
232.1038, 968.6482
232.5859, 961.8652
233.0681, 960.5625
233.5502, 968.5573
234.0323, 979.2821
234.5144, 982.9600
234.9965, 976.0244
235.4786, 967.8871
235.9608, 960.2856
236.4429, 952.1584
236.9250, 950.4999
237.4071, 959.9192
237.8892, 972.9591
238.3713, 977.1783
238.8535, 967.0959
239.3356, 957.3694
239.8177, 953.0297
240.2998, 955.9319
240.7819, 957.0651
241.2640, 955.9137
241.7462, 953.3127
242.2283, 950.4308
242.7104, 946.1868
243.1925, 943.4673
243.6746, 943.6778
244.1567, 948.1685
244.6389, 950.8741
245.1210, 950.8694
245.6031, 949.6311
246.0852, 950.5569
246.5673, 957.7211
247.0494, 959.9966
247.5316, 951.3784
248.0137, 925.7339
248.4958, 910.1038
248.9779, 906.9096
249.4600, 912.4910
249.9421, 921.3640
250.4243, 937.8362
250.9064, 949.9567
251.3885, 951.6824
251.8706, 937.7556
252.3527, 931.6241
252.8348, 937.2430
253.3170, 948.1912
253.7991, 951.7474
254.2812, 944.1805
254.7633, 936.3443
255.2454, 933.2475
255.7275, 937.8616
256.2097, 935.4252
256.6918, 921.6928
257.1739, 903.8546
257.6560, 895.4633
258.1381, 899.5132
258.6202, 906.9017
259.1024, 915.0633
259.5845, 924.7341
260.0666, 931.8846
260.5487, 936.6111
261.0308, 938.7157
261.5129, 936.9142
261.9951, 928.5715
262.4772, 922.7077
262.9593, 924.4545
263.4414, 936.7955
263.9235, 941.8818
264.4056, 936.8458
264.8878, 927.2691
265.3699, 922.4025
265.8520, 922.4393
266.3341, 926.6335
266.8162, 938.0372
267.2983, 959.8568
267.7805, 965.7276
268.2626, 949.4282
268.7447, 924.0050
269.2268, 913.0195
269.7089, 920.3471
270.1910, 928.1764
270.6732, 928.2163
271.1553, 918.9722
271.6374, 917.6779
272.1195, 926.8893
272.6016, 940.3118
273.0837, 947.6532
273.5659, 948.2700
274.0480, 946.3540
274.5301, 942.6892
275.0122, 937.1842
275.4943, 933.0453
275.9764, 930.2986
276.4586, 928.8701
276.9407, 928.7614
277.4228, 930.0146
277.9049, 932.2003
278.3870, 935.8073
278.8691, 940.6974
279.3513, 943.3328
279.8334, 943.1804
280.3155, 942.1439
280.7976, 942.9167
281.2798, 945.5720
281.7619, 948.1234
282.2440, 948.8856
282.7261, 948.4867
283.2082, 953.0872
283.6903, 964.0523
284.1725, 974.9913
284.6546, 976.1964
285.1367, 968.0873
285.6188, 962.0972
286.1009, 964.2535
286.5830, 971.9927
287.0652, 973.4401
287.5473, 967.8079
288.0294, 960.5170
288.5115, 956.6769
288.9936, 956.2134
289.4757, 958.6498
289.9579, 965.4252
290.4400, 974.5886
290.9221, 980.2497
291.4042, 982.1284
291.8863, 984.0035
292.3684, 992.0148
292.8506, 1004.063
293.3327, 1010.682
293.8148, 1004.160
294.2969, 993.1371
294.7790, 996.9461
295.2611, 1015.650
295.7433, 1035.090
296.2254, 1042.162
296.7075, 1040.248
297.1896, 1038.547
297.6717, 1039.300
298.1538, 1041.983
298.6360, 1045.981
299.1181, 1051.301
299.6002, 1057.595
300.0823, 1064.502
300.5644, 1072.264
301.0465, 1081.552
301.5287, 1093.306
302.0108, 1105.678
302.4929, 1117.705
302.9750, 1129.041
303.4571, 1137.026
303.9392, 1136.695
304.4214, 1132.968
304.9035, 1131.943
305.3856, 1133.509
305.8677, 1140.740
306.3498, 1160.397
306.8319, 1189.135
307.3141, 1215.611
307.7962, 1231.166
308.2783, 1241.776
308.7604, 1253.525
309.2425, 1267.903
309.7246, 1282.403
310.2068, 1292.126
310.6889, 1300.359
311.1710, 1315.675
311.6531, 1353.052
312.1352, 1392.512
312.6173, 1417.991
313.0995, 1422.987
313.5816, 1424.712
314.0637, 1431.005
314.5458, 1439.653
315.0279, 1446.530
315.5100, 1451.260
315.9922, 1452.899
316.4743, 1449.066
316.9564, 1436.991
317.4385, 1429.849
317.9206, 1437.806
318.4027, 1451.977
318.8849, 1459.945
319.3670, 1452.405
319.8491, 1443.352
320.3312, 1437.562
320.8133, 1435.613
321.2954, 1435.575
321.7776, 1435.776
322.2597, 1438.166
322.7418, 1444.817
323.2239, 1462.031
323.7060, 1477.546
324.1881, 1487.222
324.6703, 1490.263
325.1524, 1496.264
325.6345, 1504.762
326.1166, 1516.998
326.5987, 1534.091
327.0808, 1560.416
327.5630, 1586.420
328.0451, 1610.813
328.5272, 1633.689
329.0093, 1657.248
329.4914, 1679.901
329.9735, 1704.103
330.4557, 1731.145
330.9378, 1760.239
331.4199, 1794.049
331.9020, 1835.963
332.3841, 1883.413
332.8662, 1922.495
333.3484, 1944.888
333.8305, 1970.954
334.3126, 2015.244
334.7947, 2087.562
335.2768, 2145.465
335.7589, 2181.839
336.2411, 2205.308
336.7232, 2237.911
337.2053, 2280.167
337.6874, 2329.435
338.1695, 2386.565
338.6516, 2452.011
339.1338, 2517.883
339.6159, 2584.677
340.0980, 2649.978
340.5801, 2705.083
341.0622, 2748.970
341.5443, 2798.532
342.0265, 2862.098
342.5086, 2938.297
342.9907, 3021.713
343.4728, 3112.923
343.9549, 3206.344
344.4370, 3293.896
344.9192, 3375.653
345.4013, 3456.152
345.8834, 3529.144
346.3655, 3603.085
346.8476, 3701.914
347.3297, 3825.855
347.8119, 3955.355
348.2940, 4072.764
348.7761, 4180.535
349.2582, 4282.950
349.7403, 4381.514
350.2225, 4477.801
350.7046, 4576.708
351.1867, 4677.980
351.6688, 4772.739
352.1509, 4855.559
352.6331, 4927.825
353.1152, 4994.885
353.5973, 5067.670
354.0794, 5117.108
354.5615, 5109.721
355.0436, 5056.010
355.5258, 4987.938
356.0079, 4923.983
356.4900, 4852.839
356.9721, 4763.216
357.4542, 4650.356
357.9363, 4529.290
358.4185, 4405.181
358.9006, 4278.906
359.3827, 4151.981
359.8648, 4020.076
360.3469, 3891.575
360.8290, 3770.294
361.3112, 3656.082
361.7933, 3549.767
362.2754, 3449.434
362.7575, 3356.974
363.2396, 3274.099
363.7217, 3211.446
364.2039, 3149.320
364.6860, 3078.763
365.1681, 2999.242
365.6502, 2933.162
366.1323, 2894.222
366.6144, 2862.199
367.0966, 2822.943
367.5787, 2759.962
368.0608, 2710.113
368.5429, 2682.967
369.0250, 2672.978
369.5071, 2652.342
369.9893, 2615.918
370.4714, 2575.021
370.9535, 2534.655
371.4356, 2495.280
371.9177, 2455.928
372.3998, 2414.570
372.8820, 2374.118
373.3641, 2343.475
373.8462, 2328.093
374.3283, 2308.495
374.8104, 2274.973
375.2925, 2225.438
375.7747, 2184.104
376.2568, 2152.968
376.7389, 2125.375
377.2210, 2092.923
377.7031, 2055.381
378.1852, 2016.306
378.6674, 1975.207
379.1495, 1933.468
379.6316, 1896.742
380.1137, 1866.020
380.5958, 1834.125
381.0779, 1792.270
381.5601, 1742.467
382.0422, 1697.930
382.5243, 1661.285
383.0064, 1630.371
383.4885, 1602.928
383.9706, 1578.338
384.4528, 1553.982
384.9349, 1528.746
385.4170, 1502.198
385.8991, 1472.277
386.3812, 1437.221
386.8633, 1402.598
387.3455, 1373.524
387.8276, 1348.876
388.3097, 1325.606
388.7918, 1303.006
389.2739, 1280.930
389.7560, 1259.005
390.2382, 1237.112
390.7203, 1216.492
391.2024, 1197.961
391.6845, 1181.095
392.1666, 1165.176
392.6487, 1151.353
393.1309, 1137.270
393.6130, 1122.854
394.0951, 1107.864
394.5772, 1090.452
395.0593, 1061.081
395.5414, 1034.840
396.0236, 1021.505
396.5057, 1040.077
396.9878, 1050.616
397.4699, 1049.813
397.9520, 1038.323
398.4341, 1017.963
398.9163, 972.9096
399.3984, 935.4796
399.8805, 919.4496
400.3626, 934.9537
400.8447, 941.4280
401.3268, 934.4400
401.8090, 921.6857
402.2911, 913.4517
402.7732, 910.1073
403.2553, 910.8614
403.7374, 917.8086
404.2195, 930.2118
404.7017, 933.9026
405.1838, 927.2154
405.6659, 916.2298
406.1480, 904.8973
406.6301, 893.0965
407.1122, 885.3940
407.5944, 883.4873
408.0765, 885.2399
408.5586, 887.1132
409.0407, 889.0634
409.5228, 887.5562
410.0049, 878.2657
410.4871, 863.7088
410.9692, 849.9503
411.4513, 836.9597
411.9334, 827.2894
412.4155, 825.7672
412.8976, 830.1296
413.3798, 833.8491
413.8619, 834.0528
414.3440, 832.0991
414.8261, 829.4278
415.3082, 826.0529
415.7903, 821.3384
416.2725, 813.2096
416.7546, 804.1055
417.2367, 796.5773
417.7188, 791.1826
418.2009, 788.0084
418.6830, 786.7787
419.1652, 787.7478
419.6473, 791.9036
420.1294, 804.6601
420.6115, 816.9586
421.0937, 823.9717
421.5758, 823.5192
422.0579, 820.7546
422.5400, 814.2060
423.0221, 806.1834
423.5042, 800.3519
423.9864, 798.3580
424.4685, 796.8864
424.9506, 794.9434
425.4327, 792.3880
425.9148, 791.7010
426.3969, 794.0612
426.8791, 796.9449
427.3612, 798.1614
427.8433, 797.3630
428.3254, 795.6862
428.8075, 792.1635
429.2896, 788.3115
429.7718, 790.1134
430.2539, 798.5015
430.7360, 807.5247
431.2181, 814.4642
431.7002, 819.2499
432.1823, 820.3997
432.6645, 817.3541
433.1466, 812.2759
433.6287, 805.9551
434.1108, 799.3645
434.5929, 797.7454
435.0750, 809.0276
435.5572, 824.1650
436.0393, 824.8130
436.5214, 811.6290
437.0035, 798.5327
437.4856, 799.0646
437.9677, 805.7605
438.4499, 807.6615
438.9320, 798.6289
439.4141, 789.8880
439.8962, 791.4388
440.3783, 799.7098
440.8604, 805.5394
441.3426, 798.7574
441.8247, 792.9621
442.3068, 797.9756
442.7889, 818.0925
443.2710, 833.3586
443.7531, 838.2519
444.2353, 835.6375
444.7174, 828.7617
445.1995, 806.3964
445.6816, 792.6619
446.1637, 796.0558
446.6458, 814.5025
447.1280, 826.3516
447.6101, 828.7332
448.0922, 827.6757
448.5743, 825.9726
449.0564, 822.5531
449.5385, 821.7041
450.0207, 825.0425
450.5028, 829.6223
450.9849, 828.9377
451.4670, 821.6699
451.9491, 815.8245
452.4312, 814.2736
452.9134, 816.7999
453.3955, 822.4866
453.8776, 831.7574
454.3597, 841.0081
454.8418, 846.2037
455.3239, 848.1917
455.8061, 850.2450
456.2882, 853.1431
456.7703, 856.4229
457.2524, 859.1472
457.7345, 861.5681
458.2166, 864.8027
458.6988, 870.0928
459.1809, 876.2303
459.6630, 882.1151
460.1451, 887.8013
460.6272, 892.4075
461.1093, 894.0867
461.5915, 894.7428
462.0736, 896.7126
462.5557, 902.2650
463.0378, 907.7977
463.5199, 911.6658
464.0020, 914.0997
464.4842, 917.1196
464.9663, 918.0049
465.4484, 921.8921
465.9305, 932.1436
466.4126, 956.8873
466.8947, 973.8245
467.3769, 977.6891
467.8590, 976.0181
468.3411, 981.7391
468.8232, 999.3690
469.3053, 1015.199
469.7874, 1024.218
470.2696, 1027.104
470.7517, 1037.560
471.2338, 1057.659
471.7159, 1078.836
472.1980, 1092.597
472.6801, 1099.207
473.1623, 1107.706
473.6444, 1119.187
474.1265, 1133.580
474.6086, 1151.015
475.0907, 1171.384
475.5728, 1193.997
476.0550, 1222.932
476.5371, 1252.430
477.0192, 1269.673
477.5013, 1274.132
477.9834, 1281.134
478.4655, 1306.838
478.9477, 1340.936
479.4298, 1369.470
479.9119, 1385.180
480.3940, 1398.781
480.8761, 1416.790
481.3582, 1437.152
481.8404, 1453.715
482.3225, 1464.958
482.8046, 1471.526
483.2867, 1473.933
483.7688, 1472.489
484.2509, 1465.935
484.7331, 1451.477
485.2152, 1433.234
485.6973, 1414.500
486.1794, 1394.794
486.6615, 1375.179
487.1436, 1354.562
487.6258, 1333.986
488.1079, 1317.746
488.5900, 1305.125
489.0721, 1299.194
489.5542, 1304.823
490.0363, 1322.179
490.5185, 1330.342
491.0006, 1325.737
491.4827, 1321.875
491.9648, 1338.131
492.4470, 1371.637
492.9291, 1406.718
493.4112, 1436.035
493.8933, 1465.050
494.3754, 1502.774
494.8575, 1548.292
495.3397, 1593.568
495.8218, 1627.954
496.3039, 1662.698
496.7860, 1710.518
497.2681, 1776.225
497.7502, 1845.997
498.2324, 1915.186
498.7145, 1983.616
499.1966, 2052.397
499.6787, 2119.562
500.1608, 2188.675
500.6429, 2262.883
501.1251, 2341.606
501.6072, 2415.346
502.0893, 2485.257
502.5714, 2549.491
503.0535, 2609.732
503.5356, 2677.809
504.0178, 2713.086
504.4999, 2711.217
504.9820, 2679.885
505.4641, 2629.129
505.9462, 2558.551
506.4283, 2470.741
506.9105, 2360.620
507.3926, 2235.670
507.8747, 2126.179
508.3568, 2032.273
508.8389, 1944.768
509.3210, 1852.948
509.8032, 1760.808
510.2853, 1678.240
510.7674, 1606.717
511.2495, 1543.766
511.7316, 1486.172
512.2137, 1435.123
512.6959, 1393.833
513.1780, 1371.073
513.6601, 1351.742
514.1422, 1323.442
514.6243, 1288.181
515.1064, 1260.248
515.5886, 1252.489
516.0707, 1248.648
516.5528, 1238.541
517.0349, 1216.393
517.5170, 1197.174
517.9991, 1183.702
518.4813, 1173.490
518.9634, 1163.294
519.4455, 1150.350
519.9276, 1142.490
520.4097, 1143.575
520.8918, 1151.614
521.3740, 1152.964
521.8561, 1146.092
522.3382, 1137.608
522.8203, 1131.626
523.3024, 1128.044
523.7845, 1124.240
524.2667, 1119.970
524.7488, 1115.785
525.2309, 1111.391
525.7130, 1107.363
526.1951, 1105.959
526.6772, 1110.274
527.1594, 1115.354
527.6415, 1114.493
528.1236, 1108.918
528.6057, 1103.975
529.0878, 1106.272
529.5699, 1108.061
530.0521, 1100.934
530.5342, 1079.998
531.0163, 1067.395
531.4984, 1078.539
531.9805, 1097.919
532.4626, 1109.068
532.9448, 1096.824
533.4269, 1092.019
533.9090, 1102.252
534.3911, 1122.873
534.8732, 1134.411
535.3553, 1130.762
535.8375, 1129.780
536.3196, 1140.865
536.8017, 1164.999
537.2838, 1182.841
537.7659, 1193.610
538.2480, 1201.200
538.7302, 1209.454
539.2123, 1218.276
539.6944, 1225.481
540.1765, 1228.194
540.6586, 1233.509
541.1407, 1252.992
541.6229, 1284.198
542.1050, 1318.498
542.5871, 1356.082
543.0692, 1391.577
543.5513, 1416.368
544.0334, 1429.999
544.5156, 1449.463
544.9977, 1484.700
545.4798, 1527.911
545.9619, 1572.983
546.4440, 1622.704
546.9261, 1668.420
547.4083, 1703.977
547.8904, 1735.964
548.3725, 1775.594
548.8546, 1826.155
549.3367, 1879.389
549.8188, 1933.472
550.3010, 1988.495
550.7831, 2045.983
551.2652, 2106.608
551.7473, 2167.695
552.2294, 2225.614
552.7115, 2281.184
553.1937, 2342.576
553.6758, 2412.563
554.1579, 2479.528
554.6400, 2525.967
555.1221, 2557.538
555.6042, 2590.307
556.0864, 2640.309
556.5685, 2684.138
557.0506, 2698.796
557.5327, 2687.853
558.0148, 2663.955
558.4969, 2633.220
558.9791, 2591.271
559.4612, 2535.261
559.9433, 2464.481
560.4254, 2383.336
560.9075, 2283.220
561.3896, 2178.479
561.8718, 2080.662
562.3539, 1994.784
562.8360, 1906.433
563.3181, 1810.752
563.8002, 1714.688
564.2823, 1634.486
564.7645, 1573.106
565.2466, 1517.223
565.7287, 1461.882
566.2108, 1408.106
566.6929, 1363.310
567.1750, 1328.137
567.6572, 1295.546
568.1393, 1259.621
568.6214, 1222.622
569.1035, 1190.290
569.5856, 1163.454
570.0677, 1140.320
570.5499, 1119.495
571.0320, 1101.069
571.5141, 1085.025
571.9962, 1070.026
572.4783, 1058.722
572.9604, 1053.937
573.4426, 1054.515
573.9247, 1054.398
574.4068, 1050.483
574.8889, 1047.752
575.3710, 1049.352
575.8531, 1057.388
576.3353, 1057.788
576.8174, 1046.427
577.2995, 1033.538
577.7816, 1029.677
578.2637, 1035.846
578.7458, 1040.205
579.2280, 1040.172
579.7101, 1039.201
580.1922, 1044.293
580.6743, 1054.455
581.1564, 1064.084
581.6385, 1068.715
582.1207, 1072.359
582.6028, 1081.986
583.0849, 1096.504
583.5670, 1108.034
584.0491, 1109.143
584.5313, 1107.156
585.0134, 1108.981
585.4955, 1118.852
585.9776, 1122.007
586.4597, 1110.004
586.9418, 1091.237
587.4240, 1075.137
587.9061, 1060.637
588.3882, 1051.376
588.8703, 1052.311
589.3524, 1057.497
589.8345, 1046.050
590.3167, 1011.826
590.7988, 984.7166
591.2809, 981.5608
591.7630, 996.9522
592.2451, 1002.771
592.7272, 998.6644
593.2094, 993.5695
593.6915, 998.5734
594.1736, 1007.137
594.6557, 1005.715
595.1378, 990.5627
595.6199, 972.2067
596.1021, 953.7043
596.5842, 938.2675
597.0663, 930.4501
597.5485, 938.8564
598.0306, 947.7536
598.5127, 950.8488
598.9948, 949.9508
599.4769, 953.3522
599.9590, 967.5475
600.4412, 978.9261
600.9233, 982.7981
601.4054, 978.8300
601.8875, 972.2459
602.3696, 961.5234
602.8517, 952.0454
603.3339, 948.4572
603.8160, 950.4893
604.2981, 956.7666
604.7802, 968.3331
605.2623, 979.6782
605.7444, 981.8940
606.2266, 977.9685
606.7087, 975.9100
607.1908, 981.1563
607.6729, 986.8023
608.1550, 987.8876
608.6371, 984.9355
609.1193, 979.6849
609.6014, 970.5761
610.0835, 961.2622
610.5656, 953.6440
611.0477, 948.0188
611.5298, 942.7249
612.0120, 939.0135
612.4941, 934.3630
612.9762, 925.9066
613.4583, 910.4302
613.9404, 903.2606
614.4225, 906.4404
614.9047, 915.6707
615.3868, 927.5987
615.8689, 941.7091
616.3510, 949.3708
616.8331, 945.8342
617.3152, 937.5226
617.7974, 932.8788
618.2795, 931.7369
618.7616, 933.1298
619.2437, 938.2602
619.7258, 944.4252
620.2079, 949.2833
620.6901, 952.7220
621.1722, 957.5445
621.6543, 964.1680
622.1364, 972.9174
622.6185, 983.9126
623.1006, 996.9377
623.5828, 1012.807
624.0649, 1032.067
624.5470, 1053.669
625.0291, 1076.227
625.5112, 1099.472
625.9933, 1125.603
626.4755, 1155.738
626.9576, 1187.557
627.4397, 1215.332
627.9218, 1239.651
