##NAMES=Almandine
##RRUFFID=R060450
##IDEAL CHEMISTRY=Fe^2+^_3_Al_2_(SiO_4_)_3_
##LOCALITY=Canada
##OWNER=RRUFF
##SOURCE=Gemological Institute of America
##DESCRIPTION=Reddish-brown translucent fragment
##STATUS=The identification of this mineral has been confirmed by X-ray diffraction and chemical analysis
##URL=rruff.info/R060450
##MEASURED CHEMISTRY=(Fe^2+^_1.92_Mg_1.03_Ca_0.04_Mn_0.01_)_Î£=3_Al_2.00_(Si_1.00_O_4_)_3_
91.62726, 0.0000000E+00
92.10938, 1.953641
92.59149, 1.911686
93.07361, 1.949464
93.55573, 2.057694
94.03784, 2.117160
94.51996, 1.941377
95.00208, 1.610733
95.48419, 1.410954
95.96631, 1.492191
96.44843, 1.754164
96.93054, 1.905481
97.41266, 1.931931
97.89478, 1.916461
98.37689, 1.949769
98.85901, 2.031512
99.34113, 2.137803
99.82324, 2.264861
100.3054, 2.411570
100.7875, 2.585124
101.2696, 2.829552
101.7517, 3.043628
102.2338, 2.999561
102.7159, 2.604879
103.1981, 2.216653
103.6802, 2.002378
104.1623, 1.997639
104.6444, 2.058342
105.1265, 2.236290
105.6086, 2.473213
106.0908, 2.531402
106.5729, 2.245390
107.0550, 1.974180
107.5371, 1.935863
108.0192, 2.365110
108.5013, 2.673780
108.9835, 2.746706
109.4656, 2.594128
109.9477, 2.585276
110.4298, 2.903138
110.9119, 3.263940
111.3940, 3.480156
111.8762, 3.350440
112.3583, 3.272407
112.8404, 3.343385
113.3225, 3.584989
113.8046, 3.770068
114.2867, 3.761932
114.7689, 3.716717
115.2510, 3.803899
115.7331, 4.119614
116.2152, 4.524995
116.6973, 5.005609
117.1794, 5.596805
117.6616, 6.097239
118.1437, 6.408331
118.6258, 6.585852
119.1079, 6.712044
119.5900, 6.717552
120.0721, 6.749426
120.5543, 6.923115
121.0364, 7.305257
121.5185, 7.708296
122.0006, 7.959499
122.4827, 8.127850
122.9648, 8.414449
123.4470, 9.102215
123.9291, 9.906977
124.4112, 10.48366
124.8933, 10.65224
125.3754, 10.72326
125.8575, 11.00523
126.3397, 11.47509
126.8218, 11.99327
127.3039, 12.33465
127.7860, 12.64985
128.2681, 13.27367
128.7502, 14.49396
129.2324, 15.93622
129.7145, 16.96832
130.1966, 17.59604
130.6787, 17.97544
131.1608, 18.09056
131.6429, 18.01717
132.1251, 18.14301
132.6072, 18.71566
133.0893, 19.57980
133.5714, 20.21630
134.0535, 20.60421
134.5356, 20.86053
135.0178, 21.07142
135.4999, 21.23309
135.9820, 21.49417
136.4641, 21.92656
136.9462, 22.52963
137.4283, 23.17688
137.9105, 23.86427
138.3926, 24.61334
138.8747, 25.50265
139.3568, 26.60334
139.8389, 27.58547
140.3210, 28.25653
140.8032, 28.54084
141.2853, 28.91670
141.7674, 29.33802
142.2495, 29.88257
142.7316, 30.77163
143.2137, 32.13633
143.6959, 33.22633
144.1780, 33.82124
144.6601, 33.70107
145.1422, 33.69609
145.6243, 33.82193
146.1064, 34.07400
146.5886, 34.46924
147.0707, 35.14428
147.5528, 35.80543
148.0349, 36.27046
148.5170, 36.30811
148.9991, 36.52740
149.4813, 37.12165
149.9634, 38.02247
150.4455, 38.53636
150.9276, 38.25906
151.4097, 37.87811
151.8918, 37.81770
152.3740, 38.26598
152.8561, 38.79993
153.3382, 39.41280
153.8203, 40.09838
154.3024, 40.76222
154.7845, 41.47039
155.2667, 42.11029
155.7488, 42.60742
156.2309, 42.83107
156.7130, 43.02212
157.1951, 43.21290
157.6772, 43.40236
158.1594, 43.63710
158.6415, 43.83643
159.1236, 44.11782
159.6057, 44.59820
160.0878, 45.60864
160.5699, 46.54254
161.0521, 47.14609
161.5342, 47.36222
162.0163, 47.59564
162.4984, 48.01064
162.9805, 48.51768
163.4626, 49.00366
163.9448, 49.49134
164.4269, 49.90150
164.9090, 50.16090
165.3911, 50.23172
165.8732, 50.33410
166.3553, 50.65917
166.8375, 51.08055
167.3196, 51.38910
167.8017, 51.44251
168.2838, 51.38073
168.7659, 51.26399
169.2480, 51.05964
169.7302, 50.95904
170.2123, 51.26492
170.6944, 51.78417
171.1765, 52.07935
171.6586, 51.97224
172.1407, 51.51564
172.6229, 50.73414
173.1050, 49.59486
173.5871, 48.23700
174.0692, 46.72400
174.5513, 45.08458
175.0334, 43.42189
175.5156, 41.72087
175.9977, 40.04103
176.4798, 38.49814
176.9619, 37.06755
177.4440, 35.80868
177.9261, 34.91304
178.4083, 34.30361
178.8904, 33.66189
179.3725, 32.62027
179.8546, 31.41891
180.3367, 30.56548
180.8188, 30.23814
181.3010, 30.14266
181.7831, 29.91111
182.2652, 29.55739
182.7473, 29.17199
183.2294, 28.72867
183.7115, 28.29583
184.1937, 28.10867
184.6758, 28.30311
185.1579, 28.64986
185.6400, 28.75109
186.1221, 28.61356
186.6042, 28.41306
187.0864, 28.19431
187.5685, 27.99946
188.0506, 28.05745
188.5327, 28.52634
189.0148, 29.17862
189.4969, 29.45834
189.9791, 29.34633
190.4612, 29.25811
190.9433, 29.60606
191.4254, 30.33504
191.9075, 30.98813
192.3896, 31.39507
192.8718, 31.68798
193.3539, 32.33416
193.8360, 33.38443
194.3181, 34.43457
194.8002, 35.02023
195.2823, 35.16135
195.7645, 35.51417
196.2466, 36.28454
196.7287, 37.36835
197.2108, 38.35677
197.6929, 39.23991
198.1750, 40.06992
198.6572, 40.90736
199.1393, 41.75236
199.6214, 42.50579
200.1035, 43.05630
200.5856, 43.48372
201.0677, 44.27869
201.5499, 45.50811
202.0320, 46.89369
202.5141, 48.15656
202.9962, 49.27446
203.4783, 50.45821
203.9604, 51.80149
204.4426, 53.26982
204.9247, 54.57317
205.4068, 55.69228
205.8889, 56.66905
206.3710, 57.46299
206.8531, 57.99986
207.3353, 58.76985
207.8174, 60.05172
208.2995, 61.76682
208.7816, 62.79797
209.2637, 63.01270
209.7458, 62.78794
210.2280, 62.46940
210.7101, 62.05070
211.1922, 61.57026
211.6743, 61.09436
212.1564, 60.61511
212.6385, 59.71968
213.1207, 58.32032
213.6028, 56.66446
214.0849, 55.00031
214.5670, 53.37154
215.0491, 51.63908
215.5313, 49.70146
216.0134, 47.55433
216.4955, 45.72219
216.9776, 44.28953
217.4597, 43.03297
217.9418, 41.67670
218.4240, 40.13596
218.9061, 38.75763
219.3882, 37.66487
219.8703, 36.86939
220.3524, 35.92662
220.8345, 34.72066
221.3167, 33.52336
221.7988, 32.64903
222.2809, 32.33249
222.7630, 31.79165
223.2451, 30.74335
223.7272, 29.16582
224.2094, 28.10342
224.6915, 27.73364
225.1736, 27.66335
225.6557, 27.51488
226.1378, 27.24102
226.6199, 26.98318
227.1021, 26.75869
227.5842, 26.56559
228.0663, 26.44396
228.5484, 26.42300
229.0305, 26.44018
229.5126, 26.44209
229.9948, 26.43797
230.4769, 26.39473
230.9590, 26.26862
231.4411, 26.06058
231.9232, 26.01529
232.4053, 26.25477
232.8875, 26.52609
233.3696, 26.59021
233.8517, 26.31139
234.3338, 26.09249
234.8159, 26.00634
235.2980, 26.05011
235.7802, 26.12107
236.2623, 26.30692
236.7444, 26.42568
237.2265, 26.27969
237.7086, 25.58881
238.1907, 25.19316
238.6729, 25.33855
239.1550, 25.97992
239.6371, 26.32049
240.1192, 26.20487
240.6013, 25.96354
241.0834, 25.86863
241.5656, 26.05292
242.0477, 26.11269
242.5298, 25.92616
243.0119, 25.53180
243.4940, 25.33113
243.9761, 25.36738
244.4583, 25.54553
244.9404, 25.83125
245.4225, 26.37624
245.9046, 26.72005
246.3867, 26.78611
246.8688, 26.60258
247.3510, 26.33994
247.8331, 25.89215
248.3152, 25.50129
248.7973, 25.32943
249.2794, 25.45301
249.7615, 25.64502
250.2437, 25.93937
250.7258, 26.29419
251.2079, 26.49789
251.6900, 26.49533
252.1721, 26.42071
252.6542, 26.34454
253.1364, 26.26091
253.6185, 26.19121
254.1006, 26.13767
254.5827, 26.09918
255.0648, 26.06206
255.5469, 25.98343
256.0291, 25.97552
256.5112, 26.13346
256.9933, 26.60476
257.4754, 26.85611
257.9575, 26.78927
258.4396, 26.51726
258.9218, 26.36835
259.4039, 26.39958
259.8860, 26.44723
260.3681, 26.41879
260.8502, 26.24898
261.3323, 26.20328
261.8145, 26.32786
262.2966, 26.55120
262.7787, 26.73218
263.2608, 26.88653
263.7429, 26.96240
264.2250, 26.90009
264.7072, 26.62537
265.1893, 26.52728
265.6714, 26.67057
266.1535, 26.93534
266.6356, 27.11839
267.1177, 27.22079
267.5999, 27.23815
268.0820, 27.12257
268.5641, 26.83068
269.0462, 26.74755
269.5283, 26.94935
270.0104, 27.26573
270.4926, 27.42246
270.9747, 27.35311
271.4568, 27.37378
271.9389, 27.66138
272.4210, 28.23466
272.9031, 28.44168
273.3853, 28.15448
273.8674, 27.73203
274.3495, 27.67029
274.8316, 28.04867
275.3137, 28.36358
275.7958, 28.45488
276.2780, 28.34161
276.7601, 28.30624
277.2422, 28.37253
277.7243, 28.45438
278.2064, 28.43047
278.6885, 28.27739
279.1707, 28.22513
279.6528, 28.34837
280.1349, 28.61560
280.6170, 28.89057
281.0991, 29.19238
281.5812, 29.42740
282.0634, 29.45313
282.5455, 29.26247
283.0276, 29.19468
283.5097, 29.35058
283.9918, 29.65071
284.4739, 29.86993
284.9561, 30.01193
285.4382, 30.04732
285.9203, 29.87487
286.4024, 29.51553
286.8845, 29.30785
287.3666, 29.32212
287.8488, 29.48551
288.3309, 29.67700
288.8130, 29.89771
289.2951, 30.08610
289.7772, 30.17800
290.2593, 30.19157
290.7415, 30.21973
291.2236, 30.24737
291.7057, 30.34849
292.1878, 30.73693
292.6699, 31.38317
293.1520, 31.92391
293.6342, 32.06959
294.1163, 31.93795
294.5984, 31.87613
295.0805, 31.88240
295.5626, 32.04613
296.0447, 32.64344
296.5269, 33.56770
297.0090, 34.30259
297.4911, 34.40066
297.9732, 34.16349
298.4553, 34.27720
298.9374, 34.77074
299.4196, 35.37040
299.9017, 35.78396
300.3838, 36.07467
300.8659, 36.41170
301.3480, 36.85148
301.8301, 37.37756
302.3123, 38.00665
302.7944, 38.73907
303.2765, 39.43592
303.7586, 39.94435
304.2407, 40.34772
304.7228, 40.80519
305.2050, 41.33958
305.6871, 41.97341
306.1692, 42.70107
306.6513, 43.53534
307.1334, 44.49421
307.6155, 45.75502
308.0977, 47.10348
308.5798, 48.24467
309.0619, 49.01911
309.5440, 49.75828
310.0261, 50.66220
310.5082, 51.73882
310.9904, 53.00731
311.4725, 54.46605
311.9546, 56.14127
312.4367, 58.14951
312.9188, 60.64501
313.4009, 63.01653
313.8831, 64.90569
314.3652, 66.38040
314.8473, 67.60403
315.3294, 68.79086
315.8115, 69.65575
316.2936, 70.07908
316.7758, 70.07260
317.2579, 69.46896
317.7400, 67.61652
318.2221, 65.28883
318.7042, 63.43281
319.1863, 62.68695
319.6685, 62.17096
320.1506, 61.47585
320.6327, 60.57829
321.1148, 59.96548
321.5969, 59.75383
322.0790, 59.90200
322.5612, 60.37146
323.0433, 61.25563
323.5254, 62.35450
324.0075, 63.68764
324.4896, 65.23586
324.9717, 66.80635
325.4539, 68.34490
325.9360, 69.93135
326.4181, 71.59280
326.9002, 73.33389
327.3823, 75.16338
327.8644, 76.93126
328.3466, 78.76620
328.8287, 81.06307
329.3108, 84.20100
329.7929, 87.50504
330.2750, 90.67342
330.7571, 93.63419
331.2393, 96.71220
331.7214, 99.97636
332.2035, 103.3452
332.6856, 106.6362
333.1677, 109.8197
333.6498, 113.0033
334.1320, 116.2784
334.6141, 119.6242
335.0962, 122.7519
335.5783, 125.5951
336.0604, 128.2888
336.5425, 130.9400
337.0247, 133.3728
337.5068, 136.2292
337.9889, 139.6772
338.4710, 143.6794
338.9531, 148.0621
339.4352, 152.9635
339.9174, 158.0127
340.3995, 162.6475
340.8816, 166.6826
341.3637, 171.8058
341.8458, 178.4958
342.3279, 186.2084
342.8101, 193.8456
343.2922, 201.2639
343.7743, 209.1414
344.2564, 217.9646
344.7385, 227.7501
345.2206, 237.3411
345.7028, 246.8361
346.1849, 255.9749
346.6670, 264.5733
347.1491, 272.6072
347.6312, 279.6850
348.1133, 286.2368
348.5955, 291.7549
349.0776, 294.6832
349.5597, 295.0234
350.0418, 292.9810
350.5239, 288.4378
351.0060, 281.6382
351.4882, 273.4955
351.9703, 264.2969
352.4524, 253.9100
352.9345, 241.7470
353.4166, 227.9952
353.8987, 214.2649
354.3809, 201.7853
354.8630, 190.1551
355.3451, 179.0046
355.8272, 168.0554
356.3093, 157.9665
356.7914, 149.6463
357.2736, 142.6685
357.7557, 136.0749
358.2378, 129.0632
358.7199, 122.4384
359.2020, 116.9559
359.6841, 112.7799
360.1663, 109.2795
360.6484, 106.3277
361.1305, 103.7775
361.6126, 101.4227
362.0947, 99.01319
362.5768, 96.93662
363.0590, 95.39887
363.5411, 94.40197
364.0232, 93.64281
364.5053, 93.10606
364.9874, 92.72229
365.4695, 92.43770
365.9517, 91.86033
366.4338, 91.80319
366.9159, 92.82366
367.3980, 94.59873
367.8801, 95.84705
368.3622, 96.01085
368.8444, 95.91493
369.3265, 95.88333
369.8086, 95.83739
370.2907, 96.03724
370.7728, 96.92101
371.2549, 97.91341
371.7371, 98.07817
372.2192, 97.26427
372.7013, 95.80726
373.1834, 93.64845
373.6655, 90.68083
374.1476, 88.02152
374.6298, 86.00112
375.1119, 83.96261
375.5940, 81.19018
376.0761, 77.40483
376.5582, 73.88693
377.0403, 70.92596
377.5225, 68.39702
378.0046, 65.53863
378.4867, 62.29152
378.9688, 59.13366
379.4509, 56.47892
379.9330, 54.36204
380.4152, 51.93667
380.8973, 49.02402
381.3794, 46.05611
381.8615, 43.88478
382.3436, 42.47028
382.8257, 41.26206
383.3079, 40.03863
383.7900, 38.81045
384.2721, 37.56249
384.7542, 36.29797
385.2363, 35.04538
385.7184, 33.75944
386.2006, 32.50434
386.6827, 31.38936
387.1648, 30.50370
387.6469, 29.73754
388.1290, 28.92882
388.6111, 28.09852
389.0933, 27.34660
389.5754, 26.70877
390.0575, 26.19257
390.5396, 25.83405
391.0217, 25.70086
391.5038, 25.52363
391.9860, 25.02494
392.4681, 24.35791
392.9502, 23.79418
393.4323, 23.57055
393.9144, 23.39606
394.3965, 23.06863
394.8787, 22.56414
395.3608, 22.15475
395.8429, 22.03017
396.3250, 21.99662
396.8071, 21.88028
397.2892, 21.53431
397.7714, 21.21859
398.2535, 20.97968
398.7356, 20.81491
399.2177, 20.71531
399.6998, 20.86230
400.1819, 20.92500
400.6641, 20.72348
401.1462, 19.96307
401.6283, 19.55468
402.1104, 19.70274
402.5925, 20.10903
403.0746, 20.33264
403.5568, 20.35568
404.0389, 20.21747
404.5210, 19.84654
405.0031, 19.24208
405.4852, 18.94070
405.9673, 19.04422
406.4495, 19.25957
406.9316, 19.35061
407.4137, 19.31049
407.8958, 19.20267
408.3779, 19.02369
408.8600, 18.79461
409.3422, 18.54021
409.8243, 18.25639
410.3064, 18.03663
410.7885, 17.96693
411.2706, 18.01393
411.7527, 18.01505
412.2349, 17.95926
412.7170, 17.88484
413.1991, 17.84046
413.6812, 17.81547
414.1633, 17.77711
414.6454, 17.72091
415.1276, 17.63935
415.6097, 17.49598
416.0918, 17.30307
416.5739, 17.14151
417.0560, 17.09859
417.5381, 17.10503
418.0203, 17.07265
418.5024, 16.96467
418.9845, 16.86688
419.4666, 16.86629
419.9487, 16.91243
420.4308, 16.91036
420.9130, 16.66622
421.3951, 16.49625
421.8772, 16.63881
422.3593, 17.13685
422.8414, 17.47223
423.3235, 17.39259
423.8057, 17.15229
424.2878, 16.95520
424.7699, 16.74645
425.2520, 16.67887
425.7341, 16.89295
426.2162, 17.28580
426.6984, 17.49186
427.1805, 17.41125
427.6626, 17.25561
428.1447, 17.09129
428.6268, 16.90656
429.1089, 16.75773
429.5911, 16.63710
430.0732, 16.55866
430.5553, 16.55493
431.0374, 16.65484
431.5195, 16.70708
432.0016, 16.64474
432.4838, 16.51136
432.9659, 16.54018
433.4480, 16.75663
433.9301, 16.97523
434.4122, 17.05471
434.8943, 17.01202
435.3765, 16.97499
435.8586, 16.96515
436.3407, 16.93561
436.8228, 16.77681
437.3049, 16.52536
437.7870, 16.34123
438.2692, 16.30119
438.7513, 16.36634
439.2334, 16.54536
439.7155, 16.82656
440.1976, 17.01763
440.6797, 16.87341
441.1619, 16.59971
441.6440, 16.45356
442.1261, 16.55826
442.6082, 16.69165
443.0903, 16.70579
443.5724, 16.65442
444.0546, 16.65355
444.5367, 16.80162
445.0188, 16.96377
445.5009, 17.07545
445.9830, 17.12432
446.4651, 17.17156
446.9473, 17.29307
447.4294, 17.38302
447.9115, 17.35065
448.3936, 16.91289
448.8757, 16.70079
449.3578, 16.87183
449.8400, 17.30338
450.3221, 17.59444
450.8042, 17.72983
451.2863, 17.74556
451.7684, 17.59472
452.2505, 17.20721
452.7327, 17.14624
453.2148, 17.52997
453.6969, 18.02760
454.1790, 18.19271
454.6611, 18.00378
455.1432, 17.91291
455.6254, 18.05066
456.1075, 18.33364
456.5896, 18.57700
457.0717, 18.78121
457.5538, 18.88457
458.0359, 18.74741
458.5181, 18.49084
459.0002, 18.39617
459.4823, 18.49508
459.9644, 18.70630
460.4465, 19.00171
460.9286, 19.34742
461.4108, 19.67205
461.8929, 19.88102
462.3750, 20.11750
462.8571, 20.61292
463.3392, 21.28125
463.8214, 21.69720
464.3035, 21.25460
464.7856, 20.76994
465.2677, 20.86701
465.7498, 21.90682
466.2319, 22.77177
466.7141, 22.97018
467.1962, 22.91238
467.6783, 23.12775
468.1604, 24.15374
468.6425, 24.92300
469.1246, 25.07668
469.6068, 24.69526
470.0889, 24.76922
470.5710, 25.53035
471.0531, 26.42994
471.5352, 27.19111
472.0173, 27.81549
472.4995, 28.26174
472.9816, 28.38306
473.4637, 28.53665
473.9458, 29.41393
474.4279, 31.07670
474.9100, 32.50801
475.3922, 33.22551
475.8743, 33.54967
476.3564, 34.57302
476.8385, 36.28790
477.3206, 37.97158
477.8027, 38.91783
478.2849, 39.44723
478.7670, 40.24351
479.2491, 41.43989
479.7312, 42.72012
480.2133, 43.99219
480.6954, 45.11266
481.1776, 45.81687
481.6597, 45.79830
482.1418, 45.48040
482.6239, 45.15497
483.1060, 44.78576
483.5881, 44.12196
484.0703, 42.70161
484.5524, 41.20830
485.0345, 40.08509
485.5166, 39.61086
485.9987, 39.04330
486.4808, 37.96130
486.9630, 36.84721
487.4451, 36.36253
487.9272, 36.90472
488.4093, 37.52427
488.8914, 38.08628
489.3735, 38.59901
489.8557, 39.04111
490.3378, 39.29834
490.8199, 39.75283
491.3020, 40.65792
491.7841, 42.04387
492.2662, 43.54303
492.7484, 45.14492
493.2305, 46.83046
493.7126, 48.45406
494.1947, 50.06066
494.6768, 51.90603
495.1589, 54.02832
495.6411, 56.45976
496.1232, 59.25223
496.6053, 62.41840
497.0874, 65.75640
497.5695, 69.38004
498.0516, 73.04972
498.5338, 76.57021
499.0159, 79.89981
499.4980, 83.03635
499.9801, 86.20216
500.4622, 89.11189
500.9443, 91.49263
501.4265, 93.35430
501.9086, 94.50100
502.3907, 95.09929
502.8728, 94.99865
503.3549, 93.62420
503.8370, 90.30643
504.3192, 86.21141
504.8013, 81.64098
505.2834, 76.43777
505.7655, 71.44074
506.2476, 66.59690
506.7297, 62.03468
507.2119, 57.78789
507.6940, 53.82738
508.1761, 50.44036
508.6582, 47.78788
509.1403, 45.61318
509.6224, 43.21875
510.1046, 40.58967
510.5867, 38.31022
511.0688, 36.80742
511.5509, 35.87754
512.0330, 34.92528
512.5151, 33.94356
512.9973, 33.03603
513.4794, 32.29145
513.9615, 31.66815
514.4436, 31.08991
514.9257, 30.51142
515.4078, 30.04289
515.8900, 29.85633
516.3721, 29.83523
516.8542, 29.75426
517.3363, 29.58072
517.8184, 29.28208
518.3005, 28.71025
518.7827, 27.87990
519.2648, 27.36668
519.7469, 27.57569
520.2290, 27.89525
520.7111, 27.98294
521.1932, 27.69056
521.6754, 27.46090
522.1575, 27.26117
522.6396, 27.14791
523.1217, 27.26411
523.6038, 27.72692
524.0859, 27.97391
524.5681, 27.82454
525.0502, 27.37924
525.5323, 26.91926
526.0144, 26.43423
526.4965, 26.10106
526.9786, 26.13197
527.4608, 26.39915
527.9429, 26.51429
528.4250, 26.44817
528.9071, 26.32932
529.3892, 26.19240
529.8713, 26.10238
530.3535, 26.18280
530.8356, 26.58487
531.3177, 26.99868
531.7998, 27.17414
532.2819, 27.20459
532.7640, 27.30579
533.2462, 27.66473
533.7283, 28.01070
534.2104, 28.16879
534.6925, 28.09453
535.1746, 28.24861
535.6567, 28.78743
536.1389, 29.47476
536.6210, 30.16762
537.1031, 30.89212
537.5852, 31.58437
538.0673, 32.24226
538.5494, 32.87668
539.0316, 33.46972
539.5137, 33.99847
539.9958, 34.68779
540.4779, 35.63955
540.9600, 36.78061
541.4421, 37.87307
541.9243, 38.91786
542.4064, 40.05561
542.8885, 41.43040
543.3706, 42.93907
543.8527, 44.31361
544.3348, 45.50340
544.8170, 46.91956
545.2991, 49.14390
545.7812, 51.68424
546.2633, 53.94481
546.7454, 55.48224
547.2275, 57.03505
547.7097, 58.84321
548.1918, 60.89909
548.6739, 63.14963
549.1560, 65.46004
549.6381, 68.10667
550.1202, 71.22078
550.6024, 74.80694
551.0845, 78.48710
551.5666, 82.25487
552.0487, 86.14184
552.5308, 90.14221
553.0129, 94.29443
553.4951, 98.52930
553.9772, 102.9740
554.4593, 107.2176
554.9414, 110.6550
555.4235, 113.3214
555.9056, 115.6792
556.3878, 118.0008
556.8699, 119.8950
557.3520, 120.7849
557.8341, 120.6767
558.3162, 119.5517
558.7983, 117.1009
559.2805, 113.8164
559.7626, 110.0448
560.2447, 105.8250
560.7268, 101.3934
561.2089, 96.77546
561.6910, 92.00874
562.1732, 87.09035
562.6553, 81.91124
563.1374, 76.83974
563.6195, 71.74385
564.1016, 66.83451
564.5837, 62.42973
565.0659, 58.61932
565.5480, 55.07988
566.0301, 51.78656
566.5122, 48.72656
566.9943, 45.86910
567.4764, 43.20749
567.9586, 40.89105
568.4407, 39.06407
568.9228, 37.69579
569.4049, 36.65426
569.8870, 35.96989
570.3691, 35.33553
570.8513, 34.47292
571.3334, 33.44562
571.8155, 32.37521
572.2976, 31.18392
572.7797, 30.16633
573.2618, 29.61840
573.7440, 29.38039
574.2261, 29.15246
574.7082, 28.80805
575.1903, 28.47227
575.6724, 28.16900
576.1545, 27.90735
576.6367, 27.75910
577.1188, 27.84147
577.6009, 27.92668
578.0830, 27.89907
578.5651, 27.70355
579.0472, 27.69607
579.5294, 27.92175
580.0115, 28.25678
580.4936, 28.58700
580.9757, 28.91429
581.4578, 29.28377
581.9399, 29.69724
582.4221, 30.16489
582.9042, 30.74723
583.3863, 31.41029
583.8684, 32.05031
584.3505, 32.73085
584.8326, 33.28206
585.3148, 33.44128
585.7969, 33.27940
586.2790, 33.11536
586.7611, 33.18851
587.2432, 33.26038
587.7253, 33.26176
