##NAMES=Almandine
##RRUFFID=R040079
##IDEAL CHEMISTRY=Fe^2+^_3_Al_2_(SiO_4_)_3_
##LOCALITY=Ontario, Canada
##OWNER=RRUFF
##SOURCE=University of Arizona Mineral Museum
##DESCRIPTION=Dark red dodecahedral crystal
##STATUS=The identification of this mineral has been confirmed by X-ray diffraction and chemical analysis
##URL=rruff.info/R040079
##MEASURED CHEMISTRY=(Fe^2+^_2.29_Mg_0.53_Ca_0.18_)_Î£=3_Al_2.00_(Si_1.00_O_4_)_3_
156.7682, 5026.111
157.2503, 5041.109
157.7324, 5048.591
158.2145, 5032.705
158.6966, 5018.978
159.1787, 5018.872
159.6609, 5038.759
160.1430, 5061.170
160.6251, 5083.496
161.1072, 5104.676
161.5893, 5122.225
162.0714, 5133.437
162.5536, 5141.801
163.0357, 5149.788
163.5178, 5159.828
163.9999, 5167.828
164.4820, 5168.554
164.9641, 5163.722
165.4463, 5164.181
165.9284, 5180.933
166.4105, 5203.897
166.8926, 5222.193
167.3747, 5227.093
167.8568, 5229.270
168.3390, 5239.969
168.8211, 5260.370
169.3032, 5270.798
169.7853, 5251.245
170.2674, 5213.228
170.7495, 5176.914
171.2317, 5160.162
171.7138, 5145.560
172.1959, 5111.404
172.6780, 5049.195
173.1601, 4989.917
173.6422, 4966.211
174.1244, 4969.443
174.6065, 4971.772
175.0886, 4955.591
175.5707, 4928.578
176.0528, 4900.565
176.5349, 4870.445
177.0171, 4844.872
177.4992, 4832.612
177.9813, 4832.838
178.4634, 4838.061
178.9455, 4846.000
179.4276, 4854.631
179.9098, 4859.207
180.3919, 4853.136
180.8740, 4844.580
181.3561, 4850.275
181.8382, 4870.811
182.3203, 4891.655
182.8025, 4895.386
183.2846, 4885.974
183.7667, 4879.521
184.2488, 4887.383
184.7309, 4903.759
185.2130, 4910.668
185.6951, 4906.667
186.1773, 4899.055
186.6594, 4896.885
187.1415, 4899.954
187.6236, 4904.968
188.1057, 4908.146
188.5878, 4911.047
189.0700, 4922.335
189.5521, 4944.117
190.0342, 4971.659
190.5163, 5001.762
190.9984, 5034.525
191.4805, 5055.507
191.9627, 5041.535
192.4448, 4996.838
192.9269, 4977.430
193.4090, 5000.015
193.8911, 5049.503
194.3732, 5081.656
194.8554, 5095.244
195.3375, 5100.401
195.8196, 5105.709
196.3017, 5111.332
196.7838, 5115.085
197.2659, 5116.001
197.7481, 5114.694
198.2302, 5113.322
198.7123, 5110.822
199.1944, 5111.781
199.6765, 5123.475
200.1586, 5147.488
200.6408, 5171.398
201.1229, 5190.713
201.6050, 5205.182
202.0871, 5220.426
202.5692, 5236.143
203.0513, 5252.894
203.5335, 5272.303
204.0156, 5295.073
204.4977, 5316.972
204.9798, 5333.867
205.4619, 5343.577
205.9440, 5363.753
206.4262, 5399.603
206.9083, 5442.574
207.3904, 5470.034
207.8725, 5478.011
208.3546, 5481.013
208.8367, 5488.257
209.3189, 5502.167
209.8010, 5509.238
210.2831, 5505.359
210.7652, 5494.197
211.2473, 5493.190
211.7294, 5506.604
212.2116, 5522.110
212.6937, 5530.886
213.1758, 5532.684
213.6579, 5529.476
214.1400, 5520.959
214.6221, 5507.513
215.1043, 5492.211
215.5864, 5471.745
216.0685, 5454.320
216.5506, 5452.133
217.0327, 5477.142
217.5148, 5485.963
217.9970, 5460.172
218.4791, 5396.042
218.9612, 5365.684
219.4433, 5383.909
219.9254, 5420.848
220.4075, 5437.594
220.8897, 5426.734
221.3718, 5409.762
221.8539, 5390.597
222.3360, 5365.979
222.8181, 5353.147
223.3002, 5354.087
223.7824, 5365.579
224.2645, 5383.951
224.7466, 5417.573
225.2287, 5444.038
225.7108, 5452.968
226.1929, 5435.822
226.6750, 5425.566
227.1572, 5425.650
227.6393, 5431.823
228.1214, 5432.186
228.6035, 5421.378
229.0856, 5412.830
229.5677, 5414.708
230.0499, 5435.752
230.5320, 5446.580
231.0141, 5441.798
231.4962, 5425.594
231.9783, 5415.288
232.4604, 5413.679
232.9426, 5414.367
233.4247, 5412.912
233.9068, 5405.299
234.3889, 5404.177
234.8710, 5413.265
235.3531, 5431.172
235.8353, 5444.577
236.3174, 5454.173
236.7995, 5458.676
237.2816, 5455.780
237.7637, 5438.388
238.2458, 5427.677
238.7280, 5428.992
239.2101, 5442.098
239.6922, 5449.792
240.1743, 5447.258
240.6564, 5444.043
241.1385, 5450.039
241.6207, 5473.673
242.1028, 5491.663
242.5849, 5500.557
243.0670, 5500.389
243.5491, 5488.156
244.0313, 5450.548
244.5134, 5411.975
244.9955, 5403.466
245.4776, 5445.881
245.9597, 5482.194
246.4418, 5496.684
246.9240, 5484.582
247.4061, 5478.703
247.8882, 5481.700
248.3703, 5489.117
248.8524, 5494.951
249.3345, 5500.031
249.8167, 5501.938
250.2988, 5497.700
250.7809, 5482.676
251.2630, 5481.147
251.7451, 5501.463
252.2272, 5530.230
252.7094, 5542.546
253.1915, 5530.754
253.6736, 5515.295
254.1557, 5502.634
254.6378, 5491.941
255.1199, 5485.694
255.6021, 5481.267
256.0842, 5482.558
256.5663, 5500.490
257.0484, 5545.204
257.5305, 5589.184
258.0126, 5622.394
258.4948, 5647.837
258.9769, 5652.995
259.4590, 5627.409
259.9411, 5585.406
260.4232, 5567.136
260.9053, 5582.837
261.3875, 5603.689
261.8696, 5613.515
262.3517, 5605.154
262.8338, 5609.734
263.3159, 5636.407
263.7980, 5675.214
264.2802, 5688.397
264.7623, 5664.293
265.2444, 5637.875
265.7265, 5630.526
266.2086, 5647.292
266.6907, 5665.161
267.1729, 5683.693
267.6550, 5701.287
268.1371, 5710.887
268.6192, 5708.675
269.1013, 5706.502
269.5834, 5713.750
270.0656, 5733.008
270.5477, 5749.361
271.0298, 5761.838
271.5119, 5769.902
271.9940, 5769.171
272.4761, 5755.999
272.9583, 5743.596
273.4404, 5743.990
273.9225, 5760.505
274.4046, 5771.829
274.8867, 5774.094
275.3688, 5769.031
275.8510, 5761.719
276.3331, 5749.425
276.8152, 5743.435
277.2973, 5759.689
277.7794, 5802.174
278.2615, 5828.199
278.7437, 5825.989
279.2258, 5801.638
279.7079, 5780.022
280.1900, 5759.905
280.6721, 5747.330
281.1542, 5751.667
281.6364, 5773.869
282.1185, 5791.534
282.6006, 5798.065
283.0827, 5796.878
283.5648, 5804.064
284.0469, 5821.824
284.5291, 5836.780
285.0112, 5828.208
285.4933, 5797.300
285.9754, 5784.979
286.4575, 5808.148
286.9396, 5855.747
287.4217, 5889.359
287.9038, 5907.557
288.3860, 5921.146
288.8681, 5947.021
289.3502, 5981.791
289.8323, 5995.820
290.3144, 5968.063
290.7965, 5917.640
291.2787, 5902.328
291.7608, 5924.613
292.2429, 5954.316
292.7250, 5963.430
293.2071, 5954.963
293.6892, 5942.727
294.1714, 5924.461
294.6535, 5908.449
295.1356, 5916.967
295.6177, 5951.122
296.0998, 5990.183
296.5819, 6019.880
297.0641, 6039.998
297.5462, 6048.316
298.0283, 6033.113
298.5104, 6011.645
298.9925, 6014.692
299.4746, 6042.458
299.9568, 6077.970
300.4389, 6117.857
300.9210, 6154.528
301.4031, 6170.586
301.8852, 6137.489
302.3673, 6093.000
302.8495, 6091.407
303.3316, 6131.841
303.8137, 6177.052
304.2958, 6193.988
304.7779, 6194.526
305.2600, 6199.592
305.7422, 6222.251
306.2243, 6249.508
306.7064, 6267.750
307.1885, 6277.543
307.6706, 6286.889
308.1527, 6301.681
308.6349, 6319.667
309.1170, 6337.418
309.5991, 6354.651
310.0812, 6370.891
310.5633, 6383.934
311.0454, 6394.367
311.5276, 6409.170
312.0097, 6435.347
312.4918, 6467.181
312.9739, 6498.656
313.4560, 6526.819
313.9381, 6554.633
314.4203, 6587.724
314.9024, 6625.272
315.3845, 6651.247
315.8666, 6646.079
316.3487, 6630.892
316.8308, 6625.634
317.3130, 6654.641
317.7951, 6677.509
318.2772, 6666.619
318.7593, 6626.370
319.2414, 6607.607
319.7235, 6652.971
320.2057, 6713.435
320.6878, 6750.171
321.1699, 6722.548
321.6520, 6702.800
322.1341, 6713.830
322.6162, 6752.819
323.0984, 6788.865
323.5805, 6817.737
324.0626, 6840.963
324.5447, 6859.593
325.0268, 6862.571
325.5089, 6873.333
325.9911, 6893.116
326.4732, 6922.232
326.9553, 6964.977
327.4374, 7035.467
327.9195, 7110.161
328.4016, 7176.208
328.8838, 7234.163
329.3659, 7281.919
329.8480, 7311.701
330.3301, 7327.674
330.8122, 7357.912
331.2943, 7414.722
331.7765, 7473.609
332.2586, 7520.090
332.7407, 7543.074
333.2228, 7573.895
333.7049, 7615.954
334.1870, 7667.545
334.6692, 7722.018
335.1513, 7780.219
335.6334, 7841.139
336.1155, 7904.514
336.5976, 7972.789
337.0797, 8036.218
337.5619, 8089.007
338.0440, 8138.659
338.5261, 8207.770
339.0082, 8301.618
339.4903, 8397.996
339.9724, 8480.911
340.4546, 8548.288
340.9367, 8627.664
341.4188, 8725.794
341.9009, 8831.354
342.3830, 8916.645
342.8651, 8978.400
343.3473, 9048.664
343.8294, 9153.852
344.3115, 9290.747
344.7936, 9402.658
345.2757, 9486.815
345.7578, 9548.711
346.2400, 9601.988
346.7221, 9645.041
347.2042, 9662.046
347.6863, 9641.920
348.1684, 9588.883
348.6505, 9515.889
349.1327, 9421.817
349.6148, 9310.622
350.0969, 9174.620
350.5790, 9021.121
351.0611, 8879.233
351.5432, 8778.130
352.0254, 8692.454
352.5075, 8572.993
352.9896, 8414.828
353.4717, 8260.698
353.9538, 8151.728
354.4359, 8075.731
354.9181, 8012.225
355.4002, 7963.481
355.8823, 7916.662
356.3644, 7854.306
356.8465, 7776.196
357.3286, 7708.905
357.8108, 7673.167
358.2929, 7657.427
358.7750, 7645.585
359.2571, 7637.481
359.7392, 7627.128
360.2213, 7609.148
360.7035, 7584.134
361.1856, 7561.276
361.6677, 7541.542
362.1498, 7527.111
362.6319, 7519.597
363.1140, 7522.087
363.5962, 7528.653
364.0783, 7539.318
364.5604, 7553.377
365.0425, 7566.330
365.5246, 7575.962
366.0067, 7584.930
366.4889, 7594.874
366.9710, 7615.926
367.4531, 7626.621
367.9352, 7612.270
368.4173, 7582.069
368.8994, 7577.206
369.3815, 7632.102
369.8636, 7683.073
370.3458, 7700.709
370.8279, 7653.718
371.3100, 7628.150
371.7921, 7637.436
372.2742, 7665.021
372.7563, 7668.930
373.2385, 7637.868
373.7206, 7601.445
374.2027, 7570.641
374.6848, 7545.902
375.1669, 7526.424
375.6490, 7516.376
376.1312, 7507.173
376.6133, 7481.782
377.0954, 7435.440
377.5775, 7391.620
378.0596, 7355.505
378.5417, 7327.946
379.0239, 7323.904
379.5060, 7351.176
379.9881, 7378.921
380.4702, 7359.610
380.9523, 7295.075
381.4344, 7242.758
381.9166, 7227.371
382.3987, 7236.988
382.8808, 7234.486
383.3629, 7219.290
383.8450, 7199.899
384.3271, 7183.922
384.8093, 7170.160
385.2914, 7154.780
385.7735, 7131.854
386.2556, 7111.333
386.7377, 7117.668
387.2198, 7146.128
387.7020, 7160.509
388.1841, 7110.405
388.6662, 7038.254
389.1483, 7003.627
389.6304, 7039.734
390.1125, 7087.200
390.5947, 7102.322
391.0768, 7092.735
391.5589, 7081.375
392.0410, 7076.582
392.5231, 7076.674
393.0052, 7082.502
393.4874, 7099.593
393.9695, 7108.797
394.4516, 7087.305
394.9337, 7054.251
395.4158, 7044.727
395.8979, 7095.059
396.3801, 7147.845
396.8622, 7179.037
397.3443, 7181.110
397.8264, 7180.940
398.3085, 7179.572
398.7906, 7178.361
399.2728, 7179.068
399.7549, 7186.488
400.2370, 7190.467
400.7191, 7187.541
401.2012, 7177.042
401.6833, 7171.345
402.1655, 7174.336
402.6476, 7178.655
403.1297, 7176.206
403.6118, 7159.473
404.0939, 7155.456
404.5760, 7172.485
405.0582, 7205.812
405.5403, 7229.321
406.0224, 7241.053
406.5045, 7247.957
406.9866, 7251.317
407.4688, 7250.322
407.9509, 7262.189
408.4330, 7293.685
408.9151, 7331.948
409.3972, 7348.851
409.8793, 7344.212
410.3615, 7334.548
410.8436, 7325.986
411.3257, 7319.537
411.8078, 7319.485
412.2899, 7326.811
412.7720, 7337.482
413.2542, 7348.240
413.7363, 7358.663
414.2184, 7367.550
414.7005, 7377.816
415.1826, 7384.452
415.6647, 7371.956
416.1469, 7339.526
416.6290, 7325.086
417.1111, 7374.908
417.5932, 7454.178
418.0753, 7515.753
418.5574, 7534.180
419.0396, 7540.269
419.5217, 7548.394
420.0038, 7557.744
420.4859, 7563.511
420.9680, 7557.969
421.4501, 7551.756
421.9323, 7552.668
422.4144, 7571.269
422.8965, 7584.828
423.3786, 7581.629
423.8607, 7570.118
424.3428, 7574.022
424.8250, 7626.162
425.3071, 7666.969
425.7892, 7671.908
426.2713, 7619.685
426.7534, 7589.259
427.2355, 7586.301
427.7177, 7601.411
428.1998, 7623.603
428.6819, 7659.967
429.1640, 7685.735
429.6461, 7686.354
430.1282, 7662.688
430.6104, 7675.811
431.0925, 7738.173
431.5746, 7804.316
432.0567, 7817.701
432.5388, 7776.112
433.0209, 7761.557
433.5031, 7802.680
433.9852, 7872.163
434.4673, 7901.428
434.9494, 7891.292
435.4315, 7872.378
435.9136, 7861.630
436.3958, 7859.260
436.8779, 7868.390
437.3600, 7893.577
437.8421, 7918.898
438.3242, 7923.017
438.8063, 7912.388
439.2885, 7904.930
439.7706, 7912.791
440.2527, 7926.301
440.7348, 7935.487
441.2169, 7938.811
441.6990, 7945.779
442.1812, 7969.734
442.6633, 7997.490
443.1454, 8013.699
443.6275, 8001.151
444.1096, 7987.968
444.5917, 7979.354
445.0739, 7976.207
445.5560, 7987.847
446.0381, 8045.944
446.5202, 8099.166
447.0023, 8117.041
447.4844, 8046.255
447.9666, 8006.841
448.4487, 8017.587
448.9308, 8059.012
449.4129, 8077.329
449.8950, 8059.458
450.3771, 8039.791
450.8593, 8032.619
451.3413, 8041.098
451.8235, 8042.959
452.3056, 8034.237
452.7877, 8025.287
453.2698, 8034.767
453.7519, 8065.167
454.2340, 8083.501
454.7162, 8072.553
455.1983, 8043.809
455.6804, 8044.007
456.1625, 8074.944
456.6446, 8102.839
457.1267, 8090.588
457.6089, 8052.399
458.0910, 8028.758
458.5731, 8034.009
459.0552, 8046.369
459.5373, 8038.983
460.0194, 8016.753
460.5016, 7995.640
460.9837, 7968.808
461.4658, 7956.686
461.9479, 7991.499
462.4300, 8089.788
462.9121, 8161.736
463.3943, 8135.712
463.8764, 8063.290
464.3585, 8011.380
464.8406, 8007.521
465.3227, 8019.596
465.8048, 8045.103
466.2870, 8083.468
466.7691, 8109.174
467.2512, 8105.522
467.7333, 8098.076
468.2154, 8103.209
468.6975, 8137.940
469.1797, 8156.287
469.6618, 8145.430
470.1439, 8119.658
470.6260, 8118.481
471.1081, 8150.648
471.5902, 8186.066
472.0724, 8213.201
472.5545, 8232.018
473.0366, 8244.920
473.5187, 8250.582
474.0008, 8253.677
474.4829, 8258.605
474.9651, 8265.539
475.4472, 8277.113
475.9293, 8300.135
476.4114, 8324.387
476.8935, 8322.100
477.3756, 8295.795
477.8578, 8275.163
478.3399, 8296.563
478.8220, 8333.381
479.3041, 8341.848
479.7862, 8302.177
480.2683, 8262.064
480.7505, 8259.650
481.2326, 8283.322
481.7147, 8308.289
482.1968, 8322.209
482.6789, 8336.358
483.1610, 8360.380
483.6432, 8397.239
484.1253, 8421.045
484.6074, 8411.455
485.0895, 8392.520
485.5716, 8385.052
486.0537, 8399.075
486.5359, 8414.872
487.0180, 8434.903
487.5001, 8456.324
487.9822, 8463.760
488.4643, 8444.948
488.9464, 8432.311
489.4286, 8443.427
489.9107, 8482.711
490.3928, 8522.917
490.8749, 8565.113
491.3570, 8606.637
491.8391, 8649.371
492.3213, 8693.070
492.8034, 8716.928
493.2855, 8696.727
493.7676, 8658.196
494.2497, 8671.337
494.7318, 8735.293
495.2140, 8812.100
495.6961, 8868.607
496.1782, 8917.485
496.6603, 8980.879
497.1424, 9072.274
497.6245, 9161.756
498.1067, 9229.786
498.5888, 9278.411
499.0709, 9313.350
499.5530, 9322.877
500.0351, 9330.589
500.5172, 9358.795
500.9994, 9415.297
501.4815, 9437.176
501.9636, 9384.007
502.4457, 9302.834
502.9278, 9236.282
503.4099, 9210.762
503.8921, 9169.158
504.3742, 9098.137
504.8563, 9006.816
505.3384, 8932.440
505.8205, 8878.699
506.3026, 8835.893
506.7848, 8804.034
507.2669, 8786.481
507.7490, 8751.217
508.2311, 8690.638
508.7132, 8630.372
509.1953, 8608.351
509.6775, 8621.437
510.1596, 8634.566
510.6417, 8638.396
511.1238, 8633.296
511.6059, 8613.857
512.0880, 8581.538
512.5701, 8556.075
513.0522, 8552.623
513.5344, 8563.080
514.0165, 8579.394
514.4986, 8603.292
514.9807, 8622.979
515.4628, 8630.533
515.9449, 8629.131
516.4271, 8624.145
516.9092, 8559.928
517.3913, 8600.447
517.8734, 8623.746
518.3555, 8630.749
518.8376, 8572.651
519.3198, 8598.618
519.8019, 8590.896
520.2840, 8581.792
520.7661, 8619.591
521.2482, 8570.962
521.7303, 8608.017
522.2125, 8610.868
522.6946, 8629.373
523.1767, 8653.320
523.6588, 8674.451
524.1409, 8675.142
524.6230, 8659.290
525.1052, 8659.639
525.5873, 8678.136
526.0694, 8697.460
526.5515, 8696.013
527.0336, 8681.423
527.5157, 8676.666
527.9979, 8691.520
528.4800, 8710.761
528.9621, 8712.496
529.4442, 8704.254
529.9263, 8708.367
530.4084, 8753.183
530.8906, 8802.368
531.3727, 8828.485
531.8548, 8826.828
532.3369, 8823.588
532.8190, 8824.854
533.3011, 8829.536
533.7833, 8836.618
534.2654, 8837.614
534.7475, 8851.484
535.2296, 8891.083
535.7117, 8945.424
536.1938, 8974.463
536.6760, 8967.218
537.1581, 8956.367
537.6402, 8955.134
538.1223, 8964.226
538.6044, 8975.879
539.0865, 8991.202
539.5687, 9006.631
540.0508, 9018.350
540.5329, 9026.732
541.0150, 9031.310
541.4971, 9027.410
541.9792, 9025.744
542.4614, 9047.165
542.9435, 9087.609
543.4256, 9128.009
543.9077, 9158.442
544.3898, 9182.482
544.8719, 9201.213
545.3541, 9213.479
545.8362, 9230.104
546.3183, 9259.663
546.8004, 9295.022
547.2825, 9328.647
547.7646, 9358.664
548.2468, 9386.282
548.7289, 9406.507
549.2110, 9423.076
549.6931, 9451.830
550.1752, 9494.846
550.6573, 9547.166
551.1395, 9612.547
551.6216, 9697.229
552.1037, 9753.825
552.5858, 9775.370
553.0679, 9785.134
553.5500, 9811.976
554.0322, 9854.820
554.5143, 9891.639
554.9964, 9918.952
555.4785, 9935.578
555.9606, 9935.803
556.4427, 9921.691
556.9249, 9903.992
557.4070, 9888.419
557.8891, 9873.103
558.3712, 9859.216
558.8533, 9848.175
559.3354, 9824.304
559.8176, 9763.019
560.2997, 9690.968
560.7818, 9635.299
561.2639, 9613.333
561.7460, 9597.119
562.2281, 9588.862
562.7103, 9583.273
563.1924, 9561.031
563.6745, 9507.843
564.1566, 9456.821
564.6387, 9419.081
565.1208, 9394.835
565.6030, 9381.583
566.0851, 9381.797
566.5672, 9388.071
567.0493, 9401.628
567.5314, 9421.000
568.0135, 9408.753
568.4957, 9346.290
568.9778, 9270.284
569.4599, 9241.680
569.9420, 9253.408
570.4241, 9276.508
570.9063, 9309.557
571.3884, 9337.759
571.8705, 9338.508
572.3526, 9311.205
572.8347, 9296.412
573.3168, 9336.563
573.7990, 9386.991
574.2811, 9408.416
574.7632, 9361.447
575.2453, 9330.199
575.7274, 9333.481
576.2095, 9359.762
576.6917, 9386.581
577.1738, 9412.989
577.6559, 9442.146
578.1380, 9480.781
578.6201, 9526.610
579.1022, 9535.816
579.5844, 9498.474
580.0665, 9461.068
580.5486, 9462.016
581.0307, 9496.489
581.5128, 9533.497
581.9949, 9572.313
582.4771, 9603.115
582.9592, 9606.204
583.4413, 9591.462
583.9234, 9583.310
584.4055, 9604.693
584.8876, 9626.706
585.3698, 9622.538
585.8519, 9597.409
586.3340, 9579.485
586.8161, 9586.391
587.2982, 9599.807
587.7803, 9608.817
588.2625, 9607.644
588.7446, 9615.075
589.2267, 9645.231
589.7088, 9675.401
590.1909, 9677.360
590.6730, 9634.869
591.1552, 9608.757
591.6373, 9611.195
592.1194, 9634.985
592.6015, 9662.918
593.0836, 9695.598
593.5657, 9722.496
594.0479, 9735.135
594.5300, 9738.015
595.0121, 9742.884
595.4942, 9749.987
595.9763, 9757.412
596.4584, 9765.174
596.9406, 9771.599
597.4227, 9773.236
597.9048, 9761.323
598.3869, 9758.275
598.8690, 9787.739
599.3511, 9831.792
599.8333, 9856.194
600.3154, 9834.223
600.7975, 9812.146
601.2796, 9804.065
601.7617, 9809.668
602.2438, 9808.130
602.7260, 9796.167
603.2081, 9783.485
603.6902, 9777.929
604.1723, 9780.663
604.6544, 9775.910
605.1365, 9761.093
605.6187, 9744.963
606.1008, 9741.357
606.5829, 9747.324
607.0650, 9750.141
607.5471, 9743.581
608.0292, 9734.220
608.5114, 9728.027
608.9935, 9725.099
609.4756, 9725.989
609.9577, 9727.630
610.4398, 9735.568
610.9219, 9754.902
611.4041, 9787.632
611.8862, 9819.929
612.3683, 9858.049
612.8504, 9888.873
613.3325, 9902.264
613.8146, 9889.455
614.2968, 9875.939
614.7789, 9862.232
615.2610, 9848.879
615.7431, 9835.202
616.2252, 9820.276
616.7073, 9815.015
617.1895, 9828.626
617.6716, 9852.587
618.1537, 9858.151
618.6358, 9847.409
619.1179, 9845.244
619.6000, 9884.806
620.0822, 9936.042
620.5643, 9957.125
621.0464, 9937.351
621.5285, 9922.033
622.0106, 9945.385
622.4927, 9982.248
622.9749, 10005.64
623.4570, 10000.75
623.9391, 9992.627
624.4212, 9974.763
624.9033, 9956.903
625.3854, 9967.733
625.8676, 10022.61
626.3497, 10071.71
626.8318, 10095.04
627.3139, 10095.79
627.7960, 10107.28
628.2781, 10131.04
628.7603, 10152.38
629.2424, 10152.97
629.7245, 10142.08
630.2066, 10146.11
630.6887, 10171.07
631.1708, 10198.62
631.6530, 10213.10
632.1351, 10219.42
632.6172, 10224.97
633.0993, 10234.45
633.5814, 10241.59
634.0635, 10249.56
634.5457, 10254.78
635.0278, 10242.81
635.5099, 10191.84
635.9920, 10146.84
636.4741, 10120.75
636.9562, 10114.00
637.4384, 10123.09
637.9205, 10156.46
638.4026, 10182.71
638.8847, 10169.73
639.3668, 10121.97
639.8489, 10078.81
640.3311, 10042.79
640.8132, 10019.72
641.2953, 10024.01
641.7774, 10045.88
642.2595, 10063.95
642.7416, 10063.84
643.2238, 10063.40
643.7059, 10080.59
644.1880, 10108.06
644.6701, 10121.35
645.1522, 10096.92
645.6343, 10071.22
646.1165, 10058.44
646.5986, 10059.21
647.0807, 10065.82
647.5628, 10078.83
648.0449, 10097.19
648.5270, 10127.77
649.0092, 10174.05
649.4913, 10182.49
649.9734, 10140.64
650.4555, 10086.29
650.9376, 10071.13
651.4197, 10087.17
651.9019, 10107.69
652.3840, 10129.84
652.8661, 10144.81
