##NAMES=Almandine
##RRUFFID=R060450
##IDEAL CHEMISTRY=Fe^2+^_3_Al_2_(SiO_4_)_3_
##LOCALITY=Canada
##OWNER=RRUFF
##SOURCE=Gemological Institute of America
##DESCRIPTION=Reddish-brown translucent fragment
##STATUS=The identification of this mineral has been confirmed by X-ray diffraction and chemical analysis
##URL=rruff.info/R060450
##MEASURED CHEMISTRY=(Fe^2+^_1.92_Mg_1.03_Ca_0.04_Mn_0.01_)_Î£=3_Al_2.00_(Si_1.00_O_4_)_3_
91.72394, 0.0000000E+00
92.20605, 40.93407
92.68817, 41.67044
93.17029, 42.27851
93.65240, 42.05755
94.13452, 41.52546
94.61664, 40.81607
95.09875, 40.00008
95.58087, 39.17251
96.06299, 38.50562
96.54510, 38.13963
97.02721, 37.72424
97.50933, 37.27223
97.99145, 36.75150
98.47356, 36.10075
98.95568, 35.23758
99.43780, 34.10254
99.91991, 33.17631
100.4020, 32.53994
100.8841, 31.97410
101.3663, 31.38950
101.8484, 30.78291
102.3305, 30.21362
102.8126, 29.75534
103.2947, 29.44701
103.7768, 29.03911
104.2590, 28.37980
104.7411, 27.68443
105.2232, 27.21860
105.7053, 27.06782
106.1874, 27.00591
106.6695, 26.69225
107.1517, 26.14291
107.6338, 25.66452
108.1159, 25.42437
108.5980, 25.38251
109.0801, 25.32693
109.5622, 25.14091
110.0444, 24.98996
110.5265, 25.03303
111.0086, 25.28700
111.4907, 25.58458
111.9728, 25.75351
112.4549, 25.78537
112.9371, 25.70446
113.4192, 25.39902
113.9013, 25.05888
114.3834, 24.81729
114.8655, 24.72641
115.3476, 24.74883
115.8298, 24.78929
116.3119, 24.87609
116.7940, 24.94699
117.2761, 25.00590
117.7582, 25.04400
118.2403, 25.05051
118.7225, 25.01855
119.2046, 24.94946
119.6867, 24.85730
120.1688, 24.62410
120.6509, 24.48523
121.1330, 24.62959
121.6152, 24.98068
122.0973, 25.23694
122.5794, 25.10621
123.0615, 24.60541
123.5436, 24.39122
124.0257, 24.74763
124.5079, 25.22889
124.9900, 25.36311
125.4721, 25.06378
125.9542, 24.73939
126.4363, 24.84936
126.9184, 25.23688
127.4006, 25.55028
127.8827, 25.55281
128.3648, 25.36716
128.8469, 25.39677
129.3290, 25.84399
129.8111, 26.27421
130.2932, 26.42192
130.7754, 26.33102
131.2575, 26.16449
131.7396, 26.03674
132.2217, 25.94924
132.7038, 25.88898
133.1859, 25.81949
133.6681, 25.80724
134.1502, 25.90253
134.6323, 26.10160
135.1144, 26.35075
135.5965, 26.57331
136.0786, 26.71409
136.5608, 26.95146
137.0429, 27.41595
137.5250, 27.88235
138.0071, 28.16436
138.4892, 28.21095
138.9713, 28.12039
139.4535, 28.09423
139.9356, 28.23901
140.4177, 28.29985
140.8998, 28.12686
141.3819, 27.89239
141.8640, 27.85829
142.3462, 28.16208
142.8283, 28.67458
143.3104, 29.04269
143.7925, 29.32487
144.2746, 29.42566
144.7567, 29.11893
145.2388, 28.52622
145.7210, 28.18939
146.2031, 28.51081
146.6852, 29.17552
147.1673, 29.52109
147.6494, 29.36840
148.1315, 29.12156
148.6137, 29.19146
149.0958, 29.62650
149.5779, 30.03663
150.0600, 30.20792
150.5421, 30.26649
151.0242, 30.30688
151.5064, 30.33891
151.9885, 30.39732
152.4706, 30.57319
152.9527, 30.96569
153.4348, 31.29014
153.9169, 31.31864
154.3991, 31.27588
154.8812, 31.47025
155.3633, 32.11776
155.8454, 33.11578
156.3275, 33.83522
156.8096, 34.19896
157.2918, 34.30748
157.7739, 33.94493
158.2560, 33.35198
158.7381, 32.91412
159.2202, 32.92142
159.7023, 33.38360
160.1845, 33.94460
160.6666, 34.82737
161.1487, 35.58599
161.6308, 35.99359
162.1129, 36.10376
162.5950, 36.12879
163.0772, 36.23727
163.5593, 36.43785
164.0414, 36.75048
164.5235, 37.17990
165.0056, 37.70280
165.4877, 38.34699
165.9698, 39.10600
166.4520, 39.85540
166.9341, 40.42787
167.4162, 40.82544
167.8983, 41.38903
168.3804, 42.24558
168.8625, 43.25454
169.3447, 44.23565
169.8268, 45.15135
170.3089, 46.08983
170.7910, 47.29161
171.2731, 48.65233
171.7552, 49.69487
172.2374, 50.37116
172.7195, 50.59551
173.2016, 50.06024
173.6837, 48.47264
174.1658, 46.44674
174.6479, 44.32360
175.1301, 42.15224
175.6122, 40.10305
176.0943, 38.27525
176.5764, 36.66517
177.0585, 35.29818
177.5406, 34.32009
178.0228, 33.48004
178.5049, 32.67396
178.9870, 31.89609
179.4691, 31.18340
179.9512, 30.60061
180.4333, 30.19598
180.9155, 29.69201
181.3976, 28.95036
181.8797, 28.22219
182.3618, 27.60520
182.8439, 27.11614
183.3260, 26.73981
183.8082, 26.47544
184.2903, 26.40413
184.7724, 26.23020
185.2545, 25.80353
185.7366, 25.40262
186.2187, 25.25290
186.7009, 25.37419
187.1830, 25.57557
187.6651, 25.57627
188.1472, 25.21295
188.6293, 24.98400
189.1114, 24.99249
189.5936, 25.07327
190.0757, 25.05214
190.5578, 24.88647
191.0399, 24.71650
191.5220, 24.78294
192.0041, 25.18484
192.4863, 25.55046
192.9684, 25.80308
193.4505, 26.01008
193.9326, 26.27053
194.4147, 26.62277
194.8968, 26.99551
195.3790, 27.23373
195.8611, 27.31077
196.3432, 27.48584
196.8253, 27.92537
197.3074, 28.51633
197.7895, 29.00435
198.2717, 29.29242
198.7538, 29.50705
199.2359, 29.81650
199.7180, 30.22306
200.2001, 30.62684
200.6822, 30.93026
201.1644, 31.17060
201.6465, 31.53111
202.1286, 32.09791
202.6107, 32.76060
203.0928, 33.42028
203.5749, 34.07682
204.0571, 34.70571
204.5392, 35.27000
205.0213, 35.77216
205.5034, 36.30408
205.9855, 36.89800
206.4676, 37.51274
206.9497, 38.17493
207.4319, 38.86584
207.9140, 39.45830
208.3961, 39.80679
208.8782, 39.88475
209.3603, 39.88439
209.8424, 39.79740
210.3246, 39.65072
210.8067, 39.47115
211.2888, 39.25230
211.7709, 38.94841
212.2530, 38.50459
212.7351, 37.91430
213.2173, 37.20159
213.6994, 36.25489
214.1815, 35.28627
214.6636, 34.38825
215.1457, 33.58566
215.6278, 32.85452
216.1100, 32.15934
216.5921, 31.46054
217.0742, 30.91386
217.5563, 30.59516
218.0384, 30.33704
218.5205, 30.08323
219.0027, 29.80121
219.4848, 29.42373
219.9669, 28.84076
220.4490, 27.88351
220.9311, 27.15446
221.4132, 26.65919
221.8954, 26.35369
222.3775, 26.29678
222.8596, 26.46426
223.3417, 26.64546
223.8238, 26.55410
224.3059, 26.02009
224.7881, 25.67717
225.2702, 25.69663
225.7523, 25.80107
226.2344, 25.71459
226.7165, 25.39316
227.1986, 25.06001
227.6807, 25.02289
228.1629, 25.37830
228.6450, 25.52863
229.1271, 25.20128
229.6092, 24.77098
230.0913, 24.64470
230.5734, 24.89972
231.0556, 25.29627
231.5377, 25.58689
232.0198, 25.77285
232.5019, 25.95441
232.9840, 26.18189
233.4661, 26.39722
233.9483, 26.51492
234.4304, 26.51349
234.9125, 26.47855
235.3946, 26.48086
235.8767, 26.51574
236.3588, 26.57734
236.8410, 26.60343
237.3231, 26.67582
237.8052, 27.00621
238.2873, 27.71851
238.7694, 28.30790
239.2515, 28.22892
239.7337, 27.71282
240.2158, 27.22620
240.6979, 26.87973
241.1800, 26.67307
241.6621, 26.64361
242.1442, 26.85431
242.6264, 27.07269
243.1085, 27.14631
243.5906, 27.12937
244.0727, 27.09508
244.5548, 27.02297
245.0369, 26.97355
245.5191, 27.11161
246.0012, 27.53445
246.4833, 27.91275
246.9654, 28.12633
247.4475, 28.19643
247.9296, 28.10960
248.4117, 27.78281
248.8939, 27.37247
249.3760, 27.27053
249.8581, 27.66559
250.3402, 27.97029
250.8223, 27.96795
251.3044, 27.78008
251.7866, 27.49404
252.2687, 27.10978
252.7508, 26.73664
253.2329, 26.65701
253.7150, 27.06286
254.1971, 27.37416
254.6793, 27.40520
255.1614, 27.30926
255.6435, 27.20970
256.1256, 27.15119
256.6077, 27.15269
257.0898, 27.28527
257.5720, 27.70144
258.0541, 27.93794
258.5362, 27.86007
259.0183, 27.64453
259.5004, 27.40401
259.9825, 27.18299
260.4647, 27.01726
260.9468, 26.96921
261.4289, 27.03124
261.9110, 27.24801
262.3931, 27.79899
262.8752, 28.36831
263.3574, 28.70434
263.8395, 28.74543
264.3216, 28.61077
264.8037, 28.47884
265.2858, 28.33512
265.7679, 28.22683
266.2501, 28.08813
266.7322, 28.02226
267.2143, 28.16109
267.6964, 28.49625
268.1785, 28.85462
268.6606, 28.98891
269.1428, 28.76160
269.6249, 28.66599
270.1070, 28.77029
270.5891, 28.92473
271.0712, 29.07321
271.5533, 29.19130
272.0355, 29.24637
272.5176, 29.18721
272.9997, 28.96118
273.4818, 28.85398
273.9639, 28.81310
274.4460, 28.90655
274.9282, 29.30422
275.4103, 29.91504
275.8924, 30.40394
276.3745, 30.42800
276.8566, 29.90220
277.3387, 29.73906
277.8208, 30.27930
278.3029, 30.76648
278.7851, 30.82440
279.2672, 30.53408
279.7493, 30.19848
280.2314, 30.03466
280.7135, 30.03805
281.1956, 30.07767
281.6778, 30.08915
282.1599, 30.19396
282.6420, 30.55863
283.1241, 31.05158
283.6062, 31.36300
284.0883, 31.28164
284.5705, 30.90294
285.0526, 30.79366
285.5347, 31.19122
286.0168, 31.53674
286.4989, 31.63007
286.9810, 31.59382
287.4632, 31.66844
287.9453, 31.98292
288.4274, 32.41102
288.9095, 32.58421
289.3916, 32.29993
289.8737, 32.08141
290.3559, 31.96267
290.8380, 31.96873
291.3201, 32.17521
291.8022, 32.61665
292.2843, 33.16139
292.7664, 33.57512
293.2486, 33.78813
293.7307, 34.03305
294.2128, 34.44731
294.6949, 34.85101
295.1770, 35.00858
295.6591, 34.86770
296.1413, 34.62625
296.6234, 34.51085
297.1055, 34.52719
297.5876, 34.71400
298.0697, 35.22221
298.5518, 35.80854
299.0340, 36.31204
299.5161, 36.69936
299.9982, 36.92191
300.4803, 36.86881
300.9624, 36.50637
301.4445, 36.44703
301.9267, 36.92060
302.4088, 37.50237
302.8909, 37.93140
303.3730, 38.20665
303.8551, 38.45195
304.3372, 38.74810
304.8194, 39.09259
305.3015, 39.44769
305.7836, 39.83866
306.2657, 40.21590
306.7478, 40.44073
307.2299, 40.61209
307.7121, 41.05733
308.1942, 42.00134
308.6763, 43.27793
309.1584, 44.28201
309.6405, 44.74977
310.1227, 45.39539
310.6048, 46.52836
311.0869, 47.98549
311.5690, 49.50591
312.0511, 51.02334
312.5332, 52.43890
313.0154, 53.48307
313.4975, 54.04227
313.9796, 54.66474
314.4617, 55.59875
314.9438, 56.60102
315.4259, 57.36066
315.9081, 57.79752
316.3902, 58.03788
316.8723, 58.20304
317.3544, 58.27533
317.8365, 58.39276
318.3186, 58.52349
318.8007, 58.73075
319.2828, 59.08959
319.7650, 59.60391
320.2471, 60.16743
320.7292, 60.61290
321.2113, 60.96923
321.6934, 61.87660
322.1755, 63.68996
322.6577, 65.72936
323.1398, 67.56374
323.6219, 69.23388
324.1040, 71.03786
324.5861, 73.13744
325.0682, 75.52861
325.5504, 78.06127
326.0325, 80.84848
326.5146, 83.63457
326.9967, 86.22065
327.4788, 88.74789
327.9609, 91.57899
328.4431, 94.91126
328.9252, 98.51955
329.4073, 101.8882
329.8894, 104.9219
330.3715, 107.9652
330.8536, 111.2584
331.3358, 114.5179
331.8179, 117.3651
332.3000, 119.6989
332.7821, 121.7010
333.2642, 123.5650
333.7463, 125.1938
334.2285, 127.0711
334.7106, 129.4395
335.1927, 131.8954
335.6748, 134.1418
336.1569, 136.1358
336.6390, 137.9812
337.1212, 139.6685
337.6033, 141.1990
338.0854, 143.3378
338.5675, 146.1578
339.0496, 149.4496
339.5317, 153.1594
340.0139, 157.2712
340.4960, 161.6830
340.9781, 166.2940
341.4602, 171.1971
341.9423, 176.8966
342.4244, 183.4023
342.9066, 190.5291
343.3887, 198.4535
343.8708, 206.9326
344.3529, 215.6917
344.8350, 224.6017
345.3171, 233.4987
345.7993, 242.0764
346.2814, 250.7632
346.7635, 258.2218
347.2456, 264.6189
347.7277, 269.6211
348.2098, 273.1429
348.6920, 275.0641
349.1741, 274.9780
349.6562, 272.3471
350.1383, 266.8482
350.6204, 259.8844
351.1025, 251.4872
351.5847, 241.8836
352.0668, 230.5942
352.5489, 218.1798
353.0310, 205.8010
353.5131, 194.2617
353.9952, 183.6068
354.4774, 174.1504
354.9595, 167.0601
355.4416, 159.8279
355.9237, 151.4028
356.4058, 142.7359
356.8879, 135.0606
357.3701, 128.9501
357.8522, 124.1003
358.3343, 119.7617
358.8164, 116.0323
359.2985, 112.7488
359.7806, 109.9502
360.2627, 107.5172
360.7448, 105.2956
361.2270, 103.2891
361.7091, 101.7439
362.1912, 101.0030
362.6733, 101.2644
363.1554, 101.4701
363.6375, 101.4813
364.1197, 101.5717
364.6018, 101.7530
365.0839, 102.1035
365.5660, 102.7927
366.0481, 103.9917
366.5302, 105.6171
367.0124, 107.0103
367.4945, 107.8643
367.9766, 108.8806
368.4587, 110.4304
368.9408, 112.1158
369.4229, 113.5088
369.9051, 114.4295
370.3872, 114.9408
370.8693, 115.1454
371.3514, 115.0251
371.8335, 114.6209
372.3156, 114.2769
372.7978, 113.4307
373.2799, 111.6646
373.7620, 108.9628
374.2441, 105.6100
374.7262, 101.7824
375.2083, 97.46980
375.6905, 93.08412
376.1726, 88.48914
376.6547, 83.96947
377.1368, 79.56065
377.6189, 75.30695
378.1010, 71.34435
378.5832, 67.75537
379.0653, 64.46980
379.5474, 61.26029
380.0295, 58.05811
380.5116, 55.12416
380.9937, 52.69167
381.4759, 50.50047
381.9580, 48.32188
382.4401, 46.09726
382.9222, 43.89581
383.4043, 41.75335
383.8864, 39.66686
384.3686, 37.81257
384.8507, 36.24305
385.3328, 34.93176
385.8149, 33.86118
386.2970, 33.01688
386.7791, 32.22147
387.2613, 31.39741
387.7434, 30.55939
388.2255, 29.72720
388.7076, 28.89504
389.1897, 28.10198
389.6718, 27.35235
390.1540, 26.66217
390.6361, 26.08812
391.1182, 25.76959
391.6003, 25.43747
392.0824, 24.75621
392.5645, 23.77486
393.0467, 22.96006
393.5288, 22.53986
394.0109, 22.36384
394.4930, 22.13919
394.9751, 21.84169
395.4572, 21.59048
395.9394, 21.49930
396.4215, 21.46729
396.9036, 21.31266
397.3857, 20.98889
397.8678, 20.61474
398.3499, 20.30582
398.8321, 20.06748
399.3142, 19.83719
399.7963, 19.55813
400.2784, 19.32795
400.7605, 19.26074
401.2426, 19.31878
401.7247, 19.33386
402.2068, 19.19587
402.6890, 18.94707
403.1711, 18.78012
403.6532, 18.79239
404.1353, 18.75168
404.6174, 18.59737
405.0995, 18.37592
405.5817, 18.11773
406.0638, 17.83833
406.5459, 17.59669
407.0280, 17.49063
407.5101, 17.60269
407.9922, 17.58721
408.4744, 17.29376
408.9565, 17.02364
409.4386, 16.97053
409.9207, 17.09311
410.4028, 17.22624
410.8849, 17.25288
411.3671, 17.18693
411.8492, 17.13876
412.3313, 17.17037
412.8134, 17.13940
413.2955, 16.96688
413.7776, 16.75147
414.2598, 16.61459
414.7419, 16.59152
415.2240, 16.59278
415.7061, 16.46643
416.1882, 16.15547
416.6703, 15.91416
417.1525, 15.74585
417.6346, 15.66032
418.1167, 15.72721
418.5988, 15.89539
419.0809, 16.01789
419.5630, 15.98203
420.0452, 15.82093
420.5273, 15.65409
421.0094, 15.42617
421.4915, 15.31638
421.9736, 15.54430
422.4557, 15.85343
422.9379, 15.94050
423.4200, 15.70152
423.9021, 15.36652
424.3842, 15.16844
424.8663, 15.10339
425.3484, 15.05840
425.8306, 14.98990
426.3127, 14.96548
426.7948, 15.08648
427.2769, 15.32401
427.7590, 15.48625
428.2411, 15.46351
428.7233, 15.32912
429.2054, 15.17151
429.6875, 14.98990
430.1696, 14.84375
430.6517, 14.75958
431.1339, 14.74700
431.6160, 14.81374
432.0981, 15.03487
432.5802, 15.21649
433.0623, 15.22713
433.5444, 15.13207
434.0266, 15.07747
434.5087, 15.11290
434.9908, 15.15816
435.4729, 15.09919
435.9550, 14.90675
436.4371, 14.73273
436.9193, 14.51919
437.4014, 14.37615
437.8835, 14.42861
438.3656, 14.63581
438.8477, 14.83833
439.3298, 14.93360
439.8120, 14.93640
440.2941, 14.92297
440.7762, 14.82168
441.2583, 14.79431
441.7404, 14.94437
442.2225, 15.13132
442.7046, 15.19503
443.1867, 15.10382
443.6689, 14.96639
444.1510, 14.92184
444.6331, 14.98863
445.1152, 15.05554
445.5973, 15.21678
446.0794, 15.28282
446.5616, 15.08776
447.0437, 14.75887
447.5258, 14.53525
448.0079, 14.56152
448.4900, 14.74870
448.9721, 14.88301
449.4543, 14.95203
449.9364, 15.00332
450.4185, 15.01780
450.9006, 15.03931
451.3827, 15.12676
451.8648, 15.27691
452.3470, 15.38240
452.8291, 15.32514
453.3112, 15.14469
453.7933, 14.99642
454.2754, 14.85547
454.7575, 14.82963
455.2397, 15.11307
455.7218, 15.54402
456.2039, 15.85166
456.6860, 15.96635
457.1681, 15.95519
457.6502, 15.69559
458.1324, 15.30196
458.6145, 15.39882
459.0966, 16.38130
459.5787, 17.55629
460.0608, 17.77841
460.5429, 16.98793
461.0251, 16.34101
461.5072, 16.02317
461.9893, 15.94783
462.4714, 16.08537
462.9535, 16.40932
463.4356, 16.86611
463.9178, 17.48307
464.3999, 18.16518
464.8820, 18.39091
465.3641, 17.68604
465.8462, 17.16362
466.3283, 17.05069
466.8105, 17.15425
467.2926, 17.30782
467.7747, 17.45400
468.2568, 17.55400
468.7389, 17.53146
469.2210, 17.33125
469.7032, 17.37817
470.1853, 18.00686
470.6674, 18.53704
471.1495, 18.67791
471.6316, 18.60248
472.1137, 18.61366
472.5959, 18.86184
473.0780, 19.21000
473.5601, 19.35392
474.0422, 19.19824
474.5243, 19.24647
475.0064, 19.70274
475.4886, 20.30651
475.9707, 20.92892
476.4528, 21.55751
476.9349, 22.21198
477.4170, 22.94430
477.8991, 23.69844
478.3813, 24.37226
478.8634, 24.97059
479.3455, 25.44033
479.8276, 25.72881
480.3097, 25.87241
480.7918, 25.96087
481.2740, 26.02341
481.7561, 25.95790
482.2382, 25.65737
482.7203, 25.20590
483.2024, 24.75240
483.6845, 24.32616
484.1666, 23.89553
484.6487, 23.41687
485.1309, 22.89011
485.6130, 22.43055
486.0951, 21.94742
486.5772, 21.62220
487.0593, 21.62058
487.5414, 21.81356
488.0236, 21.94960
488.5057, 21.92897
488.9878, 21.88200
489.4699, 22.04762
489.9520, 22.54007
490.4341, 22.97274
490.9163, 23.29418
491.3984, 23.61308
491.8805, 23.89944
492.3626, 24.22774
492.8447, 24.77041
493.3268, 25.66597
493.8090, 26.77888
494.2911, 27.67193
494.7732, 28.18442
495.2553, 28.90916
495.7374, 30.05796
496.2195, 31.41435
496.7017, 32.87258
497.1838, 34.40955
497.6659, 36.00568
498.1480, 37.65700
498.6301, 39.34502
499.1122, 41.07253
499.5944, 42.90293
500.0765, 44.48893
500.5586, 45.70951
501.0407, 46.51060
501.5228, 46.84730
502.0049, 46.72224
502.4871, 46.12565
502.9692, 44.89238
503.4513, 43.22291
503.9334, 41.39669
504.4155, 39.47503
504.8976, 37.58337
505.3798, 35.87286
505.8619, 34.34669
506.3440, 32.69361
506.8261, 30.59670
507.3082, 28.73754
507.7903, 27.42672
508.2725, 26.49602
508.7546, 25.71605
509.2367, 24.99438
509.7188, 24.32149
510.2009, 23.68115
510.6830, 23.05449
511.1652, 22.52288
511.6473, 22.05684
512.1294, 21.71733
512.6115, 21.66893
513.0936, 21.74940
513.5757, 21.60762
514.0579, 21.00417
514.5400, 20.26816
515.0221, 20.04424
515.5042, 20.39950
515.9863, 20.76527
516.4684, 21.13873
516.9506, 21.34632
517.4327, 21.13804
517.9148, 20.58381
518.3969, 20.19667
518.8790, 20.28313
519.3611, 20.60103
519.8433, 20.88678
520.3254, 21.13018
520.8075, 21.29389
521.2896, 21.35069
521.7717, 21.32767
522.2538, 21.27207
522.7360, 21.15670
523.2181, 21.08914
523.7002, 21.16590
524.1823, 21.24374
524.6644, 21.13626
525.1465, 20.87990
525.6287, 20.71373
526.1108, 20.82793
526.5929, 21.15632
527.0750, 21.35001
527.5571, 21.28275
528.0392, 21.25375
528.5214, 21.29662
529.0035, 21.38137
529.4856, 21.49810
529.9677, 21.63628
530.4498, 21.76132
530.9319, 21.78778
531.4141, 21.76495
531.8962, 22.07306
532.3783, 22.95204
532.8604, 23.60111
533.3425, 23.38654
533.8246, 22.90174
534.3068, 22.71564
534.7889, 22.91420
535.2710, 23.39965
535.7531, 24.32771
536.2352, 25.45486
536.7173, 26.19710
537.1995, 26.45244
537.6816, 26.71075
538.1637, 27.36832
538.6458, 28.34517
539.1279, 29.12036
539.6100, 29.34451
540.0922, 29.81519
540.5743, 31.00107
541.0564, 32.44611
541.5385, 33.58242
542.0206, 34.29830
542.5027, 34.84213
542.9849, 35.43533
543.4670, 36.07404
543.9491, 36.93475
544.4312, 38.14513
544.9133, 39.43456
545.3954, 40.75668
545.8775, 42.12431
546.3596, 43.53395
546.8417, 44.98904
547.3239, 46.53512
547.8060, 48.13153
548.2881, 49.80936
548.7702, 51.90899
549.2523, 54.59448
549.7344, 57.37251
550.2166, 59.82426
550.6987, 62.19934
551.1808, 64.95061
551.6629, 68.25002
552.1450, 71.67976
552.6271, 74.92817
553.1093, 78.14137
553.5914, 81.76389
554.0735, 85.89780
554.5556, 89.95299
555.0377, 93.49802
555.5198, 96.52786
556.0020, 98.51659
556.4841, 99.29936
556.9662, 99.41766
557.4483, 99.08572
557.9304, 98.13694
558.4125, 96.36523
558.8947, 93.71782
559.3768, 90.29094
559.8589, 86.02477
560.3410, 80.91896
560.8231, 76.08009
561.3052, 71.59309
561.7874, 67.32700
562.2695, 63.23261
562.7516, 59.30118
563.2337, 55.43156
563.7158, 51.59674
564.1979, 48.07848
564.6801, 45.23565
565.1622, 42.91073
565.6443, 40.54388
566.1264, 38.01789
566.6085, 35.71729
567.0906, 33.94432
567.5728, 32.61942
568.0549, 31.33375
568.5370, 30.03411
569.0191, 28.85652
569.5012, 27.89744
569.9833, 27.06200
570.4655, 26.22559
570.9476, 25.37493
571.4297, 24.55417
571.9118, 23.80721
572.3939, 23.13325
572.8760, 22.55906
573.3582, 22.08494
573.8403, 21.71899
574.3224, 21.53490
574.8045, 21.40470
575.2866, 21.23141
575.7687, 20.99401
576.2509, 20.70585
576.7330, 20.33059
577.2151, 19.91353
577.6972, 19.62213
578.1793, 19.45535
578.6614, 19.42353
579.1436, 19.58676
579.6257, 19.85997
580.1078, 20.13494
580.5899, 20.42575
581.0720, 20.62387
581.5541, 20.61328
582.0363, 20.53552
582.5184, 20.50049
583.0005, 20.53811
583.4826, 20.75978
583.9647, 21.27126
584.4468, 21.92095
584.9290, 22.26344
585.4111, 22.06790
585.8932, 21.91312
586.3753, 21.93148
586.8574, 21.87297
587.3395, 21.46560
587.8217, 20.83794
