##NAMES=Almandine
##RRUFFID=R060099
##IDEAL CHEMISTRY=Fe^2+^_3_Al_2_(SiO_4_)_3_
##LOCALITY=Alaska, USA
##OWNER=RRUFF
##SOURCE=Roland Boehne
##DESCRIPTION=Red cube shaped single crystal
##STATUS=The identification of this mineral is confirmed by single-crystal X-ray diffraction and chemical analysis.
##URL=rruff.info/R060099
##MEASURED CHEMISTRY=(Fe^2+^_1.63_Mg_0.57_Mn_0.56_Ca_0.24_)_Σ=3_(Al_1.98_Fe^3+^_0.02_)_Σ=2_(Si_1.00_O_4_)_3_
91.87140, 0.0000000E+00
92.35352, 6.166831
92.83563, 6.068509
93.31775, 6.026790
93.79987, 6.044244
94.28198, 6.118685
94.76410, 6.246051
95.24622, 6.427435
95.72833, 6.658604
96.21045, 6.940854
96.69257, 7.278213
97.17468, 7.623557
97.65680, 7.925616
98.13892, 8.186702
98.62103, 8.456654
99.10315, 8.736400
99.58527, 9.030934
100.0674, 9.362288
100.5495, 9.729972
101.0316, 10.12941
101.5137, 10.52919
101.9958, 10.90249
102.4780, 11.38109
102.9601, 12.02328
103.4422, 12.85478
103.9243, 13.69731
104.4064, 14.63877
104.8885, 15.54074
105.3707, 16.10479
105.8528, 15.88340
106.3349, 15.94803
106.8170, 16.77488
107.2991, 19.06089
107.7813, 20.78446
108.2634, 21.71782
108.7455, 22.06143
109.2276, 22.45826
109.7097, 22.77279
110.1918, 23.24491
110.6740, 23.97524
111.1561, 25.32132
111.6382, 26.52705
112.1203, 27.25702
112.6024, 27.66570
113.0845, 28.65669
113.5667, 30.92599
114.0488, 33.51202
114.5309, 35.79271
115.0130, 37.40975
115.4951, 38.89246
115.9772, 40.29234
116.4594, 41.63363
116.9415, 43.18746
117.4236, 45.30813
117.9057, 47.61300
118.3878, 49.68371
118.8699, 51.23019
119.3521, 52.62815
119.8342, 54.11837
120.3163, 55.72673
120.7984, 57.30160
121.2805, 58.55632
121.7626, 59.72703
122.2448, 61.21743
122.7269, 63.79967
123.2090, 66.51134
123.6911, 68.42503
124.1732, 69.40768
124.6553, 69.74007
125.1375, 69.01083
125.6196, 67.66279
126.1017, 67.09733
126.5838, 68.90551
127.0659, 71.94013
127.5480, 74.04924
128.0302, 74.70065
128.5123, 74.84023
128.9944, 75.64591
129.4765, 77.09133
129.9586, 78.92960
130.4407, 81.20836
130.9229, 83.79798
131.4050, 86.18635
131.8871, 88.21060
132.3692, 89.97485
132.8513, 91.51147
133.3334, 92.63548
133.8156, 93.56413
134.2977, 94.92947
134.7798, 97.02494
135.2619, 99.12708
135.7440, 101.1598
136.2261, 103.0637
136.7083, 104.6389
137.1904, 105.8150
137.6725, 106.9261
138.1546, 108.5200
138.6367, 110.8130
139.1188, 112.4429
139.6010, 112.9485
140.0831, 112.3322
140.5652, 111.7762
141.0473, 111.1268
141.5294, 110.7220
142.0115, 111.0761
142.4937, 112.4672
142.9758, 113.9537
143.4579, 115.3772
143.9400, 116.8401
144.4221, 117.6539
144.9042, 117.4493
145.3864, 116.8112
145.8685, 116.7311
146.3506, 117.3303
146.8327, 118.2972
147.3148, 119.5492
147.7969, 121.0934
148.2791, 122.8878
148.7612, 125.0971
149.2433, 127.5309
149.7254, 129.7920
150.2075, 131.8132
150.6896, 133.7122
151.1718, 135.5046
151.6539, 137.0157
152.1360, 138.6827
152.6181, 140.6137
153.1002, 142.7225
153.5823, 144.7413
154.0645, 146.6118
154.5466, 148.4394
155.0287, 150.2714
155.5108, 152.2621
155.9929, 154.1109
156.4750, 155.6715
156.9572, 157.0173
157.4393, 158.4157
157.9214, 159.7276
158.4035, 161.2377
158.8856, 163.1253
159.3677, 166.2285
159.8499, 168.9234
160.3320, 170.3419
160.8141, 170.7364
161.2962, 171.6393
161.7783, 174.1209
162.2604, 177.0855
162.7426, 179.6292
163.2247, 181.0109
163.7068, 182.3347
164.1889, 183.9053
164.6710, 185.7374
165.1531, 188.1582
165.6353, 191.7813
166.1174, 195.9192
166.5995, 199.8318
167.0816, 203.3570
167.5637, 206.4967
168.0458, 209.5749
168.5280, 212.5582
169.0101, 214.3706
169.4922, 214.7797
169.9743, 213.4993
170.4564, 210.1049
170.9385, 203.5139
171.4207, 195.2917
171.9028, 186.2597
172.3849, 176.4294
172.8670, 167.1814
173.3491, 159.6557
173.8312, 153.4003
174.3134, 147.5279
174.7955, 141.4366
175.2776, 135.6525
175.7597, 130.8229
176.2418, 126.9606
176.7239, 123.9421
177.2061, 121.9333
177.6882, 120.6442
178.1703, 119.3235
178.6524, 117.5596
179.1345, 115.5226
179.6166, 113.4125
180.0988, 111.1584
180.5809, 109.1553
181.0630, 107.8708
181.5451, 107.2169
182.0272, 106.8974
182.5093, 106.8805
182.9915, 107.0739
183.4736, 107.2833
183.9557, 107.5168
184.4378, 107.6925
184.9199, 107.6751
185.4020, 107.4840
185.8842, 107.2574
186.3663, 106.9042
186.8484, 106.5447
187.3305, 106.7074
187.8126, 107.5358
188.2947, 108.6253
188.7769, 109.3419
189.2590, 109.7008
189.7411, 110.0018
190.2232, 110.3353
190.7053, 110.7272
191.1874, 111.3491
191.6696, 112.2326
192.1517, 113.3313
192.6338, 114.6593
193.1159, 116.2286
193.5980, 117.7176
194.0801, 118.8210
194.5623, 119.5757
195.0444, 120.6049
195.5265, 121.9859
196.0086, 123.6217
196.4907, 125.4243
196.9728, 127.4372
197.4550, 129.2498
197.9371, 130.3948
198.4192, 130.8524
198.9013, 131.9079
199.3834, 133.7907
199.8655, 136.1988
200.3477, 138.5528
200.8298, 140.9062
201.3119, 142.9296
201.7940, 144.2668
202.2761, 144.8251
202.7582, 145.7464
203.2404, 147.1378
203.7225, 148.9474
204.2046, 151.1603
204.6867, 153.9290
205.1688, 156.5939
205.6509, 158.6074
206.1331, 159.8399
206.6152, 161.3936
207.0973, 163.5119
207.5794, 165.9345
208.0615, 167.7889
208.5436, 168.8894
209.0258, 169.9181
209.5079, 171.4423
209.9900, 173.7174
210.4721, 175.2359
210.9542, 175.7395
211.4363, 175.4507
211.9185, 175.0858
212.4006, 174.6265
212.8827, 174.1217
213.3648, 173.6776
213.8469, 173.4184
214.3290, 172.7424
214.8112, 171.5489
215.2933, 169.9208
215.7754, 168.0612
216.2575, 165.8526
216.7396, 163.6236
217.2217, 161.5665
217.7039, 159.6882
218.1860, 158.0020
218.6681, 156.6499
219.1502, 155.4807
219.6323, 153.9534
220.1144, 152.0305
220.5966, 149.8412
221.0787, 147.3942
221.5608, 144.4668
222.0429, 141.9023
222.5250, 139.7672
223.0071, 138.0344
223.4893, 136.7106
223.9714, 135.9056
224.4535, 135.3199
224.9356, 134.8678
225.4177, 134.8313
225.8998, 134.2131
226.3820, 132.7242
226.8641, 130.6449
227.3462, 128.9502
227.8283, 127.5766
228.3104, 126.6795
228.7925, 126.4619
229.2747, 127.4502
229.7568, 127.8929
230.2389, 127.5316
230.7210, 126.6188
231.2031, 125.9611
231.6852, 125.6252
232.1674, 125.4436
232.6495, 125.3993
233.1316, 125.7534
233.6137, 125.6151
234.0958, 124.6526
234.5779, 123.2516
235.0601, 122.5877
235.5422, 123.2306
236.0243, 123.7758
236.5064, 123.5124
236.9885, 121.8052
237.4706, 120.7149
237.9528, 120.4612
238.4349, 120.7804
238.9170, 121.0754
239.3991, 121.5276
239.8812, 121.6820
240.3633, 121.2392
240.8455, 119.7026
241.3276, 118.8442
241.8097, 119.0397
242.2918, 119.7851
242.7739, 119.9361
243.2560, 119.0896
243.7382, 118.2731
244.2203, 117.9075
244.7024, 118.2090
245.1845, 118.3399
245.6666, 118.1789
246.1487, 117.9056
246.6309, 117.8999
247.1130, 118.4085
247.5951, 118.7810
248.0772, 118.7771
248.5593, 118.3226
249.0414, 117.7296
249.5236, 116.8041
250.0057, 115.8623
250.4878, 115.4573
250.9699, 115.8880
251.4520, 116.3232
251.9341, 116.4923
252.4163, 116.3419
252.8984, 116.2012
253.3805, 116.1163
253.8626, 116.0032
254.3447, 115.7020
254.8268, 115.0256
255.3090, 114.5315
255.7911, 114.3824
256.2732, 114.5949
256.7553, 115.0337
257.2374, 115.8715
257.7195, 116.7677
258.2017, 117.2964
258.6838, 117.3562
259.1659, 117.2906
259.6480, 117.1838
260.1301, 117.0403
260.6122, 116.7305
261.0944, 116.0936
261.5765, 115.4896
262.0586, 115.3631
262.5407, 115.9358
263.0228, 116.3760
263.5049, 116.5008
263.9871, 116.3199
264.4692, 115.9914
264.9513, 115.3693
265.4334, 114.8286
265.9155, 114.7699
266.3976, 115.3605
266.8798, 115.8705
267.3619, 116.1608
267.8440, 116.2559
268.3261, 116.3017
268.8082, 116.2362
269.2903, 116.2505
269.7725, 116.5952
270.2546, 117.4094
270.7367, 117.8438
271.2188, 117.5777
271.7009, 116.8734
272.1830, 116.9492
272.6652, 118.0518
273.1473, 119.2560
273.6294, 119.9681
274.1115, 120.1424
274.5936, 120.0055
275.0757, 119.4208
275.5579, 118.6477
276.0400, 118.5048
276.5221, 119.1036
277.0042, 119.8772
277.4863, 120.5477
277.9684, 121.1180
278.4506, 121.5252
278.9327, 121.7440
279.4148, 121.8252
279.8969, 121.8140
280.3790, 121.6797
280.8611, 121.6737
281.3433, 121.9484
281.8254, 122.5048
282.3075, 123.1760
282.7896, 124.0225
283.2717, 124.8493
283.7538, 125.2784
284.2360, 125.2943
284.7181, 125.3327
285.2002, 125.6944
285.6823, 126.3124
286.1644, 126.4347
286.6465, 125.9180
287.1287, 125.4176
287.6108, 125.9982
288.0929, 127.5888
288.5750, 128.8943
289.0571, 129.2514
289.5392, 128.9354
290.0214, 128.9841
290.5035, 129.4007
290.9856, 130.1303
291.4677, 131.3468
291.9498, 132.9416
292.4319, 134.1983
292.9141, 134.8573
293.3962, 135.0775
293.8783, 135.0174
294.3604, 134.6702
294.8425, 134.6406
295.3246, 135.7306
295.8068, 137.6220
296.2889, 139.2060
296.7710, 140.1415
297.2531, 140.7619
297.7352, 141.5508
298.2173, 142.4978
298.6995, 143.5541
299.1816, 144.7544
299.6637, 146.0275
300.1458, 147.1686
300.6279, 148.0955
301.1100, 148.9994
301.5922, 150.0817
302.0743, 151.3287
302.5564, 152.6836
303.0385, 153.9341
303.5206, 155.3311
304.0027, 157.3960
304.4849, 160.3144
304.9670, 163.3201
305.4491, 165.5993
305.9312, 167.3673
306.4133, 169.1411
306.8954, 170.8626
307.3776, 172.8915
307.8597, 175.7700
308.3418, 179.6364
308.8239, 183.4345
309.3060, 186.0405
309.7881, 188.1512
310.2703, 190.7782
310.7524, 194.6469
311.2345, 198.9851
311.7166, 203.3701
312.1987, 207.7774
312.6808, 211.9167
313.1630, 215.9284
313.6451, 219.5095
314.1272, 222.3655
314.6093, 224.1233
315.0914, 225.3543
315.5735, 225.9847
316.0557, 226.1602
316.5378, 226.6626
317.0199, 228.0365
317.5020, 229.7347
317.9841, 231.3290
318.4662, 232.1907
318.9484, 233.6975
319.4305, 236.7357
319.9126, 240.8061
320.3947, 244.5968
320.8768, 247.0225
321.3589, 249.6079
321.8411, 253.1435
322.3232, 257.9084
322.8053, 263.0934
323.2874, 268.9254
323.7695, 275.0131
324.2516, 280.7369
324.7338, 284.6641
325.2159, 289.4422
325.6980, 296.3759
326.1801, 306.3263
326.6622, 314.8658
327.1443, 320.2093
327.6265, 324.7021
328.1086, 330.7359
328.5907, 340.1188
329.0728, 348.9853
329.5549, 356.5653
330.0370, 362.8750
330.5192, 369.4695
331.0013, 376.7819
331.4834, 384.0627
331.9655, 390.8618
332.4476, 396.9647
332.9297, 402.9398
333.4119, 408.4767
333.8940, 413.8559
334.3761, 420.3487
334.8582, 428.2642
335.3403, 436.5574
335.8224, 444.5485
336.3046, 451.7983
336.7867, 460.1125
337.2688, 469.6674
337.7509, 480.2357
338.2330, 491.5996
338.7151, 503.6530
339.1973, 516.5984
339.6794, 530.8384
340.1615, 546.3098
340.6436, 561.7902
341.1257, 577.0224
341.6078, 592.4962
342.0900, 608.9647
342.5721, 626.2026
343.0542, 643.8654
343.5363, 662.0880
344.0184, 680.4523
344.5005, 698.0832
344.9827, 715.0583
345.4648, 729.7339
345.9469, 740.5042
346.4290, 747.5548
346.9111, 751.4068
347.3932, 752.3188
347.8754, 749.9742
348.3575, 743.9434
348.8396, 734.2327
349.3217, 720.4001
349.8038, 700.8087
350.2859, 676.9974
350.7681, 652.4064
351.2502, 627.2293
351.7323, 602.1110
352.2144, 577.5574
352.6965, 553.5105
353.1786, 530.5182
353.6608, 508.7026
354.1429, 488.1275
354.6250, 468.6310
355.1071, 450.1888
355.5892, 433.6909
356.0714, 420.3219
356.5535, 409.2386
357.0356, 399.1886
357.5177, 389.3733
357.9998, 380.6753
358.4819, 374.2277
358.9641, 369.7646
359.4462, 366.0026
359.9283, 362.0316
360.4104, 358.5950
360.8925, 356.3778
361.3746, 355.9689
361.8568, 356.0285
362.3389, 355.9810
362.8210, 355.9961
363.3031, 356.4599
363.7852, 357.8623
364.2673, 359.4400
364.7495, 360.7632
365.2316, 361.6109
365.7137, 362.8593
366.1958, 365.0013
366.6779, 367.5068
367.1600, 369.7719
367.6422, 371.6354
368.1243, 373.3510
368.6064, 375.0807
369.0885, 376.8517
369.5706, 378.0704
370.0527, 379.1947
370.5349, 379.4313
371.0170, 378.2258
371.4991, 375.0359
371.9812, 371.3719
372.4633, 367.4352
372.9454, 363.0732
373.4276, 357.8662
373.9097, 351.7666
374.3918, 344.7964
374.8739, 337.0163
375.3560, 328.2060
375.8381, 319.2017
376.3203, 310.1037
376.8024, 300.8128
377.2845, 291.0417
377.7666, 280.7207
378.2487, 270.6905
378.7308, 261.4500
379.2130, 252.8172
379.6951, 244.4465
380.1772, 236.2552
380.6593, 228.3830
381.1414, 220.8510
381.6235, 213.7100
382.1057, 206.7629
382.5878, 199.9547
383.0699, 193.4385
383.5520, 187.6301
384.0341, 182.4372
384.5162, 177.4573
384.9984, 172.0790
385.4805, 166.7254
385.9626, 162.4025
386.4447, 159.3338
386.9268, 156.6220
387.4089, 153.3526
387.8911, 149.7254
388.3732, 146.2659
388.8553, 143.1456
389.3374, 140.3263
389.8195, 137.9386
390.3016, 135.9810
390.7838, 133.9664
391.2659, 131.3514
391.7480, 128.6543
392.2301, 126.4377
392.7122, 125.1566
393.1943, 123.9722
393.6765, 122.3723
394.1586, 120.5471
394.6407, 119.0647
395.1228, 118.4375
395.6049, 117.9399
396.0870, 117.1493
396.5692, 115.8568
397.0513, 114.8185
397.5334, 114.4954
398.0155, 114.3992
398.4976, 113.9240
398.9797, 112.2506
399.4619, 111.0016
399.9440, 110.6843
400.4261, 111.2914
400.9082, 111.5042
401.3903, 111.1021
401.8724, 110.5119
402.3546, 109.9964
402.8367, 109.6058
403.3188, 109.1875
403.8009, 108.7150
404.2830, 108.2181
404.7651, 107.7590
405.2473, 107.3252
405.7294, 106.9814
406.2115, 106.7911
406.6936, 106.7632
407.1757, 106.6227
407.6578, 106.3291
408.1400, 106.0339
408.6221, 105.9381
409.1042, 106.0371
409.5863, 106.1111
410.0684, 106.1102
410.5505, 106.0408
411.0327, 105.8951
411.5148, 105.6747
411.9969, 105.4515
412.4790, 105.2886
412.9611, 105.1581
413.4432, 105.0147
413.9254, 104.8680
414.4075, 104.6419
414.8896, 104.0647
415.3717, 103.3334
415.8538, 102.9188
416.3359, 103.3037
416.8181, 103.9434
417.3002, 104.3486
417.7823, 104.5178
418.2644, 104.6615
418.7465, 104.9268
419.2286, 105.2188
419.7108, 105.4478
420.1929, 105.6372
420.6750, 105.6977
421.1571, 105.2410
421.6392, 104.5981
422.1213, 104.6442
422.6035, 106.4795
423.0856, 108.3030
423.5677, 109.3186
424.0498, 109.1973
424.5319, 109.2124
425.0140, 109.4651
425.4962, 109.9004
425.9783, 110.4815
426.4604, 111.4976
426.9425, 112.2337
427.4246, 112.4940
427.9067, 112.3590
428.3889, 112.3786
428.8710, 112.6284
429.3531, 112.8995
429.8352, 113.0424
430.3173, 112.9915
430.7994, 113.1485
431.2816, 113.5607
431.7637, 114.1195
432.2458, 114.7309
432.7279, 115.4123
433.2100, 115.8151
433.6921, 115.6706
434.1743, 115.1726
434.6564, 115.0903
435.1385, 115.4343
435.6206, 115.8191
436.1027, 115.8021
436.5848, 115.5643
437.0670, 115.6670
437.5491, 116.3474
438.0312, 117.0692
438.5133, 117.0966
438.9954, 116.6560
439.4775, 116.3735
439.9597, 116.8179
440.4418, 117.4107
440.9239, 117.6525
441.4060, 117.5154
441.8881, 117.1740
442.3702, 116.4646
442.8524, 115.7244
443.3345, 115.2764
443.8166, 115.4210
444.2987, 115.6165
444.7808, 115.7892
445.2629, 115.8969
445.7451, 115.8162
446.2272, 115.4141
446.7093, 114.9126
447.1914, 114.3293
447.6735, 113.5360
448.1556, 113.0956
448.6378, 113.0716
449.1199, 113.3597
449.6020, 113.9568
450.0841, 115.3076
450.5662, 115.9869
451.0483, 115.5960
451.5305, 114.3754
452.0126, 113.3615
452.4947, 112.5209
452.9768, 111.9637
453.4589, 111.8033
453.9410, 112.0482
454.4232, 112.3739
454.9053, 112.8193
455.3874, 113.2010
455.8695, 113.3001
456.3516, 113.1278
456.8337, 112.7470
457.3159, 112.0054
457.7980, 111.2076
458.2801, 110.9362
458.7622, 111.1437
459.2443, 111.4945
459.7264, 111.7964
460.2086, 112.0922
460.6907, 112.4324
461.1728, 112.8253
461.6549, 113.2623
462.1370, 113.7263
462.6191, 114.2278
463.1013, 114.7717
463.5834, 115.4766
464.0655, 116.1163
464.5476, 116.5103
465.0297, 116.6939
465.5118, 116.9995
465.9940, 117.6502
466.4761, 118.3394
466.9582, 118.8819
467.4403, 119.0890
467.9224, 119.4706
468.4045, 120.0675
468.8867, 120.8250
469.3688, 121.6687
469.8509, 122.4977
470.3330, 123.5872
470.8151, 125.1036
471.2972, 126.9864
471.7794, 128.5455
472.2615, 129.6931
472.7436, 130.8026
473.2257, 132.1296
473.7078, 133.6832
474.1899, 135.3423
474.6721, 137.1518
475.1542, 138.9438
475.6363, 140.3726
476.1184, 141.5071
476.6005, 142.8182
477.0826, 144.9149
477.5648, 147.0462
478.0469, 147.7935
478.5290, 147.2776
479.0111, 146.5961
479.4932, 146.7234
479.9753, 147.0334
480.4575, 146.7571
480.9396, 145.6624
481.4217, 144.2844
481.9038, 142.8465
482.3859, 141.3773
482.8680, 139.9365
483.3502, 138.2820
483.8323, 136.9116
484.3144, 135.9415
484.7965, 135.3922
485.2786, 135.3406
485.7607, 136.1496
486.2429, 137.1867
486.7250, 138.0931
487.2071, 138.4903
487.6892, 139.5564
488.1713, 141.4869
488.6534, 143.9486
489.1356, 146.5309
489.6177, 149.2986
490.0998, 152.0265
490.5819, 154.5943
491.0640, 157.1323
491.5461, 160.3196
492.0283, 164.2536
492.5104, 168.2574
492.9925, 171.3856
493.4746, 174.0489
493.9567, 178.2429
494.4388, 184.3138
494.9210, 191.1200
495.4031, 197.5733
495.8852, 203.7781
496.3673, 210.2219
496.8494, 217.5257
497.3315, 224.6330
497.8137, 230.4589
498.2958, 235.2100
498.7779, 239.5013
499.2600, 244.5228
499.7421, 248.6640
500.2242, 250.8687
500.7064, 250.9923
501.1885, 249.3526
501.6706, 245.9689
502.1527, 240.9295
502.6348, 234.3564
503.1169, 225.0624
503.5991, 215.6561
504.0812, 206.3009
504.5633, 197.1085
505.0454, 188.2234
505.5275, 179.6693
506.0096, 171.6358
506.4918, 164.1628
506.9739, 157.1503
507.4560, 151.1991
507.9381, 146.4288
508.4202, 142.3912
508.9023, 138.6683
509.3845, 135.2650
509.8666, 132.2768
510.3487, 129.7225
510.8308, 127.5883
511.3129, 125.9742
511.7950, 124.8077
512.2772, 123.7489
512.7593, 122.5758
513.2414, 121.4375
513.7235, 120.5461
514.2056, 119.8939
514.6877, 119.2374
515.1699, 118.2736
515.6520, 117.3095
516.1341, 116.6470
516.6162, 116.4754
517.0983, 116.3621
517.5804, 116.1032
518.0626, 115.8201
518.5447, 115.7122
519.0268, 116.1183
519.5089, 116.3692
519.9910, 116.2265
520.4731, 115.7256
520.9553, 115.4372
521.4374, 115.4381
521.9195, 115.5417
522.4016, 115.7218
522.8837, 116.0679
523.3658, 115.9371
523.8480, 115.1620
524.3301, 114.2571
524.8122, 114.0161
525.2943, 114.3926
525.7764, 114.5798
526.2585, 114.2491
526.7407, 113.7375
527.2228, 113.6670
527.7049, 113.9874
528.1870, 114.4018
528.6691, 114.7798
529.1512, 115.1309
529.6334, 115.4436
530.1155, 115.7165
530.5976, 116.0372
531.0797, 116.3910
531.5618, 116.8527
532.0439, 117.5100
532.5261, 118.6793
533.0082, 119.6286
533.4903, 119.8761
533.9724, 119.8082
534.4545, 120.2660
534.9366, 121.7745
535.4188, 123.2841
535.9009, 124.3909
536.3830, 125.1213
536.8651, 126.7453
537.3472, 129.6946
537.8293, 132.6844
538.3115, 134.6814
538.7936, 135.5697
539.2757, 137.0439
539.7578, 139.2236
540.2399, 141.8579
540.7220, 144.7805
541.2042, 147.9158
541.6863, 151.0319
542.1684, 154.0684
542.6505, 157.0793
543.1326, 160.1467
543.6147, 163.2538
544.0969, 166.4283
544.5790, 169.2115
545.0611, 172.3068
545.5432, 176.5223
546.0253, 181.9602
546.5074, 187.2258
546.9896, 191.1042
547.4717, 194.8706
547.9538, 199.5736
548.4359, 206.4399
548.9180, 212.8154
549.4001, 218.0493
549.8823, 222.8489
550.3644, 228.4374
550.8465, 235.3390
551.3286, 242.1810
551.8107, 248.7397
552.2928, 255.0075
552.7750, 260.7171
553.2571, 265.9089
553.7392, 270.5106
554.2213, 274.5521
554.7034, 277.9659
555.1855, 280.8005
555.6677, 283.1702
556.1498, 284.1053
556.6319, 282.2911
557.1140, 278.3140
557.5961, 273.3642
558.0782, 267.7966
558.5604, 261.3062
559.0425, 253.4447
559.5246, 244.5182
560.0067, 235.2331
560.4888, 225.3260
560.9709, 215.7106
561.4531, 206.9446
561.9352, 199.0062
562.4173, 191.4065
562.8994, 183.8453
563.3815, 176.8189
563.8636, 170.4921
564.3458, 164.9277
564.8279, 160.0596
565.3100, 156.0127
565.7921, 152.4398
566.2742, 148.9133
566.7563, 145.3777
567.2385, 142.2803
567.7206, 139.8312
568.2027, 137.7578
568.6848, 135.4543
569.1669, 132.9708
569.6490, 130.9285
570.1312, 129.8167
570.6133, 129.2456
571.0954, 128.7970
571.5775, 128.4356
572.0596, 127.9122
572.5417, 126.6838
573.0239, 125.4360
573.5060, 124.8231
573.9881, 125.1385
574.4702, 125.5762
574.9523, 125.9740
575.4344, 126.3390
575.9166, 126.6719
576.3987, 126.7667
576.8808, 127.1175
577.3629, 127.8446
577.8450, 128.8608
578.3271, 129.9045
578.8093, 130.9867
579.2914, 132.0501
579.7735, 133.0454
580.2556, 133.9759
580.7377, 135.0842
581.2198, 136.4010
581.7020, 137.4726
582.1841, 137.7178
582.6662, 137.4481
583.1483, 137.4987
583.6304, 138.0601
584.1125, 138.4856
584.5947, 138.1911
585.0768, 137.3993
585.5589, 136.4320
586.0410, 135.2635
586.5231, 134.1011
587.0052, 132.9731
587.4874, 131.9200
