##NAMES=Almandine
##RRUFFID=R040168
##IDEAL CHEMISTRY=Fe^2+^_3_Al_2_(SiO_4_)_3_
##LOCALITY=Pocos Dos Cavatos, Ceara, Brazil
##OWNER=RRUFF
##SOURCE=University of Arizona Mineral Museum
##DESCRIPTION=Dark red etched single crystal
##STATUS=The identification of this mineral has been confirmed by X-ray diffraction and chemical analysis
##URL=rruff.info/R040168
##MEASURED CHEMISTRY=(Fe^2+^_1.48_Mn_1.47_Ca_0.05_)_Î£=3_Al_2.00_(Si_1.00_O_4_)_3_; trace amounts of Ti and Y
148.0179, 1056.384
148.5001, 1082.698
148.9822, 1106.922
149.4643, 1127.725
149.9464, 1145.479
150.4285, 1165.001
150.9106, 1193.298
151.3928, 1228.385
151.8749, 1252.192
152.3570, 1257.290
152.8391, 1254.519
153.3212, 1251.488
153.8033, 1248.573
154.2855, 1249.358
154.7676, 1259.158
155.2497, 1275.807
155.7318, 1289.757
156.2139, 1300.224
156.6960, 1306.935
157.1782, 1307.036
157.6603, 1299.023
158.1424, 1293.580
158.6245, 1299.393
159.1066, 1314.225
159.5887, 1334.384
160.0709, 1358.406
160.5530, 1387.427
161.0351, 1422.946
161.5172, 1464.963
161.9993, 1513.071
162.4814, 1572.368
162.9636, 1637.278
163.4457, 1698.821
163.9278, 1763.075
164.4099, 1819.167
164.8920, 1844.872
165.3741, 1835.047
165.8563, 1808.392
166.3384, 1768.351
166.8205, 1720.882
167.3026, 1675.654
167.7847, 1636.658
168.2668, 1602.175
168.7490, 1567.384
169.2311, 1529.464
169.7132, 1497.743
170.1953, 1479.096
170.6774, 1468.871
171.1595, 1460.570
171.6417, 1452.441
172.1238, 1443.835
172.6059, 1432.861
173.0880, 1418.483
173.5701, 1403.700
174.0522, 1387.045
174.5344, 1371.224
175.0165, 1360.973
175.4986, 1360.096
175.9807, 1365.267
176.4628, 1367.544
176.9449, 1366.583
177.4271, 1362.992
177.9092, 1354.320
178.3913, 1344.219
178.8734, 1338.284
179.3555, 1340.679
179.8376, 1347.601
180.3197, 1347.271
180.8019, 1335.249
181.2840, 1323.548
181.7661, 1318.267
182.2482, 1314.839
182.7303, 1306.530
183.2124, 1288.476
183.6946, 1266.035
184.1767, 1255.475
184.6588, 1264.434
185.1409, 1272.520
185.6230, 1274.959
186.1051, 1273.437
186.5873, 1269.395
187.0694, 1263.120
187.5515, 1255.772
188.0336, 1250.600
188.5157, 1249.858
188.9978, 1247.405
189.4800, 1239.152
189.9621, 1229.938
190.4442, 1225.058
190.9263, 1227.090
191.4084, 1233.491
191.8905, 1238.448
192.3727, 1242.586
192.8548, 1243.818
193.3369, 1240.323
193.8190, 1235.004
194.3011, 1230.741
194.7832, 1228.688
195.2654, 1227.653
195.7475, 1224.257
196.2296, 1213.336
196.7117, 1210.305
197.1938, 1221.649
197.6759, 1237.806
198.1581, 1251.601
198.6402, 1260.503
199.1223, 1264.735
199.6044, 1263.238
200.0865, 1248.672
200.5686, 1243.588
201.0508, 1254.267
201.5329, 1270.578
202.0150, 1285.720
202.4971, 1297.592
202.9792, 1306.956
203.4613, 1315.033
203.9435, 1321.875
204.4256, 1327.089
204.9077, 1329.867
205.3898, 1331.869
205.8719, 1332.113
206.3540, 1331.333
206.8362, 1333.911
207.3183, 1347.875
207.8004, 1381.227
208.2825, 1405.075
208.7646, 1409.398
209.2467, 1412.990
209.7289, 1428.286
210.2110, 1455.652
210.6931, 1485.684
211.1752, 1506.822
211.6573, 1515.468
212.1395, 1528.016
212.6216, 1547.729
213.1037, 1568.183
213.5858, 1585.899
214.0679, 1601.067
214.5500, 1616.461
215.0322, 1635.685
215.5143, 1660.197
215.9964, 1678.287
216.4785, 1686.074
216.9606, 1691.239
217.4427, 1698.427
217.9249, 1705.812
218.4070, 1707.842
218.8891, 1699.444
219.3712, 1680.380
219.8533, 1659.447
220.3354, 1631.467
220.8176, 1606.650
221.2997, 1589.102
221.7818, 1576.908
222.2639, 1566.356
222.7460, 1555.479
223.2281, 1543.869
223.7103, 1528.084
224.1924, 1502.408
224.6745, 1478.511
225.1566, 1459.566
225.6387, 1443.716
226.1208, 1427.682
226.6030, 1409.404
227.0851, 1390.113
227.5672, 1375.304
228.0493, 1370.164
228.5314, 1362.532
229.0135, 1348.645
229.4957, 1331.995
229.9778, 1316.533
230.4599, 1304.041
230.9420, 1293.587
231.4241, 1282.418
231.9062, 1267.697
232.3884, 1257.634
232.8705, 1254.192
233.3526, 1254.557
233.8347, 1257.918
234.3168, 1263.722
234.7989, 1268.501
235.2811, 1265.167
235.7632, 1248.282
236.2453, 1236.204
236.7274, 1231.901
237.2095, 1231.144
237.6916, 1231.660
238.1738, 1232.818
238.6559, 1234.689
239.1380, 1238.173
239.6201, 1244.765
240.1022, 1247.313
240.5843, 1241.096
241.0665, 1234.449
241.5486, 1231.782
242.0307, 1232.900
242.5128, 1234.493
242.9949, 1233.526
243.4770, 1229.856
243.9592, 1225.227
244.4413, 1217.667
244.9234, 1210.981
245.4055, 1206.188
245.8876, 1203.394
246.3697, 1202.799
246.8519, 1205.819
247.3340, 1211.594
247.8161, 1211.594
248.2982, 1198.312
248.7803, 1189.422
249.2624, 1195.953
249.7446, 1209.700
250.2267, 1216.840
250.7088, 1208.520
251.1909, 1190.433
251.6730, 1179.203
252.1551, 1177.795
252.6373, 1177.387
253.1194, 1176.002
253.6015, 1173.679
254.0836, 1170.152
254.5657, 1165.112
255.0478, 1159.670
255.5300, 1154.267
256.0121, 1147.240
256.4942, 1146.772
256.9763, 1164.240
257.4584, 1184.057
257.9406, 1195.131
258.4227, 1195.037
258.9048, 1188.673
259.3869, 1177.702
259.8690, 1161.574
260.3511, 1154.022
260.8333, 1164.727
261.3154, 1178.854
261.7975, 1186.716
262.2796, 1187.867
262.7617, 1185.059
263.2438, 1175.720
263.7260, 1162.302
264.2081, 1160.987
264.6902, 1181.402
265.1723, 1201.851
265.6544, 1204.557
266.1365, 1193.982
266.6187, 1184.555
267.1008, 1185.184
267.5829, 1191.180
268.0650, 1192.303
268.5471, 1187.220
269.0292, 1180.848
269.5114, 1176.392
269.9935, 1172.980
270.4756, 1168.918
270.9577, 1160.748
271.4398, 1154.233
271.9219, 1158.562
272.4041, 1174.150
272.8862, 1186.452
273.3683, 1186.871
273.8504, 1179.810
274.3325, 1174.186
274.8146, 1170.027
275.2968, 1167.984
275.7789, 1170.483
276.2610, 1176.061
276.7431, 1178.286
277.2252, 1173.792
277.7073, 1166.377
278.1895, 1162.630
278.6716, 1163.256
279.1537, 1163.361
279.6358, 1158.760
280.1179, 1153.044
280.6000, 1153.635
281.0822, 1162.913
281.5643, 1173.879
282.0464, 1177.462
282.5285, 1172.844
283.0106, 1171.112
283.4927, 1176.634
283.9749, 1183.571
284.4570, 1185.895
284.9391, 1183.441
285.4212, 1181.124
285.9033, 1182.988
286.3854, 1189.053
286.8676, 1194.687
287.3497, 1201.379
287.8318, 1206.277
288.3139, 1205.543
288.7960, 1201.645
289.2781, 1201.736
289.7603, 1210.491
290.2424, 1225.045
290.7245, 1233.081
291.2066, 1226.344
291.6887, 1223.748
292.1708, 1232.249
292.6530, 1244.958
293.1351, 1253.328
293.6172, 1254.361
294.0993, 1250.756
294.5814, 1246.843
295.0635, 1239.398
295.5457, 1238.366
296.0278, 1247.244
296.5099, 1259.468
296.9920, 1271.314
297.4741, 1281.911
297.9562, 1291.476
298.4384, 1300.577
298.9205, 1309.697
299.4026, 1314.867
299.8847, 1312.737
300.3668, 1310.135
300.8489, 1306.876
301.3311, 1305.021
301.8131, 1308.967
302.2953, 1322.757
302.7774, 1343.434
303.2595, 1355.429
303.7416, 1351.978
304.2237, 1349.394
304.7058, 1350.310
305.1880, 1354.030
305.6701, 1359.729
306.1522, 1367.098
306.6343, 1376.410
307.1164, 1388.174
307.5985, 1402.461
308.0807, 1418.789
308.5628, 1442.785
309.0449, 1464.731
309.5270, 1475.226
310.0091, 1474.773
310.4912, 1476.315
310.9734, 1492.583
311.4555, 1522.241
311.9376, 1550.516
312.4197, 1576.291
312.9018, 1600.539
313.3839, 1623.858
313.8661, 1646.387
314.3482, 1668.107
314.8303, 1686.831
315.3124, 1705.713
315.7945, 1731.307
316.2766, 1764.628
316.7588, 1798.523
317.2409, 1828.924
317.7230, 1857.268
318.2051, 1885.454
318.6872, 1912.130
319.1693, 1941.146
319.6515, 1977.795
320.1336, 2019.868
320.6157, 2059.562
321.0978, 2096.769
321.5799, 2125.939
322.0620, 2136.911
322.5442, 2129.230
323.0263, 2114.680
323.5084, 2092.712
323.9905, 2067.298
324.4726, 2043.732
324.9547, 2022.799
325.4369, 2002.030
325.9190, 1979.287
326.4011, 1954.375
326.8832, 1927.490
327.3653, 1890.985
327.8474, 1859.387
328.3296, 1841.359
328.8117, 1835.188
329.2938, 1835.143
329.7759, 1838.225
330.2580, 1844.142
330.7401, 1851.506
331.2223, 1858.538
331.7044, 1869.325
332.1865, 1884.647
332.6686, 1903.807
333.1507, 1924.969
333.6328, 1947.878
334.1150, 1975.795
334.5971, 2014.576
335.0792, 2068.341
335.5613, 2121.731
336.0434, 2172.052
336.5255, 2224.270
337.0077, 2277.612
337.4898, 2334.333
337.9719, 2400.184
338.4540, 2479.873
338.9361, 2572.573
339.4182, 2671.185
339.9004, 2775.864
340.3825, 2885.972
340.8646, 2998.947
341.3467, 3117.701
341.8288, 3248.003
342.3109, 3394.355
342.7931, 3543.990
343.2752, 3680.182
343.7573, 3803.402
344.2394, 3911.568
344.7215, 4012.042
345.2036, 4088.976
345.6858, 4133.942
346.1679, 4146.160
346.6500, 4124.222
347.1321, 4067.541
347.6142, 3976.307
348.0963, 3844.332
348.5785, 3662.224
349.0606, 3465.250
349.5427, 3269.625
350.0248, 3079.593
350.5069, 2911.782
350.9890, 2784.793
351.4712, 2667.899
351.9533, 2527.911
352.4354, 2371.572
352.9175, 2234.493
353.3996, 2133.709
353.8817, 2062.232
354.3639, 2005.503
354.8460, 1969.457
355.3281, 1932.378
355.8102, 1884.063
356.2923, 1834.709
356.7744, 1796.295
357.2566, 1771.321
357.7387, 1757.258
358.2208, 1752.231
358.7029, 1758.140
359.1850, 1762.958
359.6671, 1764.376
360.1493, 1767.113
360.6314, 1771.365
361.1135, 1778.665
361.5956, 1792.696
362.0777, 1816.355
362.5598, 1846.136
363.0420, 1868.378
363.5241, 1870.792
364.0062, 1886.035
364.4883, 1922.271
364.9704, 1968.525
365.4525, 2017.318
365.9347, 2066.260
366.4168, 2115.265
366.8989, 2162.286
367.3810, 2207.199
367.8631, 2258.855
368.3452, 2323.316
368.8274, 2388.177
369.3095, 2451.583
369.7916, 2510.902
370.2737, 2559.677
370.7558, 2592.604
371.2379, 2615.245
371.7201, 2640.948
372.2022, 2672.109
372.6843, 2682.962
373.1664, 2658.702
373.6485, 2608.334
374.1306, 2547.908
374.6128, 2477.123
375.0949, 2399.078
375.5770, 2312.272
376.0591, 2220.374
376.5412, 2130.837
377.0233, 2045.209
377.5055, 1961.458
377.9876, 1875.901
378.4697, 1788.385
378.9518, 1711.450
379.4339, 1649.982
379.9160, 1595.146
380.3982, 1542.500
380.8803, 1492.527
381.3624, 1448.805
381.8445, 1413.682
382.3266, 1384.569
382.8087, 1352.965
383.2909, 1315.072
383.7730, 1279.966
384.2551, 1246.315
384.7372, 1216.528
385.2193, 1193.035
385.7014, 1175.906
386.1836, 1162.566
386.6657, 1150.249
387.1478, 1138.871
387.6299, 1131.298
388.1120, 1134.050
388.5941, 1132.872
389.0763, 1122.449
389.5584, 1105.406
390.0405, 1084.357
390.5226, 1058.080
391.0047, 1034.645
391.4868, 1030.088
391.9690, 1046.955
392.4511, 1058.401
392.9332, 1054.294
393.4153, 1044.640
393.8974, 1039.401
394.3795, 1038.655
394.8617, 1036.830
395.3438, 1030.734
395.8259, 1021.997
396.3080, 1012.787
396.7901, 1003.236
397.2722, 994.3251
397.7544, 986.2097
398.2365, 979.4514
398.7186, 975.8168
399.2007, 976.6509
399.6828, 979.0276
400.1649, 986.2289
400.6471, 993.2202
401.1292, 988.7495
401.6113, 968.9975
402.0934, 946.4067
402.5755, 940.3206
403.0576, 959.9490
403.5398, 968.0527
404.0219, 954.0803
404.5040, 940.1119
404.9861, 939.6367
405.4682, 948.8212
405.9503, 955.7870
406.4325, 952.6544
406.9146, 942.5873
407.3967, 936.9527
407.8788, 937.9297
408.3609, 938.9623
408.8430, 940.4230
409.3252, 940.3815
409.8073, 936.0059
410.2894, 927.2731
410.7715, 919.1902
411.2536, 917.0897
411.7357, 919.6646
412.2179, 920.3899
412.7000, 918.8091
413.1821, 915.4491
413.6642, 907.0394
414.1463, 897.3311
414.6284, 894.9333
415.1106, 906.4143
415.5927, 919.5133
416.0748, 925.6383
416.5569, 926.1175
417.0390, 924.3877
417.5211, 921.1252
418.0033, 917.9116
418.4854, 917.5670
418.9675, 921.8185
419.4496, 922.8378
419.9317, 918.3358
420.4138, 912.1709
420.8960, 906.3666
421.3781, 901.1673
421.8602, 895.7719
422.3423, 889.1891
422.8244, 882.9962
423.3065, 884.6120
423.7887, 904.4250
424.2708, 915.6426
424.7529, 910.2750
425.2350, 899.5870
425.7171, 892.6041
426.1992, 890.5989
426.6814, 889.1260
427.1635, 882.3480
427.6456, 871.0996
428.1277, 866.8533
428.6098, 873.3862
429.0919, 879.6969
429.5741, 878.0671
430.0562, 873.1462
430.5383, 872.3456
431.0204, 879.3176
431.5025, 886.5894
431.9846, 886.3264
432.4668, 880.9379
432.9489, 880.0691
433.4310, 887.4123
433.9131, 895.6288
434.3952, 895.2417
434.8773, 885.1414
435.3595, 877.9148
435.8416, 877.6641
436.3237, 877.3713
436.8058, 869.9996
437.2879, 858.9727
437.7701, 854.3677
438.2522, 861.8519
438.7343, 875.5352
439.2164, 879.8367
439.6985, 864.9830
440.1806, 858.2349
440.6628, 865.5436
441.1449, 875.5832
441.6270, 883.4235
442.1091, 887.4894
442.5912, 885.8835
443.0733, 874.6464
443.5555, 857.5876
444.0376, 850.0217
444.5197, 854.4175
445.0018, 861.4360
445.4839, 871.2073
445.9660, 879.9904
446.4482, 883.7308
446.9303, 881.6049
447.4124, 876.9094
447.8945, 869.8012
448.3766, 861.8970
448.8587, 856.6078
449.3409, 854.4086
449.8230, 854.3018
450.3051, 856.2313
450.7872, 859.8190
451.2693, 861.3516
451.7514, 858.4500
452.2336, 856.4212
452.7157, 858.2576
453.1978, 861.5615
453.6799, 862.3636
454.1620, 859.7147
454.6441, 856.8465
455.1263, 858.5244
455.6084, 866.2976
456.0905, 869.8172
456.5726, 862.7553
457.0547, 857.8070
457.5368, 860.2732
458.0190, 867.0630
458.5011, 873.1105
458.9832, 876.3144
459.4653, 877.9224
459.9474, 879.6371
460.4295, 881.4595
460.9117, 883.0069
461.3938, 884.7740
461.8759, 885.4164
462.3580, 881.7169
462.8401, 875.0206
463.3222, 873.0023
463.8044, 882.1720
464.2865, 893.4065
464.7686, 897.9016
465.2507, 897.1307
465.7328, 897.3298
466.2149, 901.1130
466.6971, 907.6099
467.1792, 915.2820
467.6613, 925.8083
468.1434, 933.8560
468.6255, 936.8360
469.1076, 939.6409
469.5898, 944.7429
470.0719, 952.3193
470.5540, 962.1075
471.0361, 974.3517
471.5182, 987.7098
472.0003, 997.9516
472.4825, 1002.979
472.9646, 1010.450
473.4467, 1027.886
473.9288, 1043.927
474.4109, 1050.877
474.8930, 1048.656
475.3752, 1042.416
475.8573, 1033.808
476.3394, 1023.586
476.8215, 1012.660
477.3036, 1001.069
477.7857, 989.8167
478.2679, 979.9566
478.7500, 970.3249
479.2321, 957.5772
479.7142, 940.3187
480.1963, 924.1934
480.6784, 909.4047
481.1606, 896.7912
481.6427, 886.0585
482.1248, 877.9023
482.6069, 875.5253
483.0890, 882.1818
483.5711, 895.6268
484.0533, 903.2260
484.5354, 900.2695
485.0175, 899.1049
485.4996, 903.0868
485.9817, 908.2169
486.4638, 910.6671
486.9460, 910.4084
487.4281, 911.1436
487.9102, 916.5234
488.3923, 925.0873
488.8744, 931.9672
489.3565, 936.5839
489.8387, 942.5983
490.3208, 951.9297
490.8029, 963.8847
491.2850, 975.9726
491.7671, 986.4729
492.2492, 1001.988
492.7314, 1026.160
493.2135, 1055.590
493.6956, 1088.036
494.1777, 1122.340
494.6598, 1155.865
495.1419, 1186.751
495.6241, 1214.937
496.1062, 1240.808
496.5883, 1263.081
497.0704, 1284.493
497.5525, 1305.129
498.0346, 1325.288
498.5168, 1348.772
498.9989, 1373.793
499.4810, 1389.834
499.9631, 1388.491
500.4452, 1371.229
500.9273, 1341.134
501.4095, 1295.198
501.8916, 1248.843
502.3737, 1208.683
502.8558, 1171.811
503.3379, 1132.490
503.8200, 1088.673
504.3022, 1051.384
504.7843, 1029.662
505.2664, 1013.940
505.7485, 992.4594
506.2306, 965.1788
506.7127, 940.7374
507.1949, 925.0675
507.6770, 916.3539
508.1591, 906.7698
508.6412, 893.6144
509.1233, 883.6224
509.6054, 879.3004
510.0876, 876.4384
510.5697, 871.5666
511.0518, 864.9598
511.5339, 859.7216
512.0161, 859.0319
512.4982, 860.7084
512.9803, 857.6573
513.4624, 848.6243
513.9445, 842.9433
514.4266, 846.7449
514.9088, 852.9873
515.3909, 851.3655
515.8730, 841.0496
516.3551, 833.8339
516.8372, 836.7380
517.3193, 841.7341
517.8015, 840.5928
518.2836, 834.3853
518.7657, 829.0065
519.2478, 827.4844
519.7299, 829.1798
520.2120, 833.0024
520.6942, 842.6638
521.1763, 847.2213
521.6584, 842.4344
522.1405, 837.1409
522.6226, 836.4057
523.1047, 839.1117
523.5869, 841.5410
524.0690, 841.7952
524.5511, 840.6979
525.0332, 839.0892
525.5153, 836.9800
525.9974, 835.8672
526.4796, 835.5640
526.9617, 837.2718
527.4438, 844.9530
527.9259, 857.5207
528.4080, 863.5119
528.8901, 856.1637
529.3723, 846.9107
529.8544, 840.5588
530.3365, 837.5496
530.8186, 839.4702
531.3007, 846.6901
531.7828, 855.1049
532.2650, 859.0258
532.7471, 857.8427
533.2292, 855.9193
533.7113, 848.8903
534.1934, 846.3589
534.6755, 854.3762
535.1577, 867.3162
535.6398, 877.2181
536.1219, 881.5588
536.6040, 885.4579
537.0861, 894.2672
537.5682, 906.4744
538.0504, 917.1938
538.5325, 925.7364
539.0146, 933.2511
539.4967, 939.9845
539.9788, 946.3225
540.4609, 953.9657
540.9431, 960.8610
541.4252, 971.7490
541.9073, 990.0630
542.3894, 1011.169
542.8715, 1030.640
543.3536, 1048.221
543.8358, 1066.281
544.3179, 1086.681
544.8000, 1109.157
545.2821, 1132.446
545.7642, 1156.072
546.2463, 1181.747
546.7285, 1211.049
547.2106, 1241.677
547.6927, 1270.407
548.1748, 1297.761
548.6569, 1330.684
549.1390, 1378.435
549.6211, 1428.607
550.1032, 1467.361
550.5853, 1496.128
551.0674, 1522.222
551.5496, 1549.235
552.0317, 1572.706
552.5138, 1584.954
552.9959, 1582.110
553.4780, 1581.008
553.9601, 1595.135
554.4423, 1596.442
554.9244, 1569.218
555.4065, 1523.132
555.8886, 1471.584
556.3707, 1419.019
556.8528, 1369.413
557.3350, 1329.177
557.8171, 1297.052
558.2992, 1262.877
558.7813, 1225.701
559.2634, 1186.319
559.7455, 1142.409
560.2277, 1097.073
560.7098, 1060.117
561.1919, 1035.496
561.6740, 1012.237
562.1561, 983.8366
562.6382, 957.0082
563.1204, 941.2007
563.6025, 935.3422
564.0846, 928.7177
564.5667, 913.0097
565.0488, 891.0829
565.5309, 874.2018
566.0131, 864.2306
566.4952, 854.6086
566.9773, 842.6931
567.4594, 832.0609
567.9415, 825.6006
568.4236, 822.6931
568.9058, 820.1135
569.3879, 817.2219
569.8700, 813.4013
570.3521, 805.8847
570.8342, 796.6307
571.3163, 793.6647
571.7985, 799.9890
572.2806, 807.6244
572.7627, 806.5380
573.2448, 795.4747
573.7269, 787.4967
574.2090, 783.7411
574.6912, 781.4432
575.1733, 774.0099
575.6554, 762.5827
576.1375, 768.5228
576.6196, 771.6136
577.1017, 772.0084
577.5839, 761.6317
578.0660, 765.1641
578.5481, 763.1224
579.0302, 760.8521
579.5123, 766.3420
579.9944, 775.1567
580.4766, 790.5284
580.9587, 793.7371
581.4408, 781.7378
581.9229, 773.0363
582.4050, 771.4186
582.8871, 772.7348
583.3693, 776.1539
583.8514, 780.0753
584.3335, 780.8777
584.8156, 776.8415
585.2977, 772.5594
585.7798, 778.0682
586.2620, 795.1368
586.7441, 799.5196
587.2262, 781.3569
587.7083, 764.8250
588.1904, 766.6786
588.6725, 778.3958
589.1547, 786.2860
589.6368, 787.0561
590.1189, 787.9543
590.6010, 793.5392
591.0831, 800.6441
591.5652, 806.0067
592.0474, 808.9731
592.5295, 808.8270
593.0116, 804.8661
593.4937, 798.0567
593.9758, 791.2490
594.4579, 784.5515
594.9401, 777.6759
595.4222, 769.9766
595.9043, 762.7177
596.3864, 755.4539
596.8685, 749.2018
597.3506, 746.8395
597.8328, 751.4658
598.3149, 756.3345
598.7970, 756.0752
599.2791, 751.2417
599.7612, 741.8663
600.2433, 727.8980
600.7255, 714.6272
601.2076, 706.1642
601.6897, 702.3994
602.1718, 702.5101
602.6539, 711.7129
603.1360, 717.6796
603.6182, 720.2960
604.1003, 718.7892
604.5824, 709.4335
605.0645, 694.7629
605.5466, 684.0087
606.0287, 683.6252
606.5109, 688.3568
606.9930, 690.7728
607.4751, 691.1189
607.9572, 691.3882
608.4393, 692.1636
608.9214, 692.6006
609.4036, 691.6818
609.8857, 689.3981
610.3678, 687.8113
610.8499, 686.3738
611.3320, 686.2460
611.8141, 689.5783
612.2963, 693.1706
612.7784, 693.7061
613.2605, 690.9603
613.7426, 686.6969
614.2247, 680.7576
614.7068, 675.4750
615.1890, 677.6257
615.6711, 687.5360
616.1532, 698.0597
616.6353, 708.4670
617.1174, 716.3066
617.5995, 717.5454
618.0817, 712.0197
618.5638, 708.9540
619.0459, 711.0332
619.5280, 712.9290
620.0101, 711.2368
620.4922, 708.8786
620.9744, 709.8505
621.4565, 714.6853
621.9386, 720.5790
622.4207, 724.5819
622.9028, 727.8138
623.3849, 735.3846
623.8671, 748.2969
624.3492, 759.8794
624.8313, 768.9380
625.3134, 774.8975
625.7955, 774.0170
626.2776, 766.7949
626.7598, 767.2710
627.2419, 785.6937
627.7240, 803.2423
628.2061, 809.2737
628.6882, 808.8237
629.1703, 810.6825
629.6525, 816.2314
630.1346, 818.3278
630.6167, 808.5715
631.0988, 789.5502
631.5809, 776.4336
632.0630, 771.1869
632.5452, 763.7176
633.0273, 748.2553
633.5094, 731.8779
633.9915, 722.8248
634.4736, 720.7193
634.9557, 718.9083
635.4379, 719.6541
635.9200, 716.6762
636.4021, 701.9353
636.8842, 682.8240
637.3663, 671.2508
637.8484, 669.7370
638.3306, 671.9804
638.8127, 672.1555
639.2948, 670.5609
639.7769, 668.8378
640.2590, 666.7202
640.7411, 665.6678
641.2233, 668.8436
641.7054, 670.5490
642.1875, 662.0086
642.6696, 644.4760
