##NAMES=Almandine
##RRUFFID=R040076
##IDEAL CHEMISTRY=Fe^2+^_3_Al_2_(SiO_4_)_3_
##LOCALITY=Barton Garnet mine, Gore Mountain, Warren County, New York, USA
##OWNER=RRUFF
##SOURCE=University of Arizona Mineral Museum
##DESCRIPTION=Red coarsely crystalline
##STATUS=The identification of this mineral has been confirmed by X-ray diffraction and chemical analysis
##URL=rruff.info/R040076
##MEASURED CHEMISTRY=(Fe^2+^_1.38_Mg_1.26_Ca_0.33_Mn_0.03_)_Î£=3_Al_2.00_(Si_1.00_O_4_)_3_; trace amounts of Ti
127.2373, 3102.886
127.7194, 3098.021
128.2015, 3095.471
128.6837, 3098.083
129.1658, 3112.006
129.6479, 3147.615
130.1300, 3174.018
130.6121, 3193.865
131.0942, 3202.954
131.5764, 3193.151
132.0585, 3160.930
132.5406, 3115.349
133.0227, 3088.892
133.5048, 3107.278
133.9869, 3117.973
134.4691, 3107.356
134.9512, 3085.370
135.4333, 3068.216
135.9154, 3065.777
136.3975, 3078.075
136.8796, 3099.991
137.3618, 3139.835
137.8439, 3179.709
138.3260, 3214.983
138.8081, 3244.281
139.2902, 3262.000
139.7723, 3259.208
140.2545, 3236.001
140.7366, 3222.408
141.2187, 3227.384
141.7008, 3239.410
142.1829, 3246.693
142.6650, 3247.718
143.1472, 3244.182
143.6293, 3234.302
144.1114, 3219.680
144.5935, 3208.775
145.0756, 3204.400
145.5577, 3206.281
146.0399, 3215.631
146.5220, 3242.490
147.0041, 3264.426
147.4862, 3260.084
147.9683, 3230.827
148.4504, 3201.569
148.9326, 3195.119
149.4147, 3213.644
149.8968, 3231.310
150.3789, 3245.481
150.8610, 3256.061
151.3431, 3262.778
151.8252, 3265.555
152.3074, 3264.205
152.7895, 3257.603
153.2716, 3242.369
153.7537, 3229.010
154.2358, 3215.432
154.7179, 3205.344
155.2001, 3203.072
155.6822, 3210.509
156.1643, 3224.402
156.6464, 3234.844
157.1285, 3243.324
157.6106, 3245.788
158.0928, 3240.428
158.5749, 3229.202
159.0570, 3213.225
159.5391, 3192.460
160.0212, 3168.085
160.5033, 3154.931
160.9855, 3160.937
161.4676, 3168.224
161.9497, 3174.532
162.4318, 3178.181
162.9139, 3175.359
163.3960, 3161.716
163.8782, 3136.814
164.3603, 3119.543
164.8424, 3111.323
165.3245, 3108.504
165.8066, 3110.027
166.2887, 3115.556
166.7709, 3123.446
167.2530, 3135.658
167.7351, 3151.543
168.2172, 3153.285
168.6993, 3122.433
169.1814, 3082.854
169.6636, 3064.449
170.1457, 3073.370
170.6278, 3095.676
171.1099, 3119.463
171.5920, 3144.682
172.0741, 3173.225
172.5563, 3209.237
173.0384, 3249.560
173.5205, 3283.199
174.0026, 3302.647
174.4847, 3323.998
174.9668, 3364.865
175.4490, 3423.595
175.9311, 3478.456
176.4132, 3515.481
176.8953, 3535.062
177.3774, 3544.873
177.8595, 3544.173
178.3417, 3534.267
178.8238, 3514.767
179.3059, 3485.851
179.7880, 3451.321
180.2701, 3414.427
180.7522, 3374.138
181.2344, 3335.118
181.7165, 3299.868
182.1986, 3264.917
182.6807, 3227.080
183.1628, 3185.766
183.6449, 3144.375
184.1271, 3108.033
184.6092, 3075.605
185.0913, 3051.805
185.5734, 3037.006
186.0555, 3029.206
186.5376, 3028.265
187.0198, 3034.064
187.5019, 3043.763
187.9840, 3050.232
188.4661, 3054.715
188.9482, 3053.387
189.4303, 3036.996
189.9125, 3017.569
190.3946, 3010.912
190.8767, 3025.632
191.3588, 3055.891
191.8409, 3074.480
192.3230, 3067.104
192.8052, 3063.880
193.2873, 3070.399
193.7694, 3084.590
194.2515, 3102.329
194.7336, 3121.250
195.2157, 3141.535
195.6979, 3166.470
196.1800, 3202.282
196.6621, 3235.250
197.1442, 3258.816
197.6263, 3274.974
198.1084, 3290.347
198.5906, 3309.767
199.0727, 3332.623
199.5548, 3351.770
200.0369, 3356.027
200.5190, 3366.049
201.0011, 3400.377
201.4833, 3456.623
201.9654, 3509.254
202.4475, 3537.289
202.9296, 3542.806
203.4117, 3556.641
203.8938, 3581.556
204.3760, 3613.993
204.8581, 3654.480
205.3402, 3703.773
205.8223, 3749.683
206.3044, 3781.048
206.7865, 3800.688
207.2687, 3817.802
207.7508, 3834.746
208.2329, 3849.739
208.7150, 3859.571
209.1971, 3863.091
209.6792, 3865.111
210.1614, 3873.746
210.6435, 3884.588
211.1256, 3885.303
211.6077, 3858.743
212.0898, 3820.328
212.5719, 3807.713
213.0541, 3835.086
213.5362, 3862.856
214.0183, 3867.400
214.5004, 3852.372
214.9825, 3823.897
215.4646, 3776.766
215.9468, 3716.651
216.4289, 3669.252
216.9110, 3642.677
217.3931, 3618.838
217.8752, 3587.470
218.3573, 3550.052
218.8395, 3511.216
219.3216, 3471.949
219.8037, 3432.790
220.2858, 3400.056
220.7679, 3379.551
221.2500, 3359.704
221.7322, 3337.783
222.2143, 3312.545
222.6964, 3281.319
223.1785, 3236.565
223.6606, 3176.950
224.1427, 3133.910
224.6249, 3125.356
225.1070, 3118.873
225.5891, 3103.523
226.0712, 3079.214
226.5533, 3050.163
227.0354, 3017.596
227.5176, 2979.620
227.9997, 2952.318
228.4818, 2946.432
228.9639, 2942.538
229.4460, 2932.253
229.9281, 2916.290
230.4103, 2901.003
230.8924, 2893.921
231.3745, 2897.873
231.8566, 2897.051
232.3387, 2889.194
232.8208, 2878.885
233.3030, 2864.562
233.7851, 2848.338
234.2672, 2837.040
234.7493, 2840.346
235.2314, 2866.494
235.7135, 2876.775
236.1957, 2863.429
236.6778, 2843.638
237.1599, 2823.874
237.6420, 2806.044
238.1241, 2790.901
238.6062, 2779.972
239.0884, 2775.779
239.5705, 2767.295
240.0526, 2746.186
240.5347, 2727.993
241.0168, 2724.648
241.4989, 2735.838
241.9811, 2750.702
242.4632, 2756.424
242.9453, 2748.604
243.4274, 2744.844
243.9095, 2754.779
244.3916, 2761.172
244.8738, 2747.762
245.3559, 2715.066
245.8380, 2680.728
246.3201, 2664.475
246.8022, 2669.381
247.2843, 2688.007
247.7665, 2746.835
248.2486, 2799.874
248.7307, 2807.369
249.2128, 2767.499
249.6949, 2714.174
250.1770, 2686.294
250.6592, 2694.955
251.1413, 2692.192
251.6234, 2668.541
252.1055, 2640.598
252.5876, 2617.332
253.0697, 2601.115
253.5519, 2594.296
254.0340, 2600.846
254.5161, 2625.173
254.9982, 2647.355
255.4803, 2674.240
255.9624, 2694.553
256.4445, 2698.568
256.9267, 2685.272
257.4088, 2660.625
257.8909, 2627.433
258.3730, 2581.726
258.8551, 2553.782
259.3372, 2556.314
259.8194, 2568.466
260.3015, 2575.884
260.7836, 2576.393
261.2657, 2570.562
261.7478, 2555.323
262.2299, 2528.163
262.7121, 2520.116
263.1942, 2551.797
263.6763, 2589.544
264.1584, 2604.866
264.6405, 2595.415
265.1227, 2578.514
265.6048, 2570.146
266.0869, 2570.945
266.5690, 2563.695
267.0511, 2532.427
267.5332, 2503.346
268.0154, 2504.543
268.4975, 2536.453
268.9796, 2567.678
269.4617, 2570.034
269.9438, 2543.363
270.4259, 2527.481
270.9081, 2531.151
271.3902, 2540.434
271.8723, 2545.108
272.3544, 2544.679
272.8365, 2542.753
273.3186, 2542.234
273.8008, 2542.685
274.2829, 2540.522
274.7650, 2532.557
275.2471, 2524.311
275.7292, 2520.707
276.2113, 2521.509
276.6935, 2521.777
277.1756, 2517.355
277.6577, 2509.357
278.1398, 2505.358
278.6219, 2506.878
279.1040, 2511.159
279.5862, 2516.487
280.0683, 2522.898
280.5504, 2531.740
281.0325, 2546.986
281.5146, 2564.346
281.9967, 2568.912
282.4789, 2552.977
282.9610, 2531.624
283.4431, 2508.448
283.9252, 2485.368
284.4073, 2475.035
284.8894, 2488.937
285.3716, 2518.268
285.8537, 2534.313
286.3358, 2528.307
286.8179, 2520.631
287.3000, 2521.077
287.7821, 2528.940
288.2643, 2543.039
288.7464, 2567.262
289.2285, 2593.548
289.7106, 2602.216
290.1927, 2585.254
290.6748, 2567.056
291.1570, 2557.457
291.6391, 2555.484
292.1212, 2559.022
292.6033, 2568.789
293.0854, 2581.669
293.5675, 2591.131
294.0497, 2596.291
294.5318, 2601.393
295.0139, 2608.662
295.4960, 2617.130
295.9781, 2624.882
296.4602, 2631.648
296.9424, 2636.717
297.4245, 2638.019
297.9066, 2634.955
298.3887, 2632.302
298.8708, 2630.405
299.3529, 2630.083
299.8351, 2632.770
300.3172, 2638.871
300.7993, 2647.969
301.2814, 2661.626
301.7635, 2680.781
302.2456, 2695.034
302.7278, 2691.043
303.2099, 2684.612
303.6920, 2703.465
304.1741, 2755.547
304.6562, 2809.057
305.1383, 2821.612
305.6205, 2790.014
306.1026, 2777.897
306.5847, 2808.350
307.0668, 2854.267
307.5489, 2888.186
308.0310, 2906.722
308.5132, 2921.011
308.9953, 2941.123
309.4774, 2967.389
309.9595, 2991.643
310.4416, 3007.780
310.9237, 3025.907
311.4059, 3056.786
311.8880, 3099.644
312.3701, 3142.286
312.8522, 3175.772
313.3343, 3199.964
313.8164, 3224.568
314.2986, 3246.951
314.7807, 3271.847
315.2628, 3306.205
315.7449, 3346.878
316.2270, 3381.367
316.7091, 3401.032
317.1913, 3408.020
317.6734, 3416.208
318.1555, 3432.955
318.6376, 3443.093
319.1197, 3433.338
319.6018, 3412.357
320.0840, 3401.706
320.5661, 3413.467
321.0482, 3439.675
321.5303, 3453.607
322.0124, 3448.079
322.4945, 3442.411
322.9767, 3434.861
323.4588, 3430.950
323.9409, 3440.691
324.4230, 3468.478
324.9051, 3506.645
325.3872, 3540.080
325.8694, 3562.113
326.3515, 3591.163
326.8336, 3631.104
327.3157, 3677.205
327.7978, 3725.205
328.2799, 3773.832
328.7621, 3823.502
329.2442, 3874.096
329.7263, 3918.449
330.2084, 3984.974
330.6905, 4098.870
331.1726, 4215.708
331.6548, 4298.408
332.1369, 4345.998
332.6190, 4388.768
333.1011, 4458.128
333.5832, 4559.478
334.0653, 4658.434
334.5475, 4758.883
335.0296, 4853.960
335.5117, 4931.235
335.9938, 4998.204
336.4759, 5077.963
336.9580, 5189.956
337.4402, 5333.552
337.9223, 5468.383
338.4044, 5591.898
338.8865, 5709.250
339.3686, 5814.717
339.8507, 5916.290
340.3329, 6026.256
340.8150, 6152.629
341.2971, 6292.123
341.7792, 6431.318
342.2613, 6560.404
342.7434, 6702.510
343.2256, 6863.843
343.7077, 7036.950
344.1898, 7215.099
344.6719, 7395.542
345.1540, 7577.032
345.6361, 7755.415
346.1183, 7912.115
346.6004, 8103.768
347.0825, 8346.271
347.5646, 8608.599
348.0467, 8873.178
348.5288, 9133.417
349.0110, 9393.074
349.4931, 9651.565
349.9752, 9905.267
350.4573, 10175.88
350.9394, 10494.23
351.4215, 10807.51
351.9037, 11097.39
352.3858, 11361.27
352.8679, 11600.89
353.3500, 11824.95
353.8321, 12031.83
354.3142, 12174.51
354.7964, 12235.34
355.2785, 12244.30
355.7606, 12217.27
356.2427, 12151.98
356.7248, 12044.14
357.2069, 11895.61
357.6891, 11700.96
358.1712, 11435.17
358.6533, 11065.72
359.1354, 10693.98
359.6175, 10364.57
360.0996, 10054.53
360.5818, 9736.256
361.0639, 9395.334
361.5460, 9056.856
362.0281, 8757.028
362.5102, 8497.046
362.9923, 8254.218
363.4745, 8026.237
363.9566, 7809.909
364.4387, 7604.660
364.9208, 7410.480
365.4029, 7227.202
365.8850, 7051.194
366.3672, 6884.708
366.8493, 6735.795
367.3314, 6607.006
367.8135, 6497.459
368.2956, 6409.474
368.7777, 6341.539
369.2599, 6274.901
369.7420, 6198.726
370.2241, 6120.469
370.7062, 6055.519
371.1883, 6007.480
371.6704, 5961.226
372.1526, 5904.838
372.6347, 5838.782
373.1168, 5766.514
373.5989, 5675.939
374.0810, 5588.245
374.5631, 5528.167
375.0453, 5491.806
375.5274, 5446.520
376.0095, 5372.625
376.4916, 5273.866
376.9737, 5169.646
377.4558, 5051.468
377.9380, 4937.556
378.4201, 4835.403
378.9022, 4741.787
379.3843, 4652.951
379.8664, 4568.172
380.3485, 4483.758
380.8307, 4393.334
381.3128, 4292.281
381.7949, 4193.073
382.2770, 4093.835
382.7591, 3997.990
383.2412, 3911.883
383.7234, 3835.609
384.2055, 3761.874
384.6876, 3682.215
385.1697, 3593.758
385.6518, 3511.263
386.1339, 3437.687
386.6161, 3366.108
387.0982, 3290.727
387.5803, 3213.831
388.0624, 3144.085
388.5445, 3088.688
389.0266, 3045.572
389.5088, 2993.432
389.9909, 2920.753
390.4730, 2851.845
390.9551, 2792.111
391.4372, 2738.227
391.9193, 2685.402
392.4015, 2631.490
392.8836, 2578.980
393.3657, 2533.530
393.8478, 2499.641
394.3299, 2462.535
394.8120, 2412.923
395.2942, 2364.601
395.7763, 2329.232
396.2584, 2307.567
396.7405, 2288.133
397.2226, 2257.830
397.7047, 2216.667
398.1869, 2181.137
398.6690, 2159.028
399.1511, 2134.449
399.6332, 2090.182
400.1153, 2035.321
400.5974, 1996.018
401.0796, 1995.587
401.5617, 2017.315
402.0438, 2023.569
402.5259, 2011.426
403.0080, 1995.411
403.4901, 1983.363
403.9723, 1972.264
404.4544, 1956.779
404.9365, 1932.173
405.4186, 1909.324
405.9007, 1901.034
406.3828, 1904.158
406.8650, 1900.222
407.3471, 1879.355
407.8292, 1852.904
408.3113, 1840.295
408.7934, 1843.603
409.2755, 1846.818
409.7577, 1844.070
410.2398, 1838.770
410.7219, 1837.085
411.2040, 1840.116
411.6861, 1840.728
412.1682, 1831.173
412.6504, 1809.853
413.1325, 1789.854
413.6146, 1768.476
414.0967, 1750.706
414.5788, 1740.793
415.0609, 1737.051
415.5431, 1734.570
416.0252, 1730.592
416.5073, 1725.126
416.9894, 1718.079
417.4715, 1704.484
417.9536, 1695.363
418.4358, 1696.883
418.9179, 1701.062
419.4000, 1698.671
419.8821, 1687.152
420.3642, 1671.861
420.8463, 1660.714
421.3285, 1654.758
421.8106, 1650.324
422.2927, 1646.802
422.7748, 1645.234
423.2569, 1647.847
423.7390, 1653.293
424.2212, 1657.408
424.7033, 1656.768
425.1854, 1652.052
425.6675, 1647.536
426.1496, 1644.308
426.6317, 1639.323
427.1139, 1629.173
427.5960, 1617.578
428.0781, 1608.266
428.5602, 1601.348
429.0423, 1600.590
429.5244, 1617.615
430.0066, 1653.174
430.4887, 1671.417
430.9708, 1652.119
431.4529, 1620.289
431.9350, 1604.506
432.4171, 1605.426
432.8993, 1609.575
433.3814, 1614.202
433.8635, 1616.892
434.3456, 1611.530
434.8277, 1596.444
435.3098, 1580.436
435.7920, 1569.518
436.2741, 1564.193
436.7562, 1564.709
437.2383, 1577.550
437.7204, 1590.275
438.2025, 1595.384
438.6847, 1594.341
439.1668, 1591.659
439.6489, 1589.286
440.1310, 1587.398
440.6131, 1586.519
441.0952, 1587.792
441.5774, 1588.469
442.0595, 1585.411
442.5416, 1583.479
443.0237, 1589.882
443.5058, 1604.384
443.9879, 1617.432
444.4701, 1617.353
444.9522, 1601.541
445.4343, 1591.194
445.9164, 1592.007
446.3985, 1592.636
446.8806, 1589.316
447.3628, 1583.267
447.8449, 1576.605
448.3270, 1569.855
448.8091, 1564.682
449.2912, 1566.556
449.7733, 1579.355
450.2555, 1588.323
450.7376, 1585.188
451.2197, 1579.531
451.7018, 1579.271
452.1839, 1585.619
452.6660, 1591.674
453.1482, 1590.596
453.6303, 1584.145
454.1124, 1580.820
454.5945, 1582.579
455.0766, 1585.341
455.5587, 1583.794
456.0409, 1580.089
456.5230, 1581.429
457.0051, 1596.789
457.4872, 1612.286
457.9693, 1611.303
458.4514, 1597.303
458.9336, 1591.782
459.4156, 1607.927
459.8978, 1635.324
460.3799, 1644.730
460.8620, 1625.541
461.3441, 1611.689
461.8262, 1610.007
462.3083, 1615.939
462.7905, 1627.503
463.2726, 1643.198
463.7547, 1656.822
464.2368, 1660.756
464.7189, 1652.762
465.2010, 1654.734
465.6832, 1678.789
466.1653, 1699.220
466.6474, 1706.033
467.1295, 1703.948
467.6116, 1700.819
468.0938, 1700.318
468.5759, 1702.615
469.0580, 1708.218
469.5401, 1717.558
470.0222, 1729.079
470.5043, 1748.404
470.9865, 1765.475
471.4686, 1769.543
471.9507, 1761.735
472.4328, 1759.012
472.9149, 1778.164
473.3970, 1813.046
473.8792, 1840.901
474.3613, 1858.838
474.8434, 1875.479
475.3255, 1897.952
475.8076, 1922.941
476.2897, 1943.677
476.7719, 1958.025
477.2540, 1969.343
477.7361, 1972.647
478.2182, 1973.950
478.7003, 1995.629
479.1824, 2048.942
479.6646, 2112.110
480.1467, 2149.472
480.6288, 2150.346
481.1109, 2159.454
481.5930, 2186.681
482.0751, 2216.682
482.5573, 2240.615
483.0394, 2257.350
483.5215, 2268.525
484.0036, 2275.897
484.4857, 2278.284
484.9678, 2267.399
485.4500, 2229.471
485.9321, 2196.041
486.4142, 2177.478
486.8963, 2161.771
487.3784, 2134.042
487.8605, 2091.760
488.3427, 2050.067
488.8248, 2028.170
489.3069, 2027.034
489.7890, 2023.273
490.2711, 2011.896
490.7532, 2003.113
491.2354, 2001.428
491.7175, 2006.210
492.1996, 2015.840
492.6817, 2028.559
493.1638, 2046.980
493.6459, 2076.495
494.1281, 2116.454
494.6102, 2156.357
495.0923, 2191.012
495.5744, 2225.121
496.0565, 2268.573
496.5386, 2324.146
497.0208, 2375.338
497.5029, 2404.687
497.9850, 2436.108
498.4671, 2496.340
498.9492, 2585.670
499.4313, 2685.812
499.9135, 2782.912
500.3956, 2876.897
500.8777, 2972.203
501.3598, 3064.893
501.8419, 3163.132
502.3240, 3282.881
502.8062, 3401.671
503.2883, 3495.463
503.7704, 3556.950
504.2525, 3596.925
504.7346, 3631.678
505.2167, 3663.775
505.6989, 3671.054
506.1810, 3655.508
506.6631, 3609.278
507.1452, 3520.593
507.6273, 3401.158
508.1094, 3275.017
508.5916, 3147.438
509.0737, 3024.042
509.5558, 2917.233
510.0379, 2826.675
510.5200, 2729.164
511.0021, 2610.400
511.4843, 2488.674
511.9664, 2392.346
512.4485, 2322.483
512.9306, 2259.959
513.4127, 2199.990
513.8948, 2145.424
514.3770, 2098.221
514.8591, 2058.894
515.3412, 2030.125
515.8233, 2015.429
516.3054, 2011.798
516.7875, 2000.327
517.2697, 1963.479
517.7518, 1940.561
518.2339, 1946.939
518.7160, 1962.281
519.1981, 1966.207
519.6802, 1955.049
520.1624, 1940.266
520.6445, 1936.152
521.1266, 1943.197
521.6087, 1939.245
522.0908, 1910.604
522.5729, 1891.677
523.0551, 1910.972
523.5372, 1945.231
524.0193, 1955.051
524.5014, 1920.265
524.9835, 1877.592
525.4656, 1863.901
525.9478, 1874.745
526.4299, 1887.568
526.9120, 1897.786
527.3941, 1905.561
527.8762, 1910.214
528.3583, 1911.586
528.8405, 1913.981
529.3226, 1922.581
529.8047, 1928.108
530.2868, 1922.179
530.7689, 1907.978
531.2510, 1894.002
531.7332, 1884.359
532.2153, 1878.830
532.6974, 1876.989
533.1795, 1879.721
533.6616, 1884.830
534.1437, 1895.394
534.6259, 1905.376
535.1080, 1908.609
535.5901, 1907.211
536.0722, 1909.346
536.5543, 1921.059
537.0364, 1940.435
537.5186, 1962.587
538.0007, 1989.104
538.4828, 2012.411
538.9649, 2024.292
539.4470, 2034.799
539.9291, 2055.472
540.4113, 2087.802
540.8934, 2124.496
541.3755, 2164.897
541.8576, 2206.194
542.3397, 2243.156
542.8218, 2275.298
543.3040, 2305.411
543.7861, 2332.744
544.2682, 2359.567
544.7503, 2406.391
545.2324, 2494.561
545.7145, 2573.412
546.1967, 2618.466
546.6788, 2656.465
547.1609, 2718.216
547.6430, 2809.035
548.1251, 2910.260
548.6072, 2999.697
549.0894, 3076.669
549.5715, 3169.552
550.0536, 3290.156
550.5357, 3410.752
551.0178, 3513.839
551.4999, 3613.443
551.9821, 3732.450
552.4642, 3881.035
552.9463, 4033.561
553.4284, 4161.668
553.9105, 4273.096
554.3926, 4399.481
554.8748, 4550.571
555.3569, 4703.047
555.8390, 4834.616
556.3211, 4945.780
556.8032, 5056.658
557.2853, 5193.623
557.7675, 5303.705
558.2496, 5368.853
558.7317, 5388.533
559.2138, 5359.256
559.6959, 5280.456
560.1780, 5161.731
560.6602, 5015.308
561.1423, 4837.052
561.6244, 4649.906
562.1065, 4446.412
562.5886, 4242.672
563.0707, 4039.979
563.5529, 3841.487
564.0350, 3649.167
564.5171, 3463.618
564.9992, 3287.835
565.4813, 3127.515
565.9634, 2982.065
566.4456, 2841.113
566.9277, 2698.657
567.4098, 2565.229
567.8919, 2454.437
568.3740, 2364.381
568.8561, 2281.269
569.3383, 2199.971
569.8204, 2127.464
570.3025, 2073.793
570.7846, 2031.791
571.2667, 1983.291
571.7488, 1920.678
572.2310, 1853.657
572.7131, 1800.129
573.1952, 1761.127
573.6773, 1732.870
574.1594, 1728.258
574.6415, 1721.021
575.1237, 1693.209
575.6058, 1654.710
576.0879, 1628.570
576.5700, 1628.990
577.0521, 1638.786
577.5342, 1628.315
578.0164, 1597.426
578.4985, 1575.313
578.9806, 1570.620
579.4627, 1574.077
579.9448, 1577.868
580.4269, 1581.899
580.9091, 1584.795
581.3912, 1587.192
581.8733, 1587.588
582.3554, 1580.021
582.8375, 1569.710
583.3196, 1571.705
583.8018, 1592.696
584.2839, 1620.600
584.7660, 1633.296
585.2481, 1621.904
585.7302, 1620.565
586.2123, 1642.111
586.6945, 1660.280
587.1766, 1663.558
587.6587, 1655.359
588.1408, 1643.242
588.6229, 1629.855
589.1050, 1616.607
589.5872, 1606.967
590.0693, 1600.598
590.5514, 1589.507
591.0335, 1570.712
591.5156, 1549.102
591.9977, 1527.523
592.4799, 1506.406
592.9620, 1490.866
593.4441, 1487.109
593.9262, 1483.732
594.4083, 1471.607
594.8904, 1455.417
595.3726, 1444.845
595.8547, 1443.296
596.3368, 1447.650
596.8189, 1454.573
597.3010, 1465.999
597.7831, 1470.638
598.2653, 1457.526
598.7474, 1449.048
599.2295, 1459.439
599.7116, 1476.913
600.1937, 1481.835
600.6758, 1465.538
601.1580, 1444.313
601.6401, 1435.429
602.1222, 1436.766
602.6043, 1438.200
603.0864, 1438.274
603.5685, 1437.748
604.0507, 1436.748
604.5328, 1435.548
605.0149, 1436.187
605.4970, 1439.815
605.9791, 1443.916
606.4612, 1448.896
606.9434, 1453.271
607.4255, 1455.638
607.9076, 1455.476
608.3897, 1452.027
608.8718, 1443.278
609.3539, 1429.458
609.8361, 1422.485
610.3182, 1429.841
610.8003, 1431.436
611.2824, 1418.900
611.7645, 1398.771
612.2466, 1374.739
612.7288, 1346.704
613.2109, 1326.481
613.6930, 1328.433
614.1751, 1341.394
614.6572, 1344.932
615.1393, 1337.357
615.6215, 1326.289
616.1036, 1315.905
616.5857, 1305.955
617.0678, 1295.261
617.5499, 1277.459
618.0320, 1267.924
618.5142, 1273.072
618.9963, 1282.283
619.4784, 1288.224
619.9605, 1290.516
620.4426, 1291.798
620.9247, 1293.483
621.4069, 1295.971
