##NAMES=Almandine
##RRUFFID=R050029
##IDEAL CHEMISTRY=Fe^2+^_3_Al_2_(SiO_4_)_3_
##LOCALITY=Barton Garnet mine, Gore Mountain, Warren County, New York, USA
##OWNER=RRUFF
##SOURCE=University of Arizona Mineral Museum
##DESCRIPTION=Reddish brown fragments
##STATUS=The identification of this mineral has been confirmed by X-ray diffraction and chemical analysis
##URL=rruff.info/R050029
##MEASURED CHEMISTRY=(Fe^2+^_1.34_Mg_1.26_Ca_0.37_Mn_0.03_)_Î£=3_Al_2.00_(Si_1.00_O_4_)_3_
131.1439, 405.6433
131.6260, 427.6452
132.1081, 450.3585
132.5902, 469.4992
133.0723, 473.2647
133.5544, 485.7275
134.0366, 521.8475
134.5187, 569.3936
135.0008, 606.5837
135.4829, 617.5343
135.9650, 603.7516
136.4471, 596.5900
136.9293, 599.8066
137.4114, 605.0555
137.8935, 611.5751
138.3756, 618.2982
138.8577, 623.2509
139.3398, 624.5718
139.8220, 622.1953
140.3041, 623.6298
140.7862, 631.0680
141.2683, 639.2654
141.7504, 644.0658
142.2325, 646.9750
142.7147, 653.4921
143.1968, 668.0092
143.6789, 690.9157
144.1610, 716.3561
144.6431, 744.1506
145.1252, 774.1483
145.6074, 807.5160
146.0895, 843.6860
146.5716, 879.7297
147.0537, 913.9144
147.5358, 945.7791
148.0179, 973.7910
148.5001, 994.1275
148.9822, 1013.476
149.4643, 1037.420
149.9464, 1066.203
150.4285, 1095.256
150.9106, 1122.821
151.3928, 1147.771
151.8749, 1164.889
152.3570, 1169.971
152.8391, 1169.405
153.3212, 1168.296
153.8033, 1166.968
154.2855, 1165.361
154.7676, 1163.826
155.2497, 1162.013
155.7318, 1158.463
156.2139, 1153.620
156.6960, 1146.581
157.1782, 1134.586
157.6603, 1116.565
158.1424, 1100.053
158.6245, 1091.115
159.1066, 1088.264
159.5887, 1089.094
160.0709, 1095.698
160.5530, 1104.676
161.0351, 1111.144
161.5172, 1114.652
161.9993, 1116.816
162.4814, 1117.339
162.9636, 1117.325
163.4457, 1119.047
163.9278, 1122.256
164.4099, 1127.966
164.8920, 1140.570
165.3741, 1164.444
165.8563, 1182.643
166.3384, 1176.881
166.8205, 1159.074
167.3026, 1149.588
167.7847, 1161.026
168.2668, 1184.591
168.7490, 1200.839
169.2311, 1207.047
169.7132, 1212.095
170.1953, 1219.382
170.6774, 1228.848
171.1595, 1241.021
171.6417, 1258.275
172.1238, 1277.508
172.6059, 1289.908
173.0880, 1291.314
173.5701, 1294.234
174.0522, 1306.008
174.5344, 1322.368
175.0165, 1337.135
175.4986, 1347.253
175.9807, 1353.959
176.4628, 1361.210
176.9449, 1371.114
177.4271, 1377.336
177.9092, 1377.807
178.3913, 1373.721
178.8734, 1366.112
179.3555, 1354.381
179.8376, 1340.365
180.3197, 1330.261
180.8019, 1329.069
181.2840, 1322.573
181.7661, 1300.269
182.2482, 1272.718
182.7303, 1253.418
183.2124, 1249.652
183.6946, 1257.018
184.1767, 1263.589
184.6588, 1270.444
185.1409, 1274.203
185.6230, 1272.932
186.1051, 1269.032
186.5873, 1264.169
187.0694, 1258.364
187.5515, 1254.196
188.0336, 1260.436
188.5157, 1289.173
188.9978, 1306.774
189.4800, 1300.423
189.9621, 1283.509
190.4442, 1267.886
190.9263, 1258.325
191.4084, 1256.068
191.8905, 1265.991
192.3727, 1299.639
192.8548, 1324.878
193.3369, 1332.404
193.8190, 1332.344
194.3011, 1334.131
194.7832, 1341.506
195.2654, 1352.108
195.7475, 1360.917
196.2296, 1367.546
196.7117, 1373.017
197.1938, 1376.747
197.6759, 1380.004
198.1581, 1383.164
198.6402, 1386.461
199.1223, 1391.250
199.6044, 1401.118
200.0865, 1422.093
200.5686, 1435.749
201.0508, 1433.594
201.5329, 1429.140
202.0150, 1433.915
202.4971, 1450.733
202.9792, 1472.205
203.4613, 1486.759
203.9435, 1492.691
204.4256, 1494.877
204.9077, 1490.769
205.3898, 1485.596
205.8719, 1481.314
206.3540, 1478.993
206.8362, 1480.620
207.3183, 1491.553
207.8004, 1521.182
208.2825, 1535.192
208.7646, 1520.704
209.2467, 1502.426
209.7289, 1493.709
210.2110, 1496.463
210.6931, 1505.113
211.1752, 1514.713
211.6573, 1527.605
212.1395, 1532.239
212.6216, 1523.311
213.1037, 1511.323
213.5858, 1499.013
214.0679, 1487.855
214.5500, 1479.937
215.0322, 1478.509
215.5143, 1485.403
215.9964, 1486.469
216.4785, 1475.399
216.9606, 1464.435
217.4427, 1459.219
217.9249, 1458.370
218.4070, 1456.608
218.8891, 1448.976
219.3712, 1435.207
219.8533, 1425.188
220.3354, 1419.261
220.8176, 1417.099
221.2997, 1422.783
221.7818, 1432.231
222.2639, 1437.677
222.7460, 1433.210
223.2281, 1419.797
223.7103, 1408.253
224.1924, 1399.140
224.6745, 1391.514
225.1566, 1385.427
225.6387, 1380.616
226.1208, 1376.879
226.6030, 1374.208
227.0851, 1372.317
227.5672, 1370.085
228.0493, 1368.138
228.5314, 1364.828
229.0135, 1356.895
229.4957, 1348.629
229.9778, 1345.898
230.4599, 1351.541
230.9420, 1361.410
231.4241, 1364.771
231.9062, 1355.755
232.3884, 1350.230
232.8705, 1354.035
233.3526, 1359.625
233.8347, 1359.464
234.3168, 1351.248
234.7989, 1340.072
235.2811, 1334.894
235.7632, 1338.193
236.2453, 1341.797
236.7274, 1346.940
237.2095, 1350.836
237.6916, 1350.827
238.1738, 1346.751
238.6559, 1341.524
239.1380, 1338.916
239.6201, 1339.836
240.1022, 1340.003
240.5843, 1340.254
241.0665, 1338.920
241.5486, 1331.510
242.0307, 1320.109
242.5128, 1313.721
242.9949, 1324.660
243.4770, 1355.397
243.9592, 1373.692
244.4413, 1367.656
244.9234, 1359.676
245.4055, 1357.723
245.8876, 1360.689
246.3697, 1364.184
246.8519, 1365.548
247.3340, 1364.778
247.8161, 1361.542
248.2982, 1352.788
248.7803, 1345.658
249.2624, 1341.853
249.7446, 1341.218
250.2267, 1344.432
250.7088, 1353.928
251.1909, 1365.255
251.6730, 1363.961
252.1551, 1341.990
252.6373, 1323.699
253.1194, 1316.643
253.6015, 1316.901
254.0836, 1322.128
254.5657, 1332.703
255.0478, 1343.238
255.5300, 1342.672
256.0121, 1326.335
256.4942, 1316.743
256.9763, 1327.604
257.4584, 1343.596
257.9406, 1353.670
258.4227, 1355.394
258.9048, 1354.801
259.3869, 1359.438
259.8690, 1369.737
260.3511, 1375.068
260.8333, 1369.875
261.3154, 1362.013
261.7975, 1356.286
262.2796, 1353.034
262.7617, 1352.054
263.2438, 1354.398
263.7260, 1359.370
264.2081, 1362.885
264.6902, 1364.322
265.1723, 1364.462
265.6544, 1364.953
266.1365, 1365.065
266.6187, 1362.058
267.1008, 1352.330
267.5829, 1339.026
268.0650, 1327.761
268.5471, 1317.729
269.0292, 1312.833
269.5114, 1321.237
269.9935, 1336.291
270.4756, 1346.637
270.9577, 1346.391
271.4398, 1342.675
271.9219, 1343.521
272.4041, 1349.053
272.8862, 1355.211
273.3683, 1361.229
273.8504, 1365.902
274.3325, 1366.776
274.8146, 1360.902
275.2968, 1356.390
275.7789, 1360.828
276.2610, 1371.854
276.7431, 1379.434
277.2252, 1379.061
277.7073, 1374.940
278.1895, 1373.891
278.6716, 1376.024
279.1537, 1379.565
279.6358, 1386.615
280.1179, 1394.051
280.6000, 1395.266
281.0822, 1388.087
281.5643, 1379.147
282.0464, 1376.898
282.5285, 1382.044
283.0106, 1385.014
283.4927, 1382.158
283.9749, 1378.318
284.4570, 1377.392
284.9391, 1379.800
285.4212, 1385.213
285.9033, 1394.641
286.3854, 1407.739
286.8676, 1414.449
287.3497, 1408.776
287.8318, 1403.157
288.3139, 1403.900
288.7960, 1409.631
289.2781, 1416.583
289.7603, 1423.115
290.2424, 1428.571
290.7245, 1429.882
291.2066, 1424.458
291.6887, 1418.431
292.1708, 1412.204
292.6530, 1406.037
293.1351, 1398.729
293.6172, 1390.014
294.0993, 1383.895
294.5814, 1388.206
295.0635, 1413.350
295.5457, 1429.234
296.0278, 1429.816
296.5099, 1426.174
296.9920, 1425.508
297.4741, 1428.852
297.9562, 1433.605
298.4384, 1437.285
298.9205, 1439.918
299.4026, 1441.234
299.8847, 1440.058
300.3668, 1438.784
300.8489, 1436.451
301.3311, 1434.694
301.8131, 1436.421
302.2953, 1443.538
302.7774, 1455.679
303.2595, 1471.866
303.7416, 1500.577
304.2237, 1520.230
304.7058, 1520.098
305.1880, 1512.439
305.6701, 1510.794
306.1522, 1520.294
306.6343, 1534.737
307.1164, 1544.219
307.5985, 1547.781
308.0807, 1549.792
308.5628, 1546.951
309.0449, 1545.637
309.5270, 1550.792
310.0091, 1562.461
310.4912, 1575.429
310.9734, 1583.096
311.4555, 1586.551
311.9376, 1599.199
312.4197, 1629.711
312.9018, 1658.159
313.3839, 1670.646
313.8661, 1671.619
314.3482, 1672.342
314.8303, 1678.759
315.3124, 1687.646
315.7945, 1693.015
316.2766, 1694.306
316.7588, 1695.340
317.2409, 1698.298
317.7230, 1702.225
318.2051, 1705.464
318.6872, 1707.375
319.1693, 1709.331
319.6515, 1712.766
320.1336, 1717.244
320.6157, 1720.243
321.0978, 1719.586
321.5799, 1719.169
322.0620, 1726.842
322.5442, 1744.082
323.0263, 1758.171
323.5084, 1762.836
323.9905, 1763.539
324.4726, 1765.674
324.9547, 1770.207
325.4369, 1780.333
325.9190, 1800.454
326.4011, 1831.823
326.8832, 1859.399
327.3653, 1881.955
327.8474, 1902.157
328.3296, 1920.635
328.8117, 1937.959
329.2938, 1954.864
329.7759, 1971.567
330.2580, 1988.743
330.7401, 2008.947
331.2223, 2027.561
331.7044, 2055.184
332.1865, 2101.616
332.6686, 2153.733
333.1507, 2196.644
333.6328, 2226.051
334.1150, 2249.827
334.5971, 2280.096
335.0792, 2320.052
335.5613, 2357.595
336.0434, 2389.048
336.5255, 2421.531
337.0077, 2458.679
337.4898, 2500.054
337.9719, 2543.407
338.4540, 2586.916
338.9361, 2630.652
339.4182, 2675.383
339.9004, 2721.400
340.3825, 2767.613
340.8646, 2812.072
341.3467, 2857.258
341.8288, 2905.916
342.3109, 2959.177
342.7931, 3016.586
343.2752, 3077.843
343.7573, 3143.302
344.2394, 3210.926
344.7215, 3281.344
345.2036, 3353.344
345.6858, 3424.328
346.1679, 3494.613
346.6500, 3571.135
347.1321, 3659.206
347.6142, 3756.713
348.0963, 3859.848
348.5785, 3970.106
349.0606, 4080.843
349.5427, 4188.364
350.0248, 4292.509
350.5069, 4391.450
350.9890, 4483.650
351.4712, 4571.958
351.9533, 4661.992
352.4354, 4751.927
352.9175, 4832.969
353.3996, 4902.185
353.8817, 4958.542
354.3639, 4999.481
354.8460, 5035.795
355.3281, 5040.403
355.8102, 4991.356
356.2923, 4914.489
356.7744, 4840.996
357.2566, 4777.037
357.7387, 4710.295
358.2208, 4628.210
358.7029, 4530.955
359.1850, 4412.621
359.6671, 4246.851
360.1493, 4089.775
360.6314, 3969.860
361.1135, 3878.267
361.5956, 3793.391
362.0777, 3702.470
362.5598, 3607.229
363.0420, 3512.563
363.5241, 3411.776
364.0062, 3323.379
364.4883, 3253.732
364.9704, 3193.155
365.4525, 3134.258
365.9347, 3075.440
366.4168, 3018.029
366.8989, 2962.599
367.3810, 2908.339
367.8631, 2862.981
368.3452, 2830.392
368.8274, 2802.956
369.3095, 2779.357
369.7916, 2757.346
370.2737, 2731.791
370.7558, 2698.339
371.2379, 2661.541
371.7201, 2629.542
372.2022, 2602.825
372.6843, 2576.521
373.1664, 2546.804
373.6485, 2517.829
374.1306, 2497.419
374.6128, 2489.688
375.0949, 2476.587
375.5770, 2443.921
376.0591, 2400.213
376.5412, 2361.996
377.0233, 2332.626
377.5055, 2309.117
377.9876, 2290.961
378.4697, 2279.082
378.9518, 2257.016
379.4339, 2215.663
379.9160, 2172.148
380.3982, 2135.885
380.8803, 2106.049
381.3624, 2079.419
381.8445, 2054.438
382.3266, 2030.752
382.8087, 2006.854
383.2909, 1984.568
383.7730, 1959.682
384.2551, 1930.910
384.7372, 1900.404
385.2193, 1868.563
385.7014, 1836.211
386.1836, 1805.779
386.6657, 1780.812
387.1478, 1761.944
387.6299, 1737.768
388.1120, 1696.474
388.5941, 1663.781
389.0763, 1657.355
389.5584, 1662.524
390.0405, 1654.205
390.5226, 1618.228
391.0047, 1574.245
391.4868, 1556.476
391.9690, 1568.407
392.4511, 1573.631
392.9332, 1558.265
393.4153, 1536.300
393.8974, 1521.901
394.3795, 1515.120
394.8617, 1506.904
395.3438, 1490.281
395.8259, 1470.280
396.3080, 1455.627
396.7901, 1447.317
397.2722, 1440.302
397.7544, 1430.519
398.2365, 1419.205
398.7186, 1412.196
399.2007, 1416.643
399.6828, 1417.407
400.1649, 1405.584
400.6471, 1386.943
401.1292, 1370.338
401.6113, 1358.594
402.0934, 1350.936
402.5755, 1346.296
403.0576, 1345.464
403.5398, 1345.589
404.0219, 1349.381
404.5040, 1351.506
404.9861, 1347.033
405.4682, 1338.522
405.9503, 1332.800
406.4325, 1334.620
406.9146, 1341.423
407.3967, 1343.899
407.8788, 1339.663
408.3609, 1335.929
408.8430, 1335.348
409.3252, 1334.940
409.8073, 1331.650
410.2894, 1325.248
410.7715, 1319.310
411.2536, 1317.997
411.7357, 1320.131
412.2179, 1320.479
412.7000, 1320.152
413.1821, 1314.522
413.6642, 1291.505
414.1463, 1261.415
414.6284, 1246.842
415.1106, 1262.220
415.5927, 1281.550
416.0748, 1284.373
416.5569, 1275.442
417.0390, 1269.983
417.5211, 1273.761
418.0033, 1280.602
418.4854, 1280.751
418.9675, 1270.897
419.4496, 1265.751
419.9317, 1270.797
420.4138, 1276.621
420.8960, 1275.983
421.3781, 1270.226
421.8602, 1265.546
422.3423, 1266.192
422.8244, 1270.440
423.3065, 1270.571
423.7887, 1261.518
424.2708, 1256.311
424.7529, 1259.873
425.2350, 1265.045
425.7171, 1266.136
426.1992, 1262.314
426.6814, 1256.317
427.1635, 1248.853
427.6456, 1240.429
428.1277, 1238.923
428.6098, 1248.890
429.0919, 1257.006
429.5741, 1254.573
430.0562, 1246.481
430.5383, 1239.415
431.0204, 1234.425
431.5025, 1231.877
431.9846, 1233.862
432.4668, 1238.850
432.9489, 1241.005
433.4310, 1238.367
433.9131, 1234.111
434.3952, 1231.729
434.8773, 1231.382
435.3595, 1231.815
435.8416, 1232.756
436.3237, 1234.661
436.8058, 1238.943
437.2879, 1244.438
437.7701, 1247.824
438.2522, 1247.175
438.7343, 1244.864
439.2164, 1247.280
439.6985, 1259.668
440.1806, 1267.349
440.6628, 1268.474
441.1449, 1266.788
441.6270, 1263.824
442.1091, 1260.195
442.5912, 1256.200
443.0733, 1250.428
443.5555, 1245.127
444.0376, 1252.118
444.5197, 1279.206
445.0018, 1296.641
445.4839, 1283.076
445.9660, 1259.238
446.4482, 1245.525
446.9303, 1245.575
447.4124, 1246.883
447.8945, 1239.051
448.3766, 1227.606
448.8587, 1225.269
449.3409, 1234.195
449.8230, 1245.326
450.3051, 1251.519
450.7872, 1253.469
451.2693, 1258.428
451.7514, 1270.641
452.2336, 1280.697
452.7157, 1286.442
453.1978, 1287.819
453.6799, 1282.407
454.1620, 1270.247
454.6441, 1258.667
455.1263, 1258.125
455.6084, 1271.499
456.0905, 1279.571
456.5726, 1277.161
457.0547, 1274.453
457.5368, 1275.003
458.0190, 1277.144
458.5011, 1277.712
458.9832, 1275.154
459.4653, 1271.661
459.9474, 1269.644
460.4295, 1269.082
460.9117, 1272.097
461.3938, 1281.158
461.8759, 1291.140
462.3580, 1297.460
462.8401, 1300.677
463.3222, 1303.538
463.8044, 1306.261
464.2865, 1309.370
464.7686, 1314.459
465.2507, 1320.612
465.7328, 1323.572
466.2149, 1320.873
466.6971, 1316.252
467.1792, 1317.312
467.6613, 1329.152
468.1434, 1335.877
468.6255, 1331.273
469.1076, 1327.041
469.5898, 1331.388
470.0719, 1342.649
470.5540, 1354.547
471.0361, 1363.397
471.5182, 1369.601
472.0003, 1374.264
472.4825, 1376.822
472.9646, 1379.290
473.4467, 1384.238
473.9288, 1387.586
474.4109, 1382.415
474.8930, 1370.458
475.3752, 1366.931
475.8573, 1388.940
476.3394, 1421.581
476.8215, 1438.309
477.3036, 1438.366
477.7857, 1436.238
478.2679, 1438.073
478.7500, 1443.141
479.2321, 1449.517
479.7142, 1455.420
480.1963, 1466.319
480.6784, 1488.484
481.1606, 1512.582
481.6427, 1532.003
482.1248, 1545.239
482.6069, 1550.580
483.0890, 1545.625
483.5711, 1533.044
484.0533, 1528.110
484.5354, 1538.193
485.0175, 1543.821
485.4996, 1542.601
485.9817, 1536.212
486.4638, 1523.835
486.9460, 1506.459
487.4281, 1489.986
487.9102, 1478.182
488.3923, 1470.839
488.8744, 1468.226
489.3565, 1471.074
489.8387, 1474.371
490.3208, 1475.286
490.8029, 1475.279
491.2850, 1477.767
491.7671, 1484.379
492.2492, 1488.779
492.7314, 1483.857
493.2135, 1478.359
493.6956, 1483.015
494.1777, 1498.219
494.6598, 1517.170
495.1419, 1534.976
495.6241, 1551.875
496.1062, 1570.104
496.5883, 1594.847
497.0704, 1613.186
497.5525, 1613.503
498.0346, 1614.383
498.5168, 1632.126
498.9989, 1667.707
499.4810, 1709.969
499.9631, 1753.469
500.4452, 1796.232
500.9273, 1826.964
501.4095, 1841.228
501.8916, 1863.158
502.3737, 1911.916
502.8558, 1969.451
503.3379, 2007.826
503.8200, 2024.242
504.3022, 2030.600
504.7843, 2027.870
505.2664, 2019.311
505.7485, 2009.298
506.2306, 1997.671
506.7127, 1981.097
507.1949, 1957.472
507.6770, 1926.762
508.1591, 1889.017
508.6412, 1838.074
509.1233, 1788.537
509.6054, 1738.730
510.0876, 1692.391
510.5697, 1651.272
511.0518, 1616.234
511.5339, 1589.255
512.0161, 1574.698
512.4982, 1567.379
512.9803, 1551.636
513.4624, 1525.684
513.9445, 1502.884
514.4266, 1489.451
514.9088, 1480.167
515.3909, 1466.152
515.8730, 1446.358
516.3551, 1434.608
516.8372, 1443.453
517.3193, 1455.947
517.8015, 1454.069
518.2836, 1440.589
518.7657, 1430.699
519.2478, 1432.761
519.7299, 1441.947
520.2120, 1446.646
520.6942, 1443.256
521.1763, 1442.245
521.6584, 1447.434
522.1405, 1451.176
522.6226, 1447.326
523.1047, 1438.620
523.5869, 1432.740
524.0690, 1434.445
524.5511, 1439.286
525.0332, 1439.195
525.5153, 1434.218
525.9974, 1432.314
526.4796, 1436.238
526.9617, 1442.406
527.4438, 1449.137
527.9259, 1455.998
528.4080, 1456.337
528.8901, 1442.050
529.3723, 1428.067
529.8544, 1422.018
530.3365, 1422.861
530.8186, 1430.073
531.3007, 1443.209
531.7828, 1456.406
532.2650, 1461.160
532.7471, 1455.946
533.2292, 1451.805
533.7113, 1447.162
534.1934, 1445.603
534.6755, 1449.793
535.1577, 1457.037
535.6398, 1463.706
536.1219, 1468.725
536.6040, 1473.688
537.0861, 1479.162
537.5682, 1485.724
538.0504, 1496.032
538.5325, 1510.814
539.0146, 1525.293
539.4967, 1534.121
539.9788, 1539.940
540.4609, 1555.486
540.9431, 1591.130
541.4252, 1621.374
541.9073, 1637.229
542.3894, 1647.878
542.8715, 1661.336
543.3536, 1678.804
543.8358, 1697.576
544.3179, 1714.853
544.8000, 1732.352
545.2821, 1758.291
545.7642, 1795.253
546.2463, 1833.508
546.7285, 1872.275
547.2106, 1910.047
547.6927, 1944.368
548.1748, 1975.698
548.6569, 2010.150
549.1390, 2051.090
549.6211, 2095.688
550.1032, 2137.805
550.5853, 2179.928
551.0674, 2234.494
551.5496, 2308.783
552.0317, 2388.719
552.5138, 2451.493
552.9959, 2491.864
553.4780, 2533.051
553.9601, 2568.642
554.4423, 2611.903
554.9244, 2676.385
555.4065, 2749.537
555.8886, 2814.032
556.3707, 2863.969
556.8528, 2898.531
557.3350, 2915.063
557.8171, 2914.565
558.2992, 2907.123
558.7813, 2897.097
559.2634, 2868.533
559.7455, 2802.690
560.2277, 2710.307
560.7098, 2629.583
561.1919, 2569.844
561.6740, 2505.541
562.1561, 2424.990
562.6382, 2338.249
563.1204, 2253.538
563.6025, 2172.870
564.0846, 2096.466
564.5667, 2023.582
565.0488, 1954.932
565.5309, 1892.545
566.0131, 1837.985
566.4952, 1785.813
566.9773, 1731.590
567.4594, 1682.355
567.9415, 1645.194
568.4236, 1617.943
568.9058, 1590.085
569.3879, 1551.968
569.8700, 1515.836
570.3521, 1496.711
570.8342, 1490.180
571.3163, 1480.544
571.7985, 1462.626
572.2806, 1444.385
572.7627, 1436.236
573.2448, 1439.787
573.7269, 1437.915
574.2090, 1427.887
574.6912, 1415.958
575.1733, 1400.210
575.6554, 1385.191
576.1375, 1377.510
576.6196, 1377.876
577.1017, 1377.760
577.5839, 1366.784
578.0660, 1349.155
578.5481, 1339.683
579.0302, 1339.297
579.5123, 1340.622
579.9944, 1339.846
580.4766, 1339.276
580.9587, 1344.248
581.4408, 1356.330
581.9229, 1366.296
582.4050, 1373.718
582.8871, 1377.828
583.3693, 1376.650
583.8514, 1371.918
584.3335, 1365.987
584.8156, 1359.910
585.2977, 1356.826
585.7798, 1364.898
586.2620, 1386.008
586.7441, 1395.134
587.2262, 1385.914
587.7083, 1373.187
588.1904, 1362.668
588.6725, 1354.922
589.1547, 1352.333
589.6368, 1358.573
590.1189, 1360.969
590.6010, 1347.780
591.0831, 1330.362
591.5652, 1325.464
592.0474, 1332.460
592.5295, 1337.242
593.0116, 1329.984
593.4937, 1315.319
593.9758, 1307.748
594.4579, 1310.562
594.9401, 1312.724
595.4222, 1312.998
595.9043, 1312.741
596.3864, 1312.600
596.8685, 1312.454
597.3506, 1312.252
597.8328, 1313.242
598.3149, 1311.675
598.7970, 1299.985
599.2791, 1283.425
599.7612, 1276.899
600.2433, 1283.286
600.7255, 1292.601
601.2076, 1296.982
601.6897, 1296.713
602.1718, 1294.027
602.6539, 1282.057
603.1360, 1277.300
603.6182, 1287.347
604.1003, 1299.903
604.5824, 1305.285
605.0645, 1304.205
605.5466, 1304.109
606.0287, 1311.520
606.5109, 1319.185
606.9930, 1313.041
607.4751, 1295.309
607.9572, 1284.626
608.4393, 1286.709
608.9214, 1292.506
609.4036, 1293.396
609.8857, 1289.336
610.3678, 1284.565
610.8499, 1277.789
611.3320, 1272.025
611.8141, 1268.099
612.2963, 1265.423
612.7784, 1264.052
613.2605, 1263.555
613.7426, 1262.237
614.2247, 1257.748
614.7068, 1252.419
615.1890, 1253.713
615.6711, 1262.109
616.1532, 1265.761
616.6353, 1259.661
617.1174, 1250.458
617.5995, 1245.252
618.0817, 1244.133
618.5638, 1243.758
619.0459, 1242.626
619.5280, 1243.802
620.0101, 1252.394
620.4922, 1262.016
620.9744, 1262.241
621.4565, 1252.727
621.9386, 1245.247
622.4207, 1251.084
622.9028, 1267.128
623.3849, 1282.049
623.8671, 1296.226
624.3492, 1306.421
624.8313, 1308.095
625.3134, 1309.430
625.7955, 1323.368
