##NAMES=Almandine
##RRUFFID=R040079
##IDEAL CHEMISTRY=Fe^2+^_3_Al_2_(SiO_4_)_3_
##LOCALITY=Ontario, Canada
##OWNER=RRUFF
##SOURCE=University of Arizona Mineral Museum
##DESCRIPTION=Dark red dodecahedral crystal
##STATUS=The identification of this mineral has been confirmed by X-ray diffraction and chemical analysis
##URL=rruff.info/R040079
##MEASURED CHEMISTRY=(Fe^2+^_2.29_Mg_0.53_Ca_0.18_)_Î£=3_Al_2.00_(Si_1.00_O_4_)_3_
128.6837, 3498.786
129.1658, 3496.330
129.6479, 3509.509
130.1300, 3526.375
130.6121, 3555.308
131.0942, 3582.265
131.5764, 3593.953
132.0585, 3584.442
132.5406, 3559.484
133.0227, 3539.318
133.5048, 3520.258
133.9869, 3510.669
134.4691, 3521.066
134.9512, 3541.130
135.4333, 3552.864
135.9154, 3543.375
136.3975, 3514.426
136.8796, 3499.157
137.3618, 3500.078
137.8439, 3508.974
138.3260, 3526.238
138.8081, 3550.241
139.2902, 3572.671
139.7723, 3587.120
140.2545, 3592.899
140.7366, 3593.991
141.2187, 3588.655
141.7008, 3579.576
142.1829, 3566.734
142.6650, 3548.055
143.1472, 3534.578
143.6293, 3547.055
144.1114, 3579.136
144.5935, 3598.155
145.0756, 3578.876
145.5577, 3533.880
146.0399, 3505.140
146.5220, 3503.205
147.0041, 3516.569
147.4862, 3538.787
147.9683, 3568.836
148.4504, 3594.777
148.9326, 3605.390
149.4147, 3599.592
149.8968, 3590.813
150.3789, 3569.565
150.8610, 3553.609
151.3431, 3555.988
151.8252, 3579.213
152.3074, 3611.613
152.7895, 3636.146
153.2716, 3652.359
153.7537, 3660.595
154.2358, 3657.295
154.7179, 3649.708
155.2001, 3641.411
155.6822, 3633.809
156.1643, 3630.507
156.6464, 3642.892
157.1285, 3697.115
157.6106, 3738.020
158.0928, 3754.803
158.5749, 3756.136
159.0570, 3752.986
159.5391, 3751.402
160.0212, 3751.610
160.5033, 3756.635
160.9855, 3764.170
161.4676, 3777.874
161.9497, 3805.744
162.4318, 3842.302
162.9139, 3872.884
163.3960, 3885.846
163.8782, 3880.050
164.3603, 3873.978
164.8424, 3858.308
165.3245, 3849.166
165.8066, 3858.820
166.2887, 3887.730
166.7709, 3926.104
167.2530, 3970.310
167.7351, 4019.681
168.2172, 4052.632
168.6993, 4068.760
169.1814, 4066.438
169.6636, 4036.789
170.1457, 3972.641
170.6278, 3904.429
171.1099, 3865.531
171.5920, 3850.600
172.0741, 3839.947
172.5563, 3835.026
173.0384, 3829.458
173.5205, 3802.389
174.0026, 3739.348
174.4847, 3668.583
174.9668, 3612.518
175.4490, 3570.554
175.9311, 3538.324
176.4132, 3514.971
176.8953, 3500.175
177.3774, 3487.331
177.8595, 3480.694
178.3417, 3471.076
178.8238, 3450.304
179.3059, 3418.035
179.7880, 3384.412
180.2701, 3360.095
180.7522, 3345.771
181.2344, 3337.874
181.7165, 3342.177
182.1986, 3348.483
182.6807, 3350.708
183.1628, 3347.181
183.6449, 3340.296
184.1271, 3333.728
184.6092, 3326.918
185.0913, 3321.748
185.5734, 3307.975
186.0555, 3300.528
186.5376, 3318.936
187.0198, 3362.723
187.5019, 3376.463
187.9840, 3386.053
188.4661, 3391.718
188.9482, 3381.698
189.4303, 3391.931
189.9125, 3394.049
190.3946, 3395.833
190.8767, 3408.917
191.3588, 3401.177
191.8409, 3414.082
192.3230, 3418.746
192.8052, 3427.183
193.2873, 3427.451
193.7694, 3430.472
194.2515, 3434.576
194.7336, 3439.345
195.2157, 3445.083
195.6979, 3455.671
196.1800, 3482.627
196.6621, 3501.771
197.1442, 3496.723
197.6263, 3474.680
198.1084, 3457.994
198.5906, 3462.617
199.0727, 3487.478
199.5548, 3508.436
200.0369, 3521.378
200.5190, 3534.161
201.0011, 3553.277
201.4833, 3578.012
201.9654, 3599.816
202.4475, 3609.529
202.9296, 3609.475
203.4117, 3620.929
203.8938, 3657.333
204.3760, 3697.591
204.8581, 3720.681
205.3402, 3724.828
205.8223, 3727.133
206.3044, 3743.746
206.7865, 3770.194
207.2687, 3790.007
207.7508, 3794.980
208.2329, 3793.527
208.7150, 3797.145
209.1971, 3807.413
209.6792, 3818.919
210.1614, 3828.595
210.6435, 3836.391
211.1256, 3841.312
211.6077, 3836.129
212.0898, 3828.525
212.5719, 3839.960
213.0541, 3884.069
213.5362, 3920.856
214.0183, 3917.226
214.5004, 3885.274
214.9825, 3853.587
215.4646, 3838.257
215.9468, 3835.798
216.4289, 3833.014
216.9110, 3833.462
217.3931, 3827.265
217.8752, 3806.834
218.3573, 3775.812
218.8395, 3744.796
219.3216, 3721.202
219.8037, 3704.529
220.2858, 3687.837
220.7679, 3671.675
221.2500, 3654.769
221.7322, 3635.719
222.2143, 3615.260
222.6964, 3595.517
223.1785, 3575.631
223.6606, 3555.065
224.1427, 3546.681
224.6249, 3570.624
225.1070, 3589.354
225.5891, 3585.688
226.0712, 3562.541
226.5533, 3534.063
227.0354, 3512.546
227.5176, 3498.801
227.9997, 3486.885
228.4818, 3478.562
228.9639, 3470.607
229.4460, 3460.869
229.9281, 3449.991
230.4103, 3440.632
230.8924, 3435.778
231.3745, 3436.246
231.8566, 3437.585
232.3387, 3442.330
232.8208, 3445.790
233.3030, 3446.128
233.7851, 3443.079
234.2672, 3436.910
234.7493, 3426.832
235.2314, 3409.655
235.7135, 3400.726
236.1957, 3408.551
236.6778, 3416.299
237.1599, 3413.068
237.6420, 3399.301
238.1241, 3384.347
238.6062, 3380.014
239.0884, 3392.734
239.5705, 3394.458
240.0526, 3377.360
240.5347, 3357.552
241.0168, 3343.599
241.4989, 3336.790
241.9811, 3334.398
242.4632, 3333.403
242.9453, 3334.002
243.4274, 3335.689
243.9095, 3349.893
244.3916, 3356.819
244.8738, 3334.613
245.3559, 3284.977
245.8380, 3236.561
246.3201, 3224.552
246.8022, 3266.261
247.2843, 3290.650
247.7665, 3284.572
248.2486, 3272.316
248.7307, 3273.302
249.2128, 3288.998
249.6949, 3305.017
250.1770, 3304.159
250.6592, 3279.049
251.1413, 3261.647
251.6234, 3259.166
252.1055, 3259.062
252.5876, 3249.226
253.0697, 3229.156
253.5519, 3210.763
254.0340, 3208.663
254.5161, 3229.374
254.9982, 3240.494
255.4803, 3228.093
255.9624, 3215.404
256.4445, 3226.270
256.9267, 3262.086
257.4088, 3297.732
257.8909, 3305.421
258.3730, 3276.657
258.8551, 3259.816
259.3372, 3267.606
259.8194, 3279.175
260.3015, 3276.383
260.7836, 3257.545
261.2657, 3234.360
261.7478, 3216.497
262.2299, 3204.623
262.7121, 3201.625
263.1942, 3220.531
263.6763, 3239.906
264.1584, 3236.686
264.6405, 3209.963
265.1227, 3185.998
265.6048, 3192.802
266.0869, 3233.098
266.5690, 3252.850
267.0511, 3230.036
267.5332, 3200.372
268.0154, 3199.471
268.4975, 3228.308
268.9796, 3251.202
269.4617, 3232.074
269.9438, 3171.798
270.4259, 3140.876
270.9081, 3167.708
271.3902, 3205.751
271.8723, 3218.236
272.3544, 3203.966
272.8365, 3182.384
273.3186, 3165.179
273.8008, 3153.263
274.2829, 3147.461
274.7650, 3147.833
275.2471, 3154.298
275.7292, 3172.062
276.2113, 3199.631
276.6935, 3220.909
277.1756, 3223.141
277.6577, 3208.260
278.1398, 3197.233
278.6219, 3193.389
279.1040, 3190.684
279.5862, 3183.076
280.0683, 3171.515
280.5504, 3164.548
281.0325, 3169.791
281.5146, 3183.589
281.9967, 3189.788
282.4789, 3182.305
282.9610, 3172.954
283.4431, 3170.300
283.9252, 3172.948
284.4073, 3172.135
284.8894, 3160.263
285.3716, 3143.332
285.8537, 3139.247
286.3358, 3156.331
286.8179, 3175.159
287.3000, 3183.915
287.7821, 3184.934
288.2643, 3187.468
288.7464, 3196.016
289.2285, 3208.664
289.7106, 3221.382
290.1927, 3239.617
290.6748, 3248.810
291.1570, 3231.431
291.6391, 3197.626
292.1212, 3181.115
292.6033, 3200.457
293.0854, 3236.745
293.5675, 3250.943
294.0497, 3238.434
294.5318, 3221.889
295.0139, 3207.255
295.4960, 3195.246
295.9781, 3187.028
296.4602, 3182.395
296.9424, 3183.007
297.4245, 3195.173
297.9066, 3222.497
298.3887, 3242.456
298.8708, 3245.446
299.3529, 3236.942
299.8351, 3224.285
300.3172, 3207.753
300.7993, 3193.151
301.2814, 3189.798
301.7635, 3197.729
302.2456, 3208.727
302.7278, 3221.477
303.2099, 3236.063
303.6920, 3253.614
304.1741, 3274.727
304.6562, 3295.371
305.1383, 3311.364
305.6205, 3322.618
306.1026, 3330.469
306.5847, 3326.825
307.0668, 3324.279
307.5489, 3338.889
308.0310, 3372.667
308.5132, 3409.731
308.9953, 3437.551
309.4774, 3455.163
309.9595, 3463.058
310.4416, 3442.983
310.9237, 3426.052
311.4059, 3442.472
311.8880, 3491.016
312.3701, 3542.371
312.8522, 3575.639
313.3343, 3590.539
313.8164, 3604.379
314.2986, 3623.857
314.7807, 3636.413
315.2628, 3628.447
315.7449, 3604.866
316.2270, 3586.324
316.7091, 3586.278
317.1913, 3601.812
317.6734, 3614.454
318.1555, 3626.170
318.6376, 3633.581
319.1197, 3630.055
319.6018, 3621.057
320.0840, 3619.834
320.5661, 3633.558
321.0482, 3657.953
321.5303, 3679.012
322.0124, 3697.114
322.4945, 3712.198
322.9767, 3721.053
323.4588, 3727.634
323.9409, 3737.649
324.4230, 3753.267
324.9051, 3773.249
325.3872, 3795.624
325.8694, 3821.973
326.3515, 3847.803
326.8336, 3874.068
327.3157, 3898.862
327.7978, 3916.615
328.2799, 3926.588
328.7621, 3939.977
329.2442, 3973.918
329.7263, 4041.541
330.2084, 4097.152
330.6905, 4138.521
331.1726, 4170.143
331.6548, 4189.417
332.1369, 4199.089
332.6190, 4212.316
333.1011, 4243.161
333.5832, 4294.956
334.0653, 4346.772
334.5475, 4397.624
335.0296, 4449.332
335.5117, 4502.497
335.9938, 4557.141
336.4759, 4611.701
336.9580, 4662.546
337.4402, 4710.160
337.9223, 4788.979
338.4044, 4949.836
338.8865, 5085.469
339.3686, 5158.395
339.8507, 5188.422
340.3329, 5207.074
340.8150, 5230.788
341.2971, 5262.914
341.7792, 5318.147
342.2613, 5408.611
342.7434, 5509.708
343.2256, 5634.654
343.7077, 5761.636
344.1898, 5864.889
344.6719, 5934.565
345.1540, 5985.527
345.6361, 6050.990
346.1183, 6154.076
346.6004, 6224.620
347.0825, 6260.868
347.5646, 6267.346
348.0467, 6242.516
348.5288, 6188.146
349.0110, 6114.341
349.4931, 6034.801
349.9752, 5952.070
350.4573, 5852.073
350.9394, 5721.810
351.4215, 5583.152
351.9037, 5438.817
352.3858, 5292.921
352.8679, 5155.412
353.3500, 5037.436
353.8321, 4938.612
354.3142, 4838.428
354.7964, 4730.770
355.2785, 4630.438
355.7606, 4542.694
356.2427, 4465.724
356.7248, 4395.088
357.2069, 4328.360
357.6891, 4266.591
358.1712, 4213.494
358.6533, 4169.853
359.1354, 4132.980
359.6175, 4100.494
360.0996, 4074.094
360.5818, 4057.471
361.0639, 4053.563
361.5460, 4055.343
362.0281, 4053.669
362.5102, 4048.101
362.9923, 4042.912
363.4745, 4039.023
363.9566, 4036.512
364.4387, 4033.691
364.9208, 4029.459
365.4029, 4032.061
365.8850, 4055.000
366.3672, 4093.046
366.8493, 4117.125
367.3314, 4117.117
367.8135, 4106.666
368.2956, 4098.825
368.7777, 4093.435
369.2599, 4089.095
369.7420, 4087.198
370.2241, 4085.504
370.7062, 4080.365
371.1883, 4071.330
371.6704, 4058.958
372.1526, 4041.404
372.6347, 4019.938
373.1168, 4002.137
373.5989, 4000.979
374.0810, 3994.857
374.5631, 3956.470
375.0453, 3890.232
375.5274, 3837.882
376.0095, 3832.148
376.4916, 3856.382
376.9737, 3838.723
377.4558, 3739.262
377.9380, 3648.610
378.4201, 3608.330
378.9022, 3598.807
379.3843, 3582.300
379.8664, 3543.405
380.3485, 3493.119
380.8307, 3455.049
381.3128, 3437.751
381.7949, 3416.660
382.2770, 3385.323
382.7591, 3352.174
383.2412, 3326.650
383.7234, 3309.957
384.2055, 3295.284
384.6876, 3274.273
385.1697, 3243.905
385.6518, 3220.266
386.1339, 3214.052
386.6161, 3203.549
387.0982, 3167.727
387.5803, 3116.868
388.0624, 3082.234
388.5445, 3089.546
389.0266, 3133.210
389.5088, 3152.135
389.9909, 3120.902
390.4730, 3092.333
390.9551, 3074.722
391.4372, 3065.023
391.9193, 3060.115
392.4015, 3058.830
392.8836, 3058.249
393.3657, 3051.019
393.8478, 3031.673
394.3299, 3019.416
394.8120, 3020.525
395.2942, 3026.469
395.7763, 3032.067
396.2584, 3036.426
396.7405, 3041.334
397.2226, 3050.608
397.7047, 3064.296
398.1869, 3070.924
398.6690, 3066.276
399.1511, 3058.162
399.6332, 3052.757
400.1153, 3048.154
400.5974, 3038.335
401.0796, 3012.507
401.5617, 2981.547
402.0438, 2973.204
402.5259, 2993.528
403.0080, 3012.650
403.4901, 3011.143
403.9723, 2999.031
404.4544, 2991.225
404.9365, 2992.297
405.4186, 2994.676
405.9007, 2990.542
406.3828, 2981.473
406.8650, 2976.720
407.3471, 2981.079
407.8292, 2989.262
408.3113, 2990.618
408.7934, 2982.007
409.2755, 2981.899
409.7577, 3004.854
410.2398, 3036.156
410.7219, 3054.557
411.2040, 3056.220
411.6861, 3052.656
412.1682, 3054.357
412.6504, 3061.948
413.1325, 3072.877
413.6146, 3095.070
414.0967, 3113.346
414.5788, 3117.862
415.0609, 3111.014
415.5431, 3100.446
416.0252, 3090.185
416.5073, 3080.974
416.9894, 3076.164
417.4715, 3073.523
417.9536, 3078.448
418.4358, 3101.555
418.9179, 3127.875
419.4000, 3138.896
419.8821, 3129.877
420.3642, 3114.607
420.8463, 3115.495
421.3285, 3141.640
421.8106, 3158.882
422.2927, 3161.277
422.7748, 3160.473
423.2569, 3159.231
423.7390, 3159.340
424.2212, 3164.083
424.7033, 3178.106
425.1854, 3199.034
425.6675, 3210.897
426.1496, 3203.828
426.6317, 3204.646
427.1139, 3236.376
427.5960, 3276.552
428.0781, 3293.011
428.5602, 3268.443
429.0423, 3234.441
429.5244, 3234.499
430.0066, 3269.525
430.4887, 3297.453
430.9708, 3305.417
431.4529, 3301.844
431.9350, 3294.334
432.4171, 3282.305
432.8993, 3277.317
433.3814, 3288.680
433.8635, 3309.809
434.3456, 3329.511
434.8277, 3346.371
435.3098, 3361.520
435.7920, 3377.167
436.2741, 3392.466
436.7562, 3400.383
437.2383, 3392.217
437.7204, 3384.382
438.2025, 3383.479
438.6847, 3390.498
439.1668, 3411.027
439.6489, 3450.861
440.1310, 3497.370
440.6131, 3515.665
441.0952, 3474.777
441.5774, 3449.051
442.0595, 3451.365
442.5416, 3464.693
443.0237, 3476.603
443.5058, 3483.484
443.9879, 3484.408
444.4701, 3477.447
444.9522, 3461.247
445.4343, 3446.988
445.9164, 3428.647
446.3985, 3418.534
446.8806, 3426.303
447.3628, 3444.679
447.8449, 3461.798
448.3270, 3472.459
448.8091, 3475.044
449.2912, 3462.964
449.7733, 3429.278
450.2555, 3400.372
450.7376, 3386.101
451.2197, 3377.369
451.7018, 3363.807
452.1839, 3344.108
452.6660, 3336.023
453.1482, 3374.831
453.6303, 3443.257
454.1124, 3452.355
454.5945, 3370.551
455.0766, 3275.886
455.5587, 3237.009
456.0409, 3238.232
456.5230, 3238.359
457.0051, 3226.142
457.4872, 3210.641
457.9693, 3199.829
458.4514, 3193.031
458.9336, 3186.344
459.4156, 3178.203
459.8978, 3168.621
460.3799, 3157.393
460.8620, 3143.713
461.3441, 3130.227
461.8262, 3115.050
462.3083, 3101.472
462.7905, 3094.622
463.2726, 3094.709
463.7547, 3095.861
464.2368, 3092.154
464.7189, 3083.362
465.2010, 3071.480
465.6832, 3048.073
466.1653, 3030.795
466.6474, 3026.095
467.1295, 3031.273
467.6116, 3043.783
468.0938, 3063.256
468.5759, 3082.869
469.0580, 3085.145
469.5401, 3048.920
470.0222, 3057.792
470.5043, 3062.514
470.9865, 3063.311
471.4686, 3048.423
471.9507, 3053.789
472.4328, 3051.038
472.9149, 3047.954
473.3970, 3056.170
473.8792, 3043.564
474.3613, 3051.601
474.8434, 3051.398
475.3255, 3056.595
475.8076, 3063.147
476.2897, 3064.273
476.7719, 3050.554
477.2540, 3038.504
477.7361, 3044.757
478.2182, 3046.861
478.7003, 3045.040
479.1824, 3027.533
479.6646, 3030.279
480.1467, 3024.910
480.6288, 3019.207
481.1109, 3024.805
481.5930, 3009.580
482.0751, 3009.907
482.5573, 3009.027
483.0394, 3007.737
483.5215, 3002.837
484.0036, 2991.743
484.4857, 2975.288
484.9678, 2958.685
485.4500, 2933.656
485.9321, 2920.257
486.4142, 2927.252
486.8963, 2943.166
487.3784, 2959.095
487.8605, 2972.076
488.3427, 2980.765
488.8248, 2978.536
489.3069, 2964.257
489.7890, 2968.967
490.2711, 3008.275
490.7532, 3048.241
491.2354, 3065.648
491.7175, 3069.583
492.1996, 3082.010
492.6817, 3115.361
493.1638, 3156.607
493.6459, 3188.183
494.1281, 3211.337
494.6102, 3244.033
495.0923, 3297.697
495.5744, 3358.835
496.0565, 3401.695
496.5386, 3422.282
497.0208, 3447.631
497.5029, 3489.052
497.9850, 3535.098
498.4671, 3573.713
498.9492, 3604.264
499.4313, 3635.993
499.9135, 3679.473
500.3956, 3731.431
500.8777, 3749.118
501.3598, 3709.521
501.8419, 3663.007
502.3240, 3613.895
502.8062, 3563.662
503.2883, 3511.869
503.7704, 3458.882
504.2525, 3407.712
504.7346, 3362.263
505.2167, 3323.563
505.6989, 3285.153
506.1810, 3251.194
506.6631, 3212.283
507.1452, 3158.804
507.6273, 3097.643
508.1094, 3043.624
508.5916, 3003.044
509.0737, 2972.490
509.5558, 2949.584
510.0379, 2934.198
510.5200, 2920.741
511.0021, 2908.344
511.4843, 2895.760
511.9664, 2880.036
512.4485, 2860.209
512.9306, 2844.110
513.4127, 2838.522
513.8948, 2834.552
514.3770, 2820.469
514.8591, 2797.484
515.3412, 2779.112
515.8233, 2775.454
516.3054, 2784.063
516.7875, 2789.321
517.2697, 2787.695
517.7518, 2787.025
518.2339, 2792.703
518.7160, 2797.035
519.1981, 2788.836
519.6802, 2767.743
520.1624, 2748.151
520.6445, 2749.335
521.1266, 2772.108
521.6087, 2781.691
522.0908, 2770.654
522.5729, 2756.945
523.0551, 2745.456
523.5372, 2737.480
524.0193, 2736.497
524.5014, 2746.719
524.9835, 2756.665
525.4656, 2751.105
525.9478, 2733.823
526.4299, 2725.978
526.9120, 2735.538
527.3941, 2749.378
527.8762, 2749.982
528.3583, 2736.499
528.8405, 2732.206
529.3226, 2748.157
529.8047, 2766.059
530.2868, 2775.081
530.7689, 2776.083
531.2510, 2771.783
531.7332, 2762.881
532.2153, 2753.863
532.6974, 2756.768
533.1795, 2783.753
533.6616, 2800.427
534.1437, 2804.740
534.6259, 2801.224
535.1080, 2785.097
535.5901, 2762.193
536.0722, 2750.724
536.5543, 2769.891
537.0364, 2806.492
537.5186, 2814.818
538.0007, 2785.418
538.4828, 2764.039
538.9649, 2775.371
539.4470, 2799.065
539.9291, 2810.039
540.4113, 2804.337
540.8934, 2802.887
541.3755, 2821.649
541.8576, 2848.935
542.3397, 2865.035
542.8218, 2868.001
543.3040, 2870.401
543.7861, 2881.089
544.2682, 2899.404
544.7503, 2920.092
545.2324, 2942.813
545.7145, 2968.013
546.1967, 2993.852
546.6788, 3023.041
547.1609, 3063.203
547.6430, 3113.478
548.1251, 3159.077
548.6072, 3181.212
549.0894, 3178.934
549.5715, 3183.532
550.0536, 3197.255
550.5357, 3215.178
551.0178, 3232.490
551.4999, 3253.314
551.9821, 3286.464
552.4642, 3338.117
552.9463, 3387.187
553.4284, 3408.113
553.9105, 3408.863
554.3926, 3424.934
554.8748, 3468.029
555.3569, 3507.843
555.8390, 3512.926
556.3211, 3483.370
556.8032, 3462.609
557.2853, 3462.164
557.7675, 3459.281
558.2496, 3446.360
558.7317, 3423.078
559.2138, 3386.553
559.6959, 3336.352
560.1780, 3282.007
560.6602, 3239.241
561.1423, 3212.694
561.6244, 3179.688
562.1065, 3134.433
562.5886, 3088.490
563.0707, 3042.176
563.5529, 2998.605
564.0350, 2962.429
564.5171, 2936.292
564.9992, 2916.911
565.4813, 2901.289
565.9634, 2889.220
566.4456, 2877.567
566.9277, 2865.993
567.4098, 2853.878
567.8919, 2839.429
568.3740, 2823.067
568.8561, 2809.565
569.3383, 2803.488
569.8204, 2796.826
570.3025, 2782.511
570.7846, 2763.449
571.2667, 2746.539
571.7488, 2734.626
572.2310, 2726.969
572.7131, 2722.999
573.1952, 2725.084
573.6773, 2724.402
574.1594, 2713.307
574.6415, 2707.136
575.1237, 2715.188
575.6058, 2733.073
576.0879, 2752.019
576.5700, 2769.224
577.0521, 2781.632
577.5342, 2781.652
578.0164, 2769.185
578.4985, 2760.000
578.9806, 2755.258
579.4627, 2758.651
579.9448, 2780.802
580.4269, 2818.912
580.9091, 2845.540
581.3912, 2849.055
581.8733, 2845.399
582.3554, 2843.792
582.8375, 2843.994
583.3196, 2843.927
583.8018, 2842.694
584.2839, 2841.504
584.7660, 2842.330
585.2481, 2844.933
585.7302, 2850.339
586.2123, 2870.351
586.6945, 2881.250
587.1766, 2865.614
587.6587, 2834.448
588.1408, 2810.074
588.6229, 2803.428
589.1050, 2805.419
589.5872, 2802.656
590.0693, 2795.461
590.5514, 2794.029
591.0335, 2803.606
591.5156, 2813.746
591.9977, 2812.393
592.4799, 2801.240
592.9620, 2792.367
593.4441, 2786.844
593.9262, 2784.556
594.4083, 2785.674
594.8904, 2789.951
595.3726, 2798.320
595.8547, 2810.946
596.3368, 2823.245
596.8189, 2827.125
597.3010, 2818.769
597.7831, 2820.261
598.2653, 2844.835
598.7474, 2865.584
599.2295, 2876.012
599.7116, 2876.526
600.1937, 2865.362
600.6758, 2839.357
601.1580, 2815.227
601.6401, 2814.762
602.1222, 2832.907
602.6043, 2845.545
603.0864, 2849.275
603.5685, 2845.389
604.0507, 2832.008
604.5328, 2810.520
605.0149, 2795.231
605.4970, 2786.750
605.9791, 2783.637
606.4612, 2790.610
606.9434, 2800.362
607.4255, 2802.989
607.9076, 2796.655
608.3897, 2787.379
608.8718, 2781.255
609.3539, 2778.232
609.8361, 2776.174
610.3182, 2775.069
610.8003, 2774.969
611.2824, 2779.052
611.7645, 2782.422
612.2466, 2778.134
612.7288, 2764.388
613.2109, 2752.199
613.6930, 2753.826
614.1751, 2760.279
614.6572, 2752.112
615.1393, 2728.104
615.6215, 2706.147
616.1036, 2696.881
616.5857, 2698.267
617.0678, 2702.857
617.5499, 2721.326
618.0320, 2728.003
618.5142, 2712.440
618.9963, 2691.903
619.4784, 2676.842
619.9605, 2669.053
620.4426, 2668.257
620.9247, 2675.675
621.4069, 2687.942
621.8890, 2695.928
622.3711, 2698.898
622.8532, 2701.891
623.3353, 2706.248
623.8174, 2711.098
624.2996, 2714.896
624.7817, 2717.817
