##NAMES=Almandine
##RRUFFID=R060099
##IDEAL CHEMISTRY=Fe^2+^_3_Al_2_(SiO_4_)_3_
##LOCALITY=Alaska, USA
##OWNER=RRUFF
##SOURCE=Roland Boehne
##DESCRIPTION=Red cube shaped single crystal
##STATUS=The identification of this mineral is confirmed by single-crystal X-ray diffraction and chemical analysis.
##URL=rruff.info/R060099
##MEASURED CHEMISTRY=(Fe^2+^_1.63_Mg_0.57_Mn_0.56_Ca_0.24_)_Σ=3_(Al_1.98_Fe^3+^_0.02_)_Σ=2_(Si_1.00_O_4_)_3_
92.52344, 143.8916
93.00555, 143.3395
93.48767, 143.5643
93.96979, 147.6256
94.45190, 151.2436
94.93402, 154.3442
95.41614, 154.4506
95.89825, 151.5927
96.38037, 146.8079
96.86249, 140.8987
97.34460, 136.5028
97.82672, 134.9323
98.30884, 133.1969
98.79095, 130.6616
99.27307, 127.4399
99.75519, 124.0791
100.2373, 121.3068
100.7194, 119.1098
101.2015, 116.8732
101.6837, 114.3392
102.1658, 111.8889
102.6479, 109.7581
103.1300, 107.9263
103.6121, 106.4063
104.0942, 105.3780
104.5764, 104.6359
105.0585, 103.9360
105.5406, 103.2041
106.0227, 102.4375
106.5048, 101.5980
106.9869, 100.4379
107.4691, 99.51406
107.9512, 99.28825
108.4333, 99.51234
108.9154, 99.57417
109.3975, 98.78277
109.8796, 96.89663
110.3618, 95.72051
110.8439, 95.57940
111.3260, 95.84007
111.8081, 96.58159
112.2902, 97.63250
112.7723, 98.46738
113.2544, 98.26992
113.7366, 96.00655
114.2187, 94.62329
114.7008, 94.59466
115.1829, 95.11590
115.6650, 95.49645
116.1471, 95.49013
116.6293, 95.26303
117.1114, 95.19553
117.5935, 95.31372
118.0756, 95.50222
118.5577, 95.81473
119.0398, 96.18501
119.5220, 96.44073
120.0041, 96.45126
120.4862, 96.34021
120.9683, 96.36539
121.4504, 96.49909
121.9325, 96.80044
122.4147, 97.50925
122.8968, 98.68770
123.3789, 99.50840
123.8610, 99.13428
124.3431, 98.30874
124.8252, 97.69686
125.3074, 97.51588
125.7895, 97.64189
126.2716, 97.80827
126.7537, 97.92348
127.2358, 98.26962
127.7179, 99.10609
128.2001, 100.1438
128.6822, 101.0106
129.1643, 101.4573
129.6464, 101.5174
130.1285, 101.5902
130.6107, 101.6929
131.0928, 101.7944
131.5749, 101.8234
132.0570, 101.8373
132.5391, 101.9669
133.0212, 102.3437
133.5034, 103.0252
133.9855, 103.5778
134.4676, 103.8294
134.9497, 104.1164
135.4318, 104.6323
135.9139, 105.3909
136.3960, 106.2916
136.8782, 107.2735
137.3603, 108.3894
137.8424, 109.2121
138.3245, 109.4828
138.8066, 109.5355
139.2887, 109.7368
139.7709, 110.1621
140.2530, 110.7456
140.7351, 111.4837
141.2172, 112.3570
141.6993, 113.1556
142.1814, 113.6970
142.6636, 114.0628
143.1457, 114.5903
143.6278, 115.5057
144.1099, 116.4170
144.5920, 116.9041
145.0741, 116.9747
145.5563, 117.1290
146.0384, 117.8574
146.5205, 119.2239
147.0026, 120.6026
147.4847, 121.8888
147.9668, 123.1601
148.4490, 124.4944
148.9311, 125.8928
149.4132, 127.2626
149.8953, 128.4363
150.3774, 129.2849
150.8595, 130.2077
151.3417, 131.2165
151.8238, 132.3011
152.3059, 133.4346
152.7880, 134.6022
153.2701, 135.8523
153.7522, 137.2952
154.2344, 139.4820
154.7165, 141.2044
155.1986, 142.0318
155.6807, 142.4780
156.1628, 143.2034
156.6449, 144.5484
157.1271, 146.3524
157.6092, 147.9675
158.0913, 149.4625
158.5734, 150.7577
159.0555, 151.6557
159.5376, 152.3048
160.0198, 153.1070
160.5019, 154.3224
160.9840, 155.8467
161.4661, 157.2041
161.9482, 158.0063
162.4303, 159.0414
162.9125, 161.3088
163.3946, 164.7315
163.8767, 167.3606
164.3588, 167.3399
164.8409, 165.9341
165.3230, 165.2872
165.8052, 165.9046
166.2873, 167.2839
166.7694, 169.0479
167.2515, 171.5122
167.7336, 173.2704
168.2157, 173.4439
168.6979, 172.6274
169.1800, 171.5024
169.6621, 170.5959
170.1442, 169.3858
170.6263, 166.2110
171.1084, 159.7430
171.5906, 153.3236
172.0727, 147.9378
172.5548, 143.2731
173.0369, 138.8319
173.5190, 134.2683
174.0011, 129.6678
174.4833, 125.7656
174.9654, 123.0261
175.4475, 120.5962
175.9296, 118.3624
176.4117, 116.3139
176.8938, 114.4648
177.3760, 112.8442
177.8581, 111.4584
178.3402, 110.0593
178.8223, 108.3839
179.3044, 106.9479
179.7865, 106.0575
180.2687, 105.6022
180.7508, 105.2251
181.2329, 104.6051
181.7150, 103.7019
182.1971, 103.1529
182.6792, 103.1251
183.1614, 103.2532
183.6435, 103.3035
184.1256, 103.2780
184.6077, 103.3773
185.0898, 103.8432
185.5719, 104.6996
186.0541, 105.2990
186.5362, 105.3687
187.0183, 105.3239
187.5004, 105.5026
187.9825, 105.9379
188.4646, 106.6070
188.9468, 107.7094
189.4289, 109.0993
189.9110, 110.1704
190.3931, 110.4304
190.8752, 110.3966
191.3573, 110.9738
191.8395, 112.4365
192.3216, 113.9162
192.8037, 114.4929
193.2858, 114.5444
193.7679, 114.9570
194.2500, 116.3121
194.7322, 118.3509
195.2143, 120.3396
195.6964, 122.5145
196.1785, 124.1781
196.6606, 124.6315
197.1427, 124.3580
197.6249, 124.4263
198.1070, 125.7328
198.5891, 128.1207
199.0712, 129.9617
199.5533, 130.5271
200.0354, 131.3413
200.5176, 133.1100
200.9997, 135.5778
201.4818, 138.1495
201.9639, 140.4137
202.4460, 142.3749
202.9281, 143.9460
203.4103, 144.5338
203.8924, 145.2419
204.3745, 146.4354
204.8566, 148.0434
205.3387, 149.7870
205.8208, 151.4378
206.3030, 152.9985
206.7851, 154.5016
207.2672, 156.1166
207.7493, 157.5335
208.2314, 158.5592
208.7135, 159.2439
209.1957, 159.7620
209.6778, 160.2473
210.1599, 160.6762
210.6420, 161.2739
211.1241, 162.5138
211.6062, 163.4835
212.0884, 163.7337
212.5705, 163.2556
213.0526, 162.2397
213.5347, 160.7539
214.0168, 158.7192
214.4989, 157.0547
214.9811, 156.0689
215.4632, 155.1750
215.9453, 154.0221
216.4274, 152.5806
216.9095, 150.9842
217.3916, 149.3694
217.8737, 147.7034
218.3559, 145.7724
218.8380, 143.3119
219.3201, 140.7369
219.8022, 138.3419
220.2843, 136.1497
220.7664, 134.1615
221.2486, 132.3849
221.7307, 130.8218
222.2128, 129.5244
222.6949, 128.8224
223.1770, 128.2220
223.6591, 127.1236
224.1413, 125.4558
224.6234, 123.6714
225.1055, 121.9627
225.5876, 120.3808
226.0697, 119.0648
226.5518, 118.0469
227.0340, 117.3220
227.5161, 116.9862
227.9982, 117.1647
228.4803, 117.2934
228.9624, 116.9267
229.4445, 116.3363
229.9267, 115.8849
230.4088, 115.8097
230.8909, 115.8618
231.3730, 115.5566
231.8551, 114.8060
232.3372, 113.9093
232.8194, 112.7596
233.3015, 111.6128
233.7836, 110.7876
234.2657, 110.4485
234.7478, 110.4514
235.2299, 110.5244
235.7121, 110.8120
236.1942, 110.8601
236.6763, 110.4166
237.1584, 109.7563
237.6405, 109.1612
238.1227, 108.7535
238.6048, 108.4627
239.0869, 108.0959
239.5690, 107.5318
240.0511, 107.1122
240.5332, 106.9875
241.0154, 106.9759
241.4975, 106.8688
241.9796, 106.5740
242.4617, 106.2212
242.9438, 106.1745
243.4259, 106.8366
243.9081, 107.1576
244.3902, 107.0420
244.8723, 106.5675
245.3544, 105.6228
245.8365, 104.1857
246.3186, 102.6669
246.8008, 102.0319
247.2829, 103.1805
247.7650, 103.9605
248.2471, 104.0284
248.7292, 103.8377
249.2113, 103.8544
249.6935, 104.2263
250.1756, 104.6950
250.6577, 104.7454
251.1398, 103.9550
251.6219, 103.3298
252.1040, 102.9216
252.5862, 102.6454
253.0683, 102.4311
253.5504, 102.2584
254.0325, 102.1479
254.5146, 102.1436
254.9967, 102.3739
255.4789, 102.4672
255.9610, 102.4535
256.4431, 102.2916
256.9252, 101.8043
257.4073, 100.9843
257.8894, 100.2269
258.3716, 100.1001
258.8537, 100.9780
259.3358, 101.5411
259.8179, 101.7582
260.3000, 101.6846
260.7821, 101.1838
261.2643, 100.2736
261.7464, 99.46707
262.2285, 99.38866
262.7106, 100.2639
263.1927, 100.8153
263.6748, 100.7498
264.1570, 100.5263
264.6391, 100.5651
265.1212, 100.8998
265.6033, 101.2173
266.0854, 101.1556
266.5675, 100.7020
267.0497, 100.6090
267.5318, 101.2081
268.0139, 101.9543
268.4960, 102.4950
268.9781, 102.7963
269.4602, 102.8120
269.9424, 102.3452
270.4245, 101.5162
270.9066, 101.1525
271.3887, 101.7968
271.8708, 102.5163
272.3529, 102.4912
272.8351, 101.7753
273.3172, 101.1138
273.7993, 100.9503
274.2814, 101.1999
274.7635, 101.4643
275.2456, 101.7514
275.7278, 102.0349
276.2099, 102.2821
276.6920, 102.4998
277.1741, 102.7524
277.6562, 103.1050
278.1383, 103.4854
278.6205, 103.7132
279.1026, 103.6584
279.5847, 103.7351
280.0668, 104.5350
280.5489, 105.8630
281.0310, 106.4352
281.5132, 105.3484
281.9953, 103.7482
282.4774, 103.3568
282.9595, 104.3657
283.4416, 105.4162
283.9237, 105.5439
284.4059, 104.9887
284.8880, 104.7944
285.3701, 105.3574
285.8522, 106.1670
286.3343, 106.6480
286.8164, 106.8187
287.2986, 107.0349
287.7807, 107.5280
288.2628, 108.2219
288.7449, 108.8889
289.2270, 109.5589
289.7091, 110.0815
290.1913, 110.1993
290.6734, 110.0394
291.1555, 110.0818
291.6376, 110.6389
292.1197, 111.5450
292.6018, 112.4696
293.0840, 113.4699
293.5661, 114.2992
294.0482, 114.6219
294.5303, 114.6783
295.0124, 114.9161
295.4945, 115.5735
295.9767, 116.4760
296.4588, 117.3545
296.9409, 118.2426
297.4230, 118.9917
297.9051, 119.3128
298.3872, 119.5199
298.8694, 119.9939
299.3515, 120.8721
299.8336, 122.0085
300.3157, 123.3256
300.7978, 124.9014
301.2799, 126.2222
301.7621, 126.7419
302.2442, 127.0981
302.7263, 127.8873
303.2084, 129.2580
303.6905, 130.8212
304.1726, 132.2101
304.6548, 133.4151
305.1369, 134.5757
305.6190, 135.3558
306.1011, 136.4460
306.5832, 138.5391
307.0653, 141.6443
307.5475, 144.8354
308.0296, 147.3622
308.5117, 149.2698
308.9938, 151.1323
309.4759, 152.8508
309.9580, 154.7498
310.4402, 157.0476
310.9223, 159.6836
311.4044, 162.4321
311.8865, 165.4106
312.3686, 168.4334
312.8507, 170.6407
313.3329, 171.5846
313.8150, 172.4439
314.2971, 174.0116
314.7792, 175.9477
315.2613, 177.6301
315.7434, 178.7230
316.2256, 179.4303
316.7077, 180.2135
317.1898, 181.1615
317.6719, 181.9498
318.1540, 181.9298
318.6361, 181.8690
319.1183, 182.7145
319.6004, 184.8987
320.0825, 187.6580
320.5646, 189.7547
321.0467, 190.9444
321.5288, 193.0422
322.0110, 197.3965
322.4931, 202.4630
322.9752, 207.0307
323.4573, 210.8876
323.9394, 214.7045
324.4215, 219.0675
324.9037, 223.9441
325.3858, 229.0787
325.8679, 234.4295
326.3500, 240.0508
326.8321, 246.1045
327.3142, 252.5159
327.7964, 258.7934
328.2785, 264.4414
328.7606, 269.6256
329.2427, 275.2236
329.7248, 281.3982
330.2069, 287.7828
330.6891, 294.3956
331.1712, 301.0318
331.6533, 307.2495
332.1354, 312.6230
332.6175, 317.5692
333.0996, 322.7947
333.5818, 328.1989
334.0639, 334.3065
334.5460, 341.9619
335.0281, 350.2578
335.5102, 358.1268
335.9923, 365.1805
336.4745, 372.1147
336.9566, 379.5842
337.4387, 387.5265
337.9208, 396.5796
338.4029, 407.5999
338.8850, 419.4490
339.3671, 430.8872
339.8492, 441.8314
340.3314, 452.9166
340.8135, 464.4310
341.2956, 476.4948
341.7777, 489.4130
342.2598, 503.8514
342.7419, 518.2830
343.2241, 531.6577
343.7062, 544.0560
344.1883, 555.4318
344.6704, 566.2015
345.1525, 575.8777
345.6346, 583.5814
346.1168, 589.4434
346.5989, 592.7507
347.0810, 592.8423
347.5631, 590.0028
348.0452, 583.9387
348.5273, 574.1329
349.0095, 561.4729
349.4916, 546.5862
349.9737, 529.5142
350.4558, 510.9985
350.9379, 490.8847
351.4200, 469.8302
351.9022, 448.8535
352.3843, 427.8317
352.8664, 407.5860
353.3485, 388.5174
353.8306, 370.7005
354.3127, 354.4897
354.7949, 339.9825
355.2770, 327.0723
355.7591, 315.6945
356.2412, 305.7961
356.7233, 296.3762
357.2054, 286.6451
357.6876, 277.3049
358.1697, 269.5012
358.6518, 263.4264
359.1339, 258.5510
359.6160, 254.7700
360.0981, 251.9323
360.5803, 249.3141
361.0624, 246.6974
361.5445, 244.3827
362.0266, 242.7597
362.5087, 241.7584
362.9908, 240.8241
363.4730, 239.5801
363.9551, 238.2468
364.4372, 237.4663
364.9193, 237.5243
365.4014, 237.6074
365.8835, 237.3946
366.3657, 236.9716
366.8478, 236.4532
367.3299, 235.8415
367.8120, 235.3043
368.2941, 235.2268
368.7762, 235.8284
369.2584, 235.8996
369.7405, 235.2323
370.2226, 233.9869
370.7047, 232.2651
371.1868, 230.0848
371.6689, 227.5352
372.1511, 224.6242
372.6332, 221.3254
373.1153, 218.1242
373.5974, 215.6347
374.0795, 212.6170
374.5616, 208.2212
375.0438, 202.7959
375.5259, 197.1572
376.0080, 191.7494
376.4901, 186.5348
376.9722, 181.4193
377.4543, 176.3065
377.9365, 171.4246
378.4186, 166.7191
378.9007, 162.2851
379.3828, 158.4412
379.8649, 155.2204
380.3470, 152.0528
380.8292, 148.0854
381.3113, 142.8002
381.7934, 138.2318
382.2755, 134.6654
382.7576, 131.4571
383.2397, 128.2584
383.7219, 125.0793
384.2040, 122.1598
384.6861, 119.7088
385.1682, 117.7015
385.6503, 115.8207
386.1324, 114.6120
386.6146, 112.9181
387.0967, 109.8455
387.5788, 106.4190
388.0609, 104.0427
388.5430, 103.3170
389.0251, 103.4584
389.5073, 102.8691
389.9894, 101.1429
390.4715, 99.50671
390.9536, 97.89725
391.4357, 96.48235
391.9178, 95.41013
392.4000, 94.66501
392.8821, 94.07887
393.3642, 93.52248
393.8463, 92.99730
394.3284, 92.39904
394.8105, 91.63496
395.2927, 90.89620
395.7748, 90.26008
396.2569, 89.69102
396.7390, 89.09814
397.2211, 88.40530
397.7032, 87.73129
398.1854, 87.39041
398.6675, 87.50968
399.1496, 87.57480
399.6317, 87.45461
400.1138, 87.21680
400.5959, 86.91685
401.0781, 86.56364
401.5602, 86.08882
402.0423, 85.36455
402.5244, 84.42062
403.0065, 83.52691
403.4886, 82.52702
403.9708, 81.88914
404.4529, 82.17014
404.9350, 83.05894
405.4171, 83.67834
405.8992, 83.52382
406.3813, 82.94839
406.8635, 82.40845
407.3456, 81.87926
407.8277, 81.64576
408.3098, 82.22134
408.7919, 82.99201
409.2740, 82.82061
409.7562, 81.21635
410.2383, 79.79923
410.7204, 79.78338
411.2025, 80.74270
411.6846, 81.41911
412.1667, 81.46618
412.6489, 81.25118
413.1310, 81.20851
413.6131, 81.33218
414.0952, 81.39684
414.5773, 81.46040
415.0594, 81.38380
415.5416, 80.90780
416.0237, 80.08408
416.5058, 79.35938
416.9879, 78.99426
417.4700, 78.98325
417.9521, 79.28355
418.4343, 80.41496
418.9164, 81.18546
419.3985, 81.10417
419.8806, 80.51430
420.3627, 79.80573
420.8448, 79.10827
421.3270, 78.60018
421.8091, 78.56629
422.2912, 79.18351
422.7733, 79.81724
423.2554, 80.68792
423.7375, 81.38421
424.2197, 81.54711
424.7018, 81.28818
425.1839, 80.99314
425.6660, 80.93221
426.1481, 81.08089
426.6302, 81.27543
427.1124, 81.47352
427.5945, 81.78033
428.0766, 82.45424
428.5587, 83.11742
429.0408, 83.32914
429.5229, 82.97980
430.0051, 82.41778
430.4872, 82.05729
430.9693, 81.84159
431.4514, 82.06827
431.9335, 83.66823
432.4156, 84.89116
432.8978, 84.70308
433.3799, 83.53649
433.8620, 82.57464
434.3441, 82.64118
434.8262, 83.34780
435.3083, 83.52807
435.7905, 82.96111
436.2726, 82.47744
436.7547, 82.34245
437.2368, 82.44237
437.7189, 82.77226
438.2010, 83.35009
438.6832, 83.88585
439.1653, 84.10326
439.6474, 84.05193
440.1295, 84.02705
440.6116, 84.14643
441.0938, 84.15213
441.5759, 83.63969
442.0580, 82.80160
442.5401, 82.25253
443.0222, 82.26340
443.5043, 82.57205
443.9865, 83.03043
444.4686, 83.60564
444.9507, 84.04092
445.4328, 84.20850
445.9149, 84.16639
446.3970, 84.01563
446.8792, 83.68346
447.3613, 83.46554
447.8434, 83.50883
448.3255, 83.67937
448.8076, 83.88876
449.2897, 84.10340
449.7719, 84.11890
450.2540, 83.65982
450.7361, 82.68242
451.2182, 82.27058
451.7003, 82.95718
452.1824, 83.53661
452.6646, 83.45475
453.1467, 82.99495
453.6288, 82.61683
454.1109, 82.52099
454.5930, 82.67733
455.0751, 83.06631
455.5573, 83.99031
456.0394, 84.54052
456.5215, 84.59999
457.0036, 84.45157
457.4857, 84.08456
457.9678, 83.63499
458.4500, 83.43890
458.9321, 83.82839
459.4142, 84.66143
459.8963, 85.04697
460.3784, 84.55151
460.8605, 84.38837
461.3427, 85.24416
461.8248, 86.34767
462.3069, 86.84680
462.7890, 86.53123
463.2711, 86.13654
463.7532, 86.56411
464.2354, 87.73697
464.7175, 88.50510
465.1996, 88.60597
465.6817, 88.48909
466.1638, 88.25030
466.6459, 88.03939
467.1281, 88.29131
467.6102, 89.47295
468.0923, 90.88533
468.5744, 91.69116
469.0565, 91.96037
469.5386, 92.32261
470.0208, 92.98507
470.5029, 93.91942
470.9850, 95.09458
471.4671, 96.51443
471.9492, 98.05876
472.4313, 100.2209
472.9135, 102.1960
473.3956, 102.7628
473.8777, 101.9883
474.3598, 101.4095
474.8419, 102.2555
475.3240, 104.3584
475.8062, 106.0369
476.2883, 107.0073
476.7704, 107.9754
477.2525, 109.3310
477.7346, 110.6474
478.2167, 111.3817
478.6989, 111.4048
479.1810, 111.0034
479.6631, 110.4915
480.1452, 109.8138
480.6273, 109.3277
481.1094, 109.1716
481.5916, 109.0693
482.0737, 109.0819
482.5558, 109.0577
483.0379, 108.6849
483.5200, 107.7610
484.0021, 106.6794
484.4843, 106.1749
484.9664, 106.3024
485.4485, 106.7533
485.9306, 107.6768
486.4127, 108.7491
486.8948, 109.8197
487.3770, 110.8655
487.8591, 111.8173
488.3412, 112.2842
488.8233, 112.7344
489.3054, 114.1693
489.7875, 116.6537
490.2697, 119.4923
490.7518, 122.6222
491.2339, 125.7052
491.7160, 128.0409
492.1981, 129.2167
492.6802, 130.8175
493.1624, 133.5745
493.6445, 137.1290
494.1266, 141.0045
494.6087, 145.1285
495.0908, 149.4995
495.5729, 154.2541
496.0551, 159.3658
496.5372, 163.8635
497.0193, 167.2846
497.5014, 170.7197
497.9835, 174.9395
498.4656, 179.2370
498.9478, 182.8162
499.4299, 185.3691
499.9120, 186.7310
500.3941, 186.6406
500.8762, 185.0039
501.3583, 182.2436
501.8405, 177.9626
502.3226, 172.9633
502.8047, 167.3802
503.2868, 161.2905
503.7689, 154.7606
504.2510, 147.6938
504.7331, 140.5650
505.2152, 134.2454
505.6974, 128.8001
506.1795, 123.6448
506.6616, 118.4713
507.1437, 113.8109
507.6258, 110.2067
508.1079, 107.4900
508.5901, 104.8922
509.0722, 101.8604
509.5543, 98.81774
510.0364, 96.39870
510.5185, 94.60477
511.0006, 92.99959
511.4828, 91.29056
511.9649, 89.75045
512.4470, 89.09407
512.9291, 89.65519
513.4113, 89.80298
513.8934, 88.76680
514.3755, 87.33178
514.8576, 86.26389
515.3397, 85.63902
515.8218, 85.24031
516.3040, 84.92850
516.7861, 84.68630
517.2682, 84.39418
517.7503, 83.77158
518.2324, 83.45906
518.7145, 83.92081
519.1967, 84.47294
519.6788, 84.31531
520.1609, 83.41398
520.6430, 82.53466
521.1251, 82.51933
521.6072, 83.33561
522.0894, 83.80517
522.5715, 83.67588
523.0536, 83.59776
523.5357, 83.85800
524.0178, 84.25417
524.4999, 84.50154
524.9821, 84.50509
525.4642, 84.61369
525.9463, 85.41657
526.4284, 86.66371
526.9105, 87.13065
527.3926, 86.44295
527.8748, 85.58050
528.3569, 85.29930
528.8390, 85.46793
529.3211, 85.61861
529.8032, 85.52394
530.2853, 85.61152
530.7675, 86.25171
531.2496, 87.21523
531.7317, 87.98562
532.2138, 88.41106
532.6959, 88.88877
533.1780, 89.94306
533.6602, 91.70831
534.1423, 93.22754
534.6244, 94.20560
535.1065, 95.30828
535.5886, 96.89406
536.0707, 98.73132
536.5529, 100.4161
537.0350, 101.7828
537.5171, 103.0837
537.9992, 104.7234
538.4813, 106.7744
538.9634, 108.7643
539.4456, 110.3844
539.9277, 112.2692
540.4098, 114.9616
540.8919, 118.0722
541.3740, 120.7789
541.8561, 122.6117
542.3383, 124.2293
542.8204, 126.5087
543.3025, 129.3667
543.7846, 131.9584
544.2667, 133.9593
544.7488, 135.8609
545.2310, 138.2240
545.7131, 140.9998
546.1952, 143.8810
546.6773, 146.4360
547.1594, 149.4180
547.6415, 153.6067
548.1237, 158.6104
548.6058, 163.5337
549.0879, 167.9953
549.5700, 172.2078
550.0521, 176.4971
550.5342, 180.8299
551.0164, 185.3029
551.4985, 190.4267
551.9806, 195.1208
552.4627, 198.8872
552.9448, 201.9064
553.4269, 204.6963
553.9091, 207.5305
554.3912, 209.9428
554.8733, 211.1120
555.3554, 210.9736
555.8375, 210.0636
556.3196, 208.5839
556.8018, 206.0938
557.2839, 202.3531
557.7660, 197.4839
558.2481, 191.8219
558.7302, 185.1921
559.2123, 178.1941
559.6945, 171.4184
560.1766, 164.8228
560.6587, 158.2467
561.1408, 151.5973
561.6229, 145.0659
562.1050, 138.7629
562.5872, 132.6897
563.0693, 127.2835
563.5514, 122.6701
564.0335, 118.6265
564.5156, 115.3178
564.9977, 112.4651
565.4799, 109.5760
565.9620, 106.4658
566.4441, 103.3016
566.9262, 100.2464
567.4083, 97.10377
567.8904, 94.87362
568.3726, 94.41438
568.8547, 94.02178
569.3368, 92.97646
569.8189, 91.64695
570.3010, 90.74813
570.7831, 90.60273
571.2653, 90.59583
571.7474, 89.93667
572.2295, 88.71313
572.7116, 87.55598
573.1937, 86.46202
573.6758, 85.72295
574.1580, 85.77908
574.6401, 86.43577
575.1222, 86.92675
575.6043, 86.94016
576.0864, 87.04737
576.5685, 87.72282
577.0507, 88.62009
577.5328, 89.08855
578.0149, 88.98720
578.4970, 88.80115
578.9791, 89.09510
579.4612, 89.90547
579.9434, 90.28170
580.4255, 89.48895
580.9076, 89.12793
581.3897, 89.78683
581.8718, 90.87115
582.3539, 91.86882
582.8361, 92.60997
583.3182, 92.93859
583.8003, 92.58389
584.2824, 91.62760
584.7645, 90.65200
585.2466, 89.60815
585.7288, 88.68847
586.2108, 88.20242
586.6929, 87.79128
587.1750, 86.87016
587.6572, 85.24833
588.1393, 83.77544
