##NAMES=Almandine
##RRUFFID=R100046
##IDEAL CHEMISTRY=Fe^2+^_3_Al_2_(SiO_4_)_3_
##LOCALITY=Altai, Xinjiang Province, China
##OWNER=RRUFF
##SOURCE=William W Pinch
##DESCRIPTION=Red trapezohedron
##STATUS=The identification of this mineral has been confirmed only by single crystal X-ray diffraction.
##URL=rruff.info/R100046
90.49219, 9.175954
90.97430, 9.380630
91.45642, 9.453723
91.93854, 9.201528
92.42065, 8.874857
92.90277, 8.913470
93.38489, 9.411680
93.86700, 9.971098
94.34912, 10.13587
94.83124, 9.938655
95.31335, 9.555195
95.79547, 8.897760
96.27759, 8.090087
96.75970, 7.646873
97.24182, 7.714090
97.72394, 8.091433
98.20605, 8.420472
98.68817, 8.714679
99.17029, 8.852798
99.65240, 8.633405
100.1345, 8.018832
100.6166, 7.614111
101.0988, 7.613749
101.5809, 7.951272
102.0630, 8.041530
102.5451, 7.813170
103.0272, 7.466144
103.5093, 7.202257
103.9915, 7.023662
104.4736, 6.931078
104.9557, 6.946834
105.4378, 7.097340
105.9199, 7.209495
106.4020, 7.284148
106.8842, 7.320767
107.3663, 7.327242
107.8484, 7.383243
108.3305, 7.316054
108.8126, 7.057708
109.2947, 6.490524
109.7769, 5.925552
110.2590, 5.127143
110.7411, 4.287869
111.2232, 4.027060
111.7053, 4.991215
112.1874, 6.088237
112.6696, 6.821233
113.1517, 6.754745
113.6338, 6.740690
114.1159, 7.021588
114.5980, 7.527195
115.0801, 7.756067
115.5623, 7.524785
116.0444, 7.000777
116.5265, 6.316576
117.0086, 5.060225
117.4907, 4.031856
117.9728, 3.587632
118.4550, 3.749792
118.9371, 4.065089
119.4192, 4.448883
119.9013, 4.844722
120.3834, 5.174531
120.8655, 5.487581
121.3477, 5.673013
121.8298, 5.563699
122.3119, 5.081599
122.7940, 4.677623
123.2761, 4.735059
123.7582, 5.115972
124.2404, 5.513165
124.7225, 5.851644
125.2046, 6.085388
125.6867, 6.118449
126.1688, 5.876430
126.6509, 5.584065
127.1331, 5.418169
127.6152, 5.387969
128.0973, 5.539215
128.5794, 6.244514
129.0615, 7.164543
129.5436, 7.392611
130.0258, 6.405116
130.5079, 4.994243
130.9900, 4.641210
131.4721, 5.348216
131.9542, 6.293943
132.4363, 6.773650
132.9185, 6.851224
133.4006, 6.969645
133.8827, 7.272423
134.3648, 7.699555
134.8469, 8.034000
135.3290, 8.251994
135.8112, 8.482973
136.2933, 8.817183
136.7754, 9.246303
137.2575, 9.926767
137.7396, 11.06034
138.2217, 12.60692
138.7039, 13.76529
139.1860, 14.48050
139.6681, 14.89457
140.1502, 15.16032
140.6323, 15.18690
141.1144, 15.36022
141.5966, 15.90740
142.0787, 16.97034
142.5608, 17.73785
143.0429, 18.10123
143.5250, 18.23013
144.0071, 18.49953
144.4893, 18.93287
144.9714, 19.46536
145.4535, 20.01818
145.9356, 20.34758
146.4177, 21.23145
146.8998, 22.99630
147.3820, 25.36507
147.8641, 27.23315
148.3462, 28.03358
148.8283, 28.84304
149.3104, 30.25108
149.7925, 32.65950
150.2747, 35.14145
150.7568, 37.70357
151.2389, 40.32472
151.7210, 42.73008
152.2031, 44.66291
152.6852, 46.51215
153.1674, 48.54116
153.6495, 51.05106
154.1316, 53.41860
154.6137, 55.60512
155.0958, 57.61036
155.5779, 59.31377
156.0601, 60.46359
156.5422, 61.41600
157.0243, 62.46151
157.5064, 63.80257
157.9885, 65.10240
158.4706, 66.11020
158.9528, 66.73151
159.4349, 67.83658
159.9170, 70.14845
160.3991, 72.91447
160.8812, 75.26472
161.3633, 76.56383
161.8455, 77.70286
162.3276, 78.93568
162.8097, 80.17937
163.2918, 81.98252
163.7739, 84.76411
164.2560, 88.11449
164.7382, 90.96694
165.2203, 93.49584
165.7024, 96.14592
166.1845, 99.24678
166.6666, 103.1397
167.1487, 106.5310
167.6309, 108.5598
168.1130, 109.6242
168.5951, 110.5214
169.0772, 112.6597
169.5593, 114.2847
170.0414, 113.8355
170.5236, 110.7590
171.0057, 106.3346
171.4878, 100.8180
171.9699, 94.52318
172.4520, 88.52837
172.9341, 83.43812
173.4163, 78.90907
173.8984, 74.52214
174.3805, 70.05696
174.8626, 65.88258
175.3447, 62.14077
175.8268, 58.84549
176.3090, 56.08722
176.7911, 54.33250
177.2732, 53.09832
177.7553, 51.57145
178.2374, 49.27342
178.7195, 46.89312
179.2017, 45.41491
179.6838, 44.74968
180.1659, 44.21007
180.6480, 43.14061
181.1301, 41.78601
181.6122, 40.71377
182.0944, 40.22946
182.5765, 40.00880
183.0586, 39.43985
183.5407, 38.53699
184.0228, 37.63740
184.5049, 37.00799
184.9871, 36.62671
185.4692, 36.45398
185.9513, 36.56896
186.4334, 36.84499
186.9155, 36.92398
187.3976, 36.78144
187.8798, 36.72012
188.3619, 37.19893
188.8440, 38.12042
189.3261, 38.81861
189.8082, 38.96342
190.2903, 38.71928
190.7725, 38.67939
191.2546, 38.86081
191.7367, 39.15228
192.2188, 39.38159
192.7009, 39.56228
193.1830, 39.93209
193.6652, 40.67478
194.1473, 41.71887
194.6294, 42.54487
195.1115, 43.11041
195.5936, 43.60095
196.0757, 44.34496
196.5579, 45.35909
197.0400, 46.15307
197.5221, 46.31541
198.0042, 45.92013
198.4863, 46.24622
198.9684, 47.45313
199.4506, 49.02808
199.9327, 50.20321
200.4148, 50.95115
200.8969, 51.61488
201.3790, 52.25332
201.8611, 52.85224
202.3433, 53.78245
202.8254, 55.08708
203.3075, 56.65638
203.7896, 58.39580
204.2717, 60.40039
204.7538, 62.14036
205.2360, 63.25629
205.7181, 63.64423
206.2002, 64.37139
206.6823, 65.48740
207.1644, 66.87889
207.6465, 68.40763
208.1287, 70.12892
208.6108, 71.74405
209.0929, 73.12811
209.5750, 74.27744
210.0571, 75.25023
210.5392, 76.06416
211.0214, 76.70187
211.5035, 77.03442
211.9856, 76.88476
212.4677, 76.91291
212.9498, 77.64144
213.4319, 79.47897
213.9140, 80.21638
214.3962, 79.56428
214.8783, 77.97470
215.3604, 76.49133
215.8425, 75.16679
216.3246, 73.79709
216.8067, 72.17930
217.2889, 70.10706
217.7710, 68.61081
218.2531, 68.01134
218.7352, 67.83931
219.2173, 66.89581
219.6994, 64.84881
220.1816, 62.65181
220.6637, 60.63335
221.1458, 58.68544
221.6279, 57.26768
222.1100, 56.63182
222.5921, 56.42793
223.0743, 55.67857
223.5564, 54.13023
224.0385, 52.49298
224.5206, 51.12862
225.0027, 50.11648
225.4848, 49.09238
225.9670, 47.94160
226.4491, 46.82051
226.9312, 46.18701
227.4133, 46.36127
227.8954, 46.51045
228.3775, 46.24111
228.8597, 45.39557
229.3418, 44.47643
229.8239, 43.34576
230.3060, 42.17627
230.7881, 41.51381
231.2702, 41.59240
231.7524, 41.80994
232.2345, 41.92860
232.7166, 42.02525
233.1987, 41.82829
233.6808, 41.20567
234.1629, 40.32666
234.6451, 39.63019
235.1272, 39.19151
235.6093, 38.83322
236.0914, 38.45753
236.5735, 37.94584
237.0556, 37.70483
237.5378, 37.84898
238.0199, 38.23134
238.5020, 38.49543
238.9841, 38.67690
239.4662, 38.69377
239.9483, 38.46943
240.4305, 37.81234
240.9126, 37.37920
241.3947, 37.26540
241.8768, 37.34443
242.3589, 37.31847
242.8410, 37.20385
243.3232, 36.95880
243.8053, 36.53576
244.2874, 35.79550
244.7695, 35.18979
245.2516, 34.61278
245.7337, 34.20504
246.2159, 34.37104
246.6980, 35.62089
247.1801, 36.64172
247.6622, 36.83466
248.1443, 35.73704
248.6264, 35.14893
249.1086, 35.34382
249.5907, 35.91040
250.0728, 35.95108
250.5549, 35.09996
251.0370, 34.33947
251.5191, 34.07467
252.0013, 34.48348
252.4834, 34.81022
252.9655, 35.07580
253.4476, 35.24382
253.9297, 35.20765
254.4118, 34.81623
254.8940, 34.50484
255.3761, 34.47643
255.8582, 34.85924
256.3403, 34.99694
256.8224, 34.80573
257.3046, 34.43511
257.7867, 34.09684
258.2688, 33.68932
258.7509, 33.52916
259.2330, 33.81451
259.7151, 34.67783
260.1973, 35.21246
260.6794, 35.35638
261.1615, 35.22402
261.6436, 34.90783
262.1257, 34.23916
262.6078, 33.79779
263.0900, 33.84158
263.5721, 34.44341
264.0542, 34.82579
264.5363, 34.99640
265.0184, 34.94239
265.5005, 34.53497
265.9827, 33.53542
266.4648, 32.90372
266.9469, 33.06252
267.4290, 34.03669
267.9111, 34.51006
268.3932, 34.29432
268.8754, 33.86272
269.3575, 33.72343
269.8396, 33.89917
270.3217, 34.30828
270.8038, 35.08189
271.2859, 36.18064
271.7681, 36.56149
272.2502, 35.93151
272.7323, 35.19154
273.2144, 35.50787
273.6965, 37.21153
274.1786, 38.14265
274.6608, 37.59114
275.1429, 35.81585
275.6250, 34.68787
276.1071, 34.30279
276.5892, 34.28942
277.0714, 34.35994
277.5535, 34.51585
278.0356, 34.74593
278.5177, 35.06613
278.9998, 35.45478
279.4819, 35.85835
279.9641, 36.31127
280.4462, 36.65319
280.9283, 36.64802
281.4104, 36.27691
281.8925, 36.19711
282.3746, 36.61272
282.8568, 37.30442
283.3389, 37.61346
283.8210, 37.49853
284.3031, 37.31963
284.7852, 37.27547
285.2673, 37.36817
285.7495, 37.68028
286.2316, 38.29969
286.7137, 39.03004
287.1958, 39.42619
287.6779, 39.47794
288.1600, 39.49395
288.6422, 39.67450
289.1243, 39.99766
289.6064, 40.29918
290.0885, 40.57696
290.5706, 40.81104
291.0527, 40.95747
291.5349, 41.02036
292.0170, 41.05560
292.4991, 41.02037
292.9812, 40.97113
293.4633, 41.10940
293.9454, 41.44907
294.4276, 41.96304
294.9097, 42.74154
295.3918, 43.71986
295.8739, 44.53898
296.3560, 44.87213
296.8381, 44.93427
297.3203, 45.24654
297.8024, 45.83768
298.2845, 46.49018
298.7666, 47.01041
299.2487, 47.40686
299.7308, 47.71970
300.2130, 47.80672
300.6951, 47.87927
301.1772, 48.31353
301.6593, 49.10581
302.1414, 50.04171
302.6235, 51.00530
303.1057, 51.97113
303.5878, 52.85380
304.0699, 53.51207
304.5520, 54.17798
305.0341, 55.18874
305.5162, 56.50306
305.9984, 57.81663
306.4805, 58.87371
306.9626, 59.79485
307.4447, 60.70635
307.9268, 61.55664
308.4089, 62.54030
308.8911, 63.82724
309.3732, 65.39595
309.8553, 67.15995
310.3374, 69.19875
310.8195, 71.35071
311.3016, 73.42123
311.7838, 75.32320
312.2659, 77.23192
312.7480, 79.20091
313.2301, 81.23569
313.7122, 83.38841
314.1943, 86.16940
314.6765, 88.78860
315.1586, 90.68076
315.6407, 91.68433
316.1228, 92.24244
316.6049, 92.34958
317.0870, 92.16667
317.5692, 91.95847
318.0513, 91.62504
318.5334, 91.44335
319.0155, 91.49522
319.4976, 91.76488
319.9797, 92.43373
320.4619, 93.80076
320.9440, 95.51844
321.4261, 97.17869
321.9082, 98.44569
322.3903, 99.88300
322.8724, 101.6712
323.3546, 103.8195
323.8367, 106.1447
324.3188, 108.6471
324.8009, 111.3073
325.2830, 114.0801
325.7651, 116.6741
326.2473, 119.7260
326.7294, 123.5482
327.2115, 128.0349
327.6936, 132.3519
328.1757, 136.1222
328.6578, 139.9110
329.1400, 144.0257
329.6221, 149.1935
330.1042, 153.6297
330.5863, 156.9895
331.0684, 159.6126
331.5505, 162.4188
332.0327, 165.4236
332.5148, 168.6121
332.9969, 172.0089
333.4790, 175.5587
333.9611, 179.2590
334.4432, 183.0319
334.9254, 187.0154
335.4075, 191.3717
335.8896, 196.1231
336.3717, 201.2798
336.8538, 206.8447
337.3359, 212.8982
337.8180, 218.8597
338.3001, 224.1998
338.7823, 230.2400
339.2644, 238.7688
339.7465, 250.5065
340.2286, 261.7385
340.7107, 271.1282
341.1928, 279.2176
341.6750, 288.7639
342.1571, 299.9851
342.6392, 312.2990
343.1213, 326.0681
343.6034, 341.2160
344.0855, 354.9662
344.5677, 366.6586
345.0498, 376.7424
345.5319, 386.2549
346.0140, 395.2377
346.4961, 402.4933
346.9782, 407.7578
347.4604, 410.8272
347.9425, 410.4213
348.4246, 406.3510
348.9067, 399.0188
349.3888, 388.4373
349.8709, 374.8570
350.3531, 359.6362
350.8352, 342.7156
351.3173, 324.8590
351.7994, 307.0397
352.2815, 289.3298
352.7636, 272.1986
353.2458, 255.8469
353.7279, 240.4068
354.2100, 226.1635
354.6921, 213.0593
355.1742, 201.3565
355.6563, 191.5412
356.1385, 183.5427
356.6206, 176.1485
357.1027, 168.0427
357.5848, 160.2738
358.0669, 154.0310
358.5490, 150.1578
359.0312, 147.1206
359.5133, 143.8271
359.9954, 140.5378
360.4775, 138.0079
360.9596, 137.2189
361.4417, 136.9120
361.9239, 136.0881
362.4060, 134.2183
362.8881, 132.9366
363.3702, 133.1222
363.8523, 134.2293
364.3344, 135.4213
364.8166, 136.6568
365.2987, 137.7745
365.7808, 138.5635
366.2629, 138.9468
366.7450, 139.6973
367.2271, 141.2838
367.7093, 143.1205
368.1914, 144.6922
368.6735, 145.8634
369.1556, 146.8796
369.6377, 147.8457
370.1198, 148.7335
370.6020, 149.1737
371.0841, 149.1382
371.5662, 148.6799
372.0483, 147.8179
372.5304, 146.4305
373.0125, 144.8818
373.4947, 143.3890
373.9768, 141.6824
374.4589, 139.0316
374.9410, 135.1120
375.4231, 130.8972
375.9052, 126.7447
376.3874, 122.6870
376.8695, 118.2502
377.3516, 113.2349
377.8337, 108.1005
378.3158, 103.3036
378.7979, 98.87142
379.2801, 94.42836
379.7622, 89.73954
380.2443, 84.95889
380.7264, 80.54133
381.2085, 76.50747
381.6906, 72.85075
382.1728, 69.69505
382.6549, 66.95013
383.1370, 64.22108
383.6191, 61.37462
384.1012, 58.58178
384.5833, 55.94356
385.0655, 53.49952
385.5476, 51.53703
386.0297, 50.62224
386.5118, 50.17426
386.9939, 49.02351
387.4760, 47.00737
387.9582, 44.82055
388.4403, 42.88407
388.9224, 41.24640
389.4045, 40.01265
389.8866, 39.61037
390.3687, 39.34521
390.8509, 38.53793
391.3330, 37.24197
391.8151, 36.05213
392.2972, 35.56188
392.7793, 35.24774
393.2614, 34.57412
393.7436, 33.07055
394.2257, 31.67605
394.7078, 30.80363
395.1899, 30.35180
395.6720, 30.05424
396.1541, 30.03284
396.6363, 29.98270
397.1184, 29.75665
397.6005, 29.30769
398.0826, 28.78406
398.5647, 28.13015
399.0468, 27.43991
399.5290, 26.82722
400.0111, 26.33809
400.4932, 25.88456
400.9753, 25.38692
401.4574, 24.84545
401.9395, 24.62809
402.4217, 25.01841
402.9038, 25.43153
403.3859, 25.44018
403.8680, 24.78591
404.3501, 24.35439
404.8322, 24.29226
405.3144, 24.44964
405.7965, 24.41141
406.2786, 24.11209
406.7607, 23.83590
407.2428, 23.77173
407.7249, 23.93261
408.2071, 23.80509
408.6892, 23.32934
409.1713, 22.74096
409.6534, 22.29685
410.1355, 21.99833
410.6176, 21.82307
411.0998, 21.77361
411.5819, 21.83477
412.0640, 22.03448
412.5461, 22.36333
413.0282, 22.62286
413.5103, 22.68031
413.9925, 22.55449
414.4746, 22.24292
414.9567, 21.68681
415.4388, 21.11699
415.9209, 20.70148
416.4030, 20.45160
416.8852, 20.38455
417.3673, 20.83850
417.8494, 21.26448
418.3315, 21.06793
418.8136, 20.20860
419.2957, 19.47833
419.7779, 19.39359
420.2600, 19.63150
420.7421, 19.87020
421.2242, 20.11762
421.7063, 20.24730
422.1884, 20.14509
422.6706, 19.87582
423.1527, 19.68050
423.6348, 19.68719
424.1169, 19.72392
424.5990, 19.68536
425.0811, 19.42909
425.5633, 19.41626
426.0454, 19.96047
426.5275, 20.62894
427.0096, 20.85455
427.4917, 20.25994
427.9738, 19.79735
428.4560, 19.72969
428.9381, 20.03046
429.4202, 20.07781
429.9023, 19.75440
430.3844, 19.39369
430.8665, 19.26035
431.3487, 19.40008
431.8308, 19.47872
432.3129, 19.44506
432.7950, 19.36569
433.2771, 19.42471
433.7592, 19.63130
434.2414, 19.72631
434.7235, 19.51138
435.2056, 19.07645
435.6877, 18.75564
436.1698, 18.54637
436.6519, 18.48618
437.1341, 18.72578
437.6162, 19.15045
438.0983, 19.46189
438.5804, 19.54841
439.0625, 19.53236
439.5446, 19.53011
440.0268, 19.53936
440.5089, 19.55144
440.9910, 19.64828
441.4731, 19.69495
441.9552, 19.50869
442.4373, 19.01080
442.9195, 18.62415
443.4016, 18.58259
443.8837, 18.76778
444.3658, 19.03586
444.8479, 19.59415
445.3300, 19.97762
445.8122, 19.91785
446.2943, 19.47683
446.7764, 19.21486
447.2585, 19.37603
447.7406, 19.61060
448.2227, 19.73687
448.7049, 19.62712
449.1870, 19.65043
449.6691, 19.86392
450.1512, 20.18229
450.6333, 20.48031
451.1154, 20.79347
451.5976, 21.01429
452.0797, 21.10288
452.5618, 21.06608
453.0439, 20.96222
453.5260, 20.75398
454.0081, 20.60010
454.4903, 20.68719
454.9724, 21.00947
455.4545, 21.15806
455.9366, 21.00641
456.4187, 20.82082
456.9008, 21.13447
457.3830, 21.89022
457.8651, 22.60385
458.3472, 23.14117
458.8293, 23.46432
459.3114, 23.39286
459.7935, 22.93300
460.2757, 22.53108
460.7578, 22.50772
461.2399, 22.77937
461.7220, 23.27192
462.2041, 24.16367
462.6862, 24.94088
463.1684, 25.03678
463.6505, 24.75869
464.1326, 24.81626
464.6147, 25.85492
465.0968, 27.00607
465.5789, 27.77114
466.0611, 28.05272
466.5432, 28.44374
467.0253, 29.27614
467.5074, 30.14692
467.9895, 30.71378
468.4716, 30.59514
468.9538, 30.63679
469.4359, 30.79765
469.9180, 31.15145
470.4001, 32.02072
470.8822, 33.74818
471.3643, 35.37243
471.8465, 36.47175
472.3286, 36.99268
472.8107, 37.52063
473.2928, 37.99759
473.7749, 38.60570
474.2570, 39.65173
474.7392, 41.13141
475.2213, 42.37410
475.7034, 43.10841
476.1855, 43.67681
476.6676, 44.99833
477.1497, 46.97479
477.6319, 48.62185
478.1140, 49.14560
478.5961, 49.03671
479.0782, 49.18620
479.5603, 49.68583
480.0424, 49.96354
480.5246, 49.41242
481.0067, 48.38307
481.4888, 47.37102
481.9709, 46.52253
482.4530, 45.73545
482.9352, 44.98872
483.4173, 44.26662
483.8994, 43.51955
484.3815, 42.42883
484.8636, 41.55508
485.3457, 41.19510
485.8279, 41.46083
486.3100, 41.87709
486.7921, 42.54292
487.2742, 43.26659
487.7563, 43.87136
488.2384, 44.16736
488.7206, 44.66474
489.2027, 45.36127
489.6848, 46.30613
490.1669, 47.72802
490.6490, 49.72028
491.1311, 51.87031
491.6133, 53.94253
492.0954, 55.94928
492.5775, 58.08965
493.0596, 60.31026
493.5417, 62.85403
494.0238, 66.08374
494.5060, 69.90302
494.9881, 73.86464
495.4702, 77.92352
495.9523, 81.91067
496.4344, 85.18861
496.9165, 88.02886
497.3987, 91.43562
497.8808, 96.79976
498.3629, 102.5405
498.8450, 107.1775
499.3271, 110.6195
499.8092, 113.4204
500.2914, 116.2156
500.7735, 118.3716
501.2556, 119.3750
501.7377, 119.4409
502.2198, 117.8959
502.7019, 113.9590
503.1841, 108.2595
503.6662, 102.5092
504.1483, 96.91427
504.6304, 91.08932
505.1125, 84.80320
505.5946, 77.96056
506.0768, 71.79700
506.5589, 66.34322
507.0410, 61.59463
507.5231, 57.67204
508.0052, 54.70387
508.4873, 51.73454
508.9695, 48.60423
509.4516, 45.60909
509.9337, 43.40895
510.4158, 41.97332
510.8979, 40.73896
511.3800, 39.39862
511.8622, 38.09834
512.3443, 37.25484
512.8264, 36.85030
513.3085, 36.42447
513.7906, 35.48912
514.2728, 34.37782
514.7549, 33.56072
515.2370, 33.21631
515.7191, 32.89901
516.2012, 32.15915
516.6833, 31.30440
517.1655, 30.79456
517.6476, 31.19233
518.1297, 31.54868
518.6118, 31.47851
519.0939, 31.01664
519.5760, 30.64709
520.0582, 30.48968
520.5403, 30.38499
521.0224, 30.27572
521.5045, 30.16996
521.9866, 30.02140
522.4688, 29.76938
522.9509, 29.54106
523.4330, 29.51433
523.9151, 29.72822
524.3972, 29.93204
524.8793, 30.08059
525.3615, 30.17666
525.8436, 30.22596
526.3257, 30.22857
526.8078, 30.19366
527.2899, 30.08888
527.7720, 29.95655
528.2542, 29.90008
528.7363, 29.92547
529.2184, 29.97992
529.7005, 30.01906
530.1826, 30.05986
530.6647, 30.11447
531.1469, 30.12690
531.6290, 30.25298
532.1111, 30.69596
532.5932, 31.30691
533.0753, 31.78039
533.5574, 31.84372
534.0396, 31.93585
534.5217, 32.16669
535.0038, 32.53800
535.4859, 33.15599
535.9680, 34.19727
536.4501, 35.30431
536.9323, 36.28101
537.4144, 37.12886
537.8965, 37.82756
538.3786, 38.26052
538.8607, 38.69941
539.3428, 39.58193
539.8250, 40.94484
540.3071, 42.36312
540.7892, 43.69655
541.2713, 45.00966
541.7534, 46.36257
542.2355, 47.76727
542.7177, 49.34296
543.1998, 51.25108
543.6819, 53.37145
544.1640, 55.54647
544.6461, 57.77155
545.1282, 59.93532
545.6104, 61.78307
546.0925, 63.57353
546.5746, 65.59618
547.0567, 67.95965
547.5388, 70.51931
548.0209, 73.13603
548.5031, 75.89456
548.9852, 79.03722
549.4673, 82.77282
549.9494, 86.72475
550.4315, 90.89311
550.9136, 95.27615
551.3958, 99.39749
551.8779, 103.1523
552.3600, 106.8334
552.8421, 110.7084
553.3242, 114.8221
553.8063, 118.7987
554.2885, 122.7411
554.7706, 126.2194
555.2527, 128.6294
555.7348, 130.0367
556.2169, 130.8914
556.6990, 131.5042
557.1812, 131.3906
557.6633, 129.7038
558.1454, 126.6395
558.6275, 122.9178
559.1096, 118.9340
559.5917, 114.4986
560.0739, 109.3798
560.5560, 103.5332
561.0381, 97.63223
561.5202, 91.89323
562.0023, 86.30296
562.4844, 80.85353
562.9666, 75.22429
563.4487, 70.20702
563.9308, 65.95070
564.4129, 62.25953
564.8950, 58.88282
565.3771, 55.92810
565.8593, 53.11433
566.3414, 50.34686
566.8235, 47.68873
567.3056, 45.26484
567.7877, 43.06884
568.2698, 41.25592
568.7520, 40.12181
569.2341, 39.46709
569.7162, 38.40847
570.1983, 36.90362
570.6804, 35.40696
571.1625, 34.32743
571.6447, 33.55922
572.1268, 32.92801
572.6089, 32.35500
573.0910, 31.97628
573.5731, 31.99985
574.0552, 32.25435
574.5374, 32.44057
575.0195, 32.55490
575.5016, 32.49099
575.9837, 32.02361
576.4658, 31.22177
576.9479, 30.89590
577.4301, 31.40366
577.9122, 31.98499
578.3943, 32.30293
578.8764, 32.28728
579.3585, 32.34539
579.8406, 32.39628
580.3228, 32.70095
580.8049, 33.82729
581.2870, 35.69105
581.7691, 36.73224
582.2512, 36.47499
582.7333, 35.76868
583.2155, 35.99063
583.6975, 36.84633
584.1796, 37.42119
584.6617, 37.13579
585.1439, 36.48798
585.6260, 35.87099
586.1081, 35.27380
586.5902, 34.63427
587.0723, 33.97995
587.5544, 33.23465
588.0366, 32.27041
588.5187, 30.97132
589.0008, 29.93841
