##NAMES=Almandine
##RRUFFID=R070129
##IDEAL CHEMISTRY=Fe^2+^_3_Al_2_(SiO_4_)_3_
##LOCALITY=Wrangell, Wrangell Island, Wrangell-Petersburg Borough, Alaska, USA
##OWNER=Michael Scott
##SOURCE=Michael Scott
##DESCRIPTION=Dark red well-formed dodecahedral crystals in schist
##STATUS=The identification of this mineral has been confirmed by X-ray diffraction and chemical analysis
##URL=rruff.info/R070129
##MEASURED CHEMISTRY=(Fe^2+^_2.15_Mg_0.60_Mn_0.11_Fe^3+^_0.06_Ca_0.08_)_Σ=3_Al_2.00_((Si_0.98_Al_0.02_)_Σ=1_O_4_)_3_
129.5060, 211.0161
129.9881, 236.5238
130.4702, 259.8160
130.9524, 285.7580
131.4345, 318.8973
131.9166, 358.0591
132.3987, 396.4395
132.8808, 431.6541
133.3629, 462.8930
133.8451, 490.8441
134.3272, 519.0527
134.8093, 538.8543
135.2914, 541.1467
135.7735, 525.7004
136.2556, 503.9252
136.7378, 477.1215
137.2199, 448.5494
137.7020, 422.1216
138.1841, 399.1529
138.6662, 377.8688
139.1483, 355.3158
139.6305, 330.3640
140.1126, 309.9074
140.5947, 300.8573
141.0768, 296.5078
141.5589, 289.9177
142.0410, 277.1725
142.5232, 264.6567
143.0053, 263.2974
143.4874, 276.1692
143.9695, 291.6309
144.4516, 307.9488
144.9337, 323.6050
145.4159, 335.7457
145.8980, 341.8640
146.3801, 347.1460
146.8622, 363.8802
147.3443, 398.5089
147.8264, 431.8279
148.3086, 457.4785
148.7907, 479.6610
149.2728, 503.0247
149.7549, 530.0193
150.2370, 558.6132
150.7191, 584.3019
151.2013, 610.4404
151.6834, 626.7645
152.1655, 628.3177
152.6476, 621.2849
153.1297, 612.6472
153.6118, 606.0321
154.0940, 599.6303
154.5761, 586.4581
155.0582, 555.8172
155.5403, 532.9771
156.0224, 523.8993
156.5045, 523.6374
156.9867, 526.8461
157.4688, 530.9327
157.9509, 535.4994
158.4330, 538.8615
158.9151, 538.2300
159.3972, 539.6703
159.8794, 543.1980
160.3615, 549.3550
160.8436, 559.5358
161.3257, 574.6583
161.8078, 593.1841
162.2899, 608.2241
162.7721, 613.5628
163.2542, 622.1720
163.7363, 637.2196
164.2184, 656.1254
164.7005, 675.2443
165.1826, 692.7477
165.6648, 709.0117
166.1469, 725.5137
166.6290, 740.4208
167.1111, 757.7698
167.5932, 784.3865
168.0753, 812.8145
168.5575, 832.1789
169.0396, 836.8270
169.5217, 828.6596
170.0038, 814.9130
170.4859, 798.8078
170.9680, 773.9881
171.4502, 732.1999
171.9323, 681.8976
172.4144, 636.8964
172.8965, 604.3404
173.3786, 580.6490
173.8607, 552.9419
174.3429, 511.5627
174.8250, 477.8951
175.3071, 461.4069
175.7892, 454.7639
176.2713, 445.2563
176.7534, 426.8065
177.2356, 402.5927
177.7177, 382.7286
178.1998, 367.8398
178.6819, 355.1648
179.1640, 345.2341
179.6461, 337.0081
180.1283, 328.2926
180.6104, 317.8071
181.0925, 307.0448
181.5746, 300.2718
182.0567, 298.7544
182.5388, 297.6652
183.0210, 295.8123
183.5031, 293.4624
183.9852, 291.3671
184.4673, 290.0224
184.9494, 288.5153
185.4315, 283.9884
185.9137, 274.3809
186.3958, 267.8342
186.8779, 267.4371
187.3600, 271.6660
187.8421, 278.5981
188.3242, 288.5793
188.8064, 298.5610
189.2885, 301.5511
189.7706, 296.0104
190.2527, 292.7199
190.7348, 297.3564
191.2169, 306.2358
191.6991, 311.4762
192.1812, 309.6953
192.6633, 306.9102
193.1454, 314.2095
193.6275, 332.4019
194.1096, 347.4510
194.5918, 352.4936
195.0739, 351.9959
195.5560, 354.1697
196.0381, 361.4388
196.5202, 369.9969
197.0023, 374.0767
197.4845, 373.9142
197.9666, 375.4711
198.4487, 380.1169
198.9308, 387.7379
199.4129, 399.4544
199.8950, 416.8203
200.3772, 433.6914
200.8593, 441.6009
201.3414, 442.0995
201.8235, 443.7862
202.3056, 448.6199
202.7877, 456.2302
203.2699, 466.5139
203.7520, 479.9293
204.2341, 494.4063
204.7162, 508.3117
205.1983, 521.7768
205.6804, 535.1545
206.1626, 549.1453
206.6447, 562.8955
207.1268, 575.5010
207.6089, 586.9720
208.0910, 596.8344
208.5731, 603.5279
209.0553, 608.1547
209.5374, 613.8007
210.0195, 623.2051
210.5016, 632.8181
210.9837, 638.2209
211.4658, 639.0526
211.9480, 638.4830
212.4301, 639.3137
212.9122, 640.0745
213.3943, 637.2592
213.8764, 627.5361
214.3585, 616.1769
214.8407, 609.3465
215.3228, 607.1663
215.8049, 603.2141
216.2870, 592.6130
216.7691, 578.2758
217.2512, 566.3355
217.7334, 558.6511
218.2155, 551.7493
218.6976, 543.2510
219.1797, 533.2119
219.6618, 521.3995
220.1439, 506.6967
220.6261, 490.7691
221.1082, 476.4650
221.5903, 464.0905
222.0724, 452.8224
222.5545, 442.2495
223.0366, 432.3336
223.5188, 422.7825
224.0009, 412.6691
224.4830, 403.8512
224.9651, 399.6918
225.4472, 401.6773
225.9293, 401.4190
226.4115, 390.5864
226.8936, 372.9599
227.3757, 362.8107
227.8578, 366.6199
228.3399, 374.7599
228.8220, 374.9509
229.3041, 367.1545
229.7863, 359.1599
230.2684, 354.5009
230.7505, 352.0218
231.2326, 348.8620
231.7147, 344.1055
232.1968, 339.6393
232.6790, 338.0942
233.1611, 338.9817
233.6432, 339.3337
234.1253, 338.1570
234.6074, 335.8910
235.0895, 333.1282
235.5717, 329.8806
236.0538, 326.3339
236.5359, 321.9234
237.0180, 317.1407
237.5001, 314.1852
237.9822, 315.3681
238.4644, 317.5566
238.9465, 316.7566
239.4286, 312.6938
239.9107, 309.1362
240.3928, 309.3289
240.8749, 312.1031
241.3571, 313.2151
241.8392, 311.9756
242.3213, 309.2541
242.8034, 304.4660
243.2855, 298.0260
243.7676, 293.7530
244.2498, 294.6121
244.7319, 298.6468
245.2140, 300.0008
245.6961, 297.1219
246.1782, 293.9674
246.6603, 292.4885
247.1425, 292.4201
247.6246, 293.1391
248.1067, 294.9357
248.5888, 296.6268
249.0709, 295.1025
249.5530, 288.4281
250.0352, 284.5597
250.5173, 289.8586
250.9994, 299.2987
251.4815, 302.8334
251.9636, 296.7845
252.4457, 287.4399
252.9279, 285.0988
253.4100, 291.2986
253.8921, 293.6338
254.3742, 285.6128
254.8563, 274.4961
255.3384, 268.6829
255.8206, 269.6743
256.3027, 274.4950
256.7848, 281.3370
257.2669, 290.7595
257.7490, 295.3387
258.2311, 291.8943
258.7133, 285.6892
259.1954, 279.4047
259.6775, 273.6396
260.1596, 269.7760
260.6417, 268.9362
261.1238, 271.1886
261.6060, 274.9047
262.0881, 282.7791
262.5702, 289.3060
263.0523, 291.3011
263.5344, 289.7726
264.0165, 287.3579
264.4987, 285.2705
264.9808, 283.7116
265.4629, 283.6524
265.9450, 288.9366
266.4271, 290.9362
266.9092, 284.0390
267.3914, 273.8567
267.8735, 269.0101
268.3556, 272.9328
268.8377, 281.5413
269.3198, 286.6665
269.8019, 286.3791
270.2841, 285.0124
270.7662, 280.4319
271.2483, 275.9890
271.7304, 275.0703
272.2125, 278.1848
272.6946, 282.9263
273.1768, 286.5075
273.6589, 289.0220
274.1410, 289.7268
274.6231, 288.0123
275.1052, 285.3282
275.5873, 280.9537
276.0695, 275.9464
276.5516, 273.4333
277.0337, 276.4786
277.5158, 285.2174
277.9979, 291.5184
278.4800, 294.9190
278.9622, 296.4065
279.4443, 293.2642
279.9264, 288.7517
280.4085, 289.0059
280.8906, 298.0467
281.3727, 312.4999
281.8549, 319.1176
282.3370, 308.8478
282.8191, 303.3600
283.3012, 309.5468
283.7833, 319.3614
284.2654, 324.5053
284.7476, 322.1966
285.2297, 316.7822
285.7118, 315.9493
286.1939, 322.3796
286.6760, 326.1524
287.1581, 325.7903
287.6403, 323.3693
288.1224, 317.9164
288.6045, 310.5286
289.0866, 305.8391
289.5687, 310.0058
290.0508, 323.8376
290.5330, 334.2335
291.0151, 340.7668
291.4972, 343.8296
291.9793, 340.3139
292.4614, 333.5013
292.9435, 330.8696
293.4257, 338.8996
293.9078, 353.8017
294.3899, 362.1789
294.8720, 361.0093
295.3541, 359.8660
295.8362, 362.8349
296.3184, 367.9824
296.8005, 373.3678
297.2826, 378.7148
297.7647, 383.2734
298.2468, 385.0691
298.7289, 383.6451
299.2111, 384.6973
299.6932, 391.3193
300.1753, 400.4044
300.6574, 409.5752
301.1395, 418.8324
301.6216, 426.1346
302.1038, 428.5566
302.5859, 427.5474
303.0680, 428.2288
303.5501, 430.6442
304.0322, 436.6983
304.5143, 451.2462
304.9964, 472.3805
305.4785, 489.4689
305.9607, 496.4472
306.4428, 498.5826
306.9249, 501.5102
307.4070, 505.4878
307.8891, 512.5016
308.3712, 524.1467
308.8534, 540.4104
309.3355, 558.8995
309.8176, 581.4323
310.2997, 604.4517
310.7818, 626.2336
311.2639, 646.9691
311.7461, 667.8506
312.2282, 689.7682
312.7103, 711.4832
313.1924, 730.0861
313.6745, 746.7319
314.1566, 758.9766
314.6388, 763.2070
315.1209, 764.0904
315.6030, 768.4905
316.0851, 777.8229
316.5672, 785.9019
317.0493, 784.2961
317.5315, 768.8243
318.0136, 760.1215
318.4957, 760.7587
318.9778, 765.3230
319.4599, 771.9370
319.9420, 779.8714
320.4242, 788.2755
320.9063, 796.4248
321.3884, 804.4445
321.8705, 813.6257
322.3526, 819.0552
322.8347, 831.4537
323.3169, 858.2615
323.7990, 891.0834
324.2811, 918.3502
324.7632, 935.3783
325.2453, 949.0513
325.7274, 973.2954
326.2096, 1011.625
326.6917, 1053.258
327.1738, 1106.054
327.6559, 1155.338
328.1380, 1188.860
328.6201, 1207.352
329.1023, 1223.634
329.5844, 1250.481
330.0665, 1288.243
330.5486, 1322.290
331.0307, 1348.192
331.5128, 1376.157
331.9950, 1412.237
332.4771, 1453.007
332.9592, 1491.313
333.4413, 1522.865
333.9234, 1551.140
334.4055, 1581.414
334.8877, 1612.760
335.3698, 1649.836
335.8519, 1696.318
336.3340, 1748.501
336.8161, 1802.761
337.2982, 1858.290
337.7804, 1917.431
338.2625, 1981.258
338.7446, 2049.847
339.2267, 2124.126
339.7088, 2205.593
340.1909, 2290.097
340.6731, 2372.030
341.1552, 2452.122
341.6373, 2539.401
342.1194, 2641.491
342.6015, 2749.559
343.0836, 2854.608
343.5658, 2956.273
344.0479, 3053.424
344.5300, 3149.824
345.0121, 3239.923
345.4942, 3302.870
345.9763, 3334.220
346.4585, 3345.742
346.9406, 3343.558
347.4227, 3324.082
347.9048, 3280.883
348.3869, 3211.295
348.8690, 3118.101
349.3512, 3005.157
349.8333, 2864.782
350.3154, 2718.079
350.7975, 2556.047
351.2796, 2394.169
351.7617, 2237.840
352.2439, 2090.630
352.7260, 1959.967
353.2081, 1855.063
353.6902, 1774.792
354.1723, 1689.506
354.6544, 1583.825
355.1366, 1490.467
355.6187, 1417.599
356.1008, 1360.156
356.5829, 1312.834
357.0650, 1273.764
357.5471, 1239.251
358.0293, 1200.327
358.5114, 1152.094
358.9935, 1116.026
359.4756, 1103.425
359.9577, 1098.068
360.4398, 1091.782
360.9220, 1084.033
361.4041, 1078.202
361.8862, 1077.616
362.3683, 1081.368
362.8504, 1084.573
363.3326, 1085.628
363.8147, 1089.558
364.2968, 1102.217
364.7789, 1119.206
365.2610, 1133.256
365.7431, 1140.447
366.2253, 1146.949
366.7074, 1157.923
367.1895, 1173.226
367.6716, 1192.834
368.1537, 1219.219
368.6358, 1246.420
369.1180, 1264.022
369.6001, 1271.460
370.0822, 1277.079
370.5643, 1286.297
371.0464, 1293.228
371.5285, 1290.608
372.0107, 1277.775
372.4928, 1258.828
372.9749, 1236.284
373.4570, 1210.215
373.9391, 1185.028
374.4212, 1167.769
374.9034, 1143.744
375.3855, 1103.870
375.8676, 1054.910
376.3497, 1007.871
376.8318, 967.3331
377.3139, 930.2203
377.7961, 889.6430
378.2782, 843.8120
378.7603, 798.4210
379.2424, 749.7599
379.7245, 704.5288
380.2066, 666.7369
380.6888, 636.1405
381.1709, 610.4045
381.6530, 588.7742
382.1351, 570.3796
382.6172, 548.8249
383.0993, 521.4265
383.5815, 495.2074
384.0636, 472.1246
384.5457, 451.4630
385.0278, 432.4284
385.5099, 414.7617
385.9920, 399.0060
386.4742, 386.2812
386.9563, 376.4175
387.4384, 366.6210
387.9205, 356.8152
388.4026, 346.1106
388.8847, 332.2653
389.3669, 315.9530
389.8490, 303.0267
390.3311, 298.6505
390.8132, 296.6522
391.2953, 288.3733
391.7774, 274.0082
392.2596, 262.2511
392.7417, 258.9377
393.2238, 261.5681
393.7059, 260.6973
394.1880, 254.0337
394.6701, 247.9071
395.1523, 245.1793
395.6344, 243.2921
396.1165, 237.5077
396.5986, 227.1869
397.0807, 218.6489
397.5628, 220.4279
398.0450, 235.7235
398.5271, 242.7597
399.0092, 235.7292
399.4913, 227.4987
399.9734, 221.8145
400.4555, 218.5441
400.9377, 216.8624
401.4197, 216.4871
401.9019, 216.6935
402.3840, 215.9674
402.8661, 214.5814
403.3482, 211.4847
403.8303, 202.7505
404.3124, 195.0757
404.7946, 193.5353
405.2767, 197.9125
405.7588, 203.1703
406.2409, 207.5981
406.7230, 210.1681
407.2051, 206.2847
407.6873, 193.8974
408.1694, 181.6866
408.6515, 172.9713
409.1336, 168.3582
409.6157, 169.8629
410.0978, 181.2971
410.5800, 192.4071
411.0621, 196.9525
411.5442, 196.4041
412.0263, 193.3234
412.5084, 187.9403
412.9905, 183.2278
413.4727, 183.4094
413.9548, 190.1065
414.4369, 193.5679
414.9190, 192.8738
415.4011, 189.7490
415.8832, 182.9453
416.3654, 174.4804
416.8475, 169.0439
417.3296, 169.3307
417.8117, 173.4886
418.2938, 176.0584
418.7759, 175.9583
419.2581, 176.0668
419.7402, 176.2353
420.2223, 176.8736
420.7044, 178.7672
421.1865, 181.6289
421.6686, 184.0294
422.1508, 184.9853
422.6329, 184.4707
423.1150, 181.6711
423.5971, 174.3833
424.0792, 169.4954
424.5613, 172.8485
425.0435, 179.0876
425.5256, 181.7204
426.0077, 178.7268
426.4898, 174.6641
426.9719, 173.7819
427.4540, 174.8750
427.9362, 173.1996
428.4183, 167.1221
428.9004, 160.5103
429.3825, 156.9109
429.8646, 156.3552
430.3467, 157.6320
430.8289, 163.0464
431.3110, 168.0364
431.7931, 169.8357
432.2752, 169.1214
432.7573, 167.5916
433.2394, 165.9802
433.7216, 164.1473
434.2037, 161.6124
434.6858, 156.5031
435.1679, 154.5992
435.6500, 157.6685
436.1321, 162.0401
436.6143, 166.8905
437.0964, 171.2380
437.5785, 173.0919
438.0606, 170.5614
438.5427, 165.0644
439.0248, 161.5573
439.5070, 160.1366
439.9891, 160.4576
440.4712, 164.7784
440.9533, 169.3688
441.4354, 171.3215
441.9175, 170.2579
442.3997, 167.3817
442.8818, 161.1531
443.3639, 153.9792
443.8460, 152.8970
444.3281, 159.3053
444.8102, 165.7066
445.2924, 166.7690
445.7745, 163.6009
446.2566, 161.8243
446.7387, 162.2469
447.2208, 163.0119
447.7029, 163.2145
448.1851, 163.4052
448.6672, 164.7202
449.1493, 167.3643
449.6314, 169.9962
450.1135, 170.9329
450.5956, 169.8542
451.0778, 169.4105
451.5599, 170.2710
452.0420, 171.0043
452.5241, 170.5076
453.0062, 169.8023
453.4883, 170.1802
453.9705, 172.1573
454.4526, 175.8871
454.9347, 183.3798
455.4168, 195.7383
455.8989, 201.2585
456.3810, 194.0825
456.8632, 184.7523
457.3453, 180.4654
457.8274, 179.9337
458.3095, 178.7295
458.7916, 172.2209
459.2737, 166.7520
459.7559, 171.4208
460.2380, 184.5710
460.7201, 195.2655
461.2022, 198.7692
461.6843, 199.0406
462.1664, 202.9102
462.6486, 211.8008
463.1307, 218.6488
463.6128, 222.2746
464.0949, 224.1144
464.5770, 223.6554
465.0591, 222.1323
465.5413, 222.9108
466.0234, 228.2432
466.5055, 236.4901
466.9876, 242.2914
467.4697, 243.3727
467.9518, 246.3598
468.4340, 253.9646
468.9161, 261.8007
469.3982, 266.6190
469.8803, 268.6555
470.3624, 270.5710
470.8445, 273.7641
471.3267, 278.3487
471.8088, 284.4265
472.2909, 291.8506
472.7730, 302.0481
473.2551, 318.3850
473.7372, 335.9771
474.2194, 346.7151
474.7015, 348.9145
475.1836, 351.5182
475.6657, 357.4665
476.1478, 365.8614
476.6299, 377.1922
477.1121, 390.8179
477.5942, 402.2096
478.0763, 408.1299
478.5584, 409.1456
479.0405, 408.4593
479.5226, 404.8606
480.0048, 400.9889
480.4869, 398.7122
480.9690, 395.1268
481.4511, 386.6515
481.9332, 373.5312
482.4153, 360.1460
482.8975, 350.3065
483.3796, 343.6226
483.8617, 336.8149
484.3438, 328.6282
484.8259, 323.3060
485.3080, 322.3616
485.7902, 325.4306
486.2723, 333.4725
486.7544, 347.2372
487.2365, 361.3070
487.7186, 371.8977
488.2007, 380.7261
488.6829, 390.5468
489.1650, 401.6926
489.6471, 414.5918
490.1292, 430.2130
490.6113, 447.8848
491.0934, 463.1740
491.5756, 467.8994
492.0577, 481.2083
492.5398, 512.8594
493.0219, 550.6254
493.5040, 582.4759
493.9861, 606.6378
494.4683, 628.8893
494.9504, 653.5846
495.4325, 681.1020
495.9146, 713.6830
496.3967, 752.5375
496.8788, 794.3372
497.3610, 844.2353
497.8431, 892.8815
498.3252, 930.1445
498.8073, 954.1560
499.2894, 972.7558
499.7715, 996.7302
500.2536, 1018.043
500.7357, 1016.708
501.2179, 990.3018
501.7000, 956.8010
502.1821, 928.0569
502.6642, 901.0138
503.1463, 862.3920
503.6284, 805.7460
504.1106, 749.6412
504.5927, 695.4534
505.0748, 644.7468
505.5569, 598.2061
506.0390, 556.2970
506.5211, 518.7471
507.0033, 485.6864
507.4854, 456.9509
507.9675, 431.2749
508.4496, 409.2077
508.9317, 389.2077
509.4138, 372.4238
509.8960, 356.4173
510.3781, 337.4856
510.8602, 315.8816
511.3423, 299.0043
511.8244, 294.7914
512.3066, 297.3959
512.7887, 296.1085
513.2708, 290.5386
513.7529, 283.1045
514.2350, 273.9978
514.7172, 264.7765
515.1993, 259.8181
515.6814, 261.4084
516.1635, 261.0318
516.6456, 256.3685
517.1277, 250.2787
517.6099, 244.3272
518.0920, 238.9779
518.5741, 234.7341
519.0562, 231.9917
519.5383, 230.4024
520.0204, 228.5747
520.5026, 225.3244
520.9847, 225.1517
521.4668, 232.4837
521.9489, 240.1213
522.4310, 243.5099
522.9131, 243.2501
523.3953, 242.9552
523.8774, 245.9070
524.3595, 248.4789
524.8416, 244.3166
525.3237, 234.7552
525.8058, 228.3709
526.2880, 228.1363
526.7701, 232.3711
527.2522, 239.7648
527.7343, 252.5669
528.2164, 258.6335
528.6985, 252.5802
529.1807, 245.4460
529.6628, 241.3662
530.1449, 240.3647
530.6270, 242.5344
531.1091, 247.8551
531.5912, 253.5575
532.0734, 254.6304
532.5555, 250.3433
533.0376, 248.4194
533.5197, 249.3490
534.0018, 252.5866
534.4839, 259.0293
534.9661, 267.1521
535.4482, 274.0705
535.9303, 278.5364
536.4124, 283.0056
536.8945, 288.9089
537.3766, 296.0502
537.8588, 304.1010
538.3409, 312.9619
538.8230, 322.6474
539.3051, 333.5333
539.7872, 345.4020
540.2693, 355.4530
540.7515, 362.1747
541.2336, 369.0433
541.7157, 372.0368
542.1978, 378.2975
542.6799, 397.1286
543.1620, 427.8071
543.6442, 458.6006
544.1263, 478.3131
544.6084, 490.9480
545.0905, 511.3834
545.5726, 541.6775
546.0547, 568.8376
546.5369, 584.8546
547.0190, 598.0891
547.5011, 621.1928
547.9832, 655.3090
548.4653, 687.3423
548.9474, 710.9198
549.4296, 733.2137
549.9116, 759.8138
550.3937, 790.2468
550.8759, 821.1823
551.3580, 851.0630
551.8401, 881.6740
552.3222, 917.2908
552.8043, 961.0717
553.2864, 1000.454
553.7686, 1038.409
554.2507, 1068.774
554.7328, 1088.961
555.2149, 1099.645
555.6970, 1101.508
556.1791, 1093.729
556.6613, 1081.013
557.1434, 1070.580
557.6255, 1059.327
558.1076, 1035.294
558.5897, 995.6282
559.0718, 949.3092
559.5540, 901.6236
560.0361, 852.9182
560.5182, 806.3454
561.0003, 763.7260
561.4824, 720.3757
561.9645, 673.1918
562.4467, 626.2881
562.9288, 582.6300
563.4109, 543.2876
563.8930, 509.3054
564.3751, 482.6096
564.8572, 461.2226
565.3394, 438.1856
565.8215, 412.1598
566.3036, 390.1740
566.7857, 376.2353
567.2678, 365.2658
567.7499, 351.3065
568.2321, 334.7024
568.7142, 321.1016
569.1963, 312.8008
569.6784, 307.4272
570.1605, 304.9317
570.6426, 303.7930
571.1248, 300.4793
571.6069, 293.7624
572.0890, 285.2813
572.5711, 276.8422
573.0532, 268.0073
573.5353, 262.5217
574.0175, 263.1238
574.4996, 263.7726
574.9817, 261.8258
575.4638, 259.4592
575.9459, 259.5739
576.4280, 262.8502
576.9102, 266.7452
577.3923, 268.3098
577.8744, 269.4972
578.3565, 275.9680
578.8386, 287.8695
579.3207, 296.4827
579.8029, 295.8723
580.2850, 290.7706
580.7671, 292.8109
581.2492, 309.3932
581.7313, 318.9714
582.2134, 315.2784
582.6956, 310.3958
583.1777, 312.4009
583.6598, 318.5443
584.1419, 321.9108
584.6240, 319.2032
585.1061, 313.1780
585.5883, 308.1118
586.0704, 303.8219
586.5525, 295.7903
587.0346, 281.9318
587.5167, 268.4266
587.9988, 259.6002
588.4810, 254.6272
588.9631, 249.9583
589.4452, 244.9338
589.9273, 241.2119
590.4094, 239.8323
590.8915, 239.6431
591.3737, 239.6621
591.8558, 239.6811
592.3379, 239.6190
592.8200, 239.3373
593.3021, 239.1499
593.7842, 240.1730
594.2664, 242.8552
594.7485, 245.0710
595.2306, 246.4612
595.7127, 247.3092
596.1948, 248.6332
596.6769, 249.7536
597.1591, 248.1715
597.6412, 240.4570
598.1233, 233.2759
598.6054, 232.5521
599.0875, 235.0969
599.5696, 235.1285
600.0518, 231.4888
600.5339, 226.1592
601.0160, 220.6538
601.4981, 215.1710
601.9802, 211.9201
602.4623, 214.7937
602.9445, 213.0241
603.4266, 198.7216
603.9087, 184.3618
604.3908, 181.4458
604.8729, 188.1893
605.3550, 191.7682
605.8372, 181.5618
606.3193, 168.9444
606.8014, 170.4352
607.2835, 181.3952
607.7656, 183.1308
608.2477, 169.5828
608.7299, 153.3695
609.2120, 148.7804
609.6941, 156.3840
610.1762, 159.7787
610.6583, 154.4408
611.1404, 150.4657
611.6226, 150.1938
612.1047, 151.5716
612.5868, 151.5068
613.0689, 150.3723
613.5510, 152.9521
614.0331, 166.4185
614.5153, 183.5202
614.9974, 190.0880
615.4795, 186.9047
615.9616, 182.4901
616.4437, 179.3739
616.9258, 176.8635
617.4080, 173.7263
617.8901, 169.4984
618.3722, 168.9438
618.8543, 174.7195
619.3364, 180.6487
619.8185, 184.6027
620.3007, 187.8775
620.7828, 191.4169
621.2649, 195.7168
621.7470, 202.1318
622.2291, 213.7019
622.7112, 227.6014
623.1934, 234.7754
