##NAMES=AlSO4(OH)
##RRUFFID=R141118
##IDEAL CHEMISTRY=AlSO_4_(OH)
##LOCALITY=Only one crystal was synthesized hydrothermally at 700Â°C and ~1.0 GPa.
##OWNER=RRUFF
##SOURCE=Alan J. Anderson
##DESCRIPTION=Prismatic colorless crystal mounted in super glue.
##STATUS=The identification of this mineral is confirmed by single-crystal X-ray diffraction and chemical analysis.
##URL=rruff.info/R141118
##MEASURED CHEMISTRY=AlSO_4_(OH). EDS shows the major elements of Al, S, and O, plus trace Cr. Si is from glass fiber. No electron microprobe analysis was done, because there is only one crystal. The final chemistry was from the structure refinement.
96.50286, 614.1525
96.98498, 609.8080
97.46709, 605.5297
97.94921, 600.9623
98.43133, 595.8000
98.91344, 590.9457
99.39556, 586.5311
99.87768, 582.4147
100.3598, 578.3633
100.8419, 574.0076
101.3240, 569.6623
101.8061, 566.3254
102.2883, 564.4196
102.7704, 563.1182
103.2525, 561.5317
103.7346, 559.4606
104.2167, 557.9207
104.6988, 558.2069
105.1810, 559.2658
105.6631, 559.4958
106.1452, 557.8203
106.6273, 554.6876
107.1094, 552.0035
107.5915, 550.2148
108.0737, 548.2924
108.5558, 545.4622
109.0379, 542.0807
109.5200, 539.0526
110.0021, 537.2283
110.4842, 536.8146
110.9664, 536.5891
111.4485, 536.7811
111.9306, 536.9637
112.4127, 536.8825
112.8948, 536.5297
113.3769, 536.1196
113.8591, 535.9965
114.3412, 536.6819
114.8233, 536.6336
115.3054, 535.2775
115.7875, 533.4792
116.2696, 532.0743
116.7517, 531.3600
117.2339, 531.0794
117.7160, 530.6036
118.1981, 529.5455
118.6802, 529.0405
119.1623, 529.6549
119.6444, 531.1070
120.1266, 532.6859
120.6087, 534.2084
121.0908, 535.5277
121.5729, 536.5099
122.0550, 537.1805
122.5371, 537.4678
123.0193, 537.2591
123.5014, 536.5294
123.9835, 535.5150
124.4656, 533.6778
124.9477, 531.8464
125.4298, 530.8448
125.9120, 531.0586
126.3941, 532.1524
126.8762, 533.4585
127.3583, 535.2673
127.8404, 536.7979
128.3225, 537.8685
128.8047, 538.5749
129.2868, 538.9584
129.7689, 538.9448
130.2510, 538.6083
130.7331, 539.0429
131.2152, 540.9376
131.6974, 542.9993
132.1795, 544.7843
132.6616, 546.4570
133.1437, 548.4514
133.6258, 551.1545
134.1079, 554.6580
134.5901, 558.5193
135.0722, 562.7001
135.5543, 567.1876
136.0364, 572.4583
136.5185, 578.3655
137.0006, 583.7247
137.4828, 586.9571
137.9649, 587.5578
138.4470, 588.3805
138.9291, 589.9012
139.4112, 591.5993
139.8933, 592.7298
140.3755, 593.0014
140.8576, 593.1938
141.3397, 594.4833
141.8218, 596.7594
142.3039, 598.9398
142.7860, 600.8920
143.2681, 602.4646
143.7503, 603.2076
144.2324, 603.3217
144.7145, 601.9998
145.1966, 598.7549
145.6787, 593.5903
146.1608, 587.3018
146.6430, 580.2732
147.1251, 572.4005
147.6072, 564.6789
148.0893, 556.5616
148.5714, 549.0754
149.0535, 542.9015
149.5357, 538.1912
150.0178, 534.4583
150.4999, 531.1649
150.9820, 528.6226
151.4641, 525.7740
151.9462, 522.3401
152.4284, 518.7189
152.9105, 515.0328
153.3926, 511.3745
153.8747, 507.9702
154.3568, 505.4103
154.8389, 504.3833
155.3211, 503.5071
155.8032, 502.6784
156.2853, 501.9658
156.7674, 501.5224
157.2495, 501.4410
157.7316, 501.5973
158.2138, 501.4545
158.6959, 500.8645
159.1780, 500.1921
159.6601, 499.0946
160.1422, 497.9400
160.6243, 497.7895
161.1065, 499.6465
161.5886, 502.7245
162.0707, 503.6076
162.5528, 500.9041
163.0349, 497.5638
163.5170, 494.9490
163.9991, 493.0507
164.4813, 491.8943
164.9634, 491.8319
165.4455, 492.5017
165.9276, 493.0195
166.4097, 493.4130
166.8918, 493.5262
167.3740, 493.0717
167.8561, 491.9393
168.3382, 490.7656
168.8203, 489.6582
169.3024, 488.7890
169.7845, 488.5179
170.2667, 489.3560
170.7488, 490.6573
171.2309, 490.7602
171.7130, 488.7817
172.1951, 487.2283
172.6772, 487.4222
173.1594, 488.5164
173.6415, 489.3222
174.1236, 489.1262
174.6057, 488.0764
175.0878, 487.0222
175.5699, 485.5063
176.0521, 484.5674
176.5342, 484.8509
177.0163, 485.8739
177.4984, 486.7679
177.9805, 486.8439
178.4626, 486.0919
178.9448, 485.9253
179.4269, 486.8659
179.9090, 487.8716
180.3911, 488.7722
180.8732, 489.4953
181.3553, 489.9688
181.8375, 490.1263
182.3196, 489.9491
182.8017, 489.5584
183.2838, 488.7821
183.7659, 487.9895
184.2480, 487.2703
184.7301, 486.6720
185.2123, 486.3177
185.6944, 486.3821
186.1765, 486.9473
186.6586, 487.1998
187.1407, 487.0103
187.6228, 486.6167
188.1050, 486.0649
188.5871, 485.3840
189.0692, 484.8575
189.5513, 484.8404
190.0334, 485.3233
190.5155, 485.7149
190.9977, 486.0174
191.4798, 486.1711
191.9619, 486.0062
192.4440, 485.4365
192.9261, 484.9109
193.4082, 485.1109
193.8904, 485.7850
194.3725, 486.1012
194.8546, 485.4532
195.3367, 484.3343
195.8188, 483.6396
196.3009, 483.3603
196.7831, 483.7296
197.2652, 485.6292
197.7473, 488.3869
198.2294, 490.1511
198.7115, 489.2669
199.1936, 486.4294
199.6758, 484.6745
200.1579, 484.5707
200.6400, 484.9361
201.1221, 485.2026
201.6042, 485.3797
202.0863, 485.5144
202.5685, 485.6346
203.0506, 485.7392
203.5327, 485.8052
204.0148, 485.5976
204.4969, 485.6143
204.9790, 486.2511
205.4612, 487.2831
205.9433, 488.1867
206.4254, 488.5223
206.9075, 488.2657
207.3896, 487.8946
207.8717, 486.7473
208.3539, 486.0958
208.8360, 486.4454
209.3181, 487.6786
209.8002, 489.4886
210.2823, 491.8331
210.7644, 494.9715
211.2466, 496.1504
211.7287, 493.5173
212.2108, 490.8574
212.6929, 489.6900
213.1750, 489.8934
213.6571, 490.5013
214.1393, 490.6496
214.6214, 490.2581
215.1035, 489.9539
215.5856, 489.9986
216.0677, 489.8877
216.5498, 489.1291
217.0320, 487.8771
217.5141, 486.7270
217.9962, 486.0719
218.4783, 485.8823
218.9604, 487.5512
219.4425, 493.7995
219.9247, 499.4984
220.4068, 501.0426
220.8889, 498.5778
221.3710, 495.0981
221.8531, 492.9909
222.3352, 492.4108
222.8174, 492.0770
223.2995, 492.0568
223.7816, 492.2247
224.2637, 492.6851
224.7458, 493.4007
225.2279, 493.7975
225.7100, 493.2118
226.1922, 491.7915
226.6743, 490.8482
227.1564, 490.5945
227.6385, 490.7692
228.1206, 491.3237
228.6027, 492.2720
229.0849, 493.0531
229.5670, 493.0163
230.0491, 492.4924
230.5312, 492.4102
231.0133, 493.4927
231.4954, 494.7681
231.9776, 494.8854
232.4597, 493.6407
232.9418, 492.6740
233.4239, 493.3755
233.9060, 494.9834
234.3881, 496.3935
234.8703, 497.2800
235.3524, 497.8928
235.8345, 498.5729
236.3166, 499.3508
236.7987, 500.0798
237.2808, 500.7632
237.7630, 501.3325
238.2451, 501.6442
238.7272, 501.5324
239.2093, 501.3202
239.6914, 501.5538
240.1735, 502.3548
240.6557, 503.2235
241.1378, 504.0055
241.6199, 504.7429
242.1020, 505.4542
242.5841, 506.1292
243.0662, 506.8296
243.5484, 507.6326
244.0305, 508.4890
244.5126, 509.6011
244.9947, 511.1850
245.4768, 512.9396
245.9589, 514.6556
246.4410, 516.2722
246.9232, 517.7462
247.4053, 518.9824
247.8874, 519.8275
248.3695, 520.7942
248.8516, 521.8420
249.3337, 523.0930
249.8159, 524.7252
250.2980, 526.7829
250.7801, 529.0141
251.2622, 531.0388
251.7443, 532.8348
252.2264, 534.4207
252.7086, 535.0527
253.1907, 535.9774
253.6728, 538.3090
254.1549, 542.2387
254.6370, 546.8615
255.1191, 550.6631
255.6013, 552.5349
256.0834, 556.0636
256.5655, 562.2591
257.0476, 569.1058
257.5297, 575.0938
258.0118, 580.0540
258.4940, 585.1384
258.9761, 591.9482
259.4582, 601.1321
259.9403, 610.5424
260.4224, 620.7535
260.9045, 630.7953
261.3867, 640.1222
261.8688, 648.6740
262.3509, 656.5701
262.8330, 664.0651
263.3151, 671.4090
263.7972, 677.2422
264.2794, 683.2731
264.7615, 686.7582
265.2436, 686.0377
265.7257, 681.1794
266.2078, 673.1166
266.6899, 662.3452
267.1721, 648.1937
267.6542, 635.8682
268.1363, 626.1208
268.6184, 617.0971
269.1005, 608.1046
269.5826, 599.0784
270.0648, 590.0805
270.5469, 580.9907
271.0290, 571.8041
271.5111, 564.6268
271.9932, 560.5682
272.4753, 556.9649
272.9575, 552.4926
273.4396, 547.5111
273.9217, 543.2753
274.4038, 540.7269
274.8859, 539.6983
275.3680, 538.1906
275.8501, 535.7432
276.3322, 533.4315
276.8144, 531.4464
277.2965, 529.8559
277.7786, 528.8974
278.2607, 528.8093
278.7428, 529.2892
279.2249, 528.9930
279.7071, 527.2955
280.1892, 525.7263
280.6713, 524.8400
281.1534, 524.3181
281.6355, 523.5917
282.1176, 522.4109
282.5998, 520.9130
283.0819, 519.4073
283.5640, 517.4996
284.0461, 516.2717
284.5282, 516.5941
285.0103, 517.5639
285.4925, 517.7413
285.9746, 516.5916
286.4567, 514.9182
286.9388, 514.0575
287.4209, 514.1240
287.9030, 514.5085
288.3852, 515.5662
288.8673, 516.7185
289.3494, 517.2177
289.8315, 516.8837
290.3136, 516.1083
290.7957, 515.1836
291.2779, 514.0193
291.7600, 513.5266
292.2421, 514.3240
292.7242, 515.5336
293.2063, 516.4752
293.6884, 517.0483
294.1706, 517.0374
294.6527, 515.9565
295.1348, 513.8142
295.6169, 512.5803
296.0990, 512.8891
296.5811, 513.7208
297.0633, 514.4560
297.5454, 515.0333
298.0275, 515.3445
298.5096, 515.2018
298.9917, 514.7077
299.4738, 514.5460
299.9560, 515.0969
300.4381, 515.6288
300.9202, 515.6003
301.4023, 515.1348
301.8844, 514.8302
302.3665, 515.0505
302.8487, 515.6086
303.3308, 515.9075
303.8129, 515.7372
304.2950, 515.6693
304.7771, 516.2195
305.2592, 517.0847
305.7414, 517.3476
306.2235, 516.4643
306.7056, 515.1902
307.1877, 515.2211
307.6698, 516.9951
308.1519, 518.1190
308.6341, 517.1918
309.1162, 515.2437
309.5983, 514.0385
310.0804, 514.0560
310.5625, 514.7557
311.0446, 515.5886
311.5268, 516.5694
312.0089, 517.4096
312.4910, 518.0405
312.9731, 518.5043
313.4552, 518.7661
313.9373, 518.8069
314.4195, 518.9465
314.9016, 519.6493
315.3837, 520.8390
315.8658, 521.4311
316.3479, 520.7389
316.8300, 519.8401
317.3121, 519.8201
317.7943, 520.6302
318.2764, 521.1115
318.7585, 520.2092
319.2406, 518.3819
319.7227, 517.7831
320.2048, 519.2308
320.6870, 521.0465
321.1691, 522.4852
321.6512, 523.5697
322.1333, 524.4156
322.6154, 525.1031
323.0975, 525.5349
323.5797, 525.3706
324.0618, 524.1976
324.5439, 523.4129
325.0260, 523.9450
325.5081, 525.1406
325.9902, 525.6655
326.4724, 525.0040
326.9545, 523.9288
327.4366, 523.7802
327.9187, 524.7857
328.4008, 525.2390
328.8829, 524.4265
329.3651, 523.0803
329.8472, 521.9880
330.3293, 521.2841
330.8114, 520.8181
331.2935, 520.4266
331.7756, 520.1188
332.2578, 520.1097
332.7399, 520.7672
333.2220, 521.4491
333.7041, 521.4987
334.1862, 521.0059
334.6683, 520.8130
335.1505, 521.6309
335.6326, 523.2606
336.1147, 524.1819
336.5968, 524.1602
337.0789, 523.7908
337.5610, 523.0237
338.0432, 522.0911
338.5253, 521.6553
339.0074, 522.1395
339.4895, 523.0357
339.9716, 522.8441
340.4537, 520.6123
340.9359, 519.1818
341.4180, 519.7082
341.9001, 521.1085
342.3822, 521.8731
342.8643, 521.5671
343.3464, 521.0641
343.8286, 521.6860
344.3107, 524.1883
344.7928, 525.5278
345.2749, 524.8134
345.7570, 523.5269
346.2391, 522.7185
346.7213, 522.5013
347.2034, 522.5169
347.6855, 522.4905
348.1676, 522.4248
348.6497, 522.1736
349.1318, 521.1642
349.6140, 520.5712
350.0961, 521.2673
350.5782, 522.7918
351.0603, 524.0306
351.5424, 524.2991
352.0245, 523.8559
352.5067, 523.8129
352.9888, 524.4225
353.4709, 525.1151
353.9530, 525.5652
354.4351, 526.1615
354.9172, 527.6965
355.3994, 530.3908
355.8815, 533.1688
356.3636, 534.1281
356.8457, 531.7991
357.3278, 530.5941
357.8099, 531.5919
358.2920, 532.7944
358.7741, 532.3339
359.2563, 530.3950
359.7384, 529.0041
360.2205, 530.3759
360.7026, 534.9792
361.1847, 537.7746
361.6668, 537.5691
362.1490, 536.9271
362.6311, 536.1241
363.1132, 535.5538
363.5953, 536.0278
364.0774, 538.1883
364.5595, 541.3110
365.0417, 542.2424
365.5238, 539.1066
366.0059, 536.2155
366.4880, 533.5002
366.9701, 531.5442
367.4522, 531.1743
367.9344, 532.5721
368.4165, 534.7488
368.8986, 536.3301
369.3807, 537.4877
369.8628, 537.4933
370.3449, 535.0439
370.8271, 532.5914
371.3092, 531.4883
371.7913, 531.6777
372.2734, 532.2033
372.7555, 532.1906
373.2376, 531.6708
373.7198, 531.6659
374.2019, 532.6415
374.6840, 533.5905
375.1661, 534.0894
375.6482, 534.3668
376.1303, 534.7566
376.6125, 535.4042
377.0946, 536.3006
377.5767, 537.4030
378.0588, 538.6539
378.5409, 540.2821
379.0230, 543.5658
379.5052, 546.5150
379.9873, 547.2196
380.4694, 545.3255
380.9515, 542.7260
381.4336, 541.0289
381.9157, 540.2280
382.3979, 540.4456
382.8800, 542.4084
383.3621, 544.5882
383.8442, 545.9053
384.3263, 546.5332
384.8084, 547.1725
385.2906, 548.2686
385.7727, 549.6131
386.2548, 550.7002
386.7369, 551.4416
387.2190, 552.2325
387.7011, 553.3792
388.1833, 554.7020
388.6654, 555.9286
389.1475, 556.8985
389.6296, 557.9666
390.1117, 559.3621
390.5938, 561.1030
391.0760, 563.3010
391.5581, 566.0792
392.0402, 569.2541
392.5223, 572.7724
393.0044, 576.7252
393.4865, 580.0609
393.9687, 581.6646
394.4508, 582.6173
394.9329, 584.6995
395.4150, 588.2454
395.8971, 592.2552
396.3792, 596.0500
396.8614, 599.5887
397.3435, 602.7496
397.8256, 605.6191
398.3077, 608.0556
398.7898, 609.9369
399.2719, 611.3005
399.7540, 612.3857
400.2361, 613.4277
400.7183, 614.0789
401.2004, 613.1883
401.6825, 610.2853
402.1646, 606.9611
402.6467, 603.2039
403.1288, 599.2940
403.6110, 595.5248
404.0931, 591.9891
404.5752, 588.6644
405.0573, 585.5038
405.5394, 582.4808
406.0215, 579.9576
406.5037, 578.8932
406.9858, 577.3735
407.4679, 573.9367
407.9500, 569.2296
408.4321, 564.9672
408.9142, 562.2084
409.3964, 560.6553
409.8785, 558.8612
410.3606, 556.0437
410.8427, 554.0416
411.3248, 553.4299
411.8069, 553.4436
412.2891, 553.3497
412.7712, 552.9589
413.2533, 552.5863
413.7354, 552.8057
414.2175, 553.9890
414.6996, 554.2566
415.1818, 552.5863
415.6639, 550.9294
416.1460, 549.8926
416.6281, 549.4805
417.1102, 549.5316
417.5923, 549.9408
418.0745, 550.7326
418.5566, 552.1445
419.0387, 554.6745
419.5208, 556.6908
420.0029, 557.7672
420.4850, 558.0989
420.9672, 557.6024
421.4493, 556.2322
421.9314, 554.7781
422.4135, 553.9966
422.8956, 553.8734
423.3777, 554.0923
423.8599, 554.7384
424.3420, 555.5562
424.8241, 556.3585
425.3062, 557.1577
425.7883, 558.0042
426.2704, 558.9932
426.7526, 560.0129
427.2347, 560.6924
427.7168, 560.9852
428.1989, 561.8610
428.6810, 564.0253
429.1631, 567.0481
429.6453, 569.7836
430.1274, 571.9659
430.6095, 574.4614
431.0916, 577.8010
431.5737, 581.7237
432.0558, 585.6230
432.5380, 589.2703
433.0201, 593.2934
433.5022, 598.5319
433.9843, 605.1646
434.4664, 611.7032
434.9485, 618.7350
435.4307, 625.1143
435.9128, 630.6008
436.3949, 634.8399
436.8770, 636.9500
437.3591, 636.4111
437.8412, 633.3867
438.3234, 628.4531
438.8055, 620.1888
439.2876, 611.7744
439.7697, 602.7655
440.2518, 594.0943
440.7339, 586.6229
441.2160, 580.5764
441.6982, 575.6751
442.1803, 571.6547
442.6624, 568.4935
443.1445, 566.3243
443.6266, 566.2188
444.1087, 566.0148
444.5909, 565.0726
445.0730, 563.5883
445.5551, 561.8177
446.0372, 559.8351
446.5193, 557.9902
447.0014, 557.1885
447.4836, 557.8459
447.9657, 558.3085
448.4478, 557.9485
448.9299, 557.5370
449.4120, 557.6602
449.8941, 558.2946
450.3763, 558.8595
450.8584, 558.6658
451.3405, 557.9846
451.8226, 558.1331
452.3047, 559.5261
452.7868, 560.7591
453.2690, 560.8846
453.7511, 560.3483
454.2332, 559.6682
454.7153, 558.8124
455.1974, 558.1061
455.6795, 557.7087
456.1617, 557.6592
456.6438, 558.2642
457.1259, 559.8624
457.6080, 561.6137
458.0901, 562.4225
458.5722, 562.3392
459.0544, 561.8511
459.5365, 560.4196
460.0186, 559.0709
460.5007, 558.8077
460.9828, 559.5440
461.4649, 560.5643
461.9471, 561.5357
462.4292, 562.3582
462.9113, 562.6078
463.3934, 561.8278
463.8755, 561.1172
464.3576, 560.5475
464.8398, 560.1250
465.3219, 559.8871
465.8040, 559.8225
466.2861, 559.8323
466.7682, 559.7785
467.2503, 559.6154
467.7325, 559.8068
468.2146, 560.5995
468.6967, 561.4872
469.1788, 562.5326
469.6609, 563.5336
470.1430, 564.1581
470.6252, 564.2487
471.1073, 564.0998
471.5894, 564.2054
472.0715, 564.5870
472.5536, 565.1451
473.0357, 566.2603
473.5179, 567.2084
474.0000, 567.6119
474.4821, 567.4827
474.9642, 566.9737
475.4463, 565.8275
475.9284, 564.4867
476.4106, 564.0061
476.8927, 564.5095
477.3748, 565.1063
477.8569, 565.4019
478.3390, 565.5372
478.8211, 565.7067
479.3033, 565.8776
479.7854, 566.2207
480.2675, 566.9939
480.7496, 567.9513
481.2317, 568.6504
481.7138, 569.0098
482.1959, 569.1714
482.6780, 569.2011
483.1602, 569.1077
483.6423, 569.2076
484.1244, 569.6584
484.6065, 570.1166
485.0886, 570.3764
485.5707, 570.5641
486.0529, 570.9879
486.5350, 571.7598
487.0171, 572.5427
487.4992, 572.7430
487.9813, 572.0450
488.4634, 571.6308
488.9456, 571.6425
489.4277, 571.7539
489.9098, 571.7269
490.3919, 571.6754
490.8740, 571.9698
491.3561, 572.9206
491.8383, 574.1117
492.3204, 574.1954
492.8025, 572.4749
493.2846, 571.5798
493.7667, 572.8325
494.2488, 574.5460
494.7310, 575.6232
495.2131, 576.0154
495.6952, 576.3606
496.1773, 577.2823
496.6594, 578.4708
497.1415, 579.0578
497.6237, 578.9690
498.1058, 578.4948
498.5879, 577.2162
499.0700, 575.8860
499.5521, 575.9275
500.0342, 577.7486
500.5164, 580.1104
500.9985, 583.1064
501.4806, 586.0558
501.9627, 587.5467
502.4448, 587.2708
502.9269, 586.5746
503.4091, 586.7828
503.8912, 587.9396
504.3733, 588.4240
504.8554, 587.2413
505.3375, 586.5734
505.8196, 587.5207
506.3018, 589.3845
506.7839, 590.9777
507.2660, 591.8951
507.7481, 592.8198
508.2302, 594.9452
508.7123, 598.8749
509.1945, 601.8228
509.6766, 602.5938
510.1587, 603.5671
510.6408, 605.9719
511.1229, 609.2060
511.6050, 612.0272
512.0872, 613.7886
512.5693, 614.9553
513.0514, 616.2666
513.5335, 617.7052
514.0156, 619.5400
514.4977, 622.6234
514.9799, 625.2972
515.4620, 626.2914
515.9441, 625.6974
516.4262, 624.2402
516.9083, 621.7386
517.3904, 618.8077
517.8726, 616.1208
518.3547, 613.6959
518.8368, 611.6034
519.3189, 609.9550
519.8010, 608.5635
520.2831, 607.1249
520.7653, 605.8636
521.2474, 603.9429
521.7295, 600.3773
522.2116, 596.6910
522.6937, 594.3724
523.1758, 593.3647
523.6580, 592.5302
524.1401, 590.9963
524.6222, 589.0521
525.1043, 588.2130
525.5864, 589.6577
526.0685, 590.5601
526.5507, 590.4873
527.0328, 589.9435
527.5149, 589.1057
527.9970, 588.1409
528.4791, 587.5072
528.9612, 587.8927
529.4434, 589.0066
529.9255, 588.8586
530.4076, 586.7214
530.8897, 585.0199
531.3718, 585.3024
531.8539, 586.3201
532.3361, 586.8353
532.8182, 586.6275
533.3003, 586.2009
533.7824, 585.6603
534.2645, 585.1804
534.7466, 585.2438
535.2288, 585.9515
535.7109, 586.6793
536.1930, 586.9744
536.6751, 586.8797
537.1572, 586.7284
537.6393, 586.4555
538.1215, 586.2080
538.6036, 586.0637
539.0857, 585.9482
539.5678, 585.8088
540.0499, 585.6160
540.5320, 585.2415
541.0142, 584.4377
541.4963, 583.1619
541.9784, 582.8793
542.4604, 584.5305
542.9426, 586.0994
543.4247, 587.3970
543.9068, 588.2980
544.3889, 588.5687
544.8710, 588.1774
545.3531, 587.5735
545.8353, 587.1292
546.3174, 586.8593
546.7995, 587.0275
547.2816, 587.8351
547.7637, 588.6796
548.2458, 589.3334
548.7280, 589.7432
549.2101, 589.6991
549.6922, 588.8672
550.1743, 588.2218
550.6564, 588.6449
551.1385, 589.6480
551.6207, 590.1803
552.1028, 590.0187
552.5849, 589.6299
553.0670, 589.4116
553.5491, 589.3668
554.0313, 589.4593
554.5134, 589.8339
554.9955, 590.1571
555.4776, 590.2013
555.9597, 590.2090
556.4418, 590.5527
556.9240, 591.2921
557.4061, 592.0597
557.8882, 592.3763
558.3703, 592.2111
558.8524, 592.3829
559.3345, 593.1715
559.8167, 593.8886
560.2988, 594.4213
560.7809, 594.7057
561.2630, 594.5359
561.7451, 593.8057
562.2272, 593.1936
562.7094, 593.4828
563.1915, 594.3783
563.6736, 594.8392
564.1557, 594.6745
564.6378, 594.4523
565.1199, 594.6243
565.6021, 595.0742
566.0842, 595.2578
566.5663, 594.8269
567.0484, 594.6354
567.5305, 595.1544
568.0126, 595.9935
568.4948, 596.8964
568.9769, 597.7043
569.4590, 597.8397
569.9411, 596.5535
570.4232, 593.9907
570.9053, 593.0345
571.3875, 595.4025
571.8696, 597.1028
572.3517, 597.1441
572.8338, 596.5179
573.3159, 595.9901
573.7980, 595.7549
574.2802, 595.8467
574.7623, 596.4289
575.2444, 597.3788
575.7265, 598.2070
576.2086, 598.9158
576.6907, 599.4885
577.1729, 599.8823
577.6550, 600.1402
578.1371, 600.3678
578.6192, 600.6022
579.1013, 600.6464
579.5834, 600.1318
580.0656, 599.5627
580.5477, 599.5253
581.0298, 600.0323
581.5119, 600.8235
581.9940, 601.7836
582.4761, 602.8104
582.9583, 603.5681
583.4404, 604.0925
583.9225, 604.2534
584.4046, 603.7536
584.8867, 603.1553
585.3688, 602.4335
585.8510, 601.9116
586.3331, 602.4736
586.8152, 604.9714
