##NAMES=Alstonite
##RRUFFID=R090049
##IDEAL CHEMISTRY=BaCa(CO_3_)_2_
##LOCALITY=Admiralty flats, Haggs mine, Nentsberry, Cumbria, England
##OWNER=RRUFF
##SOURCE=Bob Jenkins
##DESCRIPTION=Clusters of colorless pyramidal crystals. We have posted cell parameters that match those in the literature, but do not represent the correct cell. The crystals are twinned.
##STATUS=The identification of this mineral is confirmed by single-crystal X-ray diffraction and chemical analysis.
##URL=rruff.info/R090049
##MEASURED CHEMISTRY=Ba_0.99_(Ca_0.99_Sr_0.05_)_Î£=1.04_(CO_3_)_2_
89.78156, 0.0000000E+00
90.26367, 56.58999
90.74579, 56.13499
91.22791, 56.18064
91.71002, 56.70079
92.19214, 57.48613
92.67426, 58.68485
93.15638, 60.06035
93.63850, 60.94405
94.12061, 60.96662
94.60273, 60.39878
95.08485, 59.74196
95.56696, 58.96513
96.04908, 58.34924
96.53120, 58.22302
97.01331, 58.57988
97.49543, 59.25210
97.97755, 60.64212
98.45966, 62.63728
98.94178, 62.99158
99.42390, 61.06233
99.90602, 58.40548
100.3881, 58.29412
100.8703, 61.42426
101.3524, 64.64686
101.8345, 66.36623
102.3166, 66.27939
102.7987, 65.86623
103.2808, 65.03404
103.7630, 63.94736
104.2451, 63.41092
104.7272, 63.71395
105.2093, 64.17846
105.6914, 64.31419
106.1735, 63.68131
106.6557, 63.46839
107.1378, 63.80758
107.6199, 64.70735
108.1020, 66.01808
108.5841, 67.32472
109.0662, 69.27443
109.5484, 72.46034
110.0305, 77.45950
110.5126, 83.15386
110.9947, 89.29646
111.4768, 95.86092
111.9590, 103.2423
112.4411, 111.0720
112.9232, 119.8997
113.4053, 130.1969
113.8874, 141.7284
114.3695, 155.0806
114.8517, 170.1902
115.3338, 186.5818
115.8159, 205.8711
116.2980, 228.5667
116.7801, 254.7061
117.2622, 284.0598
117.7444, 315.2944
118.2265, 350.6854
118.7086, 391.3834
119.1907, 437.3593
119.6728, 489.8790
120.1549, 549.3517
120.6371, 615.8966
121.1192, 690.3232
121.6013, 773.5821
122.0834, 864.1169
122.5655, 960.1523
123.0476, 1064.616
123.5298, 1171.337
124.0119, 1276.144
124.4940, 1378.924
124.9761, 1478.508
125.4582, 1575.402
125.9404, 1667.768
126.4225, 1751.070
126.9046, 1820.123
127.3867, 1880.075
127.8688, 1937.370
128.3509, 1991.641
128.8331, 2046.828
129.3152, 2105.106
129.7973, 2167.427
130.2794, 2236.862
130.7615, 2313.180
131.2436, 2397.533
131.7258, 2493.676
132.2079, 2602.572
132.6900, 2720.846
133.1721, 2844.446
133.6542, 2972.864
134.1364, 3105.962
134.6185, 3245.522
135.1006, 3392.003
135.5827, 3539.939
136.0648, 3689.897
136.5469, 3841.505
137.0291, 3995.848
137.5112, 4153.440
137.9933, 4307.509
138.4754, 4457.474
138.9575, 4603.376
139.4396, 4737.535
139.9218, 4859.690
140.4039, 4968.789
140.8860, 5056.865
141.3681, 5122.266
141.8502, 5168.283
142.3323, 5194.796
142.8145, 5198.420
143.2966, 5192.054
143.7787, 5175.308
144.2608, 5148.218
144.7429, 5122.471
145.2250, 5097.878
145.7072, 5074.496
146.1893, 5052.483
146.6714, 5033.584
147.1535, 5013.636
147.6356, 4993.963
148.1178, 4976.359
148.5999, 4948.031
149.0820, 4916.310
149.5641, 4870.767
150.0462, 4799.186
150.5283, 4684.984
151.0105, 4562.243
151.4926, 4397.404
151.9747, 4225.894
152.4568, 4063.847
152.9389, 3910.167
153.4210, 3767.334
153.9032, 3636.338
154.3853, 3516.326
154.8674, 3410.794
155.3495, 3321.514
155.8316, 3249.008
156.3137, 3187.786
156.7959, 3137.837
157.2780, 3097.960
157.7601, 3066.271
158.2422, 3043.488
158.7243, 3027.157
159.2065, 3015.733
159.6886, 3008.668
160.1707, 3006.624
160.6528, 3010.436
161.1349, 3019.323
161.6170, 3031.382
162.0992, 3047.663
162.5813, 3065.739
163.0634, 3084.019
163.5455, 3101.935
164.0276, 3120.253
164.5097, 3140.584
164.9919, 3162.050
165.4740, 3181.181
165.9561, 3194.907
166.4382, 3206.190
166.9203, 3217.878
167.4024, 3231.347
167.8846, 3244.884
168.3667, 3257.532
168.8488, 3269.402
169.3309, 3281.118
169.8130, 3298.865
170.2952, 3315.112
170.7773, 3320.440
171.2594, 3312.505
171.7415, 3292.122
172.2236, 3259.531
172.7057, 3214.843
173.1879, 3159.105
173.6700, 3087.969
174.1521, 3006.773
174.6342, 2924.456
175.1163, 2840.522
175.5984, 2758.017
176.0806, 2680.101
176.5627, 2606.299
177.0448, 2540.165
177.5269, 2486.527
178.0090, 2443.319
178.4911, 2404.174
178.9733, 2366.659
179.4554, 2331.986
179.9375, 2301.780
180.4196, 2276.418
180.9017, 2254.544
181.3838, 2236.717
181.8660, 2221.969
182.3481, 2206.103
182.8302, 2186.938
183.3123, 2165.505
183.7944, 2143.906
184.2766, 2121.912
184.7587, 2100.430
185.2408, 2080.438
185.7229, 2061.899
186.2050, 2043.367
186.6871, 2022.445
187.1693, 2000.574
187.6514, 1984.751
188.1335, 1975.555
188.6156, 1970.317
189.0977, 1965.538
189.5798, 1961.226
190.0620, 1957.614
190.5441, 1954.697
191.0262, 1952.477
191.5083, 1951.223
191.9904, 1951.055
192.4725, 1951.473
192.9547, 1952.377
193.4368, 1953.855
193.9189, 1953.496
194.4010, 1949.972
194.8831, 1943.376
195.3652, 1935.259
195.8474, 1926.432
196.3295, 1915.069
196.8116, 1896.880
197.2937, 1871.572
197.7758, 1843.268
198.2579, 1814.020
198.7401, 1783.805
199.2222, 1752.925
199.7043, 1721.119
200.1864, 1689.492
200.6685, 1660.238
201.1507, 1633.532
201.6328, 1609.039
202.1149, 1586.084
202.5970, 1564.400
203.0791, 1546.928
203.5612, 1534.539
204.0434, 1526.189
204.5255, 1519.448
205.0076, 1514.389
205.4897, 1510.713
205.9718, 1508.210
206.4539, 1506.837
206.9361, 1507.067
207.4182, 1509.354
207.9003, 1513.095
208.3824, 1516.612
208.8645, 1520.129
209.3466, 1522.891
209.8288, 1524.837
210.3109, 1526.428
210.7930, 1525.181
211.2751, 1520.603
211.7572, 1513.125
212.2393, 1503.956
212.7215, 1492.981
213.2036, 1480.773
213.6857, 1467.609
214.1678, 1453.274
214.6499, 1438.535
215.1320, 1423.459
215.6142, 1407.870
216.0963, 1391.058
216.5784, 1372.128
217.0605, 1353.782
217.5426, 1337.796
218.0247, 1324.818
218.5069, 1312.760
218.9890, 1301.529
219.4711, 1291.096
219.9532, 1281.004
220.4353, 1270.721
220.9175, 1261.519
221.3996, 1254.305
221.8817, 1250.023
222.3638, 1245.336
222.8459, 1239.389
223.3280, 1232.719
223.8102, 1228.569
224.2923, 1227.637
224.7744, 1228.001
225.2565, 1228.350
225.7386, 1227.993
226.2207, 1229.270
226.7029, 1232.641
227.1850, 1237.842
227.6671, 1243.363
228.1492, 1249.040
228.6313, 1255.258
229.1134, 1262.323
229.5956, 1270.822
230.0777, 1278.916
230.5598, 1285.965
231.0419, 1292.472
231.5240, 1301.118
232.0062, 1312.666
232.4883, 1325.339
232.9704, 1338.269
233.4525, 1351.945
233.9346, 1364.722
234.4167, 1376.005
234.8989, 1386.189
235.3810, 1396.985
235.8631, 1408.212
236.3452, 1420.457
236.8273, 1434.325
237.3094, 1450.614
237.7916, 1466.691
238.2737, 1482.620
238.7558, 1498.277
239.2379, 1513.340
239.7200, 1527.053
240.2021, 1541.179
240.6843, 1557.057
241.1664, 1576.278
241.6485, 1593.774
242.1306, 1609.123
242.6127, 1622.673
243.0948, 1635.119
243.5770, 1646.357
244.0591, 1656.753
244.5412, 1666.850
245.0233, 1678.878
245.5054, 1685.895
245.9876, 1687.166
246.4697, 1683.390
246.9518, 1676.792
247.4339, 1667.978
247.9160, 1655.395
248.3981, 1638.259
248.8803, 1615.485
249.3624, 1590.379
249.8445, 1562.343
250.3266, 1532.144
250.8087, 1501.785
251.2908, 1471.775
251.7730, 1441.129
252.2551, 1409.399
252.7372, 1374.936
253.2193, 1343.016
253.7014, 1314.426
254.1835, 1288.269
254.6657, 1262.630
255.1478, 1236.510
255.6299, 1212.617
256.1120, 1192.021
256.5941, 1175.678
257.0763, 1159.993
257.5584, 1144.371
258.0405, 1129.627
258.5226, 1117.773
259.0047, 1109.573
259.4868, 1102.489
259.9690, 1095.526
260.4511, 1088.375
260.9332, 1082.872
261.4153, 1079.411
261.8974, 1077.181
262.3795, 1074.735
262.8617, 1071.555
263.3438, 1069.379
263.8259, 1069.204
264.3080, 1071.514
264.7901, 1072.076
265.2722, 1069.990
265.7544, 1067.211
266.2365, 1066.865
266.7186, 1069.857
267.2007, 1072.457
267.6828, 1073.097
268.1649, 1071.582
268.6471, 1072.049
269.1292, 1075.112
269.6113, 1079.210
270.0934, 1082.308
270.5755, 1084.074
271.0576, 1086.254
271.5398, 1089.389
272.0219, 1093.480
272.5040, 1097.699
272.9861, 1102.185
273.4682, 1106.400
273.9503, 1109.436
274.4325, 1110.880
274.9146, 1113.431
275.3967, 1118.122
275.8788, 1124.615
276.3610, 1129.909
276.8431, 1133.826
277.3252, 1136.941
277.8073, 1139.702
278.2894, 1142.115
278.7715, 1144.103
279.2537, 1145.359
279.7358, 1146.278
280.2179, 1149.035
280.7000, 1154.177
281.1821, 1158.774
281.6642, 1160.025
282.1464, 1157.912
282.6285, 1156.204
283.1106, 1155.480
283.5927, 1155.562
284.0748, 1155.994
284.5569, 1156.761
285.0391, 1157.928
285.5212, 1159.962
286.0033, 1162.706
286.4854, 1164.526
286.9675, 1165.293
287.4496, 1164.891
287.9318, 1162.401
288.4139, 1157.759
288.8960, 1153.711
289.3781, 1152.465
289.8602, 1153.390
290.3423, 1153.221
290.8245, 1151.546
291.3066, 1149.086
291.7887, 1147.392
292.2708, 1146.279
292.7529, 1143.943
293.2350, 1137.960
293.7172, 1129.891
294.1993, 1125.050
294.6814, 1124.016
295.1635, 1124.472
295.6456, 1123.883
296.1277, 1122.382
296.6099, 1120.533
297.0920, 1118.158
297.5741, 1115.716
298.0562, 1114.356
298.5383, 1114.169
299.0204, 1114.170
299.5026, 1113.845
299.9847, 1112.997
300.4668, 1111.024
300.9489, 1106.198
301.4311, 1100.925
301.9132, 1099.140
302.3953, 1100.719
302.8774, 1102.866
303.3595, 1103.771
303.8416, 1103.654
304.3238, 1102.828
304.8059, 1100.735
305.2880, 1098.648
305.7701, 1097.879
306.2522, 1098.323
306.7343, 1099.398
307.2165, 1100.893
307.6986, 1102.736
308.1807, 1104.888
308.6628, 1107.576
309.1449, 1110.208
309.6270, 1112.544
310.1092, 1114.523
310.5913, 1115.891
311.0734, 1115.738
311.5555, 1115.313
312.0376, 1115.958
312.5197, 1118.531
313.0019, 1120.474
313.4840, 1119.965
313.9661, 1117.815
314.4482, 1115.689
314.9303, 1114.324
315.4124, 1113.199
315.8946, 1112.157
316.3767, 1111.291
316.8588, 1109.956
317.3409, 1107.762
317.8230, 1104.986
318.3051, 1102.004
318.7873, 1098.776
319.2694, 1095.474
319.7515, 1092.214
320.2336, 1089.021
320.7157, 1085.580
321.1978, 1081.545
321.6800, 1077.365
322.1621, 1073.460
322.6442, 1070.303
323.1263, 1067.010
323.6084, 1062.984
324.0905, 1058.327
324.5727, 1054.674
325.0548, 1053.099
325.5369, 1052.104
326.0190, 1050.796
326.5012, 1049.306
326.9833, 1047.279
327.4654, 1044.269
327.9475, 1040.600
328.4296, 1037.594
328.9117, 1035.516
329.3939, 1033.871
329.8760, 1032.501
330.3581, 1031.842
330.8402, 1030.597
331.3223, 1028.380
331.8044, 1025.649
332.2866, 1023.357
332.7687, 1021.837
333.2508, 1020.235
333.7329, 1018.052
334.2150, 1014.890
334.6971, 1013.207
335.1793, 1014.116
335.6614, 1015.415
336.1435, 1013.885
336.6256, 1008.112
337.1077, 1003.206
337.5898, 1000.179
338.0720, 999.0362
338.5541, 1001.415
339.0362, 1009.118
339.5183, 1016.451
340.0004, 1017.437
340.4825, 1011.112
340.9647, 1005.327
341.4468, 1001.184
341.9289, 998.6133
342.4110, 997.9122
342.8931, 999.4120
343.3752, 1000.574
343.8574, 998.8429
344.3395, 994.4801
344.8216, 992.2448
345.3037, 992.9401
345.7858, 995.2175
346.2679, 997.0735
346.7501, 998.5078
347.2322, 999.4379
347.7143, 1000.052
348.1964, 1000.142
348.6785, 998.7047
349.1607, 995.4495
349.6428, 992.0804
350.1249, 990.4758
350.6070, 990.3167
351.0891, 990.5804
351.5713, 991.0607
352.0534, 991.6357
352.5355, 992.2384
353.0176, 992.8558
353.4997, 993.2097
353.9818, 992.7851
354.4640, 992.0266
354.9461, 991.6454
355.4282, 992.1137
355.9103, 992.7008
356.3924, 992.7096
356.8745, 992.2675
357.3567, 991.8702
357.8388, 991.8347
358.3209, 991.9480
358.8030, 992.0743
359.2851, 992.2745
359.7672, 992.2521
360.2494, 991.4230
360.7315, 990.2919
361.2136, 989.7984
361.6957, 990.4182
362.1778, 991.6459
362.6599, 993.8057
363.1421, 997.2264
363.6242, 998.9431
364.1063, 996.3535
364.5884, 992.2965
365.0705, 989.6970
365.5526, 990.0101
366.0348, 990.9109
366.5169, 992.0924
366.9990, 993.5126
367.4811, 994.7885
367.9632, 995.5855
368.4453, 996.4296
368.9275, 997.6402
369.4096, 1000.398
369.8917, 1001.879
370.3738, 1001.367
370.8559, 999.5684
371.3380, 998.4234
371.8202, 997.9284
372.3023, 998.0977
372.7844, 999.2667
373.2665, 1002.096
373.7487, 1003.097
374.2308, 1001.484
374.7129, 998.8406
375.1950, 997.2971
375.6771, 997.1429
376.1592, 997.1686
376.6414, 996.9761
377.1235, 996.6505
377.6056, 997.1549
378.0877, 998.7359
378.5698, 1000.377
379.0519, 1001.090
379.5341, 1000.867
380.0162, 1000.908
380.4983, 1001.599
380.9804, 1002.442
381.4625, 1001.972
381.9446, 1000.216
382.4268, 998.7946
382.9089, 999.0753
383.3910, 1000.505
383.8731, 1001.258
384.3552, 1001.119
384.8373, 1000.619
385.3195, 1000.043
385.8016, 999.5569
386.2837, 999.6572
386.7658, 1001.122
387.2479, 1003.018
387.7300, 1004.152
388.2122, 1004.538
388.6943, 1004.706
389.1764, 1005.143
389.6585, 1005.560
390.1406, 1005.518
390.6227, 1004.435
391.1049, 1003.523
391.5870, 1003.618
392.0691, 1004.541
392.5512, 1005.753
393.0333, 1007.545
393.5154, 1009.175
393.9976, 1010.112
394.4797, 1010.129
394.9618, 1009.993
395.4439, 1009.478
395.9260, 1009.084
396.4081, 1009.476
396.8903, 1011.990
397.3724, 1014.135
397.8545, 1015.112
398.3366, 1014.865
398.8188, 1014.611
399.3009, 1014.510
399.7830, 1014.373
400.2651, 1014.050
400.7472, 1012.903
401.2293, 1012.543
401.7115, 1013.365
402.1936, 1014.986
402.6757, 1016.242
403.1578, 1016.907
403.6399, 1017.591
404.1220, 1018.667
404.6042, 1020.331
405.0863, 1021.183
405.5684, 1021.017
406.0505, 1020.349
406.5326, 1019.635
407.0147, 1018.781
407.4969, 1018.737
407.9790, 1020.228
408.4611, 1022.629
408.9432, 1023.006
409.4253, 1021.163
409.9074, 1019.393
410.3896, 1019.668
410.8717, 1021.604
411.3538, 1023.544
411.8359, 1025.275
412.3180, 1026.803
412.8001, 1028.386
413.2823, 1029.828
413.7644, 1030.460
414.2465, 1029.187
414.7286, 1027.211
415.2107, 1026.129
415.6928, 1026.035
416.1750, 1026.258
416.6571, 1026.274
417.1392, 1026.301
417.6213, 1026.660
418.1034, 1028.041
418.5855, 1029.154
419.0677, 1029.056
419.5498, 1028.008
420.0319, 1026.975
420.5140, 1025.619
420.9961, 1024.912
421.4782, 1025.760
421.9604, 1029.245
422.4425, 1031.672
422.9246, 1031.312
423.4067, 1029.684
423.8889, 1028.862
424.3710, 1030.033
424.8531, 1031.050
425.3352, 1031.266
425.8173, 1030.673
426.2994, 1030.704
426.7816, 1031.758
427.2637, 1033.030
427.7458, 1034.048
428.2279, 1034.911
428.7100, 1035.239
429.1921, 1034.773
429.6743, 1033.909
430.1564, 1033.762
430.6385, 1034.644
431.1206, 1035.013
431.6027, 1033.708
432.0848, 1030.863
432.5670, 1030.377
433.0491, 1032.769
433.5312, 1035.396
434.0133, 1034.901
434.4954, 1031.818
434.9775, 1029.796
435.4597, 1030.004
435.9418, 1031.405
436.4239, 1032.090
436.9060, 1032.222
437.3881, 1032.870
437.8702, 1035.490
438.3524, 1038.756
438.8345, 1040.579
439.3166, 1040.560
439.7987, 1040.258
440.2808, 1040.885
440.7629, 1042.037
441.2451, 1043.077
441.7272, 1043.724
442.2093, 1044.211
442.6914, 1044.903
443.1735, 1045.671
443.6556, 1045.671
444.1378, 1043.498
444.6199, 1041.216
445.1020, 1040.174
445.5841, 1041.070
446.0662, 1042.251
446.5483, 1043.992
447.0305, 1045.811
447.5126, 1046.873
447.9947, 1046.111
448.4768, 1045.907
448.9590, 1047.335
449.4411, 1050.457
449.9232, 1051.144
450.4053, 1047.737
450.8874, 1044.264
451.3695, 1044.046
451.8517, 1048.009
452.3338, 1051.113
452.8159, 1052.945
453.2980, 1053.597
453.7801, 1052.707
454.2622, 1050.120
454.7444, 1048.329
455.2265, 1048.726
455.7086, 1050.887
456.1907, 1053.453
456.6728, 1056.564
457.1549, 1058.699
457.6371, 1057.686
458.1192, 1054.680
458.6013, 1052.454
459.0834, 1051.804
459.5655, 1051.979
460.0476, 1052.359
460.5298, 1052.940
461.0119, 1053.683
461.4940, 1055.097
461.9761, 1056.322
462.4582, 1056.549
462.9403, 1055.655
463.4225, 1054.682
463.9046, 1053.913
464.3867, 1053.383
464.8688, 1053.142
465.3509, 1053.730
465.8330, 1054.022
466.3152, 1053.556
466.7973, 1052.573
467.2794, 1051.938
467.7615, 1051.415
468.2436, 1051.540
468.7257, 1052.756
469.2079, 1055.513
469.6900, 1057.104
470.1721, 1056.742
470.6542, 1056.050
471.1363, 1057.020
471.6184, 1060.349
472.1006, 1062.537
472.5827, 1062.818
473.0648, 1061.664
473.5469, 1060.210
474.0291, 1058.391
474.5112, 1057.084
474.9933, 1056.947
475.4754, 1057.781
475.9575, 1058.811
476.4396, 1060.041
476.9218, 1061.247
477.4039, 1062.523
477.8860, 1063.582
478.3681, 1063.622
478.8502, 1061.527
479.3323, 1059.353
479.8145, 1059.037
480.2966, 1060.346
480.7787, 1062.408
481.2608, 1065.755
481.7429, 1069.004
482.2250, 1071.277
482.7072, 1072.471
483.1893, 1072.677
483.6714, 1071.188
484.1535, 1069.053
484.6356, 1067.339
485.1177, 1066.163
485.5999, 1065.488
486.0820, 1065.317
486.5641, 1065.662
487.0462, 1066.668
487.5283, 1069.065
488.0104, 1071.172
488.4926, 1072.177
488.9747, 1071.786
489.4568, 1072.396
489.9389, 1074.579
490.4210, 1076.735
490.9031, 1076.670
491.3853, 1074.203
491.8674, 1072.533
492.3495, 1072.472
492.8316, 1073.369
493.3137, 1073.829
493.7958, 1073.890
494.2780, 1074.064
494.7601, 1074.423
495.2422, 1075.147
495.7243, 1076.879
496.2064, 1079.714
496.6885, 1082.266
497.1707, 1083.352
497.6528, 1083.537
498.1349, 1083.623
498.6170, 1084.091
499.0992, 1084.140
499.5813, 1082.726
500.0634, 1080.536
500.5455, 1079.248
501.0276, 1079.848
501.5097, 1081.065
501.9919, 1082.766
502.4740, 1085.165
502.9561, 1086.320
503.4382, 1084.674
503.9203, 1082.766
504.4024, 1082.400
504.8846, 1084.600
505.3667, 1086.258
505.8488, 1087.159
506.3309, 1087.441
506.8130, 1087.143
507.2951, 1085.973
507.7773, 1085.623
508.2594, 1087.454
508.7415, 1090.743
509.2236, 1090.824
509.7057, 1087.462
510.1878, 1083.939
510.6700, 1083.036
511.1521, 1084.132
511.6342, 1085.486
512.1163, 1086.916
512.5984, 1088.193
513.0806, 1088.793
513.5627, 1089.064
514.0448, 1089.740
514.5269, 1092.339
515.0090, 1094.457
515.4911, 1093.948
515.9733, 1091.189
516.4554, 1088.854
516.9375, 1087.930
517.4196, 1087.744
517.9017, 1087.956
518.3839, 1088.656
518.8660, 1089.411
519.3481, 1090.563
519.8302, 1091.562
520.3123, 1091.783
520.7944, 1090.938
521.2766, 1089.790
521.7587, 1087.983
522.2408, 1086.043
522.7229, 1086.147
523.2050, 1088.716
523.6871, 1091.844
524.1693, 1095.222
524.6514, 1098.641
525.1335, 1099.286
525.6156, 1096.746
526.0977, 1094.182
526.5798, 1095.653
527.0620, 1099.758
527.5441, 1102.182
528.0262, 1101.416
528.5083, 1099.615
528.9904, 1098.656
529.4725, 1098.427
529.9547, 1098.687
530.4368, 1099.516
530.9189, 1100.611
531.4010, 1102.272
531.8831, 1104.447
532.3652, 1105.146
532.8474, 1101.595
533.3295, 1097.842
533.8116, 1096.538
534.2937, 1100.095
534.7758, 1102.530
535.2579, 1102.938
535.7401, 1102.552
536.2222, 1103.209
536.7043, 1105.572
537.1864, 1107.536
537.6685, 1108.763
538.1506, 1109.271
538.6328, 1108.782
539.1149, 1107.119
539.5970, 1105.628
540.0791, 1105.036
540.5612, 1105.292
541.0433, 1106.344
541.5255, 1108.232
542.0076, 1110.418
542.4897, 1112.881
542.9718, 1115.193
543.4539, 1116.443
543.9360, 1115.911
544.4182, 1115.012
544.9003, 1114.725
545.3824, 1114.892
545.8645, 1115.172
546.3466, 1116.048
546.8287, 1116.431
547.3109, 1115.241
547.7930, 1112.417
548.2751, 1110.971
548.7572, 1112.175
549.2393, 1114.261
549.7214, 1116.390
550.2036, 1118.978
550.6857, 1120.644
551.1678, 1121.053
551.6499, 1120.911
552.1320, 1121.284
552.6141, 1122.336
553.0963, 1122.877
553.5784, 1122.453
554.0605, 1121.513
554.5426, 1121.083
555.0247, 1121.170
555.5068, 1121.836
555.9890, 1124.145
556.4711, 1126.725
556.9532, 1126.526
557.4353, 1123.441
557.9174, 1120.600
558.3995, 1120.302
558.8817, 1121.536
559.3638, 1123.509
559.8459, 1127.095
560.3281, 1129.159
560.8102, 1126.820
561.2923, 1122.504
561.7744, 1120.030
562.2565, 1122.169
562.7386, 1123.937
563.2208, 1123.884
563.7029, 1122.400
564.1850, 1122.336
564.6671, 1124.516
565.1492, 1126.672
565.6313, 1127.612
566.1135, 1127.221
566.5956, 1127.091
567.0777, 1127.253
567.5598, 1127.566
568.0419, 1127.971
568.5240, 1128.418
569.0062, 1128.729
569.4883, 1128.899
569.9704, 1128.821
570.4525, 1127.868
570.9346, 1126.519
571.4167, 1126.048
571.8989, 1127.654
572.3810, 1129.816
572.8631, 1131.973
573.3452, 1133.948
573.8273, 1134.869
574.3094, 1133.058
574.7916, 1131.153
575.2737, 1130.612
575.7558, 1131.953
576.2379, 1133.512
576.7200, 1136.049
577.2021, 1138.109
577.6843, 1137.960
578.1664, 1134.044
578.6485, 1132.854
579.1306, 1136.097
579.6127, 1141.203
580.0948, 1142.818
580.5770, 1140.932
581.0591, 1138.860
581.5412, 1137.635
582.0233, 1137.245
