##NAMES=Alstonite
##RRUFFID=R050483
##IDEAL CHEMISTRY=BaCa(CO_3_)_2_
##LOCALITY=Minerva #1 mine, Cave-in-Rock, Hardin County, Illinois, USA
##OWNER=RRUFF
##SOURCE=California Institute of Technology
##DESCRIPTION=Aggregate of colorless pyramidal crystals
##STATUS=The identification of this mineral has been confirmed by X-ray diffraction and chemical analysis
##URL=rruff.info/R050483
##MEASURED CHEMISTRY=Ba_1.00_(Ca_0.84_Sr_0.16_)_Î£=1_(CO_3_)_2_
90.52570, 0.0000000E+00
91.00781, 151.1620
91.48993, 149.8596
91.97205, 149.3434
92.45416, 149.9512
92.93628, 151.3264
93.41840, 152.6600
93.90051, 153.7331
94.38263, 154.8632
94.86475, 156.4161
95.34686, 158.3950
95.82898, 161.1160
96.31110, 164.8852
96.79321, 169.6695
97.27533, 174.9770
97.75745, 180.3698
98.23956, 186.1712
98.72168, 193.5498
99.20380, 202.4256
99.68591, 212.8864
100.1680, 224.7969
100.6501, 237.8082
101.1323, 253.4473
101.6144, 271.8620
102.0965, 292.9783
102.5786, 317.6207
103.0607, 345.9257
103.5428, 377.8022
104.0250, 413.5227
104.5071, 451.6320
104.9892, 495.5096
105.4713, 545.4495
105.9534, 598.6599
106.4355, 663.5947
106.9177, 740.0276
107.3998, 828.0378
107.8819, 931.1257
108.3640, 1055.243
108.8461, 1188.446
109.3282, 1327.198
109.8104, 1472.522
110.2925, 1619.002
110.7746, 1767.487
111.2567, 1916.639
111.7388, 2062.238
112.2209, 2206.415
112.7031, 2343.817
113.1852, 2472.352
113.6673, 2584.358
114.1494, 2692.899
114.6315, 2799.638
115.1136, 2905.457
115.5958, 3015.582
116.0779, 3127.614
116.5600, 3246.140
117.0421, 3375.729
117.5242, 3521.517
118.0063, 3677.583
118.4885, 3843.696
118.9706, 4020.663
119.4527, 4202.656
119.9348, 4387.737
120.4169, 4574.787
120.8990, 4764.854
121.3812, 4958.234
121.8633, 5153.890
122.3454, 5348.876
122.8275, 5544.558
123.3096, 5738.546
123.7917, 5930.240
124.2739, 6118.981
124.7560, 6302.356
125.2381, 6479.546
125.7202, 6650.956
126.2023, 6814.616
126.6844, 6971.260
127.1666, 7120.740
127.6487, 7260.389
128.1308, 7391.242
128.6129, 7519.481
129.0950, 7651.264
129.5771, 7785.867
130.0593, 7921.143
130.5414, 8054.299
131.0235, 8187.361
131.5056, 8314.396
131.9877, 8403.086
132.4698, 8459.405
132.9520, 8532.546
133.4341, 8622.044
133.9162, 8722.189
134.3983, 8830.540
134.8804, 8946.819
135.3625, 9073.066
135.8447, 9209.593
136.3268, 9356.284
136.8089, 9517.098
137.2910, 9694.339
137.7731, 9875.917
138.2552, 10061.60
138.7374, 10251.92
139.2195, 10435.68
139.7016, 10616.32
140.1837, 10789.79
140.6658, 10946.63
141.1479, 11091.71
141.6301, 11212.85
142.1122, 11306.17
142.5943, 11372.50
143.0764, 11409.04
143.5585, 11410.92
144.0406, 11384.28
144.5228, 11349.52
145.0049, 11305.14
145.4870, 11254.99
145.9691, 11202.14
146.4512, 11149.19
146.9333, 11088.28
147.4155, 11014.58
147.8976, 10929.61
148.3797, 10853.92
148.8618, 10796.12
149.3439, 10740.66
149.8260, 10677.62
150.3082, 10594.71
150.7903, 10517.07
151.2724, 10446.30
151.7545, 10382.67
152.2366, 10320.75
152.7188, 10256.59
153.2009, 10195.29
153.6830, 10141.64
154.1651, 10096.95
154.6472, 10058.33
155.1293, 10025.96
155.6115, 9999.646
156.0936, 9978.411
156.5757, 9963.567
157.0578, 9953.205
157.5399, 9945.510
158.0220, 9942.538
158.5042, 9940.392
158.9863, 9935.536
159.4684, 9925.357
159.9505, 9924.866
160.4326, 9948.971
160.9147, 9984.161
161.3969, 10010.25
161.8790, 10007.00
162.3611, 10002.58
162.8432, 10013.83
163.3253, 10047.66
163.8074, 10081.89
164.2896, 10103.29
164.7717, 10117.68
165.2538, 10136.81
165.7359, 10172.92
166.2180, 10211.44
166.7001, 10240.91
167.1823, 10256.35
167.6644, 10268.01
168.1465, 10278.26
168.6286, 10288.93
169.1107, 10305.32
169.5928, 10340.47
170.0750, 10378.60
170.5571, 10403.02
171.0392, 10405.17
171.5213, 10400.57
172.0034, 10403.39
172.4855, 10411.43
172.9677, 10414.58
173.4498, 10405.40
173.9319, 10387.78
174.4140, 10366.49
174.8961, 10339.62
175.3782, 10313.27
175.8604, 10293.85
176.3425, 10280.79
176.8246, 10270.31
177.3067, 10261.02
177.7888, 10252.00
178.2709, 10241.51
178.7531, 10228.48
179.2352, 10213.98
179.7173, 10198.25
180.1994, 10181.33
180.6815, 10166.59
181.1636, 10157.71
181.6458, 10153.54
182.1279, 10151.25
182.6100, 10152.07
183.0921, 10153.25
183.5742, 10147.33
184.0563, 10134.05
184.5385, 10120.87
185.0206, 10117.68
185.5027, 10122.09
185.9848, 10123.03
186.4669, 10115.73
186.9490, 10102.10
187.4312, 10085.25
187.9133, 10064.45
188.3954, 10046.76
188.8775, 10045.01
189.3596, 10057.20
189.8417, 10064.10
190.3239, 10054.17
190.8060, 10031.74
191.2881, 10019.30
191.7702, 10018.01
192.2523, 10022.87
192.7344, 10029.46
193.2166, 10037.84
193.6987, 10044.53
194.1808, 10047.73
194.6629, 10047.76
195.1450, 10047.31
195.6271, 10045.51
196.1093, 10045.50
196.5914, 10053.68
197.0735, 10070.77
197.5556, 10086.39
198.0377, 10096.25
198.5198, 10100.38
199.0020, 10100.85
199.4841, 10096.53
199.9662, 10090.29
200.4483, 10085.83
200.9304, 10082.75
201.4125, 10083.43
201.8947, 10090.73
202.3768, 10105.48
202.8589, 10116.08
203.3410, 10122.19
203.8231, 10124.62
204.3052, 10123.52
204.7874, 10117.59
205.2695, 10113.89
205.7516, 10115.59
206.2337, 10123.06
206.7158, 10134.38
207.1979, 10151.44
207.6801, 10170.57
208.1622, 10183.48
208.6443, 10188.75
209.1264, 10192.56
209.6085, 10198.13
210.0906, 10206.47
210.5728, 10211.54
211.0549, 10211.67
211.5370, 10209.63
212.0191, 10212.42
212.5012, 10222.56
212.9833, 10231.62
213.4655, 10234.94
213.9476, 10230.57
214.4297, 10228.25
214.9118, 10228.74
215.3939, 10231.20
215.8760, 10233.04
216.3581, 10232.67
216.8403, 10234.82
217.3224, 10242.87
217.8045, 10260.42
218.2866, 10272.12
218.7687, 10275.18
219.2508, 10272.83
219.7330, 10274.15
220.2151, 10280.97
220.6972, 10287.50
221.1793, 10290.05
221.6614, 10285.28
222.1435, 10285.50
222.6257, 10293.95
223.1078, 10306.48
223.5899, 10311.10
224.0720, 10303.06
224.5541, 10294.88
225.0362, 10292.59
225.5184, 10299.14
226.0005, 10304.85
226.4826, 10309.35
226.9647, 10313.28
227.4468, 10318.80
227.9289, 10328.44
228.4111, 10336.24
228.8932, 10338.57
229.3753, 10330.58
229.8574, 10329.50
230.3395, 10338.80
230.8216, 10354.48
231.3038, 10365.17
231.7859, 10366.53
232.2680, 10369.06
232.7501, 10377.79
233.2322, 10395.82
233.7143, 10412.66
234.1965, 10427.48
234.6786, 10441.20
235.1607, 10456.64
235.6428, 10474.12
236.1249, 10492.51
236.6070, 10511.25
237.0892, 10530.15
237.5713, 10549.34
238.0534, 10568.21
238.5355, 10587.38
239.0176, 10609.29
239.4997, 10638.67
239.9819, 10664.29
240.4640, 10679.78
240.9461, 10677.32
241.4282, 10684.04
241.9103, 10704.68
242.3924, 10733.09
242.8746, 10754.36
243.3567, 10765.05
243.8388, 10774.03
244.3209, 10784.88
244.8030, 10798.45
245.2851, 10812.11
245.7673, 10827.96
246.2494, 10843.22
246.7315, 10851.15
247.2136, 10847.61
247.6957, 10843.51
248.1778, 10843.91
248.6600, 10852.43
249.1421, 10854.29
249.6242, 10846.97
250.1063, 10834.34
250.5884, 10823.75
251.0705, 10815.79
251.5527, 10808.67
252.0348, 10801.94
252.5169, 10795.70
252.9990, 10789.00
253.4811, 10781.66
253.9632, 10773.74
254.4454, 10765.48
254.9275, 10756.76
255.4096, 10747.64
255.8917, 10737.32
256.3738, 10724.64
256.8560, 10716.78
257.3381, 10715.15
257.8202, 10717.11
258.3023, 10718.89
258.7844, 10720.71
259.2665, 10721.89
259.7487, 10722.11
260.2308, 10721.22
260.7129, 10720.22
261.1950, 10718.42
261.6771, 10717.19
262.1592, 10718.53
262.6414, 10723.00
263.1235, 10728.61
263.6056, 10735.21
264.0877, 10743.00
264.5698, 10748.88
265.0519, 10751.38
265.5341, 10753.98
266.0162, 10762.19
266.4983, 10779.28
266.9804, 10791.53
267.4625, 10793.42
267.9446, 10785.20
268.4268, 10785.31
268.9089, 10797.02
269.3910, 10811.30
269.8731, 10817.50
270.3552, 10812.38
270.8373, 10812.57
271.3195, 10824.75
271.8016, 10846.82
272.2837, 10855.94
272.7658, 10848.24
273.2479, 10836.35
273.7300, 10831.25
274.2122, 10833.49
274.6943, 10839.62
275.1764, 10850.37
275.6585, 10864.57
276.1406, 10875.88
276.6227, 10884.14
277.1049, 10890.43
277.5870, 10894.27
278.0691, 10895.17
278.5512, 10900.43
279.0333, 10912.83
279.5154, 10929.59
279.9976, 10941.81
280.4797, 10949.34
280.9618, 10953.05
281.4439, 10952.25
281.9260, 10946.81
282.4081, 10942.26
282.8903, 10938.42
283.3724, 10936.68
283.8545, 10942.33
284.3366, 10956.12
284.8187, 10969.28
285.3008, 10975.51
285.7830, 10975.41
286.2651, 10974.44
286.7472, 10971.71
287.2293, 10970.86
287.7114, 10980.49
288.1935, 11000.49
288.6757, 11020.67
289.1578, 11035.13
289.6399, 11044.71
290.1220, 11053.30
290.6041, 11061.21
291.0862, 11067.88
291.5684, 11072.21
292.0505, 11074.33
292.5326, 11075.61
293.0147, 11077.91
293.4968, 11079.95
293.9789, 11077.16
294.4611, 11068.96
294.9432, 11059.29
295.4253, 11051.80
295.9074, 11046.56
296.3895, 11043.72
296.8716, 11045.83
297.3538, 11049.89
297.8359, 11048.59
298.3180, 11041.65
298.8001, 11035.18
299.2822, 11034.67
299.7643, 11039.06
300.2465, 11045.78
300.7286, 11057.01
301.2107, 11068.02
301.6928, 11070.81
302.1749, 11065.86
302.6570, 11060.77
303.1392, 11062.40
303.6213, 11067.90
304.1034, 11072.30
304.5855, 11073.47
305.0676, 11073.93
305.5497, 11077.37
306.0319, 11082.96
306.5140, 11086.62
306.9961, 11082.50
307.4782, 11075.99
307.9603, 11073.95
308.4424, 11079.95
308.9246, 11086.76
309.4067, 11087.22
309.8888, 11083.51
310.3709, 11082.07
310.8530, 11087.90
311.3351, 11096.57
311.8173, 11104.88
312.2994, 11113.12
312.7815, 11118.76
313.2636, 11117.29
313.7457, 11112.46
314.2278, 11110.99
314.7100, 11119.57
315.1921, 11129.83
315.6742, 11137.01
316.1563, 11140.48
316.6384, 11142.36
317.1205, 11142.45
317.6027, 11141.78
318.0848, 11141.67
318.5669, 11146.42
319.0490, 11148.27
319.5311, 11141.59
320.0132, 11125.68
320.4954, 11113.90
320.9775, 11112.92
321.4596, 11116.25
321.9417, 11118.42
322.4238, 11116.30
322.9059, 11114.90
323.3881, 11116.24
323.8702, 11119.96
324.3523, 11121.94
324.8344, 11118.46
325.3165, 11115.25
325.7986, 11115.71
326.2808, 11123.90
326.7629, 11131.50
327.2450, 11138.87
327.7271, 11145.56
328.2092, 11149.77
328.6913, 11149.75
329.1735, 11148.80
329.6556, 11147.93
330.1377, 11145.57
330.6198, 11146.30
331.1019, 11153.52
331.5840, 11162.64
332.0662, 11164.59
332.5483, 11153.00
333.0304, 11143.05
333.5125, 11140.13
333.9946, 11145.76
334.4767, 11149.80
334.9589, 11152.43
335.4410, 11153.14
335.9231, 11150.86
336.4052, 11144.47
336.8873, 11138.27
337.3694, 11133.69
337.8515, 11130.67
338.3336, 11125.28
338.8158, 11115.41
339.2979, 11108.14
339.7800, 11112.85
340.2621, 11132.46
340.7442, 11144.19
341.2263, 11142.52
341.7085, 11131.14
342.1906, 11120.31
342.6727, 11109.28
343.1548, 11103.11
343.6369, 11108.26
344.1190, 11123.69
344.6012, 11133.41
345.0833, 11134.49
345.5654, 11131.08
346.0475, 11129.54
346.5296, 11129.79
347.0117, 11131.74
347.4939, 11136.83
347.9760, 11143.56
348.4581, 11146.01
348.9402, 11142.92
349.4223, 11141.07
349.9044, 11152.19
350.3866, 11171.98
350.8687, 11185.84
351.3508, 11184.80
351.8329, 11175.74
352.3150, 11168.34
352.7971, 11162.58
353.2793, 11158.24
353.7614, 11154.83
354.2435, 11152.70
354.7256, 11152.41
355.2077, 11154.42
355.6898, 11157.86
356.1720, 11164.46
356.6541, 11172.75
357.1362, 11176.61
357.6183, 11166.45
358.1004, 11153.53
358.5826, 11148.81
359.0647, 11157.20
359.5468, 11166.47
360.0289, 11172.95
360.5110, 11175.54
360.9931, 11172.11
361.4753, 11152.60
361.9574, 11134.29
362.4395, 11127.42
362.9216, 11134.80
363.4037, 11141.50
363.8858, 11145.19
364.3680, 11145.30
364.8501, 11141.22
365.3322, 11127.53
365.8143, 11115.42
366.2964, 11108.14
366.7785, 11105.75
367.2607, 11103.90
367.7428, 11099.74
368.2249, 11097.82
368.7070, 11101.12
369.1891, 11119.45
369.6712, 11129.73
370.1534, 11126.20
370.6355, 11113.88
371.1176, 11108.70
371.5997, 11113.50
372.0818, 11121.31
372.5639, 11130.31
373.0461, 11142.58
373.5282, 11147.88
374.0103, 11143.82
374.4924, 11134.75
374.9745, 11126.92
375.4566, 11120.07
375.9388, 11115.15
376.4209, 11112.69
376.9030, 11112.71
377.3851, 11115.13
377.8672, 11121.44
378.3493, 11126.53
378.8315, 11123.50
379.3136, 11112.29
379.7957, 11106.97
380.2778, 11112.66
380.7599, 11123.53
381.2420, 11123.61
381.7242, 11112.90
382.2063, 11102.91
382.6884, 11102.33
383.1705, 11108.57
383.6526, 11111.89
384.1347, 11109.99
384.6169, 11109.68
385.0990, 11124.61
385.5811, 11149.40
386.0632, 11166.28
386.5453, 11161.08
387.0274, 11145.82
387.5096, 11135.01
387.9917, 11128.96
388.4738, 11127.05
388.9559, 11133.43
389.4380, 11142.63
389.9201, 11147.16
390.4023, 11140.86
390.8844, 11133.86
391.3665, 11134.94
391.8486, 11141.67
392.3307, 11144.99
392.8128, 11134.02
393.2950, 11122.32
393.7771, 11120.31
394.2592, 11134.32
394.7413, 11144.83
395.2234, 11142.34
395.7055, 11132.81
396.1877, 11125.53
396.6698, 11125.51
397.1519, 11125.10
397.6340, 11121.62
398.1161, 11114.62
398.5982, 11108.38
399.0804, 11103.38
399.5625, 11099.42
400.0446, 11096.65
400.5267, 11099.97
401.0088, 11097.64
401.4909, 11085.18
401.9731, 11066.31
402.4552, 11056.23
402.9373, 11059.04
403.4194, 11064.16
403.9015, 11066.11
404.3836, 11063.06
404.8658, 11064.47
405.3479, 11072.18
405.8300, 11081.50
406.3121, 11084.19
406.7942, 11078.73
407.2763, 11076.18
407.7585, 11081.66
408.2406, 11092.97
408.7227, 11097.72
409.2048, 11095.27
409.6869, 11090.42
410.1690, 11087.20
410.6512, 11085.22
411.1333, 11081.93
411.6154, 11075.53
412.0975, 11070.25
412.5796, 11076.05
413.0617, 11090.30
413.5439, 11099.88
414.0260, 11093.87
414.5081, 11080.14
414.9902, 11068.92
415.4723, 11060.88
415.9544, 11056.50
416.4366, 11060.76
416.9187, 11068.13
417.4008, 11070.24
417.8829, 11058.58
418.3650, 11045.41
418.8471, 11037.33
419.3293, 11033.92
419.8114, 11032.08
420.2935, 11032.15
420.7756, 11032.30
421.2577, 11031.16
421.7398, 11027.31
422.2220, 11024.60
422.7041, 11024.74
423.1862, 11026.45
423.6683, 11027.41
424.1504, 11025.89
424.6325, 11025.07
425.1147, 11026.83
425.5968, 11031.97
426.0789, 11032.79
426.5610, 11027.77
427.0431, 11019.84
427.5252, 11010.46
428.0074, 10996.26
428.4895, 10988.63
428.9716, 10990.30
429.4537, 10998.78
429.9358, 11007.70
430.4179, 11018.32
430.9001, 11024.62
431.3822, 11022.40
431.8643, 11011.50
432.3464, 10999.16
432.8285, 10984.06
433.3106, 10971.90
433.7928, 10973.21
434.2749, 10986.11
434.7570, 10994.37
435.2391, 10991.02
435.7212, 10981.62
436.2033, 10977.56
436.6855, 10978.35
437.1676, 10978.18
437.6497, 10971.28
438.1318, 10961.37
438.6139, 10954.34
439.0960, 10951.68
439.5782, 10950.08
440.0603, 10945.51
440.5424, 10940.15
441.0245, 10938.11
441.5066, 10942.90
441.9887, 10949.97
442.4709, 10958.71
442.9530, 10968.72
443.4351, 10973.81
443.9172, 10968.78
444.3993, 10959.41
444.8814, 10949.87
445.3636, 10940.14
445.8457, 10930.98
446.3278, 10919.94
446.8099, 10909.54
447.2920, 10905.94
447.7741, 10917.11
448.2563, 10926.45
448.7384, 10928.85
449.2205, 10923.61
449.7026, 10918.26
450.1847, 10913.42
450.6668, 10908.06
451.1490, 10899.95
451.6311, 10886.68
452.1132, 10881.29
452.5953, 10888.65
453.0774, 10902.95
453.5595, 10908.59
454.0417, 10904.92
454.5238, 10898.28
455.0059, 10890.41
455.4880, 10881.96
455.9701, 10876.49
456.4522, 10874.24
456.9344, 10873.76
457.4165, 10873.66
457.8986, 10874.03
458.3807, 10875.30
458.8628, 10878.21
459.3449, 10881.34
459.8271, 10883.16
460.3092, 10883.82
460.7913, 10884.04
461.2734, 10883.70
461.7555, 10883.47
462.2376, 10884.38
462.7198, 10887.11
463.2019, 10888.35
463.6840, 10883.80
464.1661, 10877.68
464.6482, 10875.10
465.1303, 10882.72
465.6125, 10888.21
466.0946, 10886.84
466.5767, 10879.36
467.0588, 10873.82
467.5409, 10872.38
468.0230, 10871.63
468.5052, 10870.19
468.9873, 10867.97
469.4694, 10865.53
469.9515, 10862.60
470.4336, 10859.89
470.9157, 10858.73
471.3979, 10859.99
471.8800, 10860.14
472.3621, 10857.50
472.8442, 10853.23
473.3263, 10853.31
473.8084, 10858.30
474.2906, 10863.07
474.7727, 10864.21
475.2548, 10861.90
475.7369, 10856.29
476.2190, 10846.33
476.7011, 10836.83
477.1833, 10834.81
477.6654, 10837.98
478.1475, 10840.00
478.6296, 10838.07
479.1117, 10833.91
479.5938, 10827.76
480.0760, 10820.19
480.5581, 10815.07
481.0402, 10817.05
481.5223, 10820.91
482.0044, 10822.36
482.4865, 10820.01
482.9687, 10817.15
483.4508, 10814.39
483.9329, 10811.93
484.4150, 10810.13
484.8971, 10809.30
485.3792, 10808.74
485.8614, 10808.18
486.3435, 10807.61
486.8256, 10807.66
487.3077, 10809.13
487.7898, 10810.25
488.2719, 10809.77
488.7541, 10806.59
489.2362, 10805.42
489.7183, 10806.67
490.2004, 10809.42
490.6825, 10813.21
491.1646, 10818.40
491.6468, 10820.41
492.1289, 10816.66
492.6110, 10809.39
493.0931, 10805.55
493.5752, 10805.04
494.0573, 10803.98
494.5395, 10798.25
495.0216, 10790.11
495.5037, 10784.02
495.9858, 10780.70
496.4679, 10779.09
496.9500, 10779.11
497.4322, 10780.19
497.9143, 10781.42
498.3964, 10781.39
498.8785, 10782.46
499.3606, 10789.26
499.8427, 10799.64
500.3249, 10803.06
500.8070, 10789.14
501.2891, 10772.75
501.7712, 10761.03
502.2533, 10754.31
502.7354, 10753.43
503.2176, 10766.34
503.6997, 10780.96
504.1818, 10784.25
504.6639, 10767.07
505.1460, 10755.36
505.6281, 10754.37
506.1103, 10761.12
506.5924, 10764.47
507.0745, 10763.83
507.5566, 10761.39
508.0387, 10758.27
508.5208, 10754.39
509.0030, 10747.32
509.4851, 10736.20
509.9672, 10726.92
510.4493, 10727.79
510.9314, 10736.19
511.4135, 10743.77
511.8957, 10750.39
512.3778, 10752.31
512.8599, 10740.75
513.3420, 10720.26
513.8242, 10703.98
514.3063, 10701.31
514.7884, 10703.63
515.2705, 10705.48
515.7526, 10706.52
516.2347, 10705.30
516.7169, 10698.38
517.1990, 10690.52
517.6811, 10685.24
518.1632, 10683.40
518.6453, 10683.42
519.1274, 10686.21
519.6096, 10690.36
520.0917, 10693.40
520.5738, 10695.02
521.0559, 10695.77
521.5380, 10695.33
522.0201, 10693.85
522.5023, 10693.98
522.9844, 10696.07
523.4665, 10699.09
523.9486, 10703.06
524.4307, 10707.90
524.9128, 10710.59
525.3950, 10710.63
525.8771, 10709.38
526.3592, 10707.67
526.8413, 10705.89
527.3234, 10705.76
527.8055, 10710.28
528.2877, 10714.31
528.7698, 10709.92
529.2519, 10699.08
529.7340, 10690.08
530.2161, 10688.97
530.6982, 10690.64
531.1804, 10692.04
531.6625, 10693.27
532.1446, 10691.88
532.6267, 10685.12
533.1088, 10676.56
533.5909, 10669.60
534.0731, 10663.94
534.5552, 10661.16
535.0373, 10663.45
535.5194, 10668.48
536.0015, 10670.11
536.4836, 10666.59
536.9658, 10663.06
537.4479, 10660.91
537.9300, 10660.05
538.4121, 10660.97
538.8942, 10663.87
539.3763, 10667.06
539.8585, 10669.96
540.3406, 10672.12
540.8227, 10669.81
541.3048, 10661.02
541.7869, 10653.13
542.2690, 10660.04
542.7512, 10675.33
543.2333, 10682.83
543.7154, 10666.98
544.1975, 10648.05
544.6796, 10643.80
545.1617, 10651.39
545.6439, 10658.34
546.1260, 10660.62
546.6081, 10659.34
547.0902, 10654.33
547.5723, 10644.47
548.0544, 10635.99
548.5366, 10629.69
549.0187, 10625.21
549.5008, 10622.23
549.9829, 10621.18
550.4650, 10621.33
550.9471, 10624.51
551.4293, 10627.92
551.9114, 10623.77
552.3935, 10610.37
552.8756, 10597.62
553.3577, 10588.24
553.8398, 10582.59
554.3220, 10584.90
554.8041, 10595.50
555.2862, 10604.20
555.7683, 10599.86
556.2504, 10588.52
556.7325, 10582.95
557.2147, 10585.67
557.6968, 10589.40
558.1789, 10587.68
558.6610, 10583.06
559.1431, 10579.37
559.6252, 10580.35
560.1074, 10579.96
560.5895, 10573.09
561.0716, 10562.36
561.5537, 10556.78
562.0358, 10562.57
562.5179, 10569.43
563.0001, 10574.17
563.4822, 10576.75
563.9643, 10577.46
564.4464, 10575.55
564.9285, 10572.90
565.4106, 10571.11
565.8928, 10570.54
566.3749, 10568.61
566.8570, 10565.00
567.3391, 10560.28
567.8212, 10554.06
568.3033, 10546.82
568.7855, 10542.48
569.2676, 10542.86
569.7497, 10546.24
570.2318, 10551.32
570.7139, 10557.48
571.1960, 10562.52
571.6782, 10567.80
572.1603, 10569.48
572.6424, 10561.79
573.1245, 10543.41
573.6066, 10529.22
574.0887, 10526.67
574.5709, 10529.49
575.0530, 10532.81
575.5351, 10540.31
576.0172, 10542.10
576.4993, 10535.37
576.9814, 10524.17
577.4636, 10514.72
577.9457, 10506.86
578.4278, 10501.19
578.9099, 10497.88
579.3920, 10496.94
579.8741, 10500.25
580.3563, 10508.27
580.8384, 10513.83
581.3205, 10509.87
581.8026, 10500.22
582.2847, 10497.16
582.7668, 10501.09
583.2490, 10504.95
583.7311, 10501.94
584.2131, 10495.63
584.6953, 10490.51
585.1774, 10487.79
585.6595, 10486.12
