##NAMES=Alstonite
##RRUFFID=R050483
##IDEAL CHEMISTRY=BaCa(CO_3_)_2_
##LOCALITY=Minerva #1 mine, Cave-in-Rock, Hardin County, Illinois, USA
##OWNER=RRUFF
##SOURCE=California Institute of Technology
##DESCRIPTION=Aggregate of colorless pyramidal crystals
##STATUS=The identification of this mineral has been confirmed by X-ray diffraction and chemical analysis
##URL=rruff.info/R050483
##MEASURED CHEMISTRY=Ba_1.00_(Ca_0.84_Sr_0.16_)_Î£=1_(CO_3_)_2_
93.30109, 0.0000000E+00
93.78320, 2960.143
94.26532, 2919.038
94.74744, 2928.363
95.22955, 2981.193
95.71167, 3061.216
96.19379, 3127.969
96.67590, 3186.324
97.15802, 3239.556
97.64014, 3289.126
98.12225, 3334.000
98.60437, 3372.856
99.08649, 3405.841
99.56860, 3434.109
100.0507, 3460.256
100.5328, 3479.692
101.0150, 3493.506
101.4971, 3502.932
101.9792, 3508.449
102.4613, 3510.328
102.9434, 3506.656
103.4255, 3499.447
103.9077, 3489.459
104.3898, 3476.626
104.8719, 3461.668
105.3540, 3445.618
105.8361, 3426.215
106.3182, 3409.042
106.8004, 3394.472
107.2825, 3382.341
107.7646, 3372.016
108.2467, 3362.921
108.7288, 3355.074
109.2109, 3350.278
109.6931, 3348.391
110.1752, 3349.332
110.6573, 3353.562
111.1394, 3360.661
111.6215, 3369.736
112.1036, 3379.940
112.5858, 3391.381
113.0679, 3404.676
113.5500, 3419.046
114.0321, 3435.397
114.5142, 3454.945
114.9964, 3477.864
115.4785, 3502.156
115.9606, 3525.055
116.4427, 3546.583
116.9248, 3570.094
117.4069, 3597.176
117.8891, 3626.649
118.3712, 3656.741
118.8533, 3687.749
119.3354, 3717.980
119.8175, 3745.618
120.2996, 3770.966
120.7818, 3796.068
121.2639, 3823.130
121.7460, 3852.294
122.2281, 3879.264
122.7102, 3902.042
123.1923, 3923.004
123.6745, 3942.927
124.1566, 3962.028
124.6387, 3980.188
125.1208, 3997.462
125.6029, 4014.145
126.0850, 4028.993
126.5672, 4041.685
127.0493, 4053.074
127.5314, 4063.699
128.0135, 4073.848
128.4956, 4083.428
128.9777, 4092.392
129.4599, 4098.541
129.9420, 4106.528
130.4241, 4117.121
130.9062, 4129.751
131.3883, 4143.235
131.8704, 4156.761
132.3526, 4171.047
132.8347, 4190.239
133.3168, 4214.678
133.7989, 4242.362
134.2810, 4272.433
134.7632, 4305.092
135.2453, 4341.170
135.7274, 4381.525
136.2095, 4426.438
136.6916, 4474.394
137.1737, 4526.373
137.6559, 4580.923
138.1380, 4637.736
138.6201, 4697.459
139.1022, 4756.761
139.5843, 4816.756
140.0664, 4875.136
140.5486, 4927.077
141.0307, 4973.139
141.5128, 5011.226
141.9949, 5034.299
142.4770, 5040.076
142.9591, 5031.724
143.4413, 5011.056
143.9234, 4979.799
144.4055, 4940.397
144.8876, 4893.484
145.3697, 4839.124
145.8518, 4784.200
146.3340, 4728.837
146.8161, 4672.875
147.2982, 4616.673
147.7803, 4559.893
148.2624, 4501.889
148.7445, 4441.581
149.2267, 4379.309
149.7088, 4314.642
150.1909, 4247.463
150.6730, 4178.656
151.1551, 4107.254
151.6372, 4033.649
152.1194, 3960.988
152.6015, 3892.319
153.0836, 3828.626
153.5657, 3769.282
154.0478, 3713.783
154.5299, 3662.726
155.0121, 3617.144
155.4942, 3577.404
155.9763, 3542.450
156.4584, 3511.734
156.9405, 3484.934
157.4226, 3461.120
157.9048, 3440.594
158.3869, 3422.863
158.8690, 3406.906
159.3511, 3392.312
159.8332, 3379.747
160.3153, 3369.653
160.7975, 3361.952
161.2796, 3355.861
161.7617, 3351.507
162.2438, 3348.728
162.7259, 3345.646
163.2081, 3340.817
163.6902, 3336.437
164.1723, 3334.148
164.6544, 3334.096
165.1365, 3335.354
165.6186, 3337.649
166.1008, 3341.721
166.5829, 3343.441
167.0650, 3339.607
167.5471, 3334.922
168.0292, 3332.149
168.5113, 3332.017
168.9935, 3333.546
169.4756, 3335.407
169.9577, 3338.731
170.4398, 3340.047
170.9219, 3340.253
171.4040, 3338.168
171.8862, 3332.422
172.3683, 3322.578
172.8504, 3309.807
173.3325, 3296.762
173.8146, 3284.615
174.2967, 3270.725
174.7789, 3254.321
175.2610, 3236.358
175.7431, 3217.829
176.2252, 3198.976
176.7073, 3180.067
177.1894, 3162.115
177.6716, 3144.492
178.1537, 3128.320
178.6358, 3114.562
179.1179, 3102.329
179.6000, 3089.448
180.0821, 3074.556
180.5643, 3058.883
181.0464, 3046.196
181.5285, 3037.176
182.0106, 3029.302
182.4927, 3021.540
182.9748, 3013.960
183.4570, 3006.867
183.9391, 3000.396
184.4212, 2994.605
184.9033, 2989.521
185.3854, 2985.617
185.8675, 2981.644
186.3497, 2976.383
186.8318, 2969.797
187.3139, 2963.306
187.7960, 2957.320
188.2781, 2951.897
188.7602, 2947.138
189.2424, 2943.019
189.7245, 2939.618
190.2066, 2937.177
190.6887, 2935.899
191.1708, 2934.824
191.6530, 2933.590
192.1351, 2932.389
192.6172, 2931.313
193.0993, 2930.345
193.5814, 2929.711
194.0635, 2929.953
194.5457, 2931.495
195.0278, 2933.114
195.5099, 2935.272
195.9920, 2937.062
196.4741, 2937.598
196.9562, 2936.476
197.4384, 2933.950
197.9205, 2930.673
198.4026, 2926.139
198.8847, 2921.476
199.3668, 2917.077
199.8489, 2912.569
200.3311, 2907.464
200.8132, 2901.504
201.2953, 2894.892
201.7774, 2888.489
202.2595, 2881.125
202.7416, 2875.353
203.2238, 2871.911
203.7059, 2870.095
204.1880, 2868.912
204.6701, 2867.854
205.1522, 2867.011
205.6343, 2866.843
206.1165, 2867.984
206.5986, 2868.985
207.0807, 2869.192
207.5628, 2869.064
208.0449, 2869.688
208.5270, 2871.848
209.0092, 2874.857
209.4913, 2875.811
209.9734, 2873.751
210.4555, 2871.310
210.9376, 2869.606
211.4197, 2868.281
211.9019, 2866.403
212.3840, 2863.702
212.8661, 2859.905
213.3482, 2854.461
213.8303, 2846.429
214.3124, 2838.459
214.7946, 2832.451
215.2767, 2828.012
215.7588, 2823.066
216.2409, 2816.288
216.7230, 2808.739
217.2052, 2802.237
217.6873, 2796.997
218.1694, 2792.483
218.6515, 2788.708
219.1336, 2785.612
219.6157, 2781.910
220.0979, 2776.397
220.5800, 2770.478
221.0621, 2765.743
221.5442, 2762.530
222.0263, 2759.828
222.5084, 2756.515
222.9906, 2752.458
223.4727, 2749.070
223.9548, 2748.039
224.4369, 2747.088
224.9190, 2744.284
225.4011, 2739.177
225.8833, 2733.459
226.3654, 2728.746
226.8475, 2724.922
227.3296, 2722.769
227.8117, 2725.111
228.2938, 2727.482
228.7760, 2726.614
229.2581, 2721.942
229.7402, 2716.064
230.2223, 2712.389
230.7044, 2711.448
231.1865, 2711.065
231.6687, 2711.746
232.1508, 2712.377
232.6329, 2712.108
233.1150, 2710.856
233.5971, 2709.350
234.0792, 2708.661
234.5614, 2709.235
235.0435, 2709.572
235.5256, 2709.940
236.0077, 2709.906
236.4898, 2708.918
236.9719, 2707.030
237.4541, 2704.972
237.9362, 2703.635
238.4183, 2702.764
238.9004, 2703.460
239.3825, 2706.909
239.8646, 2710.718
240.3468, 2713.352
240.8289, 2714.614
241.3110, 2715.269
241.7931, 2716.275
242.2752, 2717.808
242.7573, 2719.136
243.2395, 2720.152
243.7216, 2721.053
244.2037, 2721.953
244.6858, 2722.862
245.1679, 2723.774
245.6501, 2724.793
246.1322, 2726.205
246.6143, 2726.218
247.0964, 2723.549
247.5785, 2720.609
248.0606, 2719.409
248.5428, 2719.909
249.0249, 2720.187
249.5070, 2718.319
249.9891, 2713.888
250.4712, 2709.735
250.9533, 2706.406
251.4355, 2702.933
251.9176, 2698.449
252.3997, 2693.015
252.8818, 2687.531
253.3639, 2682.771
253.8460, 2678.770
254.3282, 2674.796
254.8103, 2670.452
255.2924, 2666.438
255.7745, 2663.856
256.2566, 2662.497
256.7387, 2660.312
257.2209, 2655.503
257.7030, 2648.469
258.1851, 2642.530
258.6672, 2637.544
259.1493, 2633.759
259.6314, 2631.878
260.1136, 2631.697
260.5957, 2631.457
261.0778, 2630.076
261.5599, 2627.840
262.0420, 2625.825
262.5241, 2623.935
263.0063, 2622.372
263.4884, 2621.448
263.9705, 2621.084
264.4526, 2620.597
264.9347, 2619.516
265.4168, 2618.236
265.8990, 2617.593
266.3811, 2617.975
266.8632, 2618.182
267.3453, 2617.036
267.8274, 2614.757
268.3095, 2613.058
268.7917, 2612.969
269.2738, 2613.431
269.7559, 2612.914
270.2380, 2611.212
270.7201, 2609.594
271.2022, 2609.220
271.6844, 2609.872
272.1665, 2609.984
272.6486, 2609.073
273.1307, 2607.545
273.6128, 2605.647
274.0949, 2603.382
274.5771, 2601.543
275.0592, 2600.702
275.5413, 2600.753
276.0234, 2601.158
276.5055, 2602.135
276.9876, 2603.044
277.4698, 2603.429
277.9519, 2603.335
278.4340, 2603.019
278.9161, 2602.618
279.3982, 2602.112
279.8803, 2601.421
280.3625, 2600.522
280.8446, 2599.425
281.3267, 2597.619
281.8088, 2595.594
282.2909, 2594.571
282.7730, 2596.081
283.2552, 2599.056
283.7373, 2599.814
284.2194, 2597.405
284.7015, 2594.443
285.1836, 2591.863
285.6658, 2589.630
286.1479, 2587.731
286.6300, 2586.249
287.1121, 2585.014
287.5942, 2583.640
288.0764, 2582.040
288.5585, 2580.511
289.0406, 2579.259
289.5227, 2578.102
290.0048, 2576.880
290.4869, 2575.542
290.9691, 2574.091
291.4512, 2572.491
291.9333, 2570.689
292.4154, 2568.976
292.8975, 2567.855
293.3796, 2566.640
293.8618, 2564.591
294.3439, 2561.527
294.8260, 2558.364
295.3081, 2556.610
295.7902, 2556.802
296.2723, 2555.851
296.7545, 2551.231
297.2366, 2546.730
297.7187, 2544.622
298.2008, 2545.039
298.6829, 2546.491
299.1650, 2547.695
299.6472, 2548.660
300.1293, 2549.148
300.6114, 2549.464
301.0935, 2548.880
301.5756, 2546.635
302.0577, 2543.081
302.5399, 2539.325
303.0220, 2536.179
303.5041, 2533.638
303.9862, 2531.493
304.4683, 2530.053
304.9504, 2528.716
305.4326, 2527.287
305.9147, 2525.821
306.3968, 2524.443
306.8789, 2523.281
307.3610, 2522.258
307.8431, 2520.982
308.3253, 2519.066
308.8074, 2517.575
309.2895, 2516.760
309.7716, 2516.479
310.2537, 2516.797
310.7358, 2517.858
311.2180, 2518.942
311.7001, 2518.323
312.1822, 2515.158
312.6643, 2512.035
313.1464, 2509.068
313.6285, 2506.517
314.1107, 2504.614
314.5928, 2503.413
315.0749, 2502.725
315.5570, 2502.437
316.0391, 2502.764
316.5212, 2502.664
317.0034, 2501.820
317.4855, 2500.677
317.9676, 2499.417
318.4497, 2498.082
318.9318, 2496.672
319.4139, 2495.224
319.8961, 2493.769
320.3782, 2492.072
320.8603, 2489.333
321.3424, 2487.172
321.8245, 2486.536
322.3066, 2487.021
322.7888, 2487.610
323.2709, 2487.733
323.7530, 2487.351
324.2351, 2486.058
324.7172, 2482.956
325.1993, 2480.176
325.6815, 2478.720
326.1636, 2477.852
326.6457, 2476.267
327.1278, 2473.076
327.6099, 2469.470
328.0920, 2468.688
328.5742, 2472.491
329.0563, 2475.302
329.5384, 2475.867
330.0205, 2474.992
330.5026, 2473.037
330.9847, 2470.112
331.4669, 2466.859
331.9490, 2464.111
332.4311, 2461.909
332.9132, 2460.061
333.3953, 2458.762
333.8774, 2457.676
334.3596, 2456.960
334.8417, 2456.470
335.3238, 2455.506
335.8059, 2452.751
336.2880, 2448.147
336.7701, 2445.736
337.2523, 2446.922
337.7344, 2449.019
338.2165, 2451.614
338.6986, 2454.132
339.1807, 2455.463
339.6628, 2454.881
340.1450, 2452.590
340.6271, 2448.965
341.1092, 2442.473
341.5913, 2437.685
342.0735, 2437.331
342.5556, 2439.091
343.0377, 2440.360
343.5198, 2440.278
344.0019, 2439.016
344.4840, 2436.220
344.9662, 2431.124
345.4483, 2427.791
345.9304, 2430.116
346.4125, 2433.142
346.8946, 2432.931
347.3767, 2428.886
347.8589, 2424.344
348.3410, 2422.657
348.8231, 2423.742
349.3052, 2424.578
349.7873, 2424.740
350.2694, 2424.539
350.7516, 2424.229
351.2337, 2423.783
351.7158, 2423.085
352.1979, 2422.069
352.6800, 2420.739
353.1621, 2419.106
353.6443, 2417.129
354.1264, 2414.935
354.6085, 2412.359
355.0906, 2409.673
355.5727, 2407.342
356.0548, 2405.544
356.5370, 2404.149
357.0191, 2402.952
357.5012, 2401.948
357.9833, 2401.417
358.4654, 2402.315
358.9475, 2403.252
359.4297, 2402.375
359.9118, 2399.190
360.3939, 2395.793
360.8760, 2393.548
361.3581, 2392.368
361.8402, 2391.968
362.3224, 2392.849
362.8045, 2393.580
363.2866, 2392.276
363.7687, 2389.172
364.2508, 2386.598
364.7329, 2385.814
365.2151, 2386.011
365.6972, 2385.785
366.1793, 2384.938
366.6614, 2384.172
367.1435, 2384.388
367.6256, 2385.118
368.1078, 2384.896
368.5899, 2382.742
369.0720, 2380.239
369.5541, 2378.547
370.0362, 2377.625
370.5183, 2377.291
371.0005, 2377.733
371.4826, 2378.485
371.9647, 2378.485
372.4468, 2377.560
372.9289, 2376.454
373.4110, 2375.743
373.8932, 2374.986
374.3753, 2373.105
374.8574, 2369.659
375.3395, 2366.015
375.8216, 2364.085
376.3037, 2364.098
376.7859, 2363.665
377.2680, 2361.914
377.7501, 2360.053
378.2322, 2359.171
378.7143, 2359.274
379.1964, 2359.758
379.6786, 2360.432
380.1607, 2361.120
380.6428, 2360.174
381.1249, 2355.810
381.6070, 2352.039
382.0891, 2350.656
382.5713, 2350.819
383.0534, 2350.877
383.5355, 2350.113
384.0176, 2348.977
384.4997, 2348.454
384.9818, 2349.414
385.4640, 2349.569
385.9461, 2348.306
386.4282, 2346.582
386.9103, 2345.265
387.3924, 2344.458
387.8745, 2343.617
388.3567, 2342.126
388.8388, 2339.838
389.3209, 2337.995
389.8030, 2337.114
390.2851, 2336.067
390.7672, 2333.935
391.2494, 2331.336
391.7315, 2329.622
392.2136, 2329.651
392.6957, 2330.884
393.1778, 2331.269
393.6599, 2330.289
394.1421, 2329.090
394.6242, 2327.252
395.1063, 2325.536
395.5884, 2324.979
396.0706, 2325.681
396.5527, 2326.414
397.0348, 2325.267
397.5169, 2321.444
397.9990, 2318.895
398.4811, 2319.111
398.9633, 2319.283
399.4454, 2318.066
399.9275, 2315.849
400.4096, 2313.866
400.8917, 2313.119
401.3738, 2313.199
401.8560, 2312.256
402.3381, 2309.750
402.8202, 2307.251
403.3023, 2305.096
403.7844, 2303.264
404.2665, 2301.858
404.7487, 2300.946
405.2308, 2300.083
405.7129, 2298.656
406.1950, 2296.627
406.6771, 2294.716
407.1592, 2292.625
407.6414, 2291.209
408.1235, 2291.708
408.6056, 2293.669
409.0877, 2294.677
409.5698, 2292.500
410.0519, 2288.505
410.5341, 2286.056
411.0162, 2285.588
411.4983, 2285.285
411.9804, 2284.063
412.4625, 2282.262
412.9446, 2280.334
413.4268, 2277.975
413.9089, 2276.121
414.3910, 2275.749
414.8731, 2276.620
415.3552, 2277.638
415.8373, 2278.533
416.3195, 2279.299
416.8016, 2280.028
417.2837, 2280.796
417.7658, 2280.988
418.2479, 2280.448
418.7300, 2279.252
419.2122, 2277.191
419.6943, 2274.305
420.1764, 2271.511
420.6585, 2269.458
421.1406, 2268.161
421.6227, 2267.468
422.1049, 2267.643
422.5870, 2268.036
423.0691, 2268.708
423.5512, 2269.364
424.0333, 2269.489
424.5154, 2268.877
424.9976, 2267.688
425.4797, 2266.238
425.9618, 2264.721
426.4439, 2262.473
426.9260, 2258.202
427.4081, 2254.237
427.8903, 2252.785
428.3724, 2253.495
428.8545, 2254.031
429.3366, 2252.382
429.8187, 2248.679
430.3008, 2245.834
430.7830, 2243.978
431.2651, 2242.964
431.7472, 2243.682
432.2293, 2244.892
432.7114, 2244.913
433.1935, 2243.153
433.6757, 2240.814
434.1578, 2239.971
434.6399, 2241.093
435.1220, 2241.963
435.6041, 2242.642
436.0862, 2242.771
436.5684, 2241.778
437.0505, 2239.967
437.5326, 2238.317
438.0147, 2237.597
438.4968, 2237.516
438.9789, 2237.066
439.4611, 2236.141
439.9432, 2235.113
440.4253, 2234.052
440.9074, 2233.017
441.3895, 2232.101
441.8716, 2231.349
442.3538, 2230.628
442.8359, 2229.761
443.3180, 2228.809
443.8001, 2228.131
444.2822, 2227.860
444.7643, 2227.789
445.2465, 2228.147
445.7286, 2228.718
446.2107, 2228.177
446.6928, 2225.171
447.1749, 2221.559
447.6570, 2219.327
448.1392, 2218.390
448.6213, 2217.488
449.1034, 2215.928
449.5855, 2214.000
450.0677, 2212.494
450.5498, 2211.315
451.0319, 2210.618
451.5140, 2211.280
451.9961, 2212.060
452.4782, 2211.063
452.9604, 2208.054
453.4425, 2204.885
453.9246, 2203.543
454.4067, 2204.279
454.8888, 2204.215
455.3709, 2202.813
455.8531, 2201.359
456.3352, 2200.411
456.8173, 2199.715
457.2994, 2198.757
457.7815, 2197.303
458.2636, 2195.598
458.7458, 2194.116
459.2279, 2192.791
459.7100, 2191.872
460.1921, 2191.762
460.6742, 2191.676
461.1563, 2191.058
461.6385, 2189.999
462.1206, 2189.004
462.6027, 2188.455
463.0848, 2188.278
463.5669, 2188.193
464.0490, 2188.429
464.5312, 2188.223
465.0133, 2187.059
465.4954, 2185.464
465.9775, 2184.006
466.4596, 2182.824
466.9417, 2181.436
467.4239, 2178.836
467.9060, 2175.371
468.3881, 2173.582
468.8702, 2174.524
469.3523, 2175.862
469.8344, 2175.788
470.3166, 2174.583
470.7987, 2172.817
471.2808, 2170.712
471.7629, 2168.088
472.2450, 2163.997
472.7271, 2158.958
473.2093, 2155.702
473.6914, 2155.638
474.1735, 2157.487
474.6556, 2159.074
475.1377, 2160.741
475.6198, 2161.134
476.1020, 2158.902
476.5841, 2156.088
477.0662, 2154.495
477.5483, 2154.192
478.0304, 2154.241
478.5125, 2153.978
478.9947, 2153.397
479.4768, 2152.571
479.9589, 2151.337
480.4410, 2149.998
480.9231, 2148.025
481.4052, 2146.244
481.8874, 2145.960
482.3695, 2147.271
482.8516, 2148.507
483.3337, 2147.331
483.8158, 2143.298
484.2979, 2140.718
484.7801, 2141.085
485.2622, 2141.271
485.7443, 2139.741
486.2264, 2137.432
486.7085, 2136.013
487.1906, 2136.349
487.6728, 2137.222
488.1549, 2136.887
488.6370, 2135.295
489.1191, 2133.253
489.6012, 2130.540
490.0833, 2127.880
490.5655, 2125.926
491.0476, 2124.606
491.5297, 2123.420
492.0118, 2121.992
492.4939, 2120.696
492.9760, 2120.479
493.4582, 2121.247
493.9403, 2120.918
494.4224, 2118.000
494.9045, 2113.695
495.3866, 2111.146
495.8687, 2110.816
496.3509, 2110.649
496.8330, 2109.997
497.3151, 2109.360
497.7972, 2109.679
498.2793, 2110.830
498.7614, 2111.318
499.2436, 2109.740
499.7257, 2106.229
500.2078, 2103.248
500.6899, 2100.509
501.1720, 2098.645
501.6541, 2098.672
502.1363, 2099.180
502.6184, 2098.594
503.1005, 2096.541
503.5826, 2093.879
504.0647, 2091.508
504.5468, 2089.394
505.0290, 2088.031
505.5111, 2087.821
505.9932, 2087.934
506.4753, 2088.873
506.9575, 2089.704
507.4396, 2088.646
507.9217, 2084.585
508.4038, 2080.020
508.8859, 2078.480
509.3680, 2079.752
509.8502, 2079.945
510.3323, 2077.675
510.8144, 2074.937
511.2965, 2073.925
511.7786, 2074.295
512.2607, 2074.200
512.7429, 2072.939
513.2250, 2071.217
513.7071, 2069.486
514.1892, 2067.787
514.6713, 2066.052
515.1534, 2064.113
515.6356, 2062.542
516.1177, 2062.676
516.5998, 2066.353
517.0819, 2067.540
517.5640, 2064.165
518.0461, 2059.847
518.5283, 2056.871
519.0104, 2055.216
519.4925, 2053.911
519.9746, 2052.309
520.4567, 2050.574
520.9388, 2049.381
521.4210, 2049.224
521.9031, 2048.648
522.3852, 2046.938
522.8673, 2045.185
523.3494, 2044.304
523.8315, 2044.222
524.3137, 2044.066
524.7958, 2042.987
525.2779, 2041.323
525.7600, 2040.444
526.2421, 2040.644
526.7242, 2040.502
527.2064, 2039.140
527.6885, 2037.225
528.1706, 2035.516
528.6527, 2034.043
529.1348, 2032.965
529.6169, 2032.695
530.0991, 2032.766
530.5812, 2032.451
531.0633, 2031.666
531.5454, 2030.542
532.0275, 2029.114
532.5096, 2027.433
532.9918, 2025.875
533.4739, 2024.959
533.9560, 2023.503
534.4381, 2020.244
534.9202, 2016.863
535.4023, 2015.612
535.8845, 2016.656
536.3666, 2017.914
536.8487, 2017.174
537.3308, 2014.441
537.8129, 2012.648
538.2950, 2012.913
538.7772, 2012.646
539.2593, 2010.747
539.7414, 2008.310
540.2235, 2006.441
540.7056, 2005.436
541.1877, 2004.982
541.6699, 2004.905
542.1520, 2005.154
542.6341, 2005.507
543.1162, 2006.216
543.5983, 2006.364
544.0804, 2004.861
544.5626, 2002.476
545.0447, 2000.680
545.5268, 2000.105
546.0089, 1999.303
546.4910, 1997.064
546.9731, 1994.087
547.4553, 1991.797
547.9374, 1990.489
548.4195, 1989.457
548.9016, 1988.014
549.3837, 1986.143
549.8658, 1984.523
550.3480, 1982.813
550.8301, 1981.695
551.3122, 1982.008
551.7943, 1982.731
552.2764, 1982.461
552.7585, 1980.908
553.2407, 1979.098
553.7228, 1978.331
554.2049, 1978.680
554.6870, 1978.716
555.1691, 1978.266
555.6512, 1977.726
556.1334, 1977.387
556.6155, 1976.995
557.0976, 1976.232
557.5797, 1975.012
558.0618, 1973.415
558.5439, 1971.089
559.0261, 1968.391
559.5082, 1966.744
559.9903, 1966.508
560.4724, 1966.607
560.9545, 1966.280
561.4366, 1965.601
561.9188, 1965.037
562.4009, 1965.542
562.8830, 1964.973
563.3651, 1961.314
563.8472, 1956.606
564.3293, 1953.855
564.8115, 1953.600
565.2936, 1954.125
565.7757, 1953.769
566.2578, 1952.529
566.7399, 1951.162
567.2220, 1949.017
567.7042, 1947.565
568.1863, 1947.785
568.6684, 1948.406
569.1505, 1947.883
569.6326, 1946.000
570.1147, 1944.208
570.5969, 1944.369
571.0790, 1946.032
571.5611, 1946.275
572.0432, 1944.736
572.5253, 1942.673
573.0074, 1940.312
573.4896, 1937.992
573.9717, 1936.199
574.4538, 1935.039
574.9359, 1934.216
575.4180, 1933.354
575.9001, 1932.867
576.3823, 1934.050
576.8644, 1936.765
577.3465, 1938.200
577.8286, 1936.115
578.3107, 1931.305
578.7928, 1927.667
579.2750, 1925.463
579.7571, 1924.160
580.2392, 1924.624
580.7213, 1925.323
581.2034, 1924.860
581.6855, 1923.349
582.1677, 1922.015
582.6498, 1921.882
583.1319, 1922.508
583.6140, 1922.491
584.0961, 1921.888
584.5782, 1920.352
585.0604, 1916.137
585.5425, 1912.275
586.0246, 1911.796
586.5067, 1914.512
586.9889, 1917.100
587.4710, 1918.570
587.9531, 1918.886
588.4352, 1917.855
