##NAMES=Althausite
##RRUFFID=R070113
##IDEAL CHEMISTRY=Mg_4_(PO_4_)_2_(OH,O)(F,[box])
##LOCALITY=Tingelstadtjern, Modum, Norway
##OWNER=RRUFF
##SOURCE=Bob Jenkins
##DESCRIPTION=Colorless platy crystals associated with R060710 holtedahlite
##STATUS=The identification of this mineral has been confirmed only by single crystal X-ray diffraction.
##URL=rruff.info/R070113
149.6995, 618.6155
150.1816, 614.6148
150.6637, 610.8999
151.1458, 607.3480
151.6279, 604.1498
152.1101, 601.5645
152.5922, 598.8430
153.0743, 597.3415
153.5564, 597.6494
154.0385, 601.1060
154.5206, 604.7744
155.0028, 609.0649
155.4849, 613.5758
155.9670, 616.3347
156.4491, 614.4165
156.9312, 611.9948
157.4133, 611.8669
157.8955, 617.7737
158.3776, 623.0518
158.8597, 625.8760
159.3418, 626.1869
159.8239, 625.3062
160.3060, 622.3780
160.7882, 618.9271
161.2703, 616.5810
161.7524, 615.6041
162.2345, 616.0696
162.7166, 617.9341
163.1987, 621.1566
163.6808, 626.0978
164.1630, 635.8450
164.6451, 647.2325
165.1272, 654.9191
165.6093, 654.6960
166.0914, 650.9507
166.5735, 646.0195
167.0557, 638.7268
167.5378, 634.1408
168.0199, 636.3391
168.5020, 644.1429
168.9841, 654.2084
169.4662, 666.5184
169.9484, 679.3793
170.4305, 690.9947
170.9126, 700.2127
171.3947, 709.0191
171.8768, 719.9471
172.3589, 732.6060
172.8411, 743.6130
173.3232, 747.7382
173.8053, 749.1148
174.2874, 754.7892
174.7695, 773.3951
175.2516, 793.6718
175.7338, 800.6862
176.2159, 794.2242
176.6980, 783.3682
177.1801, 774.9341
177.6622, 768.1339
178.1443, 761.0589
178.6264, 751.0662
179.1086, 740.5682
179.5907, 734.1904
180.0728, 732.2546
180.5549, 733.0913
181.0370, 734.8041
181.5191, 737.6205
182.0013, 742.6462
182.4834, 752.8096
182.9655, 765.6976
183.4476, 774.0859
183.9297, 775.9610
184.4118, 776.5518
184.8940, 785.8767
185.3761, 803.2075
185.8582, 817.8463
186.3403, 823.5479
186.8224, 820.9472
187.3046, 812.9320
187.7867, 798.8273
188.2688, 780.7092
188.7509, 762.4910
189.2330, 744.1887
189.7151, 725.5046
190.1973, 703.1010
190.6794, 678.0120
191.1615, 661.5138
191.6436, 658.3195
192.1257, 664.3002
192.6078, 665.5317
193.0900, 661.5670
193.5721, 655.6142
194.0542, 650.1926
194.5363, 645.3159
195.0184, 641.4146
195.5005, 638.5839
195.9826, 636.8461
196.4648, 636.8397
196.9469, 639.0955
197.4290, 641.4944
197.9111, 641.4262
198.3932, 638.6891
198.8753, 635.1099
199.3575, 630.4050
199.8396, 624.6108
200.3217, 622.4350
200.8038, 624.7208
201.2859, 629.1865
201.7680, 632.5498
202.2502, 634.7911
202.7323, 636.1555
203.2144, 636.2589
203.6965, 634.7456
204.1786, 634.9863
204.6607, 637.7836
205.1429, 641.5791
205.6250, 642.7892
206.1071, 640.6887
206.5892, 638.2858
207.0713, 636.8428
207.5534, 636.2536
208.0356, 637.5355
208.5177, 642.0013
208.9998, 647.7844
209.4819, 648.6354
209.9640, 642.2806
210.4461, 636.1329
210.9282, 635.8083
211.4104, 643.9798
211.8925, 647.9547
212.3746, 644.9144
212.8567, 636.6280
213.3388, 631.9608
213.8209, 631.3591
214.3031, 633.4860
214.7852, 637.9967
215.2673, 646.1486
215.7494, 653.0150
216.2315, 658.0507
216.7136, 661.2308
217.1958, 662.3552
217.6779, 660.4763
218.1600, 657.8669
218.6421, 656.0336
219.1242, 653.9011
219.6063, 655.3403
220.0885, 662.9644
220.5706, 676.8927
221.0527, 684.3666
221.5348, 683.0510
222.0169, 677.9195
222.4990, 674.0764
222.9812, 672.2762
223.4633, 670.2121
223.9454, 666.7192
224.4275, 661.2148
224.9096, 659.7219
225.3917, 664.9538
225.8739, 671.8203
226.3560, 673.4601
226.8381, 666.8618
227.3202, 660.5469
227.8023, 657.1112
228.2844, 657.4813
228.7665, 656.1149
229.2487, 651.1477
229.7308, 645.6918
230.2129, 645.0467
230.6950, 652.5730
231.1771, 659.3781
231.6592, 662.0380
232.1414, 658.2025
232.6235, 658.2320
233.1056, 664.5072
233.5877, 673.5062
234.0698, 678.0915
234.5519, 675.9163
235.0341, 672.9324
235.5162, 671.2561
235.9983, 671.3763
236.4804, 671.6640
236.9625, 672.3558
237.4446, 673.1426
237.9268, 672.9738
238.4089, 669.8101
238.8910, 668.5963
239.3731, 671.8441
239.8552, 682.4197
240.3373, 691.1829
240.8195, 696.5552
241.3016, 700.3231
241.7837, 707.9086
242.2658, 720.5355
242.7479, 735.2740
243.2300, 751.4491
243.7122, 772.2811
244.1943, 787.3661
244.6764, 793.9065
245.1585, 794.4905
245.6406, 798.7198
246.1227, 807.9126
246.6048, 818.9576
247.0870, 830.2402
247.5691, 841.6553
248.0512, 854.0872
248.5333, 871.3170
249.0154, 890.0599
249.4975, 894.4888
249.9797, 879.0696
250.4618, 857.1267
250.9439, 836.0986
251.4260, 815.5104
251.9081, 796.9209
252.3902, 781.1508
252.8724, 767.5185
253.3545, 751.8125
253.8366, 731.3483
254.3187, 712.7341
254.8008, 700.9890
255.2829, 699.3051
255.7651, 696.8946
256.2472, 691.8626
256.7293, 684.8893
257.2114, 681.1821
257.6935, 682.1503
258.1756, 684.2950
258.6577, 685.1959
259.1399, 684.7534
259.6220, 683.1707
260.1041, 679.5690
260.5862, 674.4793
261.0683, 672.9648
261.5504, 676.7601
262.0326, 681.3531
262.5147, 682.7979
262.9968, 679.3442
263.4789, 678.0513
263.9610, 680.8182
264.4431, 687.0148
264.9253, 690.6730
265.4074, 690.8074
265.8895, 690.1699
266.3716, 691.7419
266.8537, 697.1989
267.3358, 698.5499
267.8180, 692.4183
268.3001, 680.4156
268.7822, 675.6309
269.2643, 680.1965
269.7464, 687.8821
270.2285, 693.2261
270.7107, 695.2170
271.1928, 699.6140
271.6749, 709.2926
272.1570, 722.7472
272.6391, 727.5766
273.1212, 721.3536
273.6034, 712.4484
274.0855, 708.3813
274.5676, 709.8498
275.0497, 711.7673
275.5318, 713.3253
276.0139, 714.5488
276.4961, 715.8499
276.9782, 717.6604
277.4603, 718.2200
277.9424, 715.0317
278.4245, 707.6655
278.9066, 701.8203
279.3888, 698.8376
279.8709, 698.2833
280.3530, 698.5869
280.8351, 699.9720
281.3172, 701.3075
281.7993, 701.6235
282.2815, 700.9227
282.7636, 699.5069
283.2457, 697.4744
283.7278, 694.7657
284.2099, 690.5710
284.6920, 684.5513
285.1741, 679.1622
285.6563, 676.7798
286.1384, 677.2653
286.6205, 678.7283
287.1026, 680.5178
287.5847, 683.1222
288.0668, 689.4067
288.5490, 699.8163
289.0311, 708.5068
289.5132, 708.7573
289.9953, 701.9052
290.4774, 696.1366
290.9595, 693.3331
291.4417, 692.7828
291.9238, 693.1812
292.4059, 694.5292
292.8880, 696.3772
293.3701, 698.9860
293.8522, 701.9337
294.3344, 703.3825
294.8165, 701.8416
295.2986, 699.7119
295.7807, 702.0629
296.2628, 708.6217
296.7449, 715.2373
297.2271, 719.0169
297.7092, 720.3271
298.1913, 719.6833
298.6734, 715.8454
299.1555, 711.8231
299.6376, 712.8929
300.1198, 718.3854
300.6019, 723.5475
301.0840, 723.2736
301.5661, 720.5218
302.0482, 720.8845
302.5303, 727.1294
303.0125, 734.5763
303.4946, 738.5949
303.9767, 739.4359
304.4588, 738.4943
304.9409, 734.5548
305.4230, 730.0667
305.9052, 728.2348
306.3873, 730.4141
306.8694, 734.2513
307.3515, 739.3594
307.8336, 744.8480
308.3157, 747.8358
308.7979, 741.7961
309.2800, 734.6315
309.7621, 735.7169
310.2442, 751.8254
310.7263, 765.6044
311.2084, 762.2881
311.6906, 747.3970
312.1727, 735.5805
312.6548, 735.7628
313.1369, 740.7191
313.6190, 745.3178
314.1011, 748.8953
314.5833, 751.5992
315.0654, 753.2034
315.5475, 753.9935
316.0296, 754.5190
316.5117, 753.7316
316.9938, 753.6502
317.4760, 755.7437
317.9580, 761.0350
318.4402, 765.9969
318.9223, 768.9236
319.4044, 770.8891
319.8865, 773.6166
320.3686, 781.9785
320.8507, 787.5659
321.3329, 785.0658
321.8150, 770.1732
322.2971, 760.5760
322.7792, 763.9340
323.2613, 773.3428
323.7434, 779.3146
324.2256, 780.0790
324.7077, 777.5750
325.1898, 770.0479
325.6719, 754.4505
326.1540, 747.2154
326.6361, 758.6013
327.1183, 775.2048
327.6004, 782.0584
328.0825, 767.7697
328.5646, 756.0366
329.0467, 752.1636
329.5288, 757.1814
330.0110, 760.8206
330.4931, 762.4055
330.9752, 763.1259
331.4573, 764.1909
331.9394, 766.6860
332.4215, 767.6421
332.9037, 765.4424
333.3858, 760.2303
333.8679, 759.1786
334.3500, 765.1074
334.8321, 771.5825
335.3142, 772.9230
335.7964, 766.9788
336.2785, 761.4626
336.7606, 755.9695
337.2427, 751.5702
337.7248, 756.5403
338.2069, 774.7945
338.6891, 792.8417
339.1712, 799.5565
339.6533, 793.0015
340.1354, 789.1828
340.6175, 790.5425
341.0996, 795.6058
341.5818, 800.6049
342.0639, 805.6723
342.5460, 809.7984
343.0281, 811.0645
343.5102, 809.8132
343.9923, 812.4485
344.4745, 820.4548
344.9566, 831.1127
345.4387, 840.3455
345.9208, 847.9917
346.4029, 852.7020
346.8850, 850.9073
347.3672, 845.0858
347.8493, 844.0067
348.3314, 848.6279
348.8135, 856.8017
349.2956, 867.6685
349.7777, 880.2471
350.2599, 890.8333
350.7419, 895.1458
351.2241, 897.0762
351.7062, 903.4254
352.1883, 914.6858
352.6704, 927.7148
353.1525, 941.8812
353.6346, 955.4720
354.1168, 965.3024
354.5989, 966.6776
355.0810, 965.7007
355.5631, 967.6216
356.0452, 972.5387
356.5273, 979.4402
357.0095, 988.2451
357.4916, 998.5139
357.9737, 1009.573
358.4558, 1023.902
358.9379, 1036.726
359.4200, 1045.077
359.9022, 1049.348
360.3843, 1052.375
360.8664, 1053.992
361.3485, 1055.627
361.8306, 1058.223
362.3127, 1058.823
362.7949, 1064.315
363.2770, 1081.473
363.7591, 1106.313
364.2412, 1124.358
364.7233, 1125.771
365.2054, 1124.339
365.6876, 1127.018
366.1697, 1137.576
366.6518, 1147.354
367.1339, 1156.875
367.6160, 1165.050
368.0981, 1169.304
368.5803, 1171.107
369.0624, 1167.497
369.5445, 1155.738
370.0266, 1130.676
370.5087, 1114.055
370.9908, 1110.392
371.4730, 1112.575
371.9551, 1111.263
372.4372, 1107.177
372.9193, 1097.990
373.4014, 1081.218
373.8835, 1056.376
374.3657, 1037.390
374.8478, 1026.563
375.3299, 1018.141
375.8120, 1005.632
376.2941, 987.6508
376.7762, 972.6295
377.2584, 963.5870
377.7405, 958.8785
378.2226, 950.9677
378.7047, 939.3577
379.1868, 926.7084
379.6689, 914.1669
380.1511, 901.9889
380.6332, 892.2051
381.1153, 885.7628
381.5974, 881.1187
382.0795, 875.2193
382.5616, 868.1527
383.0438, 862.1188
383.5259, 859.1614
384.0080, 858.2067
384.4901, 856.1780
384.9722, 852.2234
385.4543, 849.0038
385.9364, 852.0825
386.4185, 858.7177
386.9007, 860.9694
387.3828, 851.8759
387.8649, 837.8828
388.3470, 824.2719
388.8291, 811.1162
389.3112, 802.9083
389.7934, 806.5503
390.2755, 816.4206
390.7576, 824.8063
391.2397, 831.7990
391.7218, 834.1052
392.2039, 826.9872
392.6861, 811.3983
393.1682, 798.6304
393.6503, 792.7780
394.1324, 791.8054
394.6145, 794.2450
395.0966, 806.5754
395.5788, 814.4779
396.0609, 812.7381
396.5430, 803.6389
397.0251, 795.5862
397.5072, 788.1882
397.9893, 783.3317
398.4715, 782.1927
398.9536, 788.0836
399.4357, 791.5199
399.9178, 791.7585
400.3999, 789.7681
400.8820, 787.0126
401.3642, 782.0284
401.8463, 778.5037
402.3284, 777.4241
402.8105, 778.8595
403.2926, 782.5452
403.7747, 789.7557
404.2569, 797.4437
404.7390, 802.5118
405.2211, 804.9784
405.7032, 804.4088
406.1853, 799.3834
406.6674, 791.4045
407.1496, 787.8099
407.6317, 789.0649
408.1138, 792.0657
408.5959, 794.3372
409.0780, 796.0789
409.5602, 799.2219
410.0423, 804.4913
410.5244, 810.3635
411.0065, 815.2258
411.4886, 818.8527
411.9707, 819.5424
412.4529, 811.8012
412.9350, 801.4752
413.4171, 800.4593
413.8992, 810.6339
414.3813, 823.7814
414.8634, 834.9138
415.3456, 843.6371
415.8277, 849.0502
416.3098, 847.4592
416.7919, 844.8856
417.2740, 847.0101
417.7561, 853.6865
418.2382, 858.3571
418.7203, 853.2645
419.2025, 846.6678
419.6846, 846.0624
420.1667, 859.5146
420.6488, 872.4554
421.1309, 881.3585
421.6130, 886.4420
422.0952, 889.3043
422.5773, 885.6827
423.0594, 883.4285
423.5415, 886.9549
424.0236, 903.8895
424.5057, 912.6306
424.9879, 907.5724
425.4700, 895.9651
425.9521, 888.7759
426.4342, 887.1525
426.9163, 888.3796
427.3984, 892.4959
427.8806, 899.7875
428.3627, 906.1538
428.8448, 912.8558
429.3269, 916.5658
429.8090, 912.7498
430.2911, 900.0392
430.7733, 888.5095
431.2554, 879.5880
431.7375, 873.3660
432.2196, 871.4324
432.7017, 874.2544
433.1838, 875.8868
433.6660, 869.9778
434.1481, 858.9196
434.6302, 853.4736
435.1123, 855.7479
435.5944, 860.3218
436.0765, 860.3713
436.5587, 856.9181
437.0408, 853.3837
437.5229, 851.4233
438.0050, 850.3032
438.4871, 849.5684
438.9692, 849.2002
439.4514, 848.1111
439.9335, 844.1030
440.4156, 839.4546
440.8977, 836.8902
441.3798, 839.3325
441.8619, 841.8438
442.3441, 840.9977
442.8262, 837.9815
443.3083, 837.4779
443.7904, 846.1019
444.2725, 853.8862
444.7546, 854.4402
445.2368, 840.0645
445.7189, 833.0012
446.2010, 840.6183
446.6831, 855.7143
447.1652, 867.3523
447.6473, 874.3900
448.1295, 879.4162
448.6116, 882.7672
449.0937, 884.4350
449.5758, 884.9834
450.0579, 883.7904
450.5400, 882.4191
451.0221, 882.4392
451.5042, 884.3072
451.9864, 884.9832
452.4685, 883.1917
452.9506, 880.6323
453.4327, 882.9451
453.9148, 890.4857
454.3969, 896.9053
454.8791, 896.8105
455.3612, 892.1246
455.8433, 891.7769
456.3254, 896.9812
456.8075, 902.4152
457.2896, 899.8463
457.7718, 892.2744
458.2539, 887.9942
458.7360, 893.6812
459.2181, 902.0310
459.7002, 904.3160
460.1823, 901.2943
460.6645, 899.0993
461.1466, 903.1479
461.6287, 908.9994
462.1108, 912.5355
462.5929, 912.3214
463.0750, 910.8115
463.5572, 907.9919
464.0393, 904.6147
464.5214, 902.2513
465.0035, 901.6328
465.4856, 901.8153
465.9677, 902.8588
466.4499, 905.1860
466.9320, 906.2236
467.4141, 903.8835
467.8962, 901.6020
468.3783, 902.7049
468.8604, 910.0589
469.3426, 915.2571
469.8247, 917.0520
470.3068, 915.9884
470.7889, 913.8053
471.2710, 909.6127
471.7531, 907.0235
472.2353, 909.0357
472.7174, 915.7102
473.1995, 919.9838
473.6816, 921.2382
474.1637, 921.3820
474.6458, 923.3126
475.1280, 926.6499
475.6101, 928.9525
476.0922, 929.2291
476.5743, 927.9541
477.0564, 924.8278
477.5385, 920.1229
478.0207, 917.2289
478.5028, 919.8882
478.9849, 925.1978
479.4670, 929.6384
479.9491, 932.2772
480.4312, 934.4231
480.9134, 935.5027
481.3955, 936.7424
481.8776, 940.4696
482.3597, 952.5153
482.8418, 962.7567
483.3239, 965.6847
483.8060, 960.0781
484.2881, 956.2477
484.7703, 956.7322
485.2524, 959.0571
485.7345, 961.2874
486.2166, 961.8433
486.6987, 965.0191
487.1808, 973.5700
487.6630, 984.5900
488.1451, 988.4966
488.6272, 983.0078
489.1093, 975.7150
489.5914, 968.6799
490.0735, 961.8033
490.5557, 960.4379
491.0378, 965.8109
491.5199, 972.7281
492.0020, 975.3300
492.4841, 973.9306
492.9662, 971.2380
493.4484, 967.8924
493.9305, 963.7431
494.4126, 956.6002
494.8947, 947.4056
495.3768, 942.2291
495.8589, 950.4009
496.3411, 962.2405
496.8232, 964.6539
497.3053, 954.1487
497.7874, 944.4696
498.2695, 946.1694
498.7516, 953.3365
499.2338, 958.1453
499.7159, 957.9227
500.1980, 954.9672
500.6801, 948.6361
501.1622, 939.4669
501.6443, 931.9867
502.1265, 925.3682
502.6086, 921.9088
503.0907, 923.1777
503.5728, 933.4693
504.0549, 939.4208
504.5370, 939.5554
505.0192, 936.4395
505.5013, 933.6765
505.9834, 931.0939
506.4655, 929.5775
506.9476, 929.9588
507.4297, 931.6451
507.9119, 931.0270
508.3940, 927.8810
508.8761, 924.1530
509.3582, 921.0951
509.8403, 918.6465
510.3224, 916.8856
510.8046, 916.1640
511.2867, 914.9530
511.7688, 910.4778
512.2509, 904.0583
512.7330, 898.8566
513.2151, 897.2269
513.6973, 896.7371
514.1794, 895.6107
514.6615, 893.8493
515.1436, 892.0040
515.6257, 889.0424
516.1078, 886.8689
516.5900, 887.0592
517.0721, 891.1744
517.5542, 895.3807
518.0363, 902.4844
518.5184, 908.6795
519.0005, 906.7293
519.4827, 887.6168
519.9648, 872.5563
520.4469, 867.5639
520.9290, 872.3254
521.4111, 877.4899
521.8932, 883.6328
522.3754, 888.9269
522.8575, 891.6415
523.3396, 891.7294
523.8217, 891.7709
524.3038, 892.3230
524.7859, 892.2580
525.2681, 889.3674
525.7502, 884.0104
526.2323, 878.4658
526.7144, 871.6797
527.1965, 866.1915
527.6786, 867.0471
528.1608, 873.7729
528.6429, 880.8868
529.1250, 886.5031
529.6071, 889.7107
530.0892, 888.8628
530.5714, 881.1153
531.0535, 874.8234
531.5356, 876.4573
532.0176, 881.2260
532.4998, 881.1362
532.9819, 864.2535
533.4640, 853.0803
533.9461, 857.1837
534.4282, 876.1778
534.9103, 885.5886
535.3925, 880.0370
535.8746, 871.9150
536.3567, 868.6381
536.8388, 870.9097
537.3209, 875.2382
537.8030, 882.3591
538.2852, 889.9390
538.7673, 895.3561
539.2494, 898.5172
539.7315, 896.8345
540.2136, 886.1561
540.6957, 871.9895
541.1779, 865.7932
541.6600, 867.1537
542.1421, 872.1888
542.6242, 880.5740
543.1063, 890.0154
543.5884, 897.9773
544.0706, 904.2565
544.5527, 908.2673
545.0348, 910.8314
545.5169, 910.5832
545.9990, 905.7007
546.4811, 886.2831
546.9633, 871.9658
547.4454, 870.5245
547.9275, 880.6207
548.4096, 889.2891
548.8917, 896.4232
549.3738, 901.7458
549.8560, 904.8626
550.3381, 905.2095
550.8202, 905.7153
551.3023, 906.4014
551.7844, 907.2134
552.2665, 907.7869
552.7487, 908.0789
553.2308, 910.0826
553.7129, 915.5499
554.1950, 921.4330
554.6771, 920.3931
555.1592, 913.2547
555.6414, 906.2415
556.1235, 901.9041
556.6056, 900.3560
557.0877, 902.8331
557.5698, 909.5623
558.0519, 915.9998
558.5341, 920.8644
559.0162, 923.2440
559.4983, 921.9542
559.9804, 913.0485
560.4625, 905.4569
560.9446, 901.4039
561.4268, 900.2713
561.9089, 900.4453
562.3910, 901.6053
562.8731, 904.3829
563.3552, 910.2182
563.8373, 919.1618
564.3195, 922.2648
564.8016, 916.9888
565.2837, 911.3212
565.7658, 912.4025
566.2479, 920.3082
566.7300, 925.4479
567.2122, 926.6458
567.6943, 925.3932
568.1764, 922.3628
568.6585, 918.3233
569.1406, 916.4672
569.6227, 919.6080
570.1049, 924.3993
570.5870, 927.6086
571.0691, 929.1905
571.5512, 929.1096
572.0333, 924.5018
572.5154, 920.1424
572.9976, 919.1639
573.4797, 921.9044
573.9618, 928.2510
574.4439, 943.8090
574.9260, 960.4302
575.4081, 969.2189
575.8903, 965.1380
576.3724, 961.1407
576.8545, 958.3891
577.3366, 956.6074
577.8187, 954.7265
578.3008, 952.2585
578.7830, 951.6306
579.2651, 955.7782
579.7472, 963.2850
580.2293, 962.9340
580.7114, 954.1761
581.1935, 945.5538
581.6757, 944.0104
582.1578, 948.4470
582.6399, 957.8961
583.1220, 974.2341
583.6041, 988.9590
584.0862, 992.8500
584.5684, 990.3538
585.0505, 989.2079
585.5326, 994.0076
586.0147, 999.1242
586.4968, 1001.628
586.9789, 1001.902
587.4611, 1004.148
587.9432, 1013.224
588.4253, 1020.297
588.9074, 1020.696
589.3895, 1011.404
589.8716, 1008.694
590.3538, 1015.246
590.8359, 1024.140
591.3180, 1027.394
591.8001, 1024.780
592.2822, 1023.150
592.7643, 1023.213
593.2465, 1025.807
593.7286, 1034.644
594.2107, 1048.363
594.6928, 1059.495
595.1749, 1062.532
595.6570, 1062.403
596.1392, 1063.775
596.6213, 1066.764
597.1034, 1071.076
597.5854, 1079.910
598.0676, 1087.891
598.5497, 1090.079
599.0318, 1081.424
599.5139, 1077.141
599.9960, 1082.280
600.4781, 1091.740
600.9603, 1099.907
601.4424, 1107.698
601.9245, 1112.186
602.4066, 1111.283
602.8887, 1107.356
603.3708, 1108.025
603.8530, 1113.549
604.3351, 1121.547
604.8172, 1132.991
605.2993, 1146.089
605.7814, 1153.501
606.2635, 1155.204
606.7457, 1154.642
607.2278, 1151.155
607.7099, 1148.387
608.1920, 1152.334
608.6741, 1166.532
609.1563, 1180.783
609.6384, 1188.149
610.1205, 1192.426
610.6026, 1198.928
611.0847, 1213.788
611.5668, 1225.665
612.0490, 1229.647
612.5311, 1228.155
613.0132, 1231.099
613.4953, 1239.685
613.9774, 1250.734
614.4595, 1263.045
614.9417, 1276.767
615.4238, 1292.289
615.9059, 1310.434
616.3880, 1326.172
616.8701, 1332.480
617.3522, 1332.288
617.8344, 1336.219
618.3165, 1346.205
618.7986, 1359.699
619.2807, 1377.874
619.7628, 1397.115
620.2449, 1410.874
620.7271, 1412.127
621.2092, 1411.622
621.6913, 1413.181
622.1734, 1416.860
622.6555, 1422.660
623.1376, 1432.777
623.6198, 1442.946
624.1019, 1452.221
624.5840, 1460.846
625.0661, 1466.518
625.5482, 1469.813
626.0303, 1469.063
626.5125, 1460.674
626.9946, 1444.627
627.4767, 1434.985
627.9588, 1434.899
628.4409, 1435.658
628.9230, 1423.583
629.4052, 1402.572
629.8873, 1383.932
630.3694, 1373.925
630.8515, 1365.361
631.3336, 1353.474
631.8157, 1338.081
632.2979, 1318.631
632.7800, 1287.694
633.2621, 1258.798
633.7442, 1240.202
634.2263, 1233.092
634.7084, 1223.866
635.1906, 1208.572
635.6727, 1194.803
636.1548, 1188.045
636.6369, 1191.234
637.1190, 1188.831
637.6011, 1179.495
638.0833, 1167.171
638.5654, 1156.238
639.0475, 1146.741
639.5296, 1138.336
640.0117, 1130.971
640.4938, 1124.610
640.9760, 1119.740
641.4581, 1115.851
641.9402, 1111.275
642.4223, 1104.536
642.9044, 1097.458
643.3865, 1090.290
643.8687, 1083.309
644.3508, 1078.615
644.8329, 1082.620
645.3150, 1083.913
645.7971, 1075.324
646.2792, 1051.602
646.7614, 1039.343
647.2435, 1041.438
