##NAMES=Alum-(K)
##RRUFFID=R060014
##IDEAL CHEMISTRY=KAl(S^6+^O_4_)_2_&#183;12H_2_O
##LOCALITY=Tolfa, Italy
##OWNER=RRUFF
##SOURCE=American Museum of Natural History
##DESCRIPTION=Colorless fragment
##STATUS=The identification of this mineral has been confirmed by X-ray diffraction.
##URL=rruff.info/R060014
120.8869, 183.6480
121.3690, 185.2191
121.8511, 187.5841
122.3332, 190.4920
122.8154, 193.4141
123.2975, 195.9720
123.7796, 198.4419
124.2617, 201.1558
124.7438, 204.1591
125.2259, 207.3283
125.7081, 210.5584
126.1902, 213.7468
126.6723, 215.9116
127.1544, 217.2722
127.6365, 218.7254
128.1186, 220.5647
128.6008, 223.2127
129.0829, 225.8027
129.5650, 226.6306
130.0471, 225.8143
130.5292, 225.1334
131.0113, 226.5480
131.4935, 229.4999
131.9756, 231.6088
132.4577, 231.8405
132.9398, 230.9390
133.4219, 231.1531
133.9040, 232.6109
134.3862, 234.1244
134.8683, 234.1145
135.3504, 232.6196
135.8325, 231.6452
136.3146, 231.9998
136.7967, 233.5327
137.2789, 234.8094
137.7610, 235.8385
138.2431, 236.6295
138.7252, 237.2158
139.2073, 237.6082
139.6894, 237.7579
140.1716, 237.4926
140.6537, 236.6765
141.1358, 236.5334
141.6179, 237.2760
142.1000, 238.4714
142.5821, 239.2002
143.0643, 239.0986
143.5464, 239.3175
144.0285, 240.4734
144.5106, 243.1896
144.9927, 245.1852
145.4748, 246.2293
145.9570, 246.5896
146.4391, 246.9965
146.9212, 247.6813
147.4033, 248.1423
147.8854, 248.1008
148.3675, 246.8676
148.8497, 246.2189
149.3318, 246.5337
149.8139, 247.5742
150.2960, 248.1658
150.7781, 247.9051
151.2602, 247.4837
151.7424, 247.2748
152.2245, 247.7973
152.7066, 247.9370
153.1887, 247.3678
153.6708, 246.1728
154.1529, 245.3461
154.6351, 245.3796
155.1172, 245.5398
155.5993, 245.3366
156.0814, 244.8698
156.5635, 243.8814
157.0456, 241.9248
157.5278, 239.0238
158.0099, 236.8198
158.4920, 236.1938
158.9741, 236.1391
159.4562, 235.7565
159.9383, 234.4165
160.4205, 233.1040
160.9026, 232.1562
161.3847, 231.6047
161.8668, 231.1807
162.3489, 231.0860
162.8310, 230.9857
163.3132, 230.4886
163.7953, 228.8150
164.2774, 227.2110
164.7595, 226.4586
165.2416, 226.7427
165.7237, 226.9179
166.2059, 226.1255
166.6880, 224.9024
167.1701, 224.0664
167.6522, 224.3132
168.1343, 224.8469
168.6164, 225.1279
169.0985, 225.0814
169.5807, 224.8539
170.0628, 224.5213
170.5449, 224.0820
171.0270, 223.5334
171.5091, 222.6582
171.9912, 221.7828
172.4734, 221.2564
172.9555, 221.1883
173.4376, 221.2649
173.9197, 221.1167
174.4018, 220.8768
174.8839, 220.9143
175.3661, 221.5642
175.8482, 222.5701
176.3303, 223.6277
176.8124, 224.7227
177.2945, 225.7844
177.7766, 226.5821
178.2588, 227.2246
178.7409, 228.1296
179.2230, 229.7889
179.7051, 231.8735
180.1872, 233.8034
180.6693, 235.5792
181.1515, 237.0175
181.6336, 237.6449
182.1157, 237.5601
182.5978, 237.4630
183.0799, 237.7882
183.5620, 238.4738
184.0442, 239.4063
184.5263, 240.7331
185.0084, 242.0783
185.4905, 242.7634
185.9726, 242.8027
186.4547, 242.6597
186.9369, 242.6450
187.4190, 242.7387
187.9011, 242.9116
188.3832, 243.3227
188.8653, 243.6631
189.3474, 243.1078
189.8296, 241.6280
190.3117, 239.9852
190.7938, 238.9487
191.2759, 238.4087
191.7580, 237.4873
192.2401, 235.9173
192.7223, 233.8675
193.2044, 231.7977
193.6865, 229.6927
194.1686, 227.5172
194.6507, 225.3700
195.1328, 223.2336
195.6150, 220.6172
196.0971, 217.2226
196.5792, 213.3144
197.0613, 209.9181
197.5434, 207.0724
198.0255, 204.5722
198.5077, 202.5422
198.9898, 201.0146
199.4719, 198.8591
199.9540, 195.4993
200.4361, 191.2855
200.9182, 188.1778
201.4004, 186.4394
201.8825, 185.0694
202.3646, 183.0022
202.8467, 180.1618
203.3288, 177.4352
203.8109, 175.0312
204.2931, 172.9292
204.7752, 170.9983
205.2573, 169.3050
205.7394, 167.6254
206.2215, 165.6210
206.7036, 163.1907
207.1858, 161.0714
207.6679, 159.4967
208.1500, 158.4331
208.6321, 157.3886
209.1142, 156.3711
209.5963, 155.3574
210.0785, 154.2958
210.5606, 153.1528
211.0427, 152.1136
211.5248, 151.2266
212.0069, 150.4896
212.4890, 149.7775
212.9712, 149.0398
213.4533, 148.4040
213.9354, 148.0653
214.4175, 148.1406
214.8996, 148.1535
215.3817, 148.0049
215.8639, 147.6962
216.3460, 147.2347
216.8281, 146.5455
217.3102, 145.7982
217.7923, 145.1476
218.2744, 144.5104
218.7565, 144.1918
219.2387, 144.4333
219.7208, 145.2628
220.2029, 145.4553
220.6850, 144.7683
221.1671, 143.7290
221.6492, 142.9168
222.1314, 142.3944
222.6135, 141.9401
223.0956, 141.5193
223.5777, 141.1263
224.0598, 140.7896
224.5419, 140.5643
225.0241, 140.3321
225.5062, 139.9556
225.9883, 139.3872
226.4704, 138.7760
226.9525, 138.1541
227.4346, 137.5118
227.9168, 136.8947
228.3989, 136.3301
228.8810, 135.7622
229.3631, 135.0950
229.8452, 134.0980
230.3273, 133.4666
230.8095, 133.5112
231.2916, 134.2749
231.7737, 134.4823
232.2558, 133.9042
232.7379, 133.0094
233.2200, 132.2546
233.7022, 131.6564
234.1843, 131.1693
234.6664, 130.8053
235.1485, 130.5683
235.6306, 130.3564
236.1127, 130.1655
236.5949, 130.0005
237.0770, 129.8777
237.5591, 129.8580
238.0412, 129.7606
238.5233, 129.5385
239.0054, 129.1906
239.4876, 128.8689
239.9697, 128.7031
240.4518, 128.4234
240.9339, 127.7325
241.4160, 126.2847
241.8981, 125.1241
242.3803, 124.5568
242.8624, 124.5554
243.3445, 124.1804
243.8266, 123.1593
244.3087, 122.0688
244.7908, 121.4063
245.2730, 121.4039
245.7551, 121.3655
246.2372, 121.2077
246.7193, 120.9318
247.2014, 120.5558
247.6835, 120.0323
248.1657, 119.4667
248.6478, 118.9304
249.1299, 118.3722
249.6120, 117.9551
250.0941, 117.7740
250.5762, 117.7820
251.0584, 117.5846
251.5405, 117.0918
252.0226, 116.5191
252.5047, 116.0190
252.9868, 115.6119
253.4689, 115.2382
253.9511, 114.9564
254.4332, 114.7171
254.9153, 114.1781
255.3974, 113.0578
255.8795, 112.0773
256.3616, 111.7763
256.8438, 112.5186
257.3259, 112.9608
257.8080, 112.8498
258.2901, 112.3745
258.7722, 112.3400
259.2543, 113.0747
259.7365, 113.6946
260.2186, 113.6371
260.7007, 112.5878
261.1828, 111.8193
261.6649, 111.5060
262.1470, 111.4799
262.6292, 111.2052
263.1113, 110.5613
263.5934, 109.9112
264.0755, 109.4074
264.5576, 109.0158
265.0397, 108.9134
265.5219, 109.2449
266.0040, 109.7758
266.4861, 109.9395
266.9682, 109.6089
267.4503, 109.2281
267.9324, 108.9949
268.4146, 108.9250
268.8967, 108.9213
269.3788, 108.9863
269.8609, 109.1174
270.3430, 109.3349
270.8251, 109.6808
271.3073, 109.9747
271.7894, 110.1515
272.2715, 110.2141
272.7536, 110.1143
273.2357, 109.7896
273.7178, 109.3919
274.2000, 109.1346
274.6821, 109.0246
275.1642, 109.0289
275.6463, 109.1602
276.1284, 109.4180
276.6105, 109.6939
277.0927, 110.0284
277.5748, 110.2919
278.0569, 110.2935
278.5390, 110.0095
279.0211, 109.6572
279.5032, 109.2043
279.9854, 108.7054
280.4675, 108.6884
280.9496, 109.2517
281.4317, 109.9723
281.9138, 110.3853
282.3959, 110.4794
282.8781, 110.6062
283.3602, 110.9243
283.8423, 111.3364
284.3244, 111.3159
284.8065, 110.7893
285.2886, 110.2912
285.7708, 110.3971
286.2529, 111.0702
286.7350, 111.6273
287.2171, 111.9154
287.6992, 112.0027
288.1813, 111.9917
288.6635, 111.8681
289.1456, 111.8838
289.6277, 112.4508
290.1098, 113.4391
290.5919, 113.8805
291.0740, 113.4329
291.5562, 112.6572
292.0383, 112.7044
292.5204, 113.5426
293.0025, 114.4971
293.4846, 115.2346
293.9667, 115.7536
294.4489, 115.9983
294.9310, 115.8979
295.4131, 115.6895
295.8952, 115.7379
296.3773, 116.0081
296.8594, 116.2675
297.3416, 116.2336
297.8237, 116.1121
298.3058, 116.4469
298.7879, 117.3439
299.2700, 118.3659
299.7521, 118.9164
300.2343, 119.1387
300.7164, 119.4641
301.1985, 120.1681
301.6806, 121.0855
302.1627, 121.9913
302.6448, 122.8913
303.1270, 123.6866
303.6091, 124.3482
304.0912, 124.8392
304.5733, 125.1147
305.0554, 124.8042
305.5375, 124.4541
306.0197, 124.7974
306.5018, 125.7947
306.9839, 126.7985
307.4660, 127.1728
307.9481, 127.2817
308.4302, 127.6544
308.9124, 128.7287
309.3945, 129.8627
309.8766, 130.5114
310.3587, 130.7443
310.8408, 130.8924
311.3229, 131.0843
311.8051, 131.3249
312.2872, 131.6249
312.7693, 132.0405
313.2514, 132.4294
313.7335, 132.7239
314.2156, 132.9293
314.6978, 133.0669
315.1799, 133.0057
315.6620, 132.9678
316.1441, 133.1474
316.6262, 133.6763
317.1083, 134.1469
317.5905, 134.1929
318.0726, 134.0816
318.5547, 134.2833
319.0368, 135.6255
319.5189, 136.7933
320.0010, 136.9874
320.4832, 135.9236
320.9653, 135.0279
321.4474, 134.7606
321.9295, 134.8549
322.4116, 134.9989
322.8937, 135.3568
323.3759, 135.5340
323.8580, 135.3299
324.3401, 134.7196
324.8222, 134.2144
325.3043, 133.8237
325.7864, 133.6020
326.2686, 133.5911
326.7507, 134.1404
327.2328, 134.5184
327.7149, 134.6176
328.1970, 134.4479
328.6791, 134.1462
329.1613, 133.5444
329.6434, 132.9471
330.1255, 132.5126
330.6076, 132.4314
331.0897, 132.2346
331.5718, 131.8638
332.0540, 131.3728
332.5361, 130.9259
333.0182, 130.6475
333.5003, 130.2422
333.9824, 129.5383
334.4645, 128.3212
334.9467, 127.4679
335.4288, 127.1245
335.9109, 127.0480
336.3930, 126.8423
336.8751, 126.4291
337.3572, 126.0762
337.8394, 125.9416
338.3215, 126.0526
338.8036, 125.7213
339.2857, 124.7771
339.7678, 123.6850
340.2499, 122.9473
340.7320, 122.6302
341.2141, 122.3520
341.6963, 122.0482
342.1784, 121.7174
342.6605, 121.3588
343.1426, 120.9760
343.6247, 120.5602
344.1068, 120.0665
344.5890, 119.5076
345.0711, 119.0702
345.5532, 118.8301
346.0353, 118.6622
346.5174, 118.2100
346.9995, 117.4768
347.4817, 116.9468
347.9638, 117.1375
348.4459, 117.8051
348.9280, 118.0452
349.4101, 117.7578
349.8922, 117.1885
350.3744, 116.5069
350.8565, 115.7731
351.3386, 115.2069
351.8207, 114.9504
352.3028, 114.9223
352.7849, 115.1078
353.2671, 115.5132
353.7492, 115.7375
354.2313, 115.2451
354.7134, 114.3610
355.1955, 113.6537
355.6776, 113.4569
356.1598, 113.3889
356.6419, 112.9777
357.1240, 112.3165
357.6061, 111.9033
358.0882, 112.2044
358.5703, 112.8251
359.0525, 113.4136
359.5346, 113.9832
360.0167, 114.3263
360.4988, 114.2045
360.9809, 113.7612
361.4630, 113.3118
361.9452, 112.8770
362.4273, 112.5510
362.9094, 112.4432
363.3915, 112.6330
363.8736, 112.7097
364.3557, 112.3564
364.8379, 111.8765
365.3200, 111.6269
365.8021, 111.8057
366.2842, 112.1081
366.7663, 112.5888
367.2484, 113.2515
367.7306, 113.5354
368.2127, 113.0759
368.6948, 112.4065
369.1769, 111.8770
369.6590, 111.2484
370.1411, 111.0855
370.6233, 111.7930
371.1054, 113.0475
371.5875, 113.5774
372.0696, 112.7265
372.5517, 111.9450
373.0338, 111.9243
373.5160, 113.1495
373.9981, 113.6929
374.4802, 113.2029
374.9623, 112.3171
375.4444, 112.1085
375.9265, 112.8210
376.4087, 113.5290
376.8908, 113.9594
377.3729, 114.1229
377.8550, 114.3064
378.3371, 114.5529
378.8192, 114.7003
379.3014, 114.4558
379.7835, 113.7849
380.2656, 113.4876
380.7477, 113.8257
381.2298, 114.5260
381.7119, 114.8897
382.1941, 114.9071
382.6762, 114.8909
383.1583, 115.1181
383.6404, 115.4986
384.1225, 115.6293
384.6046, 115.4196
385.0868, 115.1456
385.5689, 115.1354
386.0510, 115.3560
386.5331, 115.6788
387.0152, 116.2550
387.4973, 116.8140
387.9795, 116.8632
388.4616, 116.4011
388.9437, 115.9472
389.4258, 115.9702
389.9079, 116.2404
390.3900, 116.4258
390.8722, 116.3538
391.3543, 116.2511
391.8364, 116.2890
392.3185, 116.4367
392.8006, 116.5795
393.2827, 116.7577
393.7649, 116.8486
394.2470, 116.6730
394.7291, 115.9801
395.2112, 115.6439
395.6933, 116.3898
396.1754, 117.5928
396.6576, 118.3186
397.1397, 117.7574
397.6218, 117.2377
398.1039, 117.1930
398.5860, 117.6742
399.0681, 118.2558
399.5503, 119.1787
400.0324, 120.0206
400.5145, 120.4562
400.9966, 120.0081
401.4787, 119.8389
401.9608, 120.2124
402.4430, 120.9415
402.9251, 121.2517
403.4072, 120.7966
403.8893, 120.4517
404.3714, 120.6697
404.8535, 121.6421
405.3357, 122.3976
405.8178, 122.9380
406.2999, 123.2484
406.7820, 123.1839
407.2641, 122.6347
407.7462, 122.3461
408.2284, 122.5884
408.7105, 123.2701
409.1926, 124.0319
409.6747, 124.9017
410.1568, 125.6515
410.6389, 125.9507
411.1211, 125.9011
411.6032, 126.1388
412.0853, 126.8582
412.5674, 127.7321
413.0495, 128.2296
413.5316, 128.4298
414.0138, 128.7197
414.4959, 129.4391
414.9780, 130.3416
415.4601, 130.9756
415.9422, 131.3006
416.4243, 131.7218
416.9065, 132.7404
417.3886, 134.0327
417.8707, 135.0900
418.3528, 135.3971
418.8349, 135.7480
419.3170, 136.7044
419.7992, 138.1767
420.2813, 139.6838
420.7634, 140.9765
421.2455, 142.2863
421.7276, 143.7851
422.2097, 145.6063
422.6919, 147.3884
423.1740, 149.1257
423.6561, 150.7566
424.1382, 152.2298
424.6203, 153.2231
425.1024, 154.3334
425.5846, 155.7694
426.0667, 157.5484
426.5488, 159.2245
427.0309, 160.4698
427.5130, 161.9206
427.9951, 164.1266
428.4773, 167.7692
428.9594, 170.6264
429.4415, 172.2114
429.9236, 173.0706
430.4057, 174.6387
430.8878, 177.0480
431.3700, 179.7469
431.8521, 182.5948
432.3342, 185.5933
432.8163, 188.3676
433.2984, 190.8872
433.7805, 193.2973
434.2627, 195.7612
434.7448, 198.2705
435.2269, 200.7641
435.7090, 203.3873
436.1911, 205.8610
436.6732, 207.4625
437.1554, 208.2847
437.6375, 209.0231
438.1196, 210.0278
438.6017, 211.2790
439.0838, 212.8445
439.5659, 214.8096
440.0480, 216.6737
440.5302, 218.0555
441.0123, 219.0600
441.4944, 219.8638
441.9765, 220.4202
442.4586, 220.8990
442.9407, 221.3299
443.4229, 221.7362
443.9050, 222.3112
444.3871, 223.3201
444.8692, 224.3984
445.3513, 225.3019
445.8334, 225.9137
446.3156, 226.4941
446.7977, 227.0142
447.2798, 227.5397
447.7619, 228.1860
448.2440, 229.0374
448.7261, 229.9198
449.2083, 230.7638
449.6904, 231.5637
450.1725, 232.5163
450.6546, 233.6982
451.1367, 234.9231
451.6188, 236.0943
452.1010, 237.3018
452.5831, 238.1617
453.0652, 238.6253
453.5473, 238.7604
454.0294, 238.6813
454.5115, 238.3681
454.9937, 237.9990
455.4758, 237.6723
455.9579, 237.3618
456.4400, 236.9624
456.9221, 236.4840
457.4042, 235.7808
457.8864, 234.6728
458.3685, 233.2190
458.8506, 231.5218
459.3327, 229.5139
459.8148, 227.4489
460.2969, 225.6258
460.7791, 223.9895
461.2612, 222.4170
461.7433, 221.0904
462.2254, 219.6363
462.7075, 217.6227
463.1896, 214.9402
463.6718, 212.3878
464.1539, 210.6479
464.6360, 209.1462
465.1181, 207.3400
465.6002, 204.7917
466.0823, 202.2447
466.5645, 199.7051
467.0466, 197.2801
467.5287, 195.3748
468.0108, 194.7617
468.4929, 194.0111
468.9750, 192.5459
469.4572, 190.1044
469.9393, 187.9139
470.4214, 185.9557
470.9035, 184.2812
471.3856, 182.9940
471.8677, 182.2089
472.3499, 181.4574
472.8320, 180.7065
473.3141, 179.8990
473.7962, 178.7798
474.2783, 177.3140
474.7604, 175.7992
475.2426, 174.4449
475.7247, 173.2042
476.2068, 171.7529
476.6889, 170.0248
477.1710, 168.4008
477.6531, 167.4150
478.1353, 166.8826
478.6174, 166.2838
479.0995, 165.3572
479.5816, 164.3915
480.0637, 163.8277
480.5458, 163.5412
481.0280, 163.0803
481.5101, 161.8966
481.9922, 160.6159
482.4743, 159.8097
482.9564, 159.6248
483.4385, 159.3959
483.9207, 158.6133
484.4028, 157.7528
484.8849, 157.3166
485.3670, 157.9544
485.8491, 158.4255
486.3312, 158.5452
486.8134, 158.3207
487.2955, 157.8149
487.7776, 156.8227
488.2597, 155.8154
488.7418, 154.9196
489.2239, 154.0780
489.7061, 153.7349
490.1882, 154.1229
490.6703, 154.6671
491.1524, 154.7095
491.6345, 154.1902
492.1166, 153.5528
492.5988, 152.7472
493.0809, 151.9880
493.5630, 151.9465
494.0451, 152.6004
494.5272, 153.3074
495.0093, 153.8165
495.4915, 154.0846
495.9736, 153.9764
496.4557, 153.4767
496.9378, 152.7969
497.4199, 151.8034
497.9020, 150.8324
498.3842, 150.4579
498.8663, 151.1956
499.3484, 152.0732
499.8305, 152.5845
500.3126, 152.7662
500.7947, 152.7098
501.2769, 151.9980
501.7590, 151.4444
502.2411, 151.5879
502.7232, 152.6184
503.2053, 153.2210
503.6874, 153.0014
504.1696, 152.4218
504.6517, 151.7917
505.1338, 150.9310
505.6159, 150.3280
506.0980, 150.0047
506.5801, 149.9586
507.0623, 150.2764
507.5444, 151.1363
508.0265, 151.7905
508.5086, 151.9048
508.9907, 151.5517
509.4728, 151.3430
509.9550, 151.2977
510.4371, 151.2563
510.9192, 151.1082
511.4013, 150.8533
511.8834, 150.4160
512.3655, 149.6835
512.8477, 149.0962
513.3298, 149.4103
513.8119, 150.2813
514.2940, 150.8867
514.7761, 150.5408
515.2582, 150.0290
515.7404, 149.9301
516.2225, 150.2158
516.7046, 150.6084
517.1867, 151.2666
517.6688, 151.7942
518.1509, 151.8830
518.6331, 151.2642
519.1152, 150.7588
519.5973, 150.4258
520.0794, 150.3041
520.5615, 150.4460
521.0436, 151.0422
521.5258, 151.6230
522.0079, 152.2801
522.4900, 152.8783
522.9721, 152.5617
523.4542, 150.9264
523.9363, 149.5799
524.4185, 149.6356
524.9006, 151.0817
525.3827, 151.6371
525.8648, 151.1929
526.3469, 150.4448
526.8290, 150.0691
527.3112, 150.0207
527.7933, 150.1382
528.2754, 150.4572
528.7575, 150.7954
529.2396, 150.8940
529.7217, 150.8282
530.2039, 150.8152
530.6860, 151.1079
531.1681, 151.3871
531.6502, 151.3256
532.1323, 150.9197
532.6144, 150.7075
533.0966, 151.2505
533.5787, 151.8335
534.0608, 151.9120
534.5429, 150.7128
535.0250, 150.1338
535.5071, 150.8337
535.9893, 152.0465
536.4714, 152.6484
536.9535, 152.3419
537.4356, 151.9989
537.9177, 151.8096
538.3998, 151.7422
538.8820, 151.6303
539.3641, 151.4936
539.8462, 151.2371
540.3283, 150.7247
540.8104, 150.0089
541.2925, 149.4688
541.7747, 149.1424
542.2568, 148.8604
542.7389, 148.2948
543.2210, 147.6376
543.7031, 147.4076
544.1852, 148.0565
544.6674, 148.6839
545.1495, 148.3487
545.6316, 147.3357
546.1137, 146.3558
546.5958, 145.7396
547.0779, 145.2341
547.5601, 144.6724
548.0422, 144.0413
548.5243, 143.5920
549.0064, 143.6364
549.4885, 143.6941
549.9706, 143.4504
550.4528, 142.6361
550.9349, 142.0155
551.4170, 141.5892
551.8991, 141.3412
552.3812, 141.3133
552.8633, 141.6094
553.3455, 141.6850
553.8276, 141.3526
554.3097, 140.7416
554.7918, 140.2361
555.2739, 139.8448
555.7560, 139.5415
556.2382, 139.4116
556.7203, 139.3434
557.2024, 139.0376
557.6845, 138.4748
558.1666, 137.9326
558.6487, 137.5902
559.1309, 137.4277
559.6130, 137.4539
560.0951, 137.7952
560.5772, 138.0780
561.0593, 138.1175
561.5414, 137.9781
562.0236, 137.7749
562.5057, 137.2627
562.9878, 136.9696
563.4699, 137.0935
563.9520, 137.5981
564.4341, 138.1865
564.9163, 139.0768
565.3984, 139.7406
565.8805, 139.8610
566.3626, 139.3252
566.8447, 138.8902
567.3268, 138.5190
567.8090, 138.3296
568.2911, 138.5210
568.7732, 139.0584
569.2553, 139.6589
569.7374, 140.3668
570.2195, 140.9136
570.7017, 140.6653
571.1838, 139.9044
571.6659, 139.5269
572.1480, 140.4225
572.6301, 141.5556
573.1122, 141.9401
573.5944, 141.6657
574.0765, 141.6058
574.5586, 142.3763
575.0407, 143.3093
575.5228, 144.0280
576.0049, 144.4692
576.4871, 144.7248
576.9692, 144.6165
577.4513, 144.4490
577.9334, 144.4943
578.4155, 144.7579
578.8976, 145.2429
579.3798, 146.0240
579.8619, 146.9702
580.3440, 147.8313
580.8261, 148.6272
581.3082, 149.0536
581.7903, 148.6973
582.2725, 147.9548
582.7546, 148.1102
583.2367, 149.1011
583.7188, 150.1425
584.2009, 150.4547
584.6830, 150.5500
585.1652, 151.1769
585.6473, 152.5130
586.1294, 153.8319
586.6115, 154.5472
587.0936, 155.1036
587.5757, 155.9603
588.0578, 157.6871
588.5399, 159.1856
589.0220, 160.2226
589.5042, 160.8924
589.9863, 161.3879
590.4684, 161.3118
590.9505, 161.7197
591.4326, 163.0872
591.9147, 165.2543
592.3969, 166.7005
592.8790, 167.2623
593.3611, 167.8089
593.8432, 168.9518
594.3253, 170.5741
594.8074, 172.2115
595.2896, 173.8660
595.7717, 175.3454
596.2538, 176.2325
596.7359, 176.8584
597.2180, 177.8396
597.7001, 179.3879
598.1823, 181.1568
598.6644, 182.9532
599.1465, 184.8019
599.6286, 186.7529
600.1107, 188.6595
600.5928, 190.8113
601.0750, 193.5566
601.5571, 196.7560
602.0392, 199.3443
602.5213, 200.8501
603.0034, 202.3938
603.4855, 204.4090
603.9677, 206.9421
604.4498, 209.5355
604.9319, 212.2274
605.4140, 214.9166
605.8961, 217.5356
606.3782, 220.0762
606.8604, 222.1357
607.3425, 223.5579
607.8246, 224.9919
608.3067, 227.2056
608.7888, 230.0104
609.2709, 232.9802
609.7531, 236.2868
610.2352, 239.3174
610.7173, 241.5338
611.1994, 243.1621
611.6815, 244.8375
612.1636, 247.3119
612.6458, 249.3684
613.1279, 250.4751
613.6100, 250.5694
614.0921, 250.5637
614.5742, 250.4184
615.0563, 250.2309
615.5385, 250.2651
616.0206, 250.7926
616.5027, 249.7487
616.9848, 246.8166
617.4669, 243.2828
617.9490, 240.6370
618.4312, 238.7339
618.9133, 236.9383
619.3954, 235.1541
619.8775, 233.2947
