##NAMES=Alum-(K)
##RRUFFID=R060528
##IDEAL CHEMISTRY=KAl(S^6+^O_4_)_2_&#183;12H_2_O
##LOCALITY=El Desierto mine fumaroles, Potos√≠, Bolivia
##OWNER=Michael Scott
##SOURCE=Michael Scott
##DESCRIPTION=Colorless thin tabular crystals associated with yellow sulfur and colorless tamarugite
##STATUS=The identification of this mineral has been confirmed by single-crystal X-ray diffraction.
##URL=rruff.info/R060528
148.039, 83539.203
148.522, 83711.812
149.004, 83805.609
149.486, 83734.438
149.968, 83633.961
150.450, 83610.609
150.932, 83780.672
151.414, 83914.883
151.896, 83976.508
152.378, 83956.812
152.861, 83934.594
153.343, 83910.078
153.825, 83894.906
154.307, 83902.141
154.789, 83964.773
155.271, 84031.953
155.753, 84075.859
156.235, 84050.102
156.717, 84109.094
157.200, 84348.273
157.682, 84692.922
158.164, 84977.273
158.646, 85078.430
159.128, 85154.000
159.610, 85288.750
160.092, 85534.578
160.574, 85781.242
161.057, 85987.156
161.539, 86154.594
162.021, 86310.398
162.503, 86466.172
162.985, 86607.938
163.467, 86724.727
163.949, 86782.688
164.431, 86836.219
164.913, 86918.406
165.396, 87029.031
165.878, 87128.227
166.360, 87197.609
166.842, 87246.500
167.324, 87286.594
167.806, 87328.281
168.288, 87365.453
168.770, 87398.383
169.253, 87430.633
169.735, 87451.352
170.217, 87438.406
170.699, 87410.406
171.181, 87403.094
171.663, 87477.578
172.145, 87564.859
172.627, 87567.227
173.109, 87429.633
173.592, 87321.023
174.074, 87448.969
174.556, 87757.391
175.038, 88032.344
175.520, 88083.906
176.002, 88027.641
176.484, 88056.047
176.966, 88247.820
177.449, 88485.000
177.931, 88624.383
178.413, 88671.172
178.895, 88689.781
179.377, 88726.000
179.859, 88771.352
180.341, 88803.039
180.823, 88788.953
181.305, 88771.398
181.788, 88841.688
182.270, 89001.781
182.752, 89169.406
183.234, 89253.523
183.716, 89271.250
184.198, 89290.898
184.680, 89341.867
185.162, 89412.859
185.645, 89480.344
186.127, 89544.289
186.609, 89596.859
187.091, 89615.211
187.573, 89603.312
188.055, 89603.867
188.537, 89651.758
189.019, 89733.820
189.501, 89786.812
189.984, 89805.977
190.466, 89802.727
190.948, 89791.070
191.430, 89771.438
191.912, 89753.078
192.394, 89731.203
192.876, 89709.773
193.358, 89731.406
193.840, 89812.781
194.323, 89926.094
194.805, 90004.023
195.287, 90041.719
195.769, 90085.898
196.251, 90193.953
196.733, 90370.477
197.215, 90467.602
197.697, 90422.367
198.180, 90300.227
198.662, 90357.578
199.144, 90626.922
199.626, 90946.406
200.108, 91160.109
200.590, 91254.188
201.072, 91381.922
201.554, 91594.898
202.036, 91873.906
202.519, 92068.133
203.001, 92147.992
203.483, 92205.844
203.965, 92354.727
204.447, 92615.602
204.929, 92844.594
205.411, 92992.969
205.893, 93059.633
206.376, 93107.562
206.858, 93129.906
207.340, 93140.102
207.822, 93167.719
208.304, 93231.008
208.786, 93251.953
209.268, 93198.750
209.750, 93064.781
210.232, 92927.023
210.715, 92782.594
211.197, 92644.867
211.679, 92542.977
212.161, 92498.641
212.643, 92445.938
213.125, 92353.070
213.607, 92202.633
214.089, 92083.352
214.572, 91994.594
215.054, 91936.977
215.536, 91917.000
216.018, 91951.633
216.500, 91982.359
216.982, 91967.680
217.464, 91872.508
217.946, 91830.547
218.428, 91868.352
218.911, 91954.750
219.393, 91983.227
219.875, 91925.797
220.357, 91853.047
220.839, 91808.930
221.321, 91807.906
221.803, 91802.953
222.285, 91793.578
222.768, 91780.930
223.250, 91762.180
223.732, 91732.773
224.214, 91710.227
224.696, 91708.938
225.178, 91740.750
225.660, 91772.617
226.142, 91797.469
226.624, 91817.172
227.107, 91854.227
227.589, 91915.859
228.071, 91983.781
228.553, 92039.523
229.035, 92065.352
229.517, 92108.938
229.999, 92176.969
230.481, 92268.133
230.964, 92378.727
231.446, 92533.383
231.928, 92683.406
232.410, 92779.828
232.892, 92797.797
233.374, 92809.344
233.856, 92827.047
234.338, 92851.578
234.820, 92879.633
235.303, 92905.422
235.785, 92941.742
236.267, 93002.531
236.749, 93089.406
237.231, 93201.969
237.713, 93349.977
238.195, 93545.398
238.677, 93703.383
239.159, 93815.797
239.642, 93898.656
240.124, 93966.344
240.606, 93989.852
241.088, 94051.008
241.570, 94189.727
242.052, 94440.109
242.534, 94610.477
243.016, 94667.641
243.499, 94663.383
243.981, 94683.078
244.463, 94768.922
244.945, 94801.617
245.427, 94720.562
245.909, 94471.703
246.391, 94309.352
246.873, 94298.227
247.355, 94333.508
247.837, 94214.594
248.320, 93843.781
248.802, 93479.117
249.284, 93224.180
249.766, 93138.461
250.248, 92982.977
250.730, 92735.789
251.212, 92434.297
251.695, 92157.258
252.177, 91921.094
252.659, 91689.883
253.141, 91447.258
253.623, 91183.461
254.105, 90955.641
254.587, 90771.117
255.069, 90622.148
255.551, 90487.188
256.034, 90361.492
256.516, 90262.344
256.998, 90199.227
257.480, 90181.359
257.962, 90171.367
258.444, 90168.180
258.926, 90168.500
259.408, 90163.781
259.890, 90140.648
260.373, 90128.633
260.855, 90144.500
261.337, 90200.227
261.819, 90235.344
262.301, 90230.047
262.783, 90208.156
263.265, 90239.797
263.747, 90343.133
264.229, 90459.453
264.712, 90566.188
265.194, 90668.570
265.676, 90735.477
266.158, 90753.508
266.640, 90741.156
267.122, 90748.812
267.604, 90783.633
268.086, 90826.633
268.569, 90873.141
269.051, 90930.703
269.533, 90966.961
270.015, 90975.992
270.497, 90968.141
270.979, 90967.039
271.461, 90971.453
271.943, 90991.742
272.426, 91036.141
272.908, 91107.523
273.390, 91192.242
273.872, 91293.930
274.354, 91404.453
274.836, 91508.680
275.318, 91615.367
275.800, 91684.570
276.282, 91678.727
276.764, 91588.328
277.247, 91508.141
277.729, 91446.562
278.211, 91395.289
278.693, 91332.023
279.175, 91254.406
279.657, 91168.773
280.139, 91087.977
280.621, 91012.297
281.104, 90875.539
281.586, 90635.844
282.068, 90369.578
282.550, 90287.898
283.032, 90414.680
283.514, 90509.961
283.996, 90394.500
284.478, 90081.000
284.961, 89801.539
285.443, 89581.469
285.925, 89406.648
286.407, 89250.391
286.889, 89112.352
287.371, 89002.219
287.853, 88947.867
288.335, 88938.562
288.817, 88885.039
289.299, 88762.492
289.782, 88618.531
290.264, 88550.172
290.746, 88553.023
291.228, 88549.492
291.710, 88464.703
292.192, 88325.023
292.674, 88259.227
293.156, 88304.391
293.639, 88372.547
294.121, 88307.953
294.603, 88126.320
295.085, 87946.727
295.567, 87853.594
296.049, 87820.773
296.531, 87776.359
297.013, 87713.789
297.496, 87642.883
297.978, 87572.070
298.460, 87503.711
298.942, 87445.062
299.424, 87382.508
299.906, 87335.789
300.388, 87349.602
300.870, 87440.656
301.352, 87545.344
301.835, 87573.859
302.317, 87548.328
302.799, 87546.047
303.281, 87635.617
303.763, 87759.148
304.245, 87829.562
304.727, 87825.859
305.209, 87811.117
305.691, 87830.602
306.174, 87881.289
306.656, 87957.844
307.138, 88128.227
307.620, 88288.477
308.102, 88330.617
308.584, 88235.117
309.066, 88085.617
309.548, 87906.703
310.030, 87721.953
310.513, 87568.359
310.995, 87482.883
311.477, 87422.250
311.959, 87347.594
312.441, 87252.031
312.923, 87180.719
313.405, 87186.500
313.888, 87228.633
314.370, 87247.172
314.852, 87219.203
315.334, 87162.242
315.816, 87074.070
316.298, 86951.328
316.780, 86844.312
317.262, 86788.797
317.744, 86755.820
318.227, 86711.578
318.709, 86614.172
319.191, 86534.109
319.673, 86499.969
320.155, 86514.633
320.637, 86552.719
321.119, 86642.547
321.601, 86736.852
322.083, 86790.188
322.566, 86766.500
323.048, 86725.227
323.530, 86659.961
324.012, 86570.047
324.494, 86525.594
324.976, 86585.852
325.458, 86665.797
325.940, 86703.344
326.422, 86649.094
326.905, 86597.930
327.387, 86546.797
327.869, 86497.820
328.351, 86495.273
328.833, 86603.383
329.315, 86710.758
329.797, 86750.852
330.279, 86665.922
330.762, 86598.023
331.244, 86564.227
331.726, 86558.398
332.208, 86545.188
332.690, 86521.539
333.172, 86495.883
333.654, 86473.773
334.136, 86461.688
334.618, 86440.500
335.101, 86400.422
335.583, 86354.547
336.065, 86345.656
336.547, 86389.742
337.029, 86438.094
337.511, 86465.477
337.993, 86465.453
338.475, 86462.117
338.957, 86452.531
339.440, 86438.781
339.922, 86433.297
340.404, 86442.109
340.886, 86426.602
341.368, 86357.797
341.850, 86231.992
342.332, 86135.406
342.815, 86076.953
343.297, 86030.047
343.779, 85937.602
344.261, 85800.156
344.743, 85704.773
345.225, 85712.156
345.707, 85802.383
346.189, 85856.117
346.671, 85868.406
347.154, 85873.023
347.636, 85907.023
348.118, 85965.602
348.600, 86027.477
349.082, 86066.148
349.564, 86103.859
350.046, 86217.430
350.528, 86406.219
351.010, 86558.922
351.493, 86524.023
351.975, 86374.844
352.457, 86285.789
352.939, 86358.148
353.421, 86471.859
353.903, 86487.469
354.385, 86412.992
354.867, 86305.289
355.349, 86161.523
355.832, 86025.078
356.314, 85960.742
356.796, 86039.961
357.278, 86119.383
357.760, 86077.773
358.242, 85944.680
358.724, 85817.828
359.206, 85735.047
359.689, 85686.023
360.171, 85665.133
360.653, 85678.211
361.135, 85701.578
361.617, 85714.523
362.099, 85728.812
362.581, 85769.750
363.063, 85892.648
363.546, 86004.453
364.028, 86055.180
364.510, 86022.172
364.992, 85981.852
365.474, 85967.719
365.956, 85951.727
366.438, 85895.094
366.920, 85697.297
367.402, 85552.797
367.884, 85544.977
368.367, 85718.406
368.849, 85802.922
369.331, 85689.320
369.813, 85544.289
370.295, 85526.578
370.777, 85766.477
371.259, 85947.203
371.741, 86000.367
372.224, 85931.703
372.706, 85896.367
373.188, 85912.539
373.670, 85935.359
374.152, 85919.883
374.634, 85828.344
375.116, 85806.359
375.598, 85894.102
376.081, 86053.383
376.563, 86153.047
377.045, 86185.180
377.527, 86181.953
378.009, 86160.328
378.491, 86121.609
378.973, 86064.156
379.455, 85982.648
379.937, 85896.117
380.419, 85833.828
380.902, 85798.203
381.384, 85786.562
381.866, 85809.367
382.348, 85861.031
382.830, 85909.867
383.312, 85956.250
383.794, 86000.094
384.276, 86038.703
384.759, 86072.648
385.241, 86103.867
385.723, 86119.562
386.205, 86134.961
386.687, 86173.883
387.169, 86233.930
387.651, 86303.000
388.133, 86375.156
388.616, 86445.531
389.098, 86508.656
389.580, 86555.781
390.062, 86598.570
390.544, 86668.891
391.026, 86752.930
391.508, 86787.344
391.990, 86676.000
392.472, 86540.383
392.955, 86491.680
393.437, 86623.102
393.919, 86718.070
394.401, 86636.289
394.883, 86460.312
395.365, 86363.703
395.847, 86480.406
396.329, 86616.008
396.811, 86688.430
397.294, 86678.141
397.776, 86641.562
398.258, 86528.969
398.740, 86409.617
399.222, 86371.367
399.704, 86495.773
400.186, 86607.906
400.668, 86666.367
401.151, 86666.281
401.633, 86696.883
402.115, 86792.273
402.597, 86885.602
403.079, 86911.133
403.561, 86812.453
404.043, 86796.852
404.525, 86926.180
405.008, 87156.547
405.490, 87289.008
405.972, 87303.539
406.454, 87286.406
406.936, 87268.906
407.418, 87247.922
407.900, 87303.172
408.382, 87453.094
408.864, 87652.641
409.346, 87834.156
409.829, 87998.617
410.311, 88144.094
410.793, 88253.727
411.275, 88345.953
411.757, 88469.406
412.239, 88621.977
412.721, 88824.406
413.203, 89130.438
413.686, 89504.883
414.168, 89856.219
414.650, 90110.180
415.132, 90361.039
415.614, 90744.703
416.096, 91240.031
416.578, 91722.523
417.060, 92057.438
417.543, 92354.617
418.025, 92725.922
418.507, 93214.773
418.989, 93747.000
419.471, 94250.812
419.953, 94765.773
420.435, 95371.820
420.917, 96209.594
421.399, 97068.547
421.882, 97835.297
422.364, 98464.227
422.846, 99128.430
423.328, 99887.273
423.810, 100696.297
424.292, 101501.000
424.774, 102333.703
425.256, 103132.398
425.738, 103876.297
426.221, 104556.797
426.703, 105301.000
427.185, 106175.703
427.667, 107040.000
428.149, 107772.102
428.631, 108303.500
429.113, 108888.297
429.595, 109597.602
430.078, 110345.203
430.560, 110937.102
431.042, 111395.000
431.524, 111599.000
432.006, 111453.203
432.488, 110961.602
432.970, 110318.602
433.452, 109532.398
433.934, 108584.000
434.417, 107373.203
434.899, 105936.898
435.381, 104537.203
435.863, 103317.000
436.345, 102180.398
436.827, 100910.203
437.309, 99506.547
437.791, 98137.633
438.273, 96891.672
438.756, 95762.461
439.238, 94742.109
439.720, 93834.289
440.202, 93022.953
440.684, 92302.828
441.166, 91668.711
441.648, 91105.523
442.130, 90644.758
442.612, 90228.594
443.095, 89829.750
443.577, 89443.617
444.059, 89067.062
444.541, 88655.977
445.023, 88268.922
445.505, 87975.094
445.987, 87863.672
446.470, 87774.508
446.952, 87695.242
447.434, 87625.617
447.916, 87491.172
448.398, 87222.828
448.880, 86956.906
449.362, 86779.469
449.844, 86737.406
450.326, 86684.227
450.809, 86606.930
451.291, 86515.453
451.773, 86438.273
452.255, 86379.570
452.737, 86313.312
453.219, 86218.297
453.701, 86094.156
454.183, 86006.453
454.665, 85954.547
455.148, 85933.508
455.630, 85953.898
456.112, 86008.391
456.594, 86050.211
457.076, 86081.156
457.558, 86079.648
458.040, 85989.203
458.522, 85821.078
459.004, 85647.547
459.487, 85495.281
459.969, 85377.953
460.451, 85327.422
460.933, 85366.922
461.415, 85413.977
461.897, 85409.492
462.379, 85371.422
462.862, 85330.641
463.344, 85290.406
463.826, 85258.242
464.308, 85233.906
464.790, 85217.070
465.272, 85223.703
465.754, 85306.297
466.236, 85385.219
466.718, 85402.820
467.201, 85269.383
467.683, 85173.594
468.165, 85132.250
468.647, 85135.078
469.129, 85154.531
469.611, 85208.156
470.093, 85248.203
470.575, 85247.242
471.057, 85192.172
471.539, 85175.227
472.022, 85209.953
472.504, 85256.609
472.986, 85265.633
473.468, 85234.648
473.950, 85196.727
474.432, 85161.633
474.914, 85125.953
475.397, 85082.719
475.879, 85033.398
476.361, 84972.094
476.843, 84893.727
477.325, 84804.367
477.807, 84701.406
478.289, 84574.961
478.771, 84484.797
479.253, 84513.133
479.736, 84620.328
480.218, 84724.383
480.700, 84773.922
481.182, 84818.383
481.664, 84900.922
482.146, 85017.312
482.628, 85104.289
483.110, 85058.539
483.592, 85013.469
484.075, 85069.883
484.557, 85372.773
485.039, 85598.906
485.521, 85678.859
486.003, 85647.844
486.485, 85593.758
486.967, 85498.469
487.449, 85403.656
487.931, 85322.562
488.414, 85258.883
488.896, 85205.508
489.378, 85179.906
489.860, 85145.094
490.342, 85050.281
490.824, 84884.641
491.306, 84773.711
491.788, 84756.258
492.271, 84790.359
492.753, 84760.969
493.235, 84669.773
493.717, 84599.133
494.199, 84627.477
494.681, 84703.711
495.163, 84699.344
495.645, 84598.273
496.128, 84487.320
496.610, 84421.594
497.092, 84404.641
497.574, 84445.992
498.056, 84641.656
498.538, 84805.727
499.020, 84782.547
499.502, 84616.312
499.984, 84489.977
500.466, 84519.688
500.949, 84578.094
501.431, 84588.031
501.913, 84512.773
502.395, 84466.523
502.877, 84493.906
503.359, 84545.828
503.841, 84559.648
504.323, 84487.570
504.806, 84447.422
505.288, 84466.023
505.770, 84533.906
506.252, 84594.797
506.734, 84648.039
507.216, 84692.047
507.698, 84726.789
508.180, 84752.250
508.663, 84762.344
509.145, 84754.523
509.627, 84741.344
510.109, 84743.148
510.591, 84757.641
511.073, 84767.609
511.555, 84772.398
512.037, 84767.406
512.519, 84728.758
513.002, 84664.703
513.484, 84628.594
513.966, 84693.039
514.448, 84784.570
514.930, 84817.750
515.412, 84748.203
515.894, 84703.062
516.376, 84749.562
516.859, 84853.969
517.341, 84967.258
517.823, 85146.297
518.305, 85260.109
518.787, 85229.391
519.269, 85054.578
519.751, 84971.727
520.233, 85058.508
520.715, 85158.188
521.198, 85175.562
521.680, 85058.438
522.162, 85019.031
522.644, 85086.711
523.126, 85204.672
523.608, 85296.867
524.090, 85366.703
524.572, 85374.281
525.054, 85270.062
525.537, 85108.578
526.019, 85063.508
526.501, 85132.383
526.983, 85222.703
527.465, 85288.477
527.947, 85321.594
528.429, 85297.539
528.911, 85198.023
529.393, 85097.523
529.876, 85066.594
530.358, 85071.523
530.840, 85057.188
531.322, 84952.773
531.804, 84871.281
532.286, 84884.352
532.768, 84982.156
533.250, 85051.930
533.732, 85070.656
534.215, 85057.203
534.697, 85020.523
535.179, 84958.648
535.661, 84879.602
536.143, 84751.812
536.625, 84632.953
537.107, 84609.172
537.589, 84711.156
538.072, 84800.789
538.554, 84849.938
539.036, 84862.297
539.518, 84841.898
540.000, 84785.289
540.482, 84735.602
540.964, 84715.930
541.446, 84723.977
541.929, 84758.320
542.411, 84818.609
542.893, 84895.977
543.375, 84985.094
543.857, 85084.641
544.339, 85193.562
544.821, 85354.562
545.303, 85479.797
545.786, 85503.430
546.268, 85445.172
546.750, 85380.953
547.232, 85315.711
547.714, 85269.062
548.196, 85256.352
548.678, 85293.523
549.160, 85318.953
549.642, 85337.352
550.125, 85341.047
550.607, 85320.453
551.089, 85264.953
551.571, 85212.797
552.053, 85166.797
552.535, 85128.711
553.017, 85092.422
553.499, 85053.969
553.981, 85056.750
554.464, 85174.453
554.946, 85356.070
555.428, 85375.797
555.910, 85229.039
556.392, 85076.188
556.874, 85060.109
557.356, 85128.977
557.838, 85208.133
558.320, 85302.023
558.803, 85358.430
559.285, 85286.922
559.767, 85157.578
560.249, 85104.539
560.731, 85247.602
561.213, 85403.242
561.695, 85498.297
562.177, 85529.133
562.659, 85579.906
563.142, 85691.812
563.624, 85788.047
564.106, 85817.227
564.588, 85727.797
565.070, 85707.531
565.552, 85772.547
566.034, 85882.523
566.516, 85990.492
566.999, 86097.758
567.481, 86183.477
567.963, 86242.438
568.445, 86277.211
568.927, 86285.492
569.409, 86270.992
569.891, 86264.758
570.373, 86283.633
570.856, 86324.141
571.338, 86392.008
571.820, 86490.070
572.302, 86575.156
572.784, 86616.039
573.266, 86630.492
573.748, 86636.852
574.230, 86618.844
574.713, 86617.383
575.195, 86663.617
575.677, 86734.594
576.159, 86764.023
576.641, 86712.703
577.123, 86675.742
577.605, 86689.844
578.087, 86755.477
578.569, 86785.758
579.052, 86766.094
579.534, 86753.680
580.016, 86796.062
580.498, 86890.953
580.980, 86996.227
581.462, 87108.508
581.944, 87226.938
582.426, 87361.859
582.908, 87503.859
583.391, 87624.523
583.873, 87696.188
584.355, 87755.883
584.837, 87795.227
585.319, 87836.703
585.801, 87840.875
586.283, 87983.070
586.765, 88091.758
587.247, 88168.742
587.730, 88119.086
588.212, 88232.961
588.694, 88281.297
589.176, 88326.945
589.658, 88463.844
590.140, 88432.586
590.622, 88559.109
591.104, 88630.398
591.586, 88791.070
592.069, 88847.789
592.551, 88790.609
593.033, 88757.547
593.515, 88815.227
593.997, 88930.812
594.479, 89032.219
594.961, 89118.203
595.443, 89160.023
595.925, 89119.117
596.408, 89031.328
596.890, 88931.094
597.372, 88816.867
597.854, 88731.633
598.336, 88725.156
598.818, 88751.906
599.300, 88758.781
599.782, 88752.711
600.265, 88703.047
600.747, 88550.430
601.229, 88348.273
601.711, 88247.570
602.193, 88312.211
602.675, 88370.008
603.157, 88360.961
603.639, 88288.047
604.122, 88232.953
604.604, 88200.000
605.086, 88160.797
605.568, 88096.680
606.050, 88006.648
606.532, 87869.844
607.014, 87667.289
607.496, 87498.883
607.979, 87526.188
608.461, 87652.227
608.943, 87698.727
609.425, 87544.344
609.907, 87349.383
610.389, 87174.320
610.871, 87027.688
611.353, 86927.750
611.835, 86967.211
612.318, 86974.109
612.800, 86858.953
613.282, 86609.672
613.764, 86438.367
614.246, 86390.148
614.728, 86360.844
615.210, 86267.492
615.692, 86098.578
616.174, 85985.133
616.657, 85942.406
617.139, 85936.797
617.621, 85937.703
618.103, 85939.344
618.585, 85899.203
619.067, 85730.070
619.549, 85803.086
620.031, 85817.344
620.513, 85775.961
620.996, 85512.359
621.478, 85535.711
621.960, 85444.078
622.442, 85347.703
622.924, 85411.453
623.406, 85286.906
623.888, 85209.172
624.370, 85145.219
624.852, 85103.141
625.335, 85097.820
625.817, 85082.773
626.299, 85067.047
626.781, 85030.406
627.263, 84927.344
627.745, 84754.594
628.227, 84623.383
628.709, 84568.656
629.192, 84556.969
629.674, 84542.977
630.156, 84523.133
630.638, 84478.461
631.120, 84394.547
631.602, 84285.672
632.084, 84153.750
632.566, 84002.539
633.049, 83866.219
633.531, 83742.906
634.013, 83654.156
634.495, 83622.977
634.977, 83686.969
635.459, 83716.672
635.941, 83687.344
636.423, 83638.023
636.906, 83607.500
637.388, 83600.797
637.870, 83587.297
638.352, 83556.133
638.834, 83522.602
639.316, 83536.859
639.798, 83591.297
640.280, 83605.133
640.762, 83521.609
641.245, 83392.328
641.727, 83282.812
642.209, 83195.828
642.691, 83147.344
643.173, 83166.023
643.655, 83217.023
