##NAMES=Alumoklyuchevskite
##RRUFFID=R070041
##IDEAL CHEMISTRY=K_3_Cu^2+^_3_AlO_2_(S^6+^O_4_)_4_
##LOCALITY=main fracture, N breakthrough, Tolbachik Volcano, Kamchatka Peninsula, Russia
##OWNER=RRUFF
##SOURCE=Michael Scott
##DESCRIPTION=Green blebs to prismatic or needle-like crystals associated with vergasovaite, co-type material
##STATUS=The identification of this mineral has been confirmed by single-crystal X-ray diffraction.
##URL=rruff.info/R070041
142.3917, 2804.180
142.8738, 2771.067
143.3559, 2774.224
143.8380, 2809.521
144.3201, 2841.554
144.8022, 2834.705
145.2844, 2784.086
145.7665, 2754.099
146.2486, 2764.370
146.7307, 2787.875
147.2128, 2797.643
147.6949, 2788.971
148.1771, 2769.500
148.6592, 2745.228
149.1413, 2717.004
149.6234, 2686.048
150.1055, 2649.816
150.5876, 2610.883
151.0698, 2575.204
151.5519, 2542.469
152.0340, 2516.535
152.5161, 2501.878
152.9982, 2498.721
153.4803, 2495.631
153.9625, 2481.525
154.4446, 2455.861
154.9267, 2435.560
155.4088, 2426.776
155.8909, 2423.995
156.3730, 2425.448
156.8552, 2431.019
157.3373, 2437.151
157.8194, 2439.075
158.3015, 2436.181
158.7836, 2430.206
159.2657, 2419.309
159.7479, 2406.958
160.2300, 2397.442
160.7121, 2392.949
161.1942, 2389.543
161.6763, 2373.821
162.1584, 2319.017
162.6406, 2289.470
163.1227, 2317.701
163.6048, 2370.343
164.0869, 2403.186
164.5690, 2387.410
165.0511, 2328.862
165.5333, 2290.127
166.0154, 2280.678
166.4975, 2280.938
166.9796, 2292.551
167.4617, 2310.899
167.9438, 2328.970
168.4260, 2342.331
168.9081, 2351.502
169.3902, 2343.205
169.8723, 2296.449
170.3544, 2253.677
170.8365, 2238.045
171.3187, 2249.402
171.8008, 2272.851
172.2829, 2296.726
172.7650, 2322.240
173.2471, 2334.945
173.7292, 2319.316
174.2114, 2299.771
174.6935, 2300.475
175.1756, 2326.230
175.6577, 2359.259
176.1398, 2379.499
176.6219, 2387.235
177.1041, 2386.588
177.5862, 2372.762
178.0683, 2352.034
178.5504, 2335.695
179.0325, 2328.053
179.5146, 2321.128
179.9968, 2302.449
180.4789, 2271.640
180.9610, 2244.292
181.4431, 2227.103
181.9252, 2219.120
182.4073, 2216.947
182.8895, 2219.785
183.3716, 2216.112
183.8537, 2233.736
184.3358, 2244.816
184.8179, 2249.704
185.3000, 2229.852
185.7822, 2241.947
186.2643, 2241.239
186.7464, 2240.005
187.2285, 2256.596
187.7106, 2240.342
188.1927, 2256.650
188.6749, 2259.960
189.1570, 2269.218
189.6391, 2273.677
190.1212, 2260.641
190.6033, 2299.447
191.0854, 2325.862
191.5676, 2340.592
192.0497, 2306.538
192.5318, 2337.074
193.0139, 2342.703
193.4960, 2347.979
193.9781, 2389.600
194.4603, 2366.234
194.9424, 2408.685
195.4245, 2425.838
195.9066, 2455.586
196.3887, 2460.269
196.8708, 2473.606
197.3530, 2513.417
197.8351, 2539.651
198.3172, 2544.158
198.7993, 2578.848
199.2814, 2561.555
199.7635, 2591.187
200.2457, 2576.996
200.7278, 2586.457
201.2099, 2667.496
201.6920, 2732.829
202.1741, 2755.491
202.6563, 2752.061
203.1384, 2752.933
203.6205, 2779.302
204.1026, 2830.376
204.5847, 2875.602
205.0668, 2901.920
205.5490, 2936.281
206.0311, 2994.752
206.5132, 3069.850
206.9953, 3141.499
207.4774, 3194.146
207.9595, 3226.916
208.4417, 3256.712
208.9238, 3275.932
209.4059, 3299.503
209.8880, 3336.631
210.3701, 3385.641
210.8522, 3437.517
211.3344, 3484.067
211.8165, 3524.246
212.2986, 3570.420
212.7807, 3634.105
213.2628, 3694.623
213.7449, 3738.760
214.2271, 3765.457
214.7092, 3781.172
215.1913, 3790.684
215.6734, 3793.029
216.1555, 3790.906
216.6376, 3779.061
217.1198, 3765.845
217.6019, 3735.255
218.0840, 3740.561
218.5661, 3733.686
219.0482, 3715.285
219.5303, 3650.836
220.0125, 3645.844
220.4946, 3617.027
220.9767, 3587.232
221.4588, 3590.614
221.9409, 3532.862
222.4230, 3535.718
222.9052, 3514.376
223.3873, 3504.111
223.8694, 3464.273
224.3515, 3396.184
224.8336, 3301.601
225.3158, 3208.113
225.7979, 3117.143
226.2800, 3033.403
226.7621, 2966.074
227.2442, 2911.854
227.7263, 2853.823
228.2085, 2784.600
228.6906, 2707.396
229.1727, 2626.119
229.6548, 2536.245
230.1369, 2453.613
230.6190, 2394.016
231.1012, 2354.248
231.5833, 2320.558
232.0654, 2291.126
232.5475, 2263.459
233.0296, 2226.683
233.5117, 2171.273
233.9939, 2119.315
234.4760, 2093.535
234.9581, 2088.818
235.4402, 2077.253
235.9223, 2033.774
236.4044, 1965.881
236.8866, 1914.622
237.3687, 1892.666
237.8508, 1878.870
238.3329, 1857.011
238.8150, 1828.697
239.2971, 1803.066
239.7793, 1790.124
240.2614, 1788.098
240.7435, 1778.132
241.2256, 1754.801
241.7077, 1726.672
242.1898, 1695.663
242.6720, 1663.518
243.1541, 1636.684
243.6362, 1622.805
244.1183, 1621.532
244.6004, 1617.743
245.0825, 1608.564
245.5647, 1598.456
246.0468, 1588.198
246.5289, 1578.564
247.0110, 1571.893
247.4931, 1573.126
247.9752, 1582.801
248.4574, 1584.579
248.9395, 1578.430
249.4216, 1562.365
249.9037, 1525.451
250.3858, 1473.962
250.8679, 1431.742
251.3501, 1426.419
251.8322, 1462.080
252.3143, 1482.376
252.7964, 1479.375
253.2785, 1465.343
253.7606, 1434.808
254.2428, 1394.234
254.7249, 1363.438
255.2070, 1367.317
255.6891, 1411.305
256.1712, 1435.208
256.6533, 1418.135
257.1354, 1396.999
257.6176, 1385.121
258.0997, 1381.786
258.5818, 1379.237
259.0639, 1369.906
259.5460, 1352.926
260.0281, 1338.653
260.5103, 1325.937
260.9924, 1317.384
261.4745, 1317.678
261.9566, 1323.991
262.4387, 1327.982
262.9208, 1320.379
263.4030, 1299.541
263.8851, 1287.560
264.3672, 1297.018
264.8493, 1304.700
265.3314, 1276.048
265.8135, 1303.204
266.2957, 1317.374
266.7778, 1319.260
267.2599, 1271.768
267.7420, 1288.271
268.2241, 1279.270
268.7062, 1269.320
269.1884, 1295.120
269.6705, 1255.333
270.1526, 1280.770
270.6347, 1280.314
271.1168, 1291.857
271.5989, 1277.738
272.0811, 1271.678
272.5632, 1291.491
273.0453, 1297.136
273.5274, 1280.458
274.0095, 1293.366
274.4916, 1253.696
274.9738, 1260.355
275.4559, 1287.061
275.9380, 1272.187
276.4201, 1286.074
276.9022, 1289.148
277.3843, 1242.716
277.8665, 1282.658
278.3486, 1285.391
278.8307, 1249.917
279.3128, 1287.208
279.7949, 1257.219
280.2770, 1266.990
280.7592, 1263.041
281.2413, 1256.618
281.7234, 1259.742
282.2055, 1281.856
282.6876, 1317.885
283.1697, 1335.590
283.6519, 1317.047
284.1340, 1299.495
284.6161, 1288.783
285.0982, 1283.625
285.5803, 1281.734
286.0624, 1281.911
286.5446, 1284.265
287.0267, 1290.127
287.5088, 1311.866
287.9909, 1319.889
288.4730, 1296.303
288.9551, 1261.648
289.4373, 1242.267
289.9194, 1251.760
290.4015, 1277.971
290.8836, 1284.052
291.3657, 1252.457
291.8478, 1226.376
292.3300, 1205.178
292.8121, 1194.272
293.2942, 1204.823
293.7763, 1241.285
294.2584, 1286.396
294.7405, 1300.775
295.2227, 1262.811
295.7048, 1231.708
296.1869, 1221.615
296.6690, 1215.466
297.1511, 1195.504
297.6332, 1156.899
298.1154, 1114.085
298.5975, 1092.972
299.0796, 1103.585
299.5617, 1114.102
300.0438, 1122.443
300.5259, 1129.682
301.0081, 1139.894
301.4902, 1152.587
301.9723, 1159.211
302.4544, 1142.873
302.9365, 1088.738
303.4186, 1057.864
303.9008, 1076.736
304.3829, 1099.800
304.8650, 1099.140
305.3471, 1073.807
305.8292, 1044.381
306.3113, 1033.818
306.7935, 1046.246
307.2756, 1058.210
307.7577, 1073.440
308.2398, 1084.870
308.7219, 1088.357
309.2040, 1084.684
309.6862, 1077.845
310.1683, 1068.954
310.6504, 1057.496
311.1325, 1056.086
311.6146, 1074.490
312.0967, 1094.016
312.5789, 1111.457
313.0610, 1124.759
313.5431, 1130.591
314.0252, 1124.843
314.5073, 1108.980
314.9894, 1094.482
315.4716, 1077.761
315.9537, 1068.028
316.4358, 1079.603
316.9179, 1098.272
317.4000, 1097.056
317.8821, 1051.070
318.3643, 982.0546
318.8464, 966.1754
319.3285, 1038.754
319.8106, 1098.403
320.2927, 1104.263
320.7748, 1081.662
321.2570, 1060.997
321.7391, 1055.550
322.2212, 1055.166
322.7033, 1035.904
323.1854, 986.0383
323.6675, 953.3040
324.1497, 965.0381
324.6318, 994.4984
325.1139, 1022.352
325.5960, 1044.449
326.0781, 1057.792
326.5602, 1054.968
327.0424, 1033.467
327.5245, 1016.161
328.0066, 1015.161
328.4887, 1016.832
328.9708, 1010.761
329.4529, 995.5283
329.9351, 975.9481
330.4172, 949.8603
330.8993, 918.5529
331.3814, 906.0333
331.8635, 925.6249
332.3456, 956.7894
332.8278, 984.3857
333.3099, 1008.002
333.7920, 1025.212
334.2741, 1031.026
334.7563, 1028.790
335.2384, 1032.340
335.7205, 1049.272
336.2026, 1060.579
336.6847, 1041.562
337.1668, 1001.026
337.6490, 973.9496
338.1311, 986.8973
338.6132, 1017.954
339.0953, 1028.084
339.5774, 1011.974
340.0595, 990.0519
340.5417, 973.6187
341.0238, 962.6669
341.5059, 958.4349
341.9880, 966.6691
342.4701, 978.1522
342.9522, 984.0237
343.4344, 984.3516
343.9165, 983.1650
344.3986, 983.0942
344.8807, 982.8903
345.3628, 979.1716
345.8449, 967.4968
346.3271, 957.6290
346.8092, 956.9750
347.2913, 963.3331
347.7734, 969.4734
348.2555, 973.6380
348.7376, 974.1144
349.2198, 965.1953
349.7019, 940.0380
350.1840, 922.0502
350.6661, 925.4443
351.1482, 939.1364
351.6303, 941.6890
352.1125, 925.1389
352.5946, 906.8716
353.0767, 917.1080
353.5588, 971.2463
354.0409, 1004.711
354.5230, 995.2475
355.0052, 972.6889
355.4873, 967.1725
355.9694, 982.4667
356.4515, 999.3624
356.9336, 996.4760
357.4157, 968.0532
357.8979, 953.2994
358.3800, 964.5458
358.8621, 977.1307
359.3442, 972.7684
359.8263, 956.2278
360.3084, 948.0565
360.7906, 966.0658
361.2727, 1008.115
361.7548, 1026.944
362.2369, 1000.826
362.7190, 977.4752
363.2011, 968.1129
363.6833, 969.4818
364.1654, 976.2265
364.6475, 985.8455
365.1296, 997.1664
365.6117, 1006.828
366.0938, 1020.473
366.5760, 1023.353
367.0581, 1007.970
367.5402, 985.6080
368.0223, 963.5572
368.5044, 944.8294
368.9865, 933.0170
369.4687, 935.4784
369.9508, 958.5828
370.4329, 978.1621
370.9150, 995.7490
371.3971, 1007.832
371.8792, 1011.561
372.3614, 1007.302
372.8435, 997.8210
373.3256, 984.7080
373.8077, 967.9173
374.2898, 949.9329
374.7719, 920.0235
375.2541, 902.5568
375.7362, 913.1429
376.2183, 942.7723
376.7004, 973.1787
377.1825, 998.2056
377.6646, 1014.677
378.1468, 1010.961
378.6289, 979.0645
379.1110, 947.1389
379.5931, 919.5678
380.0752, 901.3900
380.5573, 902.0648
381.0395, 928.9108
381.5216, 963.6567
382.0037, 987.6667
382.4858, 1000.836
382.9679, 1007.496
383.4500, 1008.297
383.9322, 1003.009
384.4143, 989.9449
384.8964, 967.2200
385.3785, 949.1249
385.8606, 945.9498
386.3427, 953.3270
386.8249, 960.9294
387.3070, 967.3651
387.7891, 971.8781
388.2712, 971.4176
388.7533, 966.5224
389.2354, 966.4404
389.7176, 975.6788
390.1997, 989.0086
390.6818, 1004.572
391.1639, 1021.342
391.6460, 1029.520
392.1281, 1017.237
392.6103, 988.2659
393.0924, 955.1543
393.5745, 989.9161
394.0566, 1010.281
394.5387, 1017.022
395.0208, 969.3358
395.5030, 991.9315
395.9851, 986.3613
396.4672, 979.6361
396.9493, 1012.123
397.4314, 972.3536
397.9135, 1004.219
398.3957, 1007.489
398.8778, 1023.847
399.3599, 1011.865
399.8420, 1008.635
400.3241, 1033.755
400.8062, 1043.178
401.2884, 1027.934
401.7705, 1045.123
402.2526, 1004.363
402.7347, 1014.455
403.2168, 1046.486
403.6989, 1038.807
404.1811, 1049.013
404.6632, 1048.653
405.1453, 1038.843
405.6274, 1028.500
406.1095, 1010.256
406.5916, 1002.653
407.0738, 1020.814
407.5559, 1047.467
408.0380, 1060.076
408.5201, 1048.398
409.0022, 1025.932
409.4843, 1013.002
409.9665, 1009.887
410.4486, 1015.065
410.9307, 1039.945
411.4128, 1064.881
411.8949, 1073.015
412.3770, 1063.157
412.8592, 1052.139
413.3413, 1055.343
413.8234, 1068.202
414.3055, 1071.119
414.7876, 1058.557
415.2697, 1042.944
415.7519, 1030.157
416.2340, 1021.521
416.7161, 1024.544
417.1982, 1053.951
417.6803, 1087.927
418.1624, 1101.694
418.6446, 1095.877
419.1267, 1086.704
419.6088, 1081.205
420.0909, 1080.046
420.5730, 1084.901
421.0551, 1102.679
421.5373, 1116.165
422.0194, 1119.063
422.5015, 1113.768
422.9836, 1101.691
423.4657, 1082.910
423.9478, 1064.602
424.4300, 1058.250
424.9121, 1069.408
425.3942, 1080.379
425.8763, 1088.458
426.3584, 1098.449
426.8405, 1118.397
427.3227, 1145.051
427.8048, 1163.868
428.2869, 1160.473
428.7690, 1135.979
429.2511, 1127.270
429.7332, 1148.444
430.2154, 1171.645
430.6975, 1195.405
431.1796, 1217.101
431.6617, 1233.924
432.1438, 1244.595
432.6259, 1250.627
433.1081, 1253.547
433.5902, 1250.638
434.0723, 1229.842
434.5544, 1264.939
435.0365, 1286.948
435.5186, 1296.571
436.0008, 1256.717
436.4829, 1280.753
436.9650, 1279.185
437.4471, 1276.566
437.9292, 1309.595
438.4113, 1276.936
438.8935, 1309.401
439.3756, 1315.869
439.8577, 1334.235
440.3398, 1326.837
440.8219, 1327.397
441.3040, 1353.728
441.7862, 1365.791
442.2683, 1355.427
442.7504, 1374.549
443.2325, 1340.990
443.7146, 1353.660
444.1967, 1386.274
444.6789, 1377.207
445.1610, 1396.800
445.6431, 1405.477
446.1252, 1338.032
446.6073, 1373.261
447.0894, 1395.402
447.5716, 1405.159
448.0537, 1365.436
448.5358, 1389.605
449.0179, 1388.169
449.5000, 1385.683
449.9821, 1418.844
450.4643, 1386.319
450.9464, 1418.915
451.4285, 1425.516
451.9106, 1444.014
452.3927, 1436.749
452.8748, 1437.441
453.3570, 1463.906
453.8391, 1466.702
454.3212, 1473.121
454.8033, 1474.261
455.2854, 1482.183
455.7675, 1471.984
456.2497, 1503.673
456.7318, 1522.272
457.2139, 1528.487
457.6960, 1485.223
458.1781, 1505.850
458.6602, 1500.873
459.1424, 1494.846
459.6245, 1524.466
460.1066, 1488.398
460.5887, 1517.453
461.0708, 1520.512
461.5529, 1535.469
462.0351, 1524.663
462.5172, 1521.814
462.9993, 1544.737
463.4814, 1553.389
463.9635, 1539.617
464.4456, 1521.490
464.9278, 1509.995
465.4099, 1476.492
465.8920, 1438.741
466.3741, 1424.274
466.8562, 1436.937
467.3383, 1455.864
467.8205, 1461.399
468.3026, 1452.427
468.7847, 1446.763
469.2668, 1452.787
469.7489, 1452.844
470.2310, 1436.451
470.7132, 1410.173
471.1953, 1383.667
471.6774, 1361.259
472.1595, 1344.981
472.6416, 1342.013
473.1237, 1367.444
473.6059, 1373.487
474.0880, 1349.356
474.5701, 1313.374
475.0522, 1269.258
475.5343, 1199.372
476.0164, 1222.348
476.4986, 1232.234
476.9807, 1229.736
477.4628, 1177.759
477.9449, 1189.674
478.4270, 1175.984
478.9091, 1161.245
479.3913, 1182.151
479.8734, 1137.370
480.3555, 1157.713
480.8376, 1152.060
481.3197, 1158.304
481.8018, 1138.785
482.2840, 1127.222
482.7661, 1141.432
483.2482, 1129.384
483.7303, 1139.842
484.2124, 1143.943
484.6945, 1142.038
485.1767, 1115.579
485.6588, 1121.253
486.1409, 1114.312
486.6230, 1107.033
487.1051, 1117.763
487.5872, 1095.837
488.0694, 1106.658
488.5515, 1104.668
489.0336, 1108.813
489.5157, 1100.264
489.9978, 1095.880
490.4799, 1104.569
490.9621, 1106.308
491.4442, 1097.023
491.9263, 1102.666
492.4084, 1082.156
492.8905, 1084.947
493.3727, 1097.897
493.8548, 1090.192
494.3369, 1097.004
494.8190, 1098.545
495.3011, 1075.470
495.7832, 1095.716
496.2654, 1097.495
496.7475, 1080.306
497.2296, 1099.635
497.7117, 1085.459
498.1938, 1083.168
498.6759, 1077.975
499.1581, 1090.698
499.6402, 1070.671
500.1223, 1083.298
500.6044, 1083.021
501.0865, 1088.785
501.5686, 1081.761
502.0508, 1078.808
502.5329, 1088.834
503.0150, 1091.818
503.4971, 1083.683
503.9792, 1090.383
504.4613, 1070.836
504.9435, 1074.497
505.4256, 1088.223
505.9077, 1081.200
506.3898, 1088.601
506.8719, 1090.638
507.3540, 1067.963
507.8362, 1088.518
508.3183, 1090.511
508.8004, 1073.442
509.2825, 1092.798
509.7646, 1078.556
510.2467, 1076.433
510.7289, 1083.452
511.2110, 1096.281
511.6931, 1106.611
512.1752, 1109.441
512.6573, 1108.720
513.1394, 1110.422
513.6215, 1114.000
514.1036, 1110.762
514.5858, 1095.572
515.0679, 1077.054
515.5500, 1063.438
516.0321, 1053.961
516.5142, 1055.508
516.9963, 1081.539
517.4785, 1110.238
517.9606, 1125.540
518.4427, 1126.598
518.9248, 1113.984
519.4069, 1085.513
519.8890, 1048.471
520.3712, 1028.125
520.8533, 1039.730
521.3354, 1048.876
521.8175, 1055.954
522.2996, 1059.373
522.7817, 1057.819
523.2639, 1051.240
523.7460, 1039.774
524.2281, 1019.662
524.7102, 993.3568
525.1923, 987.1650
525.6744, 1010.727
526.1566, 1036.974
526.6387, 1067.060
527.1208, 1089.117
527.6029, 1082.709
528.0850, 1036.571
528.5671, 992.2610
529.0493, 989.1535
529.5314, 1015.621
530.0135, 1035.325
530.4956, 1041.806
530.9777, 1039.888
531.4598, 1031.527
531.9420, 1016.743
532.4241, 1006.740
532.9062, 1010.058
533.3883, 1009.685
533.8704, 990.9537
534.3525, 963.7990
534.8347, 946.8824
535.3168, 947.6815
535.7989, 959.9009
536.2810, 974.0298
536.7631, 993.7957
537.2452, 1005.557
537.7274, 1004.093
538.2095, 1000.012
538.6916, 998.9302
539.1737, 998.9769
539.6558, 993.1404
540.1379, 973.0784
540.6201, 952.6221
541.1022, 965.2162
541.5843, 1015.507
542.0664, 1049.438
542.5485, 1042.591
543.0306, 1020.396
543.5128, 1013.874
543.9949, 1023.495
544.4770, 1029.273
544.9591, 1025.926
545.4412, 1014.584
545.9233, 991.4455
546.4055, 959.0957
546.8876, 931.3450
547.3697, 915.2328
547.8518, 910.9594
548.3339, 919.1862
548.8160, 963.1334
549.2982, 989.3891
549.7803, 981.2896
550.2624, 966.4759
550.7445, 970.8079
551.2266, 992.8689
551.7087, 1008.978
552.1909, 994.7438
552.6730, 958.2357
553.1551, 948.0610
553.6372, 974.9470
554.1193, 1003.603
554.6014, 1030.909
555.0836, 1048.550
555.5657, 1043.340
556.0478, 1010.987
556.5299, 976.9329
557.0120, 952.1765
557.4941, 937.6121
557.9763, 938.6812
558.4584, 956.3452
558.9405, 973.2646
559.4226, 974.8154
559.9047, 963.9627
560.3868, 964.9112
560.8690, 981.1657
561.3511, 1002.753
561.8332, 1043.779
562.3153, 1080.626
562.7974, 1081.601
563.2795, 1043.492
563.7617, 995.2620
564.2438, 965.0752
564.7259, 952.9211
565.2080, 957.5015
565.6901, 994.1819
566.1722, 1023.926
566.6544, 1033.375
567.1365, 1028.896
567.6186, 1014.201
568.1007, 987.2410
568.5828, 966.9843
569.0649, 977.2335
569.5471, 1006.513
570.0292, 1020.488
570.5113, 1012.813
570.9934, 997.1243
571.4755, 981.6028
571.9576, 967.1350
572.4398, 962.3601
572.9219, 977.8786
573.4040, 989.9099
573.8861, 989.4707
574.3682, 981.8069
574.8503, 970.4761
575.3325, 957.8188
575.8146, 951.5909
576.2967, 965.2350
576.7788, 1001.273
577.2609, 1013.736
577.7430, 979.7451
578.2252, 953.5239
578.7073, 954.8124
579.1894, 974.0441
579.6715, 1002.114
580.1536, 1039.257
580.6357, 1070.244
581.1179, 1076.641
581.6000, 1065.698
582.0822, 1061.547
582.5643, 1069.186
583.0464, 1075.058
583.5285, 1065.971
584.0106, 1043.459
584.4927, 1029.787
584.9749, 1029.567
585.4570, 1031.960
585.9391, 1032.401
586.4212, 1034.209
586.9033, 1043.144
587.3854, 1059.897
587.8676, 1078.090
588.3497, 1091.098
588.8318, 1098.937
589.3139, 1103.503
589.7960, 1101.919
590.2781, 1101.532
590.7603, 1104.818
591.2424, 1110.687
591.7245, 1118.516
592.2066, 1128.577
592.6887, 1137.846
593.1708, 1145.434
593.6530, 1150.345
594.1351, 1134.458
594.6172, 1153.059
595.0993, 1164.759
595.5814, 1169.910
596.0635, 1149.965
596.5457, 1161.610
597.0278, 1160.096
597.5099, 1157.700
597.9920, 1172.772
598.4741, 1154.644
598.9562, 1168.720
599.4384, 1169.442
599.9205, 1175.756
600.4026, 1168.833
600.8847, 1165.531
601.3668, 1174.760
601.8489, 1176.496
602.3311, 1166.664
602.8132, 1171.218
603.2953, 1149.075
603.7774, 1149.690
604.2595, 1135.201
604.7416, 1126.095
605.2238, 1141.452
605.7059, 1164.792
606.1880, 1173.493
606.6701, 1166.896
607.1522, 1156.371
607.6343, 1148.162
608.1165, 1142.123
608.5986, 1137.701
609.0807, 1132.268
609.5628, 1132.708
610.0449, 1144.135
610.5270, 1157.093
611.0092, 1172.400
611.4913, 1184.382
611.9734, 1176.275
612.4555, 1129.534
612.9376, 1066.468
613.4197, 1038.614
613.9019, 1048.541
614.3840, 1062.381
614.8661, 1074.079
615.3482, 1081.704
615.8303, 1081.983
616.3124, 1075.219
616.7946, 1067.531
617.2767, 1054.707
617.7588, 1046.177
618.2409, 1054.008
618.7230, 1071.052
619.2051, 1079.304
619.6873, 1071.295
620.1694, 1056.164
620.6515, 1048.323
621.1336, 1047.286
621.6157, 1055.541
622.0978, 1089.688
622.5800, 1115.277
623.0621, 1115.697
623.5442, 1099.903
624.0263, 1081.355
624.5084, 1061.252
624.9905, 1050.063
625.4727, 1065.117
625.9548, 1097.171
626.4369, 1118.007
626.9190, 1122.641
627.4011, 1116.293
627.8832, 1100.099
628.3654, 1075.403
628.8475, 1060.891
629.3296, 1061.491
629.8117, 1064.197
630.2938, 1068.714
630.7759, 1072.764
631.2581, 1069.746
631.7402, 1061.611
632.2223, 1063.147
632.7044, 1093.342
633.1865, 1142.729
633.6686, 1166.032
634.1508, 1157.113
634.6329, 1145.563
635.1150, 1144.100
635.5971, 1143.237
636.0792, 1125.531
636.5613, 1087.419
637.0435, 1069.148
637.5256, 1096.207
