##NAMES=Alumoklyuchevskite
##RRUFFID=R070041
##IDEAL CHEMISTRY=K_3_Cu^2+^_3_AlO_2_(S^6+^O_4_)_4_
##LOCALITY=main fracture, N breakthrough, Tolbachik Volcano, Kamchatka Peninsula, Russia
##OWNER=RRUFF
##SOURCE=Michael Scott
##DESCRIPTION=Green blebs to prismatic or needle-like crystals associated with vergasovaite, co-type material
##STATUS=The identification of this mineral has been confirmed by single-crystal X-ray diffraction.
##URL=rruff.info/R070041
162.3005, 4215.655
162.7826, 4185.992
163.2647, 4181.194
163.7468, 4244.415
164.2289, 4321.171
164.7111, 4370.354
165.1932, 4379.294
165.6753, 4375.544
166.1574, 4368.056
166.6395, 4359.896
167.1216, 4360.649
167.6038, 4387.598
168.0859, 4421.675
168.5680, 4441.203
169.0501, 4432.739
169.5322, 4418.432
170.0143, 4418.521
170.4965, 4431.099
170.9786, 4442.050
171.4607, 4432.262
171.9428, 4415.511
172.4249, 4414.433
172.9070, 4454.159
173.3892, 4503.615
173.8713, 4521.973
174.3534, 4508.411
174.8355, 4493.846
175.3176, 4511.050
175.7997, 4549.286
176.2818, 4580.753
176.7640, 4593.575
177.2461, 4591.916
177.7282, 4578.781
178.2103, 4508.965
178.6924, 4560.662
179.1745, 4589.313
179.6567, 4596.159
180.1388, 4515.885
180.6209, 4548.107
181.1030, 4535.246
181.5851, 4520.536
182.0672, 4568.592
182.5494, 4500.989
183.0315, 4548.049
183.5136, 4549.338
183.9957, 4571.576
184.4778, 4548.451
184.9599, 4539.337
185.4421, 4575.600
185.9242, 4586.737
186.4063, 4558.391
186.8884, 4581.959
187.3705, 4512.771
187.8526, 4524.979
188.3348, 4572.304
188.8169, 4546.238
189.2990, 4531.856
189.7811, 4542.682
190.2632, 4559.504
190.7453, 4563.468
191.2275, 4551.701
191.7096, 4542.014
192.1917, 4554.157
192.6738, 4588.511
193.1559, 4628.405
193.6380, 4670.357
194.1202, 4713.959
194.6023, 4759.167
195.0844, 4807.289
195.5665, 4852.795
196.0486, 4884.780
196.5307, 4901.308
197.0129, 4922.766
197.4950, 4959.789
197.9771, 5012.769
198.4592, 5061.101
198.9413, 5104.852
199.4234, 5143.874
199.9055, 5170.909
200.3877, 5179.524
200.8698, 5206.592
201.3519, 5280.506
201.8340, 5409.246
202.3161, 5511.382
202.7982, 5580.179
203.2804, 5623.546
203.7625, 5655.836
204.2446, 5671.260
204.7267, 5693.358
205.2088, 5737.549
205.6909, 5806.759
206.1731, 5880.986
206.6552, 5961.134
207.1373, 6044.415
207.6194, 6119.193
208.1015, 6181.751
208.5836, 6242.590
209.0658, 6314.445
209.5479, 6406.600
210.0300, 6470.913
210.5121, 6489.239
210.9942, 6470.550
211.4763, 6486.184
211.9585, 6548.203
212.4406, 6625.049
212.9227, 6690.936
213.4048, 6747.745
213.8869, 6789.097
214.3690, 6808.750
214.8512, 6806.956
215.3333, 6821.271
215.8154, 6865.813
216.2975, 6909.078
216.7796, 6915.169
217.2617, 6869.791
217.7439, 6818.319
218.2260, 6766.993
218.7081, 6714.837
219.1902, 6680.159
219.6723, 6673.186
220.1544, 6674.453
220.6366, 6658.888
221.1187, 6626.833
221.6008, 6576.863
222.0829, 6503.750
222.5650, 6398.767
223.0471, 6311.916
223.5293, 6256.850
224.0114, 6210.655
224.4935, 6129.126
224.9756, 5991.696
225.4577, 5854.960
225.9398, 5743.551
226.4220, 5668.134
226.9041, 5583.276
227.3862, 5486.710
227.8683, 5381.824
228.3504, 5277.872
228.8325, 5174.087
229.3147, 5072.176
229.7968, 4974.984
230.2789, 4883.741
230.7610, 4793.021
231.2431, 4700.416
231.7252, 4608.098
232.2074, 4521.685
232.6895, 4440.045
233.1716, 4364.441
233.6537, 4296.211
234.1358, 4241.569
234.6179, 4182.067
235.1001, 4112.252
235.5822, 4036.468
236.0643, 3972.284
236.5464, 3924.847
237.0285, 3882.445
237.5106, 3838.918
237.9928, 3797.188
238.4749, 3748.269
238.9570, 3682.959
239.4391, 3607.212
239.9212, 3563.363
240.4033, 3573.931
240.8855, 3589.421
241.3676, 3574.047
241.8497, 3508.954
242.3318, 3451.457
242.8139, 3406.424
243.2960, 3373.869
243.7781, 3356.600
244.2603, 3368.604
244.7424, 3380.038
245.2245, 3363.701
245.7066, 3294.455
246.1887, 3248.506
246.6708, 3248.697
247.1530, 3291.799
247.6351, 3293.267
248.1172, 3229.081
248.5993, 3149.961
249.0814, 3101.570
249.5635, 3098.584
250.0457, 3097.175
250.5278, 3091.638
251.0099, 3081.998
251.4920, 3063.315
251.9741, 3028.964
252.4562, 2993.222
252.9384, 2971.448
253.4205, 2970.917
253.9026, 2968.801
254.3847, 2959.004
254.8668, 2940.843
255.3489, 2929.886
255.8311, 2929.935
256.3132, 2932.793
256.7953, 2929.749
257.2774, 2920.481
257.7595, 2905.859
258.2416, 2885.737
258.7238, 2859.621
259.2059, 2832.005
259.6880, 2802.583
260.1701, 2771.741
260.6522, 2737.847
261.1343, 2697.448
261.6165, 2663.553
262.0986, 2638.856
262.5807, 2623.077
263.0628, 2622.949
263.5449, 2646.674
264.0270, 2675.807
264.5092, 2683.063
264.9913, 2659.104
265.4734, 2641.513
265.9555, 2647.078
266.4376, 2678.438
266.9197, 2687.532
267.4019, 2666.898
267.8840, 2633.920
268.3661, 2614.129
268.8482, 2610.664
269.3303, 2608.863
269.8124, 2603.317
270.2946, 2593.659
270.7767, 2586.615
271.2588, 2581.009
271.7409, 2579.646
272.2230, 2590.125
272.7051, 2616.142
273.1873, 2635.563
273.6694, 2637.874
274.1515, 2622.359
274.6336, 2607.897
275.1157, 2592.310
275.5978, 2581.671
276.0800, 2593.831
276.5620, 2634.705
277.0442, 2656.761
277.5263, 2628.399
278.0084, 2550.125
278.4905, 2509.831
278.9726, 2516.391
279.4547, 2539.967
279.9369, 2531.550
280.4190, 2488.596
280.9011, 2453.820
281.3832, 2444.948
281.8653, 2461.010
282.3474, 2496.145
282.8296, 2557.784
283.3117, 2617.203
283.7938, 2625.933
284.2759, 2584.363
284.7580, 2540.863
285.2401, 2521.619
285.7223, 2521.379
286.2044, 2502.615
286.6865, 2460.682
287.1686, 2415.116
287.6507, 2392.955
288.1328, 2392.847
288.6150, 2401.778
289.0971, 2416.975
289.5792, 2436.890
290.0613, 2460.449
290.5434, 2490.994
291.0255, 2510.287
291.5077, 2482.530
291.9898, 2415.906
292.4719, 2361.512
292.9540, 2350.421
293.4361, 2368.356
293.9182, 2380.312
294.4004, 2385.132
294.8825, 2384.752
295.3646, 2379.655
295.8467, 2370.779
296.3288, 2361.504
296.8109, 2350.636
297.2931, 2341.129
297.7752, 2341.085
298.2573, 2352.068
298.7394, 2362.232
299.2215, 2359.087
299.7036, 2345.539
300.1858, 2329.309
300.6679, 2300.627
301.1500, 2276.752
301.6321, 2288.906
302.1142, 2341.958
302.5963, 2391.544
303.0785, 2394.770
303.5606, 2367.015
304.0427, 2338.504
304.5248, 2322.406
305.0069, 2311.884
305.4890, 2302.851
305.9712, 2295.329
306.4533, 2283.242
306.9354, 2248.230
307.4175, 2207.756
307.8996, 2189.430
308.3817, 2231.287
308.8639, 2280.893
309.3460, 2296.520
309.8281, 2275.612
310.3102, 2252.432
310.7923, 2250.665
311.2744, 2257.019
311.7566, 2254.806
312.2387, 2225.130
312.7208, 2195.673
313.2029, 2179.170
313.6850, 2176.146
314.1671, 2185.769
314.6493, 2227.085
315.1314, 2273.385
315.6135, 2297.071
316.0956, 2267.477
316.5777, 2234.383
317.0598, 2218.861
317.5420, 2221.192
318.0241, 2217.371
318.5062, 2190.531
318.9883, 2159.327
319.4704, 2139.353
319.9525, 2143.409
320.4347, 2149.253
320.9168, 2145.311
321.3989, 2132.810
321.8810, 2140.798
322.3631, 2201.710
322.8452, 2268.648
323.3273, 2309.123
323.8094, 2301.221
324.2916, 2287.552
324.7737, 2269.582
325.2558, 2247.943
325.7379, 2231.255
326.2200, 2220.210
326.7021, 2213.879
327.1843, 2212.350
327.6664, 2231.034
328.1485, 2232.703
328.6306, 2202.013
329.1127, 2147.798
329.5948, 2121.863
330.0770, 2145.881
330.5591, 2174.748
331.0412, 2181.143
331.5233, 2148.822
332.0054, 2129.518
332.4875, 2130.927
332.9697, 2146.786
333.4518, 2156.520
333.9339, 2161.409
334.4160, 2157.821
334.8981, 2139.597
335.3802, 2098.238
335.8624, 2075.182
336.3445, 2076.266
336.8266, 2093.589
337.3087, 2112.278
337.7908, 2135.821
338.2729, 2147.088
338.7551, 2128.050
339.2372, 2075.885
339.7193, 2049.874
340.2014, 2057.624
340.6835, 2083.597
341.1656, 2102.087
341.6478, 2113.066
342.1299, 2119.956
342.6120, 2126.243
343.0941, 2130.823
343.5762, 2121.519
344.0583, 2093.901
344.5405, 2067.038
345.0226, 2075.561
345.5047, 2113.902
345.9868, 2139.382
346.4689, 2119.389
346.9510, 2073.750
347.4332, 2055.125
347.9153, 2066.012
348.3974, 2084.799
348.8795, 2089.362
349.3616, 2083.888
349.8438, 2079.843
350.3259, 2083.481
350.8080, 2090.504
351.2901, 2095.489
351.7722, 2098.420
352.2543, 2100.525
352.7365, 2101.605
353.2186, 2102.646
353.7007, 2105.231
354.1828, 2111.240
354.6649, 2117.881
355.1470, 2125.664
355.6292, 2133.769
356.1113, 2135.403
356.5934, 2119.564
357.0755, 2098.358
357.5576, 2083.569
358.0397, 2078.489
358.5219, 2080.533
359.0040, 2090.529
359.4861, 2107.326
359.9682, 2126.041
360.4503, 2153.375
360.9324, 2176.632
361.4146, 2187.151
361.8967, 2176.364
362.3788, 2163.115
362.8609, 2151.546
363.3430, 2140.785
363.8251, 2128.489
364.3073, 2098.126
364.7894, 2079.200
365.2715, 2086.330
365.7536, 2140.249
366.2357, 2183.607
366.7178, 2215.125
367.1999, 2234.281
367.6820, 2239.555
368.1642, 2220.777
368.6463, 2199.666
369.1284, 2179.783
369.6105, 2157.172
370.0926, 2152.849
370.5747, 2175.726
371.0569, 2210.233
371.5390, 2238.134
372.0211, 2261.361
372.5032, 2273.067
372.9853, 2267.394
373.4674, 2244.031
373.9496, 2233.145
374.4317, 2240.772
374.9138, 2248.754
375.3959, 2232.735
375.8780, 2188.041
376.3601, 2157.375
376.8423, 2151.903
377.3244, 2167.200
377.8065, 2188.908
378.2886, 2218.927
378.7707, 2243.336
379.2528, 2243.083
379.7350, 2223.127
380.2171, 2218.097
380.6992, 2239.615
381.1813, 2272.485
381.6634, 2286.799
382.1455, 2284.536
382.6277, 2286.993
383.1098, 2320.407
383.5919, 2366.796
384.0740, 2388.594
384.5561, 2374.427
385.0382, 2351.666
385.5204, 2349.048
386.0025, 2361.502
386.4846, 2374.636
386.9667, 2383.675
387.4488, 2388.229
387.9309, 2381.556
388.4131, 2358.738
388.8952, 2352.358
389.3773, 2403.437
389.8594, 2479.923
390.3415, 2535.141
390.8236, 2528.502
391.3058, 2513.270
391.7879, 2512.064
392.2700, 2526.188
392.7521, 2553.294
393.2342, 2605.181
393.7163, 2663.950
394.1985, 2713.115
394.6806, 2751.486
395.1627, 2777.021
395.6448, 2777.163
396.1269, 2755.599
396.6090, 2758.291
397.0912, 2817.168
397.5733, 2880.380
398.0554, 2920.137
398.5375, 2919.406
399.0196, 2920.158
399.5017, 2918.783
399.9839, 2920.022
400.4660, 2941.206
400.9481, 2997.227
401.4302, 3048.492
401.9123, 3074.514
402.3944, 3065.806
402.8766, 3071.100
403.3587, 3096.098
403.8408, 3127.889
404.3229, 3143.630
404.8050, 3140.818
405.2871, 3137.913
405.7693, 3139.460
406.2514, 3146.074
406.7335, 3168.545
407.2156, 3210.612
407.6977, 3249.629
408.1798, 3253.661
408.6620, 3228.725
409.1441, 3209.178
409.6262, 3187.786
410.1083, 3195.096
410.5904, 3192.805
411.0725, 3181.427
411.5546, 3133.750
412.0367, 3132.946
412.5189, 3113.355
413.0010, 3092.996
413.4831, 3098.790
413.9652, 3056.392
414.4473, 3061.769
414.9294, 3089.826
415.4116, 3100.676
415.8937, 3046.514
416.3758, 2975.965
416.8579, 2927.044
417.3400, 2911.988
417.8221, 2896.449
418.3043, 2860.315
418.7864, 2815.726
419.2685, 2780.854
419.7506, 2776.259
420.2327, 2767.822
420.7148, 2739.318
421.1970, 2686.026
421.6791, 2644.558
422.1612, 2631.801
422.6433, 2625.882
423.1254, 2608.048
423.6075, 2562.392
424.0897, 2525.957
424.5718, 2507.717
425.0539, 2504.243
425.5360, 2464.750
426.0181, 2479.044
426.5002, 2481.218
426.9824, 2471.961
427.4645, 2414.990
427.9466, 2421.203
428.4287, 2403.053
428.9108, 2384.561
429.3929, 2401.623
429.8751, 2355.114
430.3572, 2372.992
430.8393, 2366.126
431.3214, 2371.583
431.8035, 2352.523
432.2856, 2341.932
432.7678, 2357.233
433.2499, 2359.261
433.7320, 2340.039
434.2141, 2350.343
434.6962, 2309.800
435.1783, 2315.161
435.6605, 2340.717
436.1426, 2326.184
436.6247, 2311.814
437.1068, 2308.701
437.5889, 2329.293
438.0710, 2340.282
438.5532, 2342.185
439.0353, 2307.789
439.5174, 2320.266
439.9995, 2313.958
440.4816, 2306.880
440.9637, 2325.954
441.4459, 2296.837
441.9280, 2315.497
442.4101, 2315.085
442.8922, 2323.402
443.3743, 2312.818
443.8564, 2308.072
444.3386, 2322.232
444.8207, 2325.923
445.3028, 2313.164
445.7849, 2279.724
446.2670, 2334.569
446.7491, 2366.370
447.2313, 2376.364
447.7134, 2299.239
448.1955, 2334.610
448.6776, 2324.898
449.1597, 2313.337
449.6418, 2364.541
450.1240, 2300.087
450.6061, 2350.297
451.0882, 2354.734
451.5703, 2380.121
452.0524, 2360.145
452.5345, 2354.180
453.0167, 2393.592
453.4988, 2407.878
453.9809, 2382.680
454.4630, 2409.398
454.9451, 2343.360
455.4272, 2418.556
455.9094, 2450.017
456.3914, 2459.670
456.8736, 2382.204
457.3557, 2417.235
457.8378, 2407.182
458.3199, 2395.281
458.8020, 2446.145
459.2841, 2381.350
459.7663, 2431.219
460.2484, 2435.316
460.7305, 2460.362
461.2126, 2440.045
461.6947, 2433.740
462.1768, 2472.811
462.6590, 2486.757
463.1411, 2461.219
463.6232, 2487.596
464.1053, 2421.217
464.5874, 2436.233
465.0695, 2486.367
465.5517, 2463.110
466.0338, 2490.316
466.5159, 2498.303
466.9980, 2418.946
467.4801, 2491.490
467.9622, 2498.341
468.4444, 2437.741
468.9265, 2505.080
469.4086, 2453.779
469.8907, 2444.824
470.3728, 2467.740
470.8549, 2457.432
471.3371, 2499.504
471.8192, 2455.743
472.3013, 2473.101
472.7834, 2490.611
473.2655, 2487.609
473.7477, 2471.062
474.2298, 2466.057
474.7119, 2474.509
475.1940, 2483.778
475.6761, 2479.558
476.1582, 2466.763
476.6404, 2456.290
477.1225, 2458.832
477.6046, 2459.076
478.0867, 2441.192
478.5688, 2407.800
479.0509, 2349.142
479.5331, 2370.331
480.0152, 2378.720
480.4973, 2374.993
480.9794, 2322.867
481.4615, 2333.240
481.9436, 2318.565
482.4258, 2302.862
482.9079, 2322.030
483.3900, 2276.944
483.8721, 2295.559
484.3542, 2288.746
484.8363, 2293.571
485.3185, 2273.192
485.8006, 2260.600
486.2827, 2273.217
486.7648, 2271.875
487.2469, 2248.598
487.7290, 2205.730
488.2112, 2168.386
488.6933, 2133.240
489.1754, 2136.515
489.6575, 2183.333
490.1396, 2220.910
490.6217, 2208.304
491.1039, 2158.839
491.5860, 2139.304
492.0681, 2156.533
492.5502, 2175.959
493.0323, 2151.795
493.5144, 2099.949
493.9966, 2060.558
494.4787, 2055.240
494.9608, 2062.893
495.4429, 2064.328
495.9250, 2061.007
496.4071, 2061.071
496.8893, 2066.577
497.3714, 2078.735
497.8535, 2100.296
498.3356, 2139.776
498.8177, 2171.128
499.2998, 2186.906
499.7820, 2190.191
500.2641, 2186.349
500.7462, 2162.469
501.2283, 2145.752
501.7104, 2146.772
502.1925, 2166.581
502.6746, 2172.503
503.1567, 2156.919
503.6389, 2137.066
504.1210, 2127.286
504.6031, 2131.258
505.0852, 2128.376
505.5673, 2114.212
506.0494, 2094.731
506.5316, 2080.613
507.0137, 2071.822
507.4958, 2071.127
507.9779, 2089.656
508.4600, 2117.545
508.9421, 2121.925
509.4243, 2101.077
509.9064, 2072.549
510.3885, 2044.594
510.8706, 2021.269
511.3527, 2010.615
511.8348, 2023.690
512.3170, 2039.488
512.7991, 2043.492
513.2812, 2037.686
513.7633, 2028.753
514.2454, 2014.366
514.7275, 2001.573
515.2097, 1995.014
515.6918, 1997.369
516.1739, 1998.599
516.6560, 1994.747
517.1381, 1990.003
517.6202, 1968.253
518.1024, 1992.929
518.5845, 2004.803
519.0666, 2004.562
519.5487, 1955.922
520.0308, 1969.780
520.5129, 1958.591
520.9951, 1946.374
521.4772, 1969.029
521.9593, 1927.428
522.4414, 1949.529
522.9235, 1946.201
523.4056, 1954.512
523.8878, 1937.620
524.3699, 1928.514
524.8520, 1944.616
525.3341, 1946.759
525.8162, 1886.673
526.2983, 1884.212
526.7805, 1905.976
527.2626, 1925.441
527.7447, 1921.059
528.2268, 1908.948
528.7089, 1905.318
529.1910, 1918.276
529.6732, 1903.672
530.1553, 1930.725
530.6374, 1945.034
531.1195, 1947.287
531.6016, 1901.200
532.0837, 1917.669
532.5659, 1909.151
533.0480, 1899.665
533.5301, 1925.107
534.0122, 1886.353
534.4943, 1911.360
534.9764, 1910.997
535.4586, 1922.331
535.9407, 1908.523
536.4228, 1902.558
536.9049, 1921.860
537.3870, 1927.263
537.8691, 1910.789
538.3513, 1923.216
538.8334, 1884.171
539.3155, 1890.404
539.7976, 1916.205
540.2797, 1901.293
540.7618, 1914.475
541.2440, 1917.038
541.7261, 1871.136
542.2082, 1909.682
542.6903, 1911.791
543.1724, 1876.485
543.6545, 1912.316
544.1367, 1882.295
544.6188, 1875.858
545.1009, 1887.186
545.5830, 1880.115
546.0651, 1902.203
546.5472, 1896.316
547.0294, 1887.983
547.5115, 1890.640
547.9936, 1862.382
548.4757, 1867.948
548.9578, 1850.102
549.4399, 1846.778
549.9221, 1863.522
550.4042, 1889.507
550.8863, 1905.715
551.3684, 1911.909
551.8505, 1911.115
552.3326, 1898.000
552.8148, 1880.151
553.2969, 1888.316
553.7790, 1921.425
554.2611, 1946.819
554.7432, 1928.142
555.2253, 1888.433
555.7075, 1861.513
556.1896, 1854.116
556.6717, 1859.676
557.1538, 1884.395
557.6359, 1917.267
558.1180, 1939.765
558.6002, 1945.017
559.0823, 1939.467
559.5644, 1917.491
560.0465, 1879.285
560.5286, 1859.981
561.0107, 1875.935
561.4929, 1897.675
561.9750, 1909.350
562.4571, 1905.703
562.9392, 1906.477
563.4213, 1914.677
563.9034, 1924.012
564.3856, 1922.644
564.8677, 1909.637
565.3498, 1901.107
565.8319, 1906.588
566.3140, 1917.470
566.7961, 1903.723
567.2783, 1867.676
567.7604, 1845.183
568.2424, 1885.468
568.7245, 1945.283
569.2067, 1959.839
569.6888, 1910.817
570.1709, 1860.545
570.6530, 1843.595
571.1351, 1850.895
571.6172, 1870.517
572.0994, 1918.309
572.5815, 1957.532
573.0636, 1975.218
573.5457, 1973.997
574.0278, 1972.575
574.5099, 1973.271
574.9921, 1971.878
575.4742, 1965.940
575.9563, 1954.082
576.4384, 1943.975
576.9205, 1934.517
577.4026, 1929.278
577.8848, 1936.567
578.3669, 1955.843
578.8490, 1964.584
579.3311, 1952.194
579.8132, 1934.152
580.2953, 1938.772
580.7775, 1962.750
581.2596, 1990.225
581.7417, 2020.828
582.2238, 2045.242
582.7059, 2050.694
583.1880, 2035.801
583.6702, 2020.427
584.1523, 2016.172
584.6344, 2015.221
585.1165, 2010.608
585.5986, 1991.195
586.0807, 1980.387
586.5629, 1984.422
587.0450, 1998.085
587.5271, 2011.217
588.0092, 2020.945
588.4913, 2036.181
588.9734, 2064.487
589.4556, 2103.469
589.9377, 2120.180
590.4198, 2112.281
590.9019, 2093.607
591.3840, 2069.723
591.8661, 2043.273
592.3483, 2025.392
592.8304, 2017.451
593.3125, 2017.576
593.7946, 2030.524
594.2767, 2049.606
594.7589, 2061.228
595.2410, 2049.703
595.7231, 2037.632
596.2052, 2039.001
596.6873, 2052.008
597.1694, 2066.500
597.6516, 2087.422
598.1337, 2102.708
598.6158, 2105.672
599.0979, 2093.303
599.5800, 2077.504
600.0621, 2054.841
600.5443, 2032.427
601.0264, 2016.671
601.5085, 2007.390
601.9906, 2007.264
602.4727, 2020.985
602.9548, 2039.074
603.4370, 2041.261
603.9191, 2027.936
604.4012, 2006.392
604.8833, 1971.710
605.3654, 1934.536
605.8475, 1910.576
606.3297, 1900.163
606.8118, 1897.936
607.2939, 1906.511
607.7760, 1918.427
608.2581, 1928.029
608.7402, 1939.117
609.2224, 1937.664
609.7045, 1899.723
610.1866, 1851.839
610.6687, 1839.584
611.1508, 1906.362
611.6329, 1945.004
612.1151, 1924.751
612.5972, 1836.885
613.0793, 1863.439
613.5614, 1877.408
614.0435, 1879.480
614.5256, 1833.370
615.0078, 1849.976
615.4899, 1841.753
615.9720, 1832.721
616.4541, 1858.776
616.9362, 1820.795
617.4183, 1846.733
617.9005, 1847.460
618.3826, 1860.042
618.8647, 1847.642
619.3468, 1843.243
619.8289, 1864.271
620.3110, 1871.558
620.7932, 1857.127
621.2753, 1871.756
621.7574, 1835.071
622.2395, 1843.824
622.7216, 1872.304
623.2037, 1860.229
623.6859, 1876.408
624.1680, 1882.126
624.6501, 1839.538
625.1322, 1881.556
625.6143, 1887.297
626.0964, 1855.782
626.5786, 1895.563
627.0607, 1869.650
627.5428, 1867.480
628.0249, 1883.234
628.5070, 1861.274
628.9891, 1886.534
629.4713, 1902.193
629.9534, 1908.766
630.4355, 1879.038
630.9176, 1896.184
631.3997, 1894.546
631.8818, 1892.137
632.3640, 1915.881
632.8461, 1891.434
633.3282, 1914.762
633.8103, 1919.020
634.2924, 1932.005
634.7745, 1926.090
635.2567, 1926.014
635.7388, 1944.843
636.2209, 1953.204
636.7030, 1945.114
637.1851, 1958.654
637.6672, 1948.379
638.1494, 1955.836
638.6315, 1959.542
639.1136, 1960.649
639.5957, 1964.708
640.0778, 1972.062
640.5599, 2002.504
641.0421, 2023.347
641.5242, 2035.101
642.0063, 2010.556
642.4884, 2032.885
642.9705, 2036.430
643.4526, 2039.203
643.9348, 2068.132
644.4169, 2062.365
644.8990, 2072.020
645.3811, 2071.548
645.8632, 2062.276
646.3453, 2040.817
646.8275, 2024.477
647.3096, 2017.960
647.7917, 2018.677
648.2738, 2026.718
648.7559, 2040.268
649.2380, 2037.881
649.7202, 1989.264
650.2023, 1925.000
650.6844, 1886.361
651.1665, 1875.551
651.6486, 1875.659
652.1307, 1884.264
652.6129, 1895.297
653.0950, 1904.386
653.5771, 1916.340
654.0592, 1916.252
654.5413, 1890.243
655.0234, 1856.601
655.5056, 1840.272
655.9877, 1850.922
656.4698, 1853.804
656.9519, 1840.040
657.4340, 1815.081
