##NAMES=Alum-(K)
##RRUFFID=R040134
##IDEAL CHEMISTRY=KAl(S^6+^O_4_)_2_&#183;12H_2_O
##LOCALITY=Alunite mine, Esmeralda County, Nevada, USA
##OWNER=RRUFF
##SOURCE=University of Arizona Mineral Museum
##DESCRIPTION=Colorless coarsely crystalline massive
##STATUS=The identification of this mineral has been confirmed by X-ray diffraction and chemical analysis
##URL=rruff.info/R040134
##MEASURED CHEMISTRY=(K_0.86_(NH_4_)_0.14_)_Σ=1_Al_1.00_(S_1.00_O_4_)_2_·12H_2_O ; NH_4_ not measured but estimated by stoichiometry
172.1238, 1126.570
172.6059, 1137.725
173.0880, 1145.669
173.5701, 1152.315
174.0522, 1159.296
174.5344, 1165.652
175.0165, 1169.491
175.4986, 1168.723
175.9807, 1165.586
176.4628, 1166.021
176.9449, 1170.030
177.4271, 1178.155
177.9092, 1193.787
178.3913, 1212.210
178.8734, 1226.300
179.3555, 1231.004
179.8376, 1230.778
180.3197, 1240.159
180.8019, 1267.332
181.2840, 1289.532
181.7661, 1296.423
182.2482, 1296.034
182.7303, 1298.478
183.2124, 1309.296
183.6946, 1325.030
184.1767, 1335.461
184.6588, 1336.969
185.1409, 1339.203
185.6230, 1345.626
186.1051, 1353.748
186.5873, 1361.037
187.0694, 1366.473
187.5515, 1369.943
188.0336, 1370.812
188.5157, 1366.710
188.9978, 1364.097
189.4800, 1365.792
189.9621, 1368.858
190.4442, 1371.625
190.9263, 1373.788
191.4084, 1372.427
191.8905, 1358.604
192.3727, 1319.846
192.8548, 1290.969
193.3369, 1281.892
193.8190, 1281.707
194.3011, 1281.311
194.7832, 1277.177
195.2654, 1269.024
195.7475, 1256.259
196.2296, 1238.074
196.7117, 1215.949
197.1938, 1186.599
197.6759, 1155.982
198.1581, 1130.062
198.6402, 1110.661
199.1223, 1094.112
199.6044, 1073.116
200.0865, 1043.506
200.5686, 1017.802
201.0508, 997.7585
201.5329, 980.7441
202.0150, 965.9204
202.4971, 952.6858
202.9792, 939.5962
203.4613, 924.0360
203.9435, 904.4125
204.4256, 885.9574
204.9077, 869.0033
205.3898, 852.9827
205.8719, 837.2321
206.3540, 821.7374
206.8362, 807.3275
207.3183, 795.0421
207.8004, 785.2566
208.2825, 777.0833
208.7646, 772.8806
209.2467, 768.2629
209.7289, 759.6539
210.2110, 747.2846
210.6931, 734.8570
211.1752, 727.1410
211.6573, 726.0464
212.1395, 722.7983
212.6216, 715.0812
213.1037, 707.3615
213.5858, 700.9656
214.0679, 696.4521
214.5500, 694.5165
215.0322, 696.6066
215.5143, 703.8124
215.9964, 707.6801
216.4785, 704.8029
216.9606, 701.8136
217.4427, 702.1244
217.9249, 704.6949
218.4070, 705.7461
218.8891, 701.2755
219.3712, 690.9713
219.8533, 686.5561
220.3354, 699.5897
220.8176, 707.3901
221.2997, 698.8932
221.7818, 680.3633
222.2639, 665.0979
222.7460, 663.1538
223.2281, 672.9199
223.7103, 677.1953
224.1924, 671.5989
224.6745, 664.7399
225.1566, 657.5635
225.6387, 650.4165
226.1208, 643.5104
226.6030, 636.9690
227.0851, 630.8237
227.5672, 625.1191
228.0493, 618.6450
228.5314, 614.4709
229.0135, 614.9216
229.4957, 617.1285
229.9778, 618.1183
230.4599, 616.5831
230.9420, 612.7699
231.4241, 607.0954
231.9062, 598.6251
232.3884, 589.7715
232.8705, 578.4908
233.3526, 568.2852
233.8347, 562.4308
234.3168, 561.9777
234.7989, 564.8644
235.2811, 568.8829
235.7632, 578.1854
236.2453, 578.2004
236.7274, 558.0849
237.2095, 536.1454
237.6916, 525.4203
238.1738, 527.9585
238.6559, 535.4639
239.1380, 537.9854
239.6201, 534.3977
240.1022, 529.8762
240.5843, 524.7120
241.0665, 518.5620
241.5486, 509.6189
242.0307, 498.7838
242.5128, 489.9186
242.9949, 488.4898
243.4770, 495.6432
243.9592, 496.2682
244.4413, 484.0827
244.9234, 470.8293
245.4055, 460.8717
245.8876, 453.4497
246.3697, 445.7165
246.8519, 434.9258
247.3340, 421.6836
247.8161, 412.0525
248.2982, 407.1884
248.7803, 404.7842
249.2624, 406.0108
249.7446, 408.5477
250.2267, 408.6946
250.7088, 404.1971
251.1909, 396.3225
251.6730, 388.4100
252.1551, 379.7533
252.6373, 372.5431
253.1194, 368.1702
253.6015, 365.1450
254.0836, 362.0635
254.5657, 358.5166
255.0478, 354.3755
255.5300, 348.9491
256.0121, 341.5615
256.4942, 335.5324
256.9763, 332.1900
257.4584, 330.4032
257.9406, 329.9410
258.4227, 330.8222
258.9048, 331.5551
259.3869, 329.9671
259.8690, 325.8880
260.3511, 323.5706
260.8333, 325.9731
261.3154, 328.4436
261.7975, 327.7105
262.2796, 323.7168
262.7617, 318.3027
263.2438, 311.1002
263.7260, 302.9285
264.2081, 299.2545
264.6902, 303.3590
265.1723, 307.8796
265.6544, 307.3154
266.1365, 302.7442
266.6187, 297.5557
267.1008, 292.7494
267.5829, 288.5104
268.0650, 285.3188
268.5471, 283.3341
269.0292, 281.9197
269.5114, 280.2826
269.9935, 278.9579
270.4756, 279.1682
270.9577, 282.6288
271.4398, 286.6062
271.9219, 288.2604
272.4041, 287.5693
272.8862, 284.9360
273.3683, 278.8112
273.8504, 271.6912
274.3325, 268.4175
274.8146, 270.9309
275.2968, 274.1733
275.7789, 274.8714
276.2610, 273.4734
276.7431, 271.9842
277.2252, 271.5128
277.7073, 270.6475
278.1895, 266.1057
278.6716, 256.5608
279.1537, 249.9885
279.6358, 252.0399
280.1179, 258.3280
280.6000, 260.2508
281.0822, 255.2375
281.5643, 250.0928
282.0464, 254.8170
282.5285, 270.6681
283.0106, 279.9021
283.4927, 276.1133
283.9749, 267.6581
284.4570, 261.2168
284.9391, 257.5261
285.4212, 255.4840
285.9033, 254.4286
286.3854, 254.3828
286.8676, 254.4824
287.3497, 255.3653
287.8318, 255.7696
288.3139, 253.6782
288.7960, 250.4643
289.2781, 250.2224
289.7603, 255.7107
290.2424, 265.0641
290.7245, 270.2701
291.2066, 267.6934
291.6887, 265.7863
292.1708, 265.7648
292.6530, 267.1061
293.1351, 269.7001
293.6172, 273.4496
294.0993, 277.0386
294.5814, 277.9737
295.0635, 257.2404
295.5457, 279.7174
296.0278, 293.1539
296.5099, 298.0357
296.9920, 268.7413
297.4741, 283.5784
297.9562, 280.7296
298.4384, 277.1559
298.9205, 298.2045
299.4026, 273.8809
299.8847, 294.5389
300.3668, 297.2411
300.8489, 308.1613
301.3310, 301.2862
301.8131, 302.8090
302.2953, 309.3699
302.7774, 316.7021
303.2595, 321.5725
303.7416, 321.4771
304.2237, 322.5788
304.7058, 327.1877
305.1880, 333.0560
305.6701, 337.5009
306.1522, 339.4806
306.6343, 340.7489
307.1164, 344.7727
307.5985, 352.8884
308.0807, 358.6993
308.5628, 359.3482
309.0449, 358.4748
309.5270, 356.9892
310.0091, 355.4010
310.4912, 355.8928
310.9734, 362.3174
311.4555, 373.8233
311.9376, 380.4951
312.4197, 379.3004
312.9018, 376.3829
313.3839, 374.9764
313.8661, 374.9661
314.3482, 376.1872
314.8303, 379.8600
315.3124, 384.1523
315.7945, 384.8174
316.2766, 380.9015
316.7588, 379.0516
317.2409, 385.1559
317.7230, 394.8742
318.2051, 401.0436
318.6872, 402.1712
319.1693, 400.7471
319.6515, 397.6501
320.1336, 393.2602
320.6157, 388.8896
321.0978, 384.3355
321.5799, 381.0704
322.0620, 382.5884
322.5442, 389.9054
323.0263, 394.7626
323.5084, 393.5861
323.9905, 389.1945
324.4726, 384.6763
324.9547, 380.5481
325.4369, 377.3290
325.9190, 375.6418
326.4011, 375.6710
326.8832, 375.7002
327.3653, 375.1738
327.8474, 375.1482
328.3296, 376.7625
328.8117, 379.4608
329.2938, 381.7949
329.7759, 383.0684
330.2580, 383.0879
330.7401, 380.9185
331.2223, 355.1065
331.7044, 372.5597
332.1865, 380.9727
332.6686, 380.8309
333.1507, 346.5130
333.6328, 356.3266
334.1150, 348.4538
334.5971, 339.8562
335.0792, 355.8813
335.5613, 326.5341
336.0434, 342.1687
336.5255, 339.8473
337.0077, 345.7434
337.4898, 333.8448
337.9719, 328.3734
338.4540, 324.0960
338.9361, 317.8311
339.4182, 312.5817
339.9004, 308.6961
340.3825, 305.4561
340.8646, 303.0537
341.3467, 300.9272
341.8288, 298.3625
342.3109, 295.0499
342.7931, 291.3692
343.2752, 287.9140
343.7573, 284.7392
344.2394, 281.3477
344.7215, 277.4322
345.2036, 273.3847
345.6858, 269.3325
346.1679, 265.3008
346.6500, 261.7577
347.1321, 259.0239
347.6142, 257.0029
348.0963, 255.5285
348.5785, 254.7351
349.0606, 254.0234
349.5427, 253.0944
350.0248, 251.8888
350.5069, 250.1487
350.9890, 246.9760
351.4712, 243.9177
351.9533, 242.5929
352.4354, 242.6590
352.9175, 242.3681
353.3996, 240.9958
353.8817, 238.6490
354.3639, 235.2918
354.8460, 229.8904
355.3281, 225.8303
355.8102, 224.8096
356.2923, 225.1040
356.7744, 224.6054
357.2566, 222.8947
357.7387, 221.1177
358.2208, 220.6579
358.7029, 221.9161
359.1850, 222.2301
359.6671, 221.0006
360.1493, 219.5759
360.6314, 218.5146
361.1135, 217.7339
361.5956, 216.9036
362.0777, 215.8020
362.5598, 214.5837
363.0420, 213.9342
363.5241, 215.2196
364.0062, 214.7691
364.4883, 210.4926
364.9704, 205.5436
365.4525, 202.1991
365.9347, 201.0827
366.4168, 201.9352
366.8989, 205.4259
367.3810, 211.8805
367.8631, 215.9239
368.3452, 216.6512
368.8274, 215.5868
369.3095, 211.9964
369.7916, 207.3488
370.2737, 205.1967
370.7558, 208.3984
371.2379, 214.0551
371.7201, 217.1709
372.2022, 217.4943
372.6843, 217.7029
373.1664, 219.2796
373.6485, 221.1043
374.1306, 221.1598
374.6128, 218.6087
375.0949, 217.0938
375.5770, 220.3839
376.0591, 225.7348
376.5412, 227.1196
377.0233, 222.9907
377.5055, 217.3052
377.9876, 213.5206
378.4697, 211.8414
378.9518, 212.7560
379.4339, 219.2019
379.9160, 225.6154
380.3982, 228.9706
380.8803, 229.5337
381.3624, 228.1653
381.8445, 225.1052
382.3266, 221.2473
382.8087, 219.2672
383.2909, 219.9885
383.7730, 221.7654
384.2551, 226.3430
384.7372, 230.7833
385.2193, 232.4330
385.7014, 231.0526
386.1836, 228.4841
386.6657, 226.4057
387.1478, 224.7972
387.6299, 224.2159
388.1120, 224.9899
388.5941, 226.5236
389.0763, 229.7651
389.5584, 233.3403
390.0405, 234.7513
390.5226, 232.4091
391.0047, 229.0632
391.4868, 229.6376
391.9690, 234.6636
392.4511, 238.3741
392.9332, 237.6216
393.4153, 236.4816
393.8974, 239.4473
394.3795, 246.5094
394.8617, 252.6005
395.3438, 254.2488
395.8259, 253.6845
396.3080, 254.6562
396.7901, 257.5368
397.2722, 260.9179
397.7544, 264.0073
398.2365, 266.7724
398.7186, 269.2491
399.2007, 271.4286
399.6828, 273.3161
400.1649, 274.0862
400.6471, 274.7508
401.1292, 277.4818
401.6113, 283.0257
402.0934, 289.2571
402.5755, 293.1114
403.0576, 293.9785
403.5398, 294.0470
404.0219, 291.7789
404.5040, 290.2437
404.9861, 292.1010
405.4682, 296.0514
405.9503, 298.3695
406.4325, 296.2922
406.9146, 291.7672
407.3967, 292.0252
407.8788, 299.5161
408.3609, 306.8408
408.8430, 313.5623
409.3252, 318.9683
409.8073, 321.7889
410.2894, 322.0491
410.7715, 322.3130
411.2536, 324.6901
411.7357, 328.9446
412.2179, 334.4464
412.7000, 342.4488
413.1821, 348.5311
413.6642, 347.1928
414.1463, 341.8795
414.6284, 339.3774
415.1106, 341.5570
415.5927, 346.1118
416.0748, 351.5054
416.5569, 357.9077
417.0390, 366.2868
417.5211, 377.3380
418.0033, 389.0293
418.4854, 398.1364
418.9675, 403.5033
419.4496, 410.1293
419.9317, 419.0423
420.4138, 428.5009
420.8960, 437.4389
421.3781, 445.9007
421.8602, 454.3801
422.3423, 463.2376
422.8244, 472.4058
423.3065, 481.5029
423.7887, 489.8271
424.2708, 499.2942
424.7529, 508.7610
425.2350, 520.2090
425.7171, 535.0063
426.1992, 553.4838
426.6814, 575.2527
427.1635, 602.8499
427.6456, 635.3729
428.1277, 658.2571
428.6098, 666.2772
429.0919, 674.6152
429.5741, 690.9784
430.0562, 712.7277
430.5383, 736.7993
431.0204, 763.7869
431.5025, 790.1327
431.9846, 812.1949
432.4668, 831.0476
432.9489, 849.6057
433.4310, 867.6707
433.9131, 889.0706
434.3952, 921.2261
434.8773, 965.8568
435.3595, 999.5379
435.8416, 1014.067
436.3237, 1023.421
436.8058, 1033.756
437.2879, 1046.012
437.7701, 1061.757
438.2522, 1082.104
438.7343, 1104.295
439.2164, 1120.860
439.6985, 1126.538
440.1806, 1135.884
440.6628, 1154.115
441.1449, 1171.721
441.6270, 1180.988
442.1091, 1183.333
442.5912, 1186.434
443.0733, 1195.981
443.5555, 1210.773
444.0376, 1226.844
444.5197, 1245.412
445.0018, 1261.879
445.4839, 1274.550
445.9660, 1284.227
446.4482, 1290.382
446.9303, 1292.289
447.4124, 1295.733
447.8945, 1306.489
448.3766, 1320.866
448.8587, 1329.950
449.3409, 1332.175
449.8230, 1335.273
450.3051, 1345.965
450.7872, 1363.409
451.2693, 1377.859
451.7514, 1391.992
452.2336, 1400.342
452.7157, 1396.968
453.1978, 1388.180
453.6799, 1382.973
454.1620, 1383.839
454.6441, 1386.667
455.1263, 1386.497
455.6084, 1383.373
456.0905, 1377.024
456.5726, 1363.890
457.0547, 1351.115
457.5368, 1342.239
458.0190, 1334.812
458.5011, 1324.015
458.9832, 1307.122
459.4653, 1289.489
459.9474, 1281.512
460.4295, 1283.493
460.9117, 1276.202
461.3938, 1252.911
461.8759, 1223.290
462.3580, 1192.501
462.8401, 1161.698
463.3222, 1137.870
463.8044, 1129.446
464.2865, 1123.529
464.7686, 1108.840
465.2507, 1086.634
465.7328, 1062.057
466.2149, 1036.819
466.6971, 1012.276
467.1792, 991.5425
467.6613, 976.4574
468.1434, 961.5239
468.6255, 945.4677
469.1076, 930.6288
469.5898, 920.3673
470.0719, 912.8154
470.5540, 902.7816
471.0361, 886.6384
471.5182, 866.5914
472.0003, 848.9250
472.4825, 835.0803
472.9646, 819.9891
473.4467, 798.7710
473.9288, 778.8466
474.4109, 766.3280
474.8930, 760.8271
475.3752, 755.4725
475.8573, 746.8304
476.3394, 735.6576
476.8215, 723.0238
477.3036, 708.9742
477.7857, 692.8412
478.2679, 671.7447
478.7500, 650.4789
479.2321, 642.3895
479.7142, 654.6137
480.1963, 660.2171
480.6784, 649.3302
481.1606, 632.8420
481.6427, 619.6871
482.1248, 610.8466
482.6069, 603.8574
483.0890, 596.8264
483.5711, 590.0680
484.0533, 585.4815
484.5354, 586.3387
485.0175, 583.8491
485.4996, 572.8345
485.9817, 561.1579
486.4638, 555.7571
486.9460, 556.9372
487.4281, 559.2621
487.9102, 559.2263
488.3923, 557.0381
488.8744, 552.7515
489.3565, 545.9115
489.8387, 539.7521
490.3208, 536.6074
490.8029, 534.8223
491.2850, 530.7507
491.7671, 523.3160
492.2492, 516.7268
492.7314, 512.8743
493.2135, 510.3908
493.6956, 507.6145
494.1777, 504.4910
494.6598, 502.1201
495.1419, 501.3784
495.6241, 502.0904
496.1062, 503.1825
496.5883, 506.3582
497.0704, 507.4001
497.5525, 503.7186
498.0346, 499.3449
498.5168, 497.7049
498.9989, 499.0742
499.4810, 501.3895
499.9631, 503.7347
500.4452, 505.6407
500.9273, 504.8152
501.4095, 500.5361
501.8916, 496.6106
502.3737, 495.3024
502.8558, 494.9196
503.3379, 492.5015
503.8200, 487.2882
504.3022, 483.0962
504.7843, 481.3419
505.2664, 481.3759
505.7485, 482.8559
506.2306, 485.5639
506.7127, 488.7454
507.1949, 491.9642
507.6770, 495.1895
508.1591, 498.3106
508.6412, 502.7426
509.1233, 504.8704
509.6054, 502.2760
510.0876, 499.1450
510.5697, 498.2993
511.0518, 499.9319
511.5339, 503.1231
512.0161, 508.6281
512.4982, 514.3152
512.9803, 513.3580
513.4624, 504.5821
513.9445, 496.0601
514.4266, 489.0310
514.9088, 485.0954
515.3909, 487.2701
515.8730, 496.1992
516.3551, 502.7427
516.8372, 502.6676
517.3193, 500.1078
517.8015, 498.2444
518.2836, 497.3458
518.7657, 497.2871
519.2478, 498.0736
519.7299, 499.3562
520.2120, 500.3429
520.6942, 501.2167
521.1763, 501.4088
521.6584, 499.4625
522.1405, 498.2656
522.6226, 499.9811
523.1047, 503.7378
523.5869, 507.1488
524.0690, 508.9894
524.5511, 509.8366
525.0332, 510.6676
525.5153, 511.4783
525.9974, 511.5443
526.4796, 510.5181
526.9617, 508.9735
527.4438, 506.9406
527.9259, 504.5742
528.4080, 503.9226
528.8901, 507.0035
529.3723, 510.1684
529.8544, 510.9563
530.3365, 510.3293
530.8186, 509.5428
531.3007, 509.1246
531.7828, 510.8863
532.2650, 518.5853
532.7471, 534.5840
533.2292, 541.8102
533.7113, 531.3956
534.1934, 522.1473
534.6755, 520.3085
535.1577, 522.7939
535.6398, 525.9316
536.1219, 528.9549
536.6040, 529.9158
537.0861, 525.3549
537.5682, 517.2202
538.0504, 512.1121
538.5325, 511.0908
539.0146, 510.9329
539.4967, 509.1707
539.9788, 506.4456
540.4609, 505.9813
540.9431, 512.5732
541.4252, 514.6404
541.9073, 506.6204
542.3894, 495.1360
542.8715, 485.8331
543.3536, 479.5828
543.8358, 474.8861
544.3179, 470.4640
544.8000, 466.6903
545.2821, 465.7943
545.7642, 469.6106
546.2463, 471.2896
546.7285, 468.7523
547.2106, 463.5666
547.6926, 455.6379
548.1747, 445.4381
548.6569, 436.8778
549.1390, 431.0767
549.6211, 428.2477
550.1032, 431.0040
550.5853, 437.6011
551.0674, 440.1912
551.5496, 435.2498
552.0317, 427.0630
552.5138, 422.9323
552.9959, 425.5914
553.4780, 422.8610
553.9601, 408.4832
554.4423, 396.1854
554.9244, 392.3625
555.4065, 393.9739
555.8886, 396.3275
556.3707, 397.7575
556.8528, 398.1611
557.3350, 396.6459
557.8171, 393.6177
558.2992, 392.7716
558.7813, 395.1742
559.2634, 397.4642
559.7455, 397.5467
560.2277, 395.7495
560.7098, 393.3804
561.1919, 389.7185
561.6740, 386.7570
562.1561, 385.4069
562.6382, 384.8911
563.1204, 384.4813
563.6025, 384.0570
564.0846, 383.6255
564.5667, 383.0718
565.0488, 382.7281
565.5309, 383.9078
566.0131, 386.8586
566.4952, 390.7227
566.9773, 399.2268
567.4594, 405.3900
567.9415, 401.9456
568.4236, 391.2578
568.9058, 384.6727
569.3879, 390.1687
569.8700, 398.9500
570.3521, 401.6422
570.8342, 400.0351
571.3163, 400.0949
571.7985, 403.6514
572.2806, 409.2834
572.7627, 415.3352
573.2448, 421.7895
573.7269, 429.0639
574.2090, 439.2656
574.6912, 447.8308
575.1733, 453.5455
575.6554, 457.0672
576.1375, 458.6838
576.6196, 458.6619
577.1017, 458.4216
577.5839, 459.1456
578.0660, 460.6836
578.5481, 462.2947
579.0302, 463.8203
579.5123, 466.8803
579.9944, 473.0097
580.4766, 480.3983
580.9587, 485.0237
581.4408, 485.7954
581.9229, 488.8303
582.4050, 497.7178
582.8871, 506.5903
583.3693, 510.1238
583.8514, 510.6836
584.3335, 514.6765
584.8156, 525.0464
585.2977, 537.0264
585.7798, 542.2115
586.2620, 539.7614
586.7441, 540.3306
587.2262, 545.4894
587.7083, 551.9930
588.1904, 557.5370
588.6725, 563.3295
589.1547, 571.7928
589.6368, 584.4395
590.1189, 596.6888
590.6010, 604.5773
591.0831, 611.8117
591.5652, 624.7327
592.0474, 642.5785
592.5295, 657.8972
593.0116, 665.4930
593.4937, 667.6420
593.9758, 670.9289
594.4579, 673.6877
594.9401, 681.5161
595.4222, 700.0217
595.9043, 719.0410
596.3864, 732.7287
596.8685, 742.8671
597.3506, 754.5732
597.8328, 770.3139
598.3149, 786.9517
598.7970, 800.7746
599.2791, 813.4094
599.7612, 830.6110
600.2433, 853.5798
600.7255, 873.9073
601.2076, 882.9285
601.6897, 883.0722
602.1718, 894.2985
602.6539, 928.7557
603.1360, 957.9390
603.6182, 973.2496
604.1003, 987.6979
604.5824, 1012.079
605.0645, 1045.280
605.5466, 1078.401
606.0287, 1106.573
606.5109, 1131.848
606.9930, 1157.240
607.4751, 1182.734
607.9572, 1207.874
608.4393, 1232.769
608.9214, 1256.659
609.4036, 1277.431
609.8857, 1295.129
610.3678, 1320.944
610.8499, 1368.309
611.3320, 1405.908
611.8141, 1421.160
612.2963, 1426.617
612.7784, 1434.596
613.2605, 1446.436
613.7426, 1455.822
614.2247, 1457.226
614.7068, 1453.429
615.1890, 1451.975
615.6711, 1453.129
616.1532, 1450.395
616.6353, 1441.246
617.1174, 1428.777
617.5995, 1416.342
618.0817, 1403.906
618.5638, 1389.506
619.0459, 1370.075
619.5280, 1352.150
620.0101, 1341.115
620.4922, 1331.581
620.9744, 1316.208
621.4565, 1294.020
621.9386, 1269.993
622.4207, 1248.478
622.9028, 1228.730
623.3849, 1207.659
623.8671, 1184.615
624.3492, 1164.745
624.8313, 1153.518
625.3134, 1141.635
625.7955, 1113.854
626.2776, 1071.255
626.7598, 1039.807
627.2419, 1033.182
627.7240, 1027.682
628.2061, 1010.763
628.6882, 987.8077
629.1703, 967.4987
629.6525, 951.7000
630.1346, 935.8566
630.6167, 914.5950
631.0988, 889.6309
631.5809, 871.3906
632.0630, 862.0579
632.5452, 850.5285
633.0273, 831.8144
633.5094, 810.9634
633.9915, 793.8911
634.4736, 780.3934
634.9557, 765.7231
635.4379, 747.7158
635.9200, 729.7686
636.4021, 714.3796
636.8842, 700.0982
637.3663, 683.6345
637.8484, 664.7123
638.3306, 647.6161
638.8127, 637.4534
639.2948, 632.7264
639.7769, 624.2570
640.2590, 610.9412
640.7411, 597.7365
641.2233, 586.4363
641.7054, 575.5123
642.1875, 563.1776
642.6696, 549.5425
643.1517, 536.2113
643.6339, 522.6021
644.1160, 510.3446
644.5981, 500.2920
645.0802, 492.1732
645.5623, 486.6043
646.0444, 483.1718
646.5266, 478.8277
647.0087, 470.4784
647.4908, 459.0624
647.9729, 449.0276
648.4550, 440.8315
648.9371, 432.1294
649.4193, 419.6829
649.9014, 409.4843
650.3835, 410.7381
650.8656, 421.0828
651.3477, 423.2043
651.8298, 408.0093
652.3120, 391.0531
652.7941, 377.1957
653.2762, 367.0479
653.7583, 362.0917
654.2404, 362.0105
654.7225, 364.5174
655.2047, 368.6601
655.6868, 372.7744
656.1689, 369.9380
656.6510, 358.4399
657.1331, 350.9988
657.6152, 352.9364
658.0974, 355.8254
658.5795, 351.3696
659.0616, 341.1520
659.5437, 332.1012
660.0258, 323.8080
660.5079, 318.0108
660.9901, 316.6394
661.4722, 317.2082
661.9543, 317.6633
662.4364, 317.4548
662.9185, 316.3427
663.4006, 314.1588
663.8828, 310.9759
664.3649, 305.8443
664.8470, 298.5811
665.3291, 296.3491
665.8112, 302.7863
