##NAMES=Alum-(K)
##RRUFFID=R040134
##IDEAL CHEMISTRY=KAl(S^6+^O_4_)_2_&#183;12H_2_O
##LOCALITY=Alunite mine, Esmeralda County, Nevada, USA
##OWNER=RRUFF
##SOURCE=University of Arizona Mineral Museum
##DESCRIPTION=Colorless coarsely crystalline massive
##STATUS=The identification of this mineral has been confirmed by X-ray diffraction and chemical analysis
##URL=rruff.info/R040134
##MEASURED CHEMISTRY=(K_0.86_(NH_4_)_0.14_)_Σ=1_Al_1.00_(S_1.00_O_4_)_2_·12H_2_O ; NH_4_ not measured but estimated by stoichiometry
173.7677, 2067.449
174.2498, 2075.303
174.7319, 2085.506
175.2140, 2094.634
175.6961, 2103.674
176.1783, 2113.947
176.6604, 2125.259
177.1425, 2138.428
177.6246, 2156.401
178.1067, 2178.159
178.5888, 2198.290
179.0710, 2208.794
179.5531, 2214.497
180.0352, 2225.995
180.5173, 2246.311
180.9994, 2272.992
181.4815, 2306.197
181.9637, 2345.802
182.4458, 2378.864
182.9279, 2389.341
183.4100, 2382.838
183.8921, 2380.705
184.3742, 2389.702
184.8564, 2406.688
185.3385, 2425.453
185.8206, 2446.361
186.3027, 2466.621
186.7848, 2485.907
187.2669, 2503.416
187.7491, 2513.662
188.2312, 2511.097
188.7133, 2499.644
189.1954, 2495.242
189.6775, 2499.441
190.1596, 2503.858
190.6418, 2497.385
191.1239, 2480.248
191.6060, 2461.541
192.0881, 2446.162
192.5702, 2433.199
193.0524, 2413.697
193.5345, 2386.448
194.0166, 2355.964
194.4987, 2330.961
194.9808, 2312.027
195.4629, 2289.581
195.9451, 2256.298
196.4272, 2212.100
196.9093, 2177.305
197.3914, 2155.153
197.8735, 2138.306
198.3556, 2112.874
198.8378, 2078.117
199.3199, 2040.220
199.8020, 2000.718
200.2841, 1959.479
200.7662, 1924.637
201.2483, 1898.870
201.7305, 1877.746
202.2126, 1849.488
202.6947, 1812.281
203.1768, 1774.711
203.6589, 1742.739
204.1410, 1717.845
204.6232, 1689.422
205.1053, 1654.378
205.5874, 1616.156
206.0695, 1586.510
206.5516, 1566.854
207.0337, 1552.068
207.5159, 1540.129
207.9980, 1532.693
208.4801, 1520.634
208.9622, 1500.154
209.4443, 1474.257
209.9264, 1459.050
210.4086, 1458.612
210.8907, 1460.658
211.3728, 1454.635
211.8549, 1436.832
212.3370, 1423.898
212.8191, 1420.365
213.3013, 1424.557
213.7834, 1420.967
214.2655, 1405.630
214.7476, 1388.846
215.2297, 1380.413
215.7118, 1383.855
216.1940, 1385.459
216.6761, 1381.591
217.1582, 1372.672
217.6403, 1369.206
218.1224, 1374.110
218.6045, 1380.618
219.0867, 1382.446
219.5688, 1378.952
220.0509, 1371.907
220.5330, 1359.893
221.0151, 1342.506
221.4972, 1332.768
221.9794, 1335.169
222.4615, 1340.107
222.9436, 1336.112
223.4257, 1316.470
223.9078, 1301.907
224.3899, 1299.524
224.8721, 1310.823
225.3542, 1313.650
225.8363, 1304.338
226.3184, 1290.068
226.8005, 1279.242
227.2827, 1273.837
227.7648, 1268.277
228.2469, 1261.307
228.7290, 1252.903
229.2111, 1243.360
229.6932, 1231.823
230.1754, 1219.954
230.6575, 1209.561
231.1396, 1200.063
231.6217, 1193.358
232.1038, 1191.466
232.5859, 1196.495
233.0681, 1194.602
233.5502, 1182.816
234.0323, 1166.293
234.5144, 1151.787
234.9965, 1138.214
235.4786, 1128.820
235.9608, 1126.051
236.4429, 1132.496
236.9250, 1133.299
237.4071, 1125.215
237.8892, 1113.486
238.3713, 1106.527
238.8535, 1106.566
239.3356, 1107.731
239.8177, 1109.135
240.2998, 1112.332
240.7819, 1109.361
241.2640, 1097.574
241.7462, 1081.115
242.2283, 1066.879
242.7104, 1055.295
243.1925, 1045.261
243.6746, 1036.844
244.1567, 1030.960
244.6389, 1023.294
245.1210, 1012.947
245.6031, 1001.377
246.0852, 991.0322
246.5673, 981.4493
247.0494, 973.9208
247.5316, 969.6379
248.0137, 970.5285
248.4958, 967.8571
248.9779, 959.8679
249.4600, 949.3104
249.9421, 941.6809
250.4243, 938.6602
250.9064, 935.4625
251.3885, 930.2679
251.8706, 922.4396
252.3527, 914.2945
252.8348, 904.3995
253.3170, 895.0765
253.7991, 891.8009
254.2812, 898.7704
254.7633, 903.8027
255.2454, 901.7704
255.7275, 890.5179
256.2097, 880.0432
256.6918, 869.9090
257.1739, 860.9674
257.6560, 854.8191
258.1381, 852.0368
258.6202, 850.8944
259.1024, 851.4312
259.5845, 854.7913
260.0666, 854.5979
260.5487, 848.7336
261.0308, 840.9267
261.5129, 838.7084
261.9951, 845.1294
262.4772, 849.8651
262.9593, 847.8033
263.4414, 836.6296
263.9235, 830.1440
264.4056, 830.4818
264.8878, 833.4471
265.3699, 830.6277
265.8520, 819.1459
266.3341, 810.0796
266.8162, 809.5450
267.2983, 820.0257
267.7805, 821.9407
268.2626, 811.4331
268.7447, 796.6217
269.2268, 792.9622
269.7089, 803.9893
270.1910, 813.4628
270.6732, 814.1187
271.1553, 804.7491
271.6374, 798.1933
272.1195, 794.6802
272.6016, 793.6409
273.0837, 794.6436
273.5659, 798.0063
274.0480, 801.7747
274.5301, 805.2410
275.0122, 808.3703
275.4943, 812.2889
275.9764, 817.8569
276.4586, 822.5950
276.9407, 821.6327
277.4228, 814.2026
277.9049, 807.8641
278.3870, 805.9788
278.8691, 808.3431
279.3513, 810.1229
279.8334, 811.0114
280.3155, 812.1038
280.7976, 815.7899
281.2798, 822.2318
281.7619, 826.7634
282.2440, 827.3129
282.7261, 824.2672
283.2082, 819.4484
283.6903, 811.9465
284.1725, 806.0222
284.6546, 809.1177
285.1367, 820.7859
285.6188, 829.8185
286.1009, 830.4014
286.5830, 824.9575
287.0652, 824.5444
287.5473, 829.8056
288.0294, 836.2725
288.5115, 838.7454
288.9936, 837.6882
289.4757, 836.8499
289.9579, 837.4269
290.4400, 839.1328
290.9221, 840.9142
291.4042, 842.6837
291.8863, 845.6252
292.3684, 851.5781
292.8506, 859.9458
293.3327, 868.4420
293.8148, 878.1308
294.2969, 886.5444
294.7790, 886.7601
295.2611, 878.7578
295.7433, 871.7412
296.2254, 875.0150
296.7075, 885.7913
297.1896, 896.0921
297.6717, 903.8462
298.1538, 909.9818
298.6360, 915.5074
299.1181, 920.4968
299.6002, 925.2221
300.0823, 927.6484
300.5644, 930.2590
301.0465, 938.3503
301.5287, 956.3513
302.0108, 976.5472
302.4929, 989.9719
302.9750, 997.5049
303.4571, 1003.433
303.9392, 1011.167
304.4214, 1018.964
304.9035, 1023.932
305.3856, 1022.514
305.8677, 1022.561
306.3498, 1034.728
306.8319, 1055.250
307.3141, 1071.080
307.7962, 1068.102
308.2783, 1059.484
308.7604, 1058.808
309.2425, 1071.670
309.7246, 1086.521
310.2068, 1096.990
310.6889, 1103.845
311.1710, 1109.235
311.6531, 1112.664
312.1352, 1115.969
312.6173, 1120.733
313.0995, 1127.797
313.5816, 1134.438
314.0637, 1138.660
314.5458, 1141.644
315.0279, 1145.642
315.5100, 1151.156
315.9922, 1158.186
316.4743, 1168.211
316.9564, 1183.316
317.4385, 1193.424
317.9206, 1190.936
318.4027, 1182.428
318.8849, 1177.092
319.3670, 1178.437
319.8491, 1182.452
320.3312, 1189.446
320.8133, 1200.772
321.2954, 1206.795
321.7776, 1201.838
322.2597, 1192.195
322.7418, 1184.579
323.2239, 1178.863
323.7060, 1176.346
324.1881, 1178.941
324.6703, 1187.300
325.1524, 1192.783
325.6345, 1197.143
326.1166, 1197.088
326.5987, 1189.877
327.0808, 1163.368
327.5630, 1144.017
328.0451, 1136.585
328.5272, 1140.566
329.0093, 1145.374
329.4914, 1154.890
329.9735, 1161.635
330.4557, 1159.899
330.9378, 1141.319
331.4199, 1129.122
331.9020, 1128.247
332.3841, 1135.619
332.8662, 1135.821
333.3484, 1125.528
333.8305, 1113.101
334.3126, 1102.873
334.7947, 1095.544
335.2768, 1088.468
335.7589, 1081.110
336.2411, 1074.174
336.7232, 1069.838
337.2053, 1069.310
337.6874, 1067.931
338.1695, 1062.566
338.6516, 1052.469
339.1338, 1046.638
339.6159, 1048.002
340.0980, 1049.321
340.5801, 1034.633
341.0622, 1001.378
341.5443, 974.3417
342.0265, 967.2601
342.5086, 977.4338
342.9907, 977.9923
343.4728, 967.4955
343.9549, 952.9990
344.4370, 941.2668
344.9192, 932.5299
345.4013, 929.1425
345.8834, 936.0822
346.3655, 947.8972
346.8476, 948.7941
347.3297, 938.5231
347.8119, 925.1465
348.2940, 915.3374
348.7761, 908.3978
349.2582, 902.3463
349.7403, 895.9758
350.2225, 890.7128
350.7046, 889.8646
351.1867, 892.8110
351.6688, 894.8210
352.1509, 892.5264
352.6331, 887.1139
353.1152, 879.7817
353.5973, 869.1821
354.0794, 859.7761
354.5615, 857.2290
355.0436, 859.5142
355.5258, 860.4634
356.0079, 853.5797
356.4900, 845.6002
356.9721, 843.4216
357.4542, 850.1747
357.9363, 855.6987
358.4185, 853.0210
358.9006, 845.3929
359.3827, 838.4399
359.8648, 834.0325
360.3469, 831.1201
360.8290, 829.6721
361.3112, 829.9622
361.7933, 829.5578
362.2754, 825.3420
362.7575, 820.8996
363.2396, 820.1243
363.7217, 828.7742
364.2039, 836.3109
364.6860, 839.4086
365.1681, 837.9619
365.6502, 837.0335
366.1323, 839.0401
366.6144, 840.6364
367.0966, 839.4719
367.5787, 830.6699
368.0608, 825.0530
368.5429, 824.6677
369.0250, 828.4402
369.5071, 830.8172
369.9893, 830.6138
370.4714, 830.3856
370.9535, 831.5941
371.4356, 835.7255
371.9177, 837.6292
372.3998, 835.7459
372.8820, 832.3635
373.3641, 833.2181
373.8462, 840.3993
374.3283, 846.3525
374.8104, 847.1690
375.2925, 842.1607
375.7747, 840.5425
376.2568, 843.1521
376.7389, 847.4603
377.2210, 849.7659
377.7031, 849.8638
378.1852, 850.9205
378.6674, 854.0191
379.1495, 858.8423
379.6316, 865.5782
380.1137, 874.6860
380.5958, 881.0313
381.0779, 876.8325
381.5601, 864.5294
382.0422, 856.6214
382.5243, 856.5225
383.0064, 861.1397
383.4885, 866.1373
383.9706, 871.5115
384.4528, 876.8834
384.9349, 884.4285
385.4170, 891.2328
385.8991, 891.3896
386.3812, 882.0908
386.8633, 872.4090
387.3455, 870.8749
387.8276, 875.4229
388.3097, 881.3504
388.7918, 890.3141
389.2739, 897.0784
389.7560, 894.2632
390.2382, 880.0615
390.7203, 871.4529
391.2024, 883.6274
391.6845, 904.3594
392.1666, 919.7255
392.6487, 919.2629
393.1309, 917.9670
393.6130, 922.6316
394.0951, 932.7048
394.5772, 940.4343
395.0593, 942.5296
395.5414, 942.5059
396.0236, 942.5308
396.5057, 943.6395
396.9878, 943.9329
397.4699, 941.0762
397.9520, 936.9927
398.4341, 937.7689
398.9163, 947.5367
399.3984, 957.9118
399.8805, 966.3787
400.3626, 973.6234
400.8447, 976.3160
401.3268, 970.3864
401.8090, 962.9140
402.2911, 964.7708
402.7732, 979.8309
403.2553, 994.1039
403.7374, 1004.111
404.2195, 1009.984
404.7017, 1013.177
405.1838, 1012.337
405.6659, 1012.536
406.1480, 1020.146
406.6301, 1035.365
407.1122, 1046.502
407.5944, 1050.706
408.0765, 1050.415
408.5586, 1050.365
409.0407, 1050.575
409.5228, 1052.500
410.0049, 1057.765
410.4871, 1065.471
410.9692, 1073.518
411.4513, 1081.970
411.9334, 1089.726
412.4155, 1094.539
412.8976, 1097.598
413.3798, 1102.112
413.8619, 1108.489
414.3440, 1117.729
414.8261, 1131.900
415.3082, 1151.070
415.7903, 1171.120
416.2725, 1195.057
416.7546, 1216.404
417.2367, 1227.902
417.7188, 1216.388
418.2009, 1206.201
418.6830, 1207.776
419.1652, 1219.673
419.6473, 1236.579
420.1294, 1260.895
420.6115, 1286.749
421.0937, 1311.648
421.5758, 1335.464
422.0579, 1356.800
422.5400, 1371.833
423.0221, 1385.063
423.5042, 1404.244
423.9864, 1432.491
424.4685, 1463.236
424.9506, 1496.184
425.4327, 1531.143
425.9148, 1564.994
426.3969, 1596.070
426.8791, 1627.914
427.3612, 1663.197
427.8433, 1702.170
428.3254, 1743.796
428.8075, 1789.083
429.2896, 1836.383
429.7718, 1877.948
430.2539, 1912.483
430.7360, 1948.478
431.2181, 1993.150
431.7002, 2045.484
432.1823, 2088.525
432.6645, 2119.011
433.1466, 2148.447
433.6287, 2193.436
434.1108, 2251.460
434.5929, 2310.808
435.0750, 2370.550
435.5572, 2426.377
436.0393, 2468.885
436.5214, 2498.491
437.0035, 2524.183
437.4856, 2549.802
437.9677, 2576.537
438.4499, 2606.525
438.9320, 2643.057
439.4141, 2678.274
439.8962, 2708.761
440.3783, 2733.639
440.8604, 2751.531
441.3426, 2756.283
441.8247, 2757.791
442.3068, 2759.656
442.7889, 2760.651
443.2710, 2769.963
443.7531, 2797.749
444.2353, 2832.063
444.7174, 2860.179
445.1995, 2874.828
445.6816, 2888.735
446.1637, 2901.242
446.6458, 2913.058
447.1280, 2934.507
447.6101, 2976.134
448.0922, 3015.874
448.5743, 3040.000
449.0564, 3040.693
449.5385, 3047.284
450.0207, 3061.778
450.5028, 3081.303
450.9849, 3100.369
451.4670, 3118.333
451.9491, 3138.602
452.4312, 3167.145
452.9134, 3200.794
453.3955, 3213.631
453.8776, 3203.928
454.3597, 3185.813
454.8418, 3169.450
455.3239, 3155.458
455.8061, 3148.452
456.2882, 3153.502
456.7703, 3159.508
457.2524, 3150.567
457.7345, 3128.692
458.2166, 3101.673
458.6988, 3069.735
459.1809, 3037.460
459.6630, 3013.191
460.1451, 2999.436
460.6272, 2979.229
461.1093, 2934.753
461.5915, 2879.855
462.0736, 2832.610
462.5557, 2806.906
463.0378, 2782.038
463.5199, 2751.599
464.0020, 2715.912
464.4842, 2677.152
464.9663, 2629.378
465.4484, 2583.725
465.9305, 2546.454
466.4126, 2525.564
466.8947, 2498.321
467.3769, 2459.635
467.8590, 2416.959
468.3411, 2382.622
468.8232, 2361.771
469.3053, 2339.222
469.7874, 2309.782
470.2696, 2274.007
470.7517, 2242.514
471.2338, 2216.262
471.7159, 2191.583
472.1980, 2165.051
472.6801, 2136.671
473.1623, 2111.909
473.6444, 2092.469
474.1265, 2074.750
474.6086, 2052.865
475.0907, 2027.138
475.5728, 1999.660
476.0550, 1967.607
476.5371, 1935.765
477.0192, 1913.300
477.5013, 1900.469
477.9834, 1890.620
478.4655, 1881.754
478.9477, 1871.764
479.4298, 1857.934
479.9119, 1837.549
480.3940, 1815.337
480.8761, 1791.215
481.3582, 1766.930
481.8404, 1747.846
482.3225, 1740.759
482.8046, 1735.128
483.2867, 1725.795
483.7688, 1710.936
484.2509, 1697.208
484.7331, 1682.439
485.2152, 1670.544
485.6973, 1665.583
486.1794, 1673.880
486.6615, 1678.200
487.1436, 1675.155
487.6258, 1666.269
488.1079, 1658.806
488.5900, 1653.463
489.0721, 1647.730
489.5542, 1638.638
490.0363, 1626.059
490.5185, 1620.718
491.0006, 1624.161
491.4827, 1630.750
491.9648, 1635.101
492.4470, 1636.859
492.9291, 1633.411
493.4112, 1621.016
493.8933, 1605.474
494.3754, 1594.411
494.8575, 1587.854
495.3397, 1586.623
495.8218, 1600.000
496.3039, 1614.722
496.7860, 1613.173
497.2681, 1587.509
497.7502, 1566.525
498.2324, 1571.802
498.7145, 1589.112
499.1966, 1599.213
499.6787, 1588.956
500.1608, 1578.110
500.6429, 1573.008
501.1251, 1573.382
501.6072, 1572.663
502.0893, 1569.906
502.5714, 1566.373
503.0535, 1562.193
503.5356, 1555.294
504.0178, 1553.222
504.4999, 1558.743
504.9820, 1566.587
505.4641, 1567.869
505.9462, 1560.943
506.4283, 1556.166
506.9105, 1557.444
507.3926, 1562.948
507.8747, 1565.217
508.3568, 1564.114
508.8389, 1562.402
509.3210, 1563.960
509.8032, 1566.487
510.2853, 1561.910
510.7674, 1547.374
511.2495, 1533.675
511.7316, 1533.447
512.2137, 1542.172
512.6959, 1550.618
513.1780, 1557.153
513.6601, 1560.334
514.1422, 1557.893
514.6243, 1550.544
515.1064, 1543.125
515.5886, 1533.106
516.0707, 1526.688
516.5528, 1528.897
517.0349, 1547.473
517.5170, 1559.786
517.9991, 1559.822
518.4813, 1553.882
518.9634, 1549.625
519.4455, 1547.886
519.9276, 1546.337
520.4097, 1544.036
520.8918, 1541.442
521.3740, 1542.302
521.8561, 1548.148
522.3382, 1552.374
522.8203, 1548.019
523.3024, 1536.005
523.7845, 1533.380
524.2667, 1542.982
524.7488, 1554.713
525.2309, 1555.920
525.7130, 1548.854
526.1951, 1541.090
526.6772, 1532.830
527.1594, 1527.397
527.6415, 1531.389
528.1236, 1542.660
528.6057, 1551.879
529.0878, 1553.693
529.5699, 1551.348
530.0521, 1545.999
530.5342, 1536.429
531.0163, 1529.988
531.4984, 1531.000
531.9805, 1535.420
532.4626, 1538.937
532.9448, 1540.547
533.4269, 1541.770
533.9090, 1543.260
534.3911, 1544.541
534.8732, 1543.579
535.3553, 1539.517
535.8375, 1534.710
536.3196, 1529.199
536.8017, 1522.634
537.2838, 1521.955
537.7659, 1528.303
538.2480, 1536.772
538.7302, 1544.764
539.2123, 1551.391
539.6944, 1549.081
540.1765, 1533.663
540.6586, 1513.275
541.1407, 1497.010
541.6229, 1484.814
542.1050, 1476.155
542.5871, 1472.441
543.0692, 1471.014
543.5513, 1470.103
544.0334, 1469.595
544.5156, 1468.473
544.9977, 1464.606
545.4798, 1460.879
545.9619, 1459.821
546.4440, 1465.706
546.9261, 1468.611
547.4083, 1468.000
547.8904, 1463.313
548.3725, 1453.040
548.8546, 1431.115
549.3367, 1413.411
549.8188, 1403.838
550.3010, 1402.027
550.7831, 1405.781
551.2652, 1417.894
551.7473, 1426.235
552.2294, 1419.049
552.7115, 1398.217
553.1937, 1382.393
553.6758, 1373.054
554.1579, 1368.735
554.6400, 1370.483
555.1221, 1376.086
555.6042, 1378.857
556.0864, 1371.650
556.5685, 1365.446
557.0506, 1376.056
557.5327, 1398.157
558.0148, 1411.732
558.4969, 1395.880
558.9791, 1376.881
559.4612, 1372.944
559.9433, 1389.954
560.4254, 1401.057
560.9075, 1396.914
561.3896, 1387.229
561.8718, 1380.645
562.3539, 1379.461
562.8360, 1377.317
563.3181, 1372.682
563.8002, 1367.336
564.2823, 1365.083
564.7645, 1365.693
565.2466, 1370.793
565.7287, 1383.682
566.2108, 1401.773
566.6929, 1411.197
567.1750, 1411.604
567.6572, 1409.512
568.1393, 1408.507
568.6214, 1409.209
569.1035, 1413.324
569.5856, 1421.690
570.0677, 1431.258
570.5499, 1440.565
571.0320, 1449.277
571.5141, 1456.938
571.9962, 1463.854
572.4783, 1469.219
572.9604, 1469.854
573.4426, 1467.535
573.9247, 1471.403
574.4068, 1490.155
574.8889, 1508.772
575.3710, 1521.601
575.8531, 1527.739
576.3353, 1531.368
576.8174, 1529.661
577.2995, 1529.589
577.7816, 1539.851
578.2637, 1561.792
578.7458, 1579.309
579.2280, 1590.116
579.7101, 1595.438
580.1922, 1592.583
580.6743, 1584.043
581.1564, 1583.893
581.6385, 1605.478
582.1207, 1635.492
582.6028, 1656.773
583.0849, 1669.937
583.5670, 1681.311
584.0491, 1691.916
584.5313, 1703.903
585.0134, 1720.198
585.4955, 1743.958
585.9776, 1762.901
586.4597, 1765.894
586.9418, 1765.764
587.4240, 1777.653
587.9061, 1817.030
588.3882, 1844.490
588.8703, 1850.638
589.3524, 1843.589
589.8345, 1845.837
590.3167, 1857.034
590.7988, 1879.770
591.2809, 1922.843
591.7630, 1979.299
592.2451, 2005.746
592.7272, 2001.002
593.2094, 1995.123
593.6915, 2015.898
594.1736, 2052.761
594.6557, 2085.872
595.1378, 2110.828
595.6199, 2134.377
596.1021, 2159.070
596.5842, 2186.035
597.0663, 2217.013
597.5485, 2256.788
598.0306, 2295.781
598.5127, 2327.340
598.9948, 2354.560
599.4769, 2391.735
599.9590, 2453.060
600.4412, 2508.518
600.9233, 2543.684
601.4054, 2556.248
601.8875, 2589.485
602.3696, 2648.565
602.8517, 2715.198
603.3339, 2773.350
603.8160, 2824.004
604.2981, 2873.479
604.7802, 2922.110
605.2623, 2969.453
605.7444, 3008.597
606.2266, 3045.383
606.7087, 3093.846
607.1908, 3170.951
607.6729, 3250.531
608.1550, 3312.947
608.6371, 3361.012
609.1193, 3406.035
609.6014, 3448.450
610.0835, 3492.021
610.5656, 3536.979
611.0477, 3582.959
611.5298, 3634.915
612.0120, 3705.508
612.4941, 3769.172
612.9762, 3807.654
613.4583, 3815.870
613.9404, 3815.749
614.4225, 3805.375
614.9047, 3791.564
615.3868, 3788.075
615.8689, 3793.263
616.3510, 3785.296
616.8331, 3755.070
617.3152, 3712.169
617.7974, 3667.797
618.2795, 3622.702
618.7616, 3577.505
619.2437, 3533.007
619.7258, 3488.491
620.2079, 3441.431
620.6901, 3392.028
621.1722, 3346.973
621.6543, 3314.903
622.1364, 3283.351
622.6185, 3243.882
623.1006, 3189.645
623.5828, 3141.410
624.0649, 3102.406
624.5470, 3066.444
625.0291, 3024.400
625.5112, 2973.589
625.9933, 2931.952
626.4755, 2905.744
626.9576, 2886.972
627.4397, 2860.977
627.9218, 2827.996
628.4039, 2789.851
628.8860, 2742.660
629.3682, 2693.144
629.8503, 2651.249
630.3324, 2616.191
630.8145, 2583.040
631.2966, 2553.061
631.7787, 2521.499
632.2609, 2483.527
632.7430, 2435.635
633.2251, 2392.741
633.7072, 2362.189
634.1893, 2335.558
634.6714, 2305.712
635.1536, 2271.093
635.6357, 2236.716
636.1178, 2203.912
636.5999, 2170.937
637.0820, 2133.022
637.5641, 2089.960
638.0463, 2051.370
638.5284, 2020.152
639.0105, 1995.146
639.4926, 1977.266
639.9747, 1964.590
640.4568, 1946.679
640.9390, 1909.084
641.4211, 1868.338
641.9032, 1842.001
642.3853, 1831.370
642.8674, 1817.865
643.3495, 1786.650
643.8317, 1755.009
644.3138, 1735.374
644.7959, 1739.589
645.2780, 1735.728
645.7601, 1719.657
646.2422, 1699.194
646.7244, 1684.487
647.2065, 1677.947
647.6886, 1664.733
648.1707, 1640.684
648.6528, 1611.151
649.1349, 1584.280
649.6171, 1560.553
650.0992, 1542.413
650.5813, 1535.051
651.0634, 1531.385
651.5455, 1521.645
652.0276, 1507.134
652.5098, 1495.319
652.9919, 1491.621
653.4740, 1490.715
653.9561, 1490.683
654.4382, 1492.324
654.9203, 1488.487
655.4025, 1473.241
655.8846, 1456.382
656.3667, 1444.761
656.8488, 1440.594
657.3309, 1434.537
657.8130, 1425.126
658.2952, 1415.750
658.7773, 1411.570
659.2594, 1412.210
659.7415, 1414.469
660.2236, 1420.030
660.7057, 1422.585
661.1879, 1408.952
661.6700, 1384.450
662.1521, 1364.058
662.6342, 1356.363
663.1163, 1353.954
663.5984, 1353.619
664.0806, 1354.990
664.5627, 1356.368
665.0448, 1357.004
665.5269, 1357.881
666.0090, 1360.014
666.4911, 1364.012
666.9733, 1364.233
667.4554, 1359.288
