##NAMES=Alum-(K)
##RRUFFID=R060014
##IDEAL CHEMISTRY=KAl(S^6+^O_4_)_2_&#183;12H_2_O
##LOCALITY=Tolfa, Italy
##OWNER=RRUFF
##SOURCE=American Museum of Natural History
##DESCRIPTION=Colorless fragment
##STATUS=The identification of this mineral has been confirmed by X-ray diffraction.
##URL=rruff.info/R060014
104.1524, 99.35752
104.6345, 98.07871
105.1166, 97.20828
105.5988, 96.77750
106.0809, 96.64075
106.5630, 96.74155
107.0451, 97.11288
107.5272, 97.46706
108.0093, 97.67934
108.4915, 97.81645
108.9736, 97.90833
109.4557, 97.95389
109.9378, 97.97256
110.4199, 97.99726
110.9020, 97.84961
111.3842, 97.98768
111.8663, 98.68037
112.3484, 99.67435
112.8305, 100.6126
113.3126, 101.2368
113.7947, 101.5406
114.2769, 101.8807
114.7590, 102.4031
115.2411, 102.8255
115.7232, 102.9828
116.2053, 102.9183
116.6874, 102.8251
117.1695, 102.9116
117.6517, 103.2542
118.1338, 103.4251
118.6159, 103.2853
119.0980, 103.0645
119.5801, 102.9431
120.0622, 102.9605
120.5444, 103.0702
121.0265, 103.1918
121.5086, 103.3038
121.9907, 103.5855
122.4728, 104.2833
122.9549, 105.2019
123.4371, 105.8286
123.9192, 105.9363
124.4013, 105.8043
124.8834, 105.6901
125.3655, 105.5805
125.8476, 105.6756
126.3298, 106.2518
126.8119, 107.3544
127.2940, 108.3329
127.7761, 108.8434
128.2582, 109.2636
128.7404, 109.8329
129.2225, 110.6159
129.7046, 111.4781
130.1867, 112.1788
130.6688, 112.5725
131.1509, 113.0830
131.6331, 113.8219
132.1152, 114.6595
132.5973, 115.5072
133.0794, 116.3197
133.5615, 117.0796
134.0436, 117.6969
134.5258, 117.9655
135.0079, 118.3045
135.4900, 118.7493
135.9721, 119.3045
136.4542, 119.9969
136.9363, 120.8690
137.4184, 121.8981
137.9006, 122.7050
138.3827, 123.3042
138.8648, 123.7362
139.3469, 123.8404
139.8290, 123.6970
140.3111, 123.7652
140.7933, 124.4970
141.2754, 125.8344
141.7575, 126.9899
142.2396, 127.9410
142.7217, 128.6801
143.2038, 129.1131
143.6860, 129.1742
144.1681, 129.2141
144.6502, 129.6299
145.1323, 130.2601
145.6144, 130.7406
146.0965, 130.7057
146.5787, 130.3801
147.0608, 130.5134
147.5429, 131.3937
148.0250, 132.4096
148.5071, 133.2294
148.9892, 133.8832
149.4714, 134.4769
149.9535, 135.1385
150.4356, 135.8913
150.9177, 136.3986
151.3998, 136.5939
151.8819, 136.5626
152.3641, 136.1581
152.8462, 135.4710
153.3283, 134.8278
153.8104, 134.7017
154.2925, 135.5512
154.7746, 135.5933
155.2568, 134.2365
155.7389, 132.6788
156.2210, 131.7318
156.7031, 131.5298
157.1852, 131.5791
157.6673, 131.0954
158.1495, 129.5063
158.6316, 128.3464
159.1137, 127.7727
159.5958, 127.5387
160.0779, 127.4748
160.5600, 127.5328
161.0422, 127.5935
161.5243, 127.3762
162.0064, 126.7581
162.4885, 126.1936
162.9706, 125.8294
163.4527, 125.5843
163.9349, 125.3044
164.4170, 124.9356
164.8991, 124.4937
165.3812, 124.0056
165.8633, 123.4539
166.3454, 122.9076
166.8276, 122.4209
167.3097, 121.9852
167.7918, 121.5135
168.2739, 120.9683
168.7560, 120.3736
169.2381, 119.6981
169.7203, 118.8663
170.2024, 118.1961
170.6845, 118.0956
171.1666, 118.6639
171.6487, 119.2232
172.1308, 119.6060
172.6130, 119.8478
173.0951, 119.9234
173.5772, 119.8079
174.0593, 119.6139
174.5414, 119.4789
175.0235, 119.2287
175.5057, 119.4551
175.9878, 120.5365
176.4699, 121.9379
176.9520, 123.2111
177.4341, 124.1536
177.9162, 124.8092
178.3984, 125.3093
178.8805, 125.3751
179.3626, 125.6465
179.8447, 126.2794
180.3268, 127.1322
180.8089, 128.0471
181.2911, 128.9362
181.7732, 129.8033
182.2553, 130.6800
182.7374, 131.6498
183.2195, 132.5430
183.7016, 133.3362
184.1838, 134.0302
184.6659, 134.6119
185.1480, 135.0608
185.6301, 135.3981
186.1122, 135.8340
186.5943, 136.5589
187.0765, 137.1666
187.5586, 137.5812
188.0407, 137.7677
188.5228, 137.6265
189.0049, 137.0526
189.4870, 136.0629
189.9692, 134.9800
190.4513, 133.6684
190.9334, 132.3791
191.4155, 131.4196
191.8976, 130.7580
192.3797, 129.8276
192.8619, 128.1302
193.3440, 125.8779
193.8261, 123.7458
194.3082, 121.9382
194.7903, 120.1934
195.2724, 118.2025
195.7546, 115.9263
196.2367, 113.6914
196.7188, 111.9325
197.2009, 110.3067
197.6830, 108.3118
198.1651, 105.6388
198.6473, 102.6281
199.1294, 99.83556
199.6115, 97.31495
200.0936, 94.90263
200.5757, 92.50256
201.0578, 90.14866
201.5400, 87.88494
202.0221, 85.76682
202.5042, 83.74174
202.9863, 81.60023
203.4684, 79.19970
203.9505, 76.94793
204.4327, 74.90489
204.9148, 73.07215
205.3969, 71.47909
205.8790, 70.18534
206.3611, 69.10420
206.8432, 67.74426
207.3254, 65.65918
207.8075, 63.82566
208.2896, 62.52102
208.7717, 61.58636
209.2538, 60.80625
209.7359, 60.07503
210.2181, 59.36586
210.7002, 58.45423
211.1823, 56.99360
211.6644, 55.68092
212.1465, 54.65316
212.6286, 53.86880
213.1108, 53.25365
213.5929, 52.77095
214.0750, 52.40878
214.5571, 52.00779
215.0392, 51.49864
215.5213, 51.02476
216.0035, 50.64183
216.4856, 50.32776
216.9677, 50.03496
217.4498, 49.73006
217.9319, 49.41758
218.4140, 49.13207
218.8961, 48.92409
219.3783, 48.68901
219.8604, 48.33015
220.3425, 47.89802
220.8246, 47.56176
221.3067, 47.46563
221.7888, 47.55082
222.2710, 47.40617
222.7531, 46.81744
223.2352, 46.23240
223.7173, 45.92460
224.1994, 45.84087
224.6815, 45.69995
225.1637, 45.30498
225.6458, 44.72567
226.1279, 44.26312
226.6100, 43.91451
227.0921, 43.67993
227.5742, 43.67216
228.0564, 43.85716
228.5385, 43.85542
229.0206, 43.30963
229.5027, 42.49990
229.9848, 42.06639
230.4669, 42.24390
230.9491, 42.53569
231.4312, 42.47557
231.9133, 42.06084
232.3954, 41.72338
232.8775, 41.84674
233.3596, 42.06926
233.8418, 41.85835
234.3239, 40.96113
234.8060, 39.99873
235.2881, 39.72326
235.7702, 40.22004
236.2523, 40.60036
236.7345, 40.38660
237.2166, 39.96179
237.6987, 39.65631
238.1808, 39.55219
238.6629, 39.50442
239.1451, 39.34562
239.6272, 39.06454
240.1093, 38.73329
240.5914, 38.32756
241.0735, 37.90498
241.5556, 37.51355
242.0378, 37.16352
242.5199, 36.81878
243.0020, 36.40513
243.4841, 35.88341
243.9662, 35.44910
244.4483, 35.26492
244.9305, 35.09387
245.4126, 34.77555
245.8947, 34.27688
246.3768, 33.68384
246.8589, 33.08834
247.3410, 32.45781
247.8232, 31.93386
248.3053, 31.60135
248.7874, 31.31668
249.2695, 31.01898
249.7516, 30.68687
250.2337, 30.30430
250.7159, 29.80421
251.1980, 29.04503
251.6801, 28.56977
252.1622, 28.58092
252.6443, 28.69127
253.1264, 28.70891
253.6086, 28.59623
254.0907, 28.40769
254.5728, 28.22531
255.0549, 28.11118
255.5370, 27.79495
256.0191, 27.02258
256.5013, 26.28754
256.9834, 25.91573
257.4655, 25.89481
257.9476, 25.95729
258.4297, 25.79685
258.9118, 25.31385
259.3940, 25.01814
259.8761, 25.03131
260.3582, 25.08444
260.8403, 25.06394
261.3224, 24.95470
261.8045, 24.78028
262.2867, 24.55302
262.7688, 24.25831
263.2509, 24.01703
263.7330, 23.79411
264.2151, 23.64327
264.6972, 23.65438
265.1794, 23.77863
265.6615, 23.85424
266.1436, 23.73799
266.6257, 23.41780
267.1078, 23.17701
267.5899, 23.09562
268.0721, 22.99536
268.5542, 22.74039
269.0363, 22.39096
269.5184, 22.12997
270.0005, 22.09896
270.4826, 22.27878
270.9648, 22.38087
271.4469, 22.39725
271.9290, 22.36454
272.4111, 22.28955
272.8932, 22.17577
273.3753, 22.01697
273.8575, 21.79737
274.3396, 21.54104
274.8217, 21.37790
275.3038, 21.33920
275.7859, 21.33353
276.2680, 21.37998
276.7502, 21.43856
277.2323, 21.40621
277.7144, 21.21288
278.1965, 20.93977
278.6786, 20.84671
279.1607, 21.02144
279.6429, 21.17172
280.1250, 21.17181
280.6071, 21.10023
281.0892, 21.11698
281.5713, 21.29748
282.0534, 21.53820
282.5356, 21.60879
283.0177, 21.44657
283.4998, 21.36431
283.9819, 21.51650
284.4640, 21.77575
284.9461, 21.94185
285.4283, 21.95498
285.9104, 21.89777
286.3925, 21.88675
286.8746, 21.92865
287.3567, 21.94043
287.8388, 21.82990
288.3210, 21.70939
288.8031, 21.74765
289.2852, 21.98545
289.7673, 22.27898
290.2494, 22.46487
290.7315, 22.55158
291.2137, 22.68610
291.6958, 22.93998
292.1779, 23.22677
292.6600, 23.45225
293.1421, 23.60645
293.6242, 23.73061
294.1064, 23.83860
294.5885, 23.94036
295.0706, 24.08130
295.5527, 24.28681
296.0348, 24.51874
296.5169, 24.73994
296.9991, 24.95041
297.4812, 25.18565
297.9633, 25.48884
298.4454, 25.82729
298.9275, 26.10056
299.4096, 26.25646
299.8918, 26.40124
300.3739, 26.62586
300.8560, 26.91705
301.3381, 27.17366
301.8202, 27.33331
302.3023, 27.44366
302.7845, 27.58978
303.2666, 27.73655
303.7487, 27.99524
304.2308, 28.52421
304.7129, 29.23710
305.1950, 29.82983
305.6772, 30.19275
306.1593, 30.40535
306.6414, 30.56592
307.1235, 30.66578
307.6056, 30.80051
308.0877, 31.04238
308.5699, 31.34808
309.0520, 31.59704
309.5341, 31.72981
310.0162, 31.89013
310.4983, 32.31248
310.9804, 32.95305
311.4626, 33.48097
311.9447, 33.79353
312.4268, 33.92936
312.9089, 33.88186
313.3910, 33.60320
313.8731, 33.38413
314.3553, 33.53503
314.8374, 33.95498
315.3195, 34.33715
315.8016, 34.67341
316.2837, 34.91479
316.7658, 34.97849
317.2480, 34.85944
317.7301, 34.68970
318.2122, 34.50481
318.6943, 34.33752
319.1764, 34.26078
319.6585, 34.32112
320.1407, 34.42192
320.6228, 34.49113
321.1049, 34.53434
321.5870, 34.59902
322.0691, 34.73051
322.5512, 34.87116
323.0334, 34.91968
323.5155, 34.85584
323.9976, 34.76973
324.4797, 34.70841
324.9618, 34.66240
325.4439, 34.60535
325.9261, 34.53263
326.4082, 34.44048
326.8903, 34.33879
327.3724, 34.23395
327.8545, 34.05091
328.3366, 33.67786
328.8188, 33.23351
329.3009, 32.95831
329.7830, 32.92833
330.2651, 32.87062
330.7472, 32.44559
331.2293, 31.72836
331.7115, 31.12441
332.1936, 30.76200
332.6757, 30.51379
333.1578, 30.27251
333.6399, 30.03168
334.1220, 29.75677
334.6042, 29.40794
335.0863, 29.00473
335.5684, 28.63619
336.0505, 28.35532
336.5326, 28.05827
337.0147, 27.61180
337.4969, 27.06530
337.9790, 26.65247
338.4611, 26.50240
338.9432, 26.52858
339.4253, 26.56714
339.9074, 26.71601
340.3896, 26.64702
340.8717, 26.04172
341.3538, 25.14963
341.8359, 24.48644
342.3180, 24.21782
342.8001, 24.12835
343.2822, 23.90553
343.7643, 23.52936
344.2465, 23.24361
344.7286, 23.20367
345.2107, 23.22074
345.6928, 23.08091
346.1749, 22.75426
346.6570, 22.34201
347.1392, 21.90623
347.6213, 21.45082
348.1034, 21.09572
348.5855, 20.94179
349.0676, 20.80200
349.5497, 20.52688
350.0319, 20.14221
350.5140, 19.79392
350.9961, 19.57393
351.4782, 19.45446
351.9603, 19.30242
352.4424, 19.06275
352.9246, 18.86143
353.4067, 18.75499
353.8888, 18.70949
354.3709, 18.66750
354.8530, 18.60776
355.3351, 18.53947
355.8173, 18.48689
356.2994, 18.49363
356.7815, 18.41217
357.2636, 18.18097
357.7457, 17.88300
358.2278, 17.56997
358.7100, 17.26066
359.1921, 16.99842
359.6742, 16.83866
360.1563, 16.80048
360.6384, 16.76543
361.1205, 16.71824
361.6027, 16.68723
362.0848, 16.72617
362.5669, 16.80197
363.0490, 16.80515
363.5311, 16.64761
364.0132, 16.35954
364.4954, 16.19267
364.9775, 16.23852
365.4596, 16.28886
365.9417, 16.32662
366.4238, 16.33816
366.9059, 16.30279
367.3881, 16.21214
367.8702, 16.08594
368.3523, 15.95684
368.8344, 15.72826
369.3165, 15.66987
369.7986, 15.89479
370.2808, 16.19561
370.7629, 16.45615
371.2450, 16.64054
371.7271, 16.73337
372.2092, 16.70839
372.6913, 16.54645
373.1735, 16.38712
373.6556, 16.17067
374.1377, 16.01627
374.6198, 15.98003
375.1019, 16.03986
375.5840, 16.16379
376.0662, 16.34451
376.5483, 16.54815
377.0304, 16.59971
377.5125, 16.33956
377.9946, 16.15418
378.4767, 16.12279
378.9589, 16.18026
379.4410, 16.27851
379.9231, 16.39823
380.4052, 16.51205
380.8873, 16.57411
381.3694, 16.56826
381.8516, 16.56222
382.3337, 16.56054
382.8158, 16.55684
383.2979, 16.55764
383.7800, 16.55430
384.2621, 16.55465
384.7443, 16.55604
385.2264, 16.56095
385.7085, 16.60032
386.1906, 16.67600
386.6727, 16.78855
387.1548, 16.96898
387.6370, 17.17368
388.1191, 17.34339
388.6012, 17.46404
389.0833, 17.51625
389.5654, 17.42211
390.0475, 17.12794
390.5297, 16.93315
391.0118, 16.96801
391.4939, 17.12712
391.9760, 17.38415
392.4581, 17.73834
392.9402, 18.02802
393.4224, 18.07873
393.9045, 17.93034
394.3866, 17.82023
394.8687, 17.76025
395.3508, 17.78253
395.8329, 17.95914
396.3151, 18.24301
396.7972, 18.47989
397.2793, 18.54812
397.7614, 18.56547
398.2435, 18.71226
398.7256, 18.99702
399.2078, 19.31216
399.6899, 19.67457
400.1720, 19.98633
400.6541, 20.03691
401.1362, 19.65237
401.6183, 19.31704
402.1005, 19.36860
402.5826, 19.69722
403.0647, 19.99868
403.5468, 20.17721
404.0289, 20.30799
404.5110, 20.50098
404.9932, 20.76000
405.4753, 21.01194
405.9574, 21.27623
406.4395, 21.50645
406.9216, 21.59978
407.4037, 21.57005
407.8859, 21.62901
408.3680, 21.97748
408.8501, 22.58004
409.3322, 22.95902
409.8143, 22.95264
410.2964, 22.94257
410.7786, 23.05767
411.2607, 23.26194
411.7428, 23.47265
412.2249, 23.65232
412.7070, 23.86367
413.1891, 24.23715
413.6713, 24.91600
414.1534, 25.50420
414.6355, 25.96608
415.1176, 26.36816
415.5997, 26.72121
416.0818, 27.04853
416.5640, 27.41131
417.0461, 27.87013
417.5282, 28.42544
418.0103, 28.96512
418.4924, 29.37244
418.9745, 29.89287
419.4567, 30.66710
419.9388, 31.56221
420.4209, 32.38489
420.9030, 33.03963
421.3851, 33.63922
421.8672, 34.42649
422.3494, 35.51378
422.8315, 36.50630
423.3136, 37.17089
423.7957, 37.89670
424.2778, 38.97597
424.7599, 40.38720
425.2421, 41.84966
425.7242, 43.13170
426.2063, 44.25451
426.6884, 45.36377
427.1705, 46.42250
427.6526, 47.53040
428.1348, 48.72745
428.6169, 49.99924
429.0990, 51.33772
429.5811, 52.75050
430.0632, 54.20329
430.5453, 55.62103
431.0275, 57.00034
431.5096, 58.53292
431.9917, 60.41097
432.4738, 62.32595
432.9559, 63.86926
433.4380, 65.04796
433.9202, 66.44035
434.4023, 68.54245
434.8844, 70.96944
435.3665, 73.01076
435.8486, 74.58593
436.3307, 75.99399
436.8129, 77.46304
437.2950, 78.92448
437.7771, 80.13428
438.2592, 81.03136
438.7413, 81.74079
439.2234, 82.25002
439.7056, 82.62004
440.1877, 83.00310
440.6698, 83.45956
441.1519, 83.93034
441.6340, 84.33506
442.1161, 84.68983
442.5983, 84.91127
443.0804, 84.67136
443.5625, 84.53898
444.0446, 85.16334
444.5267, 86.39844
445.0089, 87.41685
445.4910, 87.54732
445.9731, 86.90765
446.4552, 86.65067
446.9373, 87.06426
447.4194, 87.52285
447.9016, 87.89162
448.3837, 88.28242
448.8658, 88.82639
449.3479, 89.55964
449.8300, 90.42173
450.3121, 91.36923
450.7943, 92.49349
451.2764, 93.35684
451.7585, 93.80228
452.2406, 94.12525
452.7227, 94.36252
453.2048, 94.56363
453.6870, 94.81273
454.1691, 95.17370
454.6512, 95.59399
455.1333, 95.99747
455.6154, 96.48025
456.0975, 96.65084
456.5797, 96.18908
457.0618, 95.47313
457.5439, 94.74435
458.0260, 94.04179
458.5081, 93.32177
458.9902, 92.61767
459.4724, 91.88224
459.9545, 90.90675
460.4366, 89.60897
460.9187, 88.23317
461.4008, 86.98068
461.8829, 85.79031
462.3651, 84.51093
462.8472, 83.07151
463.3293, 81.57526
463.8114, 80.03634
464.2935, 78.49104
464.7756, 77.09500
465.2578, 75.93752
465.7399, 74.87231
466.2220, 73.66779
466.7041, 72.28659
467.1862, 70.91682
467.6683, 69.46533
468.1505, 68.11208
468.6326, 67.15102
469.1147, 66.48898
469.5968, 65.65263
470.0789, 64.26958
470.5610, 62.44344
471.0432, 60.89693
471.5253, 59.84496
472.0074, 58.80502
472.4895, 57.60868
472.9716, 56.46326
473.4537, 55.65387
473.9359, 55.21118
474.4180, 54.84198
474.9001, 54.16061
475.3822, 53.10713
475.8643, 52.27715
476.3464, 51.99021
476.8286, 51.59106
477.3107, 50.72877
477.7928, 49.64708
478.2749, 48.76006
478.7570, 48.27048
479.2391, 47.97823
479.7213, 47.58032
480.2034, 47.06915
480.6855, 46.49654
481.1676, 45.78444
481.6497, 45.09414
482.1318, 44.55121
482.6140, 44.14614
483.0961, 43.80515
483.5782, 43.50392
484.0603, 43.23901
484.5424, 43.01313
485.0245, 42.82809
485.5067, 42.64802
485.9888, 42.48821
486.4709, 42.29741
486.9530, 41.93157
487.4351, 41.24523
487.9172, 40.71163
488.3994, 40.65263
488.8815, 40.77080
489.3636, 40.59391
489.8457, 40.05161
490.3278, 39.57091
490.8099, 39.62288
491.2921, 40.24936
491.7742, 40.35611
492.2563, 39.43528
492.7384, 38.66678
493.2205, 38.46731
493.7026, 38.62102
494.1848, 38.85118
494.6669, 39.04507
495.1490, 39.17796
495.6311, 39.20718
496.1132, 39.11538
496.5953, 38.97431
497.0775, 38.76314
497.5596, 38.51942
498.0417, 38.20709
498.5238, 37.87583
499.0059, 37.61668
499.4880, 37.46807
499.9702, 37.43428
500.4523, 37.58733
500.9344, 37.98345
501.4165, 38.20581
501.8986, 38.04685
502.3807, 37.74013
502.8629, 37.43849
503.3450, 37.15718
503.8271, 37.04319
504.3092, 37.30926
504.7913, 37.72541
505.2734, 37.94289
505.7556, 37.94352
506.2377, 37.83527
506.7198, 37.64984
507.2019, 37.41455
507.6840, 37.20588
508.1661, 36.96190
508.6482, 36.85319
509.1303, 37.09820
509.6125, 37.41248
510.0946, 37.39368
510.5767, 37.01586
511.0588, 36.66393
511.5409, 36.72748
512.0231, 37.20193
512.5052, 37.36690
512.9873, 36.76864
513.4694, 36.39831
513.9515, 36.67300
514.4337, 37.16786
514.9158, 37.37457
515.3979, 37.15605
515.8800, 36.79116
516.3621, 36.61182
516.8442, 36.63056
517.3264, 36.72254
517.8085, 37.02729
518.2906, 37.21754
518.7727, 37.10327
519.2548, 36.80099
519.7369, 36.48731
520.2191, 36.18995
520.7012, 35.97945
521.1833, 36.01228
521.6654, 36.24466
522.1475, 36.24137
522.6296, 35.68855
523.1118, 35.29908
523.5939, 36.33050
524.0760, 38.51600
524.5581, 39.64433
525.0402, 38.54829
525.5223, 36.98600
526.0045, 36.11716
526.4866, 35.82295
526.9687, 35.62794
527.4508, 35.33061
527.9329, 35.02765
528.4150, 34.91010
528.8972, 35.09946
529.3793, 35.19813
529.8614, 35.10770
530.3435, 35.02287
530.8256, 35.06588
531.3077, 35.20610
531.7899, 35.35975
532.2720, 35.48562
532.7541, 35.55886
533.2362, 35.49863
533.7183, 35.25006
534.2004, 35.02255
534.6826, 34.57734
535.1647, 34.38662
535.6468, 34.85888
536.1289, 35.90091
536.6110, 37.00603
537.0931, 37.86074
537.5753, 38.59551
538.0574, 39.76202
538.5395, 41.43367
539.0216, 41.90279
539.5037, 39.93528
539.9858, 36.83425
540.4680, 34.73121
540.9501, 33.65791
541.4322, 33.02297
541.9143, 32.95348
542.3964, 33.04873
542.8785, 32.90346
543.3607, 32.51982
543.8428, 32.12663
544.3249, 31.88221
544.8070, 31.71780
545.2891, 31.37687
545.7712, 30.65162
546.2534, 30.02988
546.7355, 29.50986
547.2176, 29.10996
547.6997, 28.94270
548.1818, 28.93656
548.6639, 28.82027
549.1461, 28.34624
549.6282, 27.62327
550.1103, 27.12920
550.5924, 26.94546
551.0745, 26.77452
551.5566, 26.47847
552.0388, 26.18857
552.5209, 26.02358
553.0030, 25.99026
553.4851, 25.97543
553.9672, 25.97325
554.4493, 25.92538
554.9315, 25.67364
555.4136, 25.20933
555.8957, 24.81083
556.3778, 24.66261
556.8599, 24.65845
557.3420, 24.50087
557.8242, 24.10748
558.3063, 23.78496
558.7884, 23.65826
559.2705, 23.58287
559.7526, 23.38556
560.2347, 23.09295
560.7169, 22.89447
561.1990, 22.93479
561.6811, 23.16571
562.1632, 23.38444
562.6453, 23.70714
563.1274, 23.80203
563.6096, 23.48183
564.0917, 23.07008
564.5738, 22.74614
565.0559, 22.54650
565.5380, 22.48062
566.0201, 22.61148
566.5023, 22.85351
566.9844, 22.96532
567.4665, 22.92299
567.9486, 22.91171
568.4307, 23.02206
568.9128, 23.18197
569.3950, 23.29696
569.8771, 23.36692
570.3592, 23.40858
570.8413, 23.38209
571.3234, 23.36144
571.8055, 23.43407
572.2877, 23.59015
572.7698, 23.76199
573.2519, 23.91511
573.7340, 24.04967
574.2161, 24.16032
574.6982, 24.18357
575.1804, 24.29871
575.6625, 24.56569
576.1446, 24.86518
576.6267, 25.15461
577.1088, 25.41327
577.5909, 25.60526
578.0731, 25.69477
578.5552, 25.74746
579.0373, 25.91210
579.5194, 26.20294
580.0015, 26.52579
580.4836, 26.88313
580.9658, 27.24585
581.4479, 27.59310
581.9300, 27.92752
582.4121, 28.26087
582.8942, 28.56446
583.3763, 28.89654
583.8585, 29.36333
584.3406, 29.91579
584.8227, 30.35043
585.3048, 30.57978
585.7869, 30.75462
586.2690, 31.07417
586.7512, 31.56073
587.2333, 32.10710
587.7154, 32.73173
588.1975, 33.39325
588.6796, 34.05618
589.1617, 34.75259
589.6438, 35.59380
590.1259, 36.60299
590.6080, 37.57806
591.0901, 38.12545
591.5723, 38.16261
592.0544, 38.59302
592.5365, 39.60713
593.0186, 40.75755
593.5007, 41.87237
593.9828, 42.95988
594.4650, 44.05133
594.9471, 45.15913
595.4292, 46.22538
595.9113, 47.16826
596.3934, 48.03374
596.8755, 48.91425
597.3577, 49.82204
597.8398, 50.73236
598.3219, 51.57560
598.8040, 52.40213
599.2861, 53.58350
599.7682, 55.42111
600.2504, 57.15551
600.7325, 58.66422
601.2146, 60.03032
601.6967, 61.20715
602.1788, 62.28407
602.6609, 63.59709
603.1431, 65.46441
