##NAMES=Alum-(Na)
##RRUFFID=R110204
##IDEAL CHEMISTRY=NaAl(S^6+^O_4_)_2_&#183;12H_2_O
##LOCALITY=Flux mine, near Patagonia, Arizona
##OWNER=RRUFF
##SOURCE=Gordon W Downs
##DESCRIPTION=Colorless ram's horn
##STATUS=The identification of this mineral has been confirmed only by single crystal X-ray diffraction.
##URL=rruff.info/R110204
169.0772, 78.70593
169.5593, 80.48717
170.0414, 82.53837
170.5236, 84.89095
171.0057, 87.56700
171.4878, 91.08653
171.9699, 94.57363
172.4520, 97.05901
172.9341, 98.63142
173.4163, 100.2646
173.8984, 102.6442
174.3805, 105.5820
174.8626, 108.6798
175.3447, 111.9884
175.8268, 115.3343
176.3090, 118.4197
176.7911, 121.2142
177.2732, 124.1944
177.7553, 127.3410
178.2374, 130.3849
178.7195, 133.3105
179.2017, 135.9315
179.6838, 138.5432
180.1659, 141.6600
180.6480, 145.3497
181.1301, 149.0182
181.6122, 152.3512
182.0944, 155.3035
182.5765, 157.6214
183.0586, 158.7092
183.5407, 159.1831
184.0228, 160.4455
184.5049, 162.5605
184.9871, 165.1301
185.4692, 167.8568
185.9513, 170.7020
186.4334, 173.3011
186.9155, 175.6935
187.3976, 177.7500
187.8798, 178.9114
188.3619, 179.0235
188.8440, 178.7759
189.3261, 179.4002
189.8082, 180.7961
190.2903, 181.5371
190.7725, 180.5668
191.2546, 178.1767
191.7367, 176.1449
192.2188, 174.6013
192.7009, 173.2798
193.1830, 171.8445
193.6652, 170.3047
194.1473, 168.5837
194.6294, 166.6675
195.1115, 164.5551
195.5936, 162.2046
196.0757, 159.5899
196.5579, 156.7809
197.0400, 153.8220
197.5221, 150.6846
198.0042, 147.6973
198.4863, 145.0611
198.9684, 142.7912
199.4506, 140.5188
199.9327, 138.2784
200.4148, 135.9864
200.8969, 133.4433
201.3790, 130.5822
201.8611, 127.7063
202.3433, 124.8805
202.8254, 122.0677
203.3075, 119.7949
203.7896, 118.3346
204.2717, 117.2551
204.7538, 115.3793
205.2360, 112.5140
205.7181, 109.5632
206.2002, 107.0491
206.6823, 105.0146
207.1644, 103.1038
207.6465, 101.2532
208.1287, 99.52676
208.6108, 98.06596
209.0929, 96.88242
209.5750, 95.92091
210.0571, 95.22264
210.5392, 94.86527
211.0214, 94.40321
211.5035, 93.84407
211.9856, 93.14597
212.4677, 92.00907
212.9498, 90.13341
213.4319, 88.48765
213.9140, 87.77895
214.3962, 88.36430
214.8783, 88.59504
215.3604, 88.24092
215.8425, 87.44360
216.3246, 86.80500
216.8067, 86.42702
217.2889, 85.99934
217.7710, 85.28896
218.2531, 84.15555
218.7352, 83.13313
219.2173, 82.22248
219.6994, 81.44261
220.1816, 80.95375
220.6637, 80.85988
221.1458, 80.85648
221.6279, 80.79790
222.1100, 80.77505
222.5921, 80.42321
223.0743, 79.53139
223.5564, 78.28027
224.0385, 77.52470
224.5206, 77.54062
225.0027, 77.64275
225.4848, 77.38840
225.9670, 76.58121
226.4491, 75.90421
226.9312, 75.43108
227.4133, 75.13026
227.8954, 74.84370
228.3775, 74.63926
228.8597, 74.36019
229.3418, 73.89069
229.8239, 73.11292
230.3060, 72.41872
230.7881, 71.84842
231.2702, 71.38305
231.7524, 70.96472
232.2345, 70.61206
232.7166, 70.28312
233.1987, 69.98695
233.6808, 69.84871
234.1629, 69.45076
234.6451, 68.64999
235.1272, 67.55824
235.6093, 66.65495
236.0914, 66.00179
236.5735, 65.45216
237.0556, 64.93642
237.5378, 64.48531
238.0199, 64.01109
238.5020, 63.55372
238.9841, 63.07170
239.4662, 62.37260
239.9483, 61.21806
240.4305, 60.17444
240.9126, 59.56425
241.3947, 59.62897
241.8768, 59.59803
242.3589, 59.41978
242.8410, 59.12589
243.3232, 58.84800
243.8053, 58.74836
244.2874, 58.43944
244.7695, 57.68193
245.2516, 56.18157
245.7337, 54.87122
246.2159, 53.76687
246.6980, 52.86654
247.1801, 52.22102
247.6622, 52.01017
248.1443, 51.77065
248.6264, 51.26347
249.1086, 50.32220
249.5907, 49.50470
250.0728, 48.83489
250.5549, 48.28999
251.0370, 47.84641
251.5191, 47.66705
252.0013, 47.33120
252.4834, 46.53239
252.9655, 44.80595
253.4476, 43.92678
253.9297, 44.37539
254.4118, 45.45814
254.8940, 45.54354
255.3761, 44.07524
255.8582, 42.59135
256.3403, 41.80167
256.8224, 42.02772
257.3046, 41.83024
257.7867, 40.90948
258.2688, 39.75633
258.7509, 39.45750
259.2330, 40.55473
259.7151, 41.40132
260.1973, 41.25879
260.6794, 39.83447
261.1615, 38.76587
261.6436, 38.19831
262.1257, 37.87223
262.6078, 37.27040
263.0900, 36.11934
263.5721, 35.37527
264.0542, 35.59219
264.5363, 37.04958
265.0184, 37.49709
265.5005, 36.49603
265.9827, 35.01390
266.4648, 34.51860
266.9469, 35.37914
267.4290, 36.17478
267.9111, 36.52218
268.3932, 36.41127
268.8754, 35.86184
269.3575, 34.64449
269.8396, 33.34098
270.3217, 32.72007
270.8038, 32.89046
271.2859, 33.35222
271.7681, 34.19041
272.2502, 35.36421
272.7323, 35.49926
273.2144, 34.21452
273.6965, 32.65890
274.1786, 32.16743
274.6608, 32.95257
275.1429, 33.63401
275.6250, 33.88224
276.1071, 33.74079
276.5892, 33.47709
277.0714, 33.03406
277.5535, 32.64420
278.0356, 32.58913
278.5177, 32.91099
278.9998, 33.10590
279.4819, 32.98387
279.9641, 32.67331
280.4462, 32.84058
280.9283, 33.60620
281.4104, 34.33318
281.8925, 34.42131
282.3746, 33.86073
282.8568, 33.42533
283.3389, 33.28375
283.8210, 33.31508
284.3031, 33.11815
284.7852, 32.65280
285.2673, 32.30260
285.7495, 32.40614
286.2316, 32.92781
286.7137, 33.41878
287.1958, 33.85636
287.6779, 34.18780
288.1600, 34.23304
288.6422, 33.98717
289.1243, 33.75668
289.6064, 33.79663
290.0885, 34.04166
290.5706, 34.11050
291.0527, 33.90632
291.5349, 33.66746
292.0170, 33.88720
292.4991, 34.51462
292.9812, 35.00645
293.4633, 34.78033
293.9454, 34.15639
294.4276, 34.32460
294.9097, 35.49535
295.3918, 36.79280
295.8739, 36.91137
296.3560, 36.09335
296.8381, 35.49022
297.3203, 35.78948
297.8024, 36.65400
298.2845, 37.40910
298.7666, 38.03547
299.2487, 38.65034
299.7308, 39.58282
300.2130, 40.64154
300.6951, 41.25200
301.1772, 40.63724
301.6593, 39.71318
302.1414, 39.93955
302.6235, 41.29207
303.1057, 42.82980
303.5878, 43.91640
304.0699, 44.61666
304.5520, 45.00045
305.0341, 44.82845
305.5162, 44.59499
305.9984, 44.88114
306.4805, 45.62314
306.9626, 46.40399
307.4447, 46.97747
307.9268, 47.40429
308.4089, 47.72441
308.8911, 47.82557
309.3732, 48.01411
309.8553, 48.66566
310.3374, 49.64297
310.8195, 50.49625
311.3016, 50.81814
311.7838, 50.96906
312.2659, 51.27814
312.7480, 51.84523
313.2301, 52.48480
313.7122, 53.29150
314.1943, 54.10005
314.6765, 54.54309
315.1586, 54.10296
315.6407, 53.49558
316.1228, 53.16994
316.6049, 53.23074
317.0870, 53.37847
317.5692, 53.45765
318.0513, 53.54814
318.5334, 53.76184
319.0155, 54.20140
319.4976, 54.71457
319.9797, 55.33607
320.4619, 56.09946
320.9440, 56.55001
321.4261, 56.26242
321.9082, 55.72003
322.3903, 55.38093
322.8724, 55.72682
323.3546, 55.89722
323.8367, 55.49388
324.3188, 54.54560
324.8009, 53.94508
325.2830, 54.06636
325.7651, 54.44248
326.2473, 54.77238
326.7294, 55.29192
327.2115, 55.46325
327.6936, 55.06691
328.1757, 54.22313
328.6578, 53.51197
329.1400, 53.02970
329.6221, 52.60829
330.1042, 52.18561
330.5863, 51.88250
331.0684, 51.35763
331.5505, 50.31277
332.0327, 49.10255
332.5148, 48.57476
332.9969, 49.34145
333.4790, 49.96584
333.9611, 49.91099
334.4432, 48.95670
334.9254, 48.20204
335.4075, 47.75285
335.8896, 47.41986
336.3717, 46.96084
336.8538, 46.39062
337.3359, 45.65003
337.8180, 44.61554
338.3001, 43.30178
338.7823, 42.48454
339.2644, 42.35032
339.7465, 42.36290
340.2286, 41.92456
340.7107, 40.92183
341.1928, 40.18940
341.6750, 39.97629
342.1571, 40.13146
342.6392, 40.16754
343.1213, 40.12612
343.6034, 39.75344
344.0855, 38.56681
344.5677, 36.63141
345.0498, 35.43437
345.5319, 35.35459
346.0140, 35.77234
346.4961, 35.39682
346.9782, 34.26513
347.4604, 33.26508
347.9425, 33.05613
348.4246, 33.41398
348.9067, 33.50596
349.3888, 33.25204
349.8709, 32.91317
350.3531, 32.85527
350.8352, 32.99634
351.3173, 33.03225
351.7994, 32.76237
352.2815, 32.32798
352.7636, 32.01722
353.2458, 31.82942
353.7279, 31.50474
354.2100, 30.64428
354.6921, 29.52271
355.1742, 28.62075
355.6563, 28.13384
356.1385, 27.86378
356.6206, 27.61886
357.1027, 27.41865
357.5848, 27.36404
358.0669, 27.67642
358.5490, 28.08086
359.0312, 28.35649
359.5133, 28.54895
359.9954, 28.40858
360.4775, 27.38198
360.9596, 25.91534
361.4417, 24.96973
361.9239, 25.54004
362.4060, 26.25996
362.8881, 26.21505
363.3702, 25.08530
363.8523, 24.41363
364.3344, 25.31778
364.8166, 26.72949
365.2987, 27.43542
365.7808, 26.17105
366.2629, 25.13646
366.7450, 25.10113
367.2271, 26.06982
367.7093, 26.72097
368.1914, 26.70217
368.6735, 26.44447
369.1556, 26.22372
369.6377, 25.99378
370.1198, 25.88604
370.6020, 26.11050
371.0841, 26.49005
371.5662, 26.33328
372.0483, 25.04057
372.5304, 23.94429
373.0125, 23.68211
373.4947, 24.70510
373.9768, 25.23448
374.4589, 25.00417
374.9410, 24.49926
375.4231, 24.55058
375.9052, 25.38370
376.3874, 26.14349
376.8695, 26.57053
377.3516, 26.67534
377.8337, 26.71268
378.3158, 26.69283
378.7979, 26.58357
379.2801, 26.29340
379.7622, 25.80574
380.2443, 25.46708
380.7264, 25.38915
381.2085, 25.46147
381.6906, 25.41401
382.1728, 25.24752
382.6549, 24.96242
383.1370, 24.28085
383.6191, 23.42088
384.1012, 23.41184
384.5833, 24.52668
385.0655, 25.92645
385.5476, 26.49452
386.0297, 26.39394
386.5118, 26.18382
386.9939, 26.06030
387.4760, 26.01754
387.9582, 26.08143
388.4403, 26.25377
388.9224, 26.40767
389.4045, 26.38643
389.8866, 26.29540
390.3687, 26.27838
390.8509, 26.33035
391.3330, 26.52860
391.8151, 27.13323
392.2972, 27.99993
392.7793, 28.55323
393.2614, 28.24313
393.7436, 27.68103
394.2257, 27.27496
394.7078, 27.09276
395.1899, 27.08782
395.6720, 27.33688
396.1541, 27.73624
396.6363, 28.11940
397.1184, 28.28517
397.6005, 28.57757
398.0826, 29.26880
398.5647, 30.47151
399.0468, 31.18219
399.5290, 30.81871
400.0111, 30.19698
400.4932, 29.97675
400.9753, 30.59461
401.4574, 31.02543
401.9395, 31.03993
402.4217, 30.76807
402.9038, 30.83935
403.3859, 31.42167
403.8680, 32.10128
404.3501, 32.71537
404.8322, 33.29715
405.3144, 33.67952
405.7965, 33.85236
406.2786, 33.83375
406.7607, 33.50780
407.2428, 32.74324
407.7249, 32.41975
408.2071, 33.06443
408.6892, 34.45063
409.1713, 34.98542
409.6534, 34.54232
410.1355, 33.98927
410.6176, 34.11047
411.0998, 34.82596
411.5819, 35.71855
412.0640, 36.79142
412.5461, 37.86547
413.0282, 38.62902
413.5103, 39.12048
413.9925, 39.58650
414.4746, 40.11658
414.9567, 40.73685
415.4388, 41.62646
415.9209, 42.87087
416.4030, 43.79723
416.8852, 43.25532
417.3673, 42.12515
417.8494, 41.83506
418.3315, 43.97912
418.8136, 46.27583
419.2957, 46.97652
419.7779, 46.34397
420.2600, 46.18784
420.7421, 47.56767
421.2242, 49.59823
421.7063, 51.66866
422.1884, 53.94401
422.6706, 55.79698
423.1527, 56.78451
423.6348, 57.29360
424.1169, 58.05799
424.5990, 59.04338
425.0811, 60.44367
425.5633, 62.47799
426.0454, 65.27779
426.5275, 67.75023
427.0096, 69.77526
427.4917, 71.59098
427.9738, 73.34472
428.4560, 74.78439
428.9381, 76.69172
429.4202, 79.25990
429.9023, 82.30199
430.3844, 85.34515
430.8665, 88.36750
431.3487, 91.40215
431.8308, 94.57108
432.3129, 97.89196
432.7950, 100.6568
433.2771, 102.7049
433.7592, 104.5841
434.2414, 107.1212
434.7235, 110.2573
435.2056, 113.2945
435.6877, 116.1034
436.1698, 118.6059
436.6519, 120.4012
437.1341, 121.5446
437.6162, 122.9770
438.0983, 125.8751
438.5804, 129.4377
439.0625, 132.2269
439.5446, 133.8830
440.0268, 135.1658
440.5089, 136.8288
440.9910, 138.6217
441.4731, 140.0094
441.9552, 140.4930
442.4373, 140.7126
442.9195, 140.9504
443.4016, 141.2300
443.8837, 141.8130
444.3658, 143.2129
444.8479, 144.7338
445.3300, 145.7970
445.8122, 145.5992
446.2943, 145.8512
446.7764, 147.2348
447.2585, 149.2893
447.7406, 150.8356
448.2227, 151.3773
448.7049, 151.8140
449.1870, 152.3530
449.6691, 152.9657
450.1512, 153.8333
450.6333, 154.9742
451.1154, 156.3404
451.5976, 158.0213
452.0797, 160.2812
452.5618, 161.9019
453.0439, 162.5670
453.5260, 162.5391
454.0081, 162.6861
454.4903, 163.0595
454.9724, 163.2774
455.4545, 163.0873
455.9366, 162.5349
456.4187, 161.8843
456.9008, 161.1225
457.3830, 160.3961
457.8651, 160.1321
458.3472, 160.0971
458.8293, 159.5281
459.3114, 157.9527
459.7935, 155.9436
460.2757, 154.1778
460.7578, 152.6048
461.2399, 150.9383
461.7220, 149.1925
462.2041, 147.1626
462.6862, 144.5965
463.1684, 141.3702
463.6505, 138.0581
464.1326, 134.6152
464.6147, 131.4033
465.0968, 128.8394
465.5789, 127.8925
466.0611, 126.8343
466.5432, 125.1363
467.0253, 122.8315
467.5074, 120.3672
467.9895, 117.3605
468.4716, 114.5555
468.9538, 112.3559
469.4359, 111.1369
469.9180, 109.7564
470.4001, 108.1834
470.8822, 106.4528
471.3643, 104.5413
471.8465, 102.2907
472.3286, 100.3401
472.8107, 98.99306
473.2928, 98.10592
473.7749, 96.61246
474.2570, 94.39797
474.7392, 92.21472
475.2213, 90.70010
475.7034, 89.75650
476.1855, 88.70377
476.6676, 87.44798
477.1497, 86.15053
477.6319, 85.11091
478.1140, 84.23629
478.5961, 83.23574
479.0782, 81.89582
479.5603, 80.41830
480.0424, 78.90571
480.5246, 77.39084
481.0067, 76.18943
481.4888, 75.85748
481.9709, 75.72520
482.4530, 75.12258
482.9352, 73.63204
483.4173, 72.39079
483.8994, 72.10340
484.3815, 72.28853
484.8636, 72.21627
485.3457, 71.65269
485.8279, 70.88752
486.3100, 69.86748
486.7921, 68.59516
487.2742, 67.61419
487.7563, 67.11256
488.2384, 66.70298
488.7206, 66.16293
489.2027, 65.39573
489.6848, 64.78252
490.1669, 64.39135
490.6490, 64.08788
491.1311, 63.60620
491.6133, 62.90495
492.0954, 62.34169
492.5775, 62.04390
493.0596, 61.96370
493.5417, 61.90993
494.0238, 61.88041
494.5060, 61.94863
494.9881, 62.31332
495.4702, 62.80818
495.9523, 63.04916
496.4344, 62.99150
496.9165, 62.63669
497.3987, 61.62756
497.8808, 60.35192
498.3629, 59.56195
498.8450, 59.91472
499.3271, 60.56055
499.8092, 61.25489
500.2914, 61.88832
500.7735, 61.84447
501.2556, 59.85532
501.7377, 57.88348
502.2198, 57.18278
502.7019, 58.44640
503.1841, 59.52151
503.6662, 60.21323
504.1483, 60.54941
504.6304, 60.52645
505.1125, 59.80235
505.5946, 59.28243
506.0768, 59.17882
506.5589, 59.39300
507.0410, 59.41200
507.5231, 59.17405
508.0052, 58.91340
508.4873, 58.75420
508.9695, 58.69905
509.4516, 58.64330
509.9337, 58.59994
510.4158, 58.49638
510.8979, 58.16866
511.3800, 57.68109
511.8622, 57.31916
512.3443, 57.10670
512.8264, 57.13124
513.3085, 57.72387
513.7906, 58.71040
514.2728, 59.46563
514.7549, 59.65548
515.2370, 59.45172
515.7191, 58.86788
516.2012, 57.88151
516.6833, 57.03468
517.1655, 56.52034
517.6476, 56.27912
518.1297, 56.26561
518.6118, 56.79261
519.0939, 57.14521
519.5760, 57.10976
520.0582, 56.82888
520.5403, 56.64563
521.0224, 56.58683
521.5045, 56.59381
521.9866, 56.68365
522.4688, 56.85585
522.9509, 56.90170
523.4330, 56.77180
523.9151, 56.62938
524.3972, 56.59496
524.8793, 56.66985
525.3615, 56.80956
525.8436, 57.03405
526.3257, 57.25672
526.8078, 57.33967
527.2899, 57.30192
527.7720, 57.22866
528.2542, 57.12355
528.7363, 57.02483
529.2184, 56.96070
529.7005, 56.93945
530.1826, 57.00277
530.6647, 57.39811
531.1469, 57.75484
531.6290, 57.63634
532.1111, 56.83002
532.5932, 56.31719
533.0753, 56.88995
533.5574, 57.77601
534.0396, 58.16502
534.5217, 57.42736
535.0038, 56.76303
535.4859, 56.17286
535.9680, 55.76307
536.4501, 55.95935
536.9323, 57.32818
537.4144, 58.33402
537.8965, 58.28782
538.3786, 57.16046
538.8607, 56.34219
539.3428, 55.87818
539.8250, 55.60220
540.3071, 55.42578
540.7892, 55.33556
541.2713, 55.20225
541.7534, 55.03090
542.2355, 54.74408
542.7177, 54.12532
543.1998, 53.27749
543.6819, 52.54482
544.1640, 52.21363
544.6461, 51.98891
545.1282, 51.55161
545.6104, 50.94569
546.0925, 50.43483
546.5746, 50.23137
547.0567, 50.11801
547.5388, 49.97897
548.0209, 49.84056
548.5031, 49.52805
548.9852, 48.90567
549.4673, 48.13643
549.9494, 47.37806
550.4315, 46.44098
550.9136, 45.83151
551.3958, 45.74904
551.8779, 45.99006
552.3600, 45.97704
552.8421, 45.70797
553.3242, 45.18476
553.8063, 44.26825
554.2885, 43.04702
554.7706, 42.26788
555.2527, 41.95778
555.7348, 41.80458
556.2169, 41.47597
556.6990, 41.09661
557.1812, 41.03634
557.6633, 41.42516
558.1454, 41.85981
558.6275, 41.94430
559.1096, 41.80335
559.5917, 41.65807
560.0739, 41.64568
560.5560, 41.60664
561.0381, 41.49861
561.5202, 41.30806
562.0023, 40.97696
562.4844, 40.19140
562.9666, 39.51723
563.4487, 39.22414
563.9308, 39.35933
564.4129, 39.64570
564.8950, 40.24183
565.3771, 40.81504
565.8593, 41.07186
566.3414, 40.93604
566.8235, 40.79642
567.3056, 40.66710
567.7877, 40.58411
568.2698, 40.61290
568.7520, 40.75175
569.2341, 40.97482
569.7162, 41.37413
570.1983, 41.78550
570.6804, 41.80127
571.1625, 41.48920
571.6447, 41.31755
572.1268, 41.74144
572.6089, 42.36798
573.0910, 42.81417
573.5731, 43.02592
574.0552, 43.17701
574.5374, 43.25802
575.0195, 43.36279
575.5016, 43.57884
575.9837, 43.92724
576.4658, 44.38187
576.9479, 45.04067
577.4301, 45.78195
577.9122, 46.36808
578.3943, 46.75035
578.8764, 47.07302
579.3585, 47.32487
579.8406, 47.53898
580.3228, 48.00961
580.8049, 48.78248
581.2870, 49.51225
581.7691, 49.82917
582.2512, 49.89068
582.7333, 50.41285
583.2155, 51.47790
583.6975, 52.61927
584.1796, 53.56216
584.6617, 54.26606
585.1439, 54.60695
585.6260, 54.24981
586.1081, 54.07425
586.5902, 54.62131
587.0723, 55.73410
587.5544, 57.09009
588.0366, 59.42388
588.5187, 61.17559
589.0008, 61.33725
589.4829, 60.04177
589.9650, 59.99595
590.4471, 61.97176
590.9293, 64.20119
591.4114, 65.82962
591.8935, 66.76633
592.3756, 67.78165
592.8577, 68.86488
593.3398, 70.06219
593.8220, 71.60513
594.3041, 73.40698
594.7862, 74.65006
595.2683, 74.96263
595.7504, 75.27641
596.2325, 77.04144
596.7147, 79.81273
597.1968, 82.39470
597.6789, 84.24979
598.1610, 85.76286
598.6431, 86.95727
599.1252, 87.96473
599.6074, 89.38682
600.0895, 91.61958
600.5716, 94.17290
601.0537, 96.92521
601.5358, 99.94604
602.0179, 102.6033
602.5001, 104.4490
602.9822, 106.3775
603.4643, 109.2041
603.9464, 113.3827
604.4285, 116.6301
604.9106, 118.5134
605.3928, 120.0222
605.8749, 122.9110
606.3570, 127.0710
606.8391, 130.8757
607.3212, 133.6891
607.8033, 136.0649
608.2855, 138.8009
608.7676, 141.8282
609.2497, 145.0004
609.7318, 148.2059
610.2139, 151.5113
610.6960, 155.0694
611.1782, 158.8627
611.6603, 162.3103
612.1424, 165.3671
612.6245, 167.9383
613.1066, 169.9507
613.5887, 171.3342
614.0709, 172.3365
614.5530, 172.8546
615.0351, 173.0987
615.5172, 173.3994
615.9993, 173.9392
616.4814, 173.6911
616.9636, 172.4191
617.4457, 170.4356
617.9278, 168.1775
618.4099, 165.6635
618.8920, 163.1264
619.3741, 160.6812
619.8563, 158.2205
620.3384, 155.5249
620.8205, 152.6646
621.3026, 149.9950
621.7847, 148.1873
622.2668, 146.3004
622.7490, 143.4617
623.2311, 139.4650
623.7132, 135.9605
624.1953, 133.7371
624.6774, 131.9250
625.1595, 129.9255
625.6417, 127.6866
626.1238, 125.3221
626.6059, 122.7688
627.0880, 120.1938
627.5701, 117.8057
628.0522, 115.6016
628.5344, 113.6628
629.0165, 112.1289
629.4986, 110.6843
629.9807, 108.6085
630.4628, 106.0044
630.9449, 103.4976
631.4271, 101.4392
631.9092, 99.57868
632.3913, 97.68237
632.8734, 95.73995
633.3555, 93.77391
633.8376, 91.73594
634.3198, 89.70133
634.8019, 87.71294
635.2840, 85.78917
635.7661, 83.79819
636.2482, 81.48524
636.7303, 79.28132
637.2125, 77.56021
637.6946, 76.65916
638.1767, 75.16613
638.6588, 72.82398
639.1409, 70.24264
639.6230, 68.37427
640.1052, 67.16725
640.5873, 65.97741
641.0694, 64.68980
641.5515, 63.28133
642.0336, 61.55482
642.5157, 59.67805
642.9979, 58.11139
643.4800, 57.41091
643.9621, 56.84597
644.4442, 55.86581
644.9263, 54.54139
645.4084, 53.35774
645.8906, 52.63842
646.3727, 51.95879
646.8548, 51.10548
647.3369, 50.05199
647.8190, 49.03933
648.3011, 48.05348
648.7833, 47.14216
649.2654, 46.40908
649.7475, 45.87395
650.2296, 45.06605
650.7117, 43.86555
651.1938, 42.74271
651.6760, 42.52266
652.1581, 42.89261
652.6402, 42.84740
653.1223, 41.95656
653.6044, 40.92735
654.0865, 40.42191
654.5687, 40.22219
655.0508, 39.90541
655.5329, 39.24834
656.0150, 38.50819
656.4971, 37.70494
656.9792, 36.87577
657.4614, 36.20200
657.9435, 35.81892
658.4256, 35.40327
658.9077, 34.79399
659.3898, 34.00930
659.8719, 33.54258
660.3541, 33.44686
660.8362, 33.42080
661.3183, 33.20391
661.8004, 32.87457
662.2825, 32.81201
662.7646, 33.05743
663.2468, 33.20573
663.7289, 32.80650
664.2110, 32.13184
664.6931, 31.51254
665.1752, 30.98385
665.6573, 30.61389
666.1395, 30.51675
666.6216, 30.55821
667.1037, 30.57304
667.5858, 30.41593
