##NAMES=Alunogen
##RRUFFID=R070601
##IDEAL CHEMISTRY=Al_2_(S^6+^O_4_)_3_(H_2_O)_12_&#183;5H_2_O
##LOCALITY=Alum Grotto, Vulcano Island, Aeolian Islands, Messina, Sicily, Italy
##OWNER=RRUFF
##SOURCE=James Shigley
##DESCRIPTION=Granular aggregates of white microcrystals associated with light tan to light purple coquimbite.
##STATUS=The identification of this mineral has been confirmed by single-crystal X-ray diffraction.
##URL=rruff.info/R070601
100.4637, 8383.720
100.9459, 8639.026
101.4280, 8932.143
101.9101, 9212.848
102.3922, 9446.686
102.8743, 9395.388
103.3564, 9373.278
103.8386, 9402.276
104.3207, 9439.287
104.8028, 9443.550
105.2849, 9411.362
105.7670, 9375.333
106.2491, 9356.031
106.7313, 9345.453
107.2134, 9333.030
107.6955, 9319.506
108.1776, 9301.614
108.6597, 9263.334
109.1419, 9184.374
109.6240, 9107.094
110.1061, 9053.710
110.5882, 9019.958
111.0703, 8988.477
111.5524, 8938.201
112.0346, 8857.439
112.5167, 8800.406
112.9988, 8781.026
113.4809, 8772.756
113.9630, 8760.777
114.4451, 8741.159
114.9273, 8720.386
115.4094, 8711.521
115.8915, 8720.570
116.3736, 8734.838
116.8557, 8767.002
117.3378, 8799.721
117.8200, 8808.641
118.3021, 8778.514
118.7842, 8718.615
119.2663, 8692.172
119.7484, 8722.519
120.2305, 8754.530
120.7127, 8765.019
121.1948, 8759.020
121.6769, 8758.270
122.1590, 8779.662
122.6411, 8824.984
123.1232, 8870.421
123.6054, 8929.303
124.0875, 8981.068
124.5696, 9000.567
125.0517, 8980.958
125.5338, 8953.209
126.0159, 8948.182
126.4981, 8961.498
126.9802, 8982.083
127.4623, 9012.318
127.9444, 9047.675
128.4265, 9072.394
128.9086, 9073.366
129.3907, 9075.380
129.8729, 9105.248
130.3550, 9162.998
130.8371, 9215.840
131.3192, 9230.609
131.8013, 9201.676
132.2834, 9176.497
132.7656, 9172.424
133.2477, 9171.404
133.7298, 9161.519
134.2119, 9138.994
134.6940, 9110.284
135.1761, 9088.306
135.6583, 9080.288
136.1404, 9066.195
136.6225, 9033.311
137.1046, 8996.713
137.5867, 8974.901
138.0689, 8979.529
138.5510, 9004.740
139.0331, 9011.227
139.5152, 8982.261
139.9973, 8950.231
140.4794, 8919.930
140.9616, 8891.409
141.4437, 8863.534
141.9258, 8835.309
142.4079, 8806.922
142.8900, 8777.779
143.3721, 8749.970
143.8543, 8720.029
144.3364, 8678.644
144.8185, 8628.052
145.3006, 8587.592
145.7827, 8582.667
146.2648, 8628.438
146.7470, 8650.776
147.2291, 8625.849
147.7112, 8584.994
148.1933, 8564.958
148.6754, 8576.902
149.1575, 8600.855
149.6397, 8603.969
150.1218, 8584.701
150.6039, 8569.111
151.0860, 8573.434
151.5681, 8589.762
152.0502, 8592.979
152.5324, 8569.460
153.0145, 8534.433
153.4966, 8511.168
153.9787, 8502.597
154.4608, 8495.829
154.9429, 8476.381
155.4251, 8443.099
155.9072, 8421.183
156.3893, 8434.946
156.8714, 8458.274
157.3535, 8469.512
157.8356, 8463.684
158.3178, 8442.962
158.7999, 8405.067
159.2820, 8336.103
159.7641, 8283.849
160.2462, 8267.575
160.7283, 8272.980
161.2105, 8288.152
161.6926, 8311.660
162.1747, 8337.563
162.6568, 8338.720
163.1389, 8291.902
163.6210, 8246.925
164.1032, 8216.340
164.5853, 8197.058
165.0674, 8182.830
165.5495, 8169.653
166.0316, 8157.519
166.5137, 8145.535
166.9959, 8141.358
167.4780, 8130.340
167.9601, 8095.135
168.4422, 8044.827
168.9243, 8007.042
169.4064, 8013.974
169.8886, 8085.582
170.3707, 8123.562
170.8528, 8103.659
171.3349, 8075.064
171.8170, 8069.774
172.2991, 8091.567
172.7813, 8120.396
173.2634, 8129.776
173.7455, 8107.487
174.2276, 8088.269
174.7097, 8070.814
175.1918, 8057.003
175.6740, 8048.698
176.1561, 8046.462
176.6382, 8049.773
177.1203, 8059.372
177.6024, 8079.691
178.0845, 8095.106
178.5667, 8103.958
179.0488, 8105.810
179.5309, 8097.252
180.0130, 8073.654
180.4951, 8044.922
180.9772, 8032.672
181.4594, 8039.852
181.9415, 8052.801
182.4236, 8071.342
182.9057, 8092.692
183.3878, 8102.935
183.8699, 8091.177
184.3521, 8067.013
184.8342, 8050.256
185.3163, 8041.695
185.7984, 8040.000
186.2805, 8047.387
186.7626, 8064.234
187.2448, 8078.755
187.7269, 8086.105
188.2090, 8086.924
188.6911, 8052.803
189.1732, 8083.015
189.6553, 8098.148
190.1375, 8099.012
190.6196, 8042.871
191.1017, 8060.340
191.5838, 8048.310
192.0659, 8035.070
192.5480, 8062.900
193.0302, 8015.050
193.5123, 8042.229
193.9944, 8039.458
194.4765, 8050.394
194.9586, 8031.647
195.4408, 8022.069
195.9229, 8042.182
196.4050, 8045.855
196.8871, 8023.692
197.3692, 8035.500
197.8513, 7986.614
198.3335, 7990.986
198.8156, 8018.338
199.2977, 7997.668
199.7798, 8010.018
200.2619, 8009.792
200.7440, 7952.414
201.2262, 7994.429
201.7083, 7993.459
202.1904, 7948.355
202.6725, 7986.965
203.1546, 7947.944
203.6367, 7936.633
204.1189, 7946.174
204.6010, 7933.978
205.0831, 7956.055
205.5652, 7945.113
206.0473, 7931.222
206.5294, 7930.205
207.0116, 7892.706
207.4937, 7922.887
207.9758, 7906.838
208.4579, 7913.769
208.9400, 7925.908
209.4221, 7898.165
209.9043, 7896.458
210.3864, 7891.375
210.8685, 7890.776
211.3506, 7895.694
211.8327, 7902.359
212.3148, 7906.328
212.7970, 7909.176
213.2791, 7903.875
213.7612, 7887.722
214.2433, 7865.831
214.7254, 7838.724
215.2075, 7807.488
215.6897, 7778.702
216.1718, 7762.811
216.6539, 7767.956
217.1360, 7771.824
217.6181, 7771.850
218.1002, 7771.395
218.5824, 7775.322
219.0645, 7785.180
219.5466, 7795.816
220.0287, 7797.051
220.5108, 7781.145
220.9929, 7773.884
221.4751, 7790.256
221.9572, 7813.902
222.4393, 7821.659
222.9214, 7804.958
223.4035, 7773.940
223.8856, 7746.195
224.3678, 7719.052
224.8499, 7700.075
225.3320, 7693.385
225.8141, 7695.841
226.2962, 7703.636
226.7783, 7717.913
227.2605, 7731.956
227.7426, 7732.916
228.2247, 7721.625
228.7068, 7700.735
229.1889, 7658.310
229.6710, 7605.954
230.1532, 7574.999
230.6353, 7581.136
231.1174, 7609.188
231.5995, 7633.390
232.0816, 7658.347
232.5637, 7668.823
233.0459, 7646.271
233.5280, 7599.526
234.0101, 7563.201
234.4922, 7552.385
234.9743, 7557.021
235.4564, 7557.788
235.9386, 7552.257
236.4207, 7549.831
236.9028, 7561.688
237.3849, 7584.812
237.8670, 7598.771
238.3491, 7594.584
238.8313, 7577.617
239.3134, 7555.493
239.7955, 7524.908
240.2776, 7499.435
240.7597, 7489.603
241.2418, 7494.881
241.7240, 7508.406
242.2061, 7533.080
242.6882, 7561.635
243.1703, 7588.487
243.6524, 7616.610
244.1345, 7631.704
244.6167, 7609.768
245.0988, 7550.340
245.5809, 7508.602
246.0630, 7513.339
246.5451, 7539.594
247.0272, 7563.715
247.5094, 7583.441
247.9915, 7598.599
248.4736, 7611.211
248.9557, 7621.913
249.4378, 7620.234
249.9199, 7586.992
250.4021, 7548.660
250.8842, 7529.863
251.3663, 7536.545
251.8484, 7552.969
252.3305, 7562.002
252.8126, 7562.252
253.2948, 7567.466
253.7769, 7594.275
254.2590, 7620.533
254.7411, 7625.735
255.2232, 7603.808
255.7053, 7575.200
256.1875, 7563.176
256.6696, 7569.782
257.1517, 7579.450
257.6338, 7594.444
258.1159, 7607.114
258.5981, 7610.066
259.0802, 7601.159
259.5623, 7588.861
260.0444, 7581.808
260.5265, 7579.712
261.0086, 7584.130
261.4908, 7613.151
261.9729, 7638.474
262.4550, 7632.348
262.9371, 7587.722
263.4192, 7542.727
263.9013, 7553.734
264.3835, 7637.097
264.8656, 7690.193
265.3477, 7653.324
265.8298, 7600.343
266.3119, 7579.584
266.7940, 7600.952
267.2762, 7632.189
267.7583, 7630.787
268.2404, 7588.258
268.7225, 7558.796
269.2046, 7564.120
269.6867, 7578.725
270.1689, 7589.375
270.6510, 7593.549
271.1331, 7595.053
271.6152, 7597.295
272.0973, 7599.929
272.5794, 7605.355
273.0616, 7613.483
273.5437, 7625.087
274.0258, 7645.193
274.5079, 7673.355
274.9900, 7696.966
275.4721, 7698.694
275.9543, 7673.965
276.4364, 7656.708
276.9185, 7654.916
277.4006, 7659.464
277.8827, 7665.092
278.3648, 7671.804
278.8470, 7684.816
279.3291, 7718.584
279.8112, 7779.621
280.2933, 7808.930
280.7754, 7764.179
281.2575, 7714.032
281.7397, 7689.186
282.2218, 7691.570
282.7039, 7708.970
283.1860, 7739.620
283.6681, 7786.413
284.1502, 7805.396
284.6324, 7763.235
285.1145, 7718.694
285.5966, 7700.277
286.0787, 7706.359
286.5608, 7719.802
287.0429, 7727.424
287.5251, 7729.088
288.0072, 7729.791
288.4893, 7724.843
288.9714, 7724.034
289.4535, 7737.091
289.9356, 7759.311
290.4178, 7775.976
290.8999, 7772.383
291.3820, 7749.964
291.8641, 7734.334
292.3462, 7727.437
292.8283, 7726.032
293.3105, 7731.379
293.7926, 7740.897
294.2747, 7748.625
294.7568, 7749.480
295.2389, 7744.921
295.7210, 7743.576
296.2032, 7746.065
296.6853, 7751.376
297.1674, 7759.372
297.6495, 7769.421
298.1316, 7780.540
298.6137, 7793.518
299.0959, 7806.886
299.5780, 7813.144
300.0601, 7802.133
300.5422, 7802.894
301.0243, 7840.213
301.5064, 7892.370
301.9886, 7926.363
302.4707, 7920.482
302.9528, 7892.646
303.4349, 7885.984
303.9170, 7909.404
304.3991, 7932.881
304.8813, 7948.246
305.3634, 7955.921
305.8455, 7954.178
306.3276, 7939.859
306.8097, 7920.721
307.2918, 7909.541
307.7740, 7908.096
308.2561, 7908.555
308.7382, 7915.047
309.2203, 7918.924
309.7024, 7908.212
310.1845, 7875.458
310.6667, 7841.622
311.1488, 7838.088
311.6309, 7870.177
312.1130, 7891.079
312.5951, 7878.370
313.0772, 7851.896
313.5594, 7827.986
314.0415, 7809.573
314.5236, 7790.615
315.0057, 7761.671
315.4878, 7722.940
315.9699, 7696.102
316.4521, 7699.047
316.9342, 7705.361
317.4163, 7686.497
317.8984, 7639.708
318.3805, 7597.197
318.8626, 7587.540
319.3448, 7604.741
319.8269, 7614.271
320.3090, 7611.529
320.7911, 7595.980
321.2732, 7562.155
321.7553, 7511.736
322.2375, 7470.580
322.7196, 7459.350
323.2017, 7467.388
323.6838, 7464.541
324.1659, 7444.630
324.6480, 7418.592
325.1302, 7391.921
325.6123, 7365.775
326.0944, 7347.533
326.5765, 7346.629
327.0586, 7353.054
327.5407, 7349.297
328.0229, 7332.128
328.5050, 7315.280
328.9871, 7314.568
329.4692, 7323.917
329.9513, 7322.479
330.4334, 7293.170
330.9156, 7259.367
331.3977, 7247.608
331.8798, 7258.544
332.3619, 7270.814
332.8440, 7268.845
333.3261, 7257.905
333.8083, 7258.281
334.2904, 7284.466
334.7725, 7309.612
335.2546, 7314.363
335.7367, 7301.994
336.2188, 7288.021
336.7010, 7279.175
337.1831, 7274.667
337.6652, 7272.156
338.1473, 7278.812
338.6294, 7277.080
339.1115, 7249.842
339.5937, 7209.461
340.0758, 7184.066
340.5579, 7185.838
341.0400, 7203.517
341.5221, 7214.760
342.0042, 7221.095
342.4864, 7219.418
342.9685, 7203.598
343.4506, 7181.479
343.9327, 7163.740
344.4148, 7153.266
344.8969, 7143.488
345.3791, 7123.804
345.8612, 7084.131
346.3433, 7062.792
346.8254, 7068.825
347.3075, 7087.177
347.7896, 7113.641
348.2718, 7144.315
348.7539, 7164.439
349.2360, 7157.245
349.7181, 7116.635
350.2002, 7087.050
350.6823, 7071.169
351.1645, 7061.761
351.6466, 7061.687
352.1287, 7066.024
352.6108, 7061.452
353.0929, 7036.012
353.5750, 6991.782
354.0572, 6967.616
354.5393, 6982.721
355.0214, 6996.504
355.5035, 7001.832
355.9856, 6999.768
356.4677, 6991.708
356.9499, 6977.957
357.4320, 6961.412
357.9141, 6951.479
358.3962, 6950.617
358.8783, 6953.659
359.3604, 6969.162
359.8426, 6983.359
360.3247, 6979.612
360.8068, 6953.432
361.2889, 6919.927
361.7710, 6906.093
362.2531, 6922.336
362.7353, 6930.115
363.2174, 6915.850
363.6995, 6900.917
364.1816, 6900.254
364.6637, 6914.165
365.1458, 6930.168
365.6280, 6934.848
366.1101, 6927.196
366.5922, 6922.308
367.0743, 6922.747
367.5564, 6923.791
368.0385, 6924.389
368.5207, 6923.943
369.0028, 6921.203
369.4849, 6915.018
369.9670, 6905.918
370.4491, 6896.492
370.9312, 6888.462
371.4134, 6876.366
371.8955, 6845.842
372.3776, 6812.217
372.8597, 6801.123
373.3418, 6829.583
373.8239, 6873.819
374.3061, 6903.792
374.7882, 6919.105
375.2703, 6922.337
375.7524, 6905.724
376.2345, 6881.968
376.7166, 6869.397
377.1988, 6873.980
377.6809, 6876.923
378.1630, 6855.204
378.6451, 6817.762
379.1272, 6806.938
379.6093, 6845.949
380.0915, 6897.682
380.5736, 6907.618
381.0557, 6873.807
381.5378, 6842.398
382.0199, 6831.554
382.5020, 6830.481
382.9842, 6819.622
383.4663, 6794.881
383.9484, 6778.517
384.4305, 6798.929
384.9126, 6860.243
385.3947, 6892.135
385.8769, 6867.976
386.3590, 6834.247
386.8411, 6821.877
387.3232, 6829.216
387.8053, 6840.177
388.2874, 6844.271
388.7696, 6842.611
389.2517, 6844.468
389.7338, 6861.447
390.2159, 6868.112
390.6980, 6844.972
391.1801, 6810.496
391.6623, 6794.003
392.1444, 6808.117
392.6265, 6840.237
393.1086, 6863.567
393.5907, 6875.940
394.0728, 6881.328
394.5550, 6870.407
395.0371, 6859.280
395.5192, 6863.410
396.0013, 6883.529
396.4834, 6905.347
396.9655, 6910.699
397.4477, 6894.949
397.9298, 6887.841
398.4119, 6895.727
398.8940, 6906.627
399.3761, 6920.754
399.8582, 6934.612
400.3404, 6940.351
400.8225, 6928.967
401.3046, 6906.823
401.7867, 6905.179
402.2688, 6937.785
402.7509, 6966.054
403.2331, 6976.845
403.7152, 6977.029
404.1973, 6972.538
404.6794, 6963.569
405.1615, 6956.763
405.6436, 6960.424
406.1258, 6974.836
406.6079, 6997.416
407.0900, 7037.386
407.5721, 7077.018
408.0542, 7098.021
408.5363, 7098.838
409.0185, 7096.933
409.5006, 7103.669
409.9827, 7115.414
410.4648, 7120.416
410.9469, 7114.008
411.4290, 7110.506
411.9112, 7131.341
412.3933, 7171.133
412.8754, 7194.013
413.3575, 7179.497
413.8396, 7155.938
414.3217, 7149.034
414.8039, 7157.785
415.2860, 7166.598
415.7681, 7166.007
416.2502, 7157.995
416.7323, 7152.441
417.2144, 7141.644
417.6966, 7141.709
418.1787, 7167.530
418.6608, 7204.152
419.1429, 7227.814
419.6250, 7230.270
420.1071, 7222.292
420.5893, 7222.779
421.0714, 7239.774
421.5535, 7248.440
422.0356, 7237.037
422.5177, 7227.070
422.9998, 7236.292
423.4820, 7262.760
423.9641, 7290.181
424.4462, 7304.332
424.9283, 7305.239
425.4104, 7301.896
425.8925, 7282.696
426.3747, 7272.712
426.8568, 7279.574
427.3389, 7299.176
427.8210, 7328.090
428.3031, 7366.951
428.7852, 7405.985
429.2674, 7421.349
429.7495, 7404.014
430.2316, 7395.229
430.7137, 7410.806
431.1958, 7436.108
431.6779, 7464.624
432.1601, 7495.124
432.6422, 7521.763
433.1243, 7537.725
433.6064, 7545.223
434.0885, 7555.508
434.5706, 7571.831
435.0528, 7586.877
435.5349, 7588.340
436.0170, 7581.751
436.4991, 7587.964
436.9812, 7626.414
437.4633, 7670.580
437.9455, 7686.635
438.4276, 7678.171
438.9097, 7685.870
439.3918, 7738.219
439.8739, 7818.715
440.3560, 7872.066
440.8382, 7898.753
441.3203, 7904.148
441.8024, 7865.626
442.2845, 7815.202
442.7666, 7800.753
443.2487, 7834.892
443.7309, 7888.534
444.2130, 7922.212
444.6951, 7929.120
445.1772, 7937.035
445.6593, 7946.215
446.1415, 7955.912
446.6236, 7967.011
447.1057, 7978.320
447.5878, 7986.197
448.0699, 7986.932
448.5521, 7983.195
449.0342, 7989.506
449.5163, 8003.720
449.9984, 8032.864
450.4805, 8095.636
450.9626, 8163.321
451.4448, 8200.404
451.9269, 8196.173
452.4090, 8187.283
452.8911, 8228.755
453.3732, 8323.199
453.8553, 8385.276
454.3375, 8383.993
454.8196, 8367.603
455.3017, 8369.139
455.7838, 8386.900
456.2659, 8412.002
456.7480, 8448.912
457.2302, 8487.365
457.7123, 8505.638
458.1944, 8501.751
458.6765, 8507.795
459.1586, 8549.902
459.6407, 8613.741
460.1229, 8651.859
460.6050, 8641.734
461.0871, 8639.354
461.5692, 8680.730
462.0513, 8742.522
462.5334, 8783.297
463.0156, 8790.387
463.4977, 8778.979
463.9798, 8767.742
464.4619, 8751.946
464.9440, 8753.768
465.4261, 8789.740
465.9083, 8827.276
466.3904, 8846.856
466.8725, 8851.652
467.3546, 8856.754
467.8367, 8873.916
468.3188, 8897.931
468.8010, 8900.426
469.2831, 8862.021
469.7652, 8831.971
470.2473, 8822.595
470.7294, 8822.371
471.2115, 8822.324
471.6937, 8819.888
472.1758, 8814.018
472.6579, 8805.217
473.1400, 8793.384
473.6221, 8770.263
474.1042, 8730.392
474.5864, 8685.465
475.0685, 8638.689
475.5506, 8592.771
476.0327, 8556.271
476.5148, 8543.011
476.9969, 8534.262
477.4791, 8510.135
477.9612, 8470.832
478.4433, 8417.298
478.9254, 8345.146
479.4075, 8263.439
479.8896, 8194.956
480.3718, 8142.827
480.8539, 8093.462
481.3360, 8040.387
481.8181, 7990.011
482.3002, 7955.874
482.7823, 7937.891
483.2645, 7914.149
483.7466, 7860.214
484.2287, 7772.105
484.7108, 7699.311
485.1929, 7652.167
485.6750, 7607.056
486.1572, 7553.670
486.6393, 7498.356
487.1214, 7452.491
487.6035, 7421.628
488.0856, 7397.621
488.5677, 7362.441
489.0499, 7308.475
489.5320, 7269.250
490.0141, 7271.825
490.4962, 7272.901
490.9783, 7243.799
491.4604, 7187.514
491.9426, 7130.945
492.4247, 7088.953
492.9068, 7059.415
493.3889, 7038.484
493.8710, 7027.258
494.3531, 7019.187
494.8353, 7013.012
495.3174, 7006.796
495.7995, 6995.661
496.2816, 6974.784
496.7637, 6957.280
497.2458, 6949.854
497.7280, 6949.817
498.2101, 6955.802
498.6922, 6967.629
499.1743, 6974.914
499.6564, 6963.896
500.1385, 6929.250
500.6207, 6902.720
501.1028, 6880.955
501.5849, 6869.148
502.0670, 6877.877
502.5491, 6897.256
503.0313, 6907.654
503.5134, 6898.137
503.9955, 6877.569
504.4776, 6868.918
504.9597, 6880.251
505.4418, 6883.428
505.9240, 6866.142
506.4061, 6846.365
506.8882, 6835.288
507.3703, 6833.154
507.8524, 6833.125
508.3345, 6828.924
508.8167, 6823.316
509.2988, 6827.733
509.7809, 6846.548
510.2630, 6855.458
510.7451, 6830.113
511.2272, 6788.983
511.7094, 6773.288
512.1915, 6799.050
512.6736, 6824.707
513.1557, 6825.683
513.6378, 6814.118
514.1199, 6812.183
514.6021, 6825.227
515.0842, 6842.040
515.5663, 6850.990
516.0484, 6851.883
516.5305, 6844.819
517.0126, 6818.293
517.4948, 6797.084
517.9769, 6795.607
518.4590, 6805.245
518.9411, 6809.372
519.4232, 6799.937
519.9053, 6786.300
520.3875, 6790.033
520.8696, 6820.232
521.3517, 6836.283
521.8338, 6817.502
522.3159, 6796.390
522.7980, 6791.370
523.2802, 6800.615
523.7623, 6811.080
524.2444, 6816.413
524.7265, 6818.021
525.2086, 6820.422
525.6907, 6824.073
526.1729, 6818.116
526.6550, 6792.388
527.1371, 6757.463
527.6192, 6735.831
528.1013, 6730.062
528.5834, 6729.164
529.0656, 6737.557
529.5477, 6745.129
530.0298, 6738.704
530.5119, 6717.627
530.9940, 6691.272
531.4761, 6665.955
531.9583, 6642.187
532.4404, 6631.981
532.9225, 6651.820
533.4046, 6666.665
533.8867, 6673.656
534.3688, 6671.572
534.8510, 6655.535
535.3331, 6625.233
535.8152, 6593.691
536.2973, 6578.500
536.7794, 6579.467
537.2615, 6574.650
537.7437, 6559.386
538.2258, 6543.551
538.7079, 6533.060
539.1900, 6526.331
539.6721, 6520.596
540.1542, 6516.590
540.6364, 6511.423
541.1185, 6501.021
541.6006, 6487.281
542.0827, 6477.038
542.5648, 6472.970
543.0469, 6470.464
543.5291, 6463.327
544.0112, 6450.203
544.4933, 6436.978
544.9754, 6420.040
545.4575, 6406.469
545.9396, 6402.109
546.4218, 6404.020
546.9039, 6405.247
547.3860, 6402.019
547.8681, 6397.080
548.3502, 6398.324
548.8323, 6411.300
549.3145, 6414.294
549.7966, 6395.667
550.2787, 6373.260
550.7608, 6351.777
551.2429, 6333.897
551.7250, 6327.039
552.2072, 6346.167
552.6893, 6373.249
553.1714, 6373.961
553.6535, 6348.363
554.1356, 6327.463
554.6177, 6324.070
555.0999, 6333.693
555.5820, 6351.324
556.0641, 6384.576
556.5462, 6400.894
557.0283, 6379.864
557.5104, 6349.198
557.9926, 6333.200
558.4747, 6332.002
558.9568, 6332.132
559.4389, 6323.544
559.9210, 6309.106
560.4031, 6303.440
560.8853, 6311.058
561.3674, 6320.141
561.8495, 6332.173
562.3316, 6342.602
562.8137, 6349.118
563.2958, 6350.893
563.7780, 6346.036
564.2601, 6327.847
564.7422, 6302.034
565.2243, 6285.669
565.7064, 6279.280
566.1885, 6281.378
566.6707, 6296.040
567.1528, 6316.690
567.6349, 6328.309
568.1170, 6328.267
568.5991, 6325.547
569.0812, 6318.937
569.5634, 6313.460
570.0455, 6317.951
570.5276, 6331.917
571.0097, 6343.878
571.4918, 6344.049
571.9739, 6333.484
572.4561, 6324.279
572.9382, 6320.680
573.4203, 6312.472
573.9024, 6284.240
574.3845, 6259.315
574.8666, 6265.313
575.3488, 6304.578
575.8309, 6346.007
576.3130, 6361.608
576.7951, 6356.381
577.2772, 6349.490
577.7593, 6340.125
578.2415, 6334.563
578.7236, 6337.791
579.2057, 6347.028
579.6878, 6355.016
580.1699, 6360.746
580.6520, 6367.078
581.1342, 6379.474
581.6163, 6390.988
582.0984, 6388.080
582.5805, 6371.114
583.0626, 6358.957
583.5447, 6369.408
584.0269, 6400.155
584.5090, 6419.928
584.9911, 6419.827
585.4732, 6420.255
585.9553, 6423.492
586.4374, 6429.188
586.9196, 6438.947
587.4017, 6452.238
587.8838, 6462.577
588.3659, 6458.971
588.8480, 6447.582
589.3301, 6452.720
589.8123, 6478.355
590.2944, 6503.633
590.7765, 6515.012
591.2586, 6518.980
591.7407, 6533.063
592.2228, 6564.466
592.7050, 6590.116
593.1871, 6597.789
593.6692, 6599.185
594.1513, 6608.216
594.6334, 6625.198
595.1155, 6639.466
595.5977, 6641.337
596.0798, 6634.082
