##NAMES=Alunite
##RRUFFID=R070448
##IDEAL CHEMISTRY=KAl_3_(S^6+^O_4_)_2_(OH)_6_
##LOCALITY=Veta del Medio, Inca del Oro, Chile
##OWNER=RRUFF
##SOURCE=Bob Jenkins
##DESCRIPTION=Yellow tabular rhombohedra scattered over matrix
##STATUS=The identification of this mineral has been confirmed only by single crystal X-ray diffraction.
##URL=rruff.info/R070448
120.0649, 114.5877
120.5471, 114.7994
121.0292, 118.3870
121.5113, 126.4261
121.9934, 134.8783
122.4755, 142.5329
122.9576, 149.9966
123.4398, 158.0254
123.9219, 167.1372
124.4040, 176.4925
124.8861, 183.4423
125.3682, 184.6405
125.8503, 189.5529
126.3325, 201.9156
126.8146, 217.9820
127.2967, 233.6683
127.7788, 246.7302
128.2609, 258.0096
128.7430, 270.2540
129.2252, 281.1997
129.7073, 296.4375
130.1894, 317.2524
130.6715, 342.6563
131.1536, 371.6208
131.6357, 403.8592
132.1179, 438.8149
132.6000, 472.1060
133.0821, 501.5777
133.5642, 531.5399
134.0463, 563.1994
134.5284, 595.8170
135.0106, 628.3187
135.4927, 659.9703
135.9748, 690.7017
136.4569, 718.5791
136.9390, 734.9121
137.4211, 757.3548
137.9033, 794.3307
138.3854, 842.1043
138.8675, 891.8708
139.3496, 937.2366
139.8317, 978.1984
140.3138, 1020.663
140.7960, 1060.776
141.2781, 1105.467
141.7602, 1160.612
142.2423, 1223.738
142.7244, 1285.376
143.2065, 1337.364
143.6887, 1379.391
144.1708, 1432.372
144.6529, 1497.825
145.1350, 1571.155
145.6171, 1650.337
146.0992, 1735.151
146.5814, 1825.890
147.0635, 1923.579
147.5456, 2028.694
148.0277, 2134.610
148.5098, 2240.475
148.9919, 2347.592
149.4741, 2458.558
149.9562, 2573.864
150.4383, 2688.765
150.9204, 2804.028
151.4025, 2916.835
151.8846, 3012.145
152.3668, 3079.425
152.8489, 3134.545
153.3310, 3195.032
153.8131, 3262.380
154.2952, 3321.012
154.7773, 3362.243
155.2595, 3384.450
155.7416, 3380.503
156.2237, 3346.175
156.7058, 3286.426
157.1879, 3203.606
157.6700, 3096.538
158.1522, 2976.149
158.6343, 2845.994
159.1164, 2708.724
159.5985, 2569.938
160.0806, 2429.722
160.5627, 2289.589
161.0449, 2151.563
161.5270, 2015.049
162.0091, 1885.498
162.4912, 1767.772
162.9733, 1660.111
163.4554, 1559.366
163.9376, 1461.794
164.4197, 1371.926
164.9018, 1300.858
165.3839, 1252.841
165.8660, 1212.450
166.3481, 1170.468
166.8303, 1129.088
167.3124, 1092.689
167.7945, 1065.928
168.2766, 1044.220
168.7587, 1015.815
169.2408, 975.4777
169.7230, 940.3353
170.2051, 922.2902
170.6872, 914.3829
171.1693, 906.1340
171.6514, 891.7836
172.1335, 874.4341
172.6157, 862.4418
173.0978, 858.5598
173.5799, 854.6112
174.0620, 846.1364
174.5441, 835.3754
175.0262, 825.6208
175.5084, 818.5192
175.9905, 813.3694
176.4726, 808.7043
176.9547, 806.4036
177.4368, 800.7997
177.9189, 787.0882
178.4010, 769.9335
178.8832, 755.7355
179.3653, 747.8302
179.8474, 744.5194
180.3295, 740.3351
180.8116, 733.0291
181.2937, 729.1398
181.7759, 734.8325
182.2580, 743.3417
182.7401, 745.4421
183.2222, 735.3774
183.7043, 718.1578
184.1864, 708.2770
184.6686, 709.2210
185.1507, 712.0558
185.6328, 714.9064
186.1149, 717.7512
186.5970, 720.6261
187.0791, 723.5725
187.5613, 726.4835
188.0434, 729.3462
188.5255, 733.2379
189.0076, 734.9464
189.4897, 732.8007
189.9718, 728.9327
190.4540, 724.8420
190.9361, 720.9952
191.4182, 718.6378
191.9003, 721.0561
192.3824, 730.5655
192.8645, 741.1446
193.3467, 752.4468
193.8288, 763.8223
194.3109, 774.1899
194.7930, 783.0812
195.2751, 792.0177
195.7572, 804.7550
196.2394, 825.3943
196.7215, 842.1859
197.2036, 849.3184
197.6857, 854.9465
198.1678, 867.0323
198.6499, 888.1469
199.1321, 913.1592
199.6142, 931.2880
200.0963, 933.9760
200.5784, 947.5637
201.0605, 979.6257
201.5426, 1018.044
202.0248, 1053.072
202.5069, 1082.268
202.9890, 1109.985
203.4711, 1143.091
203.9532, 1182.283
204.4353, 1225.708
204.9175, 1274.852
205.3996, 1326.389
205.8817, 1377.845
206.3638, 1428.878
206.8459, 1481.168
207.3280, 1537.273
207.8102, 1596.736
208.2923, 1660.587
208.7744, 1731.512
209.2565, 1804.218
209.7386, 1874.286
210.2207, 1941.682
210.7029, 2011.125
211.1850, 2088.750
211.6671, 2176.580
212.1492, 2263.755
212.6313, 2342.884
213.1134, 2427.071
213.5956, 2525.629
214.0777, 2636.322
214.5598, 2748.626
215.0419, 2850.404
215.5240, 2937.829
216.0061, 3038.908
216.4883, 3167.243
216.9704, 3296.885
217.4525, 3417.030
217.9346, 3529.950
218.4167, 3645.625
218.8988, 3773.474
219.3810, 3914.006
219.8631, 4048.084
220.3452, 4178.833
220.8273, 4299.479
221.3094, 4401.570
221.7915, 4491.939
222.2737, 4584.912
222.7558, 4691.453
223.2379, 4809.748
223.7200, 4910.969
224.2021, 4990.650
224.6842, 5055.953
225.1664, 5108.010
225.6485, 5147.068
226.1306, 5172.513
226.6127, 5183.335
227.0948, 5181.428
227.5770, 5175.444
228.0591, 5175.339
228.5412, 5155.406
229.0233, 5101.544
229.5054, 5030.753
229.9875, 4962.153
230.4697, 4904.413
230.9518, 4852.493
231.4339, 4793.069
231.9160, 4720.911
232.3981, 4650.242
232.8802, 4589.238
233.3624, 4527.215
233.8445, 4454.143
234.3266, 4366.984
234.8087, 4269.352
235.2908, 4167.641
235.7729, 4061.012
236.2551, 3951.201
236.7372, 3837.526
237.2193, 3720.917
237.7014, 3599.804
238.1835, 3474.717
238.6656, 3348.878
239.1478, 3226.792
239.6299, 3110.746
240.1120, 2988.968
240.5941, 2846.953
241.0762, 2710.751
241.5583, 2593.229
242.0405, 2494.116
242.5226, 2405.262
243.0047, 2320.123
243.4868, 2238.776
243.9689, 2158.527
244.4510, 2073.744
244.9332, 1995.205
245.4153, 1930.001
245.8974, 1874.634
246.3795, 1820.356
246.8616, 1759.995
247.3437, 1694.348
247.8259, 1634.508
248.3080, 1585.813
248.7901, 1535.638
249.2722, 1473.488
249.7543, 1407.765
250.2364, 1353.430
250.7186, 1320.759
251.2007, 1301.660
251.6828, 1271.181
252.1649, 1220.637
252.6470, 1176.304
253.1291, 1150.400
253.6113, 1132.795
254.0934, 1113.385
254.5755, 1088.765
255.0576, 1060.234
255.5397, 1027.821
256.0219, 989.1561
256.5040, 956.0396
256.9861, 936.6232
257.4682, 921.4708
257.9503, 903.2857
258.4324, 880.4680
258.9146, 858.0082
259.3967, 841.8349
259.8788, 832.2394
260.3609, 821.3392
260.8430, 804.1020
261.3251, 788.3680
261.8073, 781.2030
262.2894, 782.2605
262.7715, 782.9041
263.2536, 775.9186
263.7357, 762.7116
264.2178, 751.2441
264.7000, 741.3519
265.1821, 735.0884
265.6642, 734.8501
266.1463, 739.2626
266.6284, 743.9532
267.1105, 747.6394
267.5927, 750.0734
268.0748, 750.4747
268.5569, 748.4485
269.0390, 745.6309
269.5211, 740.2111
270.0032, 734.9891
270.4854, 735.7992
270.9675, 748.6993
271.4496, 764.5134
271.9317, 772.0918
272.4138, 771.1965
272.8959, 770.3883
273.3781, 772.8909
273.8602, 778.8336
274.3423, 788.2819
274.8244, 803.7781
275.3065, 818.2050
275.7886, 827.3610
276.2708, 831.5988
276.7529, 831.5841
277.2350, 825.6396
277.7171, 818.1001
278.1992, 816.0911
278.6813, 819.8529
279.1635, 825.9829
279.6456, 836.0037
280.1277, 847.0009
280.6098, 852.9129
281.0919, 851.8168
281.5740, 849.3995
282.0562, 853.4299
282.5383, 864.7067
283.0204, 871.8990
283.5025, 871.9661
283.9846, 868.5280
284.4667, 863.5914
284.9489, 857.7040
285.4310, 853.0017
285.9131, 851.1969
286.3952, 852.4135
286.8773, 855.0854
287.3594, 860.3443
287.8416, 865.8187
288.3237, 870.6227
288.8058, 874.7465
289.2879, 878.6852
289.7700, 883.0590
290.2521, 886.9037
290.7343, 885.8644
291.2164, 872.6989
291.6985, 863.9082
292.1806, 866.7442
292.6627, 873.6001
293.1448, 874.7885
293.6270, 866.9424
294.1091, 853.7158
294.5912, 841.0979
295.0733, 825.4860
295.5554, 818.1530
296.0375, 825.0746
296.5197, 835.3260
297.0018, 842.3964
297.4839, 844.9708
297.9660, 843.9647
298.4481, 839.7554
298.9302, 831.5047
299.4124, 825.8880
299.8945, 824.1892
300.3766, 823.7448
300.8587, 824.9937
301.3408, 826.7766
301.8229, 826.7639
302.3050, 823.0524
302.7871, 816.7123
303.2693, 813.2605
303.7514, 814.0172
304.2335, 815.9948
304.7156, 819.1138
305.1977, 822.7419
305.6798, 826.4861
306.1620, 830.2346
306.6441, 833.3801
307.1262, 834.4517
307.6083, 832.5189
308.0904, 831.9753
308.5725, 834.9399
309.0547, 838.6218
309.5368, 840.8986
310.0189, 841.7888
310.5010, 843.6545
310.9831, 850.0923
311.4652, 860.3954
311.9474, 865.8428
312.4295, 861.5510
312.9116, 858.5855
313.3937, 865.5849
313.8758, 879.2789
314.3579, 891.0200
314.8401, 894.0496
315.3222, 894.0106
315.8043, 901.5409
316.2864, 917.7074
316.7685, 935.2067
317.2506, 951.3541
317.7328, 965.7863
318.2149, 977.0375
318.6970, 981.3097
319.1791, 988.6384
319.6612, 1007.469
320.1433, 1036.030
320.6255, 1067.777
321.1076, 1102.355
321.5897, 1135.943
322.0718, 1162.572
322.5539, 1182.076
323.0360, 1198.402
323.5182, 1207.555
324.0003, 1216.373
324.4824, 1234.502
324.9645, 1263.615
325.4466, 1297.418
325.9287, 1330.408
326.4109, 1362.461
326.8930, 1395.182
327.3751, 1430.320
327.8572, 1464.657
328.3393, 1494.952
328.8214, 1522.793
329.3036, 1552.922
329.7857, 1588.482
330.2678, 1628.180
330.7499, 1665.021
331.2320, 1693.868
331.7141, 1726.460
332.1963, 1766.729
332.6784, 1810.200
333.1605, 1853.587
333.6426, 1895.355
334.1247, 1933.349
334.6068, 1963.767
335.0890, 1982.401
335.5711, 2004.478
336.0532, 2032.607
336.5353, 2061.387
337.0174, 2093.758
337.4995, 2125.189
337.9817, 2144.020
338.4638, 2138.563
338.9459, 2111.758
339.4280, 2091.088
339.9101, 2088.103
340.3922, 2073.660
340.8744, 2035.546
341.3565, 1983.872
341.8386, 1929.973
342.3207, 1877.047
342.8028, 1827.452
343.2849, 1787.173
343.7671, 1758.192
344.2492, 1723.775
344.7313, 1676.237
345.2134, 1624.353
345.6955, 1573.541
346.1776, 1524.171
346.6598, 1478.084
347.1419, 1436.522
347.6240, 1399.147
348.1061, 1364.281
348.5882, 1331.014
349.0703, 1302.498
349.5525, 1283.090
350.0346, 1270.678
350.5167, 1259.749
350.9988, 1247.627
351.4809, 1237.961
351.9630, 1236.255
352.4452, 1240.700
352.9273, 1240.689
353.4094, 1228.928
353.8915, 1212.289
354.3736, 1209.930
354.8557, 1226.018
355.3379, 1243.763
355.8200, 1259.352
356.3021, 1274.708
356.7842, 1291.371
357.2663, 1309.876
357.7484, 1330.825
358.2306, 1354.972
358.7127, 1382.704
359.1948, 1412.240
359.6769, 1438.981
360.1590, 1471.525
360.6411, 1518.733
361.1233, 1574.591
361.6054, 1625.511
362.0875, 1663.159
362.5696, 1692.028
363.0517, 1728.569
363.5338, 1773.836
364.0160, 1826.059
364.4981, 1893.397
364.9802, 1961.510
365.4623, 2016.522
365.9444, 2056.137
366.4265, 2092.132
366.9087, 2136.097
367.3908, 2188.553
367.8729, 2246.403
368.3550, 2312.575
368.8371, 2381.161
369.3192, 2452.712
369.8014, 2524.513
370.2835, 2590.023
370.7656, 2646.396
371.2477, 2694.684
371.7298, 2733.544
372.2119, 2761.719
372.6941, 2793.096
373.1762, 2843.741
373.6583, 2893.659
374.1404, 2913.308
374.6225, 2896.518
375.1046, 2868.479
375.5868, 2841.548
376.0689, 2812.755
376.5510, 2778.095
377.0331, 2737.498
377.5152, 2684.954
377.9973, 2611.681
378.4795, 2515.256
378.9616, 2420.656
379.4437, 2328.495
379.9258, 2238.197
380.4079, 2153.021
380.8900, 2070.197
381.3722, 1982.382
381.8543, 1884.762
382.3364, 1782.382
382.8185, 1688.715
383.3006, 1604.620
383.7827, 1530.483
384.2649, 1471.261
384.7470, 1418.729
385.2291, 1365.876
385.7112, 1311.819
386.1933, 1259.768
386.6754, 1212.167
387.1576, 1168.971
387.6397, 1135.005
388.1218, 1120.438
388.6039, 1103.335
389.0860, 1074.012
389.5681, 1038.205
390.0503, 1005.343
390.5324, 979.2034
391.0145, 957.4301
391.4966, 935.9168
391.9787, 914.5226
392.4608, 895.4179
392.9430, 878.6268
393.4251, 865.2608
393.9072, 857.1694
394.3893, 854.2323
394.8714, 851.1466
395.3535, 847.0566
395.8357, 840.5923
396.3178, 827.3100
396.7999, 806.3593
397.2820, 787.5598
397.7641, 778.6232
398.2462, 777.8331
398.7284, 774.3367
399.2105, 766.7365
399.6926, 758.1268
400.1747, 746.8118
400.6568, 735.9476
401.1389, 732.5233
401.6211, 738.8780
402.1032, 747.3131
402.5853, 745.7625
403.0674, 728.4131
403.5495, 718.9197
404.0316, 722.7249
404.5138, 728.0897
404.9959, 730.9539
405.4780, 730.3080
405.9601, 724.2812
406.4422, 710.4962
406.9243, 693.1818
407.4065, 689.1487
407.8886, 708.3354
408.3707, 720.3129
408.8528, 713.2731
409.3349, 701.3041
409.8170, 696.0226
410.2992, 698.9409
410.7813, 702.0676
411.2634, 697.7455
411.7455, 687.4623
412.2276, 678.7427
412.7097, 671.9545
413.1919, 667.0778
413.6740, 664.8295
414.1561, 664.4672
414.6382, 664.9191
415.1203, 666.9725
415.6024, 668.5807
416.0846, 667.3513
416.5667, 664.3438
417.0488, 662.7809
417.5309, 663.7303
418.0130, 666.6736
418.4951, 671.2319
418.9773, 678.3292
419.4594, 683.7619
419.9415, 683.6749
420.4236, 684.9043
420.9057, 694.5867
421.3878, 710.1605
421.8700, 722.7307
422.3521, 726.3895
422.8342, 723.0488
423.3163, 720.9077
423.7984, 720.0913
424.2805, 720.4098
424.7627, 723.0201
425.2448, 725.8531
425.7269, 726.3707
426.2090, 724.6745
426.6911, 724.0831
427.1732, 727.3935
427.6554, 734.5607
428.1375, 745.2264
428.6196, 761.2764
429.1017, 777.1893
429.5838, 789.8657
430.0659, 800.7455
430.5481, 811.9860
431.0302, 824.7031
431.5123, 836.5676
431.9944, 843.4546
432.4765, 847.5077
432.9586, 856.8209
433.4408, 874.0320
433.9229, 895.1300
434.4050, 916.1668
434.8871, 937.1166
435.3692, 956.8089
435.8513, 976.8818
436.3335, 994.0521
436.8156, 1002.037
437.2977, 1005.422
437.7798, 1016.130
438.2619, 1040.554
438.7440, 1074.066
439.2262, 1105.178
439.7083, 1135.272
440.1904, 1159.944
440.6725, 1172.734
441.1546, 1186.233
441.6367, 1211.403
442.1189, 1245.797
442.6010, 1277.121
443.0831, 1293.505
443.5652, 1300.484
444.0473, 1321.747
444.5294, 1364.188
445.0116, 1401.567
445.4937, 1415.195
445.9758, 1423.572
446.4579, 1446.545
446.9400, 1488.188
447.4221, 1530.397
447.9043, 1561.236
448.3864, 1584.995
448.8685, 1609.583
449.3506, 1636.040
449.8327, 1664.880
450.3148, 1697.338
450.7970, 1733.038
451.2791, 1767.185
451.7612, 1802.164
452.2433, 1832.972
452.7254, 1851.939
453.2076, 1867.827
453.6897, 1893.329
454.1718, 1931.858
454.6539, 1976.716
455.1360, 2020.235
455.6181, 2063.149
456.1003, 2100.261
456.5824, 2122.995
457.0645, 2148.268
457.5466, 2181.706
458.0287, 2220.960
458.5108, 2261.456
458.9930, 2301.017
459.4751, 2342.701
459.9572, 2395.143
460.4393, 2458.465
460.9214, 2510.403
461.4035, 2544.184
461.8857, 2568.474
462.3678, 2585.475
462.8499, 2597.892
463.3320, 2621.890
463.8141, 2673.868
464.2962, 2729.978
464.7784, 2764.941
465.2605, 2784.252
465.7426, 2812.608
466.2247, 2862.211
466.7068, 2921.054
467.1889, 2965.106
467.6711, 2987.468
468.1532, 3008.438
468.6353, 3025.539
469.1174, 3043.445
469.5995, 3069.457
470.0816, 3099.069
470.5638, 3119.314
471.0459, 3121.366
471.5280, 3110.644
472.0101, 3102.016
472.4922, 3094.677
472.9743, 3091.837
473.4565, 3101.895
473.9386, 3111.144
474.4207, 3111.942
474.9028, 3103.528
475.3849, 3086.881
475.8670, 3055.262
476.3492, 3018.689
476.8313, 2995.828
477.3134, 2987.251
477.7955, 2978.823
478.2776, 2962.605
478.7597, 2942.856
479.2419, 2930.499
479.7240, 2929.118
480.2061, 2925.129
480.6882, 2916.342
481.1703, 2903.594
481.6524, 2884.737
482.1346, 2861.621
482.6167, 2843.068
483.0988, 2837.220
483.5809, 2839.605
484.0630, 2823.930
484.5451, 2773.817
485.0273, 2732.337
485.5094, 2720.775
485.9915, 2708.676
486.4736, 2665.250
486.9557, 2590.876
487.4378, 2519.721
487.9200, 2484.767
488.4021, 2473.196
488.8842, 2443.324
489.3663, 2391.127
489.8484, 2342.124
490.3305, 2307.436
490.8127, 2285.625
491.2948, 2273.325
491.7769, 2275.311
492.2590, 2272.830
492.7411, 2255.475
493.2232, 2232.708
493.7054, 2214.134
494.1875, 2201.177
494.6696, 2193.169
495.1517, 2191.175
495.6338, 2192.674
496.1159, 2180.710
496.5981, 2140.183
497.0802, 2107.239
497.5623, 2092.895
498.0444, 2081.930
498.5265, 2062.607
499.0086, 2033.307
499.4908, 1998.788
499.9729, 1965.788
500.4550, 1930.545
500.9371, 1876.084
501.4192, 1797.325
501.9013, 1720.698
502.3835, 1661.275
502.8656, 1608.070
503.3477, 1543.162
503.8298, 1463.271
504.3119, 1385.319
504.7940, 1318.609
505.2762, 1255.661
505.7583, 1186.667
506.2404, 1112.080
506.7225, 1041.771
507.2046, 981.3103
507.6867, 931.0316
508.1689, 893.4299
508.6510, 883.6667
509.1331, 864.2281
509.6152, 822.0563
510.0973, 778.4799
510.5794, 749.4136
511.0616, 734.8685
511.5437, 725.5521
512.0258, 717.0731
512.5079, 707.6083
512.9901, 688.3936
513.4722, 656.0868
513.9543, 635.8290
514.4364, 642.7163
514.9185, 660.7767
515.4006, 668.8625
515.8828, 666.3040
516.3649, 663.3719
516.8470, 665.2045
517.3291, 666.5374
517.8112, 660.7083
518.2933, 649.3951
518.7755, 639.5389
519.2576, 634.5956
519.7397, 634.5080
520.2218, 639.7969
520.7039, 656.6124
521.1860, 666.9736
521.6682, 667.2612
522.1503, 665.2958
522.6324, 664.4001
523.1145, 664.7579
523.5966, 665.2975
524.0787, 664.6945
524.5609, 665.6696
525.0430, 674.1074
525.5251, 689.9505
526.0072, 703.8177
526.4893, 712.8846
526.9714, 720.3364
527.4536, 731.2585
527.9357, 744.8542
528.4178, 751.5520
528.8999, 743.5035
529.3820, 734.6304
529.8641, 730.2604
530.3463, 731.5553
530.8284, 741.7373
531.3105, 761.7091
531.7926, 785.6137
532.2747, 805.9189
532.7568, 822.7826
533.2390, 835.4044
533.7211, 839.4379
534.2032, 844.1651
534.6853, 851.0298
535.1674, 860.7551
535.6495, 875.2799
536.1317, 895.7305
536.6138, 916.0735
537.0959, 930.0956
537.5780, 939.4496
538.0601, 948.9077
538.5422, 958.7703
539.0244, 970.3130
539.5065, 984.9803
539.9886, 1001.986
540.4707, 1017.053
540.9528, 1027.404
541.4349, 1040.011
541.9171, 1059.254
542.3992, 1079.442
542.8813, 1093.213
543.3634, 1101.431
543.8455, 1112.931
544.3276, 1136.059
544.8098, 1166.897
545.2919, 1186.887
545.7740, 1190.555
546.2561, 1198.395
546.7382, 1221.382
547.2203, 1246.040
547.7024, 1260.434
548.1845, 1265.180
548.6666, 1272.616
549.1487, 1289.083
549.6309, 1310.128
550.1130, 1333.309
550.5951, 1357.305
551.0772, 1376.712
551.5593, 1389.481
552.0414, 1397.134
552.5236, 1402.293
553.0057, 1405.632
553.4878, 1403.928
553.9699, 1384.610
554.4520, 1374.351
554.9341, 1391.492
555.4163, 1422.391
555.8984, 1445.222
556.3805, 1451.964
556.8626, 1452.156
557.3447, 1458.111
557.8268, 1468.526
558.3090, 1472.725
558.7911, 1469.410
559.2732, 1460.653
559.7553, 1444.708
560.2374, 1424.619
560.7195, 1410.188
561.2017, 1403.168
561.6838, 1398.776
562.1659, 1399.684
562.6480, 1399.960
563.1301, 1391.258
563.6122, 1374.448
564.0944, 1358.581
564.5765, 1350.435
565.0586, 1347.767
565.5407, 1341.523
566.0228, 1330.466
566.5049, 1318.991
566.9871, 1309.592
567.4692, 1298.422
567.9513, 1280.457
568.4334, 1257.711
568.9155, 1239.478
569.3976, 1231.337
569.8798, 1227.828
570.3619, 1224.032
570.8440, 1220.199
571.3261, 1217.764
571.8082, 1217.385
572.2903, 1216.264
572.7725, 1210.809
573.2546, 1200.445
573.7367, 1190.967
574.2188, 1180.025
574.7009, 1172.592
575.1830, 1172.515
575.6652, 1175.235
576.1473, 1176.219
576.6294, 1174.283
577.1115, 1170.078
577.5936, 1163.480
578.0757, 1155.091
578.5579, 1146.153
579.0400, 1136.311
579.5221, 1129.450
580.0042, 1127.937
580.4863, 1129.958
580.9684, 1131.860
581.4506, 1132.716
581.9327, 1136.955
582.4148, 1150.357
582.8969, 1162.613
583.3790, 1165.235
583.8611, 1161.421
584.3433, 1159.367
584.8254, 1162.836
585.3075, 1167.955
585.7896, 1167.635
586.2717, 1161.082
586.7538, 1158.751
587.2360, 1163.221
587.7181, 1168.510
588.2002, 1170.652
588.6823, 1171.520
589.1644, 1175.108
589.6465, 1184.907
590.1287, 1189.579
590.6108, 1177.779
591.0929, 1160.967
591.5750, 1152.542
592.0571, 1153.908
592.5392, 1163.543
593.0214, 1181.854
593.5035, 1203.624
593.9856, 1212.122
594.4677, 1201.295
594.9498, 1191.498
595.4319, 1183.255
595.9141, 1177.503
596.3962, 1176.975
596.8783, 1179.337
597.3604, 1178.633
597.8425, 1171.301
598.3246, 1162.926
598.8068, 1161.770
599.2889, 1163.223
599.7710, 1152.527
600.2531, 1126.748
600.7352, 1102.180
601.2173, 1093.632
601.6995, 1098.522
602.1816, 1095.662
602.6637, 1074.725
603.1458, 1060.106
603.6279, 1060.767
604.1100, 1062.667
604.5922, 1053.790
605.0743, 1035.672
605.5564, 1019.264
606.0385, 1012.549
606.5206, 1008.513
607.0027, 994.2239
607.4849, 971.4464
607.9670, 955.4794
608.4491, 951.3669
608.9312, 949.6270
609.4133, 940.0746
609.8954, 922.6600
610.3776, 910.8215
610.8597, 907.7995
611.3418, 905.7079
611.8239, 901.6821
612.3060, 898.3727
612.7881, 898.9920
613.2703, 903.5041
613.7524, 909.3506
614.2345, 916.1154
614.7166, 921.5952
615.1987, 917.5726
615.6808, 903.3298
616.1630, 896.9542
616.6451, 907.1905
617.1272, 920.7419
617.6093, 921.1733
