##NAMES=Alunite
##RRUFFID=R060430
##IDEAL CHEMISTRY=KAl_3_(S^6+^O_4_)_2_(OH)_6_
##LOCALITY=Wendy Pit, El Indio Gold mine, Tambo, Coquimbo District, Chile
##OWNER=RRUFF
##SOURCE=Michael Scott
##DESCRIPTION=Colorless transparent hexagonal plates
##STATUS=The identification of this mineral is confirmed by single-crystal X-ray diffraction and chemical analysis.
##URL=rruff.info/R060430
##MEASURED CHEMISTRY=(K_0.94_Na_0.06_)_Î£=1_Al_3.00_(S_1.00_O_4_)_2_(OH)_6_
127.2463, 60.74812
127.7284, 60.16029
128.2105, 58.95344
128.6927, 57.77680
129.1748, 56.59554
129.6569, 55.53681
130.1390, 54.81342
130.6211, 54.50164
131.1032, 54.06901
131.5854, 52.88062
132.0675, 51.58661
132.5496, 50.85461
133.0317, 51.02002
133.5138, 51.76189
133.9959, 52.30371
134.4781, 52.43166
134.9602, 52.71191
135.4423, 53.25923
135.9244, 54.03707
136.4065, 54.97771
136.8886, 56.02781
137.3708, 57.20834
137.8529, 58.71236
138.3350, 60.54276
138.8171, 62.72712
139.2992, 65.06818
139.7813, 67.75844
140.2635, 71.25290
140.7456, 76.00053
141.2277, 82.21155
141.7098, 88.03564
142.1919, 94.02457
142.6740, 99.28101
143.1561, 103.4702
143.6383, 106.4999
144.1204, 108.2281
144.6025, 108.1985
145.0846, 106.0287
145.5667, 104.5879
146.0488, 104.0229
146.5310, 104.2191
147.0131, 105.1595
147.4952, 106.9025
147.9773, 109.0930
148.4594, 111.2734
148.9415, 113.4618
149.4237, 116.2840
149.9058, 120.2350
150.3879, 125.0166
150.8700, 129.7693
151.3521, 134.4742
151.8342, 139.0048
152.3164, 143.0839
152.7985, 146.7928
153.2806, 150.9191
153.7627, 156.0487
154.2448, 162.2012
154.7269, 168.7739
155.2091, 175.2665
155.6912, 182.5615
156.1733, 190.8252
156.6554, 200.2209
157.1375, 211.1371
157.6196, 223.8012
158.1018, 237.6973
158.5839, 255.2123
159.0660, 277.7254
159.5481, 302.4913
160.0302, 331.4946
160.5123, 363.8203
160.9945, 392.5149
161.4766, 405.5150
161.9587, 400.2290
162.4408, 379.6273
162.9229, 334.4188
163.4050, 279.8878
163.8871, 228.1925
164.3693, 183.8668
164.8514, 146.9236
165.3335, 117.9642
165.8156, 100.2067
166.2977, 86.06761
166.7798, 75.77386
167.2620, 68.42484
167.7441, 62.99268
168.2262, 59.23946
168.7083, 56.68370
169.1904, 54.04508
169.6725, 51.18042
170.1547, 48.49266
170.6368, 45.96849
171.1189, 43.70877
171.6010, 42.10473
172.0831, 41.48834
172.5652, 41.57988
173.0474, 41.70252
173.5295, 42.00757
174.0116, 42.06138
174.4937, 41.32395
174.9758, 39.79639
175.4579, 38.49447
175.9401, 37.91875
176.4222, 37.79248
176.9043, 37.89852
177.3864, 38.29137
177.8685, 38.68778
178.3506, 38.66737
178.8328, 38.09137
179.3149, 37.59370
179.7970, 37.42593
180.2791, 37.41328
180.7612, 37.45465
181.2433, 37.53292
181.7255, 37.57317
182.2076, 37.35761
182.6897, 36.57391
183.1718, 36.12969
183.6539, 36.31064
184.1360, 36.81721
184.6181, 37.40501
185.1003, 37.97020
185.5824, 38.45550
186.0645, 38.63877
186.5466, 38.07811
187.0287, 37.74890
187.5108, 37.78770
187.9930, 38.12046
188.4751, 38.72654
188.9572, 39.61492
189.4393, 40.67540
189.9214, 41.26472
190.4035, 41.02040
190.8857, 40.70908
191.3678, 40.28518
191.8499, 39.90186
192.3320, 39.83707
192.8141, 40.29703
193.2962, 41.18928
193.7784, 41.79727
194.2605, 41.93638
194.7426, 42.06340
195.2247, 42.36340
195.7068, 42.78336
196.1889, 43.14162
196.6711, 43.28889
197.1532, 43.30367
197.6353, 43.56800
198.1174, 44.43058
198.5995, 45.20121
199.0816, 45.38105
199.5638, 45.05650
200.0459, 44.80537
200.5280, 44.96328
201.0101, 45.46308
201.4922, 45.99790
201.9743, 46.51842
202.4565, 47.11463
202.9386, 47.93336
203.4207, 48.98508
203.9028, 49.94998
204.3849, 50.56628
204.8670, 51.01326
205.3492, 51.51503
205.8313, 52.04388
206.3134, 52.73010
206.7955, 53.68792
207.2776, 54.89180
207.7597, 56.49397
208.2419, 58.92124
208.7240, 61.65684
209.2061, 64.06032
209.6882, 65.68974
210.1703, 67.39111
210.6524, 70.63353
211.1346, 75.63113
211.6167, 81.66740
212.0988, 88.35922
212.5809, 95.86830
213.0630, 104.6134
213.5451, 114.8056
214.0273, 125.9232
214.5094, 136.9400
214.9915, 148.5714
215.4736, 158.6428
215.9557, 166.9836
216.4378, 173.8100
216.9200, 179.1699
217.4021, 183.0152
217.8842, 185.8379
218.3663, 188.8934
218.8484, 191.8496
219.3305, 195.6231
219.8127, 200.2413
220.2948, 205.6790
220.7769, 211.9902
221.2590, 219.2001
221.7411, 227.1470
222.2232, 235.3489
222.7054, 243.4479
223.1875, 252.3316
223.6696, 262.4455
224.1517, 273.2353
224.6338, 283.8418
225.1159, 293.9117
225.5980, 303.9590
226.0802, 315.5276
226.5623, 328.5655
227.0444, 343.2674
227.5265, 359.7378
228.0086, 377.8752
228.4907, 397.2728
228.9729, 417.7260
229.4550, 439.5399
229.9371, 463.4391
230.4192, 490.2910
230.9013, 517.6989
231.3834, 548.1292
231.8656, 578.2109
232.3477, 604.9686
232.8298, 628.3124
233.3119, 643.6871
233.7940, 638.6965
234.2761, 611.8007
234.7583, 575.2471
235.2404, 526.1260
235.7225, 470.1905
236.2046, 416.2148
236.6867, 366.0288
237.1688, 320.8347
237.6510, 282.8205
238.1331, 251.7525
238.6152, 224.8360
239.0973, 202.0732
239.5794, 182.7422
240.0615, 165.5809
240.5437, 150.3168
241.0258, 136.8996
241.5079, 125.2328
241.9900, 115.1259
242.4721, 106.4498
242.9542, 99.57130
243.4364, 94.12057
243.9185, 89.16656
244.4006, 84.53503
244.8827, 80.41662
245.3648, 76.98695
245.8469, 74.18813
246.3290, 71.86678
246.8112, 70.07335
247.2933, 68.71889
247.7754, 67.55327
248.2575, 66.71833
248.7396, 65.77810
249.2217, 64.10891
249.7039, 61.98042
250.1860, 60.36482
250.6681, 60.13220
251.1502, 60.89211
251.6323, 61.18480
252.1144, 60.81935
252.5966, 60.16300
253.0787, 59.23809
253.5608, 58.21716
254.0429, 57.49718
254.5250, 57.48383
255.0071, 57.95927
255.4893, 58.08592
255.9714, 57.81799
256.4535, 57.22549
256.9356, 56.40476
257.4177, 55.34217
257.8998, 53.97742
258.3820, 52.19299
258.8641, 50.12729
259.3462, 48.27192
259.8283, 46.71512
260.3104, 45.24321
260.7925, 43.73233
261.2747, 42.24797
261.7568, 40.86306
262.2389, 39.58751
262.7210, 38.46444
263.2031, 37.63469
263.6852, 37.30022
264.1674, 36.92532
264.6495, 36.33064
265.1316, 35.65864
265.6137, 35.05240
266.0958, 34.57203
266.5779, 34.20295
267.0601, 33.91976
267.5422, 33.75502
268.0243, 33.62893
268.5064, 33.62738
268.9885, 33.60252
269.4706, 33.42399
269.9528, 33.04622
270.4349, 32.51681
270.9170, 31.87127
271.3991, 30.84406
271.8812, 30.26487
272.3633, 30.47454
272.8455, 30.88990
273.3276, 31.02996
273.8097, 30.79548
274.2918, 30.46917
274.7739, 30.51518
275.2560, 31.23519
275.7382, 31.68400
276.2202, 31.88660
276.7024, 31.86605
277.1845, 31.55770
277.6666, 30.99650
278.1487, 30.35414
278.6308, 29.82890
279.1129, 29.43379
279.5951, 29.12552
280.0772, 28.87222
280.5593, 28.71186
281.0414, 28.67892
281.5235, 28.76383
282.0056, 28.93722
282.4878, 29.19524
282.9699, 29.58027
283.4520, 29.73610
283.9341, 29.53743
284.4162, 29.27029
284.8983, 28.99166
285.3805, 28.73571
285.8626, 28.55588
286.3447, 28.50548
286.8268, 28.58130
287.3089, 28.56335
287.7910, 28.38357
288.2732, 28.19232
288.7553, 27.98131
289.2374, 27.79308
289.7195, 27.67797
290.2016, 27.65629
290.6837, 27.75048
291.1659, 28.10945
291.6480, 29.43308
292.1301, 30.20011
292.6122, 29.70858
293.0943, 28.62261
293.5764, 27.90160
294.0586, 27.99073
294.5407, 28.58736
295.0228, 28.87258
295.5049, 28.59226
295.9870, 28.28991
296.4691, 27.93082
296.9513, 27.58152
297.4334, 27.27461
297.9155, 27.02780
298.3976, 26.91837
298.8797, 27.10195
299.3618, 27.92488
299.8440, 28.37553
300.3261, 28.05632
300.8082, 27.61861
301.2903, 27.65294
301.7724, 28.24102
302.2545, 28.97459
302.7367, 29.37952
303.2188, 29.35771
303.7009, 29.33036
304.1830, 29.33757
304.6651, 29.30807
305.1472, 29.15615
305.6294, 28.90537
306.1115, 28.66454
306.5936, 28.50306
307.0757, 28.41604
307.5578, 28.62845
308.0399, 29.41935
308.5221, 30.17707
309.0042, 30.62005
309.4863, 30.80844
309.9684, 30.95740
310.4505, 31.22636
310.9326, 31.55604
311.4148, 31.50206
311.8969, 30.49687
312.3790, 29.82106
312.8611, 29.90916
313.3432, 30.50351
313.8253, 31.22008
314.3075, 31.89424
314.7896, 32.51955
315.2717, 33.08067
315.7538, 33.57909
316.2359, 34.01186
316.7180, 34.39260
317.2001, 34.70134
317.6823, 34.89215
318.1644, 34.95621
318.6465, 34.95592
319.1286, 34.94837
319.6107, 34.74419
320.0928, 35.08100
320.5750, 36.28910
321.0571, 37.79243
321.5392, 39.21173
322.0213, 40.47492
322.5034, 41.66908
322.9855, 42.86953
323.4677, 44.09335
323.9498, 45.24521
324.4319, 46.10669
324.9140, 47.10849
325.3961, 48.47406
325.8782, 50.16993
326.3604, 52.11904
326.8425, 54.33453
327.3246, 56.74640
327.8067, 58.57764
328.2888, 59.37329
328.7709, 60.19756
329.2531, 61.23640
329.7352, 62.49300
330.2173, 63.98354
330.6994, 65.72512
331.1815, 67.62540
331.6636, 69.45016
332.1458, 71.23045
332.6279, 72.88351
333.1100, 74.16602
333.5921, 75.42950
334.0742, 77.06391
334.5563, 79.15537
335.0385, 81.48518
335.5206, 83.71426
336.0027, 85.75650
336.4848, 87.94670
336.9669, 90.32764
337.4490, 92.82262
337.9312, 95.44926
338.4133, 98.17631
338.8954, 100.8680
339.3775, 103.3984
339.8596, 105.7645
340.3417, 108.0708
340.8239, 110.6140
341.3060, 112.8026
341.7881, 114.2807
342.2702, 115.2500
342.7523, 116.1851
343.2344, 117.4130
343.7166, 118.7412
344.1987, 119.2139
344.6808, 118.7852
345.1629, 117.4093
345.6450, 114.5429
346.1271, 110.9420
346.6093, 107.4475
347.0914, 104.3860
347.5735, 101.4051
348.0556, 97.85703
348.5377, 93.15585
349.0198, 88.91982
349.5020, 85.24149
349.9841, 81.88388
350.4662, 78.79253
350.9483, 75.92357
351.4304, 73.14872
351.9125, 70.24411
352.3947, 67.03996
352.8768, 64.89083
353.3589, 64.76837
353.8410, 64.72684
354.3231, 64.04359
354.8052, 62.91176
355.2874, 61.87650
355.7695, 61.33495
356.2516, 61.17076
356.7337, 60.65343
357.2158, 58.92514
357.6979, 58.06536
358.1800, 58.82854
358.6621, 60.42203
359.1443, 61.99873
359.6264, 63.23985
360.1085, 64.35876
360.5906, 65.68104
361.0727, 67.05811
361.5548, 69.06869
362.0370, 72.32983
362.5191, 75.76704
363.0012, 78.75944
363.4833, 81.25596
363.9654, 83.49239
364.4475, 85.68703
364.9297, 87.84103
365.4118, 89.93589
365.8939, 91.98856
366.3760, 93.95075
366.8581, 95.69846
367.3402, 97.34135
367.8224, 99.09387
368.3045, 101.0650
368.7866, 103.2276
369.2687, 105.4845
369.7508, 107.7344
370.2329, 110.3167
370.7151, 113.5345
371.1972, 117.0251
371.6793, 120.4745
372.1614, 123.7545
372.6435, 127.0722
373.1256, 130.6477
373.6078, 134.4803
374.0899, 138.4709
374.5720, 142.5372
375.0541, 146.8476
375.5362, 151.5148
376.0183, 156.5472
376.5005, 161.8005
376.9826, 167.4588
377.4647, 173.3167
377.9468, 178.7110
378.4289, 183.6834
378.9110, 187.9832
379.3932, 192.0394
379.8753, 195.3217
380.3574, 196.5484
380.8395, 195.2153
381.3216, 191.7414
381.8037, 186.5127
382.2859, 179.5171
382.7680, 171.0139
383.2501, 160.3991
383.7322, 148.7243
384.2143, 137.5213
384.6964, 126.8013
385.1786, 116.8270
385.6607, 107.8403
386.1428, 99.80767
386.6249, 92.59227
387.1070, 86.21018
387.5891, 80.59791
388.0713, 75.86543
388.5534, 71.93164
389.0355, 68.27692
389.5176, 64.80135
389.9997, 61.55497
390.4818, 58.57270
390.9640, 55.84953
391.4461, 53.43480
391.9282, 51.36395
392.4103, 49.64921
392.8924, 48.21951
393.3745, 47.09355
393.8567, 46.19924
394.3388, 45.82306
394.8209, 45.62619
395.3030, 44.85529
395.7851, 43.16998
396.2672, 41.11456
396.7494, 39.63708
397.2315, 38.98696
397.7136, 38.36912
398.1957, 37.71128
398.6778, 37.09378
399.1599, 36.66826
399.6420, 36.39876
400.1241, 35.99561
400.6063, 35.15187
401.0884, 33.83932
401.5705, 32.97050
402.0526, 32.77176
402.5347, 32.69469
403.0168, 32.72010
403.4990, 32.72717
403.9811, 32.50347
404.4632, 31.94393
404.9453, 31.21937
405.4274, 30.75383
405.9095, 30.74972
406.3917, 30.67879
406.8738, 30.56069
407.3559, 30.35346
407.8380, 29.97938
408.3201, 29.45990
408.8022, 28.92186
409.2844, 28.45949
409.7665, 28.06703
410.2486, 27.89310
410.7307, 28.27586
411.2128, 28.51102
411.6949, 28.24929
412.1771, 27.73279
412.6592, 27.34173
413.1413, 27.25691
413.6234, 27.42002
414.1055, 27.79586
414.5876, 28.56766
415.0698, 28.99271
415.5519, 28.53861
416.0340, 27.91290
416.5161, 27.61963
416.9982, 27.70548
417.4803, 27.82115
417.9625, 27.62085
418.4446, 27.16408
418.9267, 26.87226
419.4088, 26.85275
419.8909, 26.86031
420.3730, 26.67594
420.8552, 26.40538
421.3373, 26.28138
421.8194, 26.47982
422.3015, 26.75619
422.7836, 26.77909
423.2657, 26.55235
423.7479, 26.39343
424.2300, 26.46489
424.7121, 26.63987
425.1942, 26.70136
425.6763, 26.62030
426.1584, 26.57726
426.6406, 26.71840
427.1227, 26.92849
427.6048, 26.98315
428.0869, 26.83532
428.5690, 26.66883
429.0511, 26.64009
429.5333, 26.75911
430.0154, 26.93085
430.4975, 27.18990
430.9796, 27.46918
431.4617, 27.78955
431.9438, 28.10173
432.4260, 28.29379
432.9081, 28.31348
433.3902, 28.17480
433.8723, 27.89183
434.3544, 27.19239
434.8365, 26.81254
435.3187, 26.97016
435.8008, 27.32700
436.2829, 27.62141
436.7650, 27.81790
437.2471, 28.01814
437.7292, 28.32425
438.2114, 28.74181
438.6935, 29.08842
439.1756, 29.30757
439.6577, 29.51832
440.1398, 29.74862
440.6219, 29.98552
441.1040, 30.18280
441.5862, 30.32100
442.0683, 30.48257
442.5504, 30.87506
443.0325, 31.67459
443.5146, 32.16476
443.9967, 31.76999
444.4789, 31.48257
444.9610, 31.98951
445.4431, 33.12753
445.9252, 34.16578
446.4073, 34.48894
446.8894, 34.30495
447.3716, 34.41844
447.8537, 34.90388
448.3358, 35.50261
448.8179, 36.11031
449.3000, 36.76958
449.7821, 37.61770
450.2643, 38.76202
450.7464, 39.71684
451.2285, 39.73909
451.7106, 39.09675
452.1927, 39.24217
452.6748, 40.72054
453.1570, 42.50835
453.6391, 43.50011
454.1212, 43.87183
454.6033, 44.39014
455.0854, 45.27418
455.5675, 46.34241
456.0497, 47.48783
456.5318, 48.68816
457.0139, 49.83451
457.4960, 50.79977
457.9781, 51.76527
458.4602, 53.27667
458.9424, 55.50712
459.4245, 57.80540
459.9066, 60.15415
460.3887, 62.45714
460.8708, 64.51478
461.3529, 66.34767
461.8351, 68.28146
462.3172, 70.64259
462.7993, 73.42760
463.2814, 76.34003
463.7635, 79.56332
464.2456, 82.69324
464.7278, 85.61861
465.2099, 88.41946
465.6920, 91.09737
466.1741, 93.68301
466.6562, 96.43813
467.1383, 99.90207
467.6205, 104.4548
468.1026, 108.6247
468.5847, 112.1822
469.0668, 115.5100
469.5489, 118.9398
470.0310, 122.2855
470.5132, 124.9127
470.9953, 126.1036
471.4774, 126.6378
471.9595, 128.5738
472.4416, 132.1621
472.9237, 136.2031
473.4059, 140.2244
473.8880, 144.5645
474.3701, 149.6514
474.8522, 155.5226
475.3343, 161.5828
475.8164, 167.2241
476.2986, 172.7531
476.7807, 178.9403
477.2628, 185.8181
477.7449, 193.4834
478.2270, 202.0858
478.7091, 211.6179
479.1913, 221.7124
479.6734, 232.6709
480.1555, 243.8123
480.6376, 254.9165
481.1197, 265.9293
481.6018, 277.3106
482.0839, 289.3445
482.5660, 300.2170
483.0482, 307.7748
483.5303, 312.2347
484.0124, 311.0213
484.4945, 303.5269
484.9766, 291.3637
485.4587, 273.4206
485.9409, 251.4696
486.4230, 228.8830
486.9051, 207.3623
487.3872, 187.0367
487.8693, 168.3564
488.3514, 150.3567
488.8336, 135.8096
489.3157, 125.2427
489.7978, 117.3400
490.2799, 111.9150
490.7620, 108.5212
491.2441, 106.0981
491.7263, 103.9251
492.2084, 102.0251
492.6905, 100.5275
493.1726, 99.50110
493.6547, 98.72310
494.1368, 98.34173
494.6190, 98.05470
495.1011, 97.45779
495.5832, 96.41826
496.0653, 95.57682
496.5474, 95.44475
497.0295, 95.89930
497.5117, 96.54694
497.9938, 97.29587
498.4759, 98.38607
498.9580, 100.0578
499.4401, 102.2877
499.9222, 104.8138
500.4044, 107.4532
500.8865, 110.5598
501.3686, 114.3819
501.8507, 118.8086
502.3328, 123.7193
502.8149, 129.0668
503.2971, 134.7335
503.7792, 140.5429
504.2613, 146.5591
504.7434, 152.6915
505.2255, 158.9687
505.7076, 165.3163
506.1898, 172.8258
506.6719, 180.2674
507.1540, 185.5768
507.6361, 187.7435
508.1182, 186.5227
508.6003, 181.1002
509.0825, 170.5092
509.5646, 158.2581
510.0467, 143.1736
510.5288, 127.8351
511.0109, 112.8911
511.4930, 98.77110
511.9752, 86.34243
512.4573, 76.17110
512.9394, 68.03022
513.4215, 61.54308
513.9036, 56.81038
514.3857, 52.97158
514.8679, 49.98041
515.3500, 47.54356
515.8321, 45.17649
516.3142, 42.82238
516.7963, 40.98532
517.2784, 40.37336
517.7606, 40.17036
518.2427, 38.99528
518.7248, 36.79615
519.2069, 34.96521
519.6890, 34.54797
520.1711, 35.20401
520.6533, 35.24595
521.1354, 34.04549
521.6175, 33.16841
522.0996, 33.17586
522.5817, 33.45190
523.0638, 33.24413
523.5460, 32.52010
524.0281, 31.97713
524.5102, 32.37630
524.9923, 33.67421
525.4744, 34.32981
525.9565, 33.67812
526.4387, 33.22841
526.9208, 33.39342
527.4029, 33.84344
527.8850, 34.28745
528.3671, 34.63812
528.8492, 34.84787
529.3314, 34.65367
529.8135, 34.15096
530.2956, 34.40844
530.7777, 35.87372
531.2598, 37.29158
531.7419, 37.63802
532.2241, 37.47023
532.7062, 37.72980
533.1883, 38.82906
533.6704, 39.88102
534.1525, 39.98658
534.6346, 39.62154
535.1168, 39.99514
535.5989, 41.41928
536.0810, 43.18203
536.5631, 44.57841
537.0452, 45.59136
537.5273, 46.72063
538.0095, 48.15590
538.4916, 49.48888
538.9737, 50.49533
539.4558, 51.33440
539.9379, 52.17534
540.4200, 53.09275
540.9022, 54.22474
541.3843, 55.78370
541.8664, 57.83580
542.3485, 59.94824
542.8306, 62.21934
543.3127, 64.43070
543.7948, 66.43083
544.2769, 68.34594
544.7590, 70.35373
545.2411, 72.52446
545.7233, 74.79476
546.2054, 77.09073
546.6875, 79.41541
547.1696, 81.69122
547.6517, 83.92217
548.1339, 86.06464
548.6160, 87.96023
549.0981, 89.71653
549.5802, 91.68919
550.0623, 93.95815
550.5444, 96.43132
551.0266, 99.19276
551.5087, 102.1098
551.9908, 104.9099
552.4729, 107.5134
552.9550, 109.9292
553.4371, 112.1306
553.9193, 114.0635
554.4014, 116.1676
554.8835, 118.9431
555.3656, 121.3155
555.8477, 122.6229
556.3298, 123.3842
556.8120, 124.4346
557.2941, 126.0688
557.7762, 127.7397
558.2583, 128.7589
558.7404, 129.1268
559.2225, 128.8204
559.7047, 127.8807
560.1868, 126.1379
560.6689, 123.2628
561.1510, 119.6974
561.6331, 116.1432
562.1152, 112.8163
562.5974, 109.5629
563.0795, 106.2404
563.5616, 102.8732
564.0437, 99.58675
564.5258, 96.42137
565.0079, 93.18478
565.4901, 89.58638
565.9722, 85.67689
566.4543, 82.25418
566.9364, 79.66015
567.4185, 77.15937
567.9006, 74.34321
568.3828, 71.50311
568.8649, 69.08913
569.3470, 67.20818
569.8291, 65.50150
570.3112, 63.55386
570.7933, 61.32450
571.2755, 59.46514
571.7576, 58.16887
572.2397, 57.01607
572.7218, 56.02270
573.2039, 55.05019
573.6860, 53.91319
574.1682, 52.56631
574.6503, 51.22136
575.1324, 49.99624
575.6145, 48.92536
576.0966, 48.25766
576.5787, 48.13761
577.0609, 47.91148
577.5430, 47.15081
578.0251, 46.01077
578.5072, 44.87653
578.9893, 43.67011
579.4714, 42.66273
579.9536, 41.97308
580.4357, 41.53203
580.9178, 41.40607
581.3999, 41.52004
581.8820, 41.41177
582.3641, 40.69139
582.8463, 39.48077
583.3284, 38.47742
583.8105, 37.63011
584.2926, 37.08842
584.7747, 37.05788
585.2568, 37.16938
585.7390, 37.14132
586.2211, 36.96998
586.7032, 36.81837
587.1853, 36.78796
587.6674, 36.87081
588.1495, 37.11300
588.6317, 37.57318
589.1138, 37.80713
589.5959, 37.49192
590.0780, 37.05863
590.5601, 37.10646
591.0422, 37.62494
591.5244, 37.89347
592.0065, 37.28747
592.4886, 36.65505
592.9707, 36.91973
593.4528, 37.85709
593.9349, 38.62053
594.4171, 38.83056
594.8992, 38.72690
595.3813, 38.72328
595.8634, 38.86429
596.3455, 38.97485
596.8276, 39.00234
597.3098, 39.05836
597.7919, 39.21051
598.2740, 39.41826
598.7561, 39.59549
599.2382, 39.70430
599.7203, 39.83346
600.2025, 40.11150
600.6846, 40.53633
601.1667, 41.02268
601.6488, 41.66330
602.1309, 42.15684
602.6130, 42.01411
603.0952, 41.61274
603.5773, 41.79930
604.0594, 43.10328
604.5415, 44.20582
605.0236, 44.34101
605.5057, 43.88646
605.9879, 43.32935
606.4700, 42.78064
606.9521, 42.31673
607.4342, 42.01966
607.9163, 41.86025
608.3984, 41.61204
608.8806, 41.22330
609.3627, 40.81104
609.8448, 40.51194
610.3269, 40.09956
610.8090, 39.30015
611.2911, 38.18095
611.7733, 37.09544
612.2554, 36.23099
612.7375, 35.61743
613.2196, 35.44093
613.7017, 35.76423
614.1838, 35.83440
614.6660, 35.34424
615.1481, 34.60577
615.6302, 33.85056
616.1123, 33.08712
616.5944, 32.70332
617.0765, 33.06752
617.5587, 33.56108
618.0408, 33.78893
618.5229, 33.82372
619.0050, 33.83461
619.4871, 33.88338
619.9692, 33.98759
620.4514, 34.17024
620.9335, 34.43365
621.4156, 34.76432
621.8977, 35.22438
622.3798, 35.68116
