##NAMES=Alunogen
##RRUFFID=R060015
##IDEAL CHEMISTRY=Al_2_(S^6+^O_4_)_3_(H_2_O)_12_&#183;5H_2_O
##LOCALITY=Saxony, Germany
##OWNER=RRUFF
##SOURCE=American Museum of Natural History
##DESCRIPTION=Colorless compact mass of fibers, along with some sprays of acicular single crystals
##STATUS=The identification of this mineral has been confirmed by X-ray diffraction and chemical analysis
##URL=rruff.info/R060015
##MEASURED CHEMISTRY=(Al_1.77_Fe^3+^_0.23_)_Σ=2_(S_1.00_O_4_)_3_·17H_2_O
110.9020, 27.22007
111.3842, 27.09420
111.8663, 27.04959
112.3484, 27.06415
112.8305, 27.10688
113.3126, 27.15765
113.7947, 27.21656
114.2769, 27.28099
114.7590, 27.38607
115.2411, 27.46417
115.7232, 27.47285
116.2053, 27.42418
116.6874, 27.36847
117.1695, 27.35608
117.6517, 27.39962
118.1338, 27.44325
118.6159, 27.49907
119.0980, 27.54808
119.5801, 27.56678
120.0622, 27.54846
120.5444, 27.52321
121.0265, 27.53611
121.5086, 27.58623
121.9907, 27.63838
122.4728, 27.69978
122.9549, 27.75680
123.4371, 27.76886
123.9192, 27.70289
124.4013, 27.61491
124.8834, 27.56461
125.3655, 27.55230
125.8476, 27.56349
126.3298, 27.59524
126.8119, 27.64968
127.2940, 27.69573
127.7761, 27.74812
128.2582, 27.77452
128.7404, 27.73583
129.2225, 27.62126
129.7046, 27.48469
130.1867, 27.42958
130.6688, 27.54112
131.1509, 27.56948
131.6331, 27.42545
132.1152, 27.22222
132.5973, 27.06400
133.0794, 27.00238
133.5615, 27.01485
134.0436, 27.00907
134.5258, 26.95996
135.0079, 26.91851
135.4900, 26.88251
135.9721, 26.85916
136.4542, 26.86737
136.9363, 26.92715
137.4184, 27.03042
137.9006, 27.05236
138.3827, 26.96339
138.8648, 26.84148
139.3469, 26.71730
139.8290, 26.59258
140.3111, 26.45779
140.7933, 26.29718
141.2754, 26.11684
141.7575, 25.96595
142.2396, 25.84148
142.7217, 25.75112
143.2038, 25.72569
143.6860, 25.78442
144.1681, 25.82754
144.6502, 25.74017
145.1323, 25.57104
145.6144, 25.42214
146.0965, 25.35462
146.5787, 25.34160
147.0608, 25.29667
147.5429, 25.20204
148.0250, 25.09192
148.5071, 24.96802
148.9892, 24.84252
149.4714, 24.74720
149.9535, 24.72706
150.4356, 24.79091
150.9177, 24.81130
151.3998, 24.73303
151.8819, 24.65196
152.3641, 24.61357
152.8462, 24.61251
153.3283, 24.60658
153.8104, 24.53992
154.2925, 24.37516
154.7746, 24.25581
155.2568, 24.20975
155.7389, 24.17838
156.2210, 24.11683
156.7031, 24.01999
157.1852, 23.92366
157.6673, 23.88592
158.1495, 23.96333
158.6316, 24.00690
159.1137, 24.01227
159.5958, 23.98716
160.0779, 23.92480
160.5600, 23.82045
161.0422, 23.70952
161.5243, 23.50476
162.0064, 23.68005
162.4885, 23.76355
162.9706, 23.76022
163.4527, 23.40823
163.9349, 23.50780
164.4170, 23.42723
164.8991, 23.33983
165.3812, 23.50463
165.8633, 23.20638
166.3454, 23.36836
166.8276, 23.34744
167.3097, 23.41109
167.7918, 23.29347
168.2739, 23.23261
168.7560, 23.35424
169.2381, 23.37574
169.7203, 23.23953
170.2024, 23.31203
170.6845, 23.01328
171.1666, 23.04141
171.6487, 23.21091
172.1308, 23.08678
172.6130, 23.16553
173.0951, 23.16783
173.5772, 22.82057
174.0593, 23.08283
174.5414, 23.08233
175.0235, 22.81202
175.5057, 23.05517
175.9878, 22.92139
176.4699, 23.01345
176.9520, 23.05378
177.4341, 22.99546
177.9162, 22.87157
178.3984, 22.78643
178.8805, 22.80709
179.3626, 22.77979
179.8447, 22.63704
180.3268, 22.45085
180.8089, 22.31374
181.2911, 22.28047
181.7732, 22.32894
182.2553, 22.33318
182.7374, 22.24021
183.2195, 22.16178
183.7016, 22.14439
184.1838, 22.15538
184.6659, 22.12756
185.1480, 22.01220
185.6301, 21.82360
186.1122, 21.71204
186.5943, 21.73190
187.0765, 21.75419
187.5586, 21.73153
188.0407, 21.66990
188.5228, 21.59102
189.0049, 21.49908
189.4870, 21.40420
189.9692, 21.35397
190.4513, 21.38699
190.9334, 21.42965
191.4155, 21.43540
191.8976, 21.40504
192.3797, 21.36057
192.8619, 21.29923
193.3440, 21.23798
193.8261, 21.22203
194.3082, 21.31277
194.7903, 21.41331
195.2724, 21.40522
195.7546, 21.27273
196.2367, 21.13678
196.7188, 21.07619
197.2009, 21.06034
197.6830, 21.05527
198.1651, 21.05349
198.6473, 21.05529
199.1294, 21.06691
199.6115, 21.10052
200.0936, 21.11174
200.5757, 21.04246
201.0578, 20.94943
201.5400, 20.91139
202.0221, 20.98505
202.5042, 21.12346
202.9863, 21.18669
203.4684, 21.13319
203.9505, 21.06586
204.4327, 20.99737
204.9148, 20.94221
205.3969, 20.92696
205.8790, 20.97740
206.3611, 21.07126
206.8432, 21.09075
207.3254, 20.92368
207.8075, 20.81540
208.2896, 20.85503
208.7717, 20.97964
209.2538, 21.10046
209.7359, 21.16292
210.2181, 21.17049
210.7002, 21.15175
211.1823, 21.06375
211.6644, 20.99300
212.1465, 20.96555
212.6286, 20.96660
213.1108, 20.96978
213.5929, 20.95792
214.0750, 20.93195
214.5571, 20.90561
215.0392, 20.86449
215.5213, 20.83779
216.0035, 20.85847
216.4856, 20.90153
216.9677, 20.90837
217.4498, 20.83346
217.9319, 20.68663
218.4140, 20.59968
218.8961, 20.60581
219.3783, 20.62354
219.8604, 20.63515
220.3425, 20.63504
220.8246, 20.60991
221.3067, 20.54551
221.7888, 20.44880
222.2710, 20.37215
222.7531, 20.31132
223.2352, 20.27110
223.7173, 20.26402
224.1994, 20.28400
224.6815, 20.30295
225.1637, 20.30547
225.6458, 20.29248
226.1279, 20.27424
226.6100, 20.24271
227.0921, 20.21389
227.5742, 20.20175
228.0564, 20.20470
228.5385, 20.20568
229.0206, 20.19451
229.5027, 20.17537
229.9848, 20.16008
230.4669, 20.15771
230.9491, 20.14792
231.4312, 20.09932
231.9133, 20.01136
232.3954, 19.94962
232.8775, 19.96164
233.3596, 20.01155
233.8418, 20.05696
234.3239, 20.10001
234.8060, 20.12217
235.2881, 20.08781
235.7702, 19.98828
236.2523, 19.91414
236.7345, 19.92591
237.2166, 19.96760
237.6987, 19.99804
238.1808, 20.01195
238.6629, 20.00030
239.1451, 19.93786
239.6272, 19.81022
240.1093, 19.70883
240.5914, 19.66783
241.0735, 19.66098
241.5556, 19.68481
242.0378, 19.73941
242.5199, 19.79456
243.0020, 19.80800
243.4841, 19.76837
243.9662, 19.72742
244.4483, 19.69542
244.9305, 19.66444
245.4126, 19.62391
245.8947, 19.57293
246.3768, 19.52782
246.8589, 19.52475
247.3410, 19.59852
247.8232, 19.60253
248.3053, 19.42516
248.7874, 19.24838
249.2695, 19.21125
249.7516, 19.32502
250.2337, 19.46917
250.7159, 19.46611
251.1980, 19.22691
251.6801, 19.08405
252.1622, 19.10492
252.6443, 19.16338
253.1264, 19.19404
253.6086, 19.18604
254.0907, 19.16342
254.5728, 19.15688
255.0549, 19.17627
255.5370, 19.18118
256.0191, 19.18170
256.5013, 19.16285
256.9834, 19.08722
257.4655, 18.97005
257.9476, 18.88157
258.4297, 18.90877
258.9118, 19.09850
259.3940, 19.21132
259.8761, 19.22186
260.3582, 19.19534
260.8403, 19.15737
261.3224, 19.11285
261.8045, 19.05460
262.2867, 18.96836
262.7688, 18.83947
263.2509, 18.79233
263.7330, 18.89337
264.2151, 18.99620
264.6972, 19.03882
265.1794, 19.02151
265.6615, 18.96790
266.1436, 18.88930
266.6257, 18.78208
267.1078, 18.74488
267.5899, 18.84248
268.0721, 18.93052
268.5542, 18.93752
269.0363, 18.88040
269.5184, 18.81850
270.0005, 18.79388
270.4826, 18.80296
270.9648, 18.79309
271.4469, 18.75284
271.9290, 18.71014
272.4111, 18.66901
272.8932, 18.63299
273.3753, 18.60988
273.8575, 18.60563
274.3396, 18.61682
274.8217, 18.62612
275.3038, 18.62596
275.7859, 18.63246
276.2680, 18.66116
276.7502, 18.69982
277.2323, 18.72043
277.7144, 18.70666
278.1965, 18.67282
278.6786, 18.66269
279.1607, 18.68481
279.6429, 18.70865
280.1250, 18.72312
280.6071, 18.73421
281.0892, 18.75848
281.5713, 18.80698
282.0534, 18.85618
282.5356, 18.84646
283.0177, 18.75176
283.4998, 18.69694
283.9819, 18.75078
284.4640, 18.85364
284.9461, 18.91166
285.4283, 18.89673
285.9104, 18.84792
286.3925, 18.81696
286.8746, 18.80474
287.3567, 18.79262
287.8388, 18.76853
288.3210, 18.74561
288.8031, 18.74001
289.2852, 18.75451
289.7673, 18.78705
290.2494, 18.85159
290.7315, 18.94525
291.2137, 18.99538
291.6958, 18.95822
292.1779, 18.89003
292.6600, 18.83941
293.1421, 18.81035
293.6242, 18.82301
294.1064, 18.93038
294.5885, 19.10359
295.0706, 19.18871
295.5527, 19.09227
296.0348, 18.95627
296.5169, 18.91280
296.9991, 18.96076
297.4812, 19.00263
297.9633, 18.96182
298.4454, 18.87348
298.9275, 18.84889
299.4096, 18.94310
299.8918, 19.04372
300.3739, 19.06415
300.8560, 19.01454
301.3381, 18.96711
301.8202, 18.95796
302.3023, 18.96765
302.7845, 18.95126
303.2666, 18.89184
303.7487, 18.84735
304.2308, 18.86654
304.7129, 18.93128
305.1950, 18.97929
305.6772, 18.99404
306.1593, 18.97717
306.6414, 18.92406
307.1235, 18.83000
307.6056, 18.74820
308.0877, 18.71438
308.5699, 18.70866
309.0520, 18.68329
309.5341, 18.62457
310.0162, 18.55419
310.4983, 18.49124
310.9804, 18.43476
311.4626, 18.39203
311.9447, 18.39169
312.4268, 18.39755
312.9089, 18.34120
313.3910, 18.20340
313.8731, 18.06563
314.3553, 18.00619
314.8374, 18.00357
315.3195, 17.99121
315.8016, 17.94644
316.2837, 17.89158
316.7658, 17.85261
317.2480, 17.83042
317.7301, 17.80659
318.2122, 17.76669
318.6943, 17.71794
319.1764, 17.68003
319.6585, 17.67044
320.1407, 17.65196
320.6228, 17.59013
321.1049, 17.49032
321.5870, 17.38767
322.0691, 17.29034
322.5512, 17.20608
323.0334, 17.14862
323.5155, 17.12826
323.9976, 17.10268
324.4797, 17.03637
324.9618, 16.94549
325.4439, 16.88088
325.9261, 16.85950
326.4082, 16.86304
326.8903, 16.86966
327.3724, 16.87889
327.8545, 16.89175
328.3366, 16.93544
328.8188, 16.97563
329.3009, 16.93916
329.7830, 16.80064
330.2651, 16.65331
330.7472, 16.59579
331.2293, 16.61229
331.7115, 16.62180
332.1936, 16.61451
332.6757, 16.59079
333.1578, 16.53147
333.6399, 16.43620
334.1220, 16.38087
334.6042, 16.44490
335.0863, 16.58697
335.5684, 16.64682
336.0505, 16.57012
336.5326, 16.46121
337.0147, 16.37557
337.4969, 16.31184
337.9790, 16.26593
338.4611, 16.18126
338.9432, 16.21821
339.4253, 16.22436
339.9074, 16.20138
340.3896, 16.06197
340.8717, 16.07289
341.3538, 16.02358
341.8359, 15.97179
342.3180, 16.00387
342.8001, 15.88140
343.2822, 15.91215
343.7643, 15.88174
344.2465, 15.87932
344.7286, 15.81628
345.2107, 15.77197
345.6928, 15.78829
346.1749, 15.77104
346.6570, 15.70103
347.1392, 15.70039
347.6213, 15.57580
348.1034, 15.55998
348.5855, 15.59109
349.0676, 15.52412
349.5497, 15.45372
350.0319, 15.45505
350.5140, 15.45976
350.9961, 15.43500
351.4782, 15.39097
351.9603, 15.37657
352.4424, 15.43027
352.9246, 15.46219
353.4067, 15.44117
353.8888, 15.38046
354.3709, 15.29623
354.8530, 15.19160
355.3351, 15.08427
355.8173, 15.00915
356.2994, 14.97614
356.7815, 14.95193
357.2636, 14.94222
357.7457, 14.93548
358.2278, 14.91630
358.7100, 14.88352
359.1921, 14.85401
359.6742, 14.84686
360.1563, 14.86610
360.6384, 14.88733
361.1205, 14.92874
361.6027, 14.95574
362.0848, 14.94424
362.5669, 14.90067
363.0490, 14.84651
363.5311, 14.79492
364.0132, 14.74655
364.4954, 14.70837
364.9775, 14.66281
365.4596, 14.64700
365.9417, 14.70482
366.4238, 14.78604
366.9059, 14.81543
367.3881, 14.76275
367.8702, 14.66939
368.3523, 14.62160
368.8344, 14.66668
369.3165, 14.68154
369.7986, 14.64004
370.2808, 14.58914
370.7629, 14.56083
371.2450, 14.56063
371.7271, 14.57930
372.2092, 14.61136
372.6913, 14.66414
373.1735, 14.68304
373.6556, 14.63146
374.1377, 14.58480
374.6198, 14.57506
375.1019, 14.59106
375.5840, 14.60567
376.0662, 14.60099
376.5483, 14.58199
377.0304, 14.57281
377.5125, 14.58295
377.9946, 14.58957
378.4767, 14.57835
378.9589, 14.56731
379.4410, 14.58273
379.9231, 14.63160
380.4052, 14.68303
380.8873, 14.68106
381.3694, 14.59943
381.8516, 14.55087
382.3337, 14.55360
382.8158, 14.58316
383.2979, 14.64756
383.7800, 14.73428
384.2621, 14.80403
384.7443, 14.82195
385.2264, 14.79113
385.7085, 14.74645
386.1906, 14.66062
386.6727, 14.60239
387.1548, 14.60776
387.6370, 14.65219
388.1191, 14.69990
388.6012, 14.73693
389.0833, 14.76748
389.5654, 14.79578
390.0475, 14.81895
390.5297, 14.85327
391.0118, 14.92552
391.4939, 14.99794
391.9760, 15.02411
392.4581, 14.99647
392.9402, 14.82441
393.4224, 15.07070
393.9045, 15.22484
394.3866, 15.29181
394.8687, 15.00979
395.3508, 15.17898
395.8329, 15.16768
396.3151, 15.14922
396.7972, 15.38261
397.2793, 15.15260
397.7614, 15.38249
398.2435, 15.42913
398.7256, 15.55999
399.2078, 15.50926
399.6899, 15.51494
400.1720, 15.70275
400.6541, 15.79010
401.1362, 15.71940
401.6183, 15.85706
402.1005, 15.62314
402.5826, 15.71574
403.0647, 15.94937
403.5468, 15.88903
404.0289, 16.03123
404.5110, 16.09663
404.9932, 15.81214
405.4753, 16.13682
405.9574, 16.19839
406.4395, 15.98982
406.9216, 16.29436
407.4037, 16.12355
407.8859, 16.12275
408.3680, 16.24994
408.8501, 16.24419
409.3322, 16.44866
409.8143, 16.45108
410.2964, 16.43568
410.7786, 16.49940
411.2607, 16.33987
411.7428, 16.59520
412.2249, 16.56755
412.7070, 16.68093
413.1891, 16.82646
413.6713, 16.72791
414.1534, 16.88827
414.6355, 16.64772
415.1176, 16.74307
415.5997, 16.80252
416.0818, 17.07676
416.5640, 16.83915
417.0461, 16.92615
417.5282, 17.15150
418.0103, 17.13880
418.4924, 17.07255
418.9745, 17.04184
419.4567, 17.09221
419.9388, 17.19184
420.4209, 17.30691
420.9030, 17.42218
421.3851, 17.51931
421.8672, 17.54853
422.3494, 17.46531
422.8315, 17.42910
423.3136, 17.48055
423.7957, 17.56082
424.2778, 17.65159
424.7599, 17.74273
425.2421, 17.81120
425.7242, 17.81643
426.2063, 17.77065
426.6884, 17.80267
427.1705, 17.97422
427.6526, 18.11992
428.1348, 18.15111
428.6169, 18.11989
429.0990, 18.09645
429.5811, 18.10157
430.0632, 18.13030
430.5453, 18.18349
431.0275, 18.26173
431.5096, 18.33636
431.9917, 18.40127
432.4738, 18.45691
432.9559, 18.49146
433.4380, 18.50559
433.9202, 18.55742
434.4023, 18.71751
434.8844, 18.92059
435.3665, 19.04497
435.8486, 19.07512
436.3307, 19.07314
436.8129, 19.07118
437.2950, 19.07302
437.7771, 19.09061
438.2592, 19.12634
438.7413, 19.17563
439.2234, 19.23346
439.7056, 19.30284
440.1877, 19.40006
440.6698, 19.53697
441.1519, 19.67675
441.6340, 19.75536
442.1161, 19.74159
442.5983, 19.75770
443.0804, 19.84449
443.5625, 19.93672
444.0446, 19.97385
444.5267, 19.96363
445.0089, 19.96696
445.4910, 20.03354
445.9731, 20.15427
446.4552, 20.24085
446.9373, 20.28459
447.4194, 20.30446
447.9016, 20.26351
448.3837, 20.21800
448.8658, 20.23873
449.3479, 20.34325
449.8300, 20.48077
450.3121, 20.58333
450.7943, 20.65094
451.2764, 20.68281
451.7585, 20.61752
452.2406, 20.57384
452.7227, 20.61550
453.2048, 20.71573
453.6870, 20.80962
454.1691, 20.85933
454.6512, 20.87728
455.1333, 20.89278
455.6154, 20.90165
456.0975, 20.92070
456.5797, 20.96866
457.0618, 21.02105
457.5439, 21.05601
458.0260, 21.07047
458.5081, 21.08802
458.9902, 21.12655
459.4724, 21.18251
459.9545, 21.24473
460.4366, 21.31363
460.9187, 21.38491
461.4008, 21.45545
461.8829, 21.52608
462.3651, 21.59900
462.8472, 21.68220
463.3293, 21.76033
463.8114, 21.81615
464.2935, 21.85604
464.7756, 21.90454
465.2578, 21.97251
465.7399, 22.04826
466.2220, 22.11212
466.7041, 22.16431
467.1862, 22.20604
467.6683, 22.23363
468.1505, 22.25343
468.6326, 22.26725
469.1147, 22.27715
469.5968, 22.28973
470.0789, 22.31090
470.5610, 22.33786
471.0432, 22.35192
471.5253, 22.37200
472.0074, 22.35429
472.4895, 22.25993
472.9716, 22.14371
473.4537, 22.06370
473.9359, 22.03144
474.4180, 22.01378
474.9001, 21.97429
475.3822, 21.91325
475.8643, 21.83043
476.3464, 21.69610
476.8286, 21.57196
477.3107, 21.48585
477.7928, 21.42136
478.2749, 21.35843
478.7570, 21.29459
479.2391, 21.20418
479.7213, 21.02118
480.2034, 20.72709
480.6855, 20.49572
481.1676, 20.39743
481.6497, 20.34453
482.1318, 20.28117
482.6140, 20.20231
483.0961, 20.08627
483.5782, 19.88194
484.0603, 19.65090
484.5424, 19.50390
485.0245, 19.44774
485.5067, 19.37598
485.9888, 19.21893
486.4709, 19.01356
486.9530, 18.86256
487.4351, 18.79671
487.9172, 18.71388
488.3994, 18.57149
488.8815, 18.27122
489.3636, 18.29309
489.8457, 18.22861
490.3278, 18.08276
490.8099, 17.59369
491.2921, 17.56161
491.7742, 17.35488
492.2563, 17.14677
492.7384, 17.19630
493.2205, 16.78823
493.7026, 16.84585
494.1848, 16.72600
494.6669, 16.69619
495.1490, 16.49057
495.6311, 16.34715
496.1132, 16.39168
496.5953, 16.07875
497.0775, 15.96901
497.5596, 15.86057
498.0417, 15.74593
498.5238, 15.63279
499.0059, 15.53844
499.4880, 15.47493
499.9702, 15.42844
500.4523, 15.37327
500.9344, 15.30891
501.4165, 15.23868
501.8986, 15.16816
502.3807, 15.08745
502.8629, 14.97556
503.3450, 14.83550
503.8271, 14.72378
504.3092, 14.69193
504.7913, 14.69440
505.2734, 14.66398
505.7556, 14.59712
506.2377, 14.50697
506.7198, 14.38604
507.2019, 14.25530
507.6840, 14.18522
508.1661, 14.22698
508.6482, 14.22476
509.1303, 14.08822
509.6125, 13.91204
510.0946, 13.80486
510.5767, 13.78321
511.0588, 13.80369
511.5409, 13.83313
512.0231, 13.87123
512.5052, 13.87153
512.9873, 13.79663
513.4694, 13.72781
513.9515, 13.67943
514.4337, 13.64565
514.9158, 13.61972
515.3979, 13.59937
515.8800, 13.58557
516.3621, 13.58239
516.8442, 13.59164
517.3264, 13.59354
517.8085, 13.59540
518.2906, 13.57855
518.7727, 13.52013
519.2548, 13.44296
519.7369, 13.38662
520.2191, 13.36854
520.7012, 13.36422
521.1833, 13.34638
521.6654, 13.31713
522.1475, 13.29481
522.6296, 13.28858
523.1118, 13.28057
523.5939, 13.23312
524.0760, 13.15511
524.5581, 13.12813
525.0402, 13.22303
525.5223, 13.32277
526.0045, 13.35124
526.4866, 13.31538
526.9687, 13.23044
527.4508, 13.09734
527.9329, 12.95704
528.4150, 12.88952
528.8972, 12.93953
529.3793, 12.96176
529.8614, 12.93934
530.3435, 12.90667
530.8256, 12.88182
531.3077, 12.86289
531.7899, 12.83888
532.2720, 12.80258
532.7541, 12.76045
533.2362, 12.73020
533.7183, 12.71609
534.2004, 12.70133
534.6826, 12.68894
535.1647, 12.67028
535.6468, 12.63552
536.1289, 12.58784
536.6110, 12.54335
537.0931, 12.51170
537.5753, 12.48923
538.0574, 12.47380
538.5395, 12.46622
539.0216, 12.44691
539.5037, 12.40055
539.9858, 12.34459
540.4680, 12.31462
540.9501, 12.31903
541.4322, 12.29748
541.9143, 12.19718
542.3964, 12.08684
542.8785, 12.04055
543.3607, 12.05528
543.8428, 12.08262
544.3249, 12.09388
544.8070, 12.09093
545.2891, 12.08083
545.7712, 12.07338
546.2534, 12.04334
546.7355, 11.94394
547.2176, 11.85706
547.6997, 11.86221
548.1818, 11.94625
548.6639, 12.02702
549.1461, 12.03780
549.6282, 11.99615
550.1103, 11.97790
550.5924, 11.99678
551.0745, 12.00301
551.5566, 11.95501
552.0388, 11.90491
552.5209, 11.90477
553.0030, 11.95664
553.4851, 11.99609
553.9672, 11.95746
554.4493, 11.89251
554.9315, 11.91233
555.4136, 12.02294
555.8957, 12.10980
556.3778, 12.10596
556.8599, 12.04010
557.3420, 11.98518
557.8242, 11.93477
558.3063, 11.90692
558.7884, 11.91265
559.2705, 11.93735
559.7526, 11.98192
560.2347, 12.03637
560.7169, 12.06620
561.1990, 12.04223
561.6811, 11.98083
562.1632, 11.95946
562.6453, 12.01173
563.1274, 12.04661
563.6096, 12.03345
564.0917, 12.01740
564.5738, 12.04212
565.0559, 12.10073
565.5380, 12.14102
566.0201, 12.11012
566.5023, 12.04209
566.9844, 12.03607
567.4665, 12.10435
567.9486, 12.15350
568.4307, 12.13252
568.9128, 12.08796
569.3950, 12.08755
569.8771, 12.13558
570.3592, 12.17575
570.8413, 12.16846
571.3234, 12.15893
571.8055, 12.21395
572.2877, 12.31882
572.7698, 12.38122
573.2519, 12.34277
573.7340, 12.25251
574.2161, 12.23795
574.6982, 12.37165
575.1804, 12.45564
575.6625, 12.45683
576.1446, 12.43996
576.6267, 12.43153
577.1088, 12.43893
577.5909, 12.47264
578.0731, 12.54460
578.5552, 12.62780
579.0373, 12.65346
579.5194, 12.60700
580.0015, 12.58435
580.4836, 12.61590
580.9658, 12.66550
581.4479, 12.70135
581.9300, 12.72898
582.4121, 12.77358
582.8942, 12.87084
583.3763, 12.96742
583.8585, 12.99701
584.3406, 12.97818
584.8227, 12.98421
585.3048, 13.04310
585.7869, 13.11980
586.2690, 13.16100
586.7512, 13.14973
587.2333, 13.19210
587.7154, 13.36621
588.1975, 13.50675
588.6796, 13.50480
589.1617, 13.43466
589.6438, 13.42305
590.1259, 13.51506
590.6080, 13.64649
591.0901, 13.72518
591.5723, 13.74467
592.0544, 13.77201
592.5365, 13.79772
593.0186, 13.84709
593.5007, 13.94979
593.9828, 14.07483
594.4650, 14.17724
594.9471, 14.24425
595.4292, 14.29375
595.9113, 14.34335
596.3934, 14.38424
596.8755, 14.38056
597.3577, 14.32466
597.8398, 14.28878
598.3219, 14.33529
598.8040, 14.45019
599.2861, 14.53774
599.7682, 14.58550
600.2504, 14.62737
600.7325, 14.65670
601.2146, 14.69067
601.6967, 14.75290
602.1788, 14.83959
602.6609, 14.92313
603.1431, 14.98278
603.6252, 15.01972
604.1073, 15.03677
604.5894, 15.03270
605.0715, 15.01141
605.5536, 14.93966
