##NAMES=Alunogen
##RRUFFID=R070601
##IDEAL CHEMISTRY=Al_2_(S^6+^O_4_)_3_(H_2_O)_12_&#183;5H_2_O
##LOCALITY=Alum Grotto, Vulcano Island, Aeolian Islands, Messina, Sicily, Italy
##OWNER=RRUFF
##SOURCE=James Shigley
##DESCRIPTION=Granular aggregates of white microcrystals associated with light tan to light purple coquimbite.
##STATUS=The identification of this mineral has been confirmed by single-crystal X-ray diffraction.
##URL=rruff.info/R070601
132.0134, 6329.225
132.4955, 6468.329
132.9776, 6586.209
133.4597, 6679.766
133.9418, 6768.282
134.4240, 6866.808
134.9061, 6976.538
135.3882, 7083.422
135.8703, 7186.847
136.3524, 7285.960
136.8345, 7377.742
137.3167, 7463.022
137.7988, 7540.935
138.2809, 7608.860
138.7630, 7666.071
139.2451, 7717.267
139.7272, 7762.733
140.2094, 7802.298
140.6915, 7838.457
141.1736, 7867.172
141.6557, 7895.085
142.1378, 7938.564
142.6199, 8003.806
143.1021, 8056.977
143.5842, 8048.945
144.0663, 8029.476
144.5484, 8019.365
145.0305, 8017.546
145.5126, 8024.488
145.9948, 8048.106
146.4769, 8110.721
146.9590, 8172.016
147.4411, 8202.147
147.9232, 8166.309
148.4053, 8142.772
148.8875, 8150.002
149.3696, 8198.277
149.8517, 8219.197
150.3338, 8189.652
150.8159, 8141.861
151.2980, 8112.917
151.7802, 8129.043
152.2623, 8142.036
152.7444, 8135.516
153.2265, 8093.549
153.7086, 8065.217
154.1908, 8077.534
154.6729, 8107.823
155.1550, 8105.387
155.6371, 8025.754
156.1192, 7934.898
156.6013, 7867.751
157.0834, 7847.548
157.5656, 7830.335
158.0477, 7807.291
158.5298, 7778.989
159.0119, 7748.152
159.4940, 7714.388
159.9761, 7679.267
160.4583, 7643.989
160.9404, 7588.892
161.4225, 7550.961
161.9046, 7561.116
162.3867, 7624.136
162.8688, 7666.085
163.3510, 7635.492
163.8331, 7566.190
164.3152, 7505.897
164.7973, 7474.418
165.2794, 7458.933
165.7615, 7453.792
166.2437, 7461.325
166.7258, 7468.518
167.2079, 7466.889
167.6900, 7458.379
168.1721, 7447.963
168.6542, 7429.566
169.1364, 7414.186
169.6185, 7414.944
170.1006, 7444.766
170.5827, 7476.937
171.0648, 7488.691
171.5469, 7482.052
172.0291, 7469.066
172.5112, 7456.153
172.9933, 7442.682
173.4754, 7427.135
173.9575, 7403.365
174.4396, 7380.962
174.9218, 7372.212
175.4039, 7377.324
175.8860, 7388.564
176.3681, 7405.006
176.8502, 7423.106
177.3323, 7433.728
177.8144, 7426.124
178.2966, 7410.114
178.7787, 7402.112
179.2608, 7402.766
179.7429, 7411.010
180.2250, 7427.692
180.7071, 7451.832
181.1893, 7477.919
181.6714, 7506.758
182.1535, 7535.118
182.6356, 7553.605
183.1177, 7558.023
183.5998, 7557.008
184.0820, 7570.286
184.5641, 7596.763
185.0462, 7612.080
185.5283, 7585.723
186.0104, 7528.628
186.4925, 7491.080
186.9747, 7488.279
187.4568, 7508.589
187.9389, 7526.378
188.4210, 7541.940
188.9031, 7553.103
189.3852, 7556.170
189.8674, 7551.919
190.3495, 7546.480
190.8316, 7541.370
191.3137, 7536.790
191.7958, 7532.201
192.2779, 7526.988
192.7601, 7524.433
193.2422, 7530.805
193.7243, 7546.398
194.2064, 7560.294
194.6885, 7568.875
195.1706, 7572.069
195.6528, 7567.192
196.1349, 7550.395
196.6170, 7531.466
197.0991, 7530.873
197.5812, 7551.016
198.0633, 7570.051
198.5455, 7578.769
199.0276, 7577.208
199.5097, 7559.490
199.9918, 7519.682
200.4739, 7467.681
200.9560, 7430.020
201.4381, 7408.890
201.9203, 7395.452
202.4024, 7384.818
202.8845, 7377.212
203.3666, 7373.377
203.8487, 7377.550
204.3308, 7385.876
204.8130, 7374.992
205.2951, 7338.563
205.7772, 7298.246
206.2593, 7274.507
206.7414, 7272.579
207.2235, 7265.023
207.7057, 7242.614
208.1878, 7206.481
208.6699, 7187.374
209.1520, 7193.085
209.6341, 7203.939
210.1162, 7193.227
210.5984, 7149.075
211.0805, 7119.198
211.5626, 7122.691
212.0447, 7165.310
212.5268, 7187.710
213.0089, 7181.322
213.4911, 7163.096
213.9732, 7162.457
214.4553, 7188.417
214.9374, 7210.500
215.4195, 7215.979
215.9016, 7199.343
216.3838, 7185.891
216.8659, 7175.898
217.3480, 7168.857
217.8301, 7163.888
218.3122, 7161.842
218.7943, 7160.193
219.2765, 7155.995
219.7586, 7143.265
220.2407, 7145.112
220.7228, 7170.194
221.2049, 7209.813
221.6870, 7232.564
222.1691, 7235.466
222.6513, 7226.394
223.1334, 7208.295
223.6155, 7175.103
224.0976, 7146.347
224.5797, 7121.388
225.0618, 7101.530
225.5440, 7097.615
226.0261, 7121.943
226.5082, 7147.052
226.9903, 7149.933
227.4724, 7115.225
227.9545, 7089.093
228.4367, 7080.528
228.9188, 7089.246
229.4009, 7094.188
229.8830, 7094.556
230.3651, 7091.658
230.8472, 7085.933
231.3294, 7073.649
231.8115, 7065.043
232.2936, 7060.769
232.7757, 7060.096
233.2578, 7073.888
233.7399, 7120.837
234.2221, 7168.089
234.7042, 7171.655
235.1863, 7097.851
235.6684, 7038.553
236.1505, 7023.452
236.6326, 7065.579
237.1148, 7092.871
237.5969, 7095.167
238.0790, 7088.734
238.5611, 7101.361
239.0432, 7150.185
239.5253, 7191.642
240.0075, 7210.958
240.4896, 7202.728
240.9717, 7185.670
241.4538, 7147.254
241.9359, 7104.484
242.4180, 7093.994
242.9002, 7129.713
243.3823, 7176.642
243.8644, 7223.000
244.3465, 7275.231
244.8286, 7312.248
245.3107, 7332.470
245.7928, 7337.803
246.2750, 7331.292
246.7571, 7301.742
247.2392, 7276.680
247.7213, 7270.640
248.2034, 7292.625
248.6855, 7314.840
249.1677, 7340.807
249.6498, 7366.658
250.1319, 7372.618
250.6140, 7342.104
251.0961, 7315.361
251.5782, 7317.828
252.0604, 7365.458
252.5425, 7406.593
253.0246, 7438.179
253.5067, 7459.985
253.9888, 7467.884
254.4709, 7443.671
254.9531, 7430.667
255.4352, 7468.249
255.9173, 7597.557
256.3994, 7678.338
256.8815, 7679.747
257.3636, 7610.770
257.8458, 7567.478
258.3279, 7560.334
258.8100, 7563.688
259.2921, 7554.155
259.7742, 7519.724
260.2563, 7503.935
260.7385, 7520.886
261.2206, 7568.307
261.7027, 7595.863
262.1848, 7597.352
262.6669, 7588.218
263.1490, 7581.731
263.6312, 7578.058
264.1133, 7577.254
264.5954, 7580.780
265.0775, 7588.526
265.5596, 7592.034
266.0417, 7589.947
266.5239, 7585.921
267.0060, 7583.838
267.4881, 7584.244
267.9702, 7584.515
268.4523, 7581.803
268.9344, 7576.038
269.4166, 7582.815
269.8987, 7605.413
270.3808, 7634.824
270.8629, 7661.676
271.3450, 7686.356
271.8271, 7705.751
272.3093, 7717.310
272.7914, 7720.947
273.2735, 7725.700
273.7556, 7731.163
274.2377, 7738.574
274.7198, 7749.106
275.2020, 7762.635
275.6841, 7780.486
276.1662, 7803.904
276.6483, 7832.878
277.1304, 7865.077
277.6125, 7902.161
278.0946, 7939.564
278.5768, 7968.519
279.0589, 7988.023
279.5410, 8010.526
280.0231, 8042.854
280.5052, 8084.148
280.9873, 8121.028
281.4695, 8153.659
281.9516, 8180.640
282.4337, 8196.675
282.9158, 8201.164
283.3979, 8207.335
283.8800, 8219.591
284.3622, 8237.966
284.8443, 8265.687
285.3264, 8306.354
285.8085, 8346.472
286.2906, 8363.888
286.7727, 8359.004
287.2549, 8351.620
287.7370, 8348.408
288.2191, 8349.749
288.7012, 8356.231
289.1833, 8366.762
289.6654, 8386.215
290.1476, 8432.664
290.6297, 8501.954
291.1118, 8555.486
291.5939, 8563.372
292.0760, 8539.092
292.5581, 8523.850
293.0403, 8518.574
293.5224, 8525.328
294.0045, 8555.901
294.4866, 8605.711
294.9687, 8646.716
295.4508, 8654.815
295.9330, 8644.630
296.4151, 8650.509
296.8972, 8676.410
297.3793, 8710.178
297.8614, 8737.637
298.3435, 8760.370
298.8257, 8784.898
299.3078, 8822.132
299.7899, 8861.283
300.2720, 8879.523
300.7541, 8871.456
301.2362, 8860.920
301.7184, 8857.283
302.2005, 8868.181
302.6826, 8915.137
303.1647, 9068.527
303.6468, 9240.497
304.1289, 9309.297
304.6111, 9251.767
305.0932, 9157.867
305.5753, 9088.688
306.0574, 9041.036
306.5395, 9007.366
307.0216, 8984.972
307.5038, 8973.497
307.9859, 8977.303
308.4680, 9000.770
308.9501, 9019.195
309.4322, 9012.870
309.9143, 8989.298
310.3965, 8963.103
310.8786, 8929.972
311.3607, 8903.515
311.8428, 8900.237
312.3249, 8928.026
312.8070, 8946.169
313.2892, 8926.315
313.7713, 8883.262
314.2534, 8841.378
314.7355, 8804.314
315.2176, 8776.159
315.6997, 8764.789
316.1819, 8777.145
316.6640, 8776.116
317.1461, 8733.677
317.6282, 8672.014
318.1103, 8622.431
318.5924, 8610.897
319.0746, 8600.260
319.5567, 8571.922
320.0388, 8518.775
320.5209, 8475.618
321.0030, 8456.664
321.4851, 8450.485
321.9673, 8442.704
322.4494, 8428.657
322.9315, 8414.594
323.4136, 8403.989
323.8957, 8399.284
324.3778, 8387.457
324.8599, 8362.926
325.3420, 8332.191
325.8242, 8302.691
326.3063, 8268.900
326.7884, 8242.459
327.2705, 8226.744
327.7526, 8223.473
328.2347, 8221.513
328.7169, 8218.452
329.1990, 8217.862
329.6811, 8224.693
330.1632, 8257.802
330.6453, 8272.331
331.1274, 8255.118
331.6096, 8202.938
332.0917, 8155.991
332.5738, 8109.446
333.0559, 8072.799
333.5380, 8058.001
334.0201, 8076.292
334.5023, 8092.770
334.9844, 8101.920
335.4665, 8103.808
335.9486, 8097.765
336.4307, 8078.649
336.9128, 8060.465
337.3950, 8059.076
337.8771, 8080.239
338.3592, 8094.773
338.8413, 8096.780
339.3234, 8087.656
339.8055, 8072.724
340.2877, 8050.163
340.7698, 8028.472
341.2519, 8017.779
341.7340, 8018.575
342.2161, 8013.691
342.6982, 7998.075
343.1804, 7975.386
343.6625, 7955.972
344.1446, 7939.927
344.6267, 7925.792
345.1088, 7909.736
345.5909, 7893.268
346.0731, 7886.003
346.5552, 7891.718
347.0373, 7905.195
347.5194, 7923.248
348.0015, 7944.818
348.4836, 7954.385
348.9658, 7928.781
349.4479, 7882.960
349.9300, 7855.485
350.4121, 7858.511
350.8942, 7871.363
351.3763, 7868.414
351.8585, 7852.684
352.3406, 7837.465
352.8227, 7829.786
353.3048, 7827.767
353.7869, 7831.257
354.2690, 7844.102
354.7512, 7851.292
355.2333, 7831.306
355.7154, 7794.894
356.1975, 7769.147
356.6796, 7781.631
357.1617, 7802.531
357.6439, 7806.339
358.1260, 7786.310
358.6081, 7762.594
359.0902, 7742.653
359.5723, 7726.524
360.0544, 7714.271
360.5366, 7705.329
361.0187, 7700.729
361.5008, 7701.063
361.9829, 7706.540
362.4650, 7716.355
362.9471, 7736.469
363.4293, 7759.026
363.9114, 7774.364
364.3935, 7780.930
364.8756, 7779.716
365.3577, 7765.122
365.8398, 7732.992
366.3220, 7717.632
366.8041, 7740.107
367.2862, 7772.757
367.7683, 7789.203
368.2504, 7764.318
368.7325, 7751.744
369.2146, 7764.666
369.6967, 7803.391
370.1789, 7828.465
370.6610, 7832.844
371.1431, 7829.411
371.6252, 7827.955
372.1073, 7831.036
372.5894, 7829.786
373.0716, 7819.564
373.5537, 7803.323
374.0358, 7801.833
374.5179, 7821.878
375.0000, 7842.588
375.4821, 7846.583
375.9643, 7829.560
376.4464, 7825.497
376.9285, 7842.458
377.4106, 7871.160
377.8927, 7886.614
378.3748, 7888.126
378.8570, 7883.301
379.3391, 7876.688
379.8212, 7868.032
380.3033, 7801.917
380.7854, 7870.369
381.2675, 7911.572
381.7497, 7926.993
382.2318, 7839.403
382.7139, 7884.828
383.1960, 7876.947
383.6781, 7866.880
384.1602, 7931.027
384.6424, 7858.420
385.1245, 7921.391
385.6066, 7930.241
386.0887, 7963.860
386.5708, 7943.843
387.0529, 7940.393
387.5351, 7990.598
388.0172, 8011.093
388.4993, 7984.902
388.9814, 8020.096
389.4635, 7945.615
389.9456, 7967.375
390.4278, 8030.660
390.9099, 7977.436
391.3920, 7977.408
391.8741, 7989.629
392.3562, 8013.557
392.8383, 8042.988
393.3205, 8094.411
393.8026, 8140.275
394.2847, 8158.301
394.7668, 8097.776
395.2489, 8059.478
395.7310, 8081.887
396.2132, 8149.363
396.6953, 8194.781
397.1774, 8187.584
397.6595, 8172.659
398.1416, 8171.371
398.6237, 8198.185
399.1059, 8217.045
399.5880, 8217.496
400.0701, 8211.834
400.5522, 8229.368
401.0343, 8292.574
401.5164, 8346.245
401.9986, 8363.995
402.4807, 8329.858
402.9628, 8333.705
403.4449, 8393.658
403.9270, 8470.987
404.4091, 8504.185
404.8913, 8479.898
405.3734, 8467.391
405.8555, 8494.640
406.3376, 8556.709
406.8197, 8597.022
407.3018, 8613.100
407.7840, 8618.313
408.2661, 8618.739
408.7482, 8616.235
409.2303, 8632.886
409.7124, 8685.706
410.1945, 8752.630
410.6767, 8776.015
411.1588, 8758.541
411.6409, 8746.319
412.1230, 8787.215
412.6051, 8857.001
413.0872, 8907.197
413.5693, 8925.567
414.0515, 8926.346
414.5336, 8910.946
415.0157, 8887.450
415.4978, 8881.160
415.9799, 8922.616
416.4620, 8978.061
416.9442, 9017.556
417.4263, 9033.569
417.9084, 9045.224
418.3905, 9068.469
418.8726, 9092.493
419.3547, 9100.210
419.8369, 9060.611
420.3190, 9025.924
420.8011, 9019.835
421.2832, 9046.857
421.7653, 9076.101
422.2474, 9104.806
422.7296, 9131.699
423.2117, 9156.003
423.6938, 9178.436
424.1759, 9197.360
424.6580, 9211.292
425.1401, 9220.928
425.6223, 9232.594
426.1044, 9244.123
426.5865, 9260.533
427.0686, 9285.061
427.5507, 9318.699
428.0328, 9358.044
428.5150, 9405.597
428.9971, 9456.643
429.4792, 9500.889
429.9613, 9539.908
430.4434, 9566.721
430.9255, 9571.207
431.4077, 9554.011
431.8898, 9554.021
432.3719, 9574.786
432.8540, 9603.030
433.3361, 9617.532
433.8182, 9620.805
434.3004, 9633.047
434.7825, 9672.032
435.2646, 9722.086
435.7467, 9748.406
436.2288, 9751.301
436.7109, 9751.386
437.1931, 9766.484
437.6752, 9790.762
438.1573, 9813.891
438.6394, 9832.395
439.1215, 9850.144
439.6036, 9867.207
440.0858, 9885.229
440.5679, 9910.525
441.0500, 9953.734
441.5321, 10000.87
442.0142, 10042.03
442.4963, 10076.15
442.9785, 10101.91
443.4606, 10111.86
443.9427, 10113.76
444.4248, 10121.17
444.9069, 10140.75
445.3890, 10162.00
445.8712, 10183.76
446.3533, 10207.54
446.8354, 10221.29
447.3175, 10209.65
447.7996, 10198.53
448.2817, 10212.88
448.7639, 10265.51
449.2460, 10320.45
449.7281, 10379.18
450.2102, 10437.43
450.6923, 10464.76
451.1744, 10450.61
451.6566, 10436.03
452.1387, 10454.82
452.6208, 10508.96
453.1029, 10543.77
453.5850, 10547.91
454.0671, 10541.73
454.5493, 10561.35
455.0314, 10605.56
455.5135, 10656.55
455.9956, 10703.86
456.4777, 10751.60
456.9598, 10816.92
457.4420, 10902.28
457.9240, 10979.05
458.4062, 11009.04
458.8883, 11013.13
459.3704, 11028.72
459.8525, 11077.55
460.3346, 11136.71
460.8167, 11196.68
461.2989, 11255.92
461.7810, 11298.67
462.2631, 11294.47
462.7452, 11286.01
463.2273, 11307.01
463.7094, 11385.76
464.1916, 11458.33
464.6737, 11508.67
465.1558, 11542.08
465.6379, 11570.08
466.1200, 11582.80
466.6021, 11600.86
467.0843, 11630.65
467.5664, 11674.51
468.0485, 11721.12
468.5306, 11778.90
469.0127, 11831.28
469.4948, 11861.01
469.9770, 11865.56
470.4591, 11852.66
470.9412, 11817.40
471.4233, 11766.31
471.9054, 11733.32
472.3875, 11722.04
472.8697, 11710.49
473.3518, 11676.58
473.8339, 11625.60
474.3160, 11598.27
474.7981, 11608.21
475.2802, 11618.38
475.7624, 11564.20
476.2445, 11461.01
476.7266, 11369.60
477.2087, 11346.64
477.6908, 11339.54
478.1729, 11270.20
478.6551, 11134.80
479.1372, 11010.55
479.6193, 10969.49
480.1014, 10961.71
480.5835, 10929.19
481.0656, 10823.08
481.5478, 10719.70
482.0299, 10655.01
482.5120, 10618.88
482.9941, 10569.59
483.4762, 10493.84
483.9583, 10404.78
484.4405, 10303.96
484.9226, 10167.47
485.4047, 10069.95
485.8868, 10038.94
486.3689, 10033.75
486.8510, 9994.144
487.3332, 9901.549
487.8153, 9811.686
488.2974, 9736.906
488.7795, 9676.652
489.2616, 9624.115
489.7437, 9579.886
490.2259, 9542.264
490.7080, 9511.568
491.1901, 9487.319
491.6722, 9465.089
492.1543, 9443.278
492.6364, 9424.166
493.1186, 9415.415
493.6007, 9414.592
494.0828, 9407.356
494.5649, 9379.256
495.0470, 9342.262
495.5291, 9314.199
496.0113, 9296.996
496.4934, 9278.837
496.9755, 9248.648
497.4576, 9213.138
497.9397, 9179.993
498.4218, 9131.161
498.9040, 9105.901
499.3861, 9145.805
499.8682, 9233.934
500.3503, 9283.604
500.8324, 9238.243
501.3145, 9175.813
501.7967, 9133.908
502.2788, 9122.878
502.7609, 9117.689
503.2430, 9117.639
503.7251, 9123.825
504.2072, 9141.167
504.6893, 9181.972
505.1714, 9204.228
505.6536, 9188.216
506.1357, 9139.857
506.6178, 9123.146
507.0999, 9143.511
507.5820, 9172.094
508.0641, 9184.950
508.5463, 9183.867
509.0284, 9186.920
509.5105, 9198.853
509.9926, 9210.889
510.4747, 9207.667
510.9568, 9192.667
511.4390, 9179.389
511.9211, 9179.377
512.4032, 9182.429
512.8853, 9171.576
513.3674, 9145.504
513.8495, 9133.503
514.3317, 9178.761
514.8138, 9235.564
515.2959, 9258.116
515.7780, 9185.581
516.2601, 9084.775
516.7422, 9152.938
517.2244, 9193.854
517.7065, 9208.984
518.1886, 9121.105
518.6707, 9166.242
519.1528, 9158.072
519.6349, 9147.716
520.1171, 9211.576
520.5992, 9138.679
521.0813, 9201.360
521.5634, 9209.922
522.0455, 9243.252
522.5276, 9222.946
523.0098, 9219.210
523.4919, 9269.123
523.9740, 9289.330
524.4561, 9262.851
524.9382, 9297.755
525.4203, 9222.985
525.9025, 9262.351
526.3846, 9263.815
526.8667, 9242.858
527.3488, 9218.514
527.8309, 9209.208
528.3130, 9209.102
528.7952, 9207.452
529.2773, 9198.970
529.7594, 9188.493
530.2415, 9179.009
530.7236, 9170.272
531.2057, 9159.433
531.6879, 9150.737
532.1700, 9135.969
532.6521, 9108.280
533.1342, 9044.076
533.6163, 9008.397
534.0984, 9023.002
534.5806, 9057.632
535.0627, 9065.665
535.5448, 9034.701
536.0269, 9002.897
536.5090, 8977.521
536.9911, 8959.323
537.4733, 8956.586
537.9554, 8973.637
538.4375, 8987.052
538.9196, 8972.624
539.4017, 8935.884
539.8839, 8913.796
540.3660, 8915.419
540.8481, 8919.094
541.3302, 8890.227
541.8123, 8839.979
542.2944, 8798.539
542.7766, 8785.304
543.2587, 8783.842
543.7408, 8780.249
544.2229, 8774.565
544.7050, 8773.096
545.1871, 8784.589
545.6693, 8797.815
546.1514, 8803.453
546.6335, 8787.449
547.1156, 8783.514
547.5977, 8810.226
548.0798, 8849.786
548.5620, 8867.079
549.0441, 8846.942
549.5262, 8828.025
550.0083, 8820.627
550.4904, 8824.353
550.9725, 8827.005
551.4547, 8830.073
551.9368, 8827.922
552.4189, 8810.415
552.9010, 8779.417
553.3831, 8764.996
553.8652, 8774.660
554.3474, 8792.202
554.8295, 8791.465
555.3116, 8777.802
555.7937, 8769.619
556.2758, 8781.619
556.7579, 8799.754
557.2401, 8809.966
557.7222, 8812.605
558.2043, 8814.618
558.6864, 8813.602
559.1685, 8817.154
559.6506, 8833.146
560.1328, 8877.538
560.6149, 8908.302
561.0970, 8908.689
561.5791, 8892.255
562.0612, 8882.950
562.5433, 8879.900
563.0255, 8886.136
563.5076, 8909.177
563.9897, 8945.991
564.4718, 8955.750
564.9539, 8930.690
565.4360, 8900.227
565.9182, 8882.786
566.4003, 8878.323
566.8824, 8885.514
567.3645, 8906.390
567.8466, 8932.618
568.3287, 8956.862
568.8109, 8977.738
569.2930, 8991.147
569.7750, 8981.214
570.2571, 8972.859
570.7393, 8998.955
571.2214, 9053.573
571.7035, 9095.812
572.1856, 9106.139
572.6677, 9097.393
573.1498, 9073.303
573.6320, 9018.135
574.1141, 8987.862
574.5962, 9013.940
575.0783, 9060.730
575.5604, 9081.276
576.0425, 9049.725
576.5247, 9039.125
577.0068, 9069.641
577.4889, 9130.984
577.9710, 9172.224
578.4531, 9191.042
578.9352, 9200.010
579.4174, 9200.316
579.8995, 9194.958
580.3816, 9205.804
580.8637, 9235.771
581.3458, 9267.165
581.8279, 9279.044
582.3101, 9278.273
582.7922, 9278.807
583.2743, 9282.679
583.7564, 9292.442
584.2385, 9315.446
584.7206, 9346.814
585.2028, 9371.778
585.6849, 9377.188
586.1670, 9381.123
586.6491, 9390.283
587.1312, 9404.259
587.6133, 9429.221
588.0955, 9474.202
588.5776, 9522.369
589.0597, 9560.654
589.5418, 9586.226
590.0239, 9609.080
590.5060, 9628.555
590.9882, 9647.352
591.4703, 9672.878
591.9524, 9705.513
592.4345, 9734.037
592.9166, 9749.063
593.3987, 9757.935
593.8809, 9780.568
594.3630, 9816.577
594.8451, 9852.938
595.3272, 9879.429
595.8093, 9901.674
596.2914, 9925.340
596.7736, 9950.749
597.2557, 9980.380
597.7378, 10019.40
598.2199, 10062.50
598.7020, 10101.42
599.1841, 10128.46
599.6663, 10157.54
600.1484, 10191.47
600.6305, 10229.66
601.1126, 10270.38
601.5947, 10321.18
602.0768, 10359.88
602.5590, 10364.23
603.0411, 10328.85
603.5232, 10341.92
604.0053, 10414.10
604.4874, 10496.13
604.9695, 10525.39
605.4517, 10515.76
605.9338, 10525.01
606.4159, 10581.01
606.8980, 10640.51
607.3801, 10652.04
607.8622, 10628.00
608.3444, 10602.44
608.8265, 10589.07
609.3086, 10580.96
609.7907, 10572.86
610.2728, 10564.14
610.7549, 10563.32
611.2371, 10590.46
611.7192, 10612.54
612.2013, 10607.46
612.6834, 10552.76
613.1655, 10517.92
613.6476, 10511.03
614.1298, 10516.78
614.6119, 10513.86
615.0940, 10503.02
615.5761, 10473.58
616.0582, 10412.47
616.5403, 10338.01
617.0225, 10299.95
617.5046, 10294.42
617.9867, 10282.33
618.4688, 10226.73
618.9509, 10156.47
619.4330, 10104.37
619.9152, 10075.10
620.3973, 10052.43
620.8794, 10026.60
621.3615, 10003.64
621.8436, 9989.299
622.3257, 10002.27
622.8079, 10002.80
623.2900, 9976.214
623.7721, 9936.516
624.2542, 9915.883
624.7363, 9930.536
625.2184, 9927.844
625.7006, 9881.114
626.1827, 9799.512
626.6648, 9763.371
627.1469, 9776.165
627.6290, 9798.865
