##NAMES=Alunite
##RRUFFID=R070448
##IDEAL CHEMISTRY=KAl_3_(S^6+^O_4_)_2_(OH)_6_
##LOCALITY=Veta del Medio, Inca del Oro, Chile
##OWNER=RRUFF
##SOURCE=Bob Jenkins
##DESCRIPTION=Yellow tabular rhombohedra scattered over matrix
##STATUS=The identification of this mineral has been confirmed only by single crystal X-ray diffraction.
##URL=rruff.info/R070448
135.9414, 598.8967
136.4235, 624.5548
136.9057, 652.8249
137.3878, 692.0130
137.8699, 747.1716
138.3520, 815.5012
138.8341, 879.8525
139.3162, 939.9355
139.7984, 996.8973
140.2805, 1052.159
140.7626, 1103.333
141.2447, 1157.823
141.7268, 1219.094
142.2089, 1287.804
142.6911, 1354.093
143.1732, 1415.989
143.6553, 1476.196
144.1374, 1539.728
144.6195, 1607.710
145.1016, 1676.427
145.5838, 1743.896
146.0659, 1809.115
146.5480, 1876.408
147.0301, 1947.086
147.5122, 2019.926
147.9943, 2093.529
148.4765, 2172.470
148.9586, 2246.974
149.4407, 2312.767
149.9228, 2357.761
150.4049, 2409.031
150.8870, 2469.004
151.3692, 2537.358
151.8513, 2609.083
152.3334, 2685.828
152.8155, 2764.174
153.2976, 2843.273
153.7797, 2940.787
154.2619, 3020.383
154.7440, 3074.535
155.2261, 3100.179
155.7082, 3115.328
156.1903, 3125.160
156.6724, 3124.671
157.1546, 3107.698
157.6367, 3078.802
158.1188, 3028.634
158.6009, 2950.531
159.0830, 2834.410
159.5651, 2715.402
160.0473, 2602.357
160.5294, 2491.694
161.0115, 2378.393
161.4936, 2253.879
161.9757, 2129.981
162.4578, 2012.197
162.9400, 1898.309
163.4221, 1796.352
163.9042, 1712.105
164.3863, 1643.607
164.8684, 1584.049
165.3505, 1535.730
165.8327, 1493.135
166.3148, 1451.936
166.7969, 1409.048
167.2790, 1369.157
167.7611, 1334.710
168.2433, 1305.454
168.7254, 1280.434
169.2075, 1259.395
169.6896, 1242.115
170.1717, 1228.471
170.6538, 1221.307
171.1360, 1215.879
171.6181, 1207.338
172.1002, 1195.402
172.5823, 1186.234
173.0644, 1185.502
173.5465, 1190.531
174.0287, 1196.486
174.5108, 1204.808
174.9929, 1211.285
175.4750, 1209.629
175.9571, 1198.141
176.4392, 1186.020
176.9214, 1183.245
177.4035, 1187.174
177.8856, 1190.427
178.3677, 1188.122
178.8498, 1182.828
179.3319, 1178.458
179.8141, 1175.531
180.2962, 1173.468
180.7783, 1171.762
181.2604, 1170.387
181.7425, 1169.027
182.2246, 1167.431
182.7068, 1165.710
183.1889, 1164.273
183.6710, 1163.653
184.1531, 1162.710
184.6352, 1158.791
185.1173, 1152.047
185.5995, 1145.858
186.0816, 1142.855
186.5637, 1142.607
187.0458, 1143.529
187.5279, 1145.220
188.0100, 1147.868
188.4922, 1151.545
188.9743, 1156.230
189.4564, 1162.783
189.9385, 1175.620
190.4206, 1193.165
190.9027, 1202.745
191.3849, 1195.675
191.8670, 1177.943
192.3491, 1172.216
192.8312, 1179.371
193.3133, 1193.999
193.7954, 1213.311
194.2776, 1237.116
194.7597, 1255.786
195.2418, 1262.149
195.7239, 1258.435
196.2060, 1263.900
196.6881, 1280.301
197.1703, 1301.449
197.6524, 1317.549
198.1345, 1327.874
198.6166, 1340.891
199.0987, 1360.531
199.5808, 1386.800
200.0630, 1415.049
200.5451, 1445.326
201.0272, 1477.251
201.5093, 1511.438
201.9914, 1548.480
202.4735, 1584.438
202.9557, 1616.243
203.4378, 1643.182
203.9199, 1674.849
204.4020, 1712.707
204.8841, 1754.704
205.3662, 1794.337
205.8484, 1829.626
206.3305, 1869.790
206.8126, 1923.682
207.2947, 1994.673
207.7768, 2057.467
208.2589, 2106.461
208.7411, 2146.938
209.2232, 2196.829
209.7053, 2256.985
210.1874, 2325.376
210.6695, 2403.333
211.1517, 2492.851
211.6338, 2583.495
212.1159, 2674.059
212.5980, 2764.692
213.0801, 2857.131
213.5622, 2951.722
214.0444, 3045.977
214.5265, 3135.042
215.0086, 3216.393
215.4907, 3303.151
215.9728, 3397.994
216.4549, 3500.695
216.9371, 3609.290
217.4192, 3724.497
217.9013, 3843.190
218.3834, 3961.641
218.8655, 4080.201
219.3476, 4196.128
219.8298, 4308.459
220.3119, 4416.193
220.7940, 4525.799
221.2761, 4639.560
221.7582, 4752.635
222.2403, 4862.737
222.7225, 4969.018
223.2046, 5069.917
223.6867, 5166.518
224.1688, 5261.038
224.6509, 5333.434
225.1330, 5376.717
225.6152, 5405.285
226.0973, 5438.304
226.5794, 5481.689
227.0615, 5516.652
227.5436, 5537.679
228.0257, 5543.960
228.5079, 5541.715
228.9900, 5529.139
229.4721, 5509.334
229.9542, 5486.775
230.4363, 5462.245
230.9184, 5433.702
231.4006, 5400.474
231.8827, 5362.986
232.3648, 5319.487
232.8469, 5267.640
233.3290, 5210.726
233.8111, 5155.667
234.2933, 5111.191
234.7754, 5053.892
235.2575, 4973.143
235.7396, 4859.770
236.2217, 4753.686
236.7038, 4660.037
237.1860, 4570.455
237.6681, 4467.496
238.1502, 4347.901
238.6323, 4220.197
239.1144, 4082.926
239.5965, 3929.192
240.0787, 3786.755
240.5608, 3657.299
241.0429, 3538.525
241.5250, 3425.218
242.0071, 3316.211
242.4892, 3214.050
242.9714, 3121.763
243.4535, 3041.190
243.9356, 2962.667
244.4177, 2886.176
244.8998, 2811.740
245.3819, 2739.659
245.8641, 2671.135
246.3462, 2602.907
246.8283, 2533.918
247.3104, 2464.016
247.7925, 2394.222
248.2746, 2323.508
248.7568, 2253.145
249.2389, 2186.754
249.7210, 2124.885
250.2031, 2066.155
250.6852, 2009.078
251.1674, 1951.581
251.6495, 1902.158
252.1316, 1863.371
252.6137, 1832.682
253.0958, 1803.848
253.5779, 1780.865
254.0601, 1753.377
254.5422, 1713.993
255.0243, 1654.226
255.5064, 1605.132
255.9885, 1569.552
256.4706, 1545.408
256.9528, 1525.244
257.4349, 1510.374
257.9170, 1497.281
258.3991, 1483.963
258.8812, 1470.209
259.3633, 1457.196
259.8455, 1445.428
260.3276, 1434.241
260.8097, 1421.055
261.2918, 1403.781
261.7739, 1388.121
262.2560, 1377.688
262.7382, 1374.471
263.2203, 1370.215
263.7024, 1363.506
264.1845, 1355.587
264.6666, 1350.527
265.1487, 1348.688
265.6309, 1349.056
266.1130, 1351.990
266.5951, 1359.224
267.0772, 1362.480
267.5593, 1359.766
268.0414, 1353.192
268.5236, 1349.996
269.0057, 1350.840
269.4878, 1353.399
269.9699, 1357.254
270.4520, 1363.476
270.9341, 1365.366
271.4163, 1360.462
271.8984, 1351.807
272.3805, 1348.677
272.8626, 1351.665
273.3447, 1358.377
273.8268, 1368.700
274.3090, 1383.542
274.7911, 1395.554
275.2732, 1403.955
275.7553, 1409.019
276.2374, 1410.749
276.7195, 1408.540
277.2017, 1405.401
277.6838, 1402.585
278.1659, 1399.946
278.6480, 1399.884
279.1301, 1403.698
279.6122, 1409.163
280.0944, 1409.888
280.5765, 1404.798
281.0586, 1401.046
281.5407, 1405.225
282.0228, 1417.442
282.5049, 1422.886
282.9871, 1418.246
283.4692, 1408.760
283.9513, 1405.891
284.4334, 1410.094
284.9155, 1415.582
285.3976, 1421.228
285.8798, 1426.518
286.3619, 1422.770
286.8440, 1406.123
287.3261, 1385.376
287.8082, 1378.281
288.2903, 1384.958
288.7725, 1392.384
289.2546, 1391.234
289.7367, 1383.432
290.2188, 1380.993
290.7009, 1386.410
291.1830, 1394.086
291.6652, 1395.177
292.1473, 1389.922
292.6294, 1381.577
293.1115, 1368.647
293.5936, 1353.578
294.0757, 1345.772
294.5579, 1347.171
295.0400, 1352.244
295.5221, 1353.634
296.0042, 1351.844
296.4863, 1349.786
296.9684, 1349.508
297.4506, 1350.048
297.9327, 1348.732
298.4148, 1344.978
298.8969, 1341.104
299.3790, 1341.287
299.8611, 1344.147
300.3433, 1344.885
300.8254, 1337.864
301.3075, 1327.994
301.7896, 1323.680
302.2717, 1325.729
302.7538, 1330.868
303.2360, 1339.000
303.7181, 1347.954
304.2002, 1352.555
304.6823, 1345.935
305.1644, 1335.568
305.6465, 1330.990
306.1287, 1332.986
306.6108, 1335.977
307.0929, 1335.176
307.5750, 1332.151
308.0571, 1329.745
308.5392, 1328.099
309.0214, 1328.313
309.5035, 1333.047
309.9856, 1342.512
310.4677, 1349.813
310.9498, 1347.075
311.4319, 1340.140
311.9141, 1337.089
312.3962, 1345.185
312.8783, 1354.922
313.3604, 1359.453
313.8426, 1358.882
314.3247, 1359.202
314.8068, 1363.246
315.2889, 1369.951
315.7710, 1378.205
316.2531, 1390.255
316.7353, 1401.555
317.2174, 1406.918
317.6995, 1407.511
318.1816, 1415.126
318.6637, 1439.535
319.1458, 1470.261
319.6280, 1498.894
320.1101, 1528.440
320.5922, 1550.390
321.0743, 1555.297
321.5564, 1547.308
322.0385, 1549.576
322.5207, 1579.582
323.0028, 1614.555
323.4849, 1639.997
323.9670, 1640.719
324.4491, 1647.535
324.9312, 1667.713
325.4134, 1698.203
325.8955, 1727.538
326.3776, 1755.509
326.8597, 1781.168
327.3418, 1803.902
327.8239, 1817.852
328.3061, 1836.777
328.7882, 1859.883
329.2703, 1888.184
329.7524, 1924.730
330.2345, 1981.495
330.7166, 2034.763
331.1988, 2075.029
331.6809, 2092.648
332.1630, 2118.062
332.6451, 2157.808
333.1272, 2203.139
333.6093, 2236.086
334.0915, 2246.646
334.5736, 2261.019
335.0557, 2291.177
335.5378, 2343.944
336.0199, 2378.049
336.5020, 2386.272
336.9842, 2383.122
337.4663, 2391.504
337.9484, 2420.221
338.4305, 2436.133
338.9126, 2426.589
339.3947, 2391.405
339.8769, 2361.967
340.3590, 2340.141
340.8411, 2319.760
341.3232, 2294.472
341.8053, 2264.591
342.2874, 2228.303
342.7696, 2182.027
343.2517, 2128.681
343.7338, 2090.679
344.2159, 2070.547
344.6980, 2049.629
345.1801, 2006.209
345.6623, 1942.535
346.1444, 1886.084
346.6265, 1843.698
347.1086, 1811.756
347.5907, 1781.142
348.0728, 1752.383
348.5550, 1728.095
349.0371, 1712.180
349.5192, 1702.937
350.0013, 1694.957
350.4834, 1687.886
350.9655, 1680.765
351.4477, 1672.441
351.9298, 1662.899
352.4119, 1652.602
352.8940, 1639.310
353.3761, 1626.040
353.8582, 1616.719
354.3404, 1610.787
354.8225, 1612.893
355.3046, 1630.975
355.7867, 1660.852
356.2688, 1692.483
356.7509, 1722.010
357.2331, 1750.330
357.7152, 1776.867
358.1973, 1801.067
358.6794, 1828.871
359.1615, 1868.595
359.6436, 1913.289
360.1258, 1953.225
360.6079, 1977.928
361.0900, 2002.420
361.5721, 2032.082
362.0542, 2067.279
362.5363, 2113.199
363.0185, 2186.801
363.5006, 2265.500
363.9827, 2328.198
364.4648, 2342.209
364.9469, 2368.575
365.4290, 2429.823
365.9112, 2521.089
366.3933, 2610.307
366.8754, 2694.487
367.3575, 2773.141
367.8396, 2845.111
368.3217, 2908.249
368.8039, 2968.076
369.2860, 3023.211
369.7681, 3074.796
370.2502, 3127.888
370.7323, 3188.974
371.2144, 3245.255
371.6966, 3290.882
372.1787, 3321.097
372.6608, 3352.712
373.1429, 3390.746
373.6250, 3427.373
374.1071, 3451.231
374.5893, 3464.203
375.0714, 3460.339
375.5535, 3435.786
376.0356, 3389.789
376.5177, 3337.461
376.9998, 3279.557
377.4820, 3214.749
377.9641, 3140.167
378.4462, 3053.499
378.9283, 2970.119
379.4104, 2896.318
379.8925, 2829.069
380.3747, 2755.998
380.8568, 2676.779
381.3389, 2589.942
381.8210, 2484.389
382.3031, 2364.876
382.7852, 2262.968
383.2674, 2186.793
383.7495, 2129.050
384.2316, 2084.019
384.7137, 2049.929
385.1958, 2015.479
385.6779, 1973.264
386.1601, 1925.215
386.6422, 1874.079
387.1243, 1817.040
387.6064, 1766.103
388.0885, 1735.670
388.5706, 1720.770
389.0528, 1709.362
389.5349, 1699.433
390.0170, 1687.816
390.4991, 1669.009
390.9812, 1642.172
391.4633, 1618.344
391.9455, 1608.570
392.4276, 1604.911
392.9097, 1597.281
393.3918, 1578.910
393.8739, 1558.660
394.3561, 1539.964
394.8382, 1522.869
395.3203, 1506.338
395.8024, 1485.383
396.2845, 1467.813
396.7667, 1459.357
397.2488, 1472.713
397.7309, 1480.595
398.2130, 1475.489
398.6951, 1460.922
399.1772, 1447.972
399.6594, 1437.762
400.1415, 1429.537
400.6236, 1423.068
401.1057, 1418.590
401.5878, 1415.289
402.0699, 1412.713
402.5521, 1411.534
403.0342, 1412.590
403.5163, 1415.256
403.9984, 1421.672
404.4805, 1435.439
404.9626, 1456.760
405.4448, 1464.242
405.9269, 1452.816
406.4090, 1436.851
406.8911, 1431.256
407.3732, 1438.045
407.8553, 1441.136
408.3375, 1436.272
408.8196, 1426.560
409.3017, 1421.780
409.7838, 1422.224
410.2659, 1424.318
410.7480, 1427.469
411.2302, 1430.745
411.7123, 1427.146
412.1944, 1413.155
412.6765, 1400.163
413.1586, 1407.567
413.6407, 1431.136
414.1229, 1451.995
414.6050, 1458.258
415.0871, 1457.146
415.5692, 1459.890
416.0513, 1467.193
416.5334, 1473.111
417.0156, 1470.592
417.4977, 1464.203
417.9798, 1460.811
418.4619, 1464.686
418.9440, 1470.751
419.4261, 1476.050
419.9083, 1480.728
420.3904, 1486.214
420.8725, 1494.858
421.3546, 1503.442
421.8367, 1509.410
422.3188, 1510.747
422.8010, 1512.253
423.2831, 1512.625
423.7652, 1514.099
424.2473, 1521.370
424.7294, 1535.967
425.2115, 1555.665
425.6937, 1582.716
426.1758, 1621.717
426.6579, 1649.031
427.1400, 1655.993
427.6221, 1657.257
428.1042, 1668.216
428.5864, 1693.675
429.0685, 1719.276
429.5506, 1743.204
430.0327, 1765.185
430.5148, 1782.992
430.9969, 1794.482
431.4791, 1806.755
431.9612, 1824.629
432.4433, 1848.290
432.9254, 1874.175
433.4075, 1902.288
433.8896, 1931.651
434.3718, 1960.167
434.8539, 1987.890
435.3360, 2016.830
435.8181, 2048.591
436.3002, 2082.000
436.7823, 2113.965
437.2645, 2144.195
437.7466, 2173.909
438.2287, 2202.462
438.7108, 2231.426
439.1929, 2264.758
439.6750, 2307.607
440.1572, 2351.161
440.6393, 2382.566
441.1214, 2405.113
441.6035, 2435.047
442.0856, 2492.374
442.5677, 2555.039
443.0499, 2603.571
443.5320, 2627.071
444.0141, 2653.106
444.4962, 2698.723
444.9783, 2752.977
445.4604, 2797.537
445.9426, 2816.217
446.4247, 2835.191
446.9068, 2863.038
447.3889, 2900.562
447.8710, 2942.394
448.3531, 2993.925
448.8353, 3045.947
449.3174, 3092.133
449.7995, 3129.933
450.2816, 3166.033
450.7637, 3199.012
451.2458, 3230.779
451.7280, 3267.837
452.2101, 3311.301
452.6922, 3356.947
453.1743, 3403.453
453.6564, 3450.674
454.1385, 3496.114
454.6207, 3539.867
455.1028, 3581.931
455.5849, 3623.261
456.0670, 3663.546
456.5491, 3699.623
457.0313, 3723.933
457.5134, 3745.893
457.9955, 3793.873
458.4776, 3867.166
458.9597, 3935.655
459.4418, 3968.907
459.9240, 3982.658
460.4061, 4002.802
460.8882, 4032.809
461.3703, 4074.304
461.8524, 4135.772
462.3345, 4210.138
462.8167, 4279.812
463.2988, 4332.549
463.7809, 4380.251
464.2630, 4430.343
464.7451, 4483.838
465.2272, 4532.530
465.7094, 4571.725
466.1915, 4605.128
466.6736, 4636.505
467.1557, 4653.039
467.6378, 4682.504
468.1199, 4743.650
468.6021, 4825.815
469.0842, 4877.718
469.5663, 4877.725
470.0484, 4872.699
470.5305, 4883.585
471.0126, 4918.239
471.4948, 4942.364
471.9769, 4954.611
472.4590, 4958.310
472.9411, 4955.904
473.4232, 4945.969
473.9053, 4939.780
474.3875, 4943.716
474.8696, 4953.153
475.3517, 4950.675
475.8338, 4936.288
476.3159, 4910.894
476.7981, 4868.051
477.2802, 4814.191
477.7623, 4767.556
478.2444, 4729.435
478.7265, 4703.279
479.2086, 4701.389
479.6908, 4715.493
480.1729, 4724.916
480.6550, 4721.559
481.1371, 4707.998
481.6192, 4683.123
482.1013, 4647.326
482.5835, 4612.101
483.0656, 4585.578
483.5477, 4561.254
484.0298, 4533.959
484.5119, 4504.081
484.9940, 4468.994
485.4762, 4423.654
485.9583, 4372.336
486.4404, 4326.054
486.9225, 4301.089
487.4046, 4265.874
487.8867, 4204.706
488.3689, 4108.570
488.8510, 4041.250
489.3331, 4015.097
489.8152, 4002.175
490.2973, 3975.246
490.7794, 3931.291
491.2616, 3886.369
491.7437, 3842.272
492.2258, 3799.464
492.7079, 3759.878
493.1900, 3723.923
493.6721, 3689.521
494.1543, 3654.950
494.6364, 3621.157
495.1185, 3593.212
495.6006, 3572.543
496.0827, 3551.563
496.5648, 3524.483
497.0470, 3491.575
497.5291, 3454.358
498.0112, 3416.121
498.4933, 3370.055
498.9754, 3305.218
499.4576, 3225.897
499.9397, 3151.905
500.4218, 3105.038
500.9039, 3056.983
501.3860, 2987.541
501.8681, 2888.759
502.3503, 2787.100
502.8324, 2683.010
503.3145, 2581.237
503.7966, 2487.884
504.2787, 2400.901
504.7608, 2324.246
505.2430, 2265.095
505.7251, 2219.495
506.2072, 2155.276
506.6893, 2060.184
507.1714, 1968.857
507.6535, 1901.106
508.1357, 1860.063
508.6178, 1817.272
509.0999, 1770.177
509.5820, 1726.282
510.0641, 1698.484
510.5462, 1685.497
511.0284, 1672.111
511.5105, 1649.764
511.9926, 1626.413
512.4747, 1620.389
512.9568, 1629.762
513.4389, 1638.356
513.9210, 1634.448
514.4031, 1623.536
514.8853, 1611.237
515.3674, 1597.203
515.8495, 1586.553
516.3316, 1583.410
516.8137, 1585.296
517.2958, 1588.784
517.7780, 1592.913
518.2601, 1598.379
518.7422, 1608.065
519.2244, 1620.966
519.7065, 1626.926
520.1886, 1615.116
520.6707, 1604.477
521.1528, 1604.134
521.6349, 1620.116
522.1171, 1630.448
522.5992, 1632.229
523.0813, 1631.252
523.5634, 1636.899
524.0455, 1651.338
524.5276, 1660.078
525.0098, 1656.132
525.4919, 1645.269
525.9740, 1649.490
526.4561, 1669.291
526.9382, 1688.100
527.4203, 1689.645
527.9025, 1682.599
528.3846, 1689.144
528.8667, 1712.957
529.3488, 1740.119
529.8309, 1758.665
530.3130, 1771.293
530.7952, 1782.611
531.2773, 1792.882
531.7594, 1803.537
532.2415, 1814.544
532.7236, 1826.336
533.2057, 1840.296
533.6879, 1861.045
534.1700, 1880.902
534.6521, 1894.528
535.1342, 1895.761
535.6163, 1907.300
536.0984, 1935.292
536.5806, 1969.668
537.0627, 2000.255
537.5448, 2028.391
538.0269, 2049.380
538.5090, 2058.881
538.9911, 2062.223
539.4733, 2078.040
539.9554, 2108.228
540.4375, 2138.072
540.9196, 2156.828
541.4017, 2167.925
541.8839, 2187.376
542.3660, 2216.169
542.8481, 2247.300
543.3302, 2277.329
543.8123, 2304.973
544.2944, 2327.698
544.7766, 2343.275
545.2587, 2356.170
545.7408, 2364.527
546.2229, 2372.448
546.7050, 2390.233
547.1871, 2435.682
547.6693, 2480.306
548.1514, 2509.057
548.6335, 2519.620
549.1156, 2528.590
549.5977, 2536.897
550.0798, 2545.453
550.5620, 2554.250
551.0441, 2559.436
551.5262, 2573.611
552.0083, 2603.109
552.4904, 2637.638
552.9725, 2654.568
553.4547, 2649.916
553.9368, 2648.797
554.4189, 2661.886
554.9010, 2684.947
555.3831, 2701.547
555.8652, 2711.624
556.3474, 2718.360
556.8295, 2723.048
557.3116, 2726.401
557.7937, 2730.990
558.2758, 2738.431
558.7579, 2741.634
559.2401, 2727.583
559.7222, 2706.753
560.2043, 2695.459
560.6864, 2716.443
561.1685, 2732.162
561.6506, 2717.038
562.1328, 2678.671
562.6149, 2658.163
563.0970, 2691.451
563.5791, 2719.022
564.0612, 2711.893
564.5433, 2654.269
565.0255, 2623.724
565.5076, 2632.242
565.9897, 2653.977
566.4718, 2664.905
566.9539, 2664.764
567.4360, 2652.964
567.9182, 2624.834
568.4003, 2591.144
568.8824, 2577.421
569.3645, 2582.256
569.8466, 2586.901
570.3287, 2581.344
570.8109, 2569.416
571.2930, 2555.400
571.7751, 2539.538
572.2572, 2527.553
572.7393, 2528.402
573.2214, 2532.550
573.7036, 2528.700
574.1857, 2508.363
574.6678, 2494.309
575.1499, 2504.003
575.6320, 2522.747
576.1141, 2529.115
576.5963, 2505.006
577.0784, 2484.841
577.5605, 2475.224
578.0426, 2474.965
578.5247, 2476.425
579.0068, 2480.694
579.4890, 2484.425
579.9711, 2485.795
580.4532, 2484.673
580.9353, 2482.294
581.4174, 2477.714
581.8995, 2475.803
582.3817, 2484.877
582.8638, 2501.763
583.3459, 2514.188
583.8280, 2517.324
584.3101, 2518.510
584.7922, 2526.365
585.2744, 2538.851
585.7565, 2550.900
586.2386, 2565.517
586.7207, 2574.441
587.2028, 2565.284
587.6849, 2538.992
588.1671, 2529.477
588.6492, 2564.615
589.1313, 2605.797
589.6134, 2628.163
590.0955, 2617.378
590.5776, 2620.091
591.0598, 2647.482
591.5419, 2678.332
592.0240, 2678.836
592.5061, 2639.327
592.9882, 2620.088
593.4703, 2641.273
593.9525, 2683.982
594.4346, 2701.877
594.9167, 2696.226
595.3988, 2684.879
595.8809, 2674.535
596.3630, 2666.362
596.8452, 2663.360
597.3273, 2665.597
597.8094, 2668.096
598.2915, 2670.627
598.7736, 2670.209
599.2557, 2663.126
599.7379, 2644.564
600.2200, 2627.745
600.7021, 2613.305
601.1842, 2603.713
601.6663, 2603.451
602.1484, 2626.623
602.6306, 2639.611
603.1127, 2636.674
603.5948, 2619.203
604.0769, 2589.383
604.5590, 2540.419
605.0411, 2502.345
605.5233, 2500.129
606.0054, 2528.008
606.4875, 2533.168
606.9696, 2513.954
607.4517, 2488.139
607.9338, 2473.660
608.4160, 2464.875
608.8981, 2448.904
609.3802, 2418.125
609.8623, 2392.352
610.3444, 2388.378
610.8265, 2399.021
611.3087, 2412.156
611.7908, 2423.993
612.2729, 2437.209
612.7550, 2453.726
613.2371, 2472.833
613.7192, 2489.927
614.2014, 2510.158
614.6835, 2521.535
615.1656, 2515.822
615.6477, 2490.066
616.1298, 2476.229
616.6119, 2476.499
617.0941, 2483.326
617.5762, 2487.917
618.0583, 2491.610
618.5404, 2506.577
619.0225, 2536.603
619.5046, 2572.264
619.9868, 2603.722
620.4689, 2631.668
620.9510, 2658.875
621.4331, 2682.234
621.9152, 2708.809
622.3973, 2743.969
622.8795, 2786.618
623.3616, 2832.618
623.8437, 2883.992
624.3258, 2935.671
624.8079, 2984.768
625.2900, 3031.168
625.7722, 3076.134
626.2543, 3112.930
626.7364, 3156.663
627.2185, 3220.569
627.7006, 3307.705
628.1827, 3397.236
628.6649, 3488.871
629.1470, 3577.587
629.6291, 3648.246
630.1112, 3706.208
630.5933, 3779.268
631.0754, 3879.096
631.5576, 3995.638
632.0397, 4126.601
632.5218, 4265.124
633.0039, 4388.330
633.4860, 4461.979
