##NAMES=Amarantite
##RRUFFID=R050153
##IDEAL CHEMISTRY=Fe^3+^_2_O(S^6+^O_4_)_2_&#183;7H_2_O
##LOCALITY=Paposo, Antofagasta, Chile
##OWNER=RRUFF
##SOURCE=Jim McGlasson
##DESCRIPTION=Aggregate of red radiating platy crystals
##STATUS=The identification of this mineral has been confirmed by X-ray diffraction and chemical analysis
##URL=rruff.info/R050153
##MEASURED CHEMISTRY=Fe^3+^_2.00_(S_1.00_O_4_)_2_OÂ·7H_2_O
93.46680, 138.5594
93.94891, 141.5231
94.43103, 141.6213
94.91315, 137.5645
95.39526, 131.6433
95.87738, 124.6819
96.35950, 117.0963
96.84161, 109.9887
97.32373, 103.5744
97.80585, 98.05682
98.28796, 93.67088
98.77008, 90.48125
99.25220, 88.23916
99.73431, 86.67212
100.2164, 85.82018
100.6985, 85.29169
101.1807, 85.41764
101.6628, 85.87525
102.1449, 86.33681
102.6270, 86.64415
103.1091, 86.78703
103.5912, 86.72856
104.0734, 86.30208
104.5555, 85.80205
105.0376, 85.29465
105.5197, 84.74767
106.0018, 84.05283
106.4839, 83.06937
106.9661, 81.66798
107.4482, 80.90432
107.9303, 80.77271
108.4124, 81.09033
108.8945, 81.96026
109.3766, 83.32913
109.8588, 84.76414
110.3409, 85.85708
110.8230, 86.67030
111.3051, 86.56695
111.7872, 85.16321
112.2693, 82.86192
112.7515, 80.13868
113.2336, 76.96087
113.7157, 73.72563
114.1978, 70.73635
114.6799, 67.96593
115.1620, 65.76643
115.6442, 64.48680
116.1263, 64.09575
116.6084, 64.02978
117.0905, 64.22511
117.5726, 64.68977
118.0547, 65.50878
118.5369, 66.69873
119.0190, 68.03731
119.5011, 69.13760
119.9832, 69.66272
120.4653, 70.79012
120.9474, 73.03078
121.4296, 75.66952
121.9117, 78.18529
122.3938, 80.35114
122.8759, 82.20115
123.3580, 83.86579
123.8401, 85.32209
124.3223, 86.56506
124.8044, 87.47874
125.2865, 88.19138
125.7686, 88.88380
126.2507, 89.67907
126.7328, 90.56309
127.2150, 91.33315
127.6971, 92.28938
128.1792, 92.89851
128.6613, 93.17257
129.1434, 93.00391
129.6255, 91.90710
130.1077, 89.26828
130.5898, 85.14527
131.0719, 81.16508
131.5540, 77.12722
132.0361, 73.35793
132.5182, 70.14031
133.0004, 67.48228
133.4825, 65.43761
133.9646, 64.24474
134.4467, 63.68032
134.9288, 63.44544
135.4109, 63.42456
135.8931, 63.63429
136.3752, 64.16804
136.8573, 65.22880
137.3394, 66.37558
137.8215, 67.40347
138.3036, 68.31343
138.7858, 69.12130
139.2679, 69.79060
139.7500, 70.28748
140.2321, 70.92136
140.7142, 71.82813
141.1963, 72.76931
141.6785, 73.73153
142.1606, 74.66695
142.6427, 75.46941
143.1248, 75.93140
143.6069, 75.64385
144.0890, 76.00093
144.5712, 77.22781
145.0533, 78.81007
145.5354, 80.46943
146.0175, 82.10306
146.4996, 83.72336
146.9817, 85.34675
147.4639, 86.90022
147.9460, 88.58764
148.4281, 90.69486
148.9102, 92.86609
149.3923, 94.59868
149.8744, 95.65884
150.3566, 96.34116
150.8387, 97.32809
151.3208, 98.63284
151.8029, 100.0841
152.2850, 101.5811
152.7671, 103.1668
153.2493, 104.9813
153.7314, 107.1837
154.2135, 109.5830
154.6956, 111.8276
155.1777, 113.8737
155.6598, 115.8424
156.1420, 117.8639
156.6241, 119.9420
157.1062, 121.8534
157.5883, 123.5104
158.0704, 124.9133
158.5525, 125.9559
159.0347, 126.5273
159.5168, 126.9672
159.9989, 127.8324
160.4810, 129.2914
160.9631, 130.7722
161.4452, 132.3784
161.9274, 133.8205
162.4095, 134.7941
162.8916, 135.1370
163.3737, 134.9811
163.8558, 134.7282
164.3379, 134.1528
164.8201, 133.7930
165.3022, 133.8030
165.7843, 134.0528
166.2664, 134.3006
166.7485, 134.3684
167.2306, 134.3575
167.7128, 135.1806
168.1949, 137.0704
168.6770, 139.5330
169.1591, 142.5089
169.6412, 145.9922
170.1233, 150.0958
170.6055, 154.9737
171.0876, 160.6269
171.5697, 165.5997
172.0518, 169.6186
172.5339, 173.3722
173.0160, 177.5669
173.4982, 181.9625
173.9803, 185.4164
174.4624, 186.9020
174.9445, 186.3462
175.4266, 185.7110
175.9087, 184.6812
176.3909, 183.7770
176.8730, 183.3792
177.3551, 183.5090
177.8372, 184.1149
178.3193, 185.2066
178.8014, 186.7723
179.2836, 188.8012
179.7657, 191.5439
180.2478, 194.6707
180.7299, 197.6999
181.2120, 200.5379
181.6941, 203.4819
182.1763, 206.9402
182.6584, 210.6390
183.1405, 214.0225
183.6226, 216.7126
184.1047, 218.8859
184.5868, 221.0991
185.0690, 223.1541
185.5511, 225.5837
186.0332, 228.5441
186.5153, 231.9780
186.9974, 235.7733
187.4795, 239.6954
187.9617, 243.8175
188.4438, 249.0441
188.9259, 255.8521
189.4080, 263.4636
189.8901, 271.6512
190.3722, 280.4229
190.8544, 290.0177
191.3365, 300.9584
191.8186, 313.5563
192.3007, 323.4825
192.7828, 330.6927
193.2649, 335.4166
193.7471, 337.6391
194.2292, 337.3492
194.7113, 334.4262
195.1934, 328.6290
195.6755, 319.5958
196.1576, 309.5475
196.6398, 297.0572
197.1219, 285.0133
197.6040, 274.4391
198.0861, 265.5728
198.5682, 258.4175
199.0503, 253.0958
199.5325, 249.8873
200.0146, 247.7607
200.4967, 247.3580
200.9788, 247.4411
201.4609, 247.4715
201.9430, 247.3057
202.4252, 246.6138
202.9073, 245.0641
203.3894, 242.5376
203.8715, 239.4153
204.3536, 235.6316
204.8357, 231.2932
205.3179, 226.3433
205.8000, 220.7306
206.2821, 214.9867
206.7642, 209.4917
207.2463, 204.2331
207.7284, 199.3243
208.2106, 194.7815
208.6927, 190.6052
209.1748, 186.8225
209.6569, 183.4408
210.1390, 180.3822
210.6211, 177.4697
211.1033, 174.7799
211.5854, 172.6777
212.0675, 171.3909
212.5496, 170.7673
213.0317, 170.5863
213.5138, 171.1291
213.9960, 171.5068
214.4781, 170.9648
214.9602, 169.8576
215.4423, 168.8947
215.9244, 168.4055
216.4065, 168.3475
216.8886, 168.5572
217.3708, 168.9768
217.8529, 169.8119
218.3350, 171.2367
218.8171, 173.0661
219.2992, 174.9488
219.7813, 176.6054
220.2635, 178.1159
220.7456, 180.0436
221.2277, 182.8359
221.7098, 185.5135
222.1919, 187.7187
222.6740, 189.5899
223.1562, 191.4108
223.6383, 193.3859
224.1204, 195.4855
224.6025, 197.3374
225.0846, 198.8445
225.5667, 200.1534
226.0489, 201.3718
226.5310, 202.4166
227.0131, 203.1814
227.4952, 203.6326
227.9773, 203.7464
228.4594, 203.0973
228.9416, 201.2311
229.4237, 199.0378
229.9058, 196.6735
230.3879, 194.1215
230.8700, 191.3313
231.3521, 188.2516
231.8343, 184.8833
232.3164, 181.3521
232.7985, 177.4333
233.2806, 173.6069
233.7627, 169.7291
234.2448, 166.0307
234.7270, 162.9580
235.2091, 160.8396
235.6912, 159.5761
236.1733, 158.2547
236.6554, 156.5614
237.1375, 155.1420
237.6197, 154.3298
238.1018, 153.9547
238.5839, 153.5896
239.0660, 152.9551
239.5481, 152.1619
240.0302, 151.8335
240.5124, 152.2232
240.9945, 152.6962
241.4766, 153.1060
241.9587, 153.4367
242.4408, 153.6660
242.9229, 153.8037
243.4051, 153.8003
243.8872, 153.5180
244.3693, 152.9272
244.8514, 152.1622
245.3335, 151.2299
245.8156, 150.1610
246.2978, 149.0769
246.7799, 148.0910
247.2620, 147.0419
247.7441, 145.5868
248.2262, 143.6467
248.7083, 141.5567
249.1905, 139.4530
249.6726, 137.3352
250.1547, 135.1788
250.6368, 132.9834
251.1189, 130.7091
251.6010, 128.3031
252.0832, 125.7358
252.5653, 123.1610
253.0474, 120.4795
253.5295, 117.7995
254.0116, 115.5664
254.4937, 114.0956
254.9759, 112.9248
255.4580, 111.5098
255.9401, 109.8430
256.4222, 108.1386
256.9043, 106.5911
257.3864, 105.1463
257.8686, 103.4969
258.3507, 101.4561
258.8328, 99.35639
259.3149, 97.53689
259.7970, 95.96464
260.2791, 94.35346
260.7613, 92.44244
261.2434, 90.30653
261.7255, 88.33677
262.2076, 86.56170
262.6897, 85.01446
263.1718, 83.70856
263.6540, 82.61059
264.1361, 81.60458
264.6182, 80.69345
265.1003, 79.84419
265.5824, 78.79502
266.0645, 77.32407
266.5467, 75.97624
267.0288, 75.07758
267.5109, 74.49202
267.9930, 73.92270
268.4751, 73.15669
268.9572, 72.26225
269.4394, 71.57182
269.9215, 71.29219
270.4036, 70.90253
270.8857, 70.11075
271.3678, 69.10970
271.8499, 68.19238
272.3321, 67.51353
272.8142, 67.03152
273.2963, 66.60477
273.7784, 66.16949
274.2605, 65.92062
274.7426, 66.13408
275.2248, 66.45962
275.7069, 66.45864
276.1890, 65.90856
276.6711, 64.98935
277.1532, 64.13693
277.6353, 63.26200
278.1175, 62.64183
278.5996, 62.35622
279.0817, 62.28266
279.5638, 62.35389
280.0459, 62.54551
280.5280, 62.76063
281.0102, 62.79748
281.4923, 62.54622
281.9744, 62.34463
282.4565, 62.20377
282.9386, 62.13497
283.4207, 62.22060
283.9029, 62.45740
284.3850, 62.66270
284.8671, 62.50123
285.3492, 61.70066
285.8313, 61.21425
286.3134, 61.45580
286.7956, 61.69183
287.2777, 61.40986
287.7598, 60.58778
288.2419, 59.61340
288.7240, 58.95171
289.2061, 58.72662
289.6883, 58.37740
290.1704, 57.99940
290.6525, 57.43130
291.1346, 56.51251
291.6167, 55.29959
292.0988, 54.00476
292.5810, 52.81274
293.0631, 51.72891
293.5452, 50.71604
294.0273, 49.89874
294.5094, 49.02562
294.9915, 47.90994
295.4737, 46.66535
295.9558, 45.54900
296.4379, 44.76049
296.9200, 44.27557
297.4021, 43.75340
297.8842, 43.06992
298.3664, 42.48116
298.8485, 42.11269
299.3306, 41.86055
299.8127, 41.54567
300.2948, 41.05939
300.7769, 40.48190
301.2591, 40.14781
301.7412, 40.40813
302.2233, 40.50139
302.7054, 40.31407
303.1875, 39.94566
303.6696, 39.44362
304.1518, 38.83559
304.6339, 38.24430
305.1160, 37.94253
305.5981, 38.21131
306.0802, 38.36887
306.5623, 38.44741
307.0445, 38.39290
307.5266, 38.11224
308.0087, 37.60385
308.4908, 37.00404
308.9729, 36.50396
309.4550, 36.13181
309.9372, 35.80100
310.4193, 35.53761
310.9014, 35.28549
311.3835, 35.02396
311.8656, 34.74367
312.3477, 34.43608
312.8299, 34.09762
313.3120, 33.72938
313.7941, 33.29869
314.2762, 32.76939
314.7583, 32.22113
315.2404, 31.60180
315.7226, 30.98096
316.2047, 30.51239
316.6868, 30.32241
317.1689, 30.39381
317.6510, 30.45931
318.1331, 30.61179
318.6153, 30.65513
319.0974, 30.47309
319.5795, 30.16833
320.0616, 29.86824
320.5437, 29.63377
321.0258, 29.49269
321.5080, 29.54406
321.9901, 30.09900
322.4722, 30.45743
322.9543, 30.50261
323.4364, 30.37565
323.9185, 30.16961
324.4007, 29.92933
324.8828, 29.72231
325.3649, 29.68151
325.8470, 29.96121
326.3291, 30.11412
326.8112, 30.01469
327.2934, 29.89964
327.7755, 29.95813
328.2576, 30.19641
328.7397, 30.46102
329.2218, 30.56653
329.7039, 30.44509
330.1861, 30.50305
330.6682, 30.91712
331.1503, 31.31760
331.6324, 31.51192
332.1145, 31.55300
332.5966, 31.60930
333.0788, 31.80942
333.5609, 32.14564
334.0430, 32.48654
334.5251, 32.90306
335.0072, 33.24822
335.4893, 33.39773
335.9715, 33.47947
336.4536, 33.68765
336.9357, 34.12250
337.4178, 34.70584
337.8999, 35.18684
338.3820, 35.45852
338.8642, 35.78662
339.3463, 36.26326
339.8284, 36.76286
340.3105, 37.17721
340.7926, 37.47651
341.2747, 37.69244
341.7568, 37.86036
342.2390, 37.93583
342.7211, 38.07492
343.2032, 38.32647
343.6853, 38.59137
344.1674, 38.87897
344.6495, 39.14664
345.1317, 39.27827
345.6138, 39.14237
346.0959, 38.72169
346.5780, 38.32724
347.0601, 37.75205
347.5422, 37.42131
348.0244, 37.61385
348.5065, 38.12207
348.9886, 38.58172
349.4707, 38.76965
349.9528, 38.74346
350.4349, 38.72322
350.9171, 38.67064
351.3992, 38.69060
351.8813, 38.78076
352.3634, 38.95221
352.8455, 39.25278
353.3276, 39.69699
353.8098, 40.17021
354.2919, 40.46125
354.7740, 40.49511
355.2561, 40.57489
355.7382, 40.70462
356.2203, 40.90996
356.7025, 41.23349
357.1846, 41.66462
357.6667, 42.13273
358.1488, 42.57711
358.6309, 42.99459
359.1130, 43.40717
359.5952, 43.80492
360.0773, 44.20817
360.5594, 44.51573
361.0415, 44.83642
361.5236, 45.40993
362.0057, 46.47356
362.4879, 47.81857
362.9700, 48.79938
363.4521, 49.26954
363.9342, 49.67944
364.4163, 49.98270
364.8984, 50.40065
365.3806, 51.25325
365.8627, 52.69027
366.3448, 54.26636
366.8269, 55.36436
367.3090, 55.92773
367.7911, 56.57898
368.2733, 57.52161
368.7554, 58.55246
369.2375, 59.50006
369.7196, 60.37005
370.2017, 61.30592
370.6838, 62.38867
371.1660, 63.61768
371.6481, 65.02495
372.1302, 66.74847
372.6123, 68.39898
373.0944, 69.64821
373.5765, 70.63517
374.0587, 71.67195
374.5408, 72.84153
375.0229, 74.13963
375.5050, 75.59498
375.9871, 77.21918
376.4692, 78.85075
376.9514, 80.36732
377.4335, 81.85898
377.9156, 83.44636
378.3977, 85.12955
378.8798, 86.94675
379.3619, 88.97009
379.8441, 91.16506
380.3262, 93.37174
380.8083, 95.53763
381.2904, 97.73828
381.7725, 100.1155
382.2546, 102.6518
382.7368, 105.1409
383.2189, 107.4889
383.7010, 109.7762
384.1831, 112.1015
384.6652, 114.4862
385.1473, 116.8731
385.6295, 119.1244
386.1116, 121.3414
386.5937, 124.1071
387.0758, 128.0378
387.5579, 131.9618
388.0400, 135.1117
388.5222, 137.6382
389.0043, 140.1015
389.4864, 142.7191
389.9685, 145.4743
390.4506, 148.3345
390.9327, 151.3064
391.4149, 154.3702
391.8970, 157.6026
392.3791, 160.8908
392.8612, 164.1469
393.3433, 167.3374
393.8254, 170.3773
394.3076, 173.1119
394.7897, 175.4526
395.2718, 177.9898
395.7539, 180.8217
396.2360, 183.7530
396.7181, 186.6356
397.2003, 189.5097
397.6824, 192.5193
398.1645, 195.8108
398.6466, 199.2500
399.1287, 202.2596
399.6108, 204.6588
400.0930, 206.7983
400.5751, 208.6932
401.0572, 210.3584
401.5393, 211.7837
402.0214, 212.9737
402.5035, 214.0249
402.9857, 215.1175
403.4678, 216.4352
403.9499, 217.2338
404.4320, 217.5420
404.9141, 217.3940
405.3962, 216.7516
405.8784, 215.6576
406.3605, 214.2047
406.8426, 212.4682
407.3247, 210.4367
407.8068, 208.1081
408.2889, 205.6100
408.7711, 202.5854
409.2532, 198.7743
409.7353, 194.5434
410.2174, 190.2920
410.6995, 186.1693
411.1816, 181.9816
411.6638, 177.3338
412.1459, 172.1216
412.6280, 167.1161
413.1101, 162.6760
413.5922, 158.2746
414.0743, 153.6044
414.5565, 148.7228
415.0386, 143.8862
415.5207, 139.2467
416.0028, 134.8075
416.4849, 130.6016
416.9670, 126.6791
417.4492, 122.8708
417.9313, 119.2013
418.4134, 115.5550
418.8955, 111.7256
419.3776, 107.5362
419.8597, 103.4455
420.3419, 99.77832
420.8240, 96.54301
421.3061, 93.89651
421.7882, 92.16356
422.2703, 90.68495
422.7524, 88.60874
423.2346, 85.94088
423.7167, 83.43510
424.1988, 81.46302
424.6809, 79.76232
425.1630, 77.93215
425.6451, 75.94065
426.1273, 74.06242
426.6094, 72.52144
427.0915, 71.28606
427.5736, 70.06750
428.0557, 68.72202
428.5378, 67.54493
429.0200, 66.80063
429.5021, 66.30818
429.9842, 65.64660
430.4663, 64.63809
430.9484, 63.59386
431.4305, 63.08330
431.9127, 63.57404
432.3948, 63.41468
432.8769, 61.86236
433.3590, 60.21724
433.8411, 59.50911
434.3232, 59.66002
434.8054, 59.90321
435.2875, 59.66059
435.7696, 58.97232
436.2517, 58.24656
436.7338, 57.35751
437.2159, 56.57745
437.6981, 55.89183
438.1802, 55.36046
438.6623, 55.13403
439.1444, 55.23622
439.6265, 55.38923
440.1086, 55.14961
440.5908, 54.38269
441.0729, 53.66539
441.5550, 52.85347
442.0371, 52.22226
442.5192, 51.97755
443.0013, 52.02246
443.4835, 52.12593
443.9656, 52.18139
444.4477, 52.15308
444.9298, 51.87653
445.4119, 51.20282
445.8940, 50.66008
446.3762, 50.49684
446.8583, 50.49513
447.3404, 50.47565
447.8225, 50.40281
448.3046, 50.38336
448.7867, 50.63805
449.2689, 51.07228
449.7510, 51.13747
450.2331, 50.66167
450.7152, 50.00824
451.1973, 49.39824
451.6794, 48.83577
452.1616, 48.34660
452.6437, 48.21863
453.1258, 47.94447
453.6079, 46.83162
454.0900, 45.02312
454.5721, 43.49929
455.0543, 42.75777
455.5364, 42.42388
456.0185, 41.71159
456.5006, 40.52298
456.9827, 39.44493
457.4648, 38.70075
457.9470, 38.08228
458.4291, 37.37951
458.9112, 36.56418
459.3933, 35.68286
459.8754, 34.75891
460.3575, 33.79319
460.8397, 32.88060
461.3218, 31.90383
461.8039, 31.10471
462.2860, 30.65567
462.7681, 30.38289
463.2502, 30.04101
463.7324, 29.54785
464.2145, 29.03417
464.6966, 28.71976
465.1787, 28.69492
465.6608, 28.60268
466.1429, 28.42813
466.6251, 28.20563
467.1072, 27.85655
467.5893, 27.47147
468.0714, 27.25817
468.5535, 27.37725
469.0356, 27.69580
469.5178, 27.80833
469.9999, 27.61791
470.4820, 27.47953
470.9641, 27.54710
471.4462, 27.66025
471.9283, 27.66317
472.4105, 27.54839
472.8926, 27.51234
473.3747, 27.74332
473.8568, 28.18019
474.3389, 28.62493
474.8210, 29.10975
475.3032, 29.46603
475.7853, 29.37973
476.2674, 29.11591
476.7495, 29.23625
477.2316, 30.10501
477.7137, 30.94581
478.1959, 31.05818
478.6780, 30.70288
479.1601, 30.67823
479.6422, 31.26648
480.1243, 32.07174
480.6064, 32.58754
481.0886, 32.77175
481.5707, 32.92577
482.0528, 33.04659
482.5349, 33.15569
483.0170, 33.28115
483.4991, 33.40812
483.9813, 33.48131
484.4634, 33.46353
484.9455, 33.39808
485.4276, 33.41652
485.9097, 33.63179
486.3918, 33.76622
486.8740, 33.85888
487.3561, 33.84331
487.8382, 33.56592
488.3203, 33.09292
488.8024, 32.72128
489.2845, 32.72355
489.7667, 33.05999
490.2488, 33.34060
490.7309, 33.66983
491.2130, 33.75671
491.6951, 33.45304
492.1772, 32.94387
492.6594, 32.39437
493.1415, 31.84728
493.6236, 31.31470
494.1057, 30.85993
494.5878, 30.45784
495.0699, 29.87833
495.5521, 28.99896
496.0342, 28.13348
496.5163, 27.59375
496.9984, 27.24187
497.4805, 26.77040
497.9626, 25.98921
498.4448, 25.19985
498.9269, 24.72004
499.4090, 24.45699
499.8911, 24.05973
500.3732, 23.38853
500.8553, 22.60704
501.3375, 21.94097
501.8196, 21.41135
502.3017, 20.89132
502.7838, 20.30229
503.2659, 19.78173
503.7480, 19.45634
504.2302, 19.28210
504.7123, 19.12223
505.1944, 18.90203
505.6765, 18.63039
506.1586, 18.32922
506.6407, 17.94951
507.1228, 17.61961
507.6049, 17.34013
508.0871, 17.10697
508.5692, 16.93214
509.0513, 16.80428
509.5334, 16.68992
510.0155, 16.56919
510.4977, 16.43780
510.9798, 16.27867
511.4619, 16.08745
511.9440, 15.87694
512.4261, 15.60755
512.9083, 15.34642
513.3904, 15.14157
513.8725, 15.00059
514.3546, 14.94483
514.8367, 15.06465
515.3188, 15.27875
515.8010, 15.33834
516.2831, 15.19656
516.7652, 15.02008
517.2473, 14.89337
517.7294, 14.82544
518.2115, 14.83872
518.6937, 15.05872
519.1758, 15.17548
519.6579, 14.92846
520.1400, 14.52372
520.6221, 14.32408
521.1042, 14.41171
521.5864, 14.56341
522.0685, 14.52757
522.5506, 14.27491
523.0327, 14.14702
523.5148, 14.26379
523.9969, 14.34747
524.4791, 14.27524
524.9612, 14.12902
525.4433, 13.99975
525.9254, 13.92675
526.4075, 13.94757
526.8896, 14.20214
527.3718, 14.80707
527.8539, 15.02120
528.3360, 14.42620
528.8181, 13.88093
529.3002, 13.78081
529.7823, 13.97595
530.2645, 14.18170
530.7466, 14.30297
531.2287, 14.34696
531.7108, 14.30062
532.1929, 14.16945
532.6750, 14.02938
533.1572, 13.87691
533.6393, 13.75685
534.1214, 13.75240
534.6035, 13.84128
535.0856, 13.87403
535.5677, 13.73444
536.0499, 13.60311
536.5320, 13.68785
537.0141, 13.90152
537.4962, 13.93659
537.9783, 13.64456
538.4604, 13.24170
538.9426, 13.12078
539.4247, 13.44638
539.9068, 13.63633
540.3889, 13.63024
540.8710, 13.55697
541.3531, 13.45556
541.8353, 13.34401
542.3174, 13.23795
542.7995, 13.14462
543.2816, 13.07030
543.7637, 13.05007
544.2458, 13.13252
544.7280, 13.10351
545.2101, 12.76865
545.6922, 12.46027
546.1743, 12.41487
546.6564, 12.56466
547.1385, 12.64886
547.6207, 12.48750
548.1028, 12.23466
548.5849, 12.14627
549.0670, 12.21446
549.5491, 12.20447
550.0313, 11.96449
550.5134, 11.70652
550.9955, 11.82958
551.4776, 12.35417
551.9597, 12.69601
552.4418, 12.66088
552.9240, 12.47140
553.4061, 12.23177
553.8882, 11.98346
554.3703, 11.80382
554.8524, 11.73144
555.3345, 11.75085
555.8167, 11.84049
556.2988, 12.13092
556.7809, 12.22662
557.2630, 11.95222
557.7451, 11.67222
558.2272, 11.57899
558.7094, 11.64788
559.1915, 11.78135
559.6736, 11.93881
560.1557, 12.08780
560.6378, 12.16886
561.1199, 12.18437
561.6021, 12.10140
562.0842, 11.78382
562.5663, 11.50444
563.0484, 11.54402
563.5305, 11.83858
564.0126, 12.04067
564.4948, 11.93366
564.9769, 11.74224
565.4590, 11.69130
565.9411, 11.75992
566.4232, 11.85837
566.9053, 11.96549
567.3875, 12.04050
567.8696, 11.99568
568.3517, 11.74209
568.8338, 11.69198
569.3159, 12.13987
569.7980, 12.50217
570.2802, 12.36677
570.7623, 11.92929
571.2444, 11.59179
571.7265, 11.54031
572.2086, 11.68658
572.6907, 11.91823
573.1729, 12.30657
573.6550, 12.49037
574.1371, 12.17225
574.6192, 11.94637
575.1013, 12.20993
575.5834, 12.74203
576.0656, 13.07194
576.5477, 12.97086
577.0298, 12.73239
577.5119, 12.66639
577.9940, 12.74560
578.4761, 12.84072
578.9583, 12.94050
579.4404, 12.99179
579.9225, 12.89354
580.4046, 12.66386
580.8867, 12.60974
581.3688, 12.91307
581.8510, 13.20253
582.3331, 13.27634
582.8152, 13.24930
583.2973, 13.29672
583.7794, 13.46683
584.2615, 13.70608
584.7437, 13.97982
585.2258, 14.30270
585.7079, 14.39047
586.1900, 13.95158
586.6721, 13.64332
587.1542, 13.62731
587.6363, 13.81607
588.1184, 14.15336
588.6005, 14.61927
589.0826, 15.08786
589.5648, 15.48015
