##NAMES=Amarantite
##RRUFFID=R050153
##IDEAL CHEMISTRY=Fe^3+^_2_O(S^6+^O_4_)_2_&#183;7H_2_O
##LOCALITY=Paposo, Antofagasta, Chile
##OWNER=RRUFF
##SOURCE=Jim McGlasson
##DESCRIPTION=Aggregate of red radiating platy crystals
##STATUS=The identification of this mineral has been confirmed by X-ray diffraction and chemical analysis
##URL=rruff.info/R050153
##MEASURED CHEMISTRY=Fe^3+^_2.00_(S_1.00_O_4_)_2_OÂ·7H_2_O
93.26398, 0.0000000E+00
93.74609, 4.851130
94.22821, 4.642101
94.71033, 4.772758
95.19244, 5.173102
95.67456, 5.591006
96.15668, 5.943181
96.63879, 6.239025
97.12091, 6.476608
97.60303, 6.629342
98.08514, 6.830737
98.56726, 7.325991
99.04938, 8.125743
99.53149, 8.897135
100.0136, 9.428816
100.4957, 9.713415
100.9778, 10.11074
101.4600, 10.63236
101.9421, 11.27141
102.4242, 11.98879
102.9063, 12.77478
103.3884, 13.67926
103.8705, 14.79415
104.3527, 16.30538
104.8348, 17.47752
105.3169, 18.14266
105.7990, 18.38490
106.2811, 18.87033
106.7632, 19.74733
107.2454, 20.70972
107.7275, 21.50472
108.2096, 21.96384
108.6917, 22.50303
109.1738, 23.11708
109.6559, 23.78330
110.1381, 24.79342
110.6202, 26.38050
111.1023, 28.22743
111.5844, 30.02590
112.0665, 32.16335
112.5486, 33.90340
113.0308, 35.05385
113.5129, 35.52782
113.9950, 35.76005
114.4771, 35.50686
114.9592, 35.10170
115.4413, 35.02460
115.9235, 35.77166
116.4056, 36.58751
116.8877, 37.05980
117.3698, 36.89426
117.8519, 36.95287
118.3340, 37.61163
118.8162, 38.72449
119.2983, 39.93748
119.7804, 41.10701
120.2625, 42.33469
120.7446, 43.67672
121.2267, 45.09901
121.7089, 46.72066
122.1910, 48.68053
122.6731, 50.93326
123.1552, 53.26696
123.6373, 55.64502
124.1194, 57.99455
124.6016, 60.27980
125.0837, 62.63348
125.5658, 64.75350
126.0479, 66.13078
126.5300, 66.79674
127.0121, 67.45780
127.4943, 68.72739
127.9764, 70.43948
128.4585, 72.24488
128.9406, 74.25118
129.4227, 76.19295
129.9048, 77.59511
130.3869, 78.45479
130.8691, 78.79713
131.3512, 78.46720
131.8333, 77.29734
132.3154, 75.65782
132.7975, 74.03982
133.2796, 72.54859
133.7618, 71.19276
134.2439, 69.88581
134.7260, 68.90247
135.2081, 68.73299
135.6902, 69.37317
136.1723, 70.41086
136.6545, 71.61482
137.1366, 72.97767
137.6187, 74.88518
138.1008, 77.64450
138.5829, 80.66185
139.0650, 82.61525
139.5472, 83.42472
140.0293, 83.53167
140.5114, 83.00688
140.9935, 81.62302
141.4756, 80.64998
141.9577, 80.22510
142.4399, 80.27197
142.9220, 80.44242
143.4041, 80.67596
143.8862, 81.12179
144.3683, 81.90488
144.8504, 83.08481
145.3326, 84.44402
145.8147, 85.91601
146.2968, 87.52321
146.7789, 89.34909
147.2610, 91.45377
147.7431, 93.73616
148.2253, 96.16048
148.7074, 98.84778
149.1895, 101.5062
149.6716, 104.2263
150.1537, 107.1197
150.6358, 109.1631
151.1180, 109.3726
151.6001, 109.1588
152.0822, 109.9861
152.5643, 112.8807
153.0464, 115.7675
153.5285, 118.0808
154.0107, 119.4763
154.4928, 121.5385
154.9749, 124.8763
155.4570, 128.7864
155.9391, 132.3773
156.4212, 135.5915
156.9034, 138.4798
157.3855, 141.1112
157.8676, 143.5475
158.3497, 145.4910
158.8318, 146.9253
159.3139, 147.8509
159.7961, 148.2813
160.2782, 148.0655
160.7603, 147.4833
161.2424, 146.6275
161.7245, 145.4122
162.2066, 144.1575
162.6888, 142.8875
163.1709, 141.6484
163.6530, 140.5438
164.1351, 140.1013
164.6172, 139.5025
165.0993, 138.1279
165.5815, 135.4105
166.0636, 132.6765
166.5457, 130.4309
167.0278, 128.6394
167.5099, 127.2039
167.9920, 125.8268
168.4742, 124.8931
168.9563, 124.7836
169.4384, 125.8698
169.9205, 127.4354
170.4026, 128.9874
170.8847, 130.5901
171.3669, 132.4955
171.8490, 134.9598
172.3311, 137.7796
172.8132, 140.7242
173.2953, 143.8055
173.7774, 146.9260
174.2596, 150.0217
174.7417, 153.1035
175.2238, 156.1502
175.7059, 159.3803
176.1880, 162.5115
176.6701, 165.0199
177.1523, 166.1433
177.6344, 166.9922
178.1165, 168.9651
178.5986, 172.0428
179.0807, 175.5311
179.5628, 178.9360
180.0450, 182.3596
180.5271, 185.9913
181.0092, 190.1922
181.4913, 194.5510
181.9734, 198.5008
182.4555, 202.0507
182.9377, 204.8542
183.4198, 206.5639
183.9019, 207.2654
184.3840, 207.2449
184.8661, 206.5178
185.3482, 205.1706
185.8304, 203.2681
186.3125, 200.7796
186.7946, 198.0662
187.2767, 195.1615
187.7588, 192.1909
188.2409, 190.0483
188.7231, 188.9198
189.2052, 188.8713
189.6873, 190.1647
190.1694, 192.8595
190.6515, 196.6621
191.1336, 201.4372
191.6158, 207.1453
192.0979, 213.1941
192.5800, 219.8105
193.0621, 226.7639
193.5442, 232.9635
194.0263, 238.6933
194.5085, 243.0141
194.9906, 244.6055
195.4727, 243.4987
195.9548, 240.2843
196.4369, 234.5538
196.9190, 226.4673
197.4012, 218.5579
197.8833, 210.7158
198.3654, 203.3018
198.8475, 197.0619
199.3296, 191.9630
199.8117, 187.9620
200.2939, 185.1969
200.7760, 183.6824
201.2581, 182.6533
201.7402, 182.1412
202.2223, 182.0717
202.7044, 182.6119
203.1866, 183.9783
203.6687, 184.7325
204.1508, 184.0271
204.6329, 181.7202
205.1150, 179.7026
205.5971, 178.3122
206.0793, 176.8316
206.5614, 173.6201
207.0435, 168.3003
207.5256, 162.8573
208.0077, 158.0918
208.4898, 154.0197
208.9720, 150.5326
209.4541, 147.6854
209.9362, 145.3649
210.4183, 143.4200
210.9004, 141.9910
211.3825, 140.5613
211.8647, 138.7546
212.3468, 136.3370
212.8289, 134.6269
213.3110, 133.7468
213.7931, 133.5003
214.2752, 133.5229
214.7574, 133.9358
215.2395, 134.3258
215.7216, 134.4304
216.2037, 134.0571
216.6858, 134.1116
217.1679, 134.6274
217.6500, 135.5626
218.1322, 136.8537
218.6143, 138.6470
219.0964, 140.5234
219.5785, 142.2641
220.0606, 143.8534
220.5427, 145.3968
221.0249, 146.7425
221.5070, 148.1109
221.9891, 149.9845
222.4712, 152.4452
222.9533, 155.2969
223.4354, 158.4465
223.9176, 162.0734
224.3997, 165.6504
224.8818, 169.3900
225.3639, 172.9996
225.8460, 175.8553
226.3281, 177.6766
226.8103, 179.1938
227.2924, 180.7222
227.7745, 182.5014
228.2566, 183.7211
228.7387, 184.3636
229.2208, 184.4617
229.7030, 184.1341
230.1851, 183.6329
230.6672, 182.2907
231.1493, 179.6619
231.6314, 175.0685
232.1135, 171.0447
232.5957, 167.8105
233.0778, 165.0403
233.5599, 162.0670
234.0420, 158.6372
234.5241, 155.4168
235.0062, 152.6892
235.4884, 150.5807
235.9705, 148.6472
236.4526, 146.6939
236.9347, 144.9837
237.4168, 144.0547
237.8989, 144.0597
238.3811, 144.5988
238.8632, 145.6333
239.3453, 147.4549
239.8274, 148.8628
240.3095, 149.6124
240.7916, 150.0843
241.2738, 151.0244
241.7559, 152.6984
242.2380, 154.4029
242.7201, 155.8463
243.2022, 156.8886
243.6843, 158.2247
244.1665, 160.2473
244.6486, 162.3476
245.1307, 163.4025
245.6128, 162.8749
246.0949, 162.2123
246.5770, 161.9955
247.0592, 162.5580
247.5413, 162.1919
248.0234, 160.6067
248.5055, 158.2866
248.9876, 156.0408
249.4697, 154.1016
249.9519, 151.7813
250.4340, 148.8157
250.9161, 145.0836
251.3982, 141.2976
251.8803, 137.3767
252.3624, 133.4964
252.8446, 129.9830
253.3267, 126.9087
253.8088, 124.0192
254.2909, 121.2998
254.7730, 118.7778
255.2551, 116.1229
255.7373, 113.3259
256.2194, 110.4057
256.7015, 107.3570
257.1836, 103.8960
257.6657, 100.9028
258.1478, 98.74729
258.6299, 97.52201
259.1121, 95.80486
259.5942, 93.32155
260.0763, 90.65665
260.5584, 88.37897
261.0405, 86.64346
261.5226, 84.95525
262.0048, 83.18217
262.4869, 81.34402
262.9690, 79.67068
263.4511, 78.22453
263.9332, 76.87315
264.4153, 75.51640
264.8975, 74.16441
265.3796, 72.72823
265.8617, 71.07903
266.3438, 69.28394
266.8259, 67.95095
267.3080, 67.25460
267.7902, 66.71999
268.2723, 65.89412
268.7544, 64.59425
269.2365, 63.68657
269.7186, 63.43941
270.2007, 63.69690
270.6829, 63.58027
271.1650, 62.99352
271.6471, 62.26325
272.1292, 61.61464
272.6113, 61.03907
273.0934, 60.56591
273.5756, 60.17278
274.0577, 59.89705
274.5398, 59.94399
275.0219, 60.42471
275.5040, 60.87222
275.9861, 60.90833
276.4683, 60.46078
276.9504, 60.22287
277.4325, 60.27941
277.9146, 60.56146
278.3967, 60.90126
278.8788, 61.29124
279.3610, 61.77142
279.8431, 62.37202
280.3252, 63.09066
280.8073, 63.88195
281.2894, 64.75323
281.7715, 65.68483
282.2537, 66.64680
282.7358, 67.64233
283.2179, 68.64958
283.7000, 69.60885
284.1821, 70.53509
284.6642, 71.66013
285.1464, 73.01219
285.6285, 74.52010
286.1106, 76.17137
286.5927, 77.96648
287.0748, 79.58383
287.5569, 80.88638
288.0391, 81.89063
288.5212, 82.67873
289.0033, 83.25444
289.4854, 83.61722
289.9675, 83.79662
290.4496, 83.78300
290.9318, 83.47501
291.4139, 82.83499
291.8960, 81.86962
292.3781, 80.57455
292.8602, 78.92406
293.3423, 77.10222
293.8245, 75.22701
294.3066, 73.30740
294.7887, 71.37232
295.2708, 69.42302
295.7529, 67.48872
296.2350, 65.63332
296.7172, 63.86479
297.1993, 62.18666
297.6814, 60.68155
298.1635, 59.26020
298.6456, 57.65599
299.1277, 55.62462
299.6099, 53.56355
300.0920, 52.25618
300.5741, 51.59597
301.0562, 50.96434
301.5383, 49.74183
302.0204, 48.26017
302.5026, 47.20554
302.9847, 46.82127
303.4668, 46.63538
303.9489, 46.11071
304.4310, 45.32233
304.9131, 44.51031
305.3953, 43.70463
305.8774, 43.00575
306.3595, 42.63214
306.8416, 42.69950
307.3237, 42.74837
307.8058, 42.31938
308.2880, 41.56237
308.7701, 40.81791
309.2522, 40.15155
309.7343, 39.62507
310.2164, 39.40712
310.6985, 39.55797
311.1807, 39.54057
311.6628, 38.75960
312.1449, 37.60896
312.6270, 36.71140
313.1091, 36.58733
313.5912, 36.58163
314.0734, 36.27507
314.5555, 35.65466
315.0376, 34.96810
315.5197, 34.25205
316.0018, 33.56594
316.4839, 32.98960
316.9661, 32.57665
317.4482, 32.24236
317.9303, 31.95382
318.4124, 31.71345
318.8945, 31.53220
319.3766, 31.55359
319.8588, 31.55709
320.3409, 31.37119
320.8230, 30.71744
321.3051, 30.18734
321.7872, 29.98103
322.2693, 30.02701
322.7515, 30.10676
323.2336, 30.28359
323.7157, 30.39497
324.1978, 30.33895
324.6799, 29.96284
325.1620, 29.69967
325.6442, 29.59579
326.1263, 29.64231
326.6084, 29.82346
327.0905, 30.42806
327.5726, 30.90143
328.0547, 30.99993
328.5369, 30.50677
329.0190, 30.32996
329.5011, 30.70544
329.9832, 31.30291
330.4653, 31.75522
330.9474, 32.02298
331.4296, 32.19086
331.9117, 32.18901
332.3938, 31.99648
332.8759, 32.10586
333.3580, 32.69679
333.8401, 33.42243
334.3223, 33.99820
334.8044, 34.34880
335.2865, 34.71436
335.7686, 35.14367
336.2507, 35.61513
336.7328, 35.97158
337.2150, 36.14886
337.6971, 36.33012
338.1792, 36.61151
338.6613, 36.97878
339.1434, 37.51408
339.6255, 38.30666
340.1077, 39.20084
340.5898, 39.83391
341.0719, 40.13513
341.5540, 40.42379
342.0361, 40.89865
342.5182, 41.57794
343.0003, 41.98264
343.4825, 42.04097
343.9646, 41.98698
344.4467, 42.16946
344.9288, 42.58794
345.4109, 43.00077
345.8930, 43.39756
346.3752, 43.72060
346.8573, 43.66927
347.3394, 43.21834
347.8215, 42.60249
348.3036, 41.97653
348.7857, 41.36008
349.2679, 40.85862
349.7500, 40.53352
350.2321, 40.30013
350.7142, 40.03011
351.1963, 39.72507
351.6784, 39.38701
352.1606, 38.89356
352.6427, 38.39061
353.1248, 38.19582
353.6069, 38.43110
354.0890, 38.77877
354.5711, 38.91637
355.0533, 38.88813
355.5354, 38.82022
356.0175, 38.73128
356.4996, 38.66386
356.9817, 38.64043
357.4638, 38.65564
357.9460, 38.78739
358.4281, 39.16243
358.9102, 39.67519
359.3923, 40.16603
359.8744, 40.58789
360.3565, 40.95687
360.8387, 41.20977
361.3208, 41.36610
361.8029, 41.65769
362.2850, 42.33911
362.7671, 43.12458
363.2492, 43.76944
363.7314, 43.95747
364.2135, 44.30779
364.6956, 45.14215
365.1777, 46.31113
365.6598, 47.34224
366.1419, 47.99480
366.6241, 48.58250
367.1062, 49.24426
367.5883, 50.01736
368.0704, 50.82158
368.5525, 51.66098
369.0346, 52.52089
369.5168, 53.39193
369.9989, 54.15065
370.4810, 55.05006
370.9631, 56.21233
371.4452, 57.69115
371.9273, 58.99923
372.4095, 59.95393
372.8916, 60.87555
373.3737, 62.05957
373.8558, 63.65427
374.3379, 65.22322
374.8200, 66.73176
375.3022, 68.18497
375.7843, 69.55888
376.2664, 70.84415
376.7485, 72.10132
377.2306, 73.33572
377.7127, 74.52779
378.1949, 75.86040
378.6770, 77.32833
379.1591, 78.94772
379.6412, 80.73381
380.1233, 82.71364
380.6054, 84.76841
381.0876, 86.91042
381.5697, 89.10088
382.0518, 91.11172
382.5339, 92.90129
383.0160, 94.65525
383.4981, 96.49050
383.9803, 98.43345
384.4624, 100.5511
384.9445, 102.9273
385.4266, 105.4190
385.9087, 107.8388
386.3908, 110.1757
386.8730, 112.4284
387.3551, 114.4912
387.8372, 116.5092
388.3193, 118.7967
388.8014, 121.4862
389.2835, 124.2075
389.7657, 126.5361
390.2478, 128.6364
390.7299, 130.8354
391.2120, 133.5342
391.6941, 136.2525
392.1762, 138.5853
392.6584, 140.4780
393.1405, 142.1416
393.6226, 143.4375
394.1047, 144.6597
394.5868, 146.1050
395.0689, 148.1215
395.5511, 150.1264
396.0332, 151.7896
396.5153, 153.2080
396.9974, 154.9074
397.4795, 157.4825
397.9616, 160.0430
398.4438, 162.0710
398.9259, 163.0757
399.4080, 164.3194
399.8901, 166.1987
400.3722, 168.3514
400.8543, 170.0784
401.3365, 171.0345
401.8186, 171.9890
402.3007, 173.1798
402.7828, 174.6609
403.2649, 175.9047
403.7470, 176.8698
404.2292, 177.6440
404.7113, 178.3112
405.1934, 178.9241
405.6755, 179.2836
406.1576, 179.3485
406.6397, 179.1405
407.1219, 178.7666
407.6040, 178.2673
408.0861, 177.4339
408.5682, 176.1587
409.0503, 174.4617
409.5324, 172.2229
410.0146, 169.3570
410.4967, 166.1757
410.9788, 163.1356
411.4609, 160.2297
411.9430, 157.1203
412.4251, 153.5351
412.9073, 149.7385
413.3894, 146.2201
413.8715, 142.9583
414.3536, 139.6197
414.8357, 135.8010
415.3178, 131.6838
415.8000, 127.6383
416.2821, 123.6374
416.7642, 119.8548
417.2463, 116.6360
417.7284, 113.7646
418.2105, 110.7624
418.6927, 106.9057
419.1748, 103.1147
419.6569, 100.1712
420.1390, 98.21750
420.6211, 96.29771
421.1032, 93.87804
421.5854, 91.24599
422.0675, 88.71319
422.5496, 86.19322
423.0317, 83.93332
423.5138, 82.05559
423.9959, 80.52864
424.4781, 79.02947
424.9602, 77.58630
425.4423, 76.13390
425.9244, 74.60844
426.4065, 72.84447
426.8886, 71.34547
427.3708, 70.28719
427.8529, 69.40714
428.3350, 68.25846
428.8171, 66.59818
429.2992, 65.11880
429.7813, 64.05304
430.2635, 63.38930
430.7456, 62.55272
431.2277, 61.42752
431.7098, 60.39486
432.1919, 59.86808
432.6740, 59.90632
433.1562, 59.68120
433.6383, 59.01835
434.1204, 58.15023
434.6025, 57.49970
435.0846, 57.06585
435.5667, 56.81804
436.0489, 56.88953
436.5310, 57.13605
437.0131, 57.06470
437.4952, 56.64950
437.9773, 56.17163
438.4594, 55.89905
438.9415, 55.76598
439.4236, 55.63008
439.9058, 55.41982
440.3879, 55.22553
440.8700, 55.18203
441.3521, 55.24051
441.8342, 55.22759
442.3163, 54.93986
442.7985, 54.61315
443.2806, 54.43461
443.7627, 54.45221
444.2448, 54.52057
444.7269, 54.61872
445.2090, 54.72037
445.6912, 54.79382
446.1733, 54.81699
446.6554, 54.82421
447.1375, 54.79692
447.6196, 54.74299
448.1017, 54.75608
448.5839, 54.78210
449.0660, 54.92819
449.5481, 55.28823
450.0302, 56.20074
450.5123, 56.60881
450.9944, 56.29425
451.4766, 55.62239
451.9587, 55.20829
452.4408, 55.18435
452.9229, 55.04475
453.4050, 54.62324
453.8871, 53.95504
454.3693, 53.28047
454.8514, 52.59157
455.3335, 51.92228
455.8156, 51.31769
456.2977, 50.76690
456.7798, 50.15761
457.2620, 49.47939
457.7441, 48.71092
458.2262, 47.72063
458.7083, 46.57296
459.1904, 45.51781
459.6725, 44.71685
460.1547, 44.07537
460.6368, 43.47629
461.1189, 42.91259
461.6010, 42.39362
462.0831, 41.96120
462.5652, 41.56036
463.0474, 41.13453
463.5295, 40.65037
464.0116, 40.16244
464.4937, 39.59150
464.9758, 39.04138
465.4579, 38.74570
465.9401, 39.02161
466.4222, 39.35057
466.9043, 39.47086
467.3864, 39.31298
467.8685, 39.35793
468.3506, 39.75100
468.8328, 40.30927
469.3149, 40.89714
469.7970, 41.44273
470.2791, 42.13524
470.7612, 43.00969
471.2433, 44.02839
471.7255, 45.10927
472.2076, 46.29571
472.6897, 47.43125
473.1718, 48.41817
473.6539, 49.25224
474.1360, 50.32731
474.6182, 51.65448
475.1003, 53.18221
475.5824, 54.91988
476.0645, 56.85296
476.5466, 58.74618
477.0287, 60.51883
477.5109, 62.31837
477.9930, 64.53249
478.4751, 67.04933
478.9572, 69.33453
479.4393, 70.87520
479.9214, 72.11785
480.4036, 73.66631
480.8857, 75.56592
481.3678, 77.35298
481.8499, 78.59536
482.3320, 79.60434
482.8141, 80.73780
483.2963, 82.52548
483.7784, 83.90750
484.2605, 84.13752
484.7426, 83.63089
485.2247, 83.41098
485.7068, 84.04680
486.1890, 84.71201
486.6711, 85.11921
487.1532, 85.21400
487.6353, 85.22806
488.1174, 84.93257
488.5995, 84.75224
489.0817, 85.13328
489.5638, 86.56341
490.0459, 87.31860
490.5280, 87.08813
491.0101, 86.17805
491.4922, 85.26283
491.9744, 84.29269
492.4565, 83.55743
492.9386, 83.38700
493.4207, 83.61869
493.9028, 83.06528
494.3849, 81.66216
494.8671, 80.07511
495.3492, 79.07240
495.8313, 78.38018
496.3134, 77.15308
496.7955, 75.08251
497.2776, 72.74453
497.7598, 70.82961
498.2419, 69.16065
498.7240, 67.34824
499.2061, 64.88036
499.6882, 62.41183
500.1703, 60.48458
500.6525, 59.10674
501.1346, 57.70366
501.6167, 55.99829
502.0988, 54.19083
502.5809, 52.42275
503.0630, 50.64904
503.5452, 48.97989
504.0273, 47.42115
504.5094, 45.98167
504.9915, 44.72532
505.4736, 43.72375
505.9557, 42.80657
506.4379, 41.99561
506.9200, 41.27537
507.4021, 40.32921
507.8842, 39.03711
508.3663, 37.77067
508.8484, 36.83605
509.3306, 36.24359
509.8127, 35.41737
510.2948, 34.24171
510.7769, 33.05483
511.2590, 32.41422
511.7411, 32.24145
512.2233, 32.11437
512.7054, 31.91930
513.1875, 31.65150
513.6696, 31.26963
514.1517, 30.79262
514.6339, 30.32403
515.1160, 29.92175
515.5981, 29.56441
516.0802, 29.22286
516.5623, 28.88846
517.0444, 28.59831
517.5266, 28.40269
518.0087, 28.24719
518.4908, 28.07241
518.9729, 27.72141
519.4550, 27.50917
519.9371, 27.64646
520.4193, 28.01309
520.9014, 28.08415
521.3835, 27.61501
521.8656, 27.16859
522.3477, 26.97957
522.8298, 27.09937
523.3120, 27.02659
523.7941, 26.67517
524.2762, 26.30999
524.7583, 26.22337
525.2404, 26.42734
525.7225, 26.56186
526.2047, 26.57050
526.6868, 26.49263
527.1689, 26.32481
527.6510, 26.09881
528.1331, 26.00936
528.6152, 26.31384
529.0974, 26.73248
529.5795, 26.84900
530.0616, 26.67930
530.5437, 26.44177
531.0258, 26.19933
531.5079, 26.00237
531.9901, 25.92254
532.4722, 26.05050
532.9543, 26.08062
533.4364, 25.74246
533.9185, 25.28364
534.4006, 25.03370
534.8828, 25.32291
535.3649, 25.53405
535.8470, 25.47262
536.3291, 25.20422
536.8112, 25.12186
537.2933, 25.39539
537.7755, 25.58838
538.2576, 25.46555
538.7397, 24.97344
539.2218, 24.56845
539.7039, 24.24296
540.1860, 24.03550
540.6682, 24.11859
541.1503, 24.44568
541.6324, 24.45807
542.1145, 23.95658
542.5966, 23.25467
543.0787, 22.79173
543.5609, 22.54055
544.0430, 22.39953
544.5251, 22.41735
545.0072, 22.45618
545.4893, 22.36468
545.9714, 22.14805
546.4536, 21.92082
546.9357, 21.63169
547.4178, 21.42666
547.8999, 21.46255
548.3820, 21.96081
548.8641, 22.24265
549.3463, 22.03847
549.8284, 21.59007
550.3105, 21.21360
550.7926, 20.94636
551.2747, 20.70333
551.7568, 20.44942
552.2390, 20.20811
552.7211, 20.08265
553.2032, 20.09540
553.6853, 20.15671
554.1674, 20.27228
554.6495, 20.42875
555.1317, 20.37719
555.6138, 20.09796
556.0959, 19.77469
556.5780, 19.55378
557.0601, 19.42705
557.5422, 19.39477
558.0244, 19.49513
558.5065, 19.58339
558.9886, 19.47195
559.4707, 19.24284
559.9528, 19.06272
560.4349, 18.97846
560.9171, 18.98090
561.3992, 19.14499
561.8813, 19.43145
562.3634, 19.57640
562.8455, 19.40920
563.3276, 19.16904
563.8098, 18.95959
564.2919, 18.78062
564.7740, 18.64681
565.2561, 18.55164
565.7382, 18.50802
566.2203, 18.53816
566.7025, 18.66297
567.1846, 18.79012
567.6667, 18.93730
568.1488, 19.04470
568.6309, 18.94804
569.1130, 18.65607
569.5952, 18.38171
570.0773, 18.18724
570.5594, 18.08420
571.0415, 18.13643
571.5236, 18.32624
572.0057, 18.48612
572.4879, 18.50918
572.9700, 18.44200
573.4521, 18.28330
573.9342, 17.98869
574.4163, 17.84670
574.8984, 18.13612
575.3806, 18.57614
575.8627, 18.88500
576.3448, 18.96595
576.8269, 18.95604
577.3090, 18.77054
577.7911, 18.51952
578.2733, 18.47451
578.7554, 18.77148
579.2375, 19.00367
579.7196, 19.03834
580.2017, 18.89565
580.6838, 18.73479
581.1660, 18.54375
581.6481, 18.40936
582.1302, 18.43635
582.6123, 18.58232
583.0944, 18.66407
583.5765, 18.66432
584.0587, 18.64420
584.5408, 18.63738
585.0229, 18.65772
585.5050, 18.73686
585.9871, 18.93650
586.4692, 19.11465
586.9513, 19.13686
587.4334, 19.07975
587.9155, 19.10173
588.3976, 19.32925
588.8798, 19.56638
589.3619, 19.72843
