##NAMES=Amblygonite
##RRUFFID=R040006
##IDEAL CHEMISTRY=LiAlPO_4_F
##LOCALITY=Pala, San Diego County, California, USA
##OWNER=RRUFF
##SOURCE=University of Arizona Mineral Museum
##DESCRIPTION=Light gray coarsely crystalline massive
##STATUS=The identification of this mineral has been confirmed by X-ray diffraction and chemical analysis
##URL=rruff.info/R040006
##MEASURED CHEMISTRY=LiAl_1.00_(P_1.00_O_4_)(F_0.73_(OH)_0.27_)_Î£=1_; Li assumed by stoichiometry; OH estimated by charge balance
112.8500, 291.0400
113.3321, 292.0211
113.8143, 311.9255
114.2964, 343.2650
114.7785, 373.3494
115.2606, 399.2449
115.7427, 419.8202
116.2248, 433.5114
116.7070, 440.5821
117.1891, 442.6383
117.6712, 438.2419
118.1533, 428.7344
118.6354, 419.6528
119.1175, 413.7203
119.5997, 408.7550
120.0818, 400.2246
120.5639, 385.0954
121.0460, 372.7267
121.5281, 370.5693
122.0102, 378.4923
122.4924, 390.4028
122.9745, 403.3919
123.4566, 419.5185
123.9387, 440.4722
124.4208, 465.1991
124.9029, 497.0218
125.3851, 541.6875
125.8672, 601.3857
126.3493, 663.5992
126.8314, 723.0962
127.3135, 782.0859
127.7956, 842.3548
128.2778, 900.3184
128.7599, 963.9598
129.2420, 1051.357
129.7241, 1174.206
130.2062, 1292.737
130.6883, 1404.938
131.1705, 1501.179
131.6526, 1567.965
132.1347, 1598.120
132.6168, 1594.903
133.0989, 1566.106
133.5810, 1499.644
134.0632, 1422.874
134.5453, 1345.132
135.0274, 1265.274
135.5095, 1178.813
135.9916, 1078.122
136.4737, 967.6382
136.9559, 884.3366
137.4380, 843.3772
137.9201, 816.7603
138.4022, 799.3668
138.8843, 789.3212
139.3664, 784.3661
139.8486, 782.5736
140.3307, 783.9254
140.8128, 792.3216
141.2949, 810.5525
141.7770, 834.1591
142.2591, 860.9642
142.7413, 891.9797
143.2234, 930.0736
143.7055, 977.6393
144.1876, 1034.841
144.6697, 1099.469
145.1518, 1171.167
145.6340, 1249.878
146.1161, 1339.210
146.5982, 1436.785
147.0803, 1536.807
147.5624, 1637.333
148.0445, 1745.517
148.5267, 1817.610
149.0088, 1850.661
149.4909, 1858.113
149.9730, 1834.026
150.4551, 1785.062
150.9372, 1733.634
151.4194, 1703.812
151.9015, 1699.885
152.3836, 1707.249
152.8657, 1731.256
153.3478, 1760.432
153.8299, 1786.385
154.3121, 1808.608
154.7942, 1833.776
155.2763, 1870.658
155.7584, 1926.673
156.2405, 1975.133
156.7226, 1999.327
157.2048, 2027.288
157.6869, 2081.491
158.1690, 2165.239
158.6511, 2265.643
159.1332, 2365.434
159.6153, 2466.126
160.0975, 2561.907
160.5796, 2643.021
161.0617, 2724.961
161.5438, 2826.684
162.0259, 2951.146
162.5080, 3079.652
162.9902, 3185.731
163.4723, 3261.488
163.9544, 3329.257
164.4365, 3396.140
164.9186, 3452.102
165.4007, 3485.586
165.8829, 3493.796
166.3650, 3483.250
166.8471, 3461.318
167.3292, 3423.188
167.8113, 3387.062
168.2934, 3363.624
168.7756, 3339.680
169.2577, 3298.923
169.7398, 3236.553
170.2219, 3161.567
170.7040, 3087.166
171.1861, 3015.467
171.6683, 2937.967
172.1504, 2848.088
172.6325, 2753.595
173.1146, 2664.937
173.5967, 2585.104
174.0788, 2510.312
174.5610, 2432.808
175.0431, 2349.996
175.5252, 2274.105
176.0073, 2208.870
176.4894, 2151.530
176.9715, 2098.222
177.4537, 2048.268
177.9358, 2000.535
178.4179, 1954.257
178.9000, 1909.974
179.3821, 1864.367
179.8642, 1813.140
180.3464, 1760.747
180.8285, 1714.873
181.3106, 1678.227
181.7927, 1646.478
182.2748, 1613.366
182.7569, 1578.650
183.2391, 1544.114
183.7212, 1511.300
184.2033, 1478.892
184.6854, 1443.893
185.1675, 1404.707
185.6496, 1365.307
186.1318, 1332.758
186.6139, 1307.371
187.0960, 1282.164
187.5781, 1254.344
188.0602, 1225.562
188.5423, 1198.924
189.0245, 1176.222
189.5066, 1153.686
189.9887, 1124.790
190.4708, 1089.386
190.9529, 1056.198
191.4350, 1028.624
191.9172, 1005.245
192.3993, 983.7133
192.8814, 963.9331
193.3635, 945.0297
193.8456, 924.2794
194.3277, 901.2232
194.8099, 883.6016
195.2920, 879.8920
195.7741, 882.0827
196.2562, 874.0042
196.7383, 849.6061
197.2204, 822.4465
197.7026, 810.9708
198.1847, 814.0272
198.6668, 816.7407
199.1489, 812.8248
199.6310, 806.1226
200.1131, 802.9016
200.5953, 804.3046
201.0774, 809.2629
201.5595, 819.9125
202.0416, 835.7107
202.5237, 845.3130
203.0058, 838.0164
203.4880, 824.6791
203.9701, 824.5291
204.4522, 842.9952
204.9343, 864.5627
205.4164, 870.0870
205.8985, 861.8957
206.3807, 857.2870
206.8628, 863.9249
207.3449, 875.3960
207.8270, 882.3682
208.3091, 883.1423
208.7912, 882.2804
209.2734, 884.3184
209.7555, 888.7839
210.2376, 892.3597
210.7197, 894.0939
211.2018, 894.7124
211.6839, 894.4559
212.1660, 893.1326
212.6482, 893.0125
213.1303, 897.8301
213.6124, 906.4492
214.0945, 911.1328
214.5766, 909.0973
215.0587, 903.4481
215.5409, 896.6373
216.0230, 888.7943
216.5051, 881.3951
216.9872, 875.0735
217.4693, 870.1977
217.9514, 868.2386
218.4336, 872.6405
218.9157, 877.9083
219.3978, 879.0465
219.8799, 875.9238
220.3620, 871.3527
220.8441, 867.2249
221.3263, 863.1805
221.8084, 857.6555
222.2905, 848.5361
222.7726, 839.5001
223.2547, 833.3199
223.7368, 829.8430
224.2190, 827.0671
224.7011, 823.7271
225.1832, 820.1384
225.6653, 817.5223
226.1474, 817.6503
226.6295, 817.1287
227.1117, 813.1143
227.5938, 806.3942
228.0759, 800.6288
228.5580, 798.3766
229.0401, 798.2166
229.5222, 795.0092
230.0044, 784.9125
230.4865, 776.5287
230.9686, 776.1685
231.4507, 780.8732
231.9328, 782.1242
232.4149, 775.3061
232.8971, 763.2988
233.3792, 754.1703
233.8613, 747.9194
234.3434, 743.7338
234.8255, 743.4651
235.3076, 744.9298
235.7898, 743.6381
236.2719, 737.5430
236.7540, 728.7835
237.2361, 721.6060
237.7182, 715.1354
238.2003, 711.6263
238.6825, 715.3132
239.1646, 721.1141
239.6467, 721.2443
240.1288, 713.0575
240.6109, 701.2655
241.0930, 693.2397
241.5752, 689.3130
242.0573, 688.7169
242.5394, 695.6241
243.0215, 703.7616
243.5036, 705.5201
243.9857, 699.4579
244.4679, 691.7189
244.9500, 690.0848
245.4321, 697.0369
245.9142, 704.0555
246.3963, 712.7090
246.8784, 720.3245
247.3606, 724.4531
247.8427, 725.0530
248.3248, 723.9980
248.8069, 722.5361
249.2890, 719.6897
249.7711, 723.0242
250.2533, 737.9427
250.7354, 753.3880
251.2175, 760.4103
251.6996, 761.4088
252.1817, 767.2457
252.6638, 788.1075
253.1460, 824.7572
253.6281, 850.2874
254.1102, 851.5527
254.5923, 856.5864
255.0744, 876.6852
255.5565, 907.8839
256.0387, 940.6447
256.5208, 968.6846
257.0029, 992.8652
257.4850, 1019.100
257.9671, 1046.998
258.4492, 1077.665
258.9314, 1109.068
259.4135, 1143.851
259.8956, 1187.154
260.3777, 1241.937
260.8598, 1303.413
261.3419, 1358.161
261.8241, 1395.091
262.3062, 1441.208
262.7883, 1503.864
263.2704, 1573.283
263.7525, 1641.632
264.2346, 1705.700
264.7168, 1767.346
265.1989, 1829.866
265.6810, 1894.912
266.1631, 1957.473
266.6452, 2017.107
267.1273, 2074.929
267.6095, 2131.055
268.0916, 2185.816
268.5737, 2240.566
269.0558, 2300.294
269.5379, 2369.773
270.0201, 2421.764
270.5022, 2445.254
270.9843, 2457.820
271.4664, 2462.294
271.9485, 2461.052
272.4306, 2459.519
272.9128, 2467.234
273.3949, 2482.923
273.8770, 2477.478
274.3591, 2437.483
274.8412, 2391.986
275.3233, 2352.734
275.8055, 2318.794
276.2876, 2287.108
276.7697, 2254.349
277.2518, 2223.042
277.7339, 2201.426
278.2160, 2193.930
278.6982, 2185.950
279.1803, 2167.940
279.6624, 2145.802
280.1445, 2127.012
280.6266, 2113.625
281.1087, 2105.211
281.5909, 2101.074
282.0730, 2101.142
282.5551, 2106.596
283.0372, 2122.788
283.5193, 2142.363
284.0014, 2154.163
284.4836, 2153.210
284.9657, 2155.502
285.4478, 2172.626
285.9299, 2203.604
286.4120, 2241.623
286.8941, 2283.310
287.3763, 2333.611
287.8584, 2400.243
288.3405, 2484.722
288.8226, 2570.794
289.3047, 2644.000
289.7868, 2715.683
290.2690, 2806.731
290.7511, 2921.577
291.2332, 3053.908
291.7153, 3197.230
292.1974, 3351.329
292.6795, 3519.263
293.1617, 3700.496
293.6438, 3896.614
294.1259, 4106.739
294.6080, 4330.566
295.0901, 4574.043
295.5722, 4843.731
296.0544, 5138.881
296.5365, 5444.020
297.0186, 5757.258
297.5007, 6079.678
297.9828, 6419.680
298.4649, 6770.830
298.9471, 7121.015
299.4292, 7469.538
299.9113, 7809.204
300.3934, 8111.331
300.8755, 8402.942
301.3576, 8627.937
301.8398, 8786.277
302.3219, 8869.170
302.8040, 8861.935
303.2861, 8759.723
303.7682, 8578.179
304.2503, 8341.599
304.7325, 8023.499
305.2146, 7691.754
305.6967, 7327.102
306.1788, 6965.513
306.6609, 6628.209
307.1430, 6318.828
307.6252, 6024.869
308.1073, 5731.959
308.5894, 5434.396
309.0715, 5167.360
309.5536, 4939.923
310.0357, 4733.943
310.5179, 4548.617
311.0000, 4379.758
311.4821, 4219.792
311.9642, 4064.872
312.4463, 3913.477
312.9284, 3759.119
313.4106, 3597.709
313.8927, 3441.067
314.3748, 3296.229
314.8569, 3155.921
315.3390, 3010.708
315.8211, 2855.132
316.3033, 2697.924
316.7854, 2548.646
317.2675, 2406.984
317.7496, 2277.055
318.2317, 2163.451
318.7138, 2061.443
319.1960, 1966.791
319.6781, 1878.681
320.1602, 1799.655
320.6423, 1733.335
321.1244, 1677.920
321.6065, 1626.347
322.0887, 1576.354
322.5708, 1532.005
323.0529, 1500.075
323.5350, 1478.907
324.0171, 1458.480
324.4992, 1437.293
324.9814, 1414.612
325.4635, 1387.539
325.9456, 1355.734
326.4277, 1327.701
326.9098, 1311.462
327.3919, 1305.559
327.8741, 1293.095
328.3562, 1270.803
328.8383, 1245.527
329.3204, 1218.412
329.8025, 1190.843
330.2846, 1165.849
330.7668, 1145.082
331.2489, 1127.680
331.7310, 1111.736
332.2131, 1102.114
332.6952, 1087.444
333.1773, 1063.098
333.6595, 1035.406
334.1415, 1009.922
334.6237, 988.1910
335.1058, 970.2323
335.5879, 956.3959
336.0700, 947.9620
336.5521, 939.2587
337.0342, 931.3458
337.5164, 922.2728
337.9985, 909.1691
338.4806, 893.8633
338.9627, 881.0613
339.4448, 874.5657
339.9269, 873.6654
340.4091, 873.7343
340.8912, 879.0617
341.3733, 878.5331
341.8554, 862.1746
342.3375, 841.5376
342.8196, 831.8126
343.3018, 839.9457
343.7839, 855.1289
344.2660, 860.8934
344.7481, 855.7104
345.2302, 851.9111
345.7123, 855.1133
346.1945, 858.7170
346.6766, 855.6498
347.1587, 845.5098
347.6408, 838.0159
348.1229, 842.8192
348.6050, 855.1050
349.0872, 859.6932
349.5693, 852.5397
350.0514, 844.2697
350.5335, 844.2780
351.0156, 851.0330
351.4977, 858.8829
351.9799, 866.7240
352.4620, 875.4291
352.9441, 887.3369
353.4262, 901.6128
353.9083, 912.3440
354.3904, 914.9600
354.8726, 912.7335
355.3547, 918.6118
355.8368, 941.9288
356.3189, 958.9609
356.8010, 959.8133
357.2831, 953.3024
357.7653, 950.3176
358.2474, 954.0953
358.7295, 961.6713
359.2116, 969.2144
359.6937, 977.1723
360.1758, 983.5731
360.6580, 984.5405
361.1401, 987.5672
361.6222, 998.4728
362.1043, 1015.364
362.5864, 1032.112
363.0685, 1044.676
363.5507, 1053.017
364.0328, 1056.284
364.5149, 1047.136
364.9970, 1043.943
365.4791, 1055.123
365.9612, 1072.208
366.4434, 1085.745
366.9255, 1092.525
367.4076, 1095.317
367.8897, 1097.648
368.3718, 1099.592
368.8539, 1099.945
369.3361, 1096.757
369.8182, 1093.548
370.3003, 1093.685
370.7824, 1096.880
371.2645, 1099.387
371.7466, 1098.689
372.2288, 1096.112
372.7109, 1095.132
373.1930, 1096.570
373.6751, 1095.170
374.1572, 1086.066
374.6393, 1070.766
375.1215, 1056.956
375.6036, 1044.500
376.0857, 1033.997
376.5678, 1028.131
377.0499, 1024.544
377.5320, 1017.325
378.0142, 1003.940
378.4963, 986.6302
378.9784, 969.4901
379.4605, 951.6265
379.9426, 935.7416
380.4247, 924.4813
380.9069, 913.3463
381.3890, 897.9658
381.8711, 878.6287
382.3532, 859.0723
382.8353, 842.2947
383.3174, 828.3380
383.7996, 817.1726
384.2817, 811.6579
384.7638, 805.8598
385.2459, 798.3232
385.7280, 789.7720
386.2101, 781.2736
386.6923, 773.2361
387.1744, 765.3533
387.6565, 756.9871
388.1386, 747.9809
388.6207, 739.2074
389.1028, 729.0302
389.5850, 720.8514
390.0671, 718.7583
390.5492, 722.2365
391.0313, 724.1763
391.5134, 718.3102
391.9955, 708.4042
392.4777, 703.7593
392.9598, 706.0776
393.4419, 706.6160
393.9240, 696.7967
394.4061, 680.4521
394.8882, 672.2209
395.3704, 681.0370
395.8525, 689.0963
396.3346, 685.0536
396.8167, 673.6453
397.2988, 665.5859
397.7809, 664.9332
398.2631, 667.3222
398.7452, 665.2635
399.2273, 654.5643
399.7094, 649.2755
400.1915, 654.7874
400.6736, 661.1777
401.1558, 661.5325
401.6379, 656.4963
402.1200, 651.1271
402.6021, 649.4310
403.0842, 650.6575
403.5663, 648.7078
404.0485, 640.4419
404.5306, 633.6102
405.0127, 630.5776
405.4948, 629.2277
405.9769, 626.9675
406.4590, 623.0347
406.9412, 619.9529
407.4233, 621.5823
407.9054, 627.8041
408.3875, 631.8522
408.8696, 631.9576
409.3517, 630.9127
409.8339, 629.9441
410.3160, 629.4182
410.7981, 631.0505
411.2802, 636.5070
411.7623, 643.6932
412.2444, 649.7961
412.7266, 655.0490
413.2087, 662.0756
413.6908, 671.5877
414.1729, 684.2407
414.6550, 702.7122
415.1371, 728.4192
415.6193, 755.7314
416.1014, 781.7061
416.5835, 809.6555
417.0656, 844.4717
417.5477, 886.1616
418.0298, 928.0161
418.5120, 962.1542
418.9941, 986.8406
419.4762, 1027.462
419.9583, 1094.824
420.4404, 1166.927
420.9225, 1238.250
421.4047, 1311.408
421.8868, 1391.939
422.3689, 1482.568
422.8510, 1577.521
423.3331, 1669.302
423.8152, 1759.929
424.2974, 1838.296
424.7795, 1908.296
425.2616, 1957.642
425.7437, 1985.031
426.2258, 1988.216
426.7079, 1954.703
427.1901, 1859.935
427.6722, 1733.529
428.1543, 1615.097
428.6364, 1506.302
429.1185, 1404.053
429.6006, 1306.780
430.0828, 1215.134
430.5649, 1129.370
431.0470, 1044.726
431.5291, 972.8755
432.0112, 921.1002
432.4933, 882.1536
432.9755, 848.9609
433.4576, 819.5504
433.9397, 792.8854
434.4218, 767.2206
434.9039, 741.9200
435.3860, 724.4492
435.8682, 724.3582
436.3503, 721.5893
436.8324, 707.2167
437.3145, 687.6957
437.7966, 672.8304
438.2787, 666.7296
438.7609, 666.0364
439.2430, 666.2076
439.7251, 667.4687
440.2072, 667.5737
440.6893, 663.9084
441.1714, 661.4473
441.6536, 666.2120
442.1357, 676.3893
442.6178, 681.7284
443.0999, 674.4281
443.5820, 661.9108
444.0641, 652.0953
444.5463, 645.2477
445.0284, 643.4199
445.5105, 649.6022
445.9926, 659.6450
446.4747, 661.3837
446.9568, 648.8924
447.4390, 641.0961
447.9211, 643.0386
448.4032, 649.8624
448.8853, 657.7108
449.3674, 665.7010
449.8495, 674.4114
450.3317, 684.7829
450.8138, 696.6271
451.2959, 703.6964
451.7780, 702.4858
452.2601, 700.8307
452.7422, 699.7937
453.2244, 699.4924
453.7065, 699.2214
454.1886, 698.7616
454.6707, 700.9918
455.1528, 711.3192
455.6349, 728.7259
456.1171, 741.4218
456.5992, 747.1180
457.0813, 749.6844
457.5634, 749.4643
458.0455, 748.1501
458.5276, 751.2936
459.0098, 760.3407
459.4919, 773.8771
459.9740, 795.8781
460.4561, 821.9174
460.9382, 838.2482
461.4203, 839.1605
461.9025, 832.9095
462.3846, 832.1605
462.8667, 836.8116
463.3488, 848.5120
463.8309, 871.0524
464.3130, 896.5563
464.7952, 922.6873
465.2773, 948.1882
465.7594, 970.5322
466.2415, 987.6194
466.7236, 1002.579
467.2057, 1024.404
467.6879, 1055.779
468.1700, 1085.232
468.6521, 1103.380
469.1342, 1123.938
469.6163, 1159.646
470.0984, 1209.566
470.5806, 1257.712
471.0627, 1290.291
471.5448, 1317.343
472.0269, 1355.749
472.5090, 1406.213
472.9911, 1459.207
473.4733, 1511.687
473.9554, 1562.309
474.4375, 1606.413
474.9196, 1636.257
475.4017, 1674.617
475.8839, 1733.245
476.3660, 1797.621
476.8481, 1853.420
477.3302, 1899.701
477.8123, 1944.766
478.2944, 1997.126
478.7766, 2055.564
479.2587, 2099.805
479.7408, 2119.212
480.2229, 2140.685
480.7050, 2175.343
481.1871, 2212.181
481.6693, 2238.913
482.1514, 2253.021
482.6335, 2264.119
483.1156, 2285.230
483.5977, 2310.631
484.0798, 2316.722
484.5620, 2297.734
485.0441, 2274.457
485.5262, 2260.191
486.0083, 2253.438
486.4904, 2246.642
486.9725, 2242.133
487.4547, 2234.543
487.9368, 2224.318
488.4189, 2208.824
488.9010, 2180.864
489.3831, 2139.893
489.8652, 2098.600
490.3474, 2071.953
490.8295, 2061.594
491.3116, 2046.996
491.7937, 2026.713
492.2758, 2003.478
492.7579, 1976.659
493.2401, 1947.868
493.7222, 1917.724
494.2043, 1886.455
494.6864, 1857.350
495.1685, 1837.046
495.6506, 1823.794
496.1328, 1803.053
496.6149, 1771.435
497.0970, 1735.437
497.5791, 1698.947
498.0612, 1661.940
498.5433, 1625.120
499.0254, 1590.082
499.5075, 1553.395
499.9897, 1508.381
500.4718, 1461.738
500.9539, 1426.972
501.4360, 1407.705
501.9181, 1393.534
502.4002, 1371.698
502.8824, 1341.275
503.3645, 1308.928
503.8466, 1271.530
504.3287, 1235.736
504.8108, 1204.327
505.2929, 1175.563
505.7751, 1146.283
506.2572, 1115.421
506.7393, 1085.179
507.2214, 1060.635
507.7035, 1040.587
508.1856, 1013.325
508.6678, 973.7676
509.1499, 935.3328
509.6320, 911.5091
510.1141, 898.9681
510.5962, 881.8870
511.0783, 852.4636
511.5605, 825.1136
512.0426, 809.0041
512.5247, 798.8669
513.0068, 785.3955
513.4890, 766.0334
513.9711, 745.3665
514.4532, 729.3848
514.9353, 718.9380
515.4174, 705.8191
515.8995, 689.3156
516.3817, 670.6099
516.8638, 645.9546
517.3459, 620.8269
517.8280, 603.1135
518.3101, 595.4431
518.7922, 592.6531
519.2744, 592.3024
519.7565, 592.9709
520.2386, 586.9521
520.7207, 571.8936
521.2028, 555.4581
521.6849, 543.4653
522.1671, 535.4042
522.6492, 526.6696
523.1313, 515.1741
523.6134, 505.5086
524.0955, 500.4777
524.5776, 497.5891
525.0598, 493.8127
525.5419, 488.4413
526.0240, 482.4638
526.5061, 477.0540
526.9882, 472.1662
527.4703, 465.1245
527.9525, 453.3561
528.4346, 443.3909
528.9167, 437.6500
529.3988, 434.2180
529.8809, 431.7627
530.3630, 430.1546
530.8452, 427.1628
531.3273, 419.5826
531.8094, 409.8830
532.2915, 403.9396
532.7736, 402.3794
533.2557, 400.0163
533.7379, 392.8160
534.2200, 382.4676
534.7021, 376.1023
535.1842, 375.4060
535.6663, 375.9489
536.1484, 379.6466
536.6306, 382.7524
537.1127, 381.2922
537.5948, 375.7156
538.0769, 369.8013
538.5590, 366.4237
539.0411, 364.9465
539.5233, 362.8421
540.0054, 359.6098
540.4875, 357.5988
540.9696, 357.5255
541.4517, 359.0549
541.9338, 362.9053
542.4160, 368.9976
542.8981, 372.4357
543.3802, 368.8181
543.8623, 363.5565
544.3444, 362.5576
544.8265, 364.9395
545.3087, 366.2885
545.7908, 364.4914
546.2729, 360.9415
546.7550, 358.4374
547.2371, 357.7529
547.7192, 356.2323
548.2014, 351.0960
548.6835, 347.9191
549.1656, 350.6527
549.6477, 357.0868
550.1298, 362.9820
550.6119, 366.8328
551.0941, 368.2033
551.5762, 363.7835
552.0583, 354.9354
552.5404, 354.4403
553.0225, 367.2603
553.5046, 380.9261
553.9868, 383.7228
554.4689, 375.9054
554.9510, 369.5997
555.4331, 364.5499
555.9152, 361.3468
556.3973, 360.9630
556.8795, 362.2374
557.3616, 364.2940
557.8437, 366.6408
558.3258, 368.0511
558.8079, 366.9574
559.2900, 363.5570
559.7722, 360.8443
560.2543, 358.6599
560.7364, 357.4915
561.2185, 355.9644
561.7006, 356.4192
562.1827, 364.0205
562.6649, 380.5640
563.1470, 390.3914
563.6291, 379.0648
564.1112, 360.8648
564.5933, 355.1176
565.0754, 361.1406
565.5576, 366.1416
566.0397, 362.7477
566.5218, 354.6639
567.0039, 351.5759
567.4860, 357.5912
567.9681, 361.0041
568.4503, 357.3659
568.9324, 355.5768
569.4145, 361.8853
569.8966, 373.7790
570.3787, 385.1529
570.8608, 393.8532
571.3430, 399.2254
571.8251, 397.4911
572.3072, 390.3802
572.7893, 390.1713
573.2714, 400.8900
573.7535, 413.3938
574.2357, 418.7671
574.7178, 417.1242
575.1999, 417.8464
575.6820, 421.3837
576.1641, 426.5674
576.6462, 434.8698
577.1284, 443.6651
577.6105, 449.5188
578.0926, 452.1163
578.5747, 454.4275
579.0568, 459.7289
579.5389, 467.1191
580.0211, 470.6772
580.5032, 468.2786
580.9852, 470.0759
581.4673, 483.4992
581.9495, 500.3885
582.4316, 508.9818
582.9137, 508.1231
583.3958, 509.4940
583.8779, 515.3787
584.3600, 525.5668
584.8422, 542.8130
585.3243, 564.2510
585.8064, 581.7752
586.2885, 591.6996
586.7706, 599.3184
587.2527, 613.7023
587.7349, 635.8707
588.2170, 660.8807
588.6991, 689.4748
589.1812, 720.1303
589.6633, 751.3736
590.1454, 784.1478
590.6276, 819.5079
591.1097, 856.8274
591.5918, 899.5734
592.0739, 947.5728
592.5560, 1003.252
593.0381, 1073.028
593.5203, 1156.618
594.0024, 1244.608
594.4845, 1330.213
594.9666, 1415.852
595.4487, 1513.634
595.9308, 1621.307
596.4130, 1745.149
596.8951, 1888.508
597.3772, 2043.771
597.8593, 2209.446
598.3414, 2382.372
598.8235, 2555.635
599.3057, 2722.366
599.7878, 2893.411
600.2699, 3093.994
600.7520, 3314.572
601.2341, 3514.142
601.7162, 3685.414
602.1984, 3818.984
602.6805, 3907.950
603.1626, 3952.422
603.6447, 3929.749
604.1268, 3819.943
604.6089, 3674.996
605.0911, 3493.362
605.5732, 3288.256
606.0553, 3062.537
606.5374, 2822.631
607.0195, 2593.376
