##NAMES=Amblygonite
##RRUFFID=R040006
##IDEAL CHEMISTRY=LiAlPO_4_F
##LOCALITY=Pala, San Diego County, California, USA
##OWNER=RRUFF
##SOURCE=University of Arizona Mineral Museum
##DESCRIPTION=Light gray coarsely crystalline massive
##STATUS=The identification of this mineral has been confirmed by X-ray diffraction and chemical analysis
##URL=rruff.info/R040006
##MEASURED CHEMISTRY=LiAl_1.00_(P_1.00_O_4_)(F_0.73_(OH)_0.27_)_Î£=1_; Li assumed by stoichiometry; OH estimated by charge balance
121.0403, 1368.112
121.5224, 1459.168
122.0045, 1570.789
122.4867, 1696.894
122.9688, 1825.000
123.4509, 1946.203
123.9330, 2067.091
124.4151, 2195.070
124.8972, 2331.409
125.3794, 2474.372
125.8615, 2632.055
126.3436, 2798.591
126.8257, 2952.128
127.3078, 3082.144
127.7899, 3187.989
128.2721, 3267.687
128.7542, 3319.064
129.2363, 3345.279
129.7184, 3352.908
130.2005, 3341.889
130.6826, 3310.849
131.1648, 3251.404
131.6469, 3166.604
132.1290, 3078.072
132.6111, 2993.816
133.0932, 2912.367
133.5753, 2826.266
134.0575, 2732.612
134.5396, 2641.313
135.0217, 2564.664
135.5038, 2502.259
135.9859, 2454.033
136.4680, 2423.293
136.9501, 2410.628
137.4323, 2402.203
137.9144, 2399.639
138.3965, 2399.385
138.8786, 2390.092
139.3607, 2367.804
139.8428, 2347.911
140.3250, 2341.121
140.8071, 2350.757
141.2892, 2362.223
141.7713, 2374.048
142.2534, 2386.375
142.7355, 2398.650
143.2177, 2407.585
143.6998, 2420.292
144.1819, 2444.157
144.6640, 2486.979
145.1461, 2527.298
145.6283, 2560.728
146.1104, 2585.762
146.5925, 2610.768
147.0746, 2634.425
147.5567, 2658.184
148.0388, 2683.256
148.5210, 2703.903
149.0031, 2731.901
149.4852, 2770.695
149.9673, 2824.988
150.4494, 2882.287
150.9315, 2944.521
151.4137, 3010.020
151.8958, 3072.604
152.3779, 3123.871
152.8600, 3178.860
153.3421, 3243.344
153.8242, 3326.473
154.3064, 3409.125
154.7885, 3485.599
155.2706, 3558.023
155.7527, 3643.936
156.2348, 3753.478
156.7169, 3873.698
157.1990, 3994.955
157.6812, 4116.672
158.1633, 4237.896
158.6454, 4358.608
159.1275, 4477.094
159.6096, 4595.591
160.0917, 4719.442
160.5739, 4840.519
161.0560, 4950.243
161.5381, 5050.010
162.0202, 5133.986
162.5023, 5200.109
162.9844, 5247.542
163.4666, 5275.987
163.9487, 5285.737
164.4308, 5276.289
164.9129, 5246.856
165.3950, 5189.024
165.8771, 5116.381
166.3593, 5037.993
166.8414, 4955.282
167.3235, 4867.197
167.8056, 4771.273
168.2877, 4668.821
168.7698, 4563.104
169.2520, 4455.376
169.7341, 4345.609
170.2162, 4232.767
170.6983, 4114.795
171.1804, 3998.047
171.6625, 3882.029
172.1447, 3768.476
172.6268, 3667.396
173.1089, 3592.551
173.5910, 3533.462
174.0731, 3473.086
174.5552, 3402.427
175.0374, 3329.717
175.5195, 3266.326
176.0016, 3211.458
176.4837, 3160.682
176.9658, 3110.905
177.4479, 3062.734
177.9300, 3018.064
178.4122, 2977.100
178.8943, 2940.261
179.3764, 2911.415
179.8585, 2892.124
180.3406, 2869.345
180.8227, 2821.322
181.3049, 2755.448
181.7870, 2698.510
182.2691, 2670.571
182.7512, 2661.536
183.2333, 2648.034
183.7154, 2628.007
184.1976, 2604.969
184.6797, 2583.506
185.1618, 2563.254
185.6439, 2542.924
186.1260, 2522.563
186.6081, 2501.557
187.0903, 2476.331
187.5724, 2444.282
188.0545, 2410.910
188.5366, 2385.074
189.0187, 2367.028
189.5008, 2352.203
189.9830, 2337.619
190.4651, 2323.555
190.9472, 2312.217
191.4293, 2306.152
191.9114, 2301.758
192.3935, 2286.905
192.8757, 2260.345
193.3578, 2233.675
193.8399, 2217.148
194.3220, 2210.502
194.8041, 2207.466
195.2862, 2209.108
195.7684, 2213.170
196.2505, 2206.390
196.7326, 2185.948
197.2147, 2165.409
197.6968, 2163.501
198.1789, 2182.019
198.6610, 2192.421
199.1432, 2180.280
199.6253, 2148.092
200.1074, 2136.541
200.5895, 2150.031
201.0716, 2173.810
201.5537, 2188.864
202.0359, 2194.194
202.5180, 2196.251
203.0001, 2194.963
203.4822, 2189.589
203.9643, 2193.616
204.4464, 2210.474
204.9286, 2231.875
205.4107, 2243.131
205.8928, 2242.150
206.3749, 2238.304
206.8570, 2235.959
207.3391, 2235.991
207.8213, 2231.738
208.3034, 2221.009
208.7855, 2207.875
209.2676, 2202.984
209.7497, 2210.002
210.2318, 2215.813
210.7140, 2212.017
211.1961, 2194.852
211.6782, 2184.367
212.1603, 2182.983
212.6424, 2188.572
213.1245, 2195.901
213.6067, 2207.641
214.0888, 2215.440
214.5709, 2211.690
215.0530, 2189.622
215.5351, 2177.464
216.0172, 2181.374
216.4994, 2197.173
216.9815, 2204.870
217.4636, 2203.350
217.9457, 2195.232
218.4278, 2180.368
218.9099, 2153.896
219.3920, 2133.988
219.8742, 2124.714
220.3563, 2125.055
220.8384, 2123.396
221.3205, 2118.694
221.8026, 2113.547
222.2847, 2110.446
222.7669, 2110.818
223.2490, 2110.030
223.7311, 2106.597
224.2132, 2100.554
224.6953, 2097.999
225.1774, 2101.878
225.6596, 2105.927
226.1417, 2103.346
226.6238, 2089.629
227.1059, 2078.178
227.5880, 2071.409
228.0701, 2069.463
228.5523, 2070.894
229.0344, 2078.711
229.5165, 2087.023
229.9986, 2088.823
230.4807, 2080.709
230.9628, 2072.125
231.4450, 2064.560
231.9271, 2057.536
232.4092, 2055.393
232.8913, 2060.725
233.3734, 2068.912
233.8555, 2074.004
234.3377, 2075.533
234.8198, 2074.832
235.3019, 2071.493
235.7840, 2064.410
236.2661, 2060.524
236.7482, 2062.335
237.2304, 2065.878
237.7125, 2064.448
238.1946, 2053.477
238.6767, 2045.087
239.1588, 2043.733
239.6409, 2052.061
240.1230, 2058.402
240.6052, 2062.295
241.0873, 2064.406
241.5694, 2065.770
242.0515, 2066.054
242.5336, 2066.048
243.0157, 2065.810
243.4979, 2064.815
243.9800, 2064.811
244.4621, 2064.976
244.9442, 2066.358
245.4263, 2071.323
245.9084, 2081.004
246.3906, 2092.344
246.8727, 2104.696
247.3548, 2119.675
247.8369, 2130.968
248.3190, 2136.340
248.8011, 2138.815
249.2833, 2145.815
249.7654, 2160.090
250.2475, 2174.511
250.7296, 2185.571
251.2117, 2189.912
251.6938, 2199.394
252.1760, 2215.706
252.6581, 2236.709
253.1402, 2257.480
253.6223, 2276.338
254.1044, 2298.002
254.5865, 2325.822
255.0687, 2365.526
255.5508, 2396.275
256.0329, 2412.289
256.5150, 2420.634
256.9971, 2442.101
257.4792, 2483.091
257.9614, 2526.295
258.4435, 2561.928
258.9256, 2582.892
259.4077, 2616.136
259.8898, 2665.444
260.3719, 2726.966
260.8541, 2790.754
261.3362, 2860.299
261.8183, 2926.371
262.3004, 2983.006
262.7825, 3024.280
263.2646, 3074.185
263.7468, 3137.568
264.2289, 3208.946
264.7110, 3268.379
265.1931, 3311.523
265.6752, 3351.851
266.1573, 3395.423
266.6395, 3439.870
267.1216, 3497.366
267.6037, 3575.936
268.0858, 3664.482
268.5679, 3728.605
269.0500, 3760.140
269.5321, 3785.386
270.0143, 3822.104
270.4964, 3875.469
270.9785, 3913.609
271.4606, 3932.019
271.9427, 3935.405
272.4248, 3937.362
272.9070, 3938.252
273.3891, 3936.679
273.8712, 3930.980
274.3533, 3920.480
274.8354, 3910.597
275.3175, 3901.052
275.7997, 3892.887
276.2818, 3888.980
276.7639, 3889.462
277.2460, 3893.424
277.7281, 3900.828
278.2102, 3911.793
278.6924, 3923.223
279.1745, 3933.496
279.6566, 3945.295
280.1387, 3966.452
280.6208, 3998.106
281.1029, 4031.960
281.5851, 4057.957
282.0672, 4076.073
282.5493, 4113.973
283.0314, 4176.618
283.5135, 4257.381
283.9956, 4341.922
284.4778, 4429.889
284.9599, 4526.303
285.4420, 4632.747
285.9241, 4749.610
286.4062, 4875.480
286.8883, 5006.258
287.3705, 5150.325
287.8526, 5322.422
288.3347, 5522.576
288.8168, 5745.394
289.2989, 5982.420
289.7810, 6236.610
290.2632, 6522.034
290.7453, 6839.415
291.2274, 7182.510
291.7095, 7541.692
292.1916, 7916.727
292.6737, 8306.971
293.1559, 8699.703
293.6380, 9101.982
294.1201, 9545.042
294.6022, 10035.51
295.0843, 10560.83
295.5664, 11111.41
296.0486, 11691.01
296.5307, 12300.84
297.0128, 12962.77
297.4949, 13659.84
297.9770, 14360.45
298.4591, 15068.63
298.9413, 15774.70
299.4234, 16480.83
299.9055, 17179.33
300.3876, 17815.36
300.8697, 18395.84
301.3518, 18883.35
301.8340, 19232.11
302.3161, 19440.77
302.7982, 19491.42
303.2803, 19348.37
303.7624, 19031.88
304.2445, 18591.79
304.7267, 17988.86
305.2088, 17311.28
305.6909, 16633.80
306.1730, 15966.29
306.6551, 15316.12
307.1372, 14690.97
307.6194, 14092.08
308.1015, 13534.38
308.5836, 13030.02
309.0657, 12566.12
309.5478, 12136.45
310.0299, 11743.48
310.5120, 11368.40
310.9941, 11006.25
311.4763, 10658.07
311.9584, 10320.23
312.4405, 10012.28
312.9226, 9701.170
313.4047, 9367.050
313.8868, 9004.256
314.3690, 8640.375
314.8511, 8287.832
315.3332, 7941.831
315.8153, 7598.338
316.2974, 7227.301
316.7795, 6877.444
317.2617, 6578.043
317.7438, 6327.482
318.2259, 6095.848
318.7080, 5871.525
319.1901, 5661.535
319.6722, 5472.101
320.1544, 5299.830
320.6365, 5152.337
321.1186, 5043.545
321.6007, 4970.225
322.0828, 4897.430
322.5649, 4804.824
323.0471, 4716.713
323.5292, 4650.037
324.0113, 4633.578
324.4934, 4610.150
324.9755, 4566.618
325.4576, 4506.072
325.9398, 4449.396
326.4219, 4399.133
326.9040, 4352.640
327.3861, 4308.503
327.8682, 4273.941
328.3503, 4232.969
328.8325, 4177.514
329.3146, 4114.129
329.7967, 4065.103
330.2788, 4043.020
330.7609, 4023.166
331.2430, 3994.454
331.7252, 3953.314
332.2073, 3909.817
332.6894, 3860.260
333.1715, 3808.729
333.6536, 3768.532
334.1357, 3746.442
334.6179, 3724.019
335.1000, 3693.058
335.5821, 3650.893
336.0642, 3608.751
336.5463, 3562.473
337.0284, 3519.221
337.5106, 3495.240
337.9927, 3498.449
338.4748, 3497.079
338.9569, 3475.656
339.4390, 3431.901
339.9211, 3400.748
340.4033, 3385.280
340.8854, 3377.344
341.3675, 3367.148
341.8496, 3354.611
342.3317, 3339.759
342.8138, 3321.125
343.2960, 3299.792
343.7781, 3281.331
344.2602, 3265.485
344.7423, 3254.777
345.2244, 3253.942
345.7065, 3262.371
346.1887, 3272.373
346.6708, 3283.457
347.1529, 3293.798
347.6350, 3296.105
348.1171, 3290.050
348.5992, 3284.569
349.0814, 3290.822
349.5635, 3304.438
350.0456, 3311.444
350.5277, 3303.993
351.0098, 3293.010
351.4919, 3294.993
351.9740, 3308.868
352.4561, 3326.157
352.9383, 3343.403
353.4204, 3359.599
353.9025, 3373.223
354.3846, 3384.113
354.8667, 3392.344
355.3488, 3397.719
355.8310, 3400.548
356.3131, 3401.630
356.7952, 3399.395
357.2773, 3396.766
357.7594, 3395.487
358.2415, 3394.673
358.7237, 3399.281
359.2058, 3416.895
359.6879, 3441.594
360.1700, 3462.749
360.6521, 3473.308
361.1342, 3481.033
361.6164, 3491.427
362.0985, 3506.079
362.5806, 3515.755
363.0627, 3511.714
363.5448, 3502.691
364.0269, 3498.889
364.5091, 3506.816
364.9912, 3516.547
365.4733, 3525.405
365.9554, 3533.323
366.4375, 3541.040
366.9196, 3548.290
367.4018, 3555.687
367.8839, 3563.781
368.3660, 3585.068
368.8481, 3592.758
369.3302, 3576.180
369.8123, 3539.150
370.2945, 3516.392
370.7766, 3521.906
371.2587, 3527.838
371.7408, 3517.338
372.2229, 3476.559
372.7050, 3446.561
373.1872, 3431.480
373.6693, 3427.729
374.1514, 3426.988
374.6335, 3435.817
375.1156, 3433.957
375.5977, 3406.724
376.0799, 3344.914
376.5620, 3304.004
377.0441, 3290.194
377.5262, 3288.691
378.0083, 3275.310
378.4904, 3248.835
378.9726, 3219.271
379.4547, 3189.844
379.9368, 3160.693
380.4189, 3127.939
380.9010, 3090.253
381.3831, 3056.525
381.8653, 3042.485
382.3474, 3044.848
382.8295, 3041.466
383.3116, 3021.454
383.7937, 2993.646
384.2758, 2978.350
384.7580, 2975.239
385.2401, 2971.230
385.7222, 2955.057
386.2043, 2930.254
386.6864, 2902.424
387.1685, 2867.032
387.6507, 2837.986
388.1328, 2837.744
388.6149, 2859.094
389.0970, 2874.779
389.5791, 2862.629
390.0612, 2840.413
390.5434, 2826.325
391.0255, 2825.514
391.5076, 2825.472
391.9897, 2818.164
392.4718, 2806.681
392.9539, 2796.417
393.4360, 2790.714
393.9182, 2786.073
394.4003, 2781.906
394.8824, 2778.685
395.3645, 2771.510
395.8466, 2754.005
396.3287, 2733.901
396.8109, 2718.809
397.2930, 2712.461
397.7751, 2708.871
398.2572, 2708.338
398.7393, 2710.614
399.2214, 2710.458
399.7036, 2708.526
400.1857, 2703.468
400.6678, 2694.113
401.1499, 2674.942
401.6320, 2660.532
402.1141, 2652.784
402.5963, 2650.001
403.0784, 2646.997
403.5605, 2643.416
404.0426, 2640.328
404.5247, 2637.076
405.0068, 2632.090
405.4890, 2636.343
405.9711, 2653.856
406.4532, 2674.686
406.9353, 2682.543
407.4174, 2675.822
407.8995, 2669.933
408.3817, 2670.635
408.8638, 2676.777
409.3459, 2680.822
409.8280, 2682.082
410.3101, 2686.649
410.7922, 2701.567
411.2744, 2725.312
411.7565, 2750.815
412.2386, 2775.423
412.7207, 2802.043
413.2028, 2833.824
413.6849, 2871.376
414.1671, 2916.737
414.6492, 2975.843
415.1313, 3042.289
415.6134, 3106.905
416.0955, 3166.228
416.5776, 3230.336
417.0598, 3309.462
417.5419, 3398.982
418.0240, 3491.089
418.5061, 3573.871
418.9882, 3663.424
419.4703, 3768.132
419.9525, 3889.750
420.4346, 4023.519
420.9167, 4174.427
421.3988, 4334.144
421.8809, 4498.663
422.3630, 4659.838
422.8452, 4831.629
423.3273, 5033.394
423.8094, 5257.687
424.2915, 5442.164
424.7736, 5600.738
425.2557, 5700.950
425.7379, 5727.534
426.2200, 5678.740
426.7021, 5556.545
427.1842, 5329.298
427.6663, 5037.893
428.1484, 4768.813
428.6306, 4521.339
429.1127, 4290.775
429.5948, 4071.275
430.0769, 3862.632
430.5590, 3680.138
431.0411, 3525.566
431.5233, 3396.216
432.0054, 3291.871
432.4875, 3212.979
432.9696, 3148.737
433.4517, 3101.044
433.9338, 3063.541
434.4159, 3015.419
434.8980, 2956.676
435.3802, 2903.254
435.8623, 2870.241
436.3444, 2851.745
436.8265, 2832.650
437.3086, 2810.014
437.7907, 2787.681
438.2729, 2770.489
438.7550, 2757.119
439.2371, 2743.972
439.7192, 2728.022
440.2013, 2712.118
440.6834, 2698.122
441.1656, 2686.178
441.6477, 2677.723
442.1298, 2675.314
442.6119, 2676.152
443.0940, 2677.230
443.5761, 2680.270
444.0583, 2680.774
444.5404, 2674.582
445.0225, 2663.458
445.5046, 2656.880
445.9867, 2662.699
446.4688, 2669.066
446.9510, 2669.287
447.4331, 2653.386
447.9152, 2648.482
448.3973, 2659.630
448.8794, 2679.903
449.3615, 2699.429
449.8437, 2721.806
450.3258, 2736.831
450.8079, 2739.652
451.2900, 2730.005
451.7721, 2722.576
452.2542, 2716.255
452.7364, 2714.609
453.2185, 2723.144
453.7006, 2742.391
454.1827, 2759.484
454.6648, 2771.676
455.1469, 2780.789
455.6291, 2788.929
456.1112, 2796.329
456.5933, 2807.614
457.0754, 2827.644
457.5575, 2853.412
458.0396, 2877.709
458.5218, 2900.364
459.0039, 2920.855
459.4860, 2935.231
459.9681, 2947.420
460.4502, 2964.881
460.9323, 2996.183
461.4145, 3029.654
461.8966, 3054.355
462.3787, 3071.737
462.8608, 3094.539
463.3429, 3133.722
463.8250, 3178.213
464.3072, 3218.984
464.7893, 3248.233
465.2714, 3284.182
465.7535, 3336.979
466.2356, 3399.100
466.7177, 3454.412
467.1999, 3490.478
467.6820, 3529.630
468.1641, 3577.358
468.6462, 3633.848
469.1283, 3698.436
469.6104, 3776.711
470.0926, 3857.214
470.5747, 3929.059
471.0568, 3986.131
471.5389, 4052.773
472.0210, 4135.244
472.5031, 4228.341
472.9853, 4310.132
473.4674, 4378.063
473.9495, 4456.821
474.4316, 4571.776
474.9137, 4714.242
475.3958, 4829.266
475.8779, 4913.256
476.3600, 4983.823
476.8422, 5059.066
477.3243, 5137.679
477.8064, 5214.932
478.2885, 5289.303
478.7706, 5360.557
479.2527, 5430.653
479.7349, 5498.372
480.2170, 5556.458
480.6991, 5599.991
481.1812, 5631.318
481.6633, 5650.773
482.1454, 5654.670
482.6276, 5655.509
483.1097, 5661.810
483.5918, 5667.232
484.0739, 5661.794
484.5560, 5644.423
485.0381, 5614.206
485.5203, 5566.314
486.0024, 5498.859
486.4845, 5438.185
486.9666, 5385.815
487.4487, 5339.249
487.9308, 5298.384
488.4130, 5271.171
488.8951, 5229.406
489.3772, 5165.046
489.8593, 5089.536
490.3414, 5030.818
490.8235, 4991.230
491.3057, 4954.324
491.7878, 4914.870
492.2699, 4872.540
492.7520, 4827.729
493.2341, 4780.716
493.7162, 4729.810
494.1984, 4668.007
494.6805, 4600.453
495.1626, 4546.414
495.6447, 4515.833
496.1268, 4490.554
496.6089, 4450.329
497.0911, 4397.696
497.5732, 4339.345
498.0553, 4271.719
498.5374, 4205.207
499.0195, 4151.909
499.5016, 4115.237
499.9838, 4072.497
500.4659, 4006.507
500.9480, 3934.389
501.4301, 3872.057
501.9122, 3837.475
502.3943, 3797.172
502.8765, 3739.718
503.3586, 3670.293
503.8407, 3612.688
504.3228, 3574.423
504.8049, 3538.452
505.2870, 3496.612
505.7692, 3445.758
506.2513, 3407.186
506.7334, 3388.809
507.2155, 3370.730
507.6976, 3323.845
508.1797, 3245.421
508.6619, 3176.115
509.1440, 3126.947
509.6261, 3091.858
510.1082, 3055.201
510.5903, 3017.445
511.0724, 2986.106
511.5546, 2975.131
512.0367, 2971.746
512.5188, 2949.844
513.0009, 2904.732
513.4830, 2857.547
513.9651, 2825.173
514.4473, 2802.235
514.9294, 2780.714
515.4115, 2757.865
515.8936, 2735.408
516.3757, 2714.434
516.8578, 2694.630
517.3400, 2673.713
517.8221, 2645.280
518.3042, 2620.175
518.7863, 2604.320
519.2684, 2602.658
519.7505, 2599.735
520.2327, 2598.509
520.7148, 2594.026
521.1969, 2579.302
521.6790, 2548.608
522.1611, 2521.519
522.6432, 2500.768
523.1254, 2486.495
523.6075, 2481.525
524.0896, 2487.256
524.5717, 2493.290
525.0538, 2494.068
525.5359, 2489.829
526.0181, 2480.487
526.5002, 2465.096
526.9823, 2449.712
527.4644, 2441.778
527.9465, 2438.845
528.4286, 2435.010
528.9108, 2427.769
529.3929, 2419.296
529.8750, 2412.640
530.3571, 2406.734
530.8392, 2397.765
531.3214, 2376.106
531.8035, 2356.601
532.2856, 2349.984
532.7677, 2361.700
533.2498, 2369.399
533.7319, 2368.432
534.2141, 2361.500
534.6962, 2350.889
535.1783, 2327.834
535.6604, 2314.705
536.1425, 2317.108
536.6246, 2330.792
537.1067, 2340.487
537.5888, 2345.573
538.0709, 2348.179
538.5530, 2349.693
539.0352, 2350.042
539.5173, 2344.895
539.9994, 2333.117
540.4815, 2321.344
540.9636, 2317.981
541.4457, 2320.814
541.9279, 2321.259
542.4100, 2314.781
542.8921, 2309.086
543.3742, 2316.014
543.8563, 2331.866
544.3384, 2345.751
544.8206, 2351.447
545.3027, 2353.553
545.7848, 2354.557
546.2669, 2354.607
546.7490, 2355.014
547.2311, 2354.606
547.7133, 2355.746
548.1954, 2360.245
548.6775, 2375.401
549.1596, 2384.790
549.6417, 2383.617
550.1238, 2377.543
550.6060, 2379.581
551.0881, 2396.699
551.5702, 2406.556
552.0523, 2399.645
552.5344, 2377.999
553.0165, 2364.120
553.4987, 2358.643
553.9808, 2357.514
554.4629, 2356.767
554.9450, 2357.339
555.4271, 2365.945
555.9092, 2385.912
556.3914, 2404.698
556.8735, 2405.007
557.3556, 2392.784
557.8377, 2381.167
558.3198, 2372.737
558.8019, 2369.438
559.2841, 2377.908
559.7662, 2395.112
560.2483, 2404.207
560.7304, 2387.836
561.2125, 2369.516
561.6946, 2363.142
562.1768, 2375.252
562.6589, 2386.187
563.1410, 2393.928
563.6231, 2400.266
564.1052, 2407.667
564.5873, 2418.944
565.0695, 2424.124
565.5516, 2419.307
566.0337, 2408.502
566.5158, 2403.131
566.9979, 2402.801
567.4800, 2410.955
567.9622, 2437.457
568.4443, 2474.892
568.9264, 2490.796
569.4085, 2484.261
569.8906, 2473.839
570.3727, 2473.520
570.8549, 2480.868
571.3370, 2493.040
571.8191, 2512.420
572.3012, 2529.737
572.7833, 2537.049
573.2654, 2538.155
573.7476, 2539.874
574.2297, 2542.221
574.7118, 2547.801
575.1939, 2557.298
575.6760, 2570.892
576.1581, 2588.869
576.6403, 2617.637
577.1224, 2644.167
577.6045, 2659.812
578.0866, 2657.640
578.5687, 2670.177
579.0508, 2702.425
579.5330, 2740.135
580.0151, 2762.992
580.4972, 2771.205
580.9793, 2784.259
581.4614, 2807.744
581.9435, 2838.218
582.4257, 2867.608
582.9078, 2897.105
583.3899, 2932.089
583.8720, 2976.559
584.3541, 3027.248
584.8362, 3082.863
585.3184, 3143.125
585.8005, 3203.723
586.2826, 3260.258
586.7647, 3317.318
587.2468, 3379.054
587.7289, 3442.997
588.2111, 3516.389
588.6932, 3603.177
589.1753, 3699.058
589.6574, 3797.072
590.1395, 3892.964
590.6216, 4000.041
591.1038, 4123.442
591.5859, 4261.199
592.0680, 4400.979
592.5501, 4541.583
593.0322, 4692.094
593.5143, 4857.219
593.9965, 5036.970
594.4786, 5230.853
594.9607, 5437.575
595.4428, 5661.987
595.9249, 5907.452
596.4070, 6175.832
596.8892, 6471.449
597.3713, 6805.188
597.8534, 7153.468
598.3355, 7492.824
598.8176, 7837.602
599.2997, 8216.899
599.7819, 8671.358
600.2640, 9124.717
600.7461, 9577.260
601.2282, 10030.71
601.7103, 10377.31
602.1924, 10622.72
602.6746, 10753.31
603.1567, 10755.55
603.6388, 10623.69
604.1209, 10393.28
604.6030, 10058.62
605.0851, 9638.604
605.5673, 9129.477
606.0494, 8541.542
606.5315, 7981.681
607.0136, 7461.896
607.4957, 6989.929
607.9778, 6569.683
608.4600, 6201.136
608.9421, 5870.735
609.4242, 5577.033
609.9063, 5319.537
610.3884, 5103.767
610.8705, 4927.408
611.3527, 4771.575
611.8348, 4631.199
612.3169, 4507.849
612.7990, 4404.238
613.2811, 4329.321
613.7632, 4248.988
614.2454, 4154.219
614.7275, 4064.378
615.2096, 4008.919
