##NAMES=Amblygonite
##RRUFFID=R040067
##IDEAL CHEMISTRY=LiAlPO_4_F
##LOCALITY=Montebras, France
##OWNER=RRUFF
##SOURCE=University of Arizona Mineral Museum
##DESCRIPTION=Pale blue fine-grained massive
##STATUS=The identification of this mineral has been confirmed by X-ray diffraction and chemical analysis
##URL=rruff.info/R040067
##MEASURED CHEMISTRY=(Li_0.76_Na_0.24_)Al(PO_4_)(F_0.80_(OH)_0.20_)
116.2188, 1438.409
116.7010, 1579.799
117.1831, 1719.882
117.6652, 1846.570
118.1473, 1969.087
118.6294, 2099.073
119.1115, 2244.008
119.5937, 2395.424
120.0758, 2547.667
120.5579, 2695.889
121.0400, 2854.588
121.5221, 3039.001
122.0042, 3242.139
122.4864, 3442.512
122.9685, 3623.245
123.4506, 3795.641
123.9327, 3975.229
124.4148, 4175.118
124.8969, 4372.709
125.3791, 4545.526
125.8612, 4692.835
126.3433, 4823.231
126.8254, 4937.162
127.3075, 5038.468
127.7896, 5136.649
128.2718, 5240.521
128.7539, 5342.440
129.2360, 5426.094
129.7181, 5490.129
130.2002, 5540.793
130.6823, 5581.910
131.1645, 5614.331
131.6466, 5645.554
132.1287, 5682.043
132.6108, 5721.790
133.0929, 5749.010
133.5750, 5758.378
134.0572, 5762.381
134.5393, 5786.958
135.0214, 5833.351
135.5035, 5886.760
135.9856, 5938.790
136.4677, 5989.668
136.9498, 6039.019
137.4320, 6085.456
137.9141, 6131.365
138.3962, 6185.517
138.8783, 6250.279
139.3604, 6319.750
139.8425, 6389.305
140.3247, 6461.418
140.8068, 6527.679
141.2889, 6585.869
141.7710, 6636.021
142.2531, 6685.405
142.7352, 6735.622
143.2174, 6784.128
143.6995, 6828.570
144.1816, 6868.349
144.6637, 6903.608
145.1458, 6932.830
145.6279, 6952.604
146.1101, 6975.308
146.5922, 7001.705
147.0743, 7030.438
147.5564, 7059.445
148.0385, 7093.791
148.5206, 7123.135
149.0028, 7142.964
149.4849, 7149.078
149.9670, 7151.571
150.4491, 7148.454
150.9312, 7141.184
151.4133, 7137.616
151.8955, 7136.725
152.3776, 7141.073
152.8597, 7152.289
153.3418, 7176.573
153.8239, 7202.068
154.3060, 7226.954
154.7882, 7250.905
155.2703, 7278.336
155.7524, 7310.280
156.2345, 7345.854
156.7166, 7383.784
157.1987, 7423.458
157.6808, 7465.226
158.1630, 7508.004
158.6451, 7549.666
159.1272, 7597.441
159.6093, 7658.400
160.0914, 7724.957
160.5735, 7785.799
161.0557, 7837.774
161.5378, 7881.976
162.0199, 7919.235
162.5020, 7949.808
162.9841, 7971.647
163.4662, 7978.862
163.9484, 7976.061
164.4305, 7974.744
164.9126, 7982.545
165.3947, 7992.960
165.8768, 8000.852
166.3589, 8003.243
166.8411, 8005.936
167.3232, 8015.367
167.8053, 8029.753
168.2874, 8039.646
168.7695, 8033.858
169.2516, 8022.708
169.7338, 8017.983
170.2159, 8029.790
170.6980, 8045.163
171.1801, 8052.734
171.6622, 8052.869
172.1443, 8052.962
172.6265, 8054.289
173.1086, 8059.532
173.5907, 8073.236
174.0728, 8107.911
174.5549, 8147.246
175.0370, 8169.365
175.5192, 8171.902
176.0013, 8171.965
176.4834, 8184.377
176.9655, 8206.789
177.4476, 8232.300
177.9297, 8268.129
178.4118, 8302.881
178.8940, 8310.104
179.3761, 8280.967
179.8582, 8248.563
180.3403, 8256.420
180.8224, 8298.709
181.3046, 8345.286
181.7867, 8382.211
182.2688, 8409.987
182.7509, 8428.543
183.2330, 8436.261
183.7151, 8437.681
184.1973, 8440.176
184.6794, 8443.479
185.1615, 8444.628
185.6436, 8435.356
186.1257, 8420.005
186.6078, 8418.102
187.0900, 8436.549
187.5721, 8468.504
188.0542, 8503.175
188.5363, 8541.393
189.0184, 8573.253
189.5005, 8588.043
189.9827, 8587.179
190.4648, 8583.955
190.9469, 8580.533
191.4290, 8577.743
191.9111, 8579.209
192.3932, 8585.749
192.8754, 8592.861
193.3575, 8597.688
193.8396, 8600.328
194.3217, 8594.777
194.8038, 8567.326
195.2859, 8524.667
195.7681, 8530.384
196.2502, 8596.694
196.7323, 8678.659
197.2144, 8711.497
197.6965, 8691.595
198.1786, 8665.524
198.6607, 8649.342
199.1429, 8643.063
199.6250, 8647.077
200.1071, 8662.971
200.5892, 8686.286
201.0713, 8711.083
201.5534, 8738.011
202.0356, 8761.390
202.5177, 8775.857
202.9998, 8779.616
203.4819, 8788.488
203.9640, 8803.581
204.4461, 8822.957
204.9283, 8843.371
205.4104, 8865.866
205.8925, 8885.389
206.3746, 8897.655
206.8567, 8900.782
207.3388, 8907.941
207.8210, 8923.050
208.3031, 8942.060
208.7852, 8947.723
209.2673, 8933.788
209.7494, 8922.708
210.2315, 8933.343
210.7137, 8974.604
211.1958, 9004.457
211.6779, 9013.760
212.1600, 9007.347
212.6421, 9011.163
213.1242, 9029.483
213.6064, 9050.366
214.0885, 9063.247
214.5706, 9064.438
215.0527, 9068.398
215.5348, 9079.234
216.0169, 9095.541
216.4991, 9102.402
216.9812, 9093.039
217.4633, 9082.854
217.9454, 9088.276
218.4275, 9118.521
218.9096, 9141.178
219.3917, 9146.938
219.8739, 9135.356
220.3560, 9134.407
220.8381, 9149.877
221.3202, 9169.907
221.8023, 9181.273
222.2844, 9179.639
222.7666, 9179.220
223.2487, 9183.279
223.7308, 9192.147
224.2129, 9204.729
224.6950, 9224.467
225.1771, 9244.933
225.6593, 9255.691
226.1414, 9247.879
226.6235, 9246.953
227.1056, 9263.774
227.5877, 9305.234
228.0698, 9327.727
228.5520, 9322.872
229.0341, 9305.053
229.5162, 9294.982
229.9983, 9291.283
230.4804, 9298.024
230.9625, 9321.314
231.4447, 9372.350
231.9268, 9398.541
232.4089, 9387.762
232.8910, 9359.190
233.3731, 9347.938
233.8552, 9361.894
234.3374, 9380.774
234.8195, 9397.883
235.3016, 9413.181
235.7837, 9427.114
236.2658, 9439.181
236.7479, 9450.248
237.2301, 9463.024
237.7122, 9482.755
238.1943, 9496.486
238.6764, 9496.410
239.1585, 9467.793
239.6406, 9460.934
240.1227, 9488.300
240.6049, 9534.203
241.0870, 9556.532
241.5691, 9536.797
242.0512, 9519.854
242.5333, 9527.132
243.0154, 9574.632
243.4976, 9610.614
243.9797, 9630.148
244.4618, 9637.771
244.9439, 9648.405
245.4260, 9665.723
245.9081, 9679.982
246.3903, 9684.313
246.8724, 9667.394
247.3545, 9666.164
247.8366, 9691.398
248.3187, 9732.354
248.8008, 9752.494
249.2830, 9743.956
249.7651, 9726.627
250.2472, 9709.717
250.7293, 9689.769
251.2114, 9679.677
251.6935, 9683.157
252.1757, 9697.488
252.6578, 9712.702
253.1399, 9732.681
253.6220, 9748.300
254.1041, 9752.517
254.5862, 9736.846
255.0684, 9729.848
255.5505, 9732.399
256.0326, 9744.965
256.5147, 9771.428
256.9968, 9821.583
257.4789, 9870.072
257.9611, 9897.199
258.4432, 9888.406
258.9253, 9896.691
259.4074, 9930.520
259.8895, 9984.789
260.3716, 10035.47
260.8538, 10083.10
261.3359, 10125.49
261.8180, 10161.77
262.3001, 10194.77
262.7822, 10212.28
263.2643, 10206.85
263.7465, 10184.99
264.2286, 10177.58
264.7107, 10187.85
265.1928, 10206.73
265.6749, 10232.03
266.1570, 10270.70
266.6392, 10291.00
267.1213, 10281.66
267.6034, 10252.32
268.0855, 10248.07
268.5676, 10277.34
269.0497, 10313.11
269.5318, 10337.44
270.0139, 10347.87
270.4961, 10357.53
270.9782, 10367.39
271.4603, 10378.00
271.9424, 10391.15
272.4245, 10406.35
272.9066, 10425.57
273.3888, 10456.68
273.8709, 10505.28
274.3530, 10526.01
274.8351, 10502.38
275.3172, 10450.14
275.7993, 10429.40
276.2815, 10445.86
276.7636, 10473.49
277.2457, 10494.70
277.7278, 10508.75
278.2099, 10522.42
278.6920, 10535.47
279.1742, 10549.08
279.6563, 10566.58
280.1384, 10587.98
280.6205, 10613.87
281.1026, 10648.99
281.5847, 10693.68
282.0669, 10726.89
282.5490, 10742.62
283.0311, 10748.16
283.5132, 10762.91
283.9953, 10787.86
284.4774, 10815.05
284.9596, 10835.55
285.4417, 10850.58
285.9238, 10877.45
286.4059, 10920.30
286.8880, 10974.16
287.3701, 11028.81
287.8523, 11083.73
288.3344, 11140.79
288.8165, 11199.85
289.2986, 11261.25
289.7807, 11326.71
290.2628, 11397.21
290.7450, 11470.64
291.2271, 11537.47
291.7092, 11598.65
292.1913, 11670.72
292.6734, 11777.69
293.1555, 11907.38
293.6377, 12010.69
294.1198, 12074.83
294.6019, 12127.87
295.0840, 12218.26
295.5661, 12341.72
296.0482, 12460.77
296.5304, 12537.86
297.0125, 12593.01
297.4946, 12686.07
297.9767, 12834.30
298.4588, 12991.23
298.9409, 13095.22
299.4231, 13153.01
299.9052, 13201.11
300.3873, 13264.61
300.8694, 13330.02
301.3515, 13373.57
301.8336, 13390.13
302.3158, 13389.14
302.7979, 13381.27
303.2800, 13363.58
303.7621, 13328.45
304.2442, 13262.60
304.7263, 13180.27
305.2085, 13097.78
305.6906, 13018.32
306.1727, 12933.93
306.6548, 12831.68
307.1369, 12719.52
307.6190, 12611.69
308.1012, 12507.85
308.5833, 12418.17
309.0654, 12357.20
309.5475, 12331.25
310.0296, 12300.85
310.5117, 12230.17
310.9938, 12137.89
311.4760, 12055.19
311.9581, 11996.01
312.4402, 11949.48
312.9223, 11908.50
313.4044, 11872.29
313.8865, 11844.14
314.3687, 11841.82
314.8508, 11844.78
315.3329, 11826.55
315.8150, 11756.78
316.2971, 11680.73
316.7792, 11618.75
317.2614, 11571.60
317.7435, 11537.79
318.2256, 11518.20
318.7077, 11511.28
319.1898, 11515.43
319.6719, 11551.58
320.1541, 11578.61
320.6362, 11578.10
321.1183, 11550.25
321.6004, 11522.47
322.0825, 11499.46
322.5646, 11479.83
323.0468, 11462.52
323.5289, 11446.32
324.0110, 11433.21
324.4931, 11421.04
324.9752, 11410.60
325.4573, 11410.20
325.9395, 11437.99
326.4216, 11464.80
326.9037, 11473.48
327.3858, 11444.78
327.8679, 11419.28
328.3500, 11398.62
328.8322, 11383.04
329.3143, 11372.52
329.7964, 11369.86
330.2785, 11370.13
330.7606, 11370.89
331.2427, 11369.46
331.7249, 11373.92
332.2070, 11392.61
332.6891, 11416.93
333.1712, 11418.86
333.6533, 11384.15
334.1354, 11347.91
334.6176, 11325.17
335.0997, 11319.88
335.5818, 11317.94
336.0639, 11320.20
336.5460, 11324.92
337.0281, 11326.63
337.5103, 11320.59
337.9924, 11323.45
338.4745, 11349.77
338.9566, 11406.59
339.4387, 11422.59
339.9208, 11383.63
340.4030, 11326.25
340.8851, 11308.58
341.3672, 11336.81
341.8493, 11362.31
342.3314, 11366.37
342.8135, 11351.43
343.2957, 11342.17
343.7778, 11339.60
344.2599, 11341.03
344.7420, 11343.37
345.2241, 11346.84
345.7062, 11352.75
346.1884, 11358.17
346.6705, 11367.06
347.1526, 11399.58
347.6347, 11456.98
348.1168, 11506.70
348.5989, 11508.67
349.0811, 11474.92
349.5632, 11448.00
350.0453, 11439.66
350.5274, 11442.87
351.0095, 11449.50
351.4916, 11459.00
351.9737, 11467.43
352.4558, 11469.85
352.9380, 11469.81
353.4201, 11473.78
353.9022, 11484.48
354.3843, 11497.80
354.8664, 11512.05
355.3485, 11526.41
355.8307, 11537.74
356.3128, 11542.30
356.7949, 11544.09
357.2770, 11546.05
357.7591, 11547.40
358.2412, 11553.16
358.7234, 11576.33
359.2055, 11605.66
359.6876, 11619.52
360.1697, 11585.03
360.6518, 11549.57
361.1339, 11542.83
361.6161, 11571.96
362.0982, 11604.23
362.5803, 11634.90
363.0624, 11658.74
363.5445, 11669.25
364.0266, 11647.48
364.5088, 11628.29
364.9909, 11626.79
365.4730, 11644.66
365.9551, 11656.56
366.4372, 11650.29
366.9193, 11640.93
367.4015, 11640.55
367.8836, 11658.71
368.3657, 11676.89
368.8478, 11689.54
369.3299, 11698.30
369.8120, 11718.25
370.2942, 11767.87
370.7763, 11811.54
371.2584, 11827.88
371.7405, 11794.06
372.2226, 11772.68
372.7047, 11766.83
373.1869, 11774.28
373.6690, 11791.12
374.1511, 11824.04
374.6332, 11852.55
375.1153, 11863.22
375.5974, 11847.54
376.0796, 11854.37
376.5617, 11894.59
377.0438, 11944.25
377.5259, 11964.28
378.0080, 11951.09
378.4901, 11930.75
378.9723, 11909.74
379.4544, 11889.09
379.9365, 11880.41
380.4186, 11886.06
380.9007, 11896.07
381.3828, 11897.75
381.8650, 11892.44
382.3471, 11890.30
382.8292, 11891.89
383.3113, 11899.88
383.7934, 11927.17
384.2755, 11973.26
384.7577, 12012.68
385.2398, 12016.55
385.7219, 11998.17
386.2040, 11986.82
386.6861, 11987.26
387.1682, 11998.63
387.6504, 12028.67
388.1325, 12071.70
388.6146, 12104.69
389.0967, 12105.15
389.5788, 12093.63
390.0609, 12093.91
390.5431, 12114.18
391.0252, 12130.27
391.5073, 12123.63
391.9894, 12103.08
392.4715, 12084.01
392.9536, 12069.80
393.4357, 12062.03
393.9178, 12064.50
394.4000, 12078.64
394.8821, 12089.53
395.3642, 12088.03
395.8463, 12082.65
396.3284, 12081.51
396.8105, 12089.18
397.2927, 12097.68
397.7748, 12103.22
398.2569, 12106.20
398.7390, 12115.50
399.2211, 12133.00
399.7032, 12155.93
400.1854, 12183.98
400.6675, 12241.24
401.1496, 12266.25
401.6317, 12237.32
402.1138, 12178.78
402.5959, 12156.90
403.0781, 12187.58
403.5602, 12228.16
404.0423, 12263.92
404.5244, 12295.98
405.0065, 12316.99
405.4886, 12324.44
405.9708, 12324.65
406.4529, 12321.81
406.9350, 12312.96
407.4171, 12321.92
407.8992, 12362.73
408.3813, 12428.83
408.8635, 12481.42
409.3456, 12519.73
409.8277, 12549.12
410.3098, 12564.13
410.7919, 12570.48
411.2740, 12600.08
411.7562, 12665.78
412.2383, 12751.03
412.7204, 12827.72
413.2025, 12897.50
413.6846, 12966.82
414.1667, 13039.68
414.6489, 13113.96
415.1310, 13187.77
415.6131, 13261.30
416.0952, 13329.06
416.5773, 13371.21
417.0594, 13403.79
417.5416, 13456.03
418.0237, 13556.28
418.5058, 13669.91
418.9879, 13774.39
419.4700, 13869.28
419.9521, 13961.10
420.4343, 14045.60
420.9164, 14133.02
421.3985, 14233.96
421.8806, 14380.48
422.3627, 14510.62
422.8448, 14612.59
423.3270, 14686.76
423.8091, 14741.20
424.2912, 14772.85
424.7733, 14787.28
425.2554, 14789.34
425.7375, 14793.73
426.2197, 14758.90
426.7018, 14681.05
427.1839, 14564.54
427.6660, 14413.29
428.1481, 14204.28
428.6302, 13997.93
429.1124, 13805.23
429.5945, 13625.93
430.0766, 13483.74
430.5587, 13386.86
431.0408, 13312.36
431.5229, 13232.77
432.0051, 13145.94
432.4872, 13090.29
432.9693, 13086.18
433.4514, 13108.95
433.9335, 13085.46
434.4156, 13015.58
434.8977, 12947.61
435.3799, 12920.35
435.8620, 12921.40
436.3441, 12912.57
436.8262, 12886.70
437.3083, 12861.33
437.7904, 12854.31
438.2726, 12863.30
438.7547, 12882.22
439.2368, 12933.17
439.7189, 12977.03
440.2010, 12963.51
440.6831, 12892.09
441.1653, 12828.34
441.6474, 12812.18
442.1295, 12822.85
442.6116, 12839.76
443.0937, 12864.45
443.5758, 12886.22
444.0580, 12900.84
444.5401, 12909.46
445.0222, 12916.26
445.5043, 12922.65
445.9864, 12927.59
446.4685, 12930.17
446.9507, 12927.87
447.4328, 12929.18
447.9149, 12933.73
448.3970, 12942.27
448.8791, 12957.22
449.3612, 12988.38
449.8434, 13008.68
450.3255, 13008.04
450.8076, 12987.52
451.2897, 12976.04
451.7718, 12974.35
452.2539, 12979.79
452.7361, 12989.71
453.2182, 13003.80
453.7003, 13029.65
454.1824, 13076.11
454.6645, 13123.63
455.1466, 13120.49
455.6288, 13068.17
456.1109, 13033.09
456.5930, 13068.01
457.0751, 13145.45
457.5572, 13195.11
458.0393, 13213.43
458.5215, 13215.46
459.0036, 13209.42
459.4857, 13197.94
459.9678, 13185.14
460.4499, 13159.60
460.9320, 13146.51
461.4142, 13175.51
461.8963, 13238.88
462.3784, 13301.19
462.8605, 13348.50
463.3426, 13385.38
463.8247, 13413.16
464.3069, 13428.55
464.7890, 13443.89
465.2711, 13463.38
465.7532, 13484.70
466.2353, 13504.78
466.7174, 13535.37
467.1996, 13551.55
467.6817, 13535.50
468.1638, 13484.35
468.6459, 13468.09
469.1280, 13503.54
469.6101, 13555.13
470.0923, 13598.73
470.5744, 13628.46
471.0565, 13666.91
471.5386, 13722.80
472.0207, 13783.06
472.5028, 13813.09
472.9850, 13809.28
473.4671, 13800.77
473.9492, 13801.82
474.4313, 13810.74
474.9134, 13811.51
475.3955, 13803.36
475.8776, 13795.45
476.3597, 13790.34
476.8419, 13792.74
477.3240, 13820.27
477.8061, 13893.41
478.2882, 13973.90
478.7703, 14011.21
479.2524, 14013.34
479.7346, 14013.01
480.2167, 14025.48
480.6988, 14045.85
481.1809, 14071.08
481.6630, 14101.48
482.1451, 14130.44
482.6273, 14159.77
483.1094, 14183.48
483.5915, 14194.01
484.0736, 14166.12
484.5557, 14148.28
485.0378, 14162.06
485.5200, 14204.25
486.0021, 14225.89
486.4842, 14213.32
486.9663, 14192.12
487.4484, 14174.36
487.9305, 14162.20
488.4127, 14150.69
488.8948, 14140.43
489.3769, 14131.34
489.8590, 14122.67
490.3411, 14114.35
490.8232, 14108.62
491.3054, 14107.89
491.7875, 14110.44
492.2696, 14107.51
492.7517, 14098.88
493.2338, 14084.80
493.7159, 14062.64
494.1981, 14034.57
494.6802, 14004.27
495.1623, 13967.93
495.6444, 13941.87
496.1265, 13961.15
496.6086, 14007.31
497.0908, 14032.50
497.5729, 13993.42
498.0550, 13939.08
498.5371, 13910.38
499.0192, 13908.39
499.5013, 13903.36
499.9835, 13867.95
500.4656, 13831.55
500.9477, 13818.14
501.4298, 13859.44
501.9119, 13887.03
502.3940, 13870.80
502.8762, 13833.04
503.3583, 13829.01
503.8404, 13906.83
504.3225, 13959.94
504.8046, 13948.66
505.2867, 13866.05
505.7689, 13814.45
506.2510, 13801.11
506.7331, 13807.49
507.2152, 13821.13
507.6973, 13843.33
508.1794, 13863.55
508.6616, 13883.66
509.1437, 13896.84
509.6258, 13879.28
510.1079, 13833.97
510.5900, 13801.61
511.0721, 13816.72
511.5543, 13856.51
512.0364, 13875.42
512.5185, 13872.36
513.0006, 13860.30
513.4827, 13836.12
513.9648, 13813.39
514.4470, 13812.73
514.9291, 13855.38
515.4112, 13896.58
515.8933, 13911.44
516.3754, 13906.17
516.8575, 13895.88
517.3397, 13866.64
517.8218, 13849.88
518.3039, 13864.93
518.7860, 13921.20
519.2681, 13960.06
519.7502, 13974.34
520.2324, 13973.71
520.7145, 13963.24
521.1966, 13933.76
521.6787, 13915.96
522.1608, 13917.45
522.6429, 13929.20
523.1251, 13924.26
523.6072, 13897.74
524.0893, 13881.92
524.5714, 13896.80
525.0535, 13935.91
525.5356, 13961.62
526.0178, 13973.58
526.4999, 13977.54
526.9820, 13975.70
527.4641, 13970.00
527.9462, 13964.30
528.4283, 13957.99
528.9105, 13955.01
529.3926, 13964.54
529.8747, 13980.43
530.3568, 13988.44
530.8389, 13967.90
531.3210, 13949.26
531.8032, 13956.23
532.2853, 13990.96
532.7674, 14012.83
533.2495, 13996.21
533.7316, 13972.38
534.2137, 13962.87
534.6959, 13991.24
535.1780, 14003.55
535.6601, 13988.85
536.1422, 13962.97
536.6243, 13957.53
537.1064, 13980.88
537.5885, 14003.14
538.0706, 14014.25
538.5527, 14015.74
539.0349, 14022.39
539.5170, 14034.42
539.9991, 14048.72
540.4812, 14061.16
540.9633, 14073.20
541.4454, 14093.12
541.9276, 14124.33
542.4097, 14154.12
542.8918, 14165.37
543.3739, 14163.82
543.8560, 14162.63
544.3381, 14171.27
544.8203, 14179.26
545.3024, 14177.39
545.7845, 14167.18
546.2666, 14158.38
546.7487, 14153.91
547.2308, 14153.21
547.7130, 14156.37
548.1951, 14164.96
548.6772, 14174.13
549.1593, 14185.32
549.6414, 14196.08
550.1235, 14202.79
550.6057, 14199.77
551.0878, 14205.32
551.5699, 14227.94
552.0520, 14260.19
552.5341, 14267.87
553.0162, 14245.51
553.4984, 14227.85
553.9805, 14244.57
554.4626, 14286.48
554.9447, 14292.56
555.4268, 14257.65
555.9089, 14222.80
556.3911, 14236.72
556.8732, 14280.47
557.3553, 14313.82
557.8374, 14323.84
558.3195, 14324.51
558.8016, 14320.50
559.2838, 14315.57
559.7659, 14318.73
560.2480, 14349.65
560.7301, 14375.39
561.2122, 14374.63
561.6943, 14343.38
562.1765, 14324.67
562.6586, 14323.81
563.1407, 14337.42
563.6228, 14366.05
564.1049, 14423.21
564.5870, 14465.38
565.0692, 14489.75
565.5513, 14499.99
566.0334, 14499.21
566.5155, 14485.03
566.9976, 14475.71
567.4797, 14475.63
567.9619, 14484.86
568.4440, 14512.74
568.9261, 14557.60
569.4082, 14587.75
569.8903, 14564.64
570.3724, 14517.63
570.8546, 14493.81
571.3367, 14500.29
571.8188, 14515.36
572.3009, 14524.32
572.7830, 14532.48
573.2651, 14546.23
573.7473, 14585.95
574.2294, 14611.83
574.7115, 14600.31
575.1936, 14564.24
575.6757, 14543.95
576.1578, 14553.69
576.6400, 14568.54
577.1221, 14582.29
577.6042, 14595.03
578.0863, 14607.66
578.5684, 14619.12
579.0505, 14632.53
579.5327, 14652.95
580.0148, 14680.50
580.4969, 14698.91
580.9790, 14703.82
581.4611, 14705.91
581.9432, 14723.39
582.4254, 14751.95
582.9075, 14776.27
583.3896, 14787.35
583.8717, 14793.03
584.3538, 14800.07
584.8359, 14808.41
585.3181, 14818.34
585.8002, 14824.97
586.2823, 14836.87
586.7644, 14861.82
587.2465, 14904.16
587.7286, 14943.73
588.2108, 14978.04
588.6929, 15007.32
589.1750, 15031.68
589.6571, 15048.43
590.1392, 15064.94
590.6213, 15079.75
591.1035, 15096.24
591.5856, 15127.18
592.0677, 15177.48
592.5498, 15210.72
593.0319, 15199.46
593.5140, 15163.21
593.9962, 15177.44
594.4783, 15241.14
594.9604, 15313.66
595.4425, 15369.26
595.9246, 15412.11
596.4067, 15446.81
596.8889, 15472.09
597.3710, 15500.41
597.8531, 15540.67
598.3352, 15588.19
598.8173, 15637.77
599.2994, 15691.10
599.7816, 15742.77
600.2637, 15798.84
600.7458, 15852.46
601.2279, 15881.25
601.7100, 15865.22
602.1921, 15852.70
602.6743, 15862.32
603.1564, 15893.20
603.6385, 15906.28
604.1206, 15899.87
604.6027, 15880.67
605.0848, 15842.00
605.5670, 15789.95
606.0491, 15772.68
606.5312, 15800.52
607.0133, 15835.08
607.4954, 15831.72
607.9775, 15802.77
608.4597, 15773.30
608.9418, 15744.49
609.4239, 15727.26
609.9060, 15736.70
610.3881, 15764.35
610.8702, 15786.59
611.3524, 15781.52
611.8345, 15782.80
612.3166, 15810.48
612.7987, 15870.02
