##NAMES=Ameghinite
##RRUFFID=R060643
##IDEAL CHEMISTRY=NaB_3_O_3_(OH)_4_
##LOCALITY=Tinkalayu mine, Salar del Hombre Muerto, Salta province, Argentina
##OWNER=RRUFF
##SOURCE=Michael Scott
##DESCRIPTION=Colorless glassy
##STATUS=The identification of this mineral has been confirmed by single-crystal X-ray diffraction.
##URL=rruff.info/R060643
104.647, 597.356
105.130, 628.178
105.612, 655.856
106.094, 684.875
106.576, 709.105
107.058, 737.500
107.540, 782.449
108.022, 849.130
108.504, 926.849
108.986, 1011.012
109.468, 1094.926
109.951, 1198.233
110.433, 1316.283
110.915, 1454.113
111.397, 1619.814
111.879, 1814.600
112.361, 1891.530
112.843, 1990.561
113.326, 2084.244
113.808, 2172.834
114.290, 2241.145
114.772, 2335.640
115.254, 2419.643
115.736, 2503.233
116.218, 2601.416
116.700, 2672.676
117.182, 2770.627
117.664, 2855.972
118.147, 2884.301
118.629, 2962.501
119.111, 3033.588
119.593, 3062.491
120.075, 3063.604
120.557, 3061.730
121.039, 3056.194
121.521, 3058.821
122.004, 3080.193
122.486, 3123.549
122.968, 3182.704
123.450, 3252.600
123.932, 3334.067
124.414, 3426.966
124.896, 3547.190
125.378, 3677.282
125.860, 3785.910
126.343, 3859.506
126.825, 3913.427
127.307, 3972.105
127.789, 4034.993
128.271, 4085.477
128.753, 4085.203
129.235, 4052.244
129.717, 4053.592
130.200, 4101.976
130.682, 4204.063
131.164, 4377.105
131.646, 4622.498
132.128, 4939.001
132.610, 5375.995
133.092, 5931.016
133.574, 6442.022
134.057, 6870.090
134.539, 7209.116
135.021, 7288.578
135.503, 7033.121
135.985, 6576.647
136.467, 6210.066
136.949, 5923.747
137.431, 5755.880
137.913, 5735.675
138.396, 5871.479
138.878, 6109.365
139.360, 6446.073
139.842, 6884.248
140.324, 7423.088
140.806, 8116.371
141.288, 8834.170
141.770, 9508.709
142.253, 10254.070
142.735, 10680.930
143.217, 10653.360
143.699, 10115.900
144.181, 9541.565
144.663, 8885.144
145.145, 8219.108
145.627, 7672.857
146.109, 7332.287
146.592, 6991.022
147.074, 6590.206
147.556, 6154.134
148.038, 5605.056
148.520, 4830.057
149.002, 3948.660
149.484, 3271.845
149.966, 2902.988
150.449, 2663.658
150.931, 2479.387
151.413, 2384.805
151.895, 2306.635
152.377, 2234.200
152.859, 2172.089
153.341, 2150.611
153.823, 2146.240
154.305, 2103.889
154.788, 2142.423
155.270, 2161.322
155.752, 2161.643
156.234, 2087.739
156.716, 2109.681
157.198, 2093.212
157.680, 2095.761
158.162, 2121.143
158.645, 2168.443
159.127, 2216.457
159.609, 2275.687
160.091, 2350.262
160.573, 2440.177
161.055, 2543.026
161.537, 2658.368
162.019, 2786.545
162.501, 2928.745
162.984, 3075.552
163.466, 3242.771
163.948, 3442.894
164.430, 3682.499
164.912, 3937.865
165.394, 4199.800
165.876, 4468.323
166.358, 4743.735
166.840, 5015.584
167.323, 5299.344
167.805, 5613.083
168.287, 5990.722
168.769, 6359.050
169.251, 6707.643
169.733, 7024.865
170.215, 7252.231
170.697, 7396.631
171.180, 7419.541
171.662, 7267.464
172.144, 6841.282
172.626, 6299.057
173.108, 5738.621
173.590, 5162.848
174.072, 4640.042
174.554, 4222.790
175.036, 3899.488
175.519, 3653.250
176.001, 3504.804
176.483, 3418.951
176.965, 3350.575
177.447, 3297.792
177.929, 3266.417
178.411, 3267.671
178.893, 3295.959
179.376, 3333.544
179.858, 3357.678
180.340, 3387.958
180.822, 3465.616
181.304, 3599.425
181.786, 3760.839
182.268, 3950.808
182.750, 4157.018
183.232, 4301.052
183.715, 4296.685
184.197, 4191.142
184.679, 4128.023
185.161, 4135.068
185.643, 4171.669
186.125, 4174.383
186.607, 4144.062
187.089, 4100.536
187.572, 4050.151
188.054, 3995.363
188.536, 3951.904
189.018, 3923.163
189.500, 3906.255
189.982, 3893.447
190.464, 3884.491
190.946, 3881.938
191.428, 3885.603
191.911, 3896.038
192.393, 3920.167
192.875, 3959.496
193.357, 4013.696
193.839, 4081.887
194.321, 4163.837
194.803, 4259.322
195.285, 4370.613
195.768, 4498.049
196.250, 4628.319
196.732, 4765.454
197.214, 4906.706
197.696, 5014.410
198.178, 5089.522
198.660, 5131.446
199.142, 5141.832
199.624, 5122.101
200.107, 5060.484
200.589, 4945.809
201.071, 4776.904
201.553, 4596.309
202.035, 4401.209
202.517, 4196.929
202.999, 3988.207
203.481, 3772.098
203.964, 3564.418
204.446, 3369.584
204.928, 3186.635
205.410, 3023.281
205.892, 2882.390
206.374, 2760.141
206.856, 2651.327
207.338, 2557.030
207.820, 2472.825
208.303, 2397.156
208.785, 2330.484
209.267, 2270.443
209.749, 2219.509
210.231, 2174.915
210.713, 2129.131
211.195, 2079.021
211.677, 2035.404
212.160, 2005.819
212.642, 1994.229
213.124, 1982.912
213.606, 1969.418
214.088, 1955.546
214.570, 1949.239
215.052, 1953.020
215.534, 1959.698
216.016, 1963.206
216.499, 1959.254
216.981, 1965.437
217.463, 1988.838
217.945, 2025.235
218.427, 2045.328
218.909, 2039.637
219.391, 2032.020
219.873, 2043.147
220.355, 2085.603
220.838, 2115.978
221.320, 2125.747
221.802, 2116.236
222.284, 2107.994
222.766, 2102.355
223.248, 2096.464
223.730, 2089.171
224.212, 2085.522
224.695, 2069.281
225.177, 2033.085
225.659, 1975.750
226.141, 1931.481
226.623, 1905.198
227.105, 1885.802
227.587, 1862.072
228.069, 1831.445
228.551, 1800.894
229.034, 1771.103
229.516, 1741.927
229.998, 1714.925
230.480, 1688.175
230.962, 1664.694
231.444, 1649.169
231.926, 1648.423
232.408, 1642.978
232.891, 1626.314
233.373, 1595.472
233.855, 1570.781
234.337, 1552.505
234.819, 1540.002
235.301, 1533.243
235.783, 1537.161
236.265, 1538.623
236.747, 1533.201
237.230, 1518.872
237.712, 1507.224
238.194, 1498.956
238.676, 1493.149
239.158, 1488.304
239.640, 1483.263
240.122, 1481.289
240.604, 1485.865
241.087, 1502.645
241.569, 1503.990
242.051, 1480.875
242.533, 1447.105
243.015, 1427.283
243.497, 1428.851
243.979, 1432.576
244.461, 1432.130
244.943, 1426.342
245.426, 1419.492
245.908, 1409.323
246.390, 1399.079
246.872, 1395.461
247.354, 1402.730
247.836, 1409.775
248.318, 1412.421
248.800, 1409.080
249.283, 1406.029
249.765, 1404.674
250.247, 1403.018
250.729, 1395.921
251.211, 1378.658
251.693, 1363.794
252.175, 1357.218
252.657, 1363.889
253.139, 1365.568
253.622, 1361.157
254.104, 1352.366
254.586, 1341.903
255.068, 1336.221
255.550, 1345.395
256.032, 1350.962
256.514, 1353.118
256.996, 1341.641
257.478, 1347.767
257.961, 1346.839
258.443, 1345.622
258.925, 1354.225
259.407, 1344.732
259.889, 1353.180
260.371, 1354.466
260.853, 1359.030
261.335, 1356.495
261.818, 1356.154
262.300, 1362.912
262.782, 1357.842
263.264, 1362.265
263.746, 1360.739
264.228, 1351.066
264.710, 1342.688
265.192, 1334.579
265.674, 1328.595
266.157, 1332.071
266.639, 1350.879
267.121, 1365.029
267.603, 1361.562
268.085, 1333.922
268.567, 1317.888
269.049, 1318.057
269.531, 1328.025
270.013, 1331.665
270.496, 1327.200
270.978, 1321.715
271.460, 1318.477
271.942, 1317.561
272.424, 1318.782
272.906, 1323.059
273.388, 1328.698
273.871, 1330.869
274.353, 1328.320
274.835, 1327.029
275.317, 1329.934
275.799, 1337.239
276.281, 1347.997
276.763, 1364.153
277.245, 1381.466
277.727, 1389.831
278.210, 1387.749
278.692, 1384.431
279.174, 1386.081
279.656, 1393.044
280.138, 1393.039
280.620, 1383.035
281.102, 1369.334
281.584, 1363.963
282.066, 1367.352
282.549, 1375.389
283.031, 1388.488
283.513, 1406.201
283.995, 1417.779
284.477, 1420.706
284.959, 1421.232
285.441, 1433.317
285.923, 1457.476
286.405, 1476.543
286.888, 1476.204
287.370, 1460.077
287.852, 1455.993
288.334, 1468.081
288.816, 1485.450
289.298, 1489.139
289.780, 1480.007
290.263, 1472.647
290.745, 1477.556
291.227, 1491.130
291.709, 1498.591
292.191, 1498.647
292.673, 1494.322
293.155, 1485.842
293.637, 1474.487
294.119, 1469.777
294.602, 1482.314
295.084, 1504.833
295.566, 1517.603
296.048, 1518.773
296.530, 1515.198
297.012, 1513.419
297.494, 1513.373
297.976, 1514.637
298.458, 1518.951
298.941, 1524.042
299.423, 1524.953
299.905, 1521.091
300.387, 1516.545
300.869, 1517.260
301.351, 1520.841
301.833, 1520.963
302.315, 1507.493
302.797, 1491.742
303.280, 1491.208
303.762, 1506.995
304.244, 1525.491
304.726, 1537.591
305.208, 1543.875
305.690, 1545.716
306.172, 1539.239
306.654, 1531.150
307.137, 1528.632
307.619, 1531.845
308.101, 1535.246
308.583, 1534.211
309.065, 1531.116
309.547, 1529.335
310.029, 1530.939
310.511, 1533.867
310.993, 1537.328
311.476, 1541.238
311.958, 1544.238
312.440, 1546.143
312.922, 1546.525
313.404, 1544.879
313.886, 1537.194
314.368, 1530.781
314.850, 1528.685
315.333, 1530.896
315.815, 1537.292
316.297, 1552.775
316.779, 1569.970
317.261, 1582.573
317.743, 1581.844
318.225, 1583.836
318.707, 1598.458
319.190, 1622.472
319.672, 1639.521
320.154, 1634.572
320.636, 1627.151
321.118, 1629.959
321.600, 1657.543
322.082, 1680.483
322.564, 1687.371
323.046, 1683.516
323.529, 1687.044
324.011, 1704.889
324.493, 1728.057
324.975, 1752.389
325.457, 1778.269
325.939, 1804.078
326.421, 1829.708
326.903, 1855.033
327.385, 1880.525
327.868, 1900.812
328.350, 1925.615
328.832, 1960.152
329.314, 2018.263
329.796, 2057.784
330.278, 2058.318
330.760, 2045.361
331.242, 2067.159
331.724, 2151.821
332.207, 2234.520
332.689, 2292.326
333.171, 2314.163
333.653, 2353.107
334.135, 2417.347
334.617, 2493.030
335.099, 2559.515
335.582, 2610.671
336.064, 2667.363
336.546, 2736.604
337.028, 2819.471
337.510, 2903.017
337.992, 2987.294
338.474, 3073.707
338.956, 3160.640
339.438, 3248.123
339.921, 3341.907
340.403, 3448.929
340.885, 3564.736
341.367, 3666.417
341.849, 3754.669
342.331, 3823.530
342.813, 3860.364
343.295, 3865.603
343.777, 3865.932
344.260, 3865.234
344.742, 3864.606
345.224, 3865.390
345.706, 3867.334
346.188, 3876.069
346.670, 3904.108
347.152, 3945.356
347.634, 3970.913
348.116, 3972.715
348.599, 3961.139
349.081, 3953.399
349.563, 3948.500
350.045, 3938.182
350.527, 3917.031
351.009, 3886.413
351.491, 3846.369
351.973, 3793.559
352.456, 3742.084
352.938, 3705.973
353.420, 3684.352
353.902, 3674.619
354.384, 3668.681
354.866, 3677.005
355.348, 3710.853
355.830, 3771.355
356.312, 3856.500
356.795, 3972.904
357.277, 4111.460
357.759, 4258.991
358.241, 4413.098
358.723, 4570.351
359.205, 4742.520
359.687, 4930.712
360.169, 5084.988
360.652, 5163.843
361.134, 5202.346
361.616, 5237.175
362.098, 5291.079
362.580, 5332.189
363.062, 5352.258
363.544, 5350.764
364.026, 5325.423
364.509, 5264.253
364.991, 5185.717
365.473, 5101.758
365.955, 4998.899
366.437, 4909.173
366.919, 4852.799
367.401, 4817.754
367.883, 4757.081
368.365, 4639.076
368.848, 4517.308
369.330, 4417.726
369.812, 4374.965
370.294, 4291.819
370.776, 4143.433
371.258, 3962.213
371.740, 3811.392
372.222, 3711.457
372.704, 3610.277
373.187, 3482.177
373.669, 3309.374
374.151, 3198.522
374.633, 3097.508
375.115, 3018.498
375.597, 2934.166
376.079, 2844.771
376.561, 2735.173
377.043, 2651.670
377.526, 2557.703
378.008, 2463.291
378.490, 2377.703
378.972, 2301.680
379.454, 2239.403
379.936, 2190.348
380.418, 2150.725
380.901, 2122.446
381.383, 2100.585
381.865, 2068.466
382.347, 2026.300
382.829, 1990.152
383.311, 1979.698
383.793, 1986.111
384.275, 1980.448
384.757, 1954.918
385.240, 1924.589
385.722, 1909.755
386.204, 1907.600
386.686, 1907.441
387.168, 1902.715
387.650, 1896.557
388.132, 1893.203
388.614, 1893.135
389.096, 1894.508
389.579, 1896.373
390.061, 1898.575
390.543, 1900.844
391.025, 1898.774
391.507, 1900.095
391.989, 1911.033
392.471, 1931.474
392.953, 1954.294
393.435, 1976.773
393.918, 1999.718
394.400, 2023.962
394.882, 2055.843
395.364, 2082.455
395.846, 2095.378
396.328, 2098.377
396.810, 2108.455
397.292, 2126.387
397.775, 2154.229
398.257, 2194.289
398.739, 2261.795
399.221, 2317.167
399.703, 2347.874
400.185, 2367.412
400.667, 2403.548
401.149, 2477.292
401.632, 2540.718
402.114, 2573.977
402.596, 2566.664
403.078, 2584.335
403.560, 2640.668
404.042, 2707.405
404.524, 2749.296
405.006, 2760.049
405.488, 2769.664
405.971, 2788.609
406.453, 2813.016
406.935, 2814.170
407.417, 2788.649
407.899, 2753.657
408.381, 2721.562
408.863, 2692.192
409.345, 2663.080
409.828, 2635.987
410.310, 2606.080
410.792, 2563.359
411.274, 2508.220
411.756, 2449.835
412.238, 2395.639
412.720, 2341.211
413.202, 2274.749
413.684, 2192.947
414.167, 2110.754
414.649, 2046.275
415.131, 1994.109
415.613, 1943.806
416.095, 1887.561
416.577, 1833.544
417.059, 1793.206
417.541, 1765.613
418.023, 1735.282
418.506, 1688.863
418.988, 1637.212
419.470, 1590.184
419.952, 1551.288
420.434, 1517.216
420.916, 1488.345
421.398, 1463.752
421.880, 1441.334
422.362, 1415.466
422.845, 1395.434
423.327, 1387.621
423.809, 1405.200
424.291, 1408.424
424.773, 1383.709
425.255, 1345.887
425.737, 1316.853
426.220, 1299.019
426.702, 1286.603
427.184, 1279.645
427.666, 1278.498
428.148, 1274.730
428.630, 1266.384
429.112, 1258.094
429.594, 1254.637
430.076, 1257.840
430.559, 1257.919
431.041, 1251.864
431.523, 1242.654
432.005, 1241.467
432.487, 1249.628
432.969, 1255.744
433.451, 1249.365
433.933, 1233.153
434.415, 1227.160
434.898, 1235.012
435.380, 1244.574
435.862, 1234.224
436.344, 1209.871
436.826, 1195.381
437.308, 1212.026
437.790, 1240.223
438.272, 1248.780
438.754, 1238.558
439.237, 1227.928
439.719, 1229.206
440.201, 1238.386
440.683, 1251.860
441.165, 1278.476
441.647, 1295.256
442.129, 1275.780
442.612, 1233.624
443.094, 1207.854
443.576, 1234.490
444.058, 1265.510
444.540, 1270.893
445.022, 1234.097
445.504, 1214.515
445.986, 1233.727
446.468, 1272.831
446.951, 1308.858
447.433, 1347.005
447.915, 1374.101
448.397, 1379.922
448.879, 1365.800
449.361, 1369.081
449.843, 1355.821
450.325, 1403.640
450.807, 1449.088
451.290, 1543.934
451.772, 1626.776
452.254, 1698.277
452.736, 1724.455
453.218, 1809.154
453.700, 1870.404
454.182, 1930.706
454.664, 2010.727
455.147, 2085.183
455.629, 2158.792
456.111, 2229.534
456.593, 2314.775
457.075, 2437.487
457.557, 2591.479
458.039, 2756.262
458.521, 2916.702
459.003, 3094.820
459.486, 3310.883
459.968, 3564.260
460.450, 3859.344
460.932, 4193.289
461.414, 4570.994
461.896, 5008.642
462.378, 5523.692
462.860, 6025.089
463.342, 6537.507
463.825, 6988.611
464.307, 7261.759
464.789, 7357.743
465.271, 7236.657
465.753, 6810.235
466.235, 6072.788
466.717, 5369.621
467.199, 4691.354
467.681, 4085.456
468.164, 3578.781
468.646, 3188.098
469.128, 2872.191
469.610, 2647.637
470.092, 2493.501
470.574, 2362.525
471.056, 2255.257
471.539, 2167.688
472.021, 2101.003
472.503, 2054.865
472.985, 2015.138
473.467, 1981.266
473.949, 1955.502
474.431, 1943.218
474.913, 1943.146
475.395, 1944.162
475.878, 1943.874
476.360, 1943.022
476.842, 1942.335
477.324, 1942.041
477.806, 1943.376
478.288, 1946.920
478.770, 1952.722
479.252, 1960.978
479.734, 1971.848
480.217, 1984.583
480.699, 1998.310
481.181, 2013.708
481.663, 2031.610
482.145, 2048.374
482.627, 2071.262
483.109, 2105.422
483.591, 2149.750
484.073, 2194.926
484.556, 2233.644
485.038, 2275.486
485.520, 2325.586
486.002, 2384.603
486.484, 2450.935
486.966, 2526.429
487.448, 2608.671
487.931, 2692.139
488.413, 2766.667
488.895, 2861.137
489.377, 2983.990
489.859, 3134.255
490.341, 3301.649
490.823, 3487.426
491.305, 3690.989
491.787, 3913.436
492.270, 4153.313
492.752, 4414.816
493.234, 4696.009
493.716, 5007.504
494.198, 5364.321
494.680, 5764.849
495.162, 6213.111
495.644, 6697.291
496.126, 7233.537
496.609, 7822.618
497.091, 8473.014
497.573, 9208.609
498.055, 10071.420
498.537, 11033.380
499.019, 12067.780
499.501, 13217.930
499.983, 14379.620
500.466, 15599.640
500.948, 16810.359
501.430, 17858.641
501.912, 18820.150
502.394, 19512.100
502.876, 19856.020
503.358, 19828.801
503.840, 19565.029
504.322, 19060.670
504.805, 18322.660
505.287, 17339.510
505.769, 16060.220
506.251, 14682.460
506.733, 13181.670
507.215, 11622.650
507.697, 10219.180
508.179, 8974.697
508.661, 7864.321
509.144, 6869.398
509.626, 5996.002
510.108, 5291.366
510.590, 4762.196
511.072, 4345.830
511.554, 4001.196
512.036, 3720.868
512.518, 3488.361
513.000, 3302.865
513.483, 3157.773
513.965, 3053.180
514.447, 2983.325
514.929, 2930.673
515.411, 2882.319
515.893, 2851.392
516.375, 2851.620
516.857, 2889.166
517.340, 2925.431
517.822, 2935.340
518.304, 2946.432
518.786, 2983.614
519.268, 3057.656
519.750, 3148.581
520.232, 3252.271
520.714, 3372.013
521.196, 3519.275
521.679, 3693.339
522.161, 3893.786
522.643, 4114.809
523.125, 4356.261
523.607, 4638.950
524.089, 4962.558
524.571, 5331.925
525.054, 5772.240
525.536, 6272.663
526.018, 6792.091
526.500, 7341.941
526.982, 7862.155
527.464, 8305.234
527.946, 8647.911
528.428, 8811.978
528.910, 8740.091
529.393, 8473.284
529.875, 8005.147
530.357, 7334.008
530.839, 6631.121
531.321, 5933.606
531.803, 5281.945
532.285, 4713.912
532.767, 4261.801
533.250, 3873.081
533.732, 3548.987
534.214, 3280.625
534.696, 3053.210
535.178, 2878.956
535.660, 2725.442
536.142, 2583.364
536.624, 2450.399
537.106, 2341.796
537.589, 2261.678
538.071, 2193.820
538.553, 2123.515
539.035, 2049.740
539.517, 1985.038
539.999, 1931.362
540.481, 1886.844
540.963, 1833.614
541.445, 1780.828
541.928, 1743.352
542.410, 1750.428
542.892, 1746.693
543.374, 1732.718
543.856, 1677.871
544.338, 1675.809
544.820, 1652.593
545.302, 1639.850
545.784, 1621.912
546.267, 1606.793
546.749, 1598.120
547.231, 1600.845
547.713, 1609.972
548.195, 1617.661
548.677, 1629.142
549.159, 1631.706
549.641, 1618.650
550.124, 1591.880
550.606, 1574.507
551.088, 1568.149
551.570, 1568.190
552.052, 1573.750
552.534, 1586.022
553.016, 1594.482
553.498, 1598.995
553.981, 1599.435
554.463, 1593.085
554.945, 1581.335
555.427, 1573.080
555.909, 1571.309
556.391, 1574.170
556.873, 1581.809
557.355, 1592.667
557.838, 1599.902
558.320, 1600.481
558.802, 1595.037
559.284, 1579.497
559.766, 1551.232
560.248, 1534.542
560.730, 1550.511
561.212, 1577.286
561.694, 1595.348
562.177, 1590.370
562.659, 1590.196
563.141, 1602.394
563.623, 1620.303
564.105, 1625.794
564.587, 1608.289
565.069, 1599.761
565.551, 1615.123
566.033, 1652.380
566.516, 1673.523
566.998, 1675.297
567.480, 1675.667
567.962, 1690.841
568.444, 1718.227
568.926, 1744.981
569.408, 1768.711
569.890, 1793.776
570.372, 1820.234
570.855, 1851.762
571.337, 1895.825
571.819, 1976.369
572.301, 2053.380
572.783, 2104.309
573.265, 2129.953
573.747, 2138.035
574.229, 2132.801
574.711, 2109.316
575.194, 2059.953
575.676, 1969.853
576.158, 1897.016
576.640, 1846.243
577.122, 1811.999
577.604, 1789.829
578.086, 1781.482
578.568, 1781.774
579.051, 1793.381
579.533, 1810.464
580.015, 1817.025
580.497, 1812.701
580.979, 1809.996
581.461, 1815.319
581.943, 1826.559
582.425, 1838.145
582.907, 1850.219
583.390, 1864.582
583.872, 1883.712
584.354, 1905.330
584.836, 1926.869
585.318, 1948.162
585.800, 1968.138
586.282, 1980.793
586.765, 1993.467
587.247, 2016.504
587.729, 2072.933
588.211, 2117.360
588.693, 2129.781
589.175, 2119.310
589.657, 2129.203
590.139, 2168.606
590.621, 2213.453
591.104, 2254.151
591.586, 2290.609
592.068, 2327.702
592.550, 2366.684
593.032, 2402.555
593.514, 2424.201
593.996, 2436.354
594.478, 2460.227
594.960, 2499.001
595.443, 2553.027
595.925, 2617.786
596.407, 2697.914
596.889, 2735.107
597.371, 2799.965
597.853, 2858.112
598.335, 2909.916
598.817, 2936.310
599.299, 2995.053
599.782, 3012.045
600.264, 3068.623
600.746, 3138.288
601.228, 3222.485
601.710, 3310.646
602.192, 3396.901
602.674, 3492.011
603.156, 3607.149
603.638, 3741.085
604.121, 3889.501
604.603, 4050.491
605.085, 4227.680
605.567, 4431.870
606.049, 4661.119
606.531, 4914.826
607.013, 5185.787
607.495, 5480.907
607.978, 5808.063
608.460, 6168.260
608.942, 6576.756
609.424, 7045.383
609.906, 7567.408
610.388, 8140.440
610.870, 8754.952
611.352, 9444.610
611.834, 10196.380
612.317, 11039.690
612.799, 11994.660
613.281, 12992.630
613.763, 14188.030
614.245, 15520.450
614.727, 17077.260
615.209, 19203.410
615.692, 21987.551
616.174, 24741.180
616.656, 27203.119
617.138, 29453.330
617.620, 31932.061
618.102, 34614.488
618.584, 37065.199
619.066, 39210.730
619.549, 40773.430
620.031, 41301.699
620.513, 40716.801
620.995, 39332.539
621.477, 37050.020
621.959, 34201.070
622.441, 31129.080
622.923, 27631.430
623.405, 24308.520
623.888, 21214.631
624.370, 18374.939
624.852, 15839.180
625.334, 13594.100
625.816, 11684.330
626.298, 10155.550
626.780, 8975.073
627.262, 7977.008
627.744, 7163.794
628.227, 6476.727
628.709, 5899.308
629.191, 5418.266
