##NAMES=Amesite
##RRUFFID=R070132
##IDEAL CHEMISTRY=Mg_2_Al(AlSiO_5_)(OH)_4_
##LOCALITY=Saranovskii mine, Saranovskaya Village, Gornozavodskii area, Permskaya Oblast', Middle Urals, Russia
##OWNER=RRUFF
##SOURCE=Michael Scott
##DESCRIPTION=Purple transparent hexagonal prisms, polytype 2H2
##STATUS=The identification of this mineral is confirmed by single-crystal X-ray diffraction and chemical analysis.
##URL=rruff.info/R070132
##MEASURED CHEMISTRY=(Mg_1.87_[box]_0.05_Cr_0.05_Fe^2+^_0.03_)_Σ=2_(Al_0.98_Cr_0.02_)_Σ=1_(Si_1.05_Al_0.95_)O_5_(OH)_4_ ; OH estimated by difference
108.7196, 4461.642
109.2017, 4451.637
109.6838, 4438.156
110.1660, 4436.007
110.6481, 4463.836
111.1302, 4497.030
111.6123, 4509.688
112.0944, 4470.119
112.5765, 4434.119
113.0587, 4421.552
113.5408, 4442.461
114.0229, 4463.284
114.5050, 4475.081
114.9871, 4481.090
115.4692, 4487.433
115.9514, 4495.681
116.4335, 4505.220
116.9156, 4516.274
117.3977, 4532.973
117.8798, 4545.521
118.3619, 4544.683
118.8441, 4533.710
119.3262, 4527.373
119.8083, 4533.941
120.2904, 4549.221
120.7725, 4568.650
121.2546, 4592.147
121.7368, 4618.229
122.2189, 4649.500
122.7010, 4685.792
123.1831, 4715.368
123.6652, 4725.627
124.1473, 4722.237
124.6295, 4716.907
125.1116, 4705.095
125.5937, 4697.393
126.0758, 4712.735
126.5579, 4755.735
127.0400, 4808.653
127.5222, 4850.590
128.0043, 4883.799
128.4864, 4920.542
128.9685, 4974.559
129.4506, 5038.855
129.9328, 5090.894
130.4149, 5123.846
130.8970, 5148.086
131.3791, 5183.334
131.8612, 5230.200
132.3433, 5281.564
132.8255, 5340.174
133.3076, 5404.713
133.7897, 5449.277
134.2718, 5469.839
134.7539, 5465.708
135.2360, 5430.429
135.7182, 5358.667
136.2003, 5271.122
136.6824, 5183.530
137.1645, 5092.563
137.6466, 5019.368
138.1287, 4972.405
138.6109, 4952.973
139.0930, 4939.014
139.5751, 4933.749
140.0572, 4930.434
140.5393, 4916.284
141.0214, 4885.165
141.5036, 4856.495
141.9857, 4838.097
142.4678, 4833.470
142.9499, 4830.262
143.4320, 4828.039
143.9141, 4827.316
144.3963, 4830.561
144.8784, 4843.107
145.3605, 4853.380
145.8426, 4854.125
146.3247, 4830.270
146.8068, 4820.654
147.2890, 4836.074
147.7711, 4873.792
148.2532, 4896.191
148.7353, 4894.095
149.2174, 4882.588
149.6995, 4872.272
150.1817, 4860.296
150.6638, 4852.385
151.1459, 4848.851
151.6280, 4849.588
152.1101, 4855.817
152.5922, 4874.040
153.0744, 4895.270
153.5565, 4910.702
154.0386, 4912.849
154.5207, 4914.751
155.0028, 4920.956
155.4849, 4933.953
155.9671, 4943.307
156.4492, 4945.595
156.9313, 4943.310
157.4134, 4940.382
157.8955, 4933.859
158.3777, 4929.763
158.8598, 4932.251
159.3419, 4947.691
159.8240, 4958.004
160.3061, 4951.382
160.7882, 4934.675
161.2704, 4925.114
161.7525, 4932.526
162.2346, 4947.431
162.7167, 4964.035
163.1988, 4987.012
163.6809, 5004.021
164.1631, 5005.601
164.6452, 4994.630
165.1273, 4984.826
165.6094, 4983.170
166.0915, 4986.252
166.5736, 4990.781
167.0558, 4997.060
167.5379, 5003.403
168.0200, 5005.842
168.5021, 5004.961
168.9842, 5010.268
169.4663, 5033.981
169.9485, 5066.806
170.4306, 5095.321
170.9127, 5110.561
171.3948, 5120.728
171.8769, 5132.209
172.3590, 5145.183
172.8412, 5160.638
173.3233, 5180.991
173.8054, 5204.449
174.2875, 5226.947
174.7696, 5245.078
175.2517, 5261.612
175.7339, 5278.721
176.2160, 5295.607
176.6981, 5317.992
177.1802, 5354.022
177.6623, 5401.710
178.1444, 5452.593
178.6266, 5500.644
179.1087, 5549.273
179.5908, 5605.937
180.0729, 5673.606
180.5550, 5744.581
181.0371, 5804.912
181.5193, 5856.681
182.0014, 5911.043
182.4835, 5974.551
182.9656, 6046.600
183.4477, 6127.942
183.9298, 6219.118
184.4120, 6318.327
184.8941, 6421.751
185.3762, 6530.310
185.8583, 6644.625
186.3404, 6768.316
186.8225, 6899.376
187.3047, 7033.820
187.7868, 7169.256
188.2689, 7307.073
188.7510, 7450.949
189.2331, 7600.340
189.7152, 7755.309
190.1974, 7912.901
190.6795, 8072.780
191.1616, 8241.966
191.6437, 8427.854
192.1258, 8624.760
192.6080, 8804.823
193.0901, 8971.873
193.5722, 9117.508
194.0543, 9235.663
194.5364, 9326.146
195.0185, 9382.761
195.5007, 9386.755
195.9828, 9344.762
196.4649, 9335.840
196.9470, 9365.146
197.4291, 9414.069
197.9112, 9459.222
198.3934, 9500.557
198.8755, 9538.540
199.3576, 9576.586
199.8397, 9615.260
200.3218, 9637.647
200.8039, 9644.119
201.2861, 9633.750
201.7682, 9602.990
202.2503, 9549.869
202.7324, 9485.410
203.2145, 9418.580
203.6966, 9352.556
204.1788, 9256.374
204.6609, 9125.177
205.1430, 8968.542
205.6251, 8805.373
206.1072, 8632.651
206.5893, 8462.852
207.0715, 8306.378
207.5536, 8170.613
208.0357, 8014.815
208.5178, 7826.219
208.9999, 7621.413
209.4820, 7446.839
209.9642, 7311.270
210.4463, 7185.228
210.9284, 7045.829
211.4105, 6883.738
211.8926, 6750.247
212.3747, 6657.203
212.8569, 6595.878
213.3390, 6522.830
213.8211, 6429.608
214.3032, 6342.064
214.7853, 6280.593
215.2674, 6255.146
215.7496, 6227.148
216.2317, 6190.102
216.7138, 6146.136
217.1959, 6108.454
217.6780, 6075.818
218.1601, 6050.791
218.6423, 6037.417
219.1244, 6041.437
219.6065, 6041.388
220.0886, 6028.398
220.5707, 6004.490
221.0528, 6008.017
221.5350, 6051.945
222.0171, 6106.351
222.4992, 6143.481
222.9813, 6148.778
223.4634, 6168.748
223.9455, 6213.192
224.4277, 6282.884
224.9098, 6353.859
225.3919, 6415.959
225.8740, 6491.715
226.3561, 6607.175
226.8382, 6777.576
227.3204, 6955.563
227.8025, 7131.846
228.2846, 7305.555
228.7667, 7481.421
229.2488, 7658.500
229.7310, 7834.276
230.2131, 8004.190
230.6952, 8151.461
231.1773, 8321.335
231.6594, 8526.912
232.1415, 8769.520
232.6237, 9028.884
233.1058, 9305.681
233.5879, 9598.679
234.0700, 9903.469
234.5521, 10203.88
235.0342, 10543.34
235.5164, 10928.39
235.9985, 11358.12
236.4806, 11843.27
236.9627, 12389.26
237.4448, 12978.47
237.9269, 13591.25
238.4091, 14208.43
238.8912, 14875.55
239.3733, 15611.27
239.8554, 16427.05
240.3375, 17257.77
240.8196, 18126.80
241.3018, 18993.72
241.7839, 19843.04
242.2660, 20808.47
242.7481, 21530.34
243.2302, 21925.06
243.7123, 22009.37
244.1945, 21673.60
244.6766, 20805.61
245.1587, 19590.31
245.6408, 18258.82
246.1229, 16675.51
246.6050, 15208.44
247.0872, 13970.33
247.5693, 12980.14
248.0514, 12147.18
248.5335, 11493.12
249.0156, 10981.32
249.4977, 10559.55
249.9799, 10235.28
250.4620, 9989.296
250.9441, 9820.688
251.4262, 9738.115
251.9083, 9701.722
252.3904, 9719.135
252.8726, 9778.302
253.3547, 9857.049
253.8368, 9950.931
254.3189, 10074.22
254.8010, 10238.58
255.2831, 10457.14
255.7653, 10665.27
256.2474, 10854.45
256.7295, 11037.83
257.2116, 11235.03
257.6937, 11447.89
258.1758, 11669.50
258.6580, 11890.60
259.1401, 12103.83
259.6222, 12353.83
260.1043, 12641.48
260.5864, 12963.84
261.0685, 13310.10
261.5507, 13679.56
262.0328, 14072.55
262.5149, 14485.88
262.9970, 14913.38
263.4791, 15402.13
263.9612, 15970.69
264.4434, 16590.07
264.9255, 17208.69
265.4076, 17812.01
265.8897, 18451.19
266.3718, 19163.34
266.8539, 19957.23
267.3361, 20732.07
267.8182, 21476.95
268.3003, 22204.36
268.7824, 22950.20
269.2645, 23722.76
269.7466, 24479.32
270.2288, 25243.30
270.7109, 26027.87
271.1930, 26669.15
271.6751, 27184.76
272.1572, 27542.43
272.6393, 27682.88
273.1215, 27588.38
273.6036, 27351.31
274.0857, 26981.88
274.5678, 26474.01
275.0499, 25940.46
275.5320, 25361.68
276.0142, 24780.54
276.4963, 24254.12
276.9784, 23781.45
277.4605, 23360.56
277.9426, 22998.58
278.4247, 22695.60
278.9069, 22387.28
279.3890, 22067.38
279.8711, 21760.31
280.3532, 21522.95
280.8354, 21364.21
281.3175, 21163.73
281.7996, 20889.11
282.2817, 20538.55
282.7638, 20094.99
283.2459, 19552.18
283.7281, 18935.86
284.2102, 18262.52
284.6923, 17532.19
285.1744, 16789.50
285.6565, 16047.22
286.1386, 15307.98
286.6208, 14601.98
287.1029, 13926.84
287.5850, 13286.24
288.0671, 12670.91
288.5492, 12082.25
289.0313, 11536.03
289.5135, 11046.55
289.9956, 10603.88
290.4777, 10166.39
290.9598, 9730.464
291.4419, 9311.853
291.9240, 8922.956
292.4062, 8563.010
292.8883, 8238.429
293.3704, 7945.525
293.8525, 7689.212
294.3346, 7480.001
294.8167, 7320.736
295.2989, 7184.717
295.7810, 7048.175
296.2631, 6915.608
296.7452, 6796.781
297.2273, 6698.300
297.7094, 6614.992
298.1916, 6532.121
298.6737, 6451.092
299.1558, 6390.403
299.6379, 6379.465
300.1200, 6400.405
300.6021, 6414.525
301.0843, 6408.329
301.5664, 6391.393
302.0485, 6368.941
302.5306, 6342.472
303.0127, 6327.068
303.4948, 6334.824
303.9770, 6360.322
304.4591, 6395.826
304.9412, 6440.491
305.4233, 6492.588
305.9054, 6548.254
306.3875, 6608.591
306.8697, 6680.909
307.3518, 6776.902
307.8339, 6884.384
308.3160, 6989.359
308.7981, 7091.979
309.2802, 7186.026
309.7624, 7252.975
310.2445, 7302.895
310.7266, 7367.400
311.2087, 7481.348
311.6908, 7608.225
312.1729, 7715.289
312.6551, 7789.253
313.1372, 7859.507
313.6193, 7952.876
314.1014, 8055.256
314.5835, 8132.120
315.0656, 8160.502
315.5478, 8165.189
316.0299, 8158.415
316.5120, 8135.304
316.9941, 8118.907
317.4762, 8114.007
317.9583, 8122.003
318.4405, 8145.702
318.9226, 8186.777
319.4047, 8243.135
319.8868, 8311.470
320.3689, 8387.107
320.8510, 8489.635
321.3332, 8627.548
321.8153, 8793.782
322.2974, 8980.321
322.7795, 9229.595
323.2616, 9458.699
323.7437, 9640.829
324.2259, 9769.032
324.7080, 9876.024
325.1901, 9968.859
325.6722, 10040.63
326.1543, 10084.18
326.6364, 10107.81
327.1186, 10094.69
327.6007, 10032.25
328.0828, 9915.467
328.5649, 9803.232
329.0470, 9695.471
329.5291, 9592.065
330.0113, 9493.885
330.4934, 9411.470
330.9755, 9316.994
331.4576, 9198.801
331.9397, 9060.165
332.4218, 8939.328
332.9040, 8830.260
333.3861, 8745.788
333.8682, 8696.569
334.3503, 8691.195
334.8324, 8698.340
335.3145, 8710.192
335.7967, 8732.277
336.2788, 8792.602
336.7609, 8903.104
337.2430, 9027.437
337.7251, 9143.702
338.2072, 9253.966
338.6894, 9351.979
339.1715, 9433.469
339.6536, 9507.084
340.1357, 9599.889
340.6178, 9720.450
341.0999, 9820.500
341.5821, 9870.307
342.0642, 9869.643
342.5463, 9863.764
343.0284, 9855.479
343.5105, 9840.221
343.9926, 9805.631
344.4748, 9752.340
344.9569, 9702.597
345.4390, 9676.685
345.9211, 9665.404
346.4032, 9631.188
346.8853, 9574.305
347.3675, 9492.597
347.8496, 9387.021
348.3317, 9256.679
348.8138, 9093.496
349.2959, 8878.827
349.7780, 8637.675
350.2602, 8404.752
350.7423, 8181.103
351.2244, 7964.131
351.7065, 7736.847
352.1887, 7514.636
352.6708, 7333.868
353.1529, 7216.966
353.6350, 7135.841
354.1171, 7060.403
354.5992, 6992.002
355.0814, 6943.631
355.5635, 6929.675
356.0456, 6937.930
356.5277, 6955.880
357.0098, 6985.383
357.4919, 7015.968
357.9741, 7035.112
358.4562, 7049.115
358.9383, 7076.093
359.4204, 7134.094
359.9025, 7201.835
360.3846, 7261.574
360.8668, 7300.887
361.3489, 7357.823
361.8310, 7456.648
362.3131, 7581.167
362.7952, 7703.538
363.2773, 7793.600
363.7595, 7897.564
364.2416, 8037.687
364.7237, 8223.447
365.2058, 8409.939
365.6879, 8582.667
366.1700, 8753.807
366.6522, 8935.704
367.1343, 9135.933
367.6164, 9340.247
368.0985, 9543.532
368.5806, 9744.741
369.0627, 9966.013
369.5449, 10220.72
370.0270, 10484.86
370.5091, 10743.97
370.9912, 10975.22
371.4733, 11242.88
371.9554, 11558.38
372.4376, 11915.67
372.9197, 12279.00
373.4018, 12649.78
373.8839, 13018.48
374.3660, 13393.90
374.8481, 13789.24
375.3303, 14123.82
375.8124, 14398.29
376.2945, 14605.22
376.7766, 14734.52
377.2587, 14784.49
377.7408, 14760.05
378.2230, 14650.49
378.7051, 14458.64
379.1872, 14233.45
379.6693, 13970.58
380.1514, 13694.58
380.6335, 13437.46
381.1157, 13197.13
381.5978, 12974.88
382.0799, 12766.00
382.5620, 12576.51
383.0441, 12419.48
383.5262, 12293.47
384.0084, 12205.16
384.4905, 12174.41
384.9726, 12185.38
385.4547, 12198.32
385.9368, 12200.70
386.4189, 12202.57
386.9011, 12211.99
387.3832, 12229.93
387.8653, 12260.95
388.3474, 12294.88
388.8295, 12349.14
389.3116, 12444.22
389.7938, 12587.29
390.2759, 12759.78
390.7580, 12963.34
391.2401, 13188.60
391.7222, 13417.48
392.2043, 13654.39
392.6865, 13882.53
393.1686, 14094.18
393.6507, 14283.45
394.1328, 14466.67
394.6149, 14631.48
395.0970, 14799.06
395.5792, 14993.15
396.0613, 15184.95
396.5434, 15436.92
397.0255, 15771.90
397.5076, 16187.25
397.9897, 16650.88
398.4719, 17157.23
398.9540, 17714.19
399.4361, 18327.46
399.9182, 19025.84
400.4003, 19737.89
400.8824, 20456.78
401.3646, 21189.71
401.8467, 21951.18
402.3288, 22754.02
402.8109, 23558.14
403.2930, 24370.29
403.7751, 25235.37
404.2573, 25931.45
404.7394, 26469.78
405.2215, 26825.52
405.7036, 26935.37
406.1857, 26784.46
406.6678, 26496.26
407.1500, 26072.04
407.6321, 25536.27
408.1142, 25032.74
408.5963, 24562.50
409.0784, 24145.86
409.5605, 23827.30
410.0427, 23592.02
410.5248, 23364.55
411.0069, 23166.05
411.4890, 22914.96
411.9711, 22477.23
412.4532, 21860.73
412.9354, 21119.82
413.4175, 20270.90
413.8996, 19341.23
414.3817, 18356.33
414.8638, 17306.51
415.3459, 16281.45
415.8281, 15370.61
416.3102, 14549.18
416.7923, 13769.80
417.2744, 13001.38
417.7565, 12290.68
418.2386, 11697.01
418.7208, 11222.22
419.2029, 10775.90
419.6850, 10298.74
420.1671, 9837.224
420.6492, 9427.880
421.1313, 9095.152
421.6135, 8806.027
422.0956, 8549.375
422.5777, 8327.525
423.0598, 8139.722
423.5420, 8006.956
424.0241, 7894.730
424.5062, 7786.712
424.9883, 7689.799
425.4704, 7584.908
425.9525, 7454.896
426.4347, 7322.385
426.9168, 7230.286
427.3989, 7196.177
427.8810, 7167.125
428.3631, 7124.115
428.8452, 7066.142
429.3274, 7027.000
429.8095, 7008.917
430.2916, 7006.451
430.7737, 7018.603
431.2558, 7046.327
431.7379, 7069.504
432.2201, 7080.376
432.7022, 7086.736
433.1843, 7113.187
433.6664, 7159.462
434.1485, 7203.998
434.6306, 7223.745
435.1128, 7230.256
435.5949, 7258.241
436.0770, 7314.348
436.5591, 7380.161
437.0412, 7437.266
437.5233, 7486.751
438.0055, 7530.670
438.4876, 7569.303
438.9697, 7603.371
439.4518, 7633.632
439.9339, 7660.188
440.4160, 7681.001
440.8982, 7692.405
441.3803, 7698.535
441.8624, 7703.009
442.3445, 7695.528
442.8266, 7700.344
443.3087, 7735.562
443.7909, 7791.662
444.2730, 7837.526
444.7551, 7857.701
445.2372, 7873.320
445.7193, 7893.299
446.2014, 7919.518
446.6836, 7947.187
447.1657, 7981.231
447.6478, 8014.338
448.1299, 8037.987
448.6120, 8051.359
449.0941, 8055.740
449.5763, 8047.357
450.0584, 8027.832
450.5405, 8020.080
451.0226, 8027.780
451.5047, 8038.820
451.9868, 8043.228
452.4690, 8039.900
452.9511, 8044.460
453.4332, 8061.093
453.9153, 8081.786
454.3974, 8089.108
454.8795, 8083.779
455.3617, 8080.227
455.8438, 8087.155
456.3259, 8100.920
456.8080, 8111.973
457.2901, 8119.815
457.7722, 8128.445
458.2544, 8147.989
458.7365, 8169.949
459.2186, 8177.022
459.7007, 8151.115
460.1828, 8124.181
460.6649, 8120.147
461.1471, 8136.883
461.6292, 8166.649
462.1113, 8216.303
462.5934, 8270.734
463.0755, 8314.410
463.5576, 8335.134
464.0398, 8381.930
464.5219, 8482.578
465.0040, 8613.341
465.4861, 8743.709
465.9682, 8854.364
466.4503, 8979.362
466.9325, 9122.810
467.4146, 9284.381
467.8967, 9477.125
468.3788, 9714.431
468.8609, 9967.837
469.3430, 10220.84
469.8252, 10471.26
470.3073, 10730.11
470.7894, 11005.67
471.2715, 11282.29
471.7536, 11526.90
472.2357, 11736.11
472.7179, 11937.33
473.2000, 12147.86
473.6821, 12360.87
474.1642, 12545.23
474.6463, 12702.27
475.1284, 12816.69
475.6106, 12877.53
476.0927, 12884.43
476.5748, 12834.07
477.0569, 12718.93
477.5390, 12558.81
478.0211, 12362.93
478.5033, 12138.24
478.9854, 11906.00
479.4675, 11667.97
479.9496, 11436.46
480.4317, 11220.87
480.9138, 11024.19
481.3960, 10842.16
481.8781, 10672.10
482.3602, 10515.80
482.8423, 10377.04
483.3244, 10271.70
483.8065, 10165.79
484.2887, 10038.40
484.7708, 9899.296
485.2529, 9798.951
485.7350, 9766.620
486.2171, 9742.955
486.6992, 9703.257
487.1814, 9639.835
487.6635, 9588.526
488.1456, 9554.976
488.6277, 9527.278
489.1098, 9490.981
489.5919, 9445.623
490.0741, 9392.886
490.5562, 9334.658
491.0383, 9268.136
491.5204, 9185.520
492.0026, 9086.103
492.4847, 8970.202
492.9668, 8835.545
493.4489, 8684.971
493.9310, 8523.414
494.4131, 8352.803
494.8953, 8171.510
495.3774, 7968.409
495.8595, 7753.596
496.3416, 7557.838
496.8237, 7402.182
497.3058, 7259.573
497.7880, 7101.254
498.2701, 6932.635
498.7522, 6785.007
499.2343, 6684.911
499.7164, 6605.239
500.1985, 6526.072
500.6807, 6440.909
501.1628, 6365.735
501.6449, 6302.658
502.1270, 6250.987
502.6091, 6208.823
503.0912, 6173.773
503.5734, 6150.790
504.0555, 6145.004
504.5376, 6155.373
505.0197, 6156.302
505.5018, 6140.180
505.9839, 6129.297
506.4661, 6142.321
506.9482, 6182.007
507.4303, 6217.503
507.9124, 6246.208
508.3945, 6270.241
508.8766, 6284.100
509.3588, 6291.015
509.8409, 6319.665
510.3230, 6402.440
510.8051, 6505.793
511.2872, 6554.057
511.7693, 6551.667
512.2515, 6562.471
512.7336, 6642.883
513.2157, 6758.552
513.6978, 6868.111
514.1799, 6957.388
514.6620, 7054.196
515.1442, 7182.017
515.6263, 7326.791
516.1084, 7462.678
516.5905, 7559.350
517.0726, 7669.909
517.5547, 7818.272
518.0369, 8006.490
518.5190, 8183.982
519.0011, 8337.908
519.4832, 8490.578
519.9653, 8654.938
520.4474, 8832.460
520.9296, 9017.202
521.4117, 9216.745
521.8938, 9417.467
522.3759, 9591.136
522.8580, 9733.431
523.3401, 9881.474
523.8223, 10055.99
524.3044, 10244.39
524.7865, 10404.65
525.2686, 10535.23
525.7507, 10657.11
526.2328, 10805.12
526.7150, 10952.68
527.1971, 11044.54
527.6792, 11067.11
528.1613, 11053.46
528.6434, 11025.86
529.1255, 10984.17
529.6077, 10927.67
530.0898, 10853.45
530.5719, 10766.74
531.0540, 10673.56
531.5361, 10572.13
532.0182, 10446.24
532.5004, 10276.66
532.9825, 10092.71
533.4646, 9912.685
533.9467, 9744.902
534.4288, 9559.406
534.9109, 9328.815
535.3931, 9096.887
535.8752, 8924.668
536.3573, 8834.659
536.8394, 8739.598
537.3215, 8619.909
537.8036, 8481.403
538.2858, 8341.007
538.7679, 8195.966
539.2500, 8063.921
539.7321, 7961.044
540.2142, 7880.595
540.6964, 7796.673
541.1785, 7706.810
541.6606, 7624.035
542.1427, 7570.566
542.6248, 7533.332
543.1069, 7487.679
543.5891, 7418.386
544.0712, 7346.942
544.5533, 7286.768
545.0354, 7236.151
545.5175, 7189.885
545.9996, 7148.247
546.4818, 7108.558
546.9639, 7066.890
547.4460, 7019.249
547.9281, 6989.052
548.4102, 6997.597
548.8923, 7009.997
549.3745, 6998.032
549.8566, 6947.349
550.3387, 6903.531
550.8208, 6869.130
551.3029, 6844.521
551.7850, 6839.392
552.2672, 6859.205
552.7493, 6856.496
553.2314, 6800.604
553.7135, 6706.844
554.1956, 6635.143
554.6777, 6585.733
555.1599, 6544.412
555.6420, 6506.236
556.1241, 6466.830
556.6062, 6416.430
557.0883, 6350.038
557.5704, 6284.600
558.0526, 6238.475
558.5347, 6201.183
559.0168, 6155.040
559.4989, 6078.870
559.9810, 6008.216
560.4631, 5958.201
560.9453, 5927.507
561.4274, 5899.780
561.9095, 5873.150
562.3916, 5849.192
562.8737, 5828.401
563.3558, 5810.996
563.8380, 5799.170
564.3201, 5800.060
564.8022, 5797.091
565.2843, 5763.372
565.7664, 5693.317
566.2485, 5643.893
566.7307, 5628.877
567.2128, 5637.287
567.6949, 5653.899
568.1770, 5676.528
568.6591, 5685.601
569.1412, 5657.856
569.6234, 5615.552
570.1055, 5593.300
570.5876, 5592.223
571.0697, 5588.884
571.5518, 5567.008
572.0339, 5535.660
572.5161, 5502.317
572.9982, 5461.199
573.4803, 5432.051
573.9624, 5431.860
574.4445, 5445.600
574.9266, 5446.665
575.4088, 5427.590
575.8909, 5402.090
576.3730, 5368.054
576.8551, 5327.926
577.3372, 5303.705
577.8193, 5301.021
578.3015, 5300.989
578.7836, 5290.321
579.2657, 5269.398
579.7478, 5260.568
580.2299, 5266.841
580.7120, 5273.542
581.1942, 5261.055
581.6763, 5234.775
582.1584, 5211.046
582.6405, 5195.620
583.1226, 5183.073
583.6047, 5166.582
584.0869, 5148.739
584.5690, 5136.399
585.0511, 5144.943
585.5332, 5149.499
586.0153, 5132.318
586.4974, 5091.820
586.9796, 5058.188
587.4617, 5044.801
587.9438, 5033.963
588.4259, 5014.104
588.9080, 4972.604
589.3901, 4950.072
589.8723, 4955.439
590.3544, 4970.760
590.8365, 4971.210
591.3186, 4956.141
591.8007, 4930.621
592.2828, 4889.958
592.7650, 4845.141
593.2471, 4824.361
593.7292, 4825.929
594.2113, 4833.283
594.6934, 4842.735
595.1755, 4849.138
595.6577, 4841.826
596.1398, 4820.188
596.6219, 4802.883
597.1040, 4810.164
597.5862, 4822.773
598.0683, 4821.213
598.5504, 4784.503
599.0325, 4762.297
599.5146, 4779.280
599.9968, 4813.888
600.4789, 4830.546
600.9610, 4817.606
