##NAMES=Amesite
##RRUFFID=R070132
##IDEAL CHEMISTRY=Mg_2_Al(AlSiO_5_)(OH)_4_
##LOCALITY=Saranovskii mine, Saranovskaya Village, Gornozavodskii area, Permskaya Oblast', Middle Urals, Russia
##OWNER=RRUFF
##SOURCE=Michael Scott
##DESCRIPTION=Purple transparent hexagonal prisms, polytype 2H2
##STATUS=The identification of this mineral is confirmed by single-crystal X-ray diffraction and chemical analysis.
##URL=rruff.info/R070132
##MEASURED CHEMISTRY=(Mg_1.87_[box]_0.05_Cr_0.05_Fe^2+^_0.03_)_Σ=2_(Al_0.98_Cr_0.02_)_Σ=1_(Si_1.05_Al_0.95_)O_5_(OH)_4_ ; OH estimated by difference
104.9181, 78.80228
105.4002, 87.27084
105.8823, 97.58133
106.3644, 106.3309
106.8465, 110.0459
107.3287, 108.1629
107.8108, 106.1767
108.2929, 104.4863
108.7750, 102.8001
109.2571, 100.1168
109.7392, 96.73829
110.2214, 94.68011
110.7035, 96.85754
111.1856, 105.0711
111.6677, 112.6460
112.1498, 119.9924
112.6319, 126.2327
113.1141, 130.2736
113.5962, 132.0653
114.0783, 132.9600
114.5604, 134.9025
115.0425, 136.5047
115.5246, 142.0619
116.0068, 157.2416
116.4889, 172.8941
116.9710, 180.0362
117.4531, 175.9430
117.9352, 166.2222
118.4173, 162.4321
118.8995, 170.3794
119.3816, 178.2109
119.8637, 182.7012
120.3458, 188.1728
120.8279, 201.7719
121.3100, 226.8027
121.7922, 256.8983
122.2743, 273.4975
122.7564, 257.4045
123.2385, 253.9027
123.7206, 279.5748
124.2027, 321.3373
124.6849, 356.3086
125.1670, 373.2669
125.6491, 378.9063
126.1312, 394.4110
126.6133, 423.1381
127.0954, 454.2338
127.5776, 482.4580
128.0597, 509.8808
128.5418, 543.8212
129.0239, 591.1110
129.5060, 644.4969
129.9881, 684.1207
130.4702, 703.5913
130.9524, 719.9845
131.4345, 745.2776
131.9166, 777.4377
132.3987, 803.7407
132.8808, 818.0603
133.3629, 821.2720
133.8451, 817.8491
134.3272, 805.4370
134.8093, 789.9822
135.2914, 777.1335
135.7735, 767.0020
136.2556, 753.5938
136.7378, 729.5183
137.2199, 702.4190
137.7020, 681.7950
138.1841, 669.9536
138.6662, 664.3204
139.1483, 662.8466
139.6305, 665.9470
140.1126, 670.9254
140.5947, 676.2112
141.0768, 683.0166
141.5589, 693.1833
142.0410, 708.0222
142.5232, 725.1665
143.0053, 739.4254
143.4874, 747.5907
143.9695, 762.7634
144.4516, 798.4639
144.9337, 839.6592
145.4159, 870.3474
145.8980, 882.8161
146.3801, 885.5519
146.8622, 896.8496
147.3443, 920.4157
147.8264, 945.5005
148.3086, 972.7123
148.7907, 998.3472
149.2728, 1018.167
149.7549, 1029.981
150.2370, 1035.580
150.7191, 1040.058
151.2013, 1044.186
151.6834, 1045.532
152.1655, 1042.715
152.6476, 1037.564
153.1297, 1031.981
153.6118, 1026.873
154.0940, 1022.123
154.5761, 1017.209
155.0582, 1010.206
155.5403, 1005.913
156.0224, 1006.176
156.5045, 1009.014
156.9867, 1012.157
157.4688, 1014.411
157.9509, 1016.050
158.4330, 1018.214
158.9151, 1021.701
159.3972, 1024.806
159.8794, 1025.359
160.3615, 1025.927
160.8436, 1030.840
161.3257, 1042.718
161.8078, 1059.003
162.2899, 1068.320
162.7721, 1060.676
163.2542, 1056.683
163.7363, 1060.335
164.2184, 1068.782
164.7005, 1077.294
165.1826, 1083.199
165.6648, 1088.209
166.1469, 1100.201
166.6290, 1131.294
167.1111, 1155.529
167.5932, 1166.906
168.0753, 1169.359
168.5575, 1168.203
169.0396, 1165.838
169.5217, 1162.975
170.0038, 1162.761
170.4859, 1165.699
170.9680, 1170.446
171.4502, 1176.711
171.9323, 1184.659
172.4144, 1195.190
172.8965, 1209.092
173.3786, 1224.900
173.8607, 1237.125
174.3429, 1241.782
174.8250, 1248.085
175.3071, 1257.068
175.7892, 1269.019
176.2713, 1284.336
176.7534, 1303.056
177.2356, 1325.439
177.7177, 1352.851
178.1998, 1392.152
178.6819, 1426.232
179.1640, 1444.612
179.6461, 1455.500
180.1283, 1473.297
180.6104, 1504.095
181.0925, 1545.250
181.5746, 1592.523
182.0567, 1651.429
182.5388, 1704.826
183.0210, 1738.408
183.5031, 1764.163
183.9852, 1806.328
184.4673, 1876.716
184.9494, 1962.406
185.4315, 2035.245
185.9137, 2090.846
186.3958, 2148.377
186.8779, 2212.132
187.3600, 2281.829
187.8421, 2359.637
188.3242, 2447.737
188.8064, 2539.624
189.2885, 2620.451
189.7706, 2687.625
190.2527, 2760.850
190.7348, 2849.194
191.2169, 2947.602
191.6991, 3046.226
192.1812, 3142.393
192.6633, 3237.678
193.1454, 3336.361
193.6275, 3440.298
194.1096, 3534.127
194.5918, 3611.945
195.0739, 3676.630
195.5560, 3731.865
196.0381, 3776.479
196.5202, 3816.935
197.0023, 3863.355
197.4845, 3915.686
197.9666, 3961.460
198.4487, 3990.860
198.9308, 4012.774
199.4129, 4046.373
199.8950, 4099.902
200.3772, 4148.438
200.8593, 4158.143
201.3414, 4135.574
201.8235, 4110.742
202.3056, 4098.150
202.7877, 4086.442
203.2699, 4058.121
203.7520, 4009.646
204.2341, 3949.894
204.7162, 3888.024
205.1983, 3822.459
205.6804, 3742.034
206.1626, 3635.453
206.6447, 3515.671
207.1268, 3398.591
207.6089, 3285.306
208.0910, 3174.433
208.5731, 3066.871
209.0553, 2960.865
209.5374, 2852.705
210.0195, 2737.646
210.5016, 2622.560
210.9837, 2515.760
211.4658, 2417.777
211.9480, 2324.107
212.4301, 2231.130
212.9122, 2140.866
213.3943, 2059.299
213.8764, 1982.990
214.3585, 1918.313
214.8407, 1876.424
215.3228, 1857.705
215.8049, 1839.164
216.2870, 1806.390
216.7691, 1766.169
217.2512, 1732.394
217.7334, 1707.762
218.2155, 1687.956
218.6976, 1671.112
219.1797, 1657.093
219.6618, 1641.898
220.1439, 1621.884
220.6261, 1601.093
221.1082, 1585.682
221.5903, 1576.064
222.0724, 1571.298
222.5545, 1570.711
223.0366, 1574.399
223.5188, 1583.061
224.0009, 1597.786
224.4830, 1617.258
224.9651, 1638.974
225.4472, 1662.979
225.9293, 1688.375
226.4115, 1711.477
226.8936, 1734.913
227.3757, 1768.564
227.8578, 1818.398
228.3399, 1874.475
228.8220, 1924.843
229.3041, 1969.338
229.7863, 2013.836
230.2684, 2059.237
230.7505, 2106.691
231.2326, 2159.289
231.7147, 2218.144
232.1968, 2280.867
232.6790, 2345.029
233.1611, 2410.545
233.6432, 2479.441
234.1253, 2549.390
234.6074, 2624.209
235.0895, 2709.839
235.5717, 2807.695
236.0538, 2913.154
236.5359, 3021.069
237.0180, 3132.671
237.5001, 3257.269
237.9822, 3398.666
238.4644, 3552.700
238.9465, 3707.616
239.4286, 3861.876
239.9107, 4040.864
240.3928, 4272.733
240.8749, 4543.577
241.3571, 4802.346
241.8392, 5048.385
242.3213, 5277.590
242.8034, 5517.088
243.2855, 5755.994
243.7676, 5898.253
244.2498, 5883.862
244.7319, 5731.912
245.2140, 5533.751
245.6961, 5282.116
246.1782, 4998.065
246.6603, 4668.240
247.1425, 4308.034
247.6246, 3967.692
248.1067, 3660.319
248.5888, 3391.075
249.0709, 3166.247
249.5530, 2982.159
250.0352, 2836.478
250.5173, 2743.288
250.9994, 2686.326
251.4815, 2634.176
251.9636, 2576.793
252.4457, 2527.979
252.9279, 2511.960
253.4100, 2530.473
253.8921, 2558.830
254.3742, 2600.208
254.8563, 2645.858
255.3384, 2684.427
255.8206, 2713.863
256.3027, 2742.265
256.7848, 2777.082
257.2669, 2819.382
257.7490, 2865.896
258.2311, 2918.041
258.7133, 2973.282
259.1954, 3030.362
259.6775, 3089.083
260.1596, 3148.774
260.6417, 3207.816
261.1238, 3266.776
261.6060, 3336.673
262.0881, 3423.371
262.5702, 3513.526
263.0523, 3597.377
263.5344, 3678.811
264.0165, 3767.836
264.4987, 3870.057
264.9808, 3984.646
265.4629, 4111.450
265.9450, 4251.995
266.4271, 4400.465
266.9092, 4557.221
267.3914, 4720.881
267.8735, 4890.034
268.3556, 5065.011
268.8377, 5243.869
269.3198, 5424.035
269.8019, 5614.063
270.2841, 5789.448
270.7662, 5952.969
271.2483, 6100.818
271.7304, 6234.696
272.2125, 6353.544
272.6946, 6448.458
273.1768, 6509.748
273.6589, 6536.516
274.1410, 6524.908
274.6231, 6471.625
275.1052, 6389.875
275.5873, 6271.589
276.0695, 6127.202
276.5516, 5986.282
277.0337, 5874.336
277.5158, 5791.918
277.9979, 5706.109
278.4800, 5603.532
278.9622, 5511.717
279.4443, 5438.332
279.9264, 5381.152
280.4085, 5339.234
280.8906, 5313.846
281.3727, 5296.870
281.8549, 5256.857
282.3370, 5187.234
282.8191, 5101.130
283.3012, 5001.317
283.7833, 4887.339
284.2654, 4757.476
284.7476, 4612.083
285.2297, 4450.401
285.7118, 4267.073
286.1939, 4044.178
286.6760, 3846.706
287.1581, 3695.640
287.6403, 3555.804
288.1224, 3406.020
288.6045, 3245.352
289.0866, 3088.239
289.5687, 2949.726
290.0508, 2830.191
290.5330, 2715.089
291.0151, 2606.248
291.4972, 2500.375
291.9793, 2392.120
292.4614, 2285.272
292.9435, 2189.689
293.4257, 2113.219
293.9078, 2051.531
294.3899, 1990.361
294.8720, 1927.123
295.3541, 1870.026
295.8362, 1824.040
296.3184, 1785.265
296.8005, 1749.667
297.2826, 1715.356
297.7647, 1684.991
298.2468, 1663.946
298.7289, 1653.225
299.2111, 1640.682
299.6932, 1617.988
300.1753, 1595.337
300.6574, 1583.764
301.1395, 1584.786
301.6216, 1587.730
302.1038, 1583.839
302.5859, 1575.566
303.0680, 1572.362
303.5501, 1576.411
304.0322, 1585.026
304.5143, 1597.742
304.9964, 1613.578
305.4785, 1626.985
305.9607, 1629.366
306.4428, 1631.381
306.9249, 1650.491
307.4070, 1688.460
307.8891, 1725.404
308.3712, 1744.307
308.8534, 1750.482
309.3355, 1769.189
309.8176, 1812.497
310.2997, 1857.719
310.7818, 1892.303
311.2639, 1918.266
311.7461, 1942.896
312.2282, 1969.608
312.7103, 1996.479
313.1924, 2018.083
313.6745, 2030.396
314.1566, 2046.758
314.6388, 2076.793
315.1209, 2109.364
315.6030, 2130.559
316.0851, 2137.187
316.5672, 2135.844
317.0493, 2133.898
317.5315, 2130.786
318.0136, 2129.591
318.4957, 2128.955
318.9778, 2131.191
319.4599, 2137.590
319.9420, 2148.082
320.4242, 2161.338
320.9063, 2175.549
321.3884, 2191.678
321.8705, 2220.895
322.3526, 2274.219
322.8347, 2328.577
323.3169, 2383.346
323.7990, 2435.738
324.2811, 2482.209
324.7632, 2521.367
325.2453, 2556.208
325.7274, 2594.533
326.2096, 2645.297
326.6917, 2678.752
327.1738, 2692.599
327.6559, 2691.657
328.1380, 2673.867
328.6201, 2641.982
329.1023, 2606.497
329.5844, 2577.184
330.0665, 2553.970
330.5486, 2530.568
331.0307, 2507.526
331.5128, 2483.358
331.9950, 2454.922
332.4771, 2425.287
332.9592, 2400.325
333.4413, 2382.621
333.9234, 2371.387
334.4055, 2364.396
334.8877, 2360.529
335.3698, 2366.013
335.8519, 2388.713
336.3340, 2419.565
336.8161, 2450.141
337.2982, 2479.121
337.7804, 2508.985
338.2625, 2543.347
338.7446, 2580.580
339.2267, 2614.380
339.7088, 2644.889
340.1909, 2668.740
340.6731, 2679.665
341.1552, 2679.440
341.6373, 2678.692
342.1194, 2686.392
342.6015, 2691.471
343.0836, 2675.870
343.5658, 2639.954
344.0479, 2610.275
344.5300, 2607.519
345.0121, 2625.240
345.4942, 2627.686
345.9763, 2607.867
346.4585, 2582.152
346.9406, 2557.784
347.4227, 2531.159
347.9048, 2494.761
348.3869, 2445.404
348.8690, 2388.657
349.3512, 2333.645
349.8333, 2280.083
350.3154, 2229.527
350.7975, 2184.654
351.2796, 2140.424
351.7617, 2090.209
352.2439, 2035.920
352.7260, 1987.741
353.2081, 1956.391
353.6902, 1941.200
354.1723, 1913.981
354.6544, 1848.927
355.1366, 1799.809
355.6187, 1782.734
356.1008, 1785.695
356.5829, 1793.224
357.0650, 1798.762
357.5471, 1804.912
358.0293, 1817.411
358.5114, 1838.778
358.9935, 1858.152
359.4756, 1876.458
359.9577, 1890.307
360.4398, 1892.416
360.9220, 1885.215
361.4041, 1883.821
361.8862, 1902.792
362.3683, 1938.221
362.8504, 1970.318
363.3326, 1995.625
363.8147, 2024.583
364.2968, 2063.531
364.7789, 2110.327
365.2610, 2163.911
365.7431, 2229.792
366.2253, 2293.775
366.7074, 2339.021
367.1895, 2368.095
367.6716, 2400.216
368.1537, 2442.646
368.6358, 2490.350
369.1180, 2533.318
369.6001, 2569.509
370.0822, 2613.587
370.5643, 2670.964
371.0464, 2737.468
371.5285, 2809.334
372.0107, 2885.680
372.4928, 2965.039
372.9749, 3045.201
373.4570, 3126.261
373.9391, 3219.786
374.4212, 3346.006
374.9034, 3459.791
375.3855, 3540.176
375.8676, 3598.761
376.3497, 3658.435
376.8318, 3729.042
377.3139, 3794.962
377.7961, 3824.976
378.2782, 3801.291
378.7603, 3773.240
379.2424, 3742.081
379.7245, 3706.639
380.2066, 3665.888
380.6888, 3619.895
381.1709, 3569.048
381.6530, 3511.521
382.1351, 3448.971
382.6172, 3396.529
383.0993, 3357.523
383.5815, 3323.221
384.0636, 3286.616
384.5457, 3253.999
385.0278, 3233.418
385.5099, 3227.995
385.9920, 3231.575
386.4742, 3240.929
386.9563, 3255.438
387.4384, 3262.380
387.9205, 3250.907
388.4026, 3242.912
388.8847, 3258.828
389.3669, 3296.399
389.8490, 3343.880
390.3311, 3400.726
390.8132, 3464.039
391.2953, 3531.963
391.7774, 3604.270
392.2596, 3677.565
392.7417, 3753.456
393.2238, 3827.037
393.7059, 3876.760
394.1880, 3881.004
394.6701, 3897.549
395.1523, 3946.994
395.6344, 4013.974
396.1165, 4076.786
396.5986, 4130.974
397.0807, 4189.910
397.5628, 4268.182
398.0450, 4364.331
398.5271, 4486.977
399.0092, 4646.787
399.4913, 4818.240
399.9734, 4988.427
400.4555, 5163.506
400.9377, 5360.204
401.4197, 5587.876
401.9019, 5834.545
402.3840, 6078.323
402.8661, 6323.428
403.3482, 6550.592
403.8303, 6762.794
404.3124, 6951.314
404.7946, 7118.570
405.2767, 7260.289
405.7588, 7356.651
406.2409, 7385.780
406.7230, 7358.247
407.2051, 7309.453
407.6873, 7239.297
408.1694, 7150.001
408.6515, 7029.885
409.1336, 6894.065
409.6157, 6770.849
410.0978, 6665.395
410.5800, 6569.319
411.0621, 6489.282
411.5442, 6413.966
412.0263, 6318.386
412.5084, 6197.801
412.9905, 6046.850
413.4727, 5855.951
413.9548, 5617.967
414.4369, 5369.834
414.9190, 5103.081
415.4011, 4836.337
415.8832, 4573.117
416.3654, 4317.881
416.8475, 4078.415
417.3296, 3856.877
417.8117, 3652.046
418.2938, 3457.296
418.7759, 3267.999
419.2581, 3099.016
419.7402, 2951.504
420.2223, 2820.613
420.7044, 2704.260
421.1865, 2601.346
421.6686, 2510.236
422.1508, 2431.907
422.6329, 2364.666
423.1150, 2296.193
423.5971, 2220.869
424.0792, 2156.355
424.5613, 2118.253
425.0435, 2091.845
425.5256, 2059.890
426.0077, 2016.201
426.4898, 1976.081
426.9719, 1955.142
427.4540, 1948.017
427.9362, 1934.796
428.4183, 1910.147
428.9004, 1883.206
429.3825, 1860.893
429.8646, 1843.521
430.3467, 1836.081
430.8289, 1849.153
431.3110, 1862.596
431.7931, 1859.908
432.2752, 1848.437
432.7573, 1847.379
433.2394, 1865.724
433.7216, 1894.770
434.2037, 1916.507
434.6858, 1923.628
435.1679, 1937.678
435.6500, 1970.746
436.1321, 1999.508
436.6143, 2003.449
437.0964, 1989.795
437.5785, 1984.114
438.0606, 2006.895
438.5427, 2047.850
439.0248, 2068.325
439.5070, 2059.901
439.9891, 2052.456
440.4712, 2057.406
440.9533, 2065.184
441.4354, 2068.178
441.9175, 2065.415
442.3997, 2061.097
442.8818, 2055.487
443.3639, 2050.708
443.8460, 2053.147
444.3281, 2064.173
444.8102, 2076.253
445.2924, 2084.629
445.7745, 2089.828
446.2566, 2094.787
446.7387, 2096.647
447.2208, 2101.899
447.7029, 2117.210
448.1851, 2135.977
448.6672, 2147.877
449.1493, 2150.400
449.6314, 2149.055
450.1135, 2149.903
450.5956, 2153.001
451.0778, 2157.867
451.5599, 2171.571
452.0420, 2179.201
452.5241, 2169.043
453.0062, 2151.986
453.4883, 2144.989
453.9705, 2155.268
454.4526, 2172.819
454.9347, 2181.399
455.4168, 2179.602
455.8989, 2181.662
456.3810, 2194.325
456.8632, 2205.184
457.3453, 2202.383
457.8274, 2190.767
458.3095, 2186.050
458.7916, 2198.199
459.2737, 2216.553
459.7559, 2232.031
460.2380, 2244.116
460.7201, 2247.996
461.2022, 2238.911
461.6843, 2226.724
462.1664, 2229.016
462.6486, 2249.431
463.1307, 2269.621
463.6128, 2284.441
464.0949, 2301.461
464.5770, 2325.942
465.0591, 2357.420
465.5413, 2392.238
466.0234, 2427.792
466.5055, 2466.523
466.9876, 2518.136
467.4697, 2594.095
467.9518, 2660.551
468.4340, 2699.876
468.9161, 2741.242
469.3982, 2804.591
469.8803, 2889.680
470.3624, 2983.269
470.8445, 3081.714
471.3267, 3180.489
471.8088, 3264.439
472.2909, 3330.388
472.7730, 3400.954
473.2551, 3490.717
473.7372, 3587.037
474.2194, 3672.483
474.7015, 3748.269
475.1836, 3806.279
475.6657, 3845.614
476.1478, 3864.635
476.6299, 3856.770
477.1121, 3823.679
477.5942, 3780.940
478.0763, 3739.291
478.5584, 3697.412
479.0405, 3648.584
479.5226, 3588.266
480.0048, 3525.706
480.4869, 3461.882
480.9690, 3395.707
481.4511, 3324.898
481.9332, 3249.777
482.4153, 3175.771
482.8975, 3105.265
483.3796, 3039.572
483.8617, 2985.485
484.3438, 2943.304
484.8259, 2912.655
485.3080, 2904.910
485.7902, 2903.550
486.2723, 2891.105
486.7544, 2864.128
487.2365, 2834.947
487.7186, 2805.142
488.2007, 2779.941
488.6829, 2775.050
489.1650, 2792.067
489.6471, 2802.132
490.1292, 2782.099
490.6113, 2737.647
491.0934, 2705.519
491.5756, 2704.679
492.0577, 2689.624
492.5398, 2641.678
493.0219, 2582.726
493.5040, 2536.651
493.9861, 2505.479
494.4683, 2471.957
494.9504, 2419.790
495.4325, 2350.187
495.9146, 2280.711
496.3967, 2208.068
496.8788, 2141.966
497.3610, 2087.794
497.8431, 2039.943
498.3252, 1993.751
498.8073, 1948.386
499.2894, 1905.324
499.7715, 1865.858
500.2536, 1829.198
500.7357, 1792.057
501.2179, 1753.869
501.7000, 1721.293
502.1821, 1698.098
502.6642, 1684.089
503.1463, 1678.886
503.6284, 1691.604
504.1106, 1698.062
504.5927, 1687.669
505.0748, 1672.942
505.5569, 1664.615
506.0390, 1664.413
506.5211, 1670.101
507.0033, 1681.247
507.4854, 1695.891
507.9675, 1700.112
508.4496, 1682.546
508.9317, 1676.608
509.4138, 1699.090
509.8960, 1729.324
510.3781, 1749.725
510.8602, 1758.924
511.3423, 1770.606
511.8244, 1795.851
512.3066, 1828.720
512.7887, 1857.721
513.2708, 1882.611
513.7529, 1907.072
514.2350, 1931.420
514.7172, 1958.115
515.1993, 1994.191
515.6814, 2045.360
516.1635, 2091.542
516.6456, 2124.685
517.1277, 2155.979
517.6099, 2191.698
518.0920, 2233.335
518.5741, 2282.543
519.0562, 2340.986
519.5383, 2405.031
520.0204, 2463.343
520.5026, 2510.834
520.9847, 2566.122
521.4668, 2641.941
521.9489, 2718.255
522.4310, 2783.347
522.9131, 2838.050
523.3953, 2889.569
523.8774, 2940.613
524.3595, 2990.425
524.8416, 3039.350
525.3237, 3086.837
525.8058, 3127.086
526.2880, 3156.428
526.7701, 3183.965
527.2522, 3225.322
527.7343, 3289.044
528.2164, 3329.932
528.6985, 3339.311
529.1807, 3335.532
529.6628, 3325.873
530.1449, 3309.966
530.6270, 3284.521
531.1091, 3248.240
531.5912, 3206.448
532.0734, 3170.023
532.5555, 3141.078
533.0376, 3095.543
533.5197, 3020.341
534.0018, 2945.771
534.4839, 2895.761
534.9661, 2856.498
535.4482, 2800.294
535.9303, 2711.536
536.4124, 2625.551
536.8945, 2573.094
537.3766, 2540.313
537.8588, 2497.957
538.3409, 2440.873
538.8230, 2384.800
539.3051, 2344.128
539.7872, 2317.679
540.2693, 2284.438
540.7515, 2237.815
541.2336, 2192.649
541.7157, 2146.533
542.1978, 2105.049
542.6799, 2075.058
543.1620, 2056.050
543.6442, 2039.702
544.1263, 2020.394
544.6084, 1997.982
545.0905, 1969.868
545.5726, 1933.169
546.0547, 1906.456
546.5369, 1903.053
547.0190, 1907.818
547.5011, 1897.790
547.9832, 1871.090
548.4653, 1848.901
548.9474, 1837.597
549.4296, 1832.564
549.9116, 1833.848
550.3937, 1838.389
550.8759, 1838.576
551.3580, 1830.756
551.8401, 1817.171
552.3222, 1801.632
552.8043, 1783.051
553.2864, 1765.783
553.7686, 1746.565
554.2507, 1732.027
554.7328, 1729.530
555.2149, 1732.634
555.6970, 1729.166
556.1791, 1713.582
556.6613, 1695.052
557.1434, 1682.973
557.6255, 1675.574
558.1076, 1667.835
558.5897, 1659.428
559.0718, 1645.989
559.5540, 1620.966
560.0361, 1586.801
560.5182, 1565.879
561.0003, 1568.773
561.4824, 1568.909
561.9645, 1558.738
562.4467, 1545.476
562.9288, 1536.652
563.4109, 1532.408
563.8930, 1527.382
564.3751, 1517.262
564.8572, 1503.280
565.3394, 1488.813
565.8215, 1472.626
566.3036, 1461.346
566.7857, 1458.754
567.2678, 1460.136
567.7499, 1463.432
568.2321, 1468.056
568.7142, 1464.001
569.1963, 1442.369
569.6784, 1416.506
570.1605, 1391.845
570.6426, 1371.412
571.1248, 1365.145
571.6069, 1376.404
572.0890, 1389.012
572.5711, 1378.263
573.0532, 1338.495
573.5353, 1318.109
574.0175, 1336.828
574.4996, 1350.773
574.9817, 1342.646
575.4638, 1325.781
575.9459, 1316.730
576.4280, 1319.299
576.9102, 1324.109
577.3923, 1327.783
577.8744, 1327.812
578.3565, 1314.939
578.8386, 1289.102
579.3207, 1269.983
579.8029, 1269.626
580.2850, 1280.708
580.7671, 1285.764
581.2492, 1280.068
581.7313, 1277.144
582.2134, 1281.035
582.6956, 1283.930
583.1777, 1280.078
583.6598, 1271.844
584.1419, 1264.583
584.6240, 1260.765
585.1061, 1259.221
585.5883, 1258.994
586.0704, 1259.957
586.5525, 1259.848
587.0346, 1258.549
587.5167, 1255.784
587.9988, 1251.462
588.4810, 1245.403
588.9631, 1236.975
589.4452, 1221.369
589.9273, 1211.200
590.4094, 1214.685
590.8915, 1222.621
591.3737, 1226.443
591.8558, 1225.097
592.3379, 1220.368
592.8200, 1212.953
593.3021, 1204.347
593.7842, 1199.569
594.2664, 1200.348
594.7485, 1198.259
595.2306, 1188.980
595.7127, 1179.594
596.1948, 1175.401
596.6769, 1175.228
597.1591, 1174.811
