##NAMES=Amesite
##RRUFFID=R070116
##IDEAL CHEMISTRY=Mg_2_Al(AlSiO_5_)(OH)_4_
##LOCALITY=Saranovskii Mine (Saranovskoye), Saranovskaya (Sarany; Saranje) Village, Gorozavod area, Permskaya Oblast', Urais Region, Russia
##OWNER=RRUFF
##SOURCE=Michael Scott
##DESCRIPTION=Purple thin micaceous crystals, not a standard polytype, see Wiewiora et al (Am Min 76 (1991) 647-652)
##STATUS=The identification of this mineral is confirmed by single-crystal X-ray diffraction and chemical analysis.
##URL=rruff.info/R070116
##MEASURED CHEMISTRY=(Mg_1.88_[box]_0.05_Cr_0.04_Fe^2+^_0.03_)_Σ=2_(Al_0.96_Cr_0.04_)_Σ=1_(Si_1.06_Al_0.94_)O_5_(OH)_4_ ; OH estimated by difference
119.8083, 10731.66
120.2904, 10748.49
120.7725, 10770.61
121.2546, 10802.21
121.7368, 10836.16
122.2189, 10868.21
122.7010, 10897.98
123.1831, 10924.59
123.6652, 10936.88
124.1473, 10946.25
124.6295, 10972.58
125.1116, 11035.88
125.5937, 11116.02
126.0758, 11184.91
126.5579, 11242.04
127.0400, 11294.66
127.5222, 11352.19
128.0043, 11412.83
128.4864, 11469.29
128.9685, 11519.17
129.4506, 11561.97
129.9328, 11596.38
130.4149, 11620.74
130.8970, 11640.55
131.3791, 11660.01
131.8612, 11679.35
132.3433, 11709.19
132.8255, 11766.27
133.3076, 11847.53
133.7897, 11912.90
134.2718, 11962.28
134.7539, 11988.90
135.2360, 11964.83
135.7182, 11881.14
136.2003, 11783.49
136.6824, 11702.56
137.1645, 11637.06
137.6466, 11597.75
138.1287, 11594.30
138.6109, 11623.58
139.0930, 11637.56
139.5751, 11633.83
140.0572, 11618.67
140.5393, 11595.67
141.0214, 11556.48
141.5036, 11530.38
141.9857, 11530.04
142.4678, 11563.08
142.9499, 11578.97
143.4320, 11568.47
143.9141, 11545.99
144.3963, 11537.00
144.8784, 11550.25
145.3605, 11564.84
145.8426, 11571.85
146.3247, 11557.39
146.8068, 11562.74
147.2890, 11601.99
147.7711, 11662.52
148.2532, 11703.09
148.7353, 11713.91
149.2174, 11712.79
149.6995, 11707.70
150.1817, 11679.07
150.6638, 11668.82
151.1459, 11687.76
151.6280, 11731.84
152.1101, 11767.98
152.5922, 11800.59
153.0744, 11821.02
153.5565, 11823.93
154.0386, 11778.67
154.5207, 11745.87
155.0028, 11740.87
155.4849, 11764.88
155.9671, 11790.41
156.4492, 11824.76
156.9313, 11853.41
157.4134, 11862.23
157.8955, 11820.46
158.3777, 11782.06
158.8598, 11767.79
159.3419, 11782.50
159.8240, 11803.12
160.3061, 11827.27
160.7882, 11851.88
161.2704, 11872.49
161.7525, 11884.99
162.2346, 11894.86
162.7167, 11904.82
163.1988, 11915.37
163.6809, 11926.10
164.1631, 11940.10
164.6452, 11954.45
165.1273, 11962.71
165.6094, 11953.54
166.0915, 11941.32
166.5736, 11936.24
167.0558, 11937.18
167.5379, 11951.28
168.0200, 11991.46
168.5021, 12051.61
168.9842, 12108.56
169.4663, 12152.97
169.9485, 12185.34
170.4306, 12205.06
170.9127, 12201.71
171.3948, 12196.15
171.8769, 12206.73
172.3590, 12232.33
172.8412, 12264.43
173.3233, 12296.54
173.8054, 12330.80
174.2875, 12370.64
174.7696, 12422.09
175.2517, 12477.19
175.7339, 12523.23
176.2160, 12560.47
176.6981, 12602.01
177.1802, 12663.06
177.6623, 12738.44
178.1444, 12813.86
178.6266, 12875.80
179.1087, 12936.69
179.5908, 13021.54
180.0729, 13132.58
180.5550, 13250.42
181.0371, 13354.53
181.5193, 13447.13
182.0014, 13532.87
182.4835, 13602.32
182.9656, 13666.99
183.4477, 13764.48
183.9298, 13902.90
184.4120, 14052.79
184.8941, 14170.71
185.3762, 14260.87
185.8583, 14350.84
186.3404, 14459.40
186.8225, 14581.65
187.3047, 14703.88
187.7868, 14826.67
188.2689, 14943.51
188.7510, 15031.96
189.2331, 15091.92
189.7152, 15166.17
190.1974, 15298.87
190.6795, 15479.93
191.1616, 15629.98
191.6437, 15729.99
192.1258, 15799.58
192.6080, 15883.44
193.0901, 15983.78
193.5722, 16087.12
194.0543, 16175.19
194.5364, 16248.58
195.0185, 16352.40
195.5007, 16505.26
195.9828, 16689.97
196.4649, 16840.94
196.9470, 16956.63
197.4291, 17056.39
197.9112, 17147.95
198.3934, 17229.04
198.8755, 17337.03
199.3576, 17486.69
199.8397, 17670.79
200.3218, 17847.45
200.8039, 18016.49
201.2861, 18178.56
201.7682, 18332.86
202.2503, 18478.33
202.7324, 18622.29
203.2145, 18764.32
203.6966, 18905.01
204.1788, 19055.13
204.6609, 19212.03
205.1430, 19380.37
205.6251, 19567.11
206.1072, 19775.33
206.5893, 19989.68
207.0715, 20210.66
207.5536, 20437.17
208.0357, 20647.72
208.5178, 20839.98
208.9999, 21019.68
209.4820, 21201.61
209.9642, 21393.60
210.4463, 21564.59
210.9284, 21714.91
211.4105, 21851.11
211.8926, 21908.38
212.3747, 21882.88
212.8569, 21781.86
213.3390, 21613.61
213.8211, 21376.72
214.3032, 21080.70
214.7853, 20721.97
215.2674, 20295.20
215.7496, 19842.89
216.2317, 19357.41
216.7138, 18849.91
217.1959, 18337.16
217.6780, 17808.04
218.1601, 17287.51
218.6423, 16782.13
219.1244, 16266.33
219.6065, 15834.40
220.0886, 15504.87
220.5707, 15246.32
221.0528, 14990.49
221.5350, 14724.63
222.0171, 14477.05
222.4992, 14258.35
222.9813, 14076.15
223.4634, 13907.47
223.9455, 13750.25
224.4277, 13606.69
224.9098, 13493.60
225.3919, 13422.83
225.8740, 13360.68
226.3561, 13288.97
226.8382, 13200.92
227.3204, 13119.67
227.8025, 13041.37
228.2846, 12971.40
228.7667, 12929.61
229.2488, 12929.35
229.7310, 12939.29
230.2131, 12943.18
230.6952, 12937.45
231.1773, 12933.72
231.6594, 12935.19
232.1415, 12939.36
232.6237, 12933.92
233.1058, 12911.02
233.5879, 12888.91
234.0700, 12877.29
234.5521, 12874.88
235.0342, 12886.42
235.5164, 12918.00
235.9985, 12965.23
236.4806, 13004.52
236.9627, 13038.10
237.4448, 13060.35
237.9269, 13064.00
238.4091, 13028.44
238.8912, 13016.42
239.3733, 13039.16
239.8554, 13092.03
240.3375, 13145.11
240.8196, 13206.54
241.3018, 13258.22
241.7839, 13287.73
242.2660, 13286.40
242.7481, 13281.03
243.2302, 13277.03
243.7123, 13272.39
244.1945, 13248.45
244.6766, 13186.75
245.1587, 13128.20
245.6408, 13104.59
246.1229, 13141.17
246.6050, 13159.13
247.0872, 13143.70
247.5693, 13099.30
248.0514, 13064.69
248.5335, 13044.99
249.0156, 13028.74
249.4977, 13007.14
249.9799, 12976.10
250.4620, 12948.64
250.9441, 12924.34
251.4262, 12904.07
251.9083, 12895.90
252.3904, 12900.85
252.8726, 12916.71
253.3547, 12944.25
253.8368, 12992.94
254.3189, 13031.65
254.8010, 13054.46
255.2831, 13062.97
255.7653, 13072.22
256.2474, 13081.76
256.7295, 13092.58
257.2116, 13107.44
257.6937, 13132.63
258.1758, 13144.18
258.6580, 13131.94
259.1401, 13100.53
259.6222, 13091.04
260.1043, 13113.89
260.5864, 13142.63
261.0685, 13154.96
261.5507, 13143.21
262.0328, 13138.64
262.5149, 13150.52
262.9970, 13174.59
263.4791, 13179.37
263.9612, 13159.91
264.4434, 13129.87
264.9255, 13095.69
265.4076, 13051.69
265.8897, 13024.67
266.3718, 13023.41
266.8539, 13042.60
267.3361, 13049.46
267.8182, 13037.32
268.3003, 13026.86
268.7824, 13036.34
269.2645, 13072.00
269.7466, 13100.97
270.2288, 13117.63
270.7109, 13124.56
271.1930, 13132.91
271.6751, 13141.14
272.1572, 13155.03
272.6393, 13180.88
273.1215, 13220.83
273.6036, 13260.82
274.0857, 13303.78
274.5678, 13343.76
275.0499, 13352.46
275.5320, 13321.04
276.0142, 13289.07
276.4963, 13288.76
276.9784, 13323.50
277.4605, 13355.62
277.9426, 13385.01
278.4247, 13405.76
278.9069, 13392.89
279.3890, 13339.46
279.8711, 13286.85
280.3532, 13272.59
280.8354, 13297.63
281.3175, 13297.46
281.7996, 13255.25
282.2817, 13192.35
282.7638, 13166.65
283.2459, 13182.07
283.7281, 13196.90
284.2102, 13176.21
284.6923, 13123.29
285.1744, 13086.95
285.6565, 13074.15
286.1386, 13078.92
286.6208, 13099.18
287.1029, 13135.77
287.5850, 13157.72
288.0671, 13135.97
288.5492, 13078.43
289.0313, 13033.68
289.5135, 13010.24
289.9956, 12994.31
290.4777, 12962.28
290.9598, 12914.94
291.4419, 12864.08
291.9240, 12824.37
292.4062, 12787.89
292.8883, 12721.85
293.3704, 12615.25
293.8525, 12500.48
294.3346, 12423.15
294.8167, 12379.25
295.2989, 12340.11
295.7810, 12282.98
296.2631, 12219.94
296.7452, 12179.06
297.2273, 12165.10
297.7094, 12163.94
298.1916, 12170.24
298.6737, 12178.62
299.1558, 12170.10
299.6379, 12111.27
300.1200, 12036.24
300.6021, 12005.25
301.0843, 12027.10
301.5664, 12059.82
302.0485, 12060.38
302.5306, 12039.98
303.0127, 12025.67
303.4948, 12036.88
303.9770, 12057.51
304.4591, 12069.10
304.9412, 12070.37
305.4233, 12068.13
305.9054, 12066.63
306.3875, 12065.51
306.8697, 12064.15
307.3518, 12056.65
307.8339, 12052.39
308.3160, 12062.09
308.7981, 12085.83
309.2802, 12105.19
309.7624, 12146.42
310.2445, 12176.17
310.7266, 12195.07
311.2087, 12170.60
311.6908, 12202.13
312.1729, 12211.22
312.6551, 12219.39
313.1372, 12258.80
313.6193, 12240.65
314.1014, 12279.56
314.5835, 12295.69
315.0656, 12322.26
315.5478, 12317.20
316.0299, 12326.38
316.5120, 12320.33
316.9941, 12316.93
317.4762, 12322.98
317.9583, 12334.23
318.4405, 12347.42
318.9226, 12352.65
319.4047, 12370.81
319.8868, 12420.16
320.3689, 12490.41
320.8510, 12543.69
321.3332, 12549.43
321.8153, 12550.50
322.2974, 12569.53
322.7795, 12613.60
323.2616, 12669.54
323.7437, 12750.34
324.2259, 12842.88
324.7080, 12913.08
325.1901, 12963.51
325.6722, 12985.66
326.1543, 12970.53
326.6364, 12881.09
327.1186, 12826.41
327.6007, 12836.12
328.0828, 12876.42
328.5649, 12886.91
329.0470, 12845.80
329.5291, 12798.10
330.0113, 12755.26
330.4934, 12716.70
330.9755, 12683.57
331.4576, 12649.68
331.9397, 12624.98
332.4218, 12624.76
332.9040, 12666.16
333.3861, 12702.50
333.8682, 12718.20
334.3503, 12710.60
334.8324, 12723.47
335.3145, 12768.01
335.7967, 12818.72
336.2788, 12845.22
336.7609, 12837.49
337.2430, 12837.86
337.7251, 12852.57
338.2072, 12882.25
338.6894, 12933.73
339.1715, 13012.08
339.6536, 13099.47
340.1357, 13190.25
340.6178, 13289.36
341.0999, 13344.29
341.5821, 13336.27
342.0642, 13285.47
342.5463, 13250.53
343.0284, 13233.39
343.5105, 13218.24
343.9926, 13195.55
344.4748, 13165.65
344.9569, 13128.66
345.4390, 13082.87
345.9211, 13033.59
346.4032, 12992.31
346.8853, 12958.28
347.3675, 12920.26
347.8496, 12873.33
348.3317, 12817.83
348.8138, 12748.90
349.2959, 12661.98
349.7780, 12579.20
350.2602, 12524.04
350.7423, 12493.21
351.2244, 12474.26
351.7065, 12466.80
352.1887, 12465.34
352.6708, 12463.83
353.1529, 12462.21
353.6350, 12457.31
354.1171, 12437.68
354.5992, 12413.96
355.0814, 12404.56
355.5635, 12425.54
356.0456, 12457.64
356.5277, 12490.08
357.0098, 12522.22
357.4919, 12546.18
357.9741, 12552.75
358.4562, 12551.11
358.9383, 12550.20
359.4204, 12548.70
359.9025, 12552.82
360.3846, 12568.53
360.8668, 12593.36
361.3489, 12617.11
361.8310, 12629.95
362.3131, 12644.06
362.7952, 12667.67
363.2773, 12707.26
363.7595, 12747.35
364.2416, 12790.56
364.7237, 12831.88
365.2058, 12860.05
365.6879, 12846.71
366.1700, 12842.20
366.6522, 12871.88
367.1343, 12963.91
367.6164, 13019.76
368.0985, 13011.25
368.5806, 12973.26
369.0627, 12951.56
369.5449, 12963.72
370.0270, 12970.37
370.5091, 12959.55
370.9912, 12928.53
371.4733, 12910.55
371.9554, 12909.16
372.4376, 12917.32
372.9197, 12928.26
373.4018, 12939.42
373.8839, 12960.83
374.3660, 13000.00
374.8481, 13051.23
375.3303, 13082.75
375.8124, 13089.48
376.2945, 13089.74
376.7766, 13091.67
377.2587, 13093.89
377.7408, 13116.62
378.2230, 13168.55
378.7051, 13233.60
379.1872, 13275.09
379.6693, 13291.39
380.1514, 13311.18
380.6335, 13350.31
381.1157, 13406.71
381.5978, 13472.63
382.0799, 13551.75
382.5620, 13623.51
383.0441, 13646.71
383.5262, 13634.63
384.0084, 13643.47
384.4905, 13711.14
384.9726, 13811.21
385.4547, 13896.44
385.9368, 13968.08
386.4189, 14041.51
386.9011, 14141.74
387.3832, 14250.71
387.8653, 14335.72
388.3474, 14372.33
388.8295, 14397.27
389.3116, 14441.89
389.7938, 14501.73
390.2759, 14558.07
390.7580, 14601.65
391.2401, 14637.36
391.7222, 14670.24
392.2043, 14704.48
392.6865, 14729.02
393.1686, 14738.78
393.6507, 14735.59
394.1328, 14723.70
394.6149, 14707.14
395.0970, 14679.79
395.5792, 14626.56
396.0613, 14529.38
396.5434, 14481.50
397.0255, 14521.66
397.5076, 14608.21
397.9897, 14695.48
398.4719, 14776.49
398.9540, 14862.42
399.4361, 14956.05
399.9182, 15057.27
400.4003, 15157.27
400.8824, 15239.57
401.3646, 15337.84
401.8467, 15479.16
402.3288, 15688.63
402.8109, 15877.70
403.2930, 16034.85
403.7751, 16169.08
404.2573, 16311.37
404.7394, 16471.84
405.2215, 16610.70
405.7036, 16704.19
406.1857, 16750.40
406.6678, 16784.54
407.1500, 16808.29
407.6321, 16816.80
408.1142, 16790.30
408.5963, 16730.71
409.0784, 16690.21
409.5605, 16683.43
410.0427, 16711.11
410.5248, 16782.74
411.0069, 16899.20
411.4890, 17031.13
411.9711, 17152.84
412.4532, 17269.04
412.9354, 17391.00
413.4175, 17520.55
413.8996, 17653.96
414.3817, 17809.46
414.8638, 17971.06
415.3459, 18083.14
415.8281, 18113.23
416.3102, 18076.21
416.7923, 17986.90
417.2744, 17852.19
417.7565, 17651.69
418.2386, 17321.91
418.7208, 16928.79
419.2029, 16579.76
419.6850, 16358.78
420.1671, 16144.62
420.6492, 15870.21
421.1313, 15529.30
421.6135, 15222.38
422.0956, 14976.20
422.5777, 14765.32
423.0598, 14567.25
423.5420, 14357.12
424.0241, 14189.92
424.5062, 14085.33
424.9883, 14029.13
425.4704, 13964.52
425.9525, 13871.90
426.4347, 13793.50
426.9168, 13751.91
427.3989, 13764.87
427.8810, 13756.01
428.3631, 13716.85
428.8452, 13664.80
429.3274, 13620.29
429.8095, 13580.03
430.2916, 13566.49
430.7737, 13597.41
431.2558, 13662.97
431.7379, 13696.77
432.2201, 13694.05
432.7022, 13684.14
433.1843, 13691.32
433.6664, 13714.03
434.1485, 13745.11
434.6306, 13787.84
435.1128, 13830.45
435.5949, 13856.98
436.0770, 13867.54
436.5591, 13863.00
437.0412, 13834.09
437.5233, 13794.00
438.0055, 13767.73
438.4876, 13761.15
438.9697, 13737.27
439.4518, 13644.87
439.9339, 13521.21
440.4160, 13422.10
440.8982, 13378.65
441.3803, 13357.42
441.8624, 13353.89
442.3445, 13363.53
442.8266, 13351.70
443.3087, 13277.90
443.7909, 13195.92
444.2730, 13142.84
444.7551, 13145.24
445.2372, 13143.65
445.7193, 13127.16
446.2014, 13101.36
446.6836, 13078.82
447.1657, 13058.12
447.6478, 13042.38
448.1299, 13032.50
448.6120, 13028.75
449.0941, 13002.96
449.5763, 13027.60
450.0584, 13041.10
450.5405, 13044.05
451.0226, 13004.86
451.5047, 13020.09
451.9868, 13013.51
452.4690, 13006.03
452.9511, 13028.92
453.4332, 12995.86
453.9153, 13018.26
454.3974, 13018.52
454.8795, 13028.92
455.3617, 13017.37
455.8438, 12968.81
456.3259, 13019.11
456.8080, 13049.59
457.2901, 13061.32
457.7722, 12998.14
458.2544, 13031.69
458.7365, 13026.48
459.2186, 13019.67
459.7007, 13066.84
460.1828, 13014.56
460.6649, 13060.87
461.1471, 13067.82
461.6292, 13092.79
462.1113, 13094.10
462.5934, 13127.87
463.0755, 13174.61
463.5576, 13229.12
464.0398, 13280.27
464.5219, 13312.11
465.0040, 13351.64
465.4861, 13413.13
465.9682, 13502.26
466.4503, 13581.64
466.9325, 13633.64
467.4146, 13685.66
467.8967, 13759.73
468.3788, 13867.11
468.8609, 13976.15
469.3430, 14079.71
469.8252, 14183.36
470.3073, 14307.26
470.7894, 14454.03
471.2715, 14613.76
471.7536, 14785.79
472.2357, 14970.88
472.7179, 15150.94
473.2000, 15327.64
473.6821, 15493.99
474.1642, 15642.81
474.6463, 15774.06
475.1284, 15886.55
475.6106, 15975.29
476.0927, 16049.46
476.5748, 16129.13
477.0569, 16211.68
477.5390, 16275.78
478.0211, 16302.43
478.5033, 16304.00
478.9854, 16289.33
479.4675, 16252.97
479.9496, 16229.22
480.4317, 16255.94
480.9138, 16306.67
481.3960, 16341.35
481.8781, 16332.91
482.3602, 16317.61
482.8423, 16302.85
483.3244, 16289.98
483.8065, 16296.59
484.2887, 16370.46
484.7708, 16433.70
485.2529, 16439.16
485.7350, 16355.55
486.2171, 16264.78
486.6992, 16160.34
487.1814, 16051.80
487.6635, 15955.70
488.1456, 15877.92
488.6277, 15798.61
489.1098, 15714.22
489.5919, 15623.58
490.0741, 15518.38
490.5562, 15396.01
491.0383, 15267.04
491.5204, 15142.13
492.0026, 15019.61
492.4847, 14896.29
492.9668, 14774.80
493.4489, 14645.65
493.9310, 14482.70
494.4131, 14295.90
494.8953, 14118.74
495.3774, 13967.64
495.8595, 13837.23
496.3416, 13730.36
496.8237, 13645.23
497.3058, 13566.05
497.7880, 13480.55
498.2701, 13396.25
498.7522, 13318.58
499.2343, 13242.90
499.7164, 13184.15
500.1985, 13158.52
500.6807, 13153.66
501.1628, 13138.18
501.6449, 13098.57
502.1270, 13054.87
502.6091, 13011.16
503.0912, 12965.54
503.5734, 12931.16
504.0555, 12912.98
504.5376, 12900.96
505.0197, 12883.97
505.5018, 12855.35
505.9839, 12846.43
506.4661, 12866.81
506.9482, 12903.74
507.4303, 12922.80
507.9124, 12922.29
508.3945, 12925.32
508.8766, 12945.79
509.3588, 12979.27
509.8409, 13007.04
510.3230, 13028.33
510.8051, 13054.40
511.2872, 13098.37
511.7693, 13154.36
512.2515, 13210.83
512.7336, 13267.92
513.2157, 13319.91
513.6978, 13347.58
514.1799, 13365.40
514.6620, 13409.61
515.1442, 13524.30
515.6263, 13647.67
516.1084, 13738.59
516.5905, 13789.37
517.0726, 13859.96
517.5547, 13977.05
518.0369, 14110.63
518.5190, 14236.38
519.0011, 14337.15
519.4832, 14453.99
519.9653, 14591.80
520.4474, 14746.40
520.9296, 14909.12
521.4117, 15082.97
521.8938, 15259.58
522.3759, 15437.23
522.8580, 15616.41
523.3401, 15788.57
523.8223, 15953.57
524.3044, 16119.19
524.7865, 16306.87
525.2686, 16505.87
525.7507, 16671.50
526.2328, 16788.13
526.7150, 16885.63
527.1971, 17014.39
527.6792, 17159.99
528.1613, 17274.36
528.6434, 17322.76
529.1255, 17341.16
529.6077, 17367.06
530.0898, 17400.05
530.5719, 17394.20
531.0540, 17302.99
531.5361, 17180.00
532.0182, 17065.30
532.5004, 16973.50
532.9825, 16878.17
533.4646, 16780.31
533.9467, 16675.96
534.4288, 16559.91
534.9109, 16419.09
535.3931, 16284.72
535.8752, 16165.57
536.3573, 16060.50
536.8394, 15954.75
537.3215, 15848.52
537.8036, 15738.04
538.2858, 15621.01
538.7679, 15496.50
539.2500, 15361.04
539.7321, 15208.65
540.2142, 15064.53
540.6964, 14970.87
541.1785, 14915.90
541.6606, 14858.10
542.1427, 14777.92
542.6248, 14690.61
543.1069, 14605.26
543.5891, 14524.83
544.0712, 14463.86
544.5533, 14442.92
545.0354, 14436.02
545.5175, 14428.04
545.9996, 14420.50
546.4818, 14397.50
546.9639, 14343.81
547.4460, 14276.85
547.9281, 14216.31
548.4102, 14166.33
548.8923, 14118.38
549.3745, 14069.44
549.8566, 14021.98
550.3387, 13988.10
550.8208, 13977.07
551.3029, 13956.45
551.7850, 13908.75
552.2672, 13834.84
552.7493, 13769.79
553.2314, 13716.38
553.7135, 13657.18
554.1956, 13566.71
554.6777, 13454.21
555.1599, 13355.60
555.6420, 13284.58
556.1241, 13218.44
556.6062, 13126.63
557.0883, 13019.39
557.5704, 12920.37
558.0526, 12838.62
558.5347, 12770.91
559.0168, 12720.55
559.4989, 12687.30
559.9810, 12649.42
560.4631, 12594.41
560.9453, 12536.47
561.4274, 12485.08
561.9095, 12452.69
562.3916, 12406.51
562.8737, 12334.11
563.3558, 12255.32
563.8380, 12194.64
564.3201, 12155.03
564.8022, 12125.33
565.2843, 12104.00
565.7664, 12090.23
566.2485, 12085.31
566.7307, 12090.40
567.2128, 12088.22
567.6949, 12064.03
568.1770, 12024.32
568.6591, 11988.20
569.1412, 11956.40
569.6234, 11926.77
570.1055, 11893.99
570.5876, 11862.62
571.0697, 11839.09
571.5518, 11824.72
572.0339, 11819.37
572.5161, 11834.52
572.9982, 11858.31
573.4803, 11865.32
573.9624, 11844.27
574.4445, 11808.95
574.9266, 11752.15
575.4088, 11672.76
575.8909, 11630.59
576.3730, 11644.04
576.8551, 11672.65
577.3372, 11696.02
577.8193, 11716.41
578.3015, 11718.12
578.7836, 11695.38
579.2657, 11664.32
579.7478, 11642.91
580.2299, 11631.55
580.7120, 11637.71
581.1942, 11677.13
581.6763, 11720.02
582.1584, 11709.83
582.6405, 11656.87
583.1226, 11604.80
583.6047, 11589.93
584.0869, 11580.95
584.5690, 11538.71
585.0511, 11457.66
585.5332, 11407.38
586.0153, 11452.30
586.4974, 11519.66
586.9796, 11550.63
587.4617, 11488.03
587.9438, 11458.25
588.4259, 11493.43
588.9080, 11552.55
589.3901, 11560.37
589.8723, 11485.59
590.3544, 11441.36
590.8365, 11474.36
591.3186, 11558.18
591.8007, 11557.37
592.2828, 11464.81
592.7650, 11375.93
593.2471, 11361.46
593.7292, 11357.56
594.2113, 11408.74
594.6934, 11437.63
595.1755, 11445.42
595.6577, 11368.94
596.1398, 11401.28
596.6219, 11390.01
597.1040, 11376.95
597.5862, 11424.61
598.0683, 11360.38
598.5504, 11407.08
599.0325, 11409.50
599.5146, 11432.18
599.9968, 11410.98
600.4789, 11403.33
600.9610, 11439.58
601.4431, 11451.53
601.9252, 11425.28
602.4073, 11449.25
602.8895, 11383.49
603.3716, 11396.47
603.8537, 11443.42
604.3358, 11419.38
604.8179, 11444.15
605.3000, 11450.33
605.7822, 11372.02
606.2643, 11440.64
606.7464, 11445.73
607.2285, 11385.56
607.7106, 11449.15
608.1927, 11397.98
608.6749, 11387.78
609.1570, 11408.40
609.6391, 11396.88
