##NAMES=Amesite
##RRUFFID=R070116
##IDEAL CHEMISTRY=Mg_2_Al(AlSiO_5_)(OH)_4_
##LOCALITY=Saranovskii Mine (Saranovskoye), Saranovskaya (Sarany; Saranje) Village, Gorozavod area, Permskaya Oblast', Urais Region, Russia
##OWNER=RRUFF
##SOURCE=Michael Scott
##DESCRIPTION=Purple thin micaceous crystals, not a standard polytype, see Wiewiora et al (Am Min 76 (1991) 647-652)
##STATUS=The identification of this mineral is confirmed by single-crystal X-ray diffraction and chemical analysis.
##URL=rruff.info/R070116
##MEASURED CHEMISTRY=(Mg_1.88_[box]_0.05_Cr_0.04_Fe^2+^_0.03_)_Σ=2_(Al_0.96_Cr_0.04_)_Σ=1_(Si_1.06_Al_0.94_)O_5_(OH)_4_ ; OH estimated by difference
104.4359, 342.0417
104.9181, 371.5125
105.4002, 395.0052
105.8823, 417.6093
106.3644, 443.2133
106.8465, 473.3275
107.3286, 507.2302
107.8108, 543.5398
108.2929, 583.6860
108.7750, 624.8229
109.2571, 664.4255
109.7392, 705.6403
110.2213, 753.6064
110.7035, 811.1459
111.1856, 874.7695
111.6677, 932.3625
112.1498, 975.4543
112.6319, 1023.158
113.1140, 1073.605
113.5962, 1131.396
114.0783, 1207.260
114.5604, 1307.361
115.0425, 1429.086
115.5246, 1559.111
116.0067, 1693.141
116.4889, 1838.363
116.9710, 2004.657
117.4531, 2187.382
117.9352, 2369.976
118.4173, 2550.379
118.8994, 2718.961
119.3816, 2858.616
119.8637, 2956.520
120.3458, 3037.994
120.8279, 3117.451
121.3100, 3195.205
121.7921, 3275.675
122.2743, 3353.261
122.7564, 3438.581
123.2385, 3549.895
123.7206, 3692.636
124.2027, 3860.701
124.6848, 4050.954
125.1670, 4265.376
125.6491, 4489.438
126.1312, 4701.318
126.6133, 4920.915
127.0954, 5175.466
127.5775, 5488.002
128.0596, 5831.773
128.5418, 6161.903
129.0239, 6476.770
129.5060, 6776.413
129.9881, 7078.041
130.4702, 7363.643
130.9523, 7605.426
131.4345, 7781.929
131.9166, 7908.918
132.3987, 8040.248
132.8808, 8192.783
133.3629, 8320.223
133.8450, 8412.954
134.3272, 8473.705
134.8093, 8510.235
135.2914, 8533.255
135.7735, 8534.703
136.2556, 8461.482
136.7377, 8257.093
137.2199, 8035.475
137.7020, 7827.840
138.1841, 7625.528
138.6662, 7406.782
139.1483, 7146.688
139.6304, 6851.657
140.1126, 6623.813
140.5947, 6471.995
141.0768, 6388.239
141.5589, 6368.943
142.0410, 6417.981
142.5231, 6546.190
143.0053, 6766.125
143.4874, 7081.176
143.9695, 7408.275
144.4516, 7775.324
144.9337, 8126.881
145.4158, 8459.218
145.8980, 8763.710
146.3801, 9024.864
146.8622, 9232.770
147.3443, 9387.439
147.8264, 9466.550
148.3085, 9460.609
148.7907, 9405.321
149.2728, 9297.127
149.7549, 9147.780
150.2370, 8987.157
150.7191, 8845.114
151.2012, 8724.922
151.6834, 8542.432
152.1655, 8283.153
152.6476, 7986.992
153.1297, 7659.643
153.6118, 7308.671
154.0939, 6952.579
154.5760, 6602.671
155.0582, 6258.455
155.5403, 5966.752
156.0224, 5728.578
156.5045, 5535.357
156.9866, 5381.363
157.4688, 5267.300
157.9509, 5201.355
158.4330, 5193.856
158.9151, 5250.852
159.3972, 5331.886
159.8793, 5463.459
160.3615, 5598.495
160.8436, 5702.391
161.3257, 5774.573
161.8078, 5838.099
162.2899, 5915.045
162.7720, 6001.996
163.2542, 6063.823
163.7363, 6102.437
164.2184, 6113.762
164.7005, 6082.859
165.1826, 6009.588
165.6647, 5935.923
166.1469, 5902.806
166.6290, 5897.488
167.1111, 5858.102
167.5932, 5753.666
168.0753, 5627.748
168.5574, 5524.007
169.0396, 5444.997
169.5217, 5364.901
170.0038, 5260.526
170.4859, 5140.768
170.9680, 5032.245
171.4501, 4939.383
171.9323, 4859.587
172.4144, 4789.172
172.8965, 4727.966
173.3786, 4678.636
173.8607, 4651.481
174.3428, 4637.167
174.8250, 4618.036
175.3071, 4580.808
175.7892, 4544.035
176.2713, 4532.695
176.7534, 4549.595
177.2355, 4574.207
177.7177, 4595.238
178.1998, 4616.783
178.6819, 4645.924
179.1640, 4688.286
179.6461, 4734.997
180.1282, 4773.149
180.6103, 4800.883
181.0925, 4829.724
181.5746, 4871.124
182.0567, 4915.411
182.5388, 4950.945
183.0209, 4972.363
183.5030, 4987.290
183.9852, 5002.676
184.4673, 5016.467
184.9494, 5040.897
185.4315, 5092.611
185.9136, 5153.803
186.3957, 5208.136
186.8779, 5250.227
187.3600, 5286.551
187.8421, 5325.197
188.3242, 5366.783
188.8063, 5408.445
189.2884, 5450.158
189.7706, 5491.421
190.2527, 5530.665
190.7348, 5566.758
191.2169, 5604.722
191.6990, 5651.086
192.1811, 5706.639
192.6633, 5767.430
193.1454, 5840.708
193.6275, 5914.137
194.1096, 5973.919
194.5917, 6015.835
195.0738, 6059.909
195.5560, 6138.458
196.0381, 6260.833
196.5202, 6366.464
197.0023, 6416.324
197.4844, 6459.427
197.9665, 6529.812
198.4487, 6633.443
198.9308, 6744.657
199.4129, 6830.154
199.8950, 6884.340
200.3771, 6948.882
200.8592, 7037.456
201.3414, 7134.183
201.8235, 7234.398
202.3056, 7336.031
202.7877, 7436.409
203.2698, 7531.537
203.7519, 7621.117
204.2341, 7707.923
204.7162, 7795.093
205.1983, 7876.605
205.6804, 7945.841
206.1625, 8004.146
206.6446, 8061.837
207.1267, 8129.199
207.6089, 8207.174
208.0910, 8284.105
208.5731, 8367.214
209.0552, 8442.259
209.5373, 8501.623
210.0194, 8546.783
210.5016, 8584.517
210.9837, 8625.975
211.4658, 8671.431
211.9479, 8687.400
212.4300, 8676.009
212.9121, 8627.495
213.3943, 8539.359
213.8764, 8412.573
214.3585, 8250.473
214.8406, 8050.663
215.3227, 7815.479
215.8048, 7563.552
216.2870, 7291.139
216.7691, 7004.782
217.2512, 6705.492
217.7333, 6397.269
218.2154, 6083.948
218.6975, 5761.245
219.1797, 5438.661
219.6618, 5154.158
220.1439, 4920.744
220.6260, 4711.438
221.1081, 4516.361
221.5902, 4336.141
222.0724, 4170.760
222.5545, 4020.869
223.0366, 3886.318
223.5187, 3765.856
224.0008, 3664.650
224.4829, 3569.572
224.9651, 3473.430
225.4472, 3382.551
225.9293, 3304.798
226.4114, 3243.089
226.8935, 3193.149
227.3756, 3146.618
227.8578, 3102.564
228.3399, 3065.396
228.8220, 3037.356
229.3041, 3015.353
229.7862, 2973.843
230.2683, 2999.284
230.7505, 3011.350
231.2326, 3010.760
231.7147, 2959.607
232.1968, 2973.746
232.6789, 2961.719
233.1610, 2948.620
233.6432, 2971.947
234.1253, 2928.148
234.6074, 2950.899
235.0895, 2947.084
235.5716, 2955.428
236.0537, 2937.444
236.5358, 2927.592
237.0180, 2964.314
237.5001, 2981.300
237.9822, 2981.303
238.4643, 2980.603
238.9464, 2995.875
239.4285, 3026.210
239.9107, 3044.791
240.3928, 3041.879
240.8749, 3038.003
241.3570, 3044.951
241.8391, 3059.010
242.3212, 3070.867
242.8034, 3077.143
243.2855, 3076.665
243.7676, 3062.616
244.2497, 3027.183
244.7318, 2991.525
245.2139, 2962.098
245.6961, 2939.006
246.1782, 2923.866
246.6603, 2921.831
247.1424, 2923.825
247.6245, 2909.144
248.1066, 2872.035
248.5888, 2834.992
249.0709, 2805.016
249.5530, 2780.452
250.0351, 2760.437
250.5172, 2744.884
250.9993, 2733.289
251.4815, 2723.917
251.9636, 2715.931
252.4457, 2716.442
252.9278, 2736.010
253.4099, 2760.274
253.8920, 2777.575
254.3742, 2786.223
254.8563, 2790.312
255.3384, 2790.877
255.8205, 2788.362
256.3026, 2791.285
256.7847, 2805.702
257.2668, 2821.683
257.7490, 2830.029
258.2311, 2831.042
258.7132, 2831.114
259.1953, 2834.848
259.6774, 2840.869
260.1595, 2843.556
260.6417, 2840.176
261.1238, 2837.408
261.6059, 2843.214
262.0880, 2854.727
262.5701, 2861.988
263.0522, 2861.010
263.5344, 2853.388
264.0165, 2839.179
264.4986, 2816.303
264.9807, 2796.860
265.4628, 2787.310
265.9449, 2787.653
266.4271, 2799.879
266.9092, 2836.704
267.3913, 2875.139
267.8734, 2890.429
268.3555, 2883.262
268.8376, 2873.323
269.3198, 2867.122
269.8019, 2866.476
270.2840, 2874.079
270.7661, 2895.584
271.2482, 2915.140
271.7303, 2921.206
272.2125, 2917.267
272.6946, 2914.856
273.1767, 2918.138
273.6588, 2924.399
274.1409, 2929.016
274.6230, 2931.575
275.1052, 2934.766
275.5873, 2939.463
276.0694, 2945.305
276.5515, 2952.500
277.0336, 2961.352
277.5157, 2969.128
277.9979, 2971.170
278.4800, 2966.495
278.9621, 2967.179
279.4442, 2979.320
279.9263, 2993.955
280.4084, 3004.557
280.8906, 3010.310
281.3727, 3011.470
281.8548, 3007.347
282.3369, 2998.000
282.8190, 2990.279
283.3011, 2980.814
283.7833, 2975.964
284.2654, 2977.075
284.7475, 2985.099
285.2296, 3005.155
285.7117, 3042.855
286.1938, 3089.626
286.6760, 3111.843
287.1581, 3091.333
287.6402, 3070.715
288.1223, 3057.948
288.6044, 3047.619
289.0865, 3034.645
289.5687, 3017.081
290.0508, 2992.795
290.5329, 2958.147
291.0150, 2911.822
291.4971, 2855.683
291.9792, 2779.800
292.4614, 2701.718
292.9435, 2633.323
293.4256, 2575.991
293.9077, 2525.197
294.3898, 2476.085
294.8719, 2427.823
295.3541, 2387.914
295.8362, 2361.040
296.3183, 2337.240
296.8004, 2314.215
297.2825, 2291.424
297.7646, 2267.289
298.2468, 2239.899
298.7289, 2211.722
299.2110, 2196.092
299.6931, 2204.949
300.1752, 2210.432
300.6573, 2206.156
301.1395, 2196.879
301.6216, 2186.473
302.1037, 2176.345
302.5858, 2168.711
303.0679, 2168.376
303.5500, 2178.277
304.0321, 2186.438
304.5143, 2192.368
304.9964, 2195.328
305.4785, 2192.973
305.9606, 2185.879
306.4427, 2179.070
306.9248, 2177.479
307.4070, 2180.957
307.8891, 2183.605
308.3712, 2180.433
308.8533, 2183.143
309.3354, 2201.453
309.8175, 2229.750
310.2997, 2255.071
310.7818, 2270.818
311.2639, 2279.148
311.7460, 2282.916
312.2281, 2280.309
312.7102, 2280.174
313.1924, 2291.017
313.6745, 2305.559
314.1566, 2315.066
314.6387, 2317.873
315.1208, 2315.575
315.6029, 2305.205
316.0851, 2288.565
316.5672, 2281.532
317.0493, 2294.648
317.5314, 2312.453
318.0135, 2312.198
318.4956, 2292.412
318.9778, 2274.957
319.4599, 2266.854
319.9420, 2266.722
320.4241, 2274.049
320.9062, 2289.295
321.3883, 2306.497
321.8705, 2320.200
322.3526, 2330.418
322.8347, 2340.823
323.3168, 2353.493
323.7989, 2364.809
324.2810, 2368.961
324.7632, 2368.457
325.2453, 2374.382
325.7274, 2394.769
326.2095, 2424.935
326.6916, 2444.466
327.1737, 2452.134
327.6559, 2452.474
328.1380, 2439.385
328.6201, 2421.946
329.1022, 2413.025
329.5843, 2416.421
330.0664, 2423.756
330.5486, 2421.489
331.0307, 2402.606
331.5128, 2391.995
331.9949, 2396.150
332.4770, 2402.166
332.9591, 2400.083
333.4413, 2391.909
333.9234, 2388.015
334.4055, 2397.983
334.8876, 2421.007
335.3697, 2436.944
335.8518, 2434.036
336.3340, 2437.671
336.8161, 2456.072
337.2982, 2483.038
337.7803, 2510.137
338.2624, 2533.659
338.7445, 2556.590
339.2267, 2585.188
339.7088, 2621.917
340.1909, 2657.073
340.6730, 2697.006
341.1551, 2729.115
341.6372, 2741.609
342.1194, 2735.026
342.6015, 2724.304
343.0836, 2725.477
343.5657, 2735.159
344.0478, 2728.458
344.5299, 2697.282
345.0121, 2661.611
345.4942, 2636.271
345.9763, 2616.185
346.4584, 2590.072
346.9405, 2550.086
347.4226, 2505.969
347.9048, 2469.010
348.3869, 2439.051
348.8690, 2414.363
349.3511, 2397.818
349.8332, 2383.453
350.3153, 2358.694
350.7975, 2318.384
351.2796, 2283.454
351.7617, 2263.138
352.2438, 2254.265
352.7259, 2253.747
353.2080, 2261.559
353.6902, 2270.672
354.1723, 2272.579
354.6544, 2265.442
355.1365, 2263.711
355.6186, 2273.456
356.1007, 2283.393
356.5829, 2286.335
357.0650, 2283.227
357.5471, 2278.236
358.0292, 2273.581
358.5113, 2269.619
358.9934, 2268.059
359.4755, 2267.378
359.9576, 2271.267
360.4398, 2284.508
360.9219, 2300.188
361.4040, 2308.902
361.8861, 2309.281
362.3682, 2311.079
362.8503, 2329.303
363.3325, 2370.388
363.8146, 2401.056
364.2967, 2416.476
364.7788, 2425.689
365.2609, 2427.509
365.7430, 2425.813
366.2252, 2428.663
366.7073, 2442.838
367.1894, 2463.105
367.6715, 2472.617
368.1536, 2466.312
368.6357, 2462.254
369.1179, 2470.275
369.6000, 2481.163
370.0821, 2485.881
370.5642, 2482.241
371.0463, 2478.121
371.5284, 2481.895
372.0106, 2491.827
372.4927, 2495.855
372.9748, 2486.660
373.4569, 2481.630
373.9390, 2503.519
374.4211, 2545.427
374.9033, 2578.884
375.3854, 2591.787
375.8675, 2596.164
376.3496, 2600.889
376.8317, 2606.804
377.3138, 2617.975
377.7960, 2637.845
378.2781, 2663.407
378.7602, 2684.981
379.2423, 2703.440
379.7244, 2717.864
380.2065, 2726.035
380.6887, 2731.045
381.1708, 2736.628
381.6529, 2743.550
382.1350, 2749.974
382.6171, 2752.966
383.0992, 2750.567
383.5814, 2756.733
384.0635, 2778.516
384.5456, 2800.227
385.0277, 2812.601
385.5098, 2820.885
385.9919, 2835.805
386.4741, 2863.395
386.9562, 2899.258
387.4383, 2933.362
387.9204, 2969.500
388.4025, 2994.767
388.8846, 2991.672
389.3668, 2989.331
389.8489, 3010.810
390.3310, 3056.420
390.8131, 3105.742
391.2952, 3143.738
391.7773, 3171.173
392.2595, 3190.047
392.7416, 3196.208
393.2237, 3203.040
393.7058, 3216.166
394.1879, 3235.552
394.6700, 3262.711
395.1522, 3300.421
395.6343, 3342.283
396.1164, 3385.092
396.5985, 3427.981
397.0806, 3465.426
397.5627, 3493.175
398.0449, 3519.935
398.5270, 3556.475
399.0091, 3601.161
399.4912, 3661.905
399.9733, 3740.207
400.4554, 3835.241
400.9376, 3958.039
401.4197, 4101.164
401.9018, 4228.173
402.3839, 4309.262
402.8660, 4355.746
403.3481, 4435.121
403.8303, 4588.536
404.3124, 4724.194
404.7945, 4828.328
405.2766, 4911.456
405.7587, 4982.713
406.2408, 5044.841
406.7230, 5097.935
407.2051, 5143.209
407.6872, 5181.739
408.1693, 5203.258
408.6514, 5179.804
409.1335, 5169.816
409.6157, 5195.994
410.0978, 5249.934
410.5799, 5315.954
411.0620, 5387.269
411.5441, 5466.484
412.0262, 5560.975
412.5083, 5672.084
412.9904, 5783.687
413.4726, 5899.563
413.9547, 6006.573
414.4368, 6095.541
414.9189, 6166.130
415.4010, 6218.858
415.8831, 6273.403
416.3653, 6300.857
416.8474, 6255.035
417.3295, 6133.839
417.8116, 5978.667
418.2937, 5813.498
418.7758, 5636.681
419.2580, 5443.561
419.7401, 5222.444
420.2222, 5000.824
420.7043, 4781.252
421.1864, 4567.032
421.6685, 4362.213
422.1507, 4168.354
422.6328, 3988.547
423.1149, 3826.109
423.5970, 3682.048
424.0791, 3554.901
424.5612, 3446.892
425.0434, 3353.932
425.5255, 3277.985
426.0076, 3215.622
426.4897, 3162.938
426.9718, 3119.692
427.4539, 3078.933
427.9361, 3023.578
428.4182, 2948.372
428.9003, 2892.218
429.3824, 2871.476
429.8645, 2863.858
430.3466, 2854.117
430.8288, 2842.453
431.3109, 2833.310
431.7930, 2828.867
432.2751, 2828.131
432.7572, 2828.894
433.2393, 2831.147
433.7215, 2839.803
434.2036, 2862.326
434.6857, 2889.350
435.1678, 2895.137
435.6499, 2872.008
436.1320, 2848.543
436.6142, 2828.853
437.0963, 2814.109
437.5784, 2809.596
438.0605, 2814.166
438.5426, 2816.273
439.0247, 2805.307
439.5069, 2781.358
439.9890, 2756.659
440.4711, 2723.769
440.9532, 2698.951
441.4353, 2695.486
441.9174, 2697.055
442.3996, 2682.769
442.8817, 2646.915
443.3638, 2605.142
443.8459, 2577.516
444.3280, 2564.889
444.8102, 2551.585
445.2923, 2535.319
445.7744, 2520.626
446.2565, 2510.504
446.7386, 2503.525
447.2207, 2496.412
447.7029, 2486.246
448.1850, 2478.147
448.6671, 2480.022
449.1492, 2489.736
449.6313, 2495.645
450.1134, 2494.427
450.5956, 2487.252
451.0777, 2472.281
451.5598, 2446.871
452.0419, 2434.455
452.5240, 2451.182
453.0061, 2469.674
453.4883, 2467.903
453.9704, 2450.986
454.4525, 2437.220
454.9346, 2436.758
455.4167, 2445.708
455.8988, 2453.296
456.3810, 2458.801
456.8631, 2464.162
457.3452, 2467.652
457.8273, 2472.510
458.3094, 2481.359
458.7915, 2493.709
459.2737, 2506.644
459.7558, 2516.206
460.2379, 2525.625
460.7200, 2547.134
461.2021, 2584.665
461.6842, 2619.945
462.1664, 2644.363
462.6485, 2664.063
463.1306, 2684.502
463.6127, 2705.415
464.0948, 2731.555
464.5769, 2764.506
465.0591, 2804.566
465.5412, 2854.911
466.0233, 2915.607
466.5054, 2975.827
466.9875, 3026.958
467.4696, 3071.215
467.9517, 3123.869
468.4338, 3189.528
468.9160, 3256.839
469.3981, 3319.914
469.8802, 3385.945
470.3623, 3465.080
470.8444, 3557.627
471.3265, 3653.382
471.8087, 3741.165
472.2908, 3821.507
472.7729, 3905.160
473.2550, 3994.124
473.7371, 4084.896
474.2192, 4187.700
474.7014, 4286.445
475.1835, 4361.186
475.6656, 4406.741
476.1477, 4435.967
476.6298, 4451.276
477.1119, 4458.574
477.5941, 4485.982
478.0762, 4543.907
478.5583, 4593.084
479.0404, 4600.668
479.5225, 4571.332
480.0046, 4541.098
480.4868, 4502.083
480.9689, 4471.791
481.4510, 4460.112
481.9331, 4460.782
482.4152, 4467.591
482.8973, 4477.976
483.3795, 4484.981
483.8616, 4479.284
484.3437, 4458.774
484.8258, 4444.940
485.3079, 4460.479
485.7900, 4457.314
486.2722, 4413.603
486.7543, 4348.416
487.2364, 4288.005
487.7185, 4241.184
488.2006, 4192.837
488.6827, 4124.411
489.1649, 4036.947
489.6470, 3945.216
490.1291, 3846.206
490.6112, 3752.485
491.0933, 3680.348
491.5754, 3620.538
492.0576, 3550.322
492.5397, 3459.130
493.0218, 3366.050
493.5039, 3276.768
493.9860, 3193.685
494.4681, 3127.569
494.9503, 3080.636
495.4324, 3033.069
495.9145, 2958.894
496.3966, 2851.844
496.8787, 2777.286
497.3608, 2766.653
497.8430, 2750.587
498.3251, 2704.776
498.8072, 2644.967
499.2893, 2590.369
499.7714, 2547.661
500.2535, 2514.040
500.7357, 2487.240
501.2178, 2467.182
501.6999, 2450.607
502.1820, 2438.027
502.6641, 2427.679
503.1462, 2418.930
503.6284, 2411.551
504.1105, 2405.907
504.5926, 2404.433
505.0747, 2400.086
505.5568, 2383.731
506.0389, 2362.553
506.5211, 2350.815
507.0032, 2351.511
507.4853, 2357.232
507.9674, 2360.604
508.4495, 2361.553
508.9316, 2368.750
509.4138, 2389.358
509.8959, 2407.178
510.3780, 2413.925
510.8601, 2418.681
511.3422, 2431.702
511.8243, 2455.174
512.3065, 2483.418
512.7886, 2511.975
513.2707, 2540.658
513.7528, 2565.516
514.2349, 2583.873
514.7170, 2604.848
515.1992, 2635.261
515.6813, 2670.057
516.1634, 2702.125
516.6455, 2728.821
517.1276, 2759.078
517.6097, 2795.263
518.0919, 2838.516
518.5740, 2891.296
519.0561, 2953.675
519.5382, 3021.628
520.0203, 3093.693
520.5024, 3168.486
520.9846, 3238.838
521.4667, 3299.787
521.9488, 3362.909
522.4309, 3430.531
522.9130, 3499.599
523.3951, 3566.600
523.8773, 3632.032
524.3594, 3701.244
524.8415, 3780.382
525.3236, 3864.992
525.8057, 3941.774
526.2878, 4011.143
526.7700, 4068.449
527.2521, 4107.715
527.7342, 4137.184
528.2163, 4169.719
528.6984, 4205.907
529.1805, 4232.318
529.6627, 4244.574
530.1448, 4245.305
530.6269, 4234.422
531.1090, 4213.682
531.5911, 4188.944
532.0732, 4163.333
532.5554, 4133.644
533.0375, 4091.921
533.5196, 4031.957
534.0017, 3974.382
534.4838, 3930.181
534.9659, 3877.343
535.4481, 3793.189
535.9302, 3694.291
536.4123, 3616.438
536.8944, 3579.422
537.3765, 3556.799
537.8586, 3513.929
538.3408, 3452.056
538.8229, 3385.583
539.3050, 3312.318
539.7871, 3246.692
540.2692, 3205.858
540.7513, 3186.527
541.2335, 3159.364
541.7156, 3119.807
542.1977, 3075.886
542.6798, 3029.041
543.1619, 2980.459
543.6440, 2930.425
544.1262, 2879.825
544.6083, 2833.403
545.0904, 2795.485
545.5725, 2766.014
546.0546, 2749.181
546.5367, 2754.704
547.0189, 2756.981
547.5010, 2754.055
547.9831, 2741.803
548.4652, 2711.661
548.9473, 2662.634
549.4294, 2615.665
549.9115, 2581.603
550.3936, 2558.812
550.8757, 2549.342
551.3578, 2552.079
551.8400, 2550.215
552.3221, 2536.032
552.8042, 2510.385
553.2863, 2473.469
553.7684, 2411.549
554.2505, 2365.689
554.7327, 2352.381
555.2148, 2340.300
555.6969, 2308.176
556.1790, 2262.067
556.6611, 2218.493
557.1432, 2185.604
557.6254, 2160.682
558.1075, 2140.629
558.5896, 2125.665
559.0717, 2110.090
559.5538, 2094.454
560.0359, 2076.048
560.5181, 2050.533
561.0002, 2020.485
561.4823, 1992.531
561.9644, 1965.681
562.4465, 1943.893
562.9286, 1932.218
563.4108, 1925.817
563.8929, 1917.853
564.3750, 1906.938
564.8571, 1895.076
565.3392, 1884.271
565.8214, 1874.299
566.3035, 1862.240
566.7856, 1846.013
567.2677, 1831.193
567.7498, 1818.433
568.2319, 1807.548
568.7141, 1801.148
569.1962, 1797.899
569.6783, 1788.736
570.1604, 1758.331
570.6425, 1724.109
571.1246, 1716.870
571.6068, 1733.508
572.0889, 1745.915
572.5710, 1743.504
573.0531, 1732.539
573.5352, 1721.262
574.0173, 1708.855
574.4995, 1699.948
574.9816, 1696.163
575.4637, 1693.969
575.9458, 1694.077
576.4279, 1694.063
576.9100, 1689.468
577.3922, 1679.110
577.8743, 1668.727
578.3564, 1665.795
578.8385, 1669.429
579.3206, 1671.354
579.8027, 1670.897
580.2849, 1670.401
580.7670, 1674.451
581.2491, 1677.451
581.7312, 1666.207
582.2133, 1632.080
582.6954, 1611.098
583.1776, 1628.524
583.6597, 1652.102
584.1418, 1650.499
584.6239, 1627.376
585.1060, 1602.863
585.5881, 1587.699
586.0703, 1580.465
586.5524, 1579.881
587.0345, 1588.909
587.5166, 1592.456
587.9987, 1583.946
588.4808, 1576.335
588.9630, 1577.796
589.4451, 1584.681
589.9272, 1589.440
590.4093, 1589.836
590.8914, 1588.523
591.3735, 1589.616
591.8557, 1589.519
592.3378, 1578.367
592.8199, 1555.931
593.3020, 1537.510
593.7841, 1535.740
594.2662, 1546.354
