##NAMES=Amicite
##RRUFFID=R080066
##IDEAL CHEMISTRY=K_2_Na_2_(Si_4_Al_4_O_16_)&#183;5H_2_O
##LOCALITY=Kirovski Drive, Khibiny, Kola Peninsula, Russia
##OWNER=RRUFF
##SOURCE=Michael Scott
##DESCRIPTION=Colorless pseudo-octahedral crystals
##STATUS=The identification of this mineral has been confirmed by single-crystal X-ray diffraction.
##URL=rruff.info/R080066
92.52344, 327.7906
93.00555, 326.1756
93.48767, 326.5678
93.96979, 335.3763
94.45190, 344.6764
94.93402, 352.3116
95.41614, 355.1896
95.89825, 356.3146
96.38037, 359.1015
96.86249, 362.8949
97.34460, 366.0478
97.82672, 368.6188
98.30884, 371.3643
98.79095, 374.4301
99.27307, 377.3046
99.75519, 379.8392
100.2373, 383.3091
100.7194, 387.7293
101.2015, 391.5885
101.6837, 394.4168
102.1658, 396.9651
102.6479, 399.7265
103.1300, 402.6982
103.6121, 405.8323
104.0942, 409.7691
104.5764, 413.7999
105.0585, 416.5272
105.5406, 417.0554
106.0227, 415.8926
106.5048, 414.6626
106.9869, 413.9352
107.4691, 411.9419
107.9512, 407.5123
108.4333, 401.2419
108.9154, 394.6212
109.3975, 388.5268
109.8796, 382.7542
110.3618, 378.7522
110.8439, 377.6063
111.3260, 377.2354
111.8081, 376.6392
112.2902, 375.7768
112.7723, 375.3832
113.2544, 376.6109
113.7366, 381.0029
114.2187, 384.1910
114.7008, 385.5981
115.1829, 386.2147
115.6650, 386.7595
116.1471, 387.4839
116.6293, 388.4639
117.1114, 389.9387
117.5935, 391.9284
118.0756, 394.2296
118.5577, 396.5594
119.0398, 399.1393
119.5220, 402.6181
120.0041, 407.4877
120.4862, 413.3138
120.9683, 418.9865
121.4504, 424.6826
121.9325, 429.9390
122.4147, 434.5739
122.8968, 438.6331
123.3789, 441.4872
123.8610, 442.9543
124.3431, 442.8999
124.8252, 440.8654
125.3074, 436.6001
125.7895, 430.4053
126.2716, 422.6956
126.7537, 412.8036
127.2358, 402.5461
127.7179, 392.3345
128.2001, 382.2249
128.6822, 372.0242
129.1643, 361.4941
129.6464, 350.7518
130.1285, 341.8871
130.6107, 335.8521
131.0928, 330.9201
131.5749, 326.5434
132.0570, 322.9691
132.5391, 320.8604
133.0212, 320.9245
133.5034, 323.5094
133.9855, 326.2071
134.4676, 328.3857
134.9497, 331.1307
135.4318, 335.2492
135.9139, 340.7246
136.3960, 346.8017
136.8782, 352.7168
137.3603, 358.4904
137.8424, 363.8246
138.3245, 368.6613
138.8066, 373.0521
139.2887, 377.0435
139.7709, 380.6515
140.2530, 383.7532
140.7351, 385.8680
141.2172, 387.0824
141.6993, 388.5555
142.1814, 391.0869
142.6636, 394.3378
143.1457, 397.0620
143.6278, 398.7986
144.1099, 400.0798
144.5920, 401.1978
145.0741, 402.1826
145.5563, 403.5594
146.0384, 405.7850
146.5205, 408.8900
147.0026, 412.5390
147.4847, 416.9903
147.9668, 421.8065
148.4490, 426.8525
148.9311, 432.0629
149.4132, 437.4061
149.8953, 442.8095
150.3774, 448.2808
150.8595, 453.8759
151.3417, 459.3482
151.8238, 465.0190
152.3059, 471.1685
152.7880, 477.8540
153.2701, 484.9907
153.7522, 492.2702
154.2344, 499.4993
154.7165, 507.0915
155.1986, 515.9282
155.6807, 524.9250
156.1628, 532.7219
156.6449, 538.5895
157.1271, 542.8579
157.6092, 546.7366
158.0913, 550.6559
158.5734, 553.8640
159.0555, 556.4438
159.5376, 558.1900
160.0198, 558.6036
160.5019, 557.4802
160.9840, 554.5745
161.4661, 549.9225
161.9482, 543.1118
162.4303, 535.1273
162.9125, 526.3549
163.3946, 516.8221
163.8767, 507.0985
164.3588, 497.4271
164.8409, 487.8584
165.3230, 478.3608
165.8052, 468.8418
166.2873, 459.5147
166.7694, 450.5717
167.2515, 441.6990
167.7336, 434.2462
168.2157, 429.6150
168.6979, 426.4609
169.1800, 423.2225
169.6621, 419.0132
170.1442, 414.4650
170.6263, 411.4249
171.1084, 410.7431
171.5906, 410.3467
172.0727, 409.4955
172.5548, 408.4629
173.0369, 407.6255
173.5190, 407.2007
174.0011, 407.1715
174.4833, 407.4051
174.9654, 408.3530
175.4475, 409.1235
175.9296, 409.3197
176.4117, 409.2002
176.8938, 409.3052
177.3760, 410.1063
177.8581, 411.6408
178.3402, 412.3724
178.8223, 411.2173
179.3044, 410.4062
179.7865, 410.8681
180.2687, 412.4091
180.7508, 414.2865
181.2329, 415.8932
181.7150, 417.2074
182.1971, 418.5040
182.6792, 419.3339
183.1614, 420.5025
183.6435, 422.6458
184.1256, 425.7159
184.6077, 428.9840
185.0898, 431.6856
185.5719, 433.8057
186.0541, 436.8190
186.5362, 441.7658
187.0183, 447.0312
187.5004, 450.8372
187.9825, 452.9320
188.4646, 454.9628
188.9468, 458.9366
189.4289, 464.2757
189.9110, 468.6417
190.3931, 471.5168
190.8752, 473.1040
191.3573, 473.5883
191.8395, 472.7835
192.3216, 471.3964
192.8037, 470.2907
193.2858, 469.1245
193.7679, 466.9089
194.2500, 462.8612
194.7322, 457.3972
195.2143, 451.8479
195.6964, 446.6432
196.1785, 440.6460
196.6606, 433.1212
197.1427, 424.4614
197.6249, 415.5771
198.1070, 406.8941
198.5891, 398.4291
199.0712, 390.3876
199.5533, 383.1450
200.0354, 375.9296
200.5176, 368.3102
200.9997, 360.5085
201.4818, 353.0556
201.9639, 346.4676
202.4460, 340.7639
202.9281, 335.0161
203.4103, 329.0147
203.8924, 323.2049
204.3745, 317.8476
204.8566, 312.8120
205.3387, 307.8439
205.8208, 302.6484
206.3030, 297.0985
206.7851, 292.3760
207.2672, 289.3971
207.7493, 286.2925
208.2314, 282.3244
208.7135, 277.5634
209.1957, 272.4382
209.6778, 267.2308
210.1599, 261.8238
210.6420, 257.5357
211.1241, 255.1653
211.6062, 252.9929
212.0884, 250.1265
212.5705, 246.5848
213.0526, 242.8621
213.5347, 239.3162
214.0168, 235.9614
214.4989, 233.1048
214.9811, 231.0201
215.4632, 229.1631
215.9453, 227.1106
216.4274, 224.8621
216.9095, 222.8218
217.3916, 221.4055
217.8737, 220.6330
218.3559, 219.6916
218.8380, 218.2905
219.3201, 216.8882
219.8022, 215.9267
220.2843, 215.4392
220.7664, 215.0528
221.2486, 214.4925
221.7307, 213.7841
222.2128, 213.0685
222.6949, 212.5563
223.1770, 211.9440
223.6591, 210.6564
224.1413, 208.5344
224.6234, 206.7481
225.1055, 206.8217
225.5876, 207.8004
226.0697, 207.8948
226.5518, 206.0859
227.0340, 203.4266
227.5161, 201.5878
227.9982, 200.8675
228.4803, 199.9200
228.9624, 197.9005
229.4445, 195.2099
229.9267, 192.2297
230.4088, 189.0162
230.8909, 185.6808
231.3730, 182.4756
231.8551, 179.4534
232.3372, 176.4454
232.8194, 173.2516
233.3015, 170.0456
233.7836, 167.0489
234.2657, 164.4071
234.7478, 161.9410
235.2299, 159.2016
235.7121, 155.9268
236.1942, 152.8939
236.6763, 150.2511
237.1584, 147.9497
237.6405, 146.0105
238.1227, 144.4802
238.6048, 143.1408
239.0869, 141.3884
239.5690, 138.7835
240.0511, 136.5375
240.5332, 134.9954
241.0154, 133.8108
241.4975, 132.6915
241.9796, 131.5134
242.4617, 130.2977
242.9438, 129.0810
243.4259, 127.6042
243.9081, 126.5752
244.3902, 126.2439
244.8723, 126.2588
245.3544, 126.3741
245.8365, 126.4830
246.3186, 126.4967
246.8008, 126.2006
247.2829, 125.3541
247.7650, 124.5170
248.2471, 123.3857
248.7292, 122.4348
249.2113, 122.1702
249.6935, 122.7466
250.1756, 123.8409
250.6577, 124.8551
251.1398, 126.1571
251.6219, 126.7514
252.1040, 126.0528
252.5862, 124.9894
253.0683, 124.3584
253.5504, 124.3973
254.0325, 124.8450
254.5146, 125.2894
254.9967, 125.7257
255.4789, 126.1654
255.9610, 126.6780
256.4431, 127.1542
256.9252, 127.4595
257.4073, 127.5732
257.8894, 127.6410
258.3716, 127.8464
258.8537, 128.2059
259.3358, 128.7271
259.8179, 129.4796
260.3000, 130.3542
260.7821, 131.3992
261.2643, 132.5925
261.7464, 133.5508
262.2285, 133.7441
262.7106, 132.9037
263.1927, 132.6871
263.6748, 133.6526
264.1570, 134.9106
264.6391, 135.6883
265.1212, 135.9134
265.6033, 136.0383
266.0854, 136.5219
266.5675, 137.3760
267.0497, 137.9121
267.5318, 137.6931
268.0139, 137.4412
268.4960, 137.8352
268.9781, 138.8814
269.4602, 139.9643
269.9424, 140.6927
270.4245, 141.0321
270.9066, 141.0906
271.3887, 140.7919
271.8708, 140.2707
272.3529, 139.5658
272.8351, 138.6925
273.3172, 137.8197
273.7993, 137.1211
274.2814, 136.4640
274.7635, 135.4698
275.2456, 133.8922
275.7278, 132.2507
276.2099, 130.9841
276.6920, 130.0368
277.1741, 128.9144
277.6562, 127.2193
278.1383, 125.3255
278.6205, 124.0593
279.1026, 123.7469
279.5847, 123.3306
280.0668, 121.8623
280.5489, 119.5439
281.0310, 117.6593
281.5132, 116.8792
281.9953, 116.5265
282.4774, 115.6647
282.9595, 114.2636
283.4416, 112.5687
283.9237, 110.4743
284.4059, 108.1376
284.8880, 106.2168
285.3701, 104.9536
285.8522, 104.0845
286.3343, 103.3027
286.8164, 102.6062
287.2986, 102.0443
287.7807, 101.8678
288.2628, 101.8749
288.7449, 101.3429
289.2270, 99.94498
289.7091, 98.39882
290.1913, 97.22443
290.6734, 96.37651
291.1555, 95.70937
291.6376, 95.33027
292.1197, 95.07449
292.6018, 94.44591
293.0840, 93.19888
293.5661, 92.12839
294.0482, 91.91946
294.5303, 92.23265
295.0124, 92.48678
295.4945, 92.52916
295.9767, 92.34412
296.4588, 91.84438
296.9409, 90.94372
297.4230, 90.02192
297.9051, 89.27126
298.3872, 88.60824
298.8694, 87.92727
299.3515, 87.16118
299.8336, 86.42995
300.3157, 85.84919
300.7978, 85.39940
301.2799, 85.20719
301.7621, 85.56525
302.2442, 86.08631
302.7263, 86.42776
303.2084, 86.51217
303.6905, 86.51514
304.1726, 86.66886
304.6548, 86.98731
305.1369, 87.09566
305.6190, 86.73499
306.1011, 86.25859
306.5832, 85.92665
307.0653, 85.75655
307.5475, 85.65044
308.0296, 85.47829
308.5117, 85.26183
308.9938, 85.27874
309.4759, 85.68044
309.9580, 86.20393
310.4402, 86.73190
310.9223, 87.23622
311.4044, 87.62643
311.8865, 87.78647
312.3686, 87.76891
312.8507, 87.81821
313.3329, 87.99532
313.8150, 88.13618
314.2971, 88.10521
314.7792, 87.98471
315.2613, 87.93999
315.7434, 88.12653
316.2256, 88.38168
316.7077, 88.29813
317.1898, 87.72087
317.6719, 87.23411
318.1540, 87.21006
318.6361, 87.36644
319.1183, 87.38152
319.6004, 87.11620
320.0825, 86.80385
320.5646, 86.74124
321.0467, 86.94052
321.5288, 87.31779
322.0110, 88.09834
322.4931, 88.89564
322.9752, 89.37233
323.4573, 89.46956
323.9394, 89.45710
324.4215, 89.57993
324.9037, 89.83410
325.3858, 90.05869
325.8679, 90.20272
326.3500, 90.33186
326.8321, 90.52305
327.3142, 90.75930
327.7964, 90.93141
328.2785, 90.92429
328.7606, 90.77904
329.2427, 90.73766
329.7248, 90.98215
330.2069, 91.02481
330.6891, 90.46505
331.1712, 89.51494
331.6533, 88.60984
332.1354, 87.95494
332.6175, 87.46278
333.0996, 86.96990
333.5818, 86.47835
334.0639, 85.97108
334.5460, 85.31943
335.0281, 84.68954
335.5102, 84.30245
335.9923, 84.25591
336.4745, 84.36614
336.9566, 84.47292
337.4387, 84.58309
337.9208, 84.55640
338.4029, 84.20241
338.8850, 83.79275
339.3671, 83.62500
339.8492, 83.73777
340.3314, 83.85683
340.8135, 83.75024
341.2956, 83.45551
341.7777, 83.19922
342.2598, 82.97747
342.7419, 82.87590
343.2241, 83.08004
343.7062, 83.50920
344.1883, 83.73311
344.6704, 83.37910
345.1525, 82.70450
345.6346, 82.24471
346.1168, 82.02847
346.5989, 82.02238
347.0810, 82.41001
347.5631, 82.97851
348.0452, 83.34055
348.5273, 83.25719
349.0095, 83.05267
349.4916, 83.04375
349.9737, 83.23013
350.4558, 83.65263
350.9379, 84.55827
351.4200, 85.57521
351.9022, 86.08900
352.3843, 85.93143
352.8664, 85.65725
353.3485, 85.54094
353.8306, 85.58990
354.3127, 85.85444
354.7949, 86.40085
355.2770, 87.08794
355.7591, 87.78076
356.2412, 88.48146
356.7233, 89.09663
357.2054, 89.53805
357.6876, 89.89030
358.1697, 90.25822
358.6518, 90.64380
359.1339, 91.13034
359.6160, 91.86047
360.0981, 92.78037
360.5803, 93.56942
361.0624, 94.07893
361.5445, 94.52501
362.0266, 95.05918
362.5087, 95.68276
362.9908, 96.38476
363.4730, 97.21685
363.9551, 98.08537
364.4372, 98.71976
364.9193, 98.97836
365.4014, 99.25652
365.8835, 99.55626
366.3657, 100.0019
366.8478, 100.9321
367.3299, 102.5165
367.8120, 104.3669
368.2941, 105.8545
368.7762, 106.8622
369.2584, 108.0449
369.7405, 109.7752
370.2226, 111.5490
370.7047, 112.7292
371.1868, 113.2884
371.6689, 113.8935
372.1511, 115.1937
372.6332, 117.2330
373.1153, 118.9751
373.5974, 120.5712
374.0795, 121.7781
374.5616, 122.3582
375.0438, 122.4521
375.5259, 122.3786
376.0080, 122.2851
376.4901, 122.2078
376.9722, 122.2826
377.4543, 123.1438
377.9365, 123.3429
378.4186, 122.2272
378.9007, 120.6020
379.3828, 119.3518
379.8649, 118.7192
380.3470, 118.3509
380.8292, 117.7116
381.3113, 116.4836
381.7934, 115.9954
382.2755, 116.7069
382.7576, 117.6527
383.2397, 118.2616
383.7219, 118.5889
384.2040, 119.0070
384.6861, 119.8102
385.1682, 120.9795
385.6503, 122.1943
386.1324, 123.6222
386.6146, 124.9030
387.0967, 125.8506
387.5788, 126.6470
388.0609, 127.5252
388.5430, 128.5814
389.0251, 129.7483
389.5073, 130.9514
389.9894, 132.4482
390.4715, 133.4049
390.9536, 133.5183
391.4357, 133.3642
391.9178, 133.2602
392.4000, 133.2569
392.8821, 133.2610
393.3642, 133.1632
393.8463, 132.9568
394.3284, 132.8588
394.8105, 132.9633
395.2927, 133.0720
395.7748, 133.1513
396.2569, 133.1830
396.7390, 133.0885
397.2211, 132.7540
397.7032, 132.4335
398.1854, 132.7648
398.6675, 133.9674
399.1496, 135.1637
399.6317, 135.8913
400.1138, 136.6600
400.5959, 137.9568
401.0781, 139.8501
401.5602, 141.8109
402.0423, 143.2381
402.5244, 144.1994
403.0065, 145.4860
403.4886, 147.2119
403.9708, 149.2613
404.4529, 151.5945
404.9350, 154.1492
405.4171, 156.7840
405.8992, 159.4112
406.3813, 162.0836
406.8635, 164.9994
407.3456, 168.2123
407.8277, 171.1936
408.3098, 173.5100
408.7919, 175.5444
409.2740, 178.0264
409.7562, 181.2921
410.2383, 184.2466
410.7204, 186.4373
411.2025, 187.8220
411.6846, 188.2835
412.1667, 187.7528
412.6489, 186.4102
413.1310, 184.3841
413.6131, 181.7113
414.0952, 178.4145
414.5773, 174.1039
415.0594, 169.4311
415.5416, 165.0027
416.0237, 160.8314
416.5058, 156.6455
416.9879, 152.2765
417.4700, 147.7438
417.9521, 143.1463
418.4343, 137.5360
418.9164, 132.9821
419.3985, 130.6655
419.8806, 129.5589
420.3627, 128.2106
420.8448, 126.1479
421.3270, 123.7574
421.8091, 121.5653
422.2912, 119.5084
422.7733, 117.9476
423.2554, 117.2698
423.7375, 116.7134
424.2197, 115.7002
424.7018, 114.3814
425.1839, 113.3598
425.6660, 113.0938
426.1481, 113.4749
426.6302, 113.7604
427.1124, 113.7236
427.5945, 113.8750
428.0766, 114.2610
428.5587, 114.8662
429.0408, 115.7004
429.5229, 116.7571
430.0051, 117.9735
430.4872, 119.2530
430.9693, 120.5601
431.4514, 122.0530
431.9335, 123.9054
432.4156, 125.8152
432.8978, 127.6069
433.3799, 129.3590
433.8620, 131.2839
434.3441, 133.4506
434.8262, 135.9136
435.3083, 138.9874
435.7905, 143.0440
436.2726, 146.6457
436.7547, 148.3355
437.2368, 149.8576
437.7189, 152.9279
438.2010, 157.9348
438.6832, 163.4336
439.1653, 168.1454
439.6474, 172.2465
440.1295, 176.7902
440.6116, 182.0334
441.0938, 187.5358
441.5759, 192.7201
442.0580, 197.7809
442.5401, 203.4549
443.0222, 210.0755
443.5043, 217.2838
443.9865, 224.8814
444.4686, 232.8134
444.9507, 240.8834
445.4328, 248.9814
445.9149, 257.1876
446.3970, 265.6352
446.8792, 274.2722
447.3613, 283.1593
447.8434, 292.2145
448.3255, 301.5799
448.8076, 311.6188
449.2897, 322.3840
449.7719, 333.1702
450.2540, 343.2835
450.7361, 352.7169
451.2182, 362.3604
451.7003, 371.7366
452.1824, 381.7932
452.6646, 393.2531
453.1467, 405.5966
453.6288, 417.8510
454.1109, 429.6225
454.5930, 441.1861
455.0751, 453.2177
455.5573, 465.9891
456.0394, 478.7115
456.5215, 490.7126
457.0036, 503.2198
457.4857, 517.5039
457.9678, 533.0867
458.4500, 548.4286
458.9321, 562.2790
459.4142, 574.9077
459.8963, 588.1545
460.3784, 602.7172
460.8605, 616.5748
461.3427, 629.6409
461.8248, 641.7411
462.3069, 652.7624
462.7890, 662.6769
463.2711, 671.5085
463.7532, 679.6680
464.2354, 687.0714
464.7175, 691.7934
465.1996, 693.6506
465.6817, 692.5735
466.1638, 688.5255
466.6459, 681.7815
467.1281, 672.6882
467.6102, 661.1854
468.0923, 647.5592
468.5744, 631.8650
469.0565, 614.0980
469.5386, 595.4400
470.0208, 576.2090
470.5029, 556.4636
470.9850, 536.2136
471.4671, 515.1102
471.9492, 495.0047
472.4313, 476.2471
472.9135, 458.6843
473.3956, 442.2559
473.8777, 426.9242
474.3598, 412.2980
474.8419, 398.1650
475.3240, 384.5186
475.8062, 371.6224
476.2883, 359.8138
476.7704, 348.1715
477.2525, 336.6433
477.7346, 325.1485
478.2167, 313.5870
478.6989, 301.9084
479.1810, 290.4397
479.6631, 279.4690
480.1452, 269.1732
480.6273, 258.8080
481.1094, 247.9593
481.5916, 237.5162
482.0737, 227.5640
482.5558, 218.2679
483.0379, 209.9420
483.5200, 202.7682
484.0021, 196.2538
484.4843, 189.3644
484.9664, 181.8719
485.4485, 174.9203
485.9306, 168.7674
486.4127, 163.2375
486.8948, 158.2250
487.3770, 153.7131
487.8591, 149.7498
488.3412, 146.8079
488.8233, 144.3093
489.3054, 140.9645
489.7875, 136.6729
490.2697, 132.6348
490.7518, 129.4705
491.2339, 126.9977
491.7160, 124.6163
492.1981, 122.1589
492.6802, 120.3158
493.1624, 120.0084
493.6445, 120.2817
494.1266, 119.5070
494.6087, 117.4337
495.0908, 115.3605
495.5729, 114.4743
496.0551, 114.7657
496.5372, 114.7445
497.0193, 114.2827
497.5014, 113.7116
497.9835, 112.9814
498.4656, 112.2538
498.9478, 111.7501
499.4299, 111.5399
499.9120, 111.5124
500.3941, 111.4989
500.8762, 111.4520
501.3583, 111.6116
501.8405, 112.2409
502.3226, 112.8082
502.8047, 113.0677
503.2868, 113.1357
503.7689, 113.2036
504.2510, 113.3444
504.7331, 113.6236
505.2152, 114.2943
505.6974, 115.4923
506.1795, 116.2363
506.6616, 116.0142
507.1437, 115.5557
507.6258, 115.3562
508.1079, 115.4030
508.5901, 115.5502
509.0722, 115.7977
509.5543, 116.0699
510.0364, 116.3583
510.5185, 116.6555
511.0006, 116.5627
511.4828, 115.7604
511.9649, 114.5681
512.4470, 113.7270
512.9291, 113.4271
513.4113, 112.7837
513.8934, 111.4808
514.3755, 109.7838
514.8576, 107.8966
515.3397, 105.8695
515.8218, 103.8299
516.3040, 101.8922
516.7861, 99.99863
517.2682, 97.76380
517.7503, 94.58589
518.2324, 91.82689
518.7145, 89.74083
519.1967, 88.02749
519.6788, 86.44682
520.1609, 84.92733
520.6430, 83.45763
521.1251, 82.00372
521.6072, 80.56351
522.0894, 79.34892
522.5715, 78.44386
523.0536, 77.63673
523.5357, 76.92368
524.0178, 76.22330
524.4999, 75.41982
524.9821, 74.47269
525.4642, 73.52853
525.9463, 72.65363
526.4284, 71.88017
526.9105, 71.39713
527.3926, 71.34359
527.8748, 71.24916
528.3569, 70.61121
528.8390, 69.62061
529.3211, 68.93404
529.8032, 68.71122
530.2853, 68.69926
530.7675, 69.13541
531.2496, 69.62395
531.7317, 69.14223
532.2138, 67.37478
532.6959, 65.49163
533.1780, 65.02847
533.6602, 66.33208
534.1423, 66.89179
534.6244, 66.25788
535.1065, 65.50060
535.5886, 64.95190
536.0707, 64.56361
536.5529, 64.20418
537.0350, 63.82520
537.5171, 63.50305
537.9992, 63.41444
538.4813, 63.63941
538.9634, 63.67813
539.4456, 63.28585
539.9277, 62.95269
540.4098, 63.06134
540.8919, 63.37194
541.3740, 63.35009
541.8561, 62.64069
542.3383, 61.83076
542.8204, 61.71888
543.3025, 62.22953
543.7846, 62.66608
544.2667, 62.91488
544.7488, 62.92774
545.2310, 62.49584
545.7131, 61.68198
546.1952, 61.09287
546.6773, 60.99497
547.1594, 60.98791
547.6415, 60.77191
548.1237, 60.43898
548.6058, 60.25342
549.0879, 60.32676
549.5700, 60.51451
550.0521, 60.58845
550.5342, 60.54827
551.0164, 60.38321
551.4985, 59.85484
551.9806, 59.46427
552.4627, 59.60873
552.9448, 60.02012
553.4269, 60.12541
553.9091, 59.62944
554.3912, 58.95282
554.8733, 58.93715
555.3554, 59.73202
555.8375, 60.13574
556.3196, 59.70200
556.8018, 59.17589
557.2839, 59.12249
557.7660, 59.36617
558.2481, 59.39680
558.7302, 58.89375
559.2123, 58.27042
559.6945, 57.86607
560.1766, 57.68715
560.6587, 57.86654
561.1408, 58.55430
561.6229, 59.23958
562.1050, 59.22280
562.5872, 58.35860
563.0693, 57.78208
563.5514, 57.66040
564.0335, 57.67487
564.5156, 57.70868
564.9977, 57.75471
565.4799, 57.79004
565.9620, 57.80928
566.4441, 57.91251
566.9262, 58.34253
567.4083, 59.31100
567.8904, 59.74176
568.3726, 59.03617
568.8547, 58.39226
569.3368, 58.34558
569.8189, 58.59980
570.3010, 58.62719
570.7831, 58.20625
571.2653, 57.65042
571.7474, 57.26894
572.2295, 57.06319
572.7116, 57.10217
573.1937, 57.53682
573.6758, 57.86342
574.1580, 57.47148
574.6401, 56.58752
575.1222, 56.10511
575.6043, 56.29957
576.0864, 56.69355
576.5685, 57.27709
577.0507, 57.84099
577.5328, 57.95464
578.0149, 57.53304
578.4970, 56.99262
578.9791, 56.80420
579.4612, 56.99261
579.9434, 56.90850
580.4255, 56.06225
580.9076, 55.52143
581.3897, 55.72897
581.8718, 56.20838
582.3539, 56.43861
582.8361, 56.30516
583.3182, 56.05266
583.8003, 55.93666
584.2824, 55.92627
584.7645, 55.77399
585.2466, 55.42001
585.7288, 55.09100
586.2108, 54.94221
586.6929, 54.86333
587.1750, 54.62111
587.6572, 54.08352
588.1393, 53.89316
588.6214, 54.84302
589.1035, 56.05452
589.5856, 56.13576
590.0677, 55.09417
