##NAMES=Aminoffite
##RRUFFID=R100055
##IDEAL CHEMISTRY=Ca_3_(BeOH)_2_Si_3_O_10_
##LOCALITY=Langban, Filipstad, Varmland, Sweden
##OWNER=RRUFF
##SOURCE=William W Pinch
##DESCRIPTION=Colorless transparent tetragonal pyramids with basal terminations, co-type sample from Harvard
##STATUS=The identification of this mineral has been confirmed by single-crystal X-ray diffraction.
##URL=rruff.info/R100055
90.97430, 16.46154
91.45642, 16.53846
91.93854, 16.51397
92.42065, 16.33912
92.90277, 15.80283
93.38489, 14.78420
93.86700, 13.87129
94.34912, 13.95216
94.83124, 14.88085
95.31335, 15.82162
95.79547, 16.31393
96.27759, 16.40576
96.75970, 16.25968
97.24182, 15.79404
97.72394, 15.22614
98.20605, 15.02948
98.68817, 15.22684
99.17029, 15.61624
99.65240, 16.07647
100.1345, 16.61345
100.6166, 17.20675
101.0988, 18.03194
101.5809, 18.97178
102.0630, 18.91055
102.5451, 17.44885
103.0272, 15.69566
103.5093, 14.95321
103.9915, 15.64824
104.4736, 16.26663
104.9557, 16.37898
105.4378, 15.88336
105.9199, 15.39866
106.4020, 14.60960
106.8842, 13.98090
107.3663, 14.42925
107.8484, 17.31474
108.3305, 19.69467
108.8126, 20.44040
109.2947, 17.96008
109.7769, 16.49308
110.2590, 16.61303
110.7411, 17.84695
111.2232, 18.72111
111.7053, 19.36024
112.1874, 19.53234
112.6696, 19.12525
113.1517, 17.13259
113.6338, 15.63214
114.1159, 15.17072
114.5980, 15.59958
115.0801, 15.82887
115.5623, 15.13967
116.0444, 14.37871
116.5265, 14.20102
117.0086, 15.38212
117.4907, 16.64399
117.9728, 17.56812
118.4550, 18.13552
118.9371, 18.43850
119.4192, 18.43370
119.9013, 18.20757
120.3834, 17.86947
120.8655, 17.06222
121.3477, 16.41227
121.8298, 16.49224
122.3119, 17.45974
122.7940, 18.50985
123.2761, 18.95774
123.7582, 19.05027
124.2404, 19.33721
124.7225, 20.46732
125.2046, 21.83547
125.6867, 22.58041
126.1688, 22.37749
126.6509, 22.03945
127.1331, 22.53891
127.6152, 23.73789
128.0973, 24.95051
128.5794, 25.50764
129.0615, 25.72398
129.5436, 26.39839
130.0258, 27.88477
130.5079, 29.71062
130.9900, 30.94211
131.4721, 31.56932
131.9542, 32.30972
132.4363, 33.44437
132.9185, 35.07069
133.4006, 37.94117
133.8827, 42.75613
134.3648, 48.85973
134.8469, 54.03697
135.3290, 58.06869
135.8112, 62.15680
136.2933, 67.82684
136.7754, 75.21001
137.2575, 82.48122
137.7396, 88.92777
138.2217, 94.47753
138.7039, 100.7503
139.1860, 108.0337
139.6681, 115.6041
140.1502, 122.6060
140.6323, 129.0062
141.1144, 134.7216
141.5966, 139.6133
142.0787, 143.4758
142.5608, 147.1967
143.0429, 150.3909
143.5250, 153.6460
144.0071, 158.4120
144.4893, 165.2920
144.9714, 172.6390
145.4535, 179.5904
145.9356, 185.7445
146.4177, 192.4478
146.8998, 199.7906
147.3820, 207.7178
147.8641, 216.3520
148.3462, 225.7651
148.8283, 235.7064
149.3104, 246.1779
149.7925, 257.5768
150.2747, 268.9293
150.7568, 280.4848
151.2389, 292.1227
151.7210, 302.2240
152.2031, 309.7575
152.6852, 316.2912
153.1674, 322.8793
153.6495, 330.4634
154.1316, 337.0909
154.6137, 341.8734
155.0958, 344.7605
155.5779, 348.6855
156.0601, 355.5635
156.5422, 362.9297
157.0243, 368.5932
157.5064, 369.9529
157.9885, 371.6326
158.4706, 374.9193
158.9528, 379.9846
159.4349, 385.7791
159.9170, 393.1999
160.3991, 400.8643
160.8812, 407.1740
161.3633, 409.5555
161.8455, 412.1781
162.3276, 417.1128
162.8097, 424.8924
163.2918, 432.9493
163.7739, 440.0237
164.2560, 446.2201
164.7382, 449.6623
165.2203, 453.6768
165.7024, 457.9003
166.1845, 461.5585
166.6666, 464.5851
167.1487, 467.0485
167.6309, 468.5493
168.1130, 469.5428
168.5951, 470.9624
169.0772, 473.7788
169.5593, 476.9294
170.0414, 479.6060
170.5236, 481.8133
171.0057, 483.2364
171.4878, 483.2876
171.9699, 482.3072
172.4520, 481.3260
172.9341, 481.2974
173.4163, 481.4485
173.8984, 480.6774
174.3805, 478.0428
174.8626, 475.5744
175.3447, 475.2370
175.8268, 476.7542
176.3090, 478.9179
176.7911, 481.3973
177.2732, 483.8779
177.7553, 485.8120
178.2374, 486.9489
178.7195, 487.6141
179.2017, 487.9951
179.6838, 488.1438
180.1659, 488.5597
180.6480, 489.7000
181.1301, 491.3944
181.6122, 493.3441
182.0944, 495.8728
182.5765, 498.3084
183.0586, 499.1898
183.5407, 498.5242
184.0228, 497.8844
184.5049, 498.8879
184.9871, 501.1498
185.4692, 503.2585
185.9513, 504.7826
186.4334, 505.8719
186.9155, 506.8750
187.3976, 507.7842
187.8798, 508.6502
188.3619, 509.5107
188.8440, 510.3741
189.3261, 511.2411
189.8082, 512.1933
190.2903, 513.1544
190.7725, 513.7419
191.2546, 513.8821
191.7367, 514.0779
192.2188, 515.0439
192.7009, 516.7429
193.1830, 518.3455
193.6652, 519.4879
194.1473, 520.2561
194.6294, 521.0930
195.1115, 521.9806
195.5936, 522.9899
196.0757, 524.4835
196.5579, 526.5023
197.0400, 527.8679
197.5221, 527.5582
198.0042, 525.7660
198.4863, 525.6207
198.9684, 527.3868
199.4506, 530.2314
199.9327, 532.9414
200.4148, 535.4908
200.8969, 538.2433
201.3790, 541.6628
201.8611, 545.7878
202.3433, 548.8707
202.8254, 550.7914
203.3075, 551.8585
203.7896, 552.3948
204.2717, 552.2730
204.7538, 552.2364
205.2360, 552.7090
205.7181, 553.7839
206.2002, 554.5274
206.6823, 555.0646
207.1644, 555.1229
207.6465, 553.8414
208.1287, 550.7067
208.6108, 548.0916
209.0929, 547.2560
209.5750, 548.6056
210.0571, 549.5881
210.5392, 550.1465
211.0214, 550.4105
211.5035, 550.4741
211.9856, 550.0613
212.4677, 550.2294
212.9498, 551.7505
213.4319, 555.1627
213.9140, 557.5985
214.3962, 558.8963
214.8783, 559.2942
215.3604, 559.1540
215.8425, 558.0795
216.3246, 557.3284
216.8067, 557.5687
217.2889, 559.1347
217.7710, 560.4774
218.2531, 561.4816
218.7352, 562.2778
219.2173, 563.2122
219.6994, 564.3219
220.1816, 565.4892
220.6637, 566.8143
221.1458, 568.6807
221.6279, 569.4954
222.1100, 568.6505
222.5921, 566.9886
223.0743, 566.8508
223.5564, 569.1133
224.0385, 571.3931
224.5206, 572.4594
225.0027, 571.7036
225.4848, 571.4597
225.9670, 571.8762
226.4491, 572.7960
226.9312, 573.8294
227.4133, 574.9561
227.8954, 576.2193
228.3775, 577.5525
228.8597, 578.7589
229.3418, 580.6318
229.8239, 583.7210
230.3060, 587.3217
230.7881, 589.3160
231.2702, 588.9283
231.7524, 588.0983
232.2345, 587.6025
232.7166, 587.2455
233.1987, 587.7067
233.6808, 589.5065
234.1629, 591.9834
234.6451, 593.3283
235.1272, 592.9083
235.6093, 592.3124
236.0914, 592.2382
236.5735, 592.8905
237.0556, 593.6319
237.5378, 594.3705
238.0199, 595.2492
238.5020, 596.7549
238.9841, 599.7662
239.4662, 602.1553
239.9483, 602.7857
240.4305, 600.3050
240.9126, 599.2937
241.3947, 600.3994
241.8768, 602.7568
242.3589, 604.1746
242.8410, 603.9437
243.3232, 603.8298
243.8053, 604.5653
244.2874, 606.3819
244.7695, 608.5240
245.2516, 611.2620
245.7337, 614.2300
246.2159, 616.6271
246.6980, 618.4061
247.1801, 619.7020
247.6622, 620.5441
248.1443, 620.8232
248.6264, 620.9229
249.1086, 620.5529
249.5907, 620.1522
250.0728, 620.7169
250.5549, 622.8303
251.0370, 624.9180
251.5191, 626.2352
252.0013, 626.2379
252.4834, 627.3314
252.9655, 630.1628
253.4476, 633.6688
253.9297, 635.7316
254.4118, 635.4493
254.8940, 635.3506
255.3761, 636.4138
255.8582, 639.0042
256.3403, 641.4971
256.8224, 644.5991
257.3046, 647.0808
257.7867, 646.3087
258.2688, 640.1558
258.7509, 635.2510
259.2330, 634.0642
259.7151, 637.2364
260.1973, 640.5065
260.6794, 644.3576
261.1615, 647.7941
261.6436, 648.9021
262.1257, 646.4647
262.6078, 644.7044
263.0900, 645.1219
263.5721, 647.9939
264.0542, 650.3668
264.5363, 652.3124
265.0184, 653.6827
265.5005, 654.0616
265.9827, 652.8274
266.4648, 652.4030
266.9469, 653.7194
267.4290, 656.8127
267.9111, 659.2629
268.3932, 660.8367
268.8754, 662.0915
269.3575, 663.9525
269.8396, 666.9913
270.3217, 668.5013
270.8038, 667.1849
271.2859, 663.2680
271.7681, 661.4761
272.2502, 662.2269
272.7323, 664.2382
273.2144, 666.4236
273.6965, 668.9149
274.1786, 670.9259
274.6608, 672.2324
275.1429, 672.9091
275.6250, 673.3549
276.1071, 673.3455
276.5892, 673.7481
277.0714, 675.6953
277.5535, 679.4441
278.0356, 682.4873
278.5177, 684.3773
278.9998, 685.2179
279.4819, 684.8788
279.9641, 682.8766
280.4462, 681.7301
280.9283, 684.4822
281.4104, 691.3106
281.8925, 695.6033
282.3746, 695.6409
282.8568, 693.0460
283.3389, 692.3590
283.8210, 693.7220
284.3031, 695.8528
284.7852, 698.0840
285.2673, 700.3729
285.7495, 702.4343
286.2316, 704.2348
286.7137, 705.7546
287.1958, 706.6938
287.6779, 707.0118
288.1600, 707.7289
288.6422, 710.1627
289.1243, 713.9075
289.6064, 715.6611
290.0885, 714.7481
290.5706, 712.8685
291.0527, 712.5761
291.5349, 713.8270
292.0170, 715.9105
292.4991, 718.9996
292.9812, 722.7110
293.4633, 725.5345
293.9454, 727.3860
294.4276, 728.5063
294.9097, 728.8040
295.3918, 728.4622
295.8739, 728.4344
296.3560, 729.4930
296.8381, 731.1588
297.3203, 732.1939
297.8024, 732.5051
298.2845, 732.7292
298.7666, 733.3476
299.2487, 734.3827
299.7308, 735.9338
300.2130, 738.2458
300.6951, 741.0267
301.1772, 744.0435
301.6593, 747.2883
302.1414, 750.1791
302.6235, 752.1742
303.1057, 753.4388
303.5878, 754.2364
304.0699, 754.5426
304.5520, 754.5461
305.0341, 754.1898
305.5162, 753.5612
305.9984, 753.3906
306.4805, 754.0203
306.9626, 755.4812
307.4447, 757.9162
307.9268, 762.0198
308.4089, 766.2474
308.8911, 769.4332
309.3732, 771.6334
309.8553, 773.1017
310.3374, 773.0516
310.8195, 772.7675
311.3016, 773.5479
311.7838, 775.8243
312.2659, 778.8514
312.7480, 782.7607
313.2301, 787.0887
313.7122, 790.7595
314.1943, 793.1713
314.6765, 794.8603
315.1586, 795.8431
315.6407, 795.5967
316.1228, 796.5283
316.6049, 801.1199
317.0870, 807.4826
317.5692, 812.4387
318.0513, 813.3268
318.5334, 813.8192
319.0155, 815.7647
319.4976, 819.5161
319.9797, 823.3028
320.4619, 826.7598
320.9440, 829.8653
321.4261, 832.5566
321.9082, 833.5977
322.3903, 835.4117
322.8724, 839.1552
323.3546, 844.8953
323.8367, 850.1874
324.3188, 855.1331
324.8009, 859.1948
325.2830, 861.9183
325.7651, 862.6342
326.2473, 862.7814
326.7294, 862.8529
327.2115, 862.7172
327.6936, 861.2256
328.1757, 856.1633
328.6578, 851.3331
329.1400, 848.6360
329.6221, 850.5862
330.1042, 851.2844
330.5863, 849.8468
331.0684, 847.0911
331.5505, 845.4607
332.0327, 845.4444
332.5148, 845.9276
332.9969, 846.4844
333.4790, 846.9906
333.9611, 847.8951
334.4432, 849.5851
334.9254, 851.4424
335.4075, 852.2399
335.8896, 851.1880
336.3717, 850.7267
336.8538, 852.0157
337.3359, 855.3923
337.8180, 856.7367
338.3001, 855.0917
338.7823, 852.8973
339.2644, 853.1345
339.7465, 856.3630
340.2286, 859.6171
340.7107, 862.3085
341.1928, 864.4632
341.6750, 865.9539
342.1571, 866.7083
342.6392, 867.1262
343.1213, 867.0999
343.6034, 866.5929
344.0855, 867.7465
344.5677, 871.5016
345.0498, 876.4839
345.5319, 879.2214
346.0140, 879.6662
346.4961, 879.2578
346.9782, 878.4727
347.4604, 877.4998
347.9425, 877.3026
348.4246, 878.0345
348.9067, 879.4008
349.3888, 881.3075
349.8709, 883.6299
350.3531, 885.6270
350.8352, 886.3853
351.3173, 886.6898
351.7994, 888.4310
352.2815, 891.7965
352.7636, 895.0074
353.2458, 895.4716
353.7279, 894.4990
354.2100, 894.9547
354.6921, 899.3578
355.1742, 904.7082
355.6563, 907.7712
356.1385, 908.6876
356.6206, 909.1844
357.1027, 909.8525
357.5848, 910.9690
358.0669, 913.0049
358.5490, 916.9098
359.0312, 920.5026
359.5133, 921.6259
359.9954, 921.1561
360.4775, 921.8365
360.9596, 926.7029
361.4417, 932.0336
361.9239, 935.1556
362.4060, 934.9814
362.8881, 934.5607
363.3702, 935.0262
363.8523, 935.9619
364.3344, 936.7321
364.8166, 936.6467
365.2987, 936.8323
365.7808, 937.8432
366.2629, 939.8233
366.7450, 941.6861
367.2271, 943.2081
367.7093, 944.5846
368.1914, 945.9885
368.6735, 947.9518
369.1556, 949.3927
369.6377, 949.4310
370.1198, 948.3884
370.6020, 949.2032
371.0841, 953.4864
371.5662, 958.1432
372.0483, 961.4777
372.5304, 962.8747
373.0125, 964.1406
373.4947, 965.2686
373.9768, 966.2849
374.4589, 967.2494
374.9410, 968.1122
375.4231, 969.0190
375.9052, 969.9457
376.3874, 970.8304
376.8695, 972.3561
377.3516, 974.7451
377.8337, 977.4350
378.3158, 979.7408
378.7979, 981.6018
379.2801, 983.6341
379.7622, 986.1212
380.2443, 988.9033
380.7264, 991.4543
381.2085, 993.7797
381.6906, 995.6973
382.1728, 996.7590
382.6549, 997.1429
383.1370, 997.8693
383.6191, 999.0064
384.1012, 1000.749
384.5833, 1004.097
385.0655, 1008.768
385.5476, 1012.627
386.0297, 1013.839
386.5118, 1013.604
386.9939, 1014.106
387.4760, 1015.564
387.9582, 1017.451
388.4403, 1019.857
388.9224, 1022.331
389.4045, 1023.934
389.8866, 1023.621
390.3687, 1022.750
390.8509, 1021.801
391.3330, 1020.932
391.8151, 1021.765
392.2972, 1027.229
392.7793, 1033.947
393.2614, 1038.637
393.7436, 1039.353
394.2257, 1039.392
394.7078, 1039.683
395.1899, 1040.293
395.6720, 1041.401
396.1541, 1042.819
396.6363, 1044.953
397.1184, 1048.305
397.6005, 1053.639
398.0826, 1057.962
398.5647, 1060.067
399.0468, 1061.189
399.5290, 1062.824
400.0111, 1066.081
400.4932, 1068.770
400.9753, 1070.338
401.4574, 1070.791
401.9395, 1071.360
402.4217, 1071.561
402.9038, 1072.369
403.3859, 1074.529
403.8680, 1078.606
404.3501, 1082.776
404.8322, 1087.244
405.3144, 1091.547
405.7965, 1094.004
406.2786, 1093.965
406.7607, 1094.279
407.2428, 1096.259
407.7249, 1099.957
408.2071, 1104.388
408.6892, 1109.992
409.1713, 1115.107
409.6534, 1117.063
410.1355, 1116.025
410.6176, 1115.542
411.0998, 1116.801
411.5819, 1119.194
412.0640, 1121.406
412.5461, 1123.423
413.0282, 1125.316
413.5103, 1126.705
413.9925, 1128.033
414.4746, 1130.650
414.9567, 1135.405
415.4388, 1139.617
415.9209, 1139.703
416.4030, 1137.022
416.8852, 1134.957
417.3673, 1135.609
417.8494, 1137.341
418.3315, 1138.726
418.8136, 1139.657
419.2957, 1141.137
419.7779, 1141.791
420.2600, 1144.076
420.7421, 1150.453
421.2242, 1171.626
421.7063, 1186.603
422.1884, 1184.989
422.6706, 1170.913
423.1527, 1159.935
423.6348, 1157.337
424.1169, 1157.359
424.5990, 1157.371
425.0811, 1156.522
425.5633, 1157.260
426.0454, 1161.048
426.5275, 1165.868
427.0096, 1169.184
427.4917, 1170.035
427.9738, 1170.771
428.4560, 1171.625
428.9381, 1172.639
429.4202, 1174.787
429.9023, 1178.516
430.3844, 1182.476
430.8665, 1185.790
431.3487, 1188.493
431.8308, 1190.138
432.3129, 1190.358
432.7950, 1189.907
433.2771, 1190.305
433.7592, 1191.560
434.2414, 1193.124
434.7235, 1194.510
435.2056, 1195.954
435.6877, 1198.655
436.1698, 1202.669
436.6519, 1206.963
437.1341, 1210.829
437.6162, 1214.124
438.0983, 1216.504
438.5804, 1217.578
439.0625, 1218.139
439.5446, 1219.050
440.0268, 1220.232
440.5089, 1221.365
440.9910, 1221.552
441.4731, 1222.045
441.9552, 1224.492
442.4373, 1229.565
442.9195, 1233.726
443.4016, 1234.352
443.8837, 1233.322
444.3658, 1232.919
444.8479, 1234.119
445.3300, 1235.748
445.8122, 1237.695
446.2943, 1239.865
446.7764, 1241.686
447.2585, 1241.391
447.7406, 1242.009
448.2227, 1245.397
448.7049, 1254.545
449.1870, 1260.586
449.6691, 1262.147
450.1512, 1261.254
450.6333, 1260.831
451.1154, 1260.404
451.5976, 1261.552
452.0797, 1265.379
452.5618, 1271.585
453.0439, 1275.106
453.5260, 1275.067
454.0081, 1274.861
454.4903, 1277.847
454.9724, 1283.932
455.4545, 1287.964
455.9366, 1288.909
456.4187, 1288.357
456.9008, 1287.883
457.3830, 1287.788
457.8651, 1290.318
458.3472, 1299.263
458.8293, 1310.699
459.3114, 1317.406
459.7935, 1319.302
460.2757, 1319.685
460.7578, 1320.027
461.2399, 1320.813
461.7220, 1322.834
462.2041, 1326.932
462.6862, 1331.241
463.1684, 1334.954
463.6505, 1337.986
464.1326, 1340.051
464.6147, 1338.412
465.0968, 1337.930
465.5789, 1342.215
466.0611, 1352.413
466.5432, 1360.003
467.0253, 1360.439
467.5074, 1359.022
467.9895, 1360.190
468.4716, 1367.391
468.9538, 1373.127
469.4359, 1376.600
469.9180, 1378.280
470.4001, 1379.552
470.8822, 1380.200
471.3643, 1380.887
471.8465, 1382.312
472.3286, 1384.787
472.8107, 1384.369
473.2928, 1380.106
473.7749, 1375.367
474.2570, 1374.136
474.7392, 1376.398
475.2213, 1379.213
475.7034, 1382.226
476.1855, 1385.093
476.6676, 1386.635
477.1497, 1387.044
477.6319, 1388.093
478.1140, 1391.632
478.5961, 1396.242
479.0782, 1399.630
479.5603, 1401.609
480.0424, 1402.661
480.5246, 1402.008
481.0067, 1400.976
481.4888, 1401.449
481.9709, 1404.649
482.4530, 1408.772
482.9352, 1413.840
483.4173, 1419.251
483.8994, 1423.111
484.3815, 1423.061
484.8636, 1422.720
485.3457, 1424.095
485.8279, 1428.087
486.3100, 1430.922
486.7921, 1430.868
487.2742, 1430.299
487.7563, 1431.419
488.2384, 1435.978
488.7206, 1439.147
489.2027, 1439.648
489.6848, 1438.502
490.1669, 1439.601
490.6490, 1443.702
491.1311, 1447.756
491.6133, 1450.045
492.0954, 1450.627
492.5775, 1452.060
493.0596, 1454.454
493.5417, 1457.243
494.0238, 1460.200
494.5060, 1463.145
494.9881, 1464.900
495.4702, 1464.378
495.9523, 1463.765
496.4344, 1466.567
496.9165, 1472.098
497.3987, 1477.762
497.8808, 1482.567
498.3629, 1486.588
498.8450, 1489.936
499.3271, 1492.647
499.8092, 1494.509
500.2914, 1494.672
500.7735, 1494.289
501.2556, 1494.441
501.7377, 1494.523
502.2198, 1496.191
502.7019, 1500.534
503.1841, 1506.766
503.6662, 1512.776
504.1483, 1519.712
504.6304, 1525.120
505.1125, 1528.217
505.5946, 1528.946
506.0768, 1528.214
506.5589, 1524.826
507.0410, 1521.805
507.5231, 1521.932
508.0052, 1525.725
508.4873, 1529.442
508.9695, 1532.883
509.4516, 1535.670
509.9337, 1536.133
510.4158, 1534.470
510.8979, 1534.531
511.3800, 1539.151
511.8622, 1546.277
512.3443, 1551.120
512.8264, 1553.750
513.3085, 1556.405
513.7906, 1561.334
514.2728, 1567.079
514.7549, 1571.797
515.2370, 1575.133
515.7191, 1577.433
516.2012, 1578.005
516.6833, 1577.880
517.1655, 1578.646
517.6476, 1581.972
518.1297, 1585.148
518.6118, 1587.015
519.0939, 1587.703
519.5760, 1588.861
520.0582, 1590.881
520.5403, 1593.245
521.0224, 1595.741
521.5045, 1598.423
521.9866, 1601.045
522.4688, 1603.390
522.9509, 1605.887
523.4330, 1609.217
523.9151, 1613.547
524.3972, 1617.763
524.8793, 1621.615
525.3615, 1625.153
525.8436, 1628.387
526.3257, 1631.340
526.8078, 1634.627
527.2899, 1639.137
527.7720, 1644.206
528.2542, 1648.159
528.7363, 1650.897
529.2184, 1653.337
529.7005, 1655.840
530.1826, 1658.622
530.6647, 1662.096
531.1469, 1667.028
531.6290, 1671.533
532.1111, 1674.050
532.5932, 1675.382
533.0753, 1677.159
533.5574, 1680.976
534.0396, 1684.238
534.5217, 1685.668
535.0038, 1685.066
535.4859, 1685.342
535.9680, 1686.748
536.4501, 1688.824
536.9323, 1691.464
537.4144, 1695.240
537.8965, 1697.949
538.3786, 1699.240
538.8607, 1699.892
539.3428, 1701.065
539.8250, 1702.826
540.3071, 1704.392
540.7892, 1705.082
541.2713, 1705.810
541.7534, 1709.427
542.2355, 1715.665
542.7177, 1721.553
543.1998, 1725.485
543.6819, 1727.831
544.1640, 1728.641
544.6461, 1727.840
545.1282, 1727.440
545.6104, 1729.005
546.0925, 1731.676
546.5746, 1734.503
547.0567, 1737.195
547.5388, 1740.016
548.0209, 1742.940
548.5031, 1746.021
548.9852, 1749.443
549.4673, 1753.392
549.9494, 1757.542
550.4315, 1762.306
550.9136, 1767.677
551.3958, 1770.664
551.8779, 1769.783
552.3600, 1769.035
552.8421, 1771.110
553.3242, 1776.287
553.8063, 1782.068
554.2885, 1788.898
554.7706, 1794.822
555.2527, 1796.201
555.7348, 1793.816
556.2169, 1792.537
556.6990, 1793.938
557.1812, 1797.014
557.6633, 1801.010
558.1454, 1805.636
558.6275, 1809.817
559.1096, 1812.870
559.5917, 1815.246
560.0739, 1816.867
560.5560, 1817.723
561.0381, 1819.435
561.5202, 1823.227
562.0023, 1827.768
562.4844, 1832.092
562.9666, 1836.270
563.4487, 1839.864
563.9308, 1841.749
564.4129, 1843.496
564.8950, 1847.886
565.3771, 1856.795
565.8593, 1863.873
566.3414, 1867.105
566.8235, 1867.453
567.3056, 1869.349
567.7877, 1872.864
568.2698, 1877.294
568.7520, 1883.162
569.2341, 1889.710
569.7162, 1894.051
570.1983, 1895.993
570.6804, 1896.977
571.1625, 1897.343
571.6447, 1897.886
572.1268, 1900.202
572.6089, 1905.852
573.0910, 1910.862
573.5731, 1911.548
574.0552, 1910.075
574.5374, 1910.235
575.0195, 1915.010
575.5016, 1919.876
575.9837, 1923.866
576.4658, 1926.855
576.9479, 1928.007
577.4301, 1925.705
577.9122, 1923.502
578.3943, 1922.925
578.8764, 1924.225
579.3585, 1925.761
579.8406, 1927.392
580.3228, 1929.556
580.8049, 1932.682
581.2870, 1936.730
581.7691, 1941.908
582.2512, 1948.823
582.7333, 1955.363
583.2155, 1957.384
583.6975, 1956.164
584.1796, 1955.873
584.6617, 1959.018
585.1439, 1963.468
585.6260, 1967.196
586.1081, 1970.438
586.5902, 1974.475
587.0723, 1981.012
587.5544, 1987.617
