##NAMES=Ammineite
##RRUFFID=R120154
##IDEAL CHEMISTRY=Cu^2+^Cl_2_(N^3-^H_3_)_2_
##LOCALITY=Rowley mine, Maricopa County, Arizona, USA
##OWNER=RRUFF
##SOURCE=Ron Gibbs
##DESCRIPTION=Blue massive coating
##STATUS=The identification of this mineral has been confirmed by single-crystal X-ray diffraction.
##URL=rruff.info/R120154
78.26855, 52.76152
80.19702, 44.81608
82.12549, 41.83765
84.05396, 45.19028
85.98242, 52.59392
87.91089, 61.24803
89.83936, 71.04274
91.76782, 80.84516
93.69629, 87.66516
95.62476, 87.88734
97.55322, 86.71592
99.48169, 84.82475
101.4102, 82.51406
103.3386, 79.81227
105.2671, 77.62104
107.1956, 75.92750
109.1240, 74.55952
111.0525, 73.71232
112.9810, 72.88137
114.9094, 71.37438
116.8379, 69.17136
118.7664, 66.93557
120.6948, 64.67203
122.6233, 62.39302
124.5518, 59.96021
126.4802, 57.55836
128.4087, 55.34813
130.3372, 53.31484
132.2656, 51.58421
134.1941, 50.24358
136.1226, 49.09834
138.0510, 48.14145
139.9795, 47.35198
141.9080, 46.65428
143.8364, 46.05202
145.7649, 45.74468
147.6934, 45.83459
149.6218, 46.10406
151.5503, 46.44068
153.4788, 47.03002
155.4072, 47.93496
157.3357, 49.16354
159.2642, 50.88545
161.1926, 53.18853
163.1211, 55.90394
165.0496, 59.28724
166.9780, 62.84317
168.9065, 66.58507
170.8350, 70.27980
172.7634, 73.03105
174.6919, 75.01432
176.6204, 75.50445
178.5488, 73.96784
180.4773, 71.56374
182.4058, 68.28527
184.3342, 64.77041
186.2627, 62.09453
188.1912, 60.35590
190.1196, 59.31853
192.0481, 59.13091
193.9766, 59.34078
195.9050, 59.99329
197.8335, 60.81414
199.7620, 61.47616
201.6904, 61.97274
203.6189, 62.85838
205.5474, 63.83870
207.4758, 65.91044
209.4043, 69.41661
211.3328, 74.13542
213.2612, 79.96899
215.1897, 86.87060
217.1182, 94.91058
219.0466, 104.2853
220.9751, 113.7743
222.9036, 126.1380
224.8320, 133.2791
226.7605, 132.1474
228.6890, 124.3267
230.6174, 109.8134
232.5459, 88.62691
234.4744, 71.03553
236.4028, 57.44496
238.3313, 47.06030
240.2598, 40.73549
242.1882, 36.42707
244.1167, 33.38747
246.0452, 31.43208
247.9736, 30.00441
249.9021, 29.10660
251.8306, 28.31999
253.7590, 27.57637
255.6875, 26.91901
257.6160, 26.33179
259.5444, 25.85364
261.4729, 25.60145
263.4014, 25.51923
265.3298, 25.32271
267.2583, 24.95643
269.1868, 24.63708
271.1152, 24.42228
273.0437, 24.26036
274.9722, 24.15395
276.9006, 24.07490
278.8291, 23.96849
280.7576, 23.83808
282.6860, 23.73251
284.6145, 23.65575
286.5430, 23.60972
288.4714, 23.64452
290.3999, 23.65935
292.3284, 23.58540
294.2568, 23.43747
296.1853, 23.20640
298.1138, 22.86925
300.0422, 22.70570
301.9707, 22.99994
303.8992, 23.12837
305.8276, 22.78065
307.7561, 22.38077
309.6846, 22.41176
311.6130, 22.63424
313.5415, 22.45832
315.4700, 21.69561
317.3984, 21.21938
319.3269, 21.28506
321.2554, 21.34310
323.1838, 21.21652
325.1123, 21.05413
327.0408, 20.97286
328.9692, 20.95468
330.8977, 20.96020
332.8262, 21.05019
334.7546, 20.99120
336.6831, 20.68777
338.6116, 20.38072
340.5400, 20.05541
342.4685, 19.83245
344.3970, 19.83412
346.3254, 19.99767
348.2539, 20.10867
350.1824, 20.13553
352.1108, 20.21643
354.0393, 20.42302
355.9678, 20.54246
357.8962, 20.41082
359.8247, 20.28304
361.7532, 20.31539
363.6816, 20.48081
365.6101, 20.73461
367.5386, 21.10157
369.4670, 21.40644
371.3955, 21.60316
373.3240, 21.86605
375.2524, 22.23242
377.1809, 22.69890
379.1094, 23.24361
381.0378, 23.88444
382.9663, 24.56540
384.8948, 25.29884
386.8232, 26.63865
388.7517, 28.71416
390.6802, 30.71587
392.6086, 32.50297
394.5371, 34.13274
396.4656, 35.47978
398.3940, 36.83051
400.3225, 38.20744
402.2510, 39.80838
404.1794, 42.55639
406.1079, 46.42591
408.0364, 50.82783
409.9648, 55.70340
411.8933, 61.08749
413.8218, 67.80651
415.7502, 74.11085
417.6787, 80.92819
419.6072, 85.75329
421.5356, 83.28267
423.4641, 74.43632
425.3926, 63.77334
427.3210, 50.83004
429.2495, 40.14932
431.1780, 33.27345
433.1064, 28.24805
435.0349, 25.01624
436.9634, 22.87888
438.8918, 21.56402
440.8203, 20.82321
442.7488, 20.04539
444.6772, 19.25100
446.6057, 18.75353
448.5342, 18.72020
450.4626, 18.60669
452.3911, 18.19404
454.3196, 17.84736
456.2480, 17.79037
458.1765, 17.79296
460.1050, 17.59013
462.0334, 17.28568
463.9619, 17.08819
465.8904, 17.00350
467.8188, 16.97803
469.7473, 17.07192
471.6758, 17.09845
473.6042, 17.00868
475.5327, 16.88679
477.4612, 16.71245
479.3896, 16.56850
481.3181, 16.57057
483.2466, 16.64584
485.1750, 16.63726
487.1035, 16.53354
489.0320, 16.45929
490.9604, 16.46517
492.8889, 16.42430
494.8174, 16.28694
496.7458, 16.16580
498.6743, 16.06998
500.6028, 16.03712
502.5313, 16.16548
504.4597, 16.33780
506.3882, 16.30692
508.3167, 16.07537
510.2451, 16.01060
512.1736, 16.21511
514.1021, 16.33239
516.0305, 16.29873
517.9590, 16.30522
519.8875, 16.51845
521.8159, 16.62941
523.7444, 16.30127
525.6729, 15.90063
527.6013, 15.84068
529.5298, 16.05331
531.4583, 16.30667
533.3867, 16.62718
535.3152, 16.75258
537.2437, 16.64835
539.1721, 16.47730
541.1006, 16.17726
543.0291, 16.00517
544.9575, 16.24527
546.8860, 16.46458
548.8145, 16.33840
550.7429, 16.06589
552.6714, 15.92677
554.5999, 15.90680
556.5283, 15.94776
558.4568, 16.05053
560.3853, 16.08652
562.3137, 16.02749
564.2422, 15.98924
566.1707, 16.02016
568.0991, 16.04088
570.0276, 16.02156
571.9561, 15.98480
573.8845, 15.88934
575.8130, 15.82291
577.7415, 15.94485
579.6699, 16.20406
581.5984, 16.44733
583.5269, 16.66505
585.4553, 16.65526
587.3838, 16.32390
589.3123, 16.16034
591.2407, 16.41006
593.1692, 16.59019
595.0977, 16.49973
597.0261, 16.41088
598.9546, 16.53445
600.8831, 16.67714
602.8115, 16.54030
604.7400, 16.31299
606.6685, 16.38518
608.5969, 16.70559
610.5254, 17.04460
612.4539, 17.40674
614.3823, 17.61358
616.3108, 17.57815
618.2393, 17.51834
620.1677, 17.38893
622.0962, 17.34747
624.0247, 17.46610
625.9531, 17.66360
627.8816, 17.87819
629.8101, 18.15297
631.7385, 18.61597
633.6670, 19.13642
635.5955, 19.42826
637.5239, 19.50567
639.4524, 19.58139
641.3809, 19.60395
643.3093, 19.83678
645.2378, 20.49532
647.1663, 20.99804
649.0947, 21.25620
651.0232, 21.43422
652.9517, 21.39233
654.8801, 21.52799
656.8086, 22.16460
658.7371, 22.99182
660.6655, 23.71193
662.5940, 24.45353
664.5225, 25.52927
666.4509, 26.83893
668.3794, 27.89304
670.3079, 28.71646
672.2363, 29.02318
674.1648, 28.77312
676.0933, 28.20397
678.0217, 27.30310
679.9502, 26.12620
681.8787, 24.45337
683.8071, 23.00180
685.7356, 22.16513
687.6641, 21.51712
689.5925, 20.80013
691.5210, 20.16823
693.4495, 19.87090
695.3779, 19.68635
697.3064, 19.14068
699.2349, 18.38372
701.1633, 18.04744
703.0918, 18.12473
705.0203, 18.13397
706.9487, 18.06928
708.8772, 18.06882
710.8057, 18.18987
712.7341, 18.11138
714.6626, 17.63040
716.5911, 17.29450
718.5195, 17.32569
720.4480, 17.47381
722.3765, 17.81324
724.3049, 18.03523
726.2334, 17.80116
728.1619, 17.48423
730.0903, 17.50368
732.0188, 17.69045
733.9473, 17.77868
735.8757, 17.78589
737.8042, 17.74756
739.7327, 17.67767
741.6611, 17.65196
743.5896, 17.67380
745.5181, 17.72848
747.4465, 17.83497
749.3750, 17.85712
751.3035, 17.70431
753.2319, 17.62312
755.1604, 17.68276
757.0889, 17.76904
759.0173, 17.90568
760.9458, 17.99158
762.8743, 17.93671
764.8027, 17.86884
766.7312, 17.87780
768.6597, 17.91710
770.5881, 17.94715
772.5166, 17.97287
774.4451, 18.00064
776.3735, 18.02860
778.3020, 18.05414
780.2305, 18.07608
782.1589, 18.07642
784.0874, 18.05133
786.0159, 18.13599
787.9443, 18.41412
789.8728, 18.49103
791.8013, 18.14889
793.7297, 18.04501
795.6582, 18.31791
797.5867, 18.55503
799.5151, 18.72607
801.4436, 18.81455
803.3721, 18.77208
805.3005, 18.72178
807.2290, 18.71308
809.1575, 18.71000
811.0859, 18.64599
813.0144, 18.63595
814.9429, 18.76778
816.8713, 18.98316
818.7998, 19.36391
820.7283, 19.68658
822.6567, 19.50807
824.5852, 19.08487
826.5137, 19.02908
828.4421, 19.22735
830.3706, 19.19471
832.2991, 18.96765
834.2275, 18.94628
836.1560, 19.13816
838.0845, 19.29122
840.0129, 19.40722
841.9414, 19.45412
843.8699, 19.42298
845.7983, 19.40995
847.7268, 19.44512
849.6553, 19.37199
851.5837, 19.10567
853.5122, 18.94012
855.4407, 19.00107
857.3691, 19.03852
859.2976, 18.93893
861.2261, 18.86814
863.1545, 18.87389
865.0830, 18.92846
867.0115, 19.14399
868.9399, 19.24059
870.8684, 18.97290
872.7969, 18.63193
874.7253, 18.43976
876.6538, 18.26962
878.5823, 17.99737
880.5107, 17.68423
882.4392, 17.31057
884.3677, 17.01529
886.2961, 17.11420
888.2246, 17.37466
890.1531, 17.32882
892.0815, 17.12803
894.0100, 17.11101
895.9385, 17.21269
897.8669, 17.23408
899.7954, 17.18883
901.7239, 17.18121
903.6523, 17.19764
905.5808, 17.05883
907.5093, 16.76091
909.4377, 16.62670
911.3662, 16.69006
913.2947, 16.71323
915.2231, 16.69352
917.1516, 16.60132
919.0801, 16.37848
921.0085, 16.24276
922.9370, 16.25887
924.8655, 16.24314
926.7939, 16.19692
928.7224, 16.11402
930.6509, 15.99456
932.5793, 15.83016
934.5078, 15.52602
936.4363, 15.39628
938.3647, 15.62385
940.2932, 15.74307
942.2217, 15.56249
944.1501, 15.43267
946.0786, 15.50302
948.0071, 15.54844
949.9355, 15.46399
951.8640, 15.38488
953.7925, 15.35417
955.7209, 15.37357
957.6494, 15.52315
959.5779, 15.58259
961.5063, 15.34538
963.4348, 15.13554
965.3633, 15.13971
967.2917, 15.20719
969.2202, 15.27598
971.1487, 15.35433
973.0771, 15.51153
975.0056, 15.59692
976.9341, 15.44985
978.8625, 15.25758
980.7910, 15.09607
982.7195, 15.03046
984.6479, 15.18185
986.5764, 15.37898
988.5049, 15.50922
990.4333, 15.56038
992.3618, 15.49359
994.2903, 15.37042
996.2188, 15.22645
998.1472, 15.09252
1000.076, 15.00437
1002.004, 14.94517
1003.933, 14.89936
1005.861, 14.86752
1007.790, 14.81926
1009.718, 14.81453
1011.646, 15.02642
1013.575, 15.23623
1015.503, 15.08592
1017.432, 14.82601
1019.360, 14.79896
1021.289, 14.85971
1023.217, 14.82121
1025.146, 14.74315
1027.074, 14.67375
1029.003, 14.64454
1030.931, 14.72999
1032.860, 14.85391
1034.788, 14.92362
1036.717, 14.95941
1038.645, 15.03488
1040.573, 15.04969
1042.502, 14.76931
1044.430, 14.44222
1046.359, 14.38968
1048.287, 14.47049
1050.216, 14.54849
1052.144, 14.61809
1054.073, 14.70282
1056.001, 14.74812
1057.930, 14.60910
1059.858, 14.47085
1061.787, 14.64258
1063.715, 14.84293
1065.644, 14.67883
1067.572, 14.44475
1069.500, 14.48760
1071.429, 14.59929
1073.357, 14.57675
1075.286, 14.50084
1077.214, 14.46301
1079.143, 14.39769
1081.071, 14.11999
1083.000, 13.93688
1084.928, 14.27364
1086.857, 14.62263
1088.785, 14.54683
1090.714, 14.36050
1092.642, 14.25886
1094.571, 14.17904
1096.499, 13.99310
1098.427, 13.92919
1100.356, 14.32310
1102.284, 14.60839
1104.213, 14.31178
1106.141, 14.04730
1108.070, 14.14206
1109.998, 14.30716
1111.927, 14.47615
1113.855, 14.59889
1115.784, 14.75868
1117.712, 14.69919
1119.641, 14.06602
1121.569, 13.69277
1123.498, 14.00210
1125.426, 14.22681
1127.354, 14.12953
1129.283, 14.04511
1131.211, 14.08050
1133.140, 14.03188
1135.068, 13.79816
1136.997, 13.66344
1138.925, 13.67557
1140.854, 13.78614
1142.782, 14.04751
1144.711, 14.14769
1146.639, 14.02199
1148.568, 13.92324
1150.496, 13.86585
1152.425, 13.90678
1154.353, 14.06247
1156.281, 14.05796
1158.210, 13.88231
1160.138, 13.85925
1162.067, 13.98058
1163.995, 13.97319
1165.924, 13.85400
1167.852, 13.77922
1169.781, 13.74352
1171.709, 13.73859
1173.638, 13.73439
1175.566, 13.55374
1177.495, 13.35765
1179.423, 13.62820
1181.352, 14.01328
1183.280, 13.85897
1185.208, 13.55830
1187.137, 13.61173
1189.065, 13.75648
1190.994, 13.74734
1192.922, 13.71028
1194.851, 13.78662
1196.779, 13.78799
1198.708, 13.52268
1200.636, 13.29346
1202.565, 13.23307
1204.493, 13.28013
1206.422, 13.42903
1208.350, 13.65645
1210.279, 14.06687
1212.207, 14.10183
1214.135, 13.48257
1216.064, 13.19377
1217.992, 13.45662
1219.921, 13.73042
1221.849, 13.95124
1223.778, 14.12836
1225.706, 14.26100
1227.635, 14.14417
1229.563, 13.80833
1231.492, 13.69067
1233.420, 13.78155
1235.349, 14.05713
1237.277, 14.41029
1239.206, 14.53155
1241.134, 14.48801
1243.063, 14.26843
1244.991, 14.11372
1246.919, 14.49195
1248.848, 14.95708
1250.776, 15.07356
1252.705, 15.05476
1254.633, 14.90173
1256.562, 14.90833
1258.490, 15.31927
1260.419, 15.77701
1262.347, 16.13857
1264.276, 16.55746
1266.204, 17.00978
1268.133, 17.64081
1270.061, 18.46371
1271.990, 19.45969
1273.918, 20.61516
1275.846, 21.99290
1277.775, 23.59873
1279.703, 25.89251
1281.632, 28.77921
1283.560, 32.08432
1285.489, 35.13035
1287.417, 35.93116
1289.346, 34.97284
1291.274, 32.49250
1293.203, 29.46888
1295.131, 26.62612
1297.060, 24.16550
1298.988, 22.25861
1300.917, 20.74083
1302.845, 19.62412
1304.773, 18.65924
1306.702, 17.75412
1308.630, 16.98010
1310.559, 16.31609
1312.487, 15.96407
1314.416, 16.03300
1316.344, 15.91436
1318.273, 15.55864
1320.201, 15.43296
1322.130, 15.51434
1324.058, 15.73844
1325.987, 15.96022
1327.915, 15.57386
1329.844, 15.06142
1331.772, 15.34345
1333.700, 15.75831
1335.629, 15.62050
1337.557, 15.39089
1339.486, 15.33944
1341.414, 15.28452
1343.343, 15.13450
1345.271, 15.09227
1347.200, 15.25531
1349.128, 15.19087
1351.057, 14.82262
1352.985, 14.72547
1354.914, 14.90852
1356.842, 14.97057
1358.771, 14.92374
1360.699, 14.85456
1362.627, 14.79784
1364.556, 14.87120
1366.484, 14.93595
1368.413, 14.74561
1370.341, 14.59634
##END=



