##NAMES=Ammonioalunite
##RRUFFID=R060873
##IDEAL CHEMISTRY=N^3-^H_4_Al_3_(S^6+^O_4_)_2_(OH)_6_
##LOCALITY=Sch√∂ller mine, Kladno, Central Bohemia Region, Bohemia, Czech Republic
##OWNER=RRUFF
##SOURCE=Michael Scott
##DESCRIPTION=Tan colored fine-grained consolidated fragments
##STATUS=The identification of this mineral has been made only by X-ray diffraction.
##URL=rruff.info/R060873
155.758, 66932.422
156.240, 67149.031
156.722, 67446.617
157.204, 67794.656
157.686, 68191.906
158.169, 68659.711
158.651, 69228.109
159.133, 69923.812
159.615, 70621.250
160.097, 71336.039
160.579, 72043.688
161.061, 72710.828
161.543, 73348.297
162.025, 74006.273
162.508, 74751.656
162.990, 75634.391
163.472, 76446.406
163.954, 77182.961
164.436, 77868.102
164.918, 78530.570
165.400, 79162.906
165.883, 79736.000
166.365, 80201.539
166.847, 80518.609
167.329, 80845.312
167.811, 81234.523
168.293, 81594.109
168.775, 81867.391
169.257, 82046.523
169.739, 82152.227
170.221, 82203.656
170.704, 82182.602
171.186, 82162.844
171.668, 82155.188
172.150, 82144.328
172.632, 82114.773
173.114, 82067.273
173.596, 82021.297
174.078, 82001.633
174.561, 82024.383
175.043, 82024.617
175.525, 81955.711
176.007, 81897.008
176.489, 81917.242
176.971, 82023.477
177.453, 82161.492
177.935, 82267.273
178.417, 82318.133
178.900, 82421.859
179.382, 82623.656
179.864, 82847.344
180.346, 83032.938
180.828, 83171.133
181.310, 83287.094
181.792, 83406.961
182.274, 83531.227
182.757, 83654.133
183.239, 83759.492
183.721, 83871.906
184.203, 84005.633
184.685, 84163.297
185.167, 84352.688
185.649, 84592.352
186.131, 84901.508
186.613, 85151.711
187.096, 85325.359
187.578, 85450.602
188.060, 85532.023
188.542, 85574.094
189.024, 85617.273
189.506, 85709.273
189.988, 85860.562
190.470, 85968.422
190.952, 85964.977
191.435, 85959.273
191.917, 86056.430
192.399, 86264.133
192.881, 86497.344
193.363, 86681.180
193.845, 86810.461
194.327, 86932.891
194.809, 87038.500
195.292, 87146.398
195.774, 87281.094
196.256, 87442.781
196.738, 87596.328
197.220, 87712.398
197.702, 87788.094
198.184, 87854.352
198.666, 87882.828
199.148, 87922.688
199.631, 88040.477
200.113, 88231.133
200.595, 88386.797
201.077, 88410.844
201.559, 88303.352
202.041, 88235.727
202.523, 88215.797
203.005, 88228.797
203.488, 88284.477
203.970, 88375.781
204.452, 88448.812
204.934, 88462.289
205.416, 88417.539
205.898, 88371.250
206.380, 88295.906
206.862, 88239.891
207.344, 88244.430
207.827, 88302.539
208.309, 88366.297
208.791, 88401.992
209.273, 88418.523
209.755, 88464.094
210.237, 88550.672
210.719, 88652.594
211.201, 88763.367
211.684, 88879.258
212.166, 88986.320
212.648, 89070.391
213.130, 89142.000
213.612, 89242.828
214.094, 89419.758
214.576, 89573.469
215.058, 89639.000
215.540, 89639.273
216.023, 89646.344
216.505, 89692.094
216.987, 89773.070
217.469, 89879.508
217.951, 90052.094
218.433, 90190.789
218.915, 90235.859
219.397, 90217.602
219.880, 90212.258
220.362, 90258.500
220.844, 90325.352
221.326, 90328.562
221.808, 90231.281
222.290, 90159.992
222.772, 90162.281
223.254, 90216.141
223.736, 90287.227
224.219, 90367.703
224.701, 90445.352
225.183, 90487.000
225.665, 90469.062
226.147, 90483.750
226.629, 90587.656
227.111, 90724.961
227.593, 90812.000
228.076, 90822.797
228.558, 90793.047
229.040, 90762.992
229.522, 90708.938
230.004, 90736.578
230.486, 90938.844
230.968, 91194.477
231.450, 91365.547
231.932, 91422.227
232.415, 91424.258
232.897, 91439.523
233.379, 91473.281
233.861, 91498.172
234.343, 91475.117
234.825, 91466.680
235.307, 91553.180
235.789, 91735.422
236.271, 91913.641
236.754, 91985.328
237.236, 91929.828
237.718, 91887.797
238.200, 91856.250
238.682, 91839.453
239.164, 91848.938
239.646, 91880.242
240.128, 91907.594
240.611, 91905.719
241.093, 91874.508
241.575, 91887.312
242.057, 92007.023
242.539, 92105.453
243.021, 92104.898
243.503, 92031.227
243.985, 91967.398
244.467, 91971.680
244.950, 92033.156
245.432, 92040.562
245.914, 91943.273
246.396, 91860.289
246.878, 91825.539
247.360, 91828.078
247.842, 91848.211
248.324, 91876.898
248.807, 91911.430
249.289, 91941.297
249.771, 91964.211
250.253, 91983.656
250.735, 91981.820
251.217, 91981.359
251.699, 92017.688
252.181, 92103.656
252.663, 92209.492
253.146, 92270.797
253.628, 92223.523
254.110, 92216.031
254.592, 92267.422
255.074, 92343.727
255.556, 92408.047
256.038, 92454.039
256.520, 92514.359
257.003, 92650.023
257.485, 92951.422
257.967, 93100.703
258.449, 92984.867
258.931, 92833.406
259.413, 92796.406
259.895, 92877.578
260.377, 92979.773
260.859, 92999.297
261.342, 92919.367
261.824, 92860.844
262.306, 92814.250
262.788, 92798.070
263.270, 92850.344
263.752, 92943.727
264.234, 93010.719
264.716, 92994.977
265.198, 92901.977
265.681, 92826.328
266.163, 92766.383
266.645, 92728.648
267.127, 92740.898
267.609, 92771.344
268.091, 92769.320
268.573, 92702.906
269.056, 92593.852
269.538, 92514.250
270.020, 92474.023
270.502, 92449.781
270.984, 92429.883
271.466, 92422.727
271.948, 92443.680
272.430, 92500.297
272.912, 92565.938
273.395, 92587.359
273.877, 92542.328
274.359, 92528.320
274.841, 92582.477
275.323, 92663.156
275.805, 92742.562
276.287, 92815.852
276.769, 92900.047
277.251, 93014.930
277.734, 93160.648
278.216, 93311.531
278.698, 93471.453
279.180, 93626.703
279.662, 93763.844
280.144, 93885.039
280.626, 94007.133
281.108, 94160.273
281.591, 94326.609
282.073, 94434.344
282.555, 94466.148
283.037, 94459.156
283.519, 94420.773
284.001, 94364.070
284.483, 94321.469
284.965, 94321.219
285.447, 94336.438
285.930, 94332.188
286.412, 94310.953
286.894, 94255.383
287.376, 94131.188
287.858, 93970.469
288.340, 93837.023
288.822, 93756.500
289.304, 93686.492
289.786, 93601.281
290.269, 93500.641
290.751, 93373.203
291.233, 93190.750
291.715, 93003.711
292.197, 92921.000
292.679, 92987.117
293.161, 93035.477
293.643, 92967.430
294.125, 92839.008
294.608, 92767.070
295.090, 92791.727
295.572, 92849.273
296.054, 92836.789
296.536, 92726.539
297.018, 92669.891
297.500, 92702.422
297.983, 92784.883
298.465, 92889.250
298.947, 93007.758
299.429, 93129.789
299.911, 93247.609
300.393, 93360.789
300.875, 93444.617
301.357, 93471.680
301.839, 93495.594
302.322, 93541.969
302.804, 93607.406
303.286, 93678.523
303.768, 93748.047
304.250, 93815.617
304.732, 93878.133
305.214, 93984.641
305.696, 94029.406
306.178, 93964.188
306.661, 93839.922
307.143, 93710.820
307.625, 93599.453
308.107, 93510.602
308.589, 93459.609
309.071, 93499.633
309.553, 93476.828
310.035, 93352.094
310.517, 93197.477
311.000, 93060.656
311.482, 92949.727
311.964, 92843.273
312.446, 92706.523
312.928, 92526.383
313.410, 92412.297
313.892, 92424.820
314.374, 92451.562
314.857, 92459.172
315.339, 92448.250
315.821, 92430.008
316.303, 92419.289
316.785, 92405.594
317.267, 92333.406
317.749, 92151.531
318.231, 92020.508
318.714, 92031.461
319.196, 92116.570
319.678, 92197.422
320.160, 92247.117
320.642, 92289.531
321.124, 92352.383
321.606, 92434.883
322.088, 92533.992
322.570, 92684.250
323.052, 92815.492
323.535, 92831.070
324.017, 92709.359
324.499, 92617.594
324.981, 92675.867
325.463, 92834.602
325.945, 92977.867
326.427, 93090.648
326.909, 93163.023
327.392, 93165.797
327.874, 93106.547
328.356, 93054.633
328.838, 93028.523
329.320, 93011.320
329.802, 92988.344
330.284, 92959.523
330.766, 92935.344
331.249, 92931.773
331.731, 92939.109
332.213, 92890.352
332.695, 92745.633
333.177, 92600.578
333.659, 92478.594
334.141, 92380.094
334.623, 92309.594
335.105, 92270.977
335.588, 92246.359
336.070, 92199.602
336.552, 92130.906
337.034, 92038.133
337.516, 91900.852
337.998, 91755.883
338.480, 91618.656
338.962, 91498.727
339.444, 91415.242
339.927, 91392.102
340.409, 91435.383
340.891, 91482.023
341.373, 91545.133
341.855, 91597.094
342.337, 91626.883
342.819, 91638.742
343.301, 91636.273
343.784, 91614.648
344.266, 91591.383
344.748, 91630.773
345.230, 91778.789
345.712, 91881.531
346.194, 91845.070
346.676, 91777.953
347.158, 91775.930
347.641, 91861.719
348.123, 91985.711
348.605, 92127.156
349.087, 92281.828
349.569, 92348.078
350.051, 92261.492
350.533, 92143.570
351.015, 92097.188
351.497, 92112.312
351.979, 92129.547
352.462, 92126.648
352.944, 92110.570
353.426, 92096.898
353.908, 92088.062
354.390, 92060.109
354.872, 92006.352
355.354, 91916.742
355.836, 91772.992
356.319, 91505.547
356.801, 91260.383
357.283, 91124.406
357.765, 91064.648
358.247, 91012.438
358.729, 90943.656
359.211, 90862.438
359.693, 90773.383
360.176, 90653.141
360.658, 90578.547
361.140, 90572.867
361.622, 90599.656
362.104, 90653.328
362.586, 90719.727
363.068, 90750.844
363.550, 90693.430
364.032, 90544.133
364.515, 90451.906
364.997, 90423.453
365.479, 90447.750
365.961, 90589.820
366.443, 90765.898
366.925, 90843.523
367.407, 90753.070
367.889, 90586.391
368.371, 90545.172
368.854, 90681.844
369.336, 90791.930
369.818, 90819.047
370.300, 90824.117
370.782, 90837.070
371.264, 90863.391
371.746, 90906.117
372.228, 90987.078
372.711, 91092.273
373.193, 91149.469
373.675, 91148.242
374.157, 91111.773
374.639, 91043.047
375.121, 90951.570
375.603, 90854.656
376.085, 90752.938
376.568, 90650.922
377.050, 90538.648
377.532, 90423.430
378.014, 90356.203
378.496, 90378.828
378.978, 90436.688
379.460, 90407.539
379.942, 90270.508
380.424, 90132.203
380.906, 90005.852
381.389, 89896.250
381.871, 89813.883
382.353, 89758.953
382.835, 89716.477
383.317, 89671.688
383.799, 89623.727
384.281, 89591.602
384.763, 89613.820
385.246, 89610.109
385.728, 89524.852
386.210, 89401.953
386.692, 89315.133
387.174, 89301.031
387.656, 89335.719
388.138, 89367.203
388.620, 89399.242
389.103, 89418.883
389.585, 89397.820
390.067, 89384.562
390.549, 89416.344
391.031, 89492.062
391.513, 89576.383
391.995, 89642.977
392.477, 89693.352
392.959, 89744.023
393.442, 89808.344
393.924, 89842.789
394.406, 89778.609
394.888, 89675.500
395.370, 89638.383
395.852, 89731.469
396.334, 89837.781
396.816, 89845.039
397.298, 89772.477
397.781, 89719.094
398.263, 89730.156
398.745, 89748.656
399.227, 89674.508
399.709, 89491.883
400.191, 89315.648
400.673, 89138.852
401.155, 88991.172
401.638, 88913.391
402.120, 88898.039
402.602, 88892.023
403.084, 88855.578
403.566, 88792.609
404.048, 88737.602
404.530, 88722.953
405.012, 88679.977
405.495, 88583.008
405.977, 88461.297
406.459, 88332.680
406.941, 88207.789
407.423, 88115.648
407.905, 88117.531
408.387, 88243.438
408.869, 88307.633
409.351, 88250.141
409.833, 88182.602
410.316, 88168.633
410.798, 88187.570
411.280, 88177.297
411.762, 88080.320
412.244, 87955.656
412.726, 87908.227
413.208, 87941.023
413.690, 88011.383
414.173, 88122.852
414.655, 88246.180
415.137, 88336.383
415.619, 88390.820
416.101, 88419.508
416.583, 88413.883
417.065, 88388.703
417.547, 88366.148
418.030, 88349.547
418.512, 88331.297
418.994, 88306.641
419.476, 88275.719
419.958, 88227.633
420.440, 88147.773
420.922, 88071.148
421.404, 88014.102
421.886, 87967.797
422.369, 87918.953
422.851, 87862.477
423.333, 87799.727
423.815, 87728.922
424.297, 87639.633
424.779, 87572.797
425.261, 87554.359
425.743, 87535.906
426.225, 87487.281
426.708, 87417.320
427.190, 87358.633
427.672, 87340.594
428.154, 87341.328
428.636, 87306.938
429.118, 87233.688
429.600, 87143.602
430.082, 87031.883
430.565, 86915.547
431.047, 86810.109
431.529, 86710.680
432.011, 86648.492
432.493, 86677.758
432.975, 86742.500
433.457, 86743.570
433.939, 86665.148
434.422, 86556.273
434.904, 86448.773
435.386, 86344.133
435.868, 86289.867
436.350, 86321.117
436.832, 86356.828
437.314, 86360.859
437.796, 86355.406
438.278, 86388.727
438.760, 86475.828
439.243, 86562.703
439.725, 86552.203
440.207, 86402.250
440.689, 86289.992
441.171, 86237.273
441.653, 86203.961
442.135, 86173.070
442.617, 86148.297
443.100, 86144.523
443.582, 86180.523
444.064, 86227.094
444.546, 86224.992
445.028, 86168.781
445.510, 86109.977
445.992, 86053.523
446.474, 86012.227
446.957, 86011.852
447.439, 86059.477
447.921, 86076.883
448.403, 86031.594
448.885, 85942.477
449.367, 85806.867
449.849, 85634.344
450.331, 85509.781
450.813, 85508.477
451.296, 85600.617
451.778, 85587.703
452.260, 85364.820
452.742, 85179.758
453.224, 85092.438
453.706, 85046.789
454.188, 84989.352
454.670, 84908.047
455.152, 84819.156
455.635, 84728.406
456.117, 84633.523
456.599, 84615.281
457.081, 84745.273
457.563, 84851.797
458.045, 84851.242
458.527, 84793.844
459.009, 84751.852
459.492, 84749.148
459.974, 84758.539
460.456, 84751.102
460.938, 84730.281
461.420, 84715.953
461.902, 84710.648
462.384, 84716.594
462.866, 84750.344
463.349, 84810.312
463.831, 84822.688
464.313, 84724.203
464.795, 84630.703
465.277, 84647.594
465.759, 84723.859
466.241, 84727.648
466.723, 84598.031
467.205, 84403.352
467.688, 84282.023
468.170, 84284.398
468.652, 84253.711
469.134, 84145.789
469.616, 84049.023
470.098, 84035.188
470.580, 84073.211
471.062, 84068.883
471.544, 83951.227
472.027, 83774.898
472.509, 83660.617
472.991, 83615.711
473.473, 83584.047
473.955, 83553.812
474.437, 83524.406
474.919, 83499.602
475.401, 83480.273
475.884, 83446.227
476.366, 83379.891
476.848, 83301.047
477.330, 83228.883
477.812, 83166.008
478.294, 83116.656
478.776, 83085.328
479.258, 83068.023
479.741, 83048.508
480.223, 83051.656
480.705, 83020.539
481.187, 82915.852
481.669, 82804.031
482.151, 82729.422
482.633, 82700.602
483.115, 82713.688
483.597, 82783.219
484.079, 82889.539
484.562, 82913.711
485.044, 82818.094
485.526, 82727.633
486.008, 82684.211
486.490, 82669.711
486.972, 82672.469
487.454, 82691.781
487.936, 82714.844
488.419, 82728.992
488.901, 82742.062
489.383, 82774.633
489.865, 82828.211
490.347, 82874.883
490.829, 82898.172
491.311, 82896.438
491.793, 82859.203
492.276, 82761.367
492.758, 82664.594
493.240, 82563.500
493.722, 82478.500
494.204, 82451.242
494.686, 82476.633
495.168, 82484.289
495.650, 82392.773
496.132, 82210.883
496.615, 82089.844
497.097, 82079.719
497.579, 82044.023
498.061, 81910.258
498.543, 81738.906
499.025, 81583.312
499.507, 81448.039
499.989, 81371.688
500.471, 81435.578
500.954, 81569.047
501.436, 81604.367
501.918, 81516.594
502.400, 81391.781
502.882, 81283.539
503.364, 81193.008
503.846, 81127.680
504.328, 81079.750
504.810, 81062.820
505.293, 81118.273
505.775, 81186.273
506.257, 81193.719
506.739, 81132.633
507.221, 81059.594
507.703, 81031.406
508.185, 81045.883
508.668, 81056.602
509.150, 81071.867
509.632, 81068.320
510.114, 81034.711
510.596, 80980.602
511.078, 80906.750
511.560, 80808.203
512.042, 80728.859
512.524, 80721.656
513.006, 80748.641
513.489, 80725.352
513.971, 80640.898
514.453, 80553.969
514.935, 80505.109
515.417, 80488.844
515.899, 80473.078
516.381, 80484.180
516.864, 80461.133
517.346, 80334.812
517.828, 80207.430
518.310, 80199.047
518.792, 80307.453
519.274, 80414.562
519.756, 80414.141
520.238, 80320.461
520.720, 80211.383
521.203, 80053.312
521.685, 79958.562
522.167, 80056.711
522.649, 80187.008
523.131, 80180.469
523.613, 80011.531
524.095, 79843.703
524.577, 79745.156
525.059, 79704.453
525.542, 79734.867
526.024, 79825.273
526.506, 79880.648
526.988, 79838.906
527.470, 79727.531
527.952, 79636.203
528.434, 79586.453
528.916, 79529.344
529.398, 79464.008
529.881, 79393.492
530.363, 79311.031
530.845, 79224.656
531.327, 79157.117
531.809, 79129.273
532.291, 79124.797
532.773, 79104.711
533.255, 79068.711
533.737, 79017.977
534.220, 78930.969
534.702, 78851.383
535.184, 78832.594
535.666, 78872.273
536.148, 78910.023
536.630, 78924.477
537.112, 78933.898
537.594, 78970.047
538.077, 79013.711
538.559, 79004.094
539.041, 78912.656
539.523, 78779.188
540.005, 78678.602
540.487, 78625.523
540.969, 78559.898
541.451, 78456.219
541.933, 78364.680
542.416, 78334.133
542.898, 78325.008
543.380, 78249.883
543.862, 78051.453
544.344, 77857.219
544.826, 77849.438
545.308, 77988.867
545.791, 78063.656
546.273, 78032.992
546.755, 77942.844
547.237, 77806.773
547.719, 77633.602
548.201, 77546.953
548.683, 77626.133
549.165, 77694.141
549.647, 77699.438
550.130, 77659.844
550.612, 77585.688
551.094, 77485.617
551.576, 77388.359
552.058, 77320.750
552.540, 77281.656
553.022, 77256.430
553.504, 77247.031
553.987, 77246.656
554.469, 77276.297
554.951, 77301.258
555.433, 77277.352
555.915, 77195.352
556.397, 77121.211
556.879, 77097.219
557.361, 77092.594
557.843, 77069.391
558.326, 77027.023
558.808, 76977.211
559.290, 76924.148
559.772, 76875.742
560.254, 76857.781
560.736, 76928.508
561.218, 76921.789
561.700, 76769.508
562.182, 76612.469
562.665, 76522.797
563.147, 76491.273
563.629, 76484.117
564.111, 76496.250
564.593, 76497.094
565.075, 76423.156
565.557, 76285.727
566.039, 76199.453
566.521, 76201.773
567.004, 76220.820
567.486, 76192.352
567.968, 76114.828
568.450, 76024.797
568.932, 75892.320
569.414, 75783.203
569.896, 75743.797
570.378, 75730.500
570.860, 75687.453
571.343, 75603.906
571.825, 75508.461
572.307, 75422.156
572.789, 75347.852
573.271, 75321.719
573.753, 75373.617
574.235, 75396.633
574.718, 75315.242
575.200, 75207.398
575.682, 75173.906
576.164, 75229.219
576.646, 75252.523
577.128, 75153.547
577.610, 75033.094
578.092, 75000.758
578.574, 75041.570
579.057, 75081.617
579.539, 75085.508
580.021, 75060.180
580.503, 75014.883
580.985, 74932.711
581.467, 74876.344
581.949, 74881.133
582.431, 74876.172
582.914, 74834.977
583.396, 74764.297
583.878, 74669.180
584.360, 74537.070
584.842, 74430.750
585.324, 74443.273
585.806, 74523.133
586.288, 74527.609
586.770, 74433.477
587.253, 74315.992
587.735, 74227.797
588.217, 74166.578
588.699, 74116.703
589.181, 74098.188
589.663, 74064.773
590.145, 73996.422
590.627, 73925.578
591.109, 73875.344
591.592, 73847.008
592.074, 73834.000
592.556, 73842.859
593.038, 73850.844
593.520, 73793.453
594.002, 73673.406
594.484, 73623.344
594.966, 73710.000
595.448, 73808.672
595.931, 73773.148
596.413, 73593.406
596.895, 73439.398
597.377, 73284.180
597.859, 73186.383
598.341, 73213.867
598.823, 73291.727
599.305, 73326.383
599.787, 73295.656
600.270, 73235.273
600.752, 73174.289
601.234, 73114.383
601.716, 73063.727
602.198, 73023.727
602.680, 72990.523
603.162, 72965.883
603.644, 72945.883
604.127, 72931.930
604.609, 72928.750
605.091, 72893.820
605.573, 72776.211
606.055, 72660.008
606.537, 72621.727
607.019, 72631.172
607.501, 72610.867
607.984, 72530.219
608.466, 72427.320
608.948, 72359.391
609.430, 72329.062
609.912, 72301.461
610.394, 72280.430
610.876, 72253.727
611.358, 72211.406
611.841, 72160.898
612.323, 72109.828
612.805, 72056.898
613.287, 72012.742
613.769, 71998.023
614.251, 71984.703
614.733, 71933.938
615.215, 71853.281
615.697, 71785.930
616.180, 71758.453
616.662, 71741.773
617.144, 71657.547
617.626, 71459.617
618.108, 71359.094
618.590, 71460.406
619.072, 71550.258
619.554, 71501.320
620.036, 71378.797
620.519, 71306.828
621.001, 71330.109
621.483, 71362.867
621.965, 71353.500
622.447, 71317.250
622.929, 71273.898
623.411, 71226.719
623.893, 71179.344
624.375, 71134.273
624.858, 71089.797
625.340, 71041.680
625.822, 70988.383
626.304, 70934.156
626.786, 70865.719
627.268, 70810.156
627.750, 70800.070
628.232, 70812.609
628.714, 70790.789
629.197, 70704.859
629.679, 70604.453
630.161, 70510.227
630.643, 70434.602
631.125, 70425.094
631.607, 70482.156
632.089, 70508.133
632.571, 70418.844
633.054, 70249.633
633.536, 70164.797
634.018, 70227.453
634.500, 70255.547
634.982, 70208.453
635.464, 70145.492
635.946, 70093.000
636.428, 70052.883
636.911, 70025.211
637.393, 70022.547
637.875, 70010.023
638.357, 69938.594
638.839, 69835.953
639.321, 69765.742
639.803, 69739.320
640.285, 69737.711
640.768, 69751.656
641.250, 69772.617
641.732, 69747.156
642.214, 69625.578
642.696, 69545.711
643.178, 69572.203
643.660, 69598.359
644.142, 69540.508
644.624, 69421.828
645.107, 69333.992
645.589, 69333.953
646.071, 69348.953
646.553, 69297.719
647.035, 69214.953
647.517, 69201.102
647.999, 69270.883
648.481, 69309.781
648.963, 69214.547
649.446, 69010.969
649.928, 68851.141
650.410, 68749.852
650.892, 68667.242
651.374, 68583.000
651.856, 68528.492
652.338, 68545.430
652.820, 68611.812
