##NAMES=Ammonioalunite
##RRUFFID=R060873
##IDEAL CHEMISTRY=N^3-^H_4_Al_3_(S^6+^O_4_)_2_(OH)_6_
##LOCALITY=Sch√∂ller mine, Kladno, Central Bohemia Region, Bohemia, Czech Republic
##OWNER=RRUFF
##SOURCE=Michael Scott
##DESCRIPTION=Tan colored fine-grained consolidated fragments
##STATUS=The identification of this mineral has been made only by X-ray diffraction.
##URL=rruff.info/R060873
161.538, 71530.062
162.020, 71730.656
162.503, 71943.641
162.985, 72146.547
163.467, 72325.312
163.949, 72476.156
164.431, 72623.352
164.913, 72804.961
165.395, 72986.344
165.878, 73119.430
166.360, 73140.508
166.842, 73139.133
167.324, 73181.469
167.806, 73285.258
168.288, 73400.578
168.770, 73510.453
169.252, 73611.148
169.734, 73694.297
170.217, 73731.312
170.699, 73761.172
171.181, 73828.102
171.663, 73956.750
172.145, 74094.062
172.627, 74166.453
173.109, 74195.242
173.591, 74269.406
174.073, 74494.102
174.556, 74792.500
175.038, 75044.539
175.520, 75208.969
176.002, 75323.133
176.484, 75416.859
176.966, 75491.617
177.448, 75571.312
177.930, 75675.547
178.413, 75798.977
178.895, 75931.977
179.377, 76072.953
179.859, 76219.547
180.341, 76379.070
180.823, 76551.641
181.305, 76719.297
181.787, 76855.773
182.269, 76967.070
182.751, 77083.656
183.234, 77219.523
183.716, 77369.961
184.198, 77521.461
184.680, 77673.602
185.162, 77822.570
185.644, 77972.594
186.126, 78119.609
186.609, 78244.898
187.091, 78322.797
187.573, 78364.508
188.055, 78417.672
188.537, 78487.656
189.019, 78568.789
189.501, 78650.039
189.983, 78732.461
190.465, 78816.867
190.947, 78913.523
191.430, 79020.133
191.912, 79099.172
192.394, 79136.297
192.876, 79149.312
193.358, 79183.742
193.840, 79242.258
194.322, 79308.352
194.804, 79369.797
195.287, 79427.102
195.769, 79487.594
196.251, 79559.023
196.733, 79636.750
197.215, 79685.930
197.697, 79698.344
198.179, 79715.531
198.661, 79792.758
199.143, 79936.430
199.626, 80067.906
200.108, 80146.812
200.590, 80178.523
201.072, 80280.969
201.554, 80470.570
202.036, 80693.656
202.518, 80876.023
203.000, 81008.953
203.482, 81132.789
203.965, 81257.523
204.447, 81381.062
204.929, 81505.320
205.411, 81625.156
205.893, 81747.523
206.375, 81903.203
206.857, 82116.453
207.339, 82277.180
207.822, 82307.609
208.304, 82166.453
208.786, 82123.750
209.268, 82218.656
209.750, 82397.227
210.232, 82524.102
210.714, 82597.891
211.196, 82638.172
211.678, 82640.461
212.161, 82579.758
212.643, 82590.062
213.125, 82699.906
213.607, 82884.602
214.089, 83052.461
214.571, 83206.367
215.053, 83335.773
215.536, 83425.094
216.018, 83448.938
216.500, 83494.977
216.982, 83560.797
217.464, 83649.250
217.946, 83806.969
218.428, 84076.977
218.910, 84342.648
219.392, 84502.742
219.874, 84511.188
220.357, 84521.461
220.839, 84551.328
221.321, 84602.453
221.803, 84700.727
222.285, 84890.273
222.767, 85079.078
223.249, 85162.008
223.731, 85069.328
224.214, 85028.672
224.696, 85099.992
225.178, 85290.133
225.660, 85469.961
226.142, 85646.992
226.624, 85804.617
227.106, 85911.453
227.588, 85923.594
228.070, 85964.633
228.553, 86072.281
229.035, 86258.867
229.517, 86423.320
229.999, 86573.797
230.481, 86695.117
230.963, 86758.047
231.445, 86712.562
231.927, 86695.344
232.410, 86764.453
232.892, 86962.430
233.374, 87069.281
233.856, 87034.711
234.338, 86939.594
234.820, 86924.750
235.302, 87041.547
235.784, 87161.094
236.266, 87236.602
236.749, 87246.852
237.231, 87281.969
237.713, 87359.594
238.195, 87456.477
238.677, 87517.891
239.159, 87507.672
239.641, 87518.523
240.123, 87592.359
240.605, 87769.531
241.088, 87921.562
241.570, 88043.062
242.052, 88141.406
242.534, 88231.367
243.016, 88289.789
243.498, 88369.148
243.980, 88498.242
244.462, 88713.250
244.945, 88890.352
245.427, 89008.273
245.909, 89083.102
246.391, 89170.398
246.873, 89278.219
247.355, 89380.609
247.837, 89465.273
248.319, 89532.367
248.801, 89576.000
249.284, 89588.508
249.766, 89579.273
250.248, 89581.938
250.730, 89605.250
251.212, 89637.023
251.694, 89678.742
252.176, 89760.727
252.658, 89793.391
253.141, 89749.453
253.623, 89653.688
254.105, 89615.977
254.587, 89654.477
255.069, 89728.609
255.551, 89818.633
256.033, 89937.633
256.515, 90036.641
256.997, 90096.789
257.480, 90127.742
257.962, 90194.992
258.444, 90300.992
258.926, 90432.891
259.408, 90588.406
259.890, 90783.000
260.372, 90948.781
260.854, 91056.188
261.336, 91119.211
261.819, 91268.320
262.301, 91557.156
262.783, 91837.078
263.265, 91974.148
263.747, 91905.258
264.229, 91887.062
264.711, 91974.539
265.194, 92148.250
265.676, 92268.453
266.158, 92327.477
266.640, 92350.062
267.122, 92352.930
267.604, 92334.922
268.086, 92304.656
268.568, 92250.742
269.050, 92183.922
269.533, 92191.094
270.015, 92300.078
270.497, 92428.297
270.979, 92494.523
271.461, 92477.344
271.943, 92511.078
272.425, 92645.633
272.907, 92855.344
273.389, 92959.906
273.872, 92918.453
274.354, 92871.727
274.836, 92965.727
275.318, 93231.227
275.800, 93432.320
276.282, 93495.969
276.764, 93455.977
277.246, 93513.547
277.728, 93690.367
278.211, 93890.500
278.693, 94020.250
279.175, 94071.367
279.657, 94135.109
280.139, 94231.453
280.621, 94352.773
281.103, 94477.438
281.585, 94609.648
282.068, 94717.344
282.550, 94752.180
283.032, 94713.867
283.514, 94707.523
283.996, 94765.156
284.478, 94869.633
284.960, 94966.711
285.442, 95059.938
285.924, 95131.797
286.407, 95155.750
286.889, 95136.719
287.371, 95129.094
287.853, 95139.320
288.335, 95173.273
288.817, 95264.312
289.299, 95418.953
289.781, 95563.133
290.263, 95627.867
290.746, 95623.297
291.228, 95611.133
291.710, 95597.203
292.192, 95589.531
292.674, 95609.812
293.156, 95658.156
293.638, 95719.023
294.121, 95814.922
294.603, 95921.531
295.085, 95938.531
295.567, 95791.648
296.049, 95599.758
296.531, 95592.789
297.013, 95763.867
297.495, 95952.406
297.977, 96023.281
298.460, 96019.656
298.942, 96036.062
299.424, 96080.867
299.906, 96172.000
300.388, 96364.406
300.870, 96644.594
301.352, 96909.828
301.834, 97063.883
302.316, 97150.594
302.798, 97245.719
303.281, 97353.977
303.763, 97483.742
304.245, 97628.531
304.727, 97793.406
305.209, 98007.406
305.691, 98387.742
306.173, 98795.883
306.655, 99045.602
307.138, 99062.438
307.620, 98982.648
308.102, 98887.594
308.584, 98787.438
309.066, 98710.312
309.548, 98693.648
310.030, 98701.977
310.512, 98694.633
310.995, 98644.492
311.477, 98620.398
311.959, 98702.133
312.441, 98849.258
312.923, 98958.523
313.405, 98933.141
313.887, 98876.969
314.369, 98869.344
314.851, 98938.344
315.334, 99021.727
315.816, 99116.727
316.298, 99205.508
316.780, 99250.141
317.262, 99188.750
317.744, 99115.688
318.226, 99077.531
318.708, 99074.406
319.190, 99129.172
319.673, 99303.422
320.155, 99534.891
320.637, 99716.688
321.119, 99768.023
321.601, 99805.047
322.083, 99877.453
322.565, 100003.000
323.047, 100112.203
323.530, 100158.398
324.012, 100186.898
324.494, 100262.297
324.976, 100435.297
325.458, 100616.500
325.940, 100784.500
326.422, 100943.203
326.904, 101068.703
327.387, 101129.703
327.869, 101166.203
328.351, 101225.602
328.833, 101359.898
329.315, 101460.898
329.797, 101493.203
330.279, 101443.898
330.761, 101437.203
331.243, 101501.703
331.725, 101590.898
332.208, 101658.898
332.690, 101690.203
333.172, 101728.000
333.654, 101779.602
334.136, 101845.602
334.618, 101930.797
335.100, 102049.203
335.582, 102170.102
336.065, 102266.297
336.547, 102329.000
337.029, 102385.398
337.511, 102435.297
337.993, 102478.297
338.475, 102523.398
338.957, 102565.797
339.439, 102612.797
339.922, 102670.102
340.404, 102738.703
340.886, 102808.703
341.368, 102882.203
341.850, 102954.797
342.332, 103006.102
342.814, 103036.000
343.296, 103063.500
343.778, 103096.102
344.261, 103137.297
344.743, 103219.102
345.225, 103367.898
345.707, 103530.102
346.189, 103571.703
346.671, 103499.000
347.153, 103466.703
347.635, 103594.703
348.117, 103836.797
348.600, 104036.898
349.082, 104167.102
349.564, 104283.297
350.046, 104490.000
350.528, 104755.602
351.010, 104948.203
351.492, 104918.898
351.974, 104792.797
352.457, 104792.703
352.939, 104942.102
353.421, 105120.000
353.903, 105237.000
354.385, 105301.102
354.867, 105323.000
355.349, 105271.898
355.831, 105208.797
356.314, 105204.398
356.796, 105262.500
357.278, 105312.203
357.760, 105267.703
358.242, 105199.797
358.724, 105195.203
359.206, 105347.203
359.688, 105517.297
360.170, 105636.500
360.652, 105706.203
361.135, 105751.000
361.617, 105737.500
362.099, 105724.102
362.581, 105756.898
363.063, 105883.398
363.545, 106012.797
364.027, 106116.703
364.509, 106200.898
364.991, 106289.898
365.474, 106430.102
365.956, 106549.000
366.438, 106606.000
366.920, 106550.102
367.402, 106511.203
367.884, 106488.297
368.366, 106491.602
368.849, 106546.000
369.331, 106680.398
369.813, 106838.602
370.295, 107011.203
370.777, 107228.602
371.259, 107376.297
371.741, 107414.703
372.223, 107401.898
372.705, 107421.602
373.188, 107476.000
373.670, 107551.500
374.152, 107641.000
374.634, 107742.602
375.116, 107873.500
375.598, 108057.102
376.080, 108230.500
376.562, 108322.398
377.044, 108318.602
377.527, 108306.102
378.009, 108305.703
378.491, 108314.602
378.973, 108307.297
379.455, 108279.898
379.937, 108270.898
380.419, 108332.500
380.901, 108459.500
381.384, 108553.102
381.866, 108583.398
382.348, 108592.898
382.830, 108663.703
383.312, 108793.500
383.794, 108952.102
384.276, 109131.703
384.758, 109321.898
385.240, 109493.000
385.723, 109634.398
386.205, 109760.102
386.687, 109868.000
387.169, 109964.602
387.651, 110072.898
388.133, 110234.297
388.615, 110392.898
389.097, 110477.203
389.579, 110473.797
390.062, 110467.000
390.544, 110528.000
391.026, 110622.203
391.508, 110700.602
391.990, 110746.000
392.472, 110776.203
392.954, 110812.500
393.436, 110855.797
393.918, 110864.898
394.401, 110758.102
394.883, 110649.602
395.365, 110629.500
395.847, 110847.102
396.329, 111014.898
396.811, 111014.602
397.293, 110894.102
397.776, 110864.703
398.258, 111025.000
398.740, 111221.898
399.222, 111389.000
399.704, 111529.602
400.186, 111626.398
400.668, 111649.203
401.150, 111635.500
401.632, 111658.797
402.115, 111743.797
402.597, 111830.703
403.079, 111902.602
403.561, 111959.297
404.043, 112009.602
404.525, 112049.602
405.007, 112090.797
405.489, 112150.000
405.971, 112232.898
406.454, 112304.898
406.936, 112354.102
407.418, 112384.898
407.900, 112412.500
408.382, 112429.500
408.864, 112478.398
409.346, 112616.297
409.828, 112832.898
410.310, 113019.297
410.793, 113155.398
411.275, 113265.203
411.757, 113398.703
412.239, 113549.297
412.721, 113674.102
413.203, 113714.000
413.685, 113716.297
414.167, 113767.898
414.650, 113881.203
415.132, 114019.398
415.614, 114159.703
416.096, 114298.500
416.578, 114433.203
417.060, 114579.297
417.542, 114704.398
418.024, 114768.102
418.507, 114769.602
418.989, 114787.797
419.471, 114919.797
419.953, 115063.398
420.435, 115122.398
420.917, 114989.602
421.399, 114858.500
421.881, 114773.297
422.363, 114735.898
422.846, 114754.898
423.328, 114891.898
423.810, 115043.203
424.292, 115160.297
424.774, 115231.500
425.256, 115288.398
425.738, 115320.797
426.220, 115343.000
426.703, 115377.898
427.185, 115418.898
427.667, 115479.602
428.149, 115567.797
428.631, 115684.602
429.113, 115788.203
429.595, 115878.703
430.077, 115949.602
430.559, 115975.398
431.042, 115939.000
431.524, 115977.000
432.006, 116147.500
432.488, 116395.203
432.970, 116535.703
433.452, 116563.703
433.934, 116558.898
434.416, 116549.203
434.898, 116548.203
435.381, 116625.602
435.863, 116808.898
436.345, 117016.000
436.827, 117142.602
437.309, 117202.398
437.791, 117242.102
438.273, 117259.398
438.755, 117281.297
439.237, 117349.797
439.720, 117466.102
440.202, 117576.703
440.684, 117631.602
441.166, 117660.898
441.648, 117701.602
442.130, 117765.203
442.612, 117841.602
443.094, 117936.898
443.577, 118044.203
444.059, 118133.203
444.541, 118195.500
445.023, 118237.500
445.505, 118257.797
445.987, 118231.398
446.469, 118238.602
446.951, 118325.398
447.434, 118445.398
447.916, 118517.898
448.398, 118487.797
448.880, 118483.000
449.362, 118540.797
449.844, 118664.797
450.326, 118784.797
450.808, 118906.398
451.290, 119014.000
451.772, 119085.703
452.255, 119111.297
452.737, 119143.703
453.219, 119185.102
453.701, 119240.102
454.183, 119340.398
454.665, 119491.203
455.147, 119610.797
455.629, 119616.898
456.112, 119543.000
456.594, 119537.500
457.076, 119617.703
457.558, 119732.203
458.040, 119847.898
458.522, 119953.398
459.004, 120017.602
459.486, 119998.602
459.969, 119950.102
460.451, 119918.500
460.933, 119905.398
461.415, 119920.398
461.897, 119964.797
462.379, 120042.500
462.861, 120161.898
463.343, 120352.703
463.825, 120535.703
464.308, 120681.703
464.790, 120796.000
465.272, 120889.703
465.754, 120952.898
466.236, 121005.898
466.718, 121042.000
467.200, 121040.000
467.682, 121111.203
468.164, 121336.797
468.647, 121579.602
469.129, 121710.602
469.611, 121644.203
470.093, 121622.203
470.575, 121680.297
471.057, 121803.898
471.539, 121954.797
472.021, 122157.797
472.504, 122306.102
472.986, 122287.500
473.468, 122102.000
473.950, 122088.203
474.432, 122301.500
474.914, 122570.398
475.396, 122653.297
475.878, 122576.297
476.361, 122486.398
476.843, 122440.797
477.325, 122423.000
477.807, 122391.703
478.289, 122353.602
478.771, 122356.102
479.253, 122467.500
479.735, 122627.500
480.217, 122756.898
480.699, 122819.703
481.182, 122885.602
481.664, 122966.500
482.146, 123077.297
482.628, 123252.297
483.110, 123589.703
483.592, 123907.602
484.074, 124104.898
484.556, 124154.602
485.039, 124234.102
485.521, 124433.000
486.003, 124628.203
486.485, 124724.898
486.967, 124667.000
487.449, 124597.898
487.931, 124519.398
488.413, 124444.000
488.896, 124413.703
489.378, 124463.602
489.860, 124489.297
490.342, 124422.898
490.824, 124259.797
491.306, 124202.797
491.788, 124275.500
492.270, 124384.500
492.752, 124397.000
493.234, 124330.398
493.717, 124316.203
494.199, 124399.102
494.681, 124539.102
495.163, 124704.602
495.645, 124881.398
496.127, 125002.797
496.609, 124960.703
497.091, 124865.297
497.574, 124855.500
498.056, 124965.500
498.538, 125078.602
499.020, 125126.500
499.502, 125136.602
499.984, 125145.797
500.466, 125137.797
500.948, 125162.703
501.431, 125252.602
501.913, 125401.797
502.395, 125546.000
502.877, 125684.398
503.359, 125810.203
503.841, 125919.703
504.323, 126008.898
504.805, 126075.602
505.287, 126081.898
505.770, 126087.203
506.252, 126206.203
506.734, 126491.703
507.216, 126697.203
507.698, 126712.500
508.180, 126590.203
508.662, 126637.297
509.144, 126870.500
509.626, 127121.000
510.109, 127264.602
510.591, 127317.203
511.073, 127316.102
511.555, 127249.203
512.037, 127196.102
512.519, 127267.000
513.001, 127425.500
513.484, 127583.102
513.966, 127692.000
514.448, 127788.602
514.930, 127888.102
515.412, 127991.602
515.894, 128123.500
516.376, 128314.102
516.858, 128521.102
517.340, 128722.297
517.822, 128964.898
518.305, 129111.102
518.787, 129036.203
519.269, 128868.000
519.751, 128845.602
520.233, 129083.602
520.715, 129309.703
521.197, 129460.203
521.679, 129537.797
522.161, 129613.297
522.644, 129687.703
523.126, 129762.500
523.608, 129844.000
524.090, 129933.602
524.572, 130008.203
525.054, 130064.000
525.536, 130103.703
526.018, 130124.297
526.500, 130128.000
526.983, 130131.000
527.465, 130128.000
527.947, 130132.898
528.429, 130191.797
528.911, 130296.203
529.393, 130352.398
529.875, 130234.602
530.357, 130071.297
530.840, 129988.797
531.322, 130034.602
531.804, 130113.297
532.286, 130214.703
532.768, 130320.898
533.250, 130404.000
533.732, 130464.398
534.214, 130498.602
534.696, 130499.797
535.179, 130471.297
535.661, 130443.102
536.143, 130398.500
536.625, 130379.703
537.107, 130415.102
537.589, 130515.500
538.071, 130625.703
538.554, 130745.703
539.036, 130873.102
539.518, 131006.500
540.000, 131146.000
540.482, 131277.797
540.964, 131386.906
541.446, 131488.906
541.928, 131624.500
542.410, 131788.203
542.893, 131948.297
543.375, 132086.203
543.857, 132205.797
544.339, 132309.297
544.821, 132394.297
545.303, 132472.703
545.785, 132556.797
546.267, 132637.297
546.750, 132703.000
547.232, 132745.594
547.714, 132781.797
548.196, 132821.906
548.678, 132864.406
549.160, 132889.094
549.642, 132880.906
550.124, 132874.297
550.606, 132877.594
551.089, 132883.500
551.571, 132945.703
552.053, 133088.500
552.535, 133243.500
553.017, 133324.594
553.499, 133329.406
553.981, 133347.297
554.463, 133405.594
554.945, 133475.203
555.428, 133479.703
555.910, 133433.406
556.392, 133418.797
556.874, 133520.000
557.356, 133663.906
557.838, 133747.297
558.320, 133765.094
558.802, 133802.406
559.284, 133946.797
559.767, 134120.703
560.249, 134247.500
560.731, 134257.203
561.213, 134293.203
561.695, 134413.703
562.177, 134581.594
562.659, 134717.094
563.141, 134780.594
563.623, 134847.406
564.106, 134931.000
564.588, 135030.406
565.070, 135142.297
565.552, 135276.594
566.034, 135399.406
566.516, 135483.406
566.998, 135528.500
567.481, 135568.000
567.963, 135598.797
568.445, 135644.797
568.927, 135756.406
569.409, 135916.703
569.891, 136058.297
570.373, 136164.094
570.855, 136234.406
571.337, 136250.500
571.820, 136225.203
572.302, 136214.594
572.784, 136254.500
573.266, 136314.297
573.748, 136391.906
574.230, 136505.000
574.712, 136543.703
575.194, 136352.906
575.677, 136145.594
576.159, 136134.297
576.641, 136535.094
577.123, 136782.406
577.605, 136772.094
578.087, 136608.094
578.569, 136558.500
579.051, 136655.703
579.533, 136751.406
580.016, 136774.500
580.498, 136745.594
580.980, 136767.297
581.462, 136838.797
581.944, 136965.094
582.426, 137205.906
582.908, 137496.094
583.390, 137694.297
583.872, 137765.406
584.355, 137784.703
584.837, 137762.203
585.319, 137736.094
585.801, 137767.203
586.283, 137952.406
586.765, 138123.094
587.247, 138182.297
587.729, 138156.797
588.211, 138196.500
588.694, 138419.906
589.176, 138616.500
589.658, 138690.000
590.140, 138599.297
590.622, 138636.094
591.104, 138879.594
591.586, 139116.703
592.068, 139091.000
592.550, 138793.797
593.033, 138634.000
593.515, 138700.594
593.997, 138879.000
594.479, 139004.906
594.961, 139085.594
595.443, 139153.797
595.925, 139235.094
596.407, 139306.000
596.890, 139314.703
597.372, 139274.703
597.854, 139284.094
598.336, 139475.500
598.818, 139678.094
599.300, 139761.297
599.782, 139659.297
600.264, 139590.703
600.747, 139543.906
601.229, 139568.000
601.711, 139728.703
602.193, 140158.297
602.675, 140448.703
603.157, 140507.797
603.639, 140425.594
604.121, 140437.906
604.604, 140552.297
605.086, 140685.000
605.568, 140797.297
606.050, 140900.500
606.532, 141045.703
607.014, 141230.297
607.496, 141384.000
607.978, 141424.297
608.460, 141414.500
608.943, 141431.297
609.425, 141483.594
609.907, 141574.500
610.389, 141755.000
610.871, 141954.703
611.353, 142093.703
611.835, 142137.594
612.317, 142136.797
612.799, 142057.094
613.282, 141941.594
613.764, 141914.203
614.246, 142016.594
614.728, 142134.594
615.210, 142227.297
615.692, 142299.500
616.174, 142409.203
616.656, 142564.703
617.138, 142721.000
617.621, 142847.594
618.103, 142945.406
618.585, 143017.594
619.067, 143063.594
619.549, 143081.906
620.031, 143006.000
620.513, 142912.906
620.995, 142927.906
621.477, 143208.500
621.960, 143477.594
622.442, 143601.500
622.924, 143615.703
623.406, 143620.297
623.888, 143565.594
624.370, 143574.297
624.852, 143718.500
625.334, 144002.500
625.817, 144153.094
626.299, 144130.406
626.781, 144059.297
627.263, 144006.094
627.745, 143972.203
628.227, 144011.500
628.709, 144147.203
629.191, 144275.297
629.674, 144251.797
630.156, 144126.797
630.638, 144028.500
631.120, 144010.500
631.602, 144008.000
632.084, 143952.797
632.566, 143873.000
633.048, 143832.000
633.531, 143864.500
634.013, 143932.594
634.495, 144039.297
634.977, 144182.297
635.459, 144289.500
635.941, 144330.797
636.423, 144366.000
636.905, 144423.094
637.387, 144505.203
637.870, 144585.000
638.352, 144666.000
638.834, 144727.703
639.316, 144716.094
639.798, 144652.094
640.280, 144675.203
640.762, 144839.797
641.244, 145033.500
641.726, 145122.297
