##NAMES=Amphibole
##RRUFFID=R110203
##LOCALITY=Bear Lake diggings, Tory Hill, Monmounth Township, Haliburton Co., Ontario, Canada
##OWNER=RRUFF
##SOURCE=Donald Doell
##DESCRIPTION=Black hexagonal prism, note that amphiboles from here are characterized by Hawthorne et al (2006)
##STATUS=The identification of this mineral has been confirmed only by single crystal X-ray diffraction.
##URL=rruff.info/R110203
159.5820, 177.1571
160.0641, 177.9406
160.5462, 178.2245
161.0283, 177.6581
161.5104, 176.8610
161.9926, 176.3183
162.4747, 176.0943
162.9568, 175.8923
163.4389, 175.3121
163.9210, 174.3824
164.4031, 173.7509
164.8853, 173.8154
165.3674, 174.1592
165.8495, 174.0882
166.3316, 173.3550
166.8137, 172.6270
167.2958, 172.7204
167.7780, 173.4210
168.2601, 173.9146
168.7422, 173.6891
169.2243, 172.9101
169.7064, 172.2202
170.1885, 171.6016
170.6707, 171.2229
171.1528, 171.3027
171.6349, 171.7342
172.1170, 172.0830
172.5991, 171.9615
173.0812, 171.3465
173.5634, 170.7652
174.0455, 170.1809
174.5276, 169.6887
175.0097, 169.3223
175.4918, 169.0876
175.9739, 168.9878
176.4561, 169.1118
176.9382, 169.6520
177.4203, 169.7393
177.9024, 168.9038
178.3845, 168.0330
178.8666, 167.7083
179.3488, 167.9399
179.8309, 168.2507
180.3130, 167.9554
180.7951, 166.5991
181.2772, 165.6581
181.7593, 165.5008
182.2415, 165.4671
182.7236, 165.0280
183.2057, 164.0753
183.6878, 162.9292
184.1699, 162.0683
184.6520, 161.6228
185.1342, 161.2626
185.6163, 161.0789
186.0984, 160.9417
186.5805, 160.7197
187.0626, 160.3750
187.5447, 159.9379
188.0269, 159.4523
188.5090, 158.9343
188.9911, 158.3286
189.4732, 157.4797
189.9553, 156.5557
190.4374, 155.8704
190.9196, 155.5341
191.4017, 155.4081
191.8838, 155.3494
192.3659, 155.3814
192.8480, 155.2705
193.3301, 154.8126
193.8123, 154.0997
194.2944, 153.4706
194.7765, 153.0271
195.2586, 152.6816
195.7407, 152.3054
196.2228, 151.8975
196.7050, 151.5615
197.1871, 151.4381
197.6692, 151.5137
198.1513, 151.4690
198.6334, 151.1870
199.1155, 150.8012
199.5977, 150.4383
200.0798, 150.0963
200.5619, 149.6435
201.0440, 148.7791
201.5261, 147.3535
202.0082, 146.5018
202.4904, 146.9907
202.9725, 147.6586
203.4546, 148.0189
203.9367, 147.9802
204.4188, 147.6478
204.9009, 146.9787
205.3831, 145.5943
205.8652, 145.0849
206.3473, 146.5462
206.8294, 148.0401
207.3115, 148.3152
207.7936, 147.2446
208.2758, 145.6644
208.7579, 144.7459
209.2400, 144.8333
209.7221, 144.8752
210.2042, 144.7709
210.6863, 144.6968
211.1685, 144.8499
211.6506, 145.2343
212.1327, 145.6156
212.6148, 145.6339
213.0969, 144.9897
213.5790, 144.6062
214.0612, 144.6563
214.5433, 144.8386
215.0254, 144.8850
215.5075, 144.7418
215.9896, 144.5906
216.4717, 144.7048
216.9539, 145.2641
217.4360, 145.6684
217.9181, 145.8623
218.4002, 145.9209
218.8823, 145.9204
219.3644, 145.8790
219.8466, 145.7565
220.3287, 145.4381
220.8108, 144.8475
221.2929, 144.4957
221.7750, 144.6196
222.2571, 144.9550
222.7393, 145.1952
223.2214, 145.2790
223.7035, 145.2536
224.1856, 145.1310
224.6677, 144.9204
225.1498, 144.7335
225.6320, 144.6726
226.1141, 144.6355
226.5962, 144.4206
227.0783, 143.9455
227.5604, 143.4387
228.0425, 143.2553
228.5247, 143.2953
229.0068, 143.0597
229.4889, 141.9877
229.9710, 140.5397
230.4531, 139.8192
230.9352, 140.1807
231.4174, 140.7705
231.8995, 141.1252
232.3816, 141.2195
232.8637, 140.9085
233.3458, 139.7608
233.8279, 138.1175
234.3101, 137.1230
234.7922, 137.1004
235.2743, 137.2689
235.7564, 137.2419
236.2385, 137.0548
236.7206, 136.7694
237.2028, 136.3988
237.6849, 135.9571
238.1670, 135.4940
238.6491, 134.9909
239.1312, 134.4943
239.6133, 134.0699
240.0955, 133.6581
240.5776, 133.1379
241.0597, 132.3957
241.5418, 131.5011
242.0239, 130.8051
242.5060, 130.3664
242.9882, 130.0715
243.4703, 129.9640
243.9524, 129.9447
244.4345, 129.8600
244.9166, 129.6030
245.3987, 129.2347
245.8809, 129.0800
246.3630, 129.6175
246.8451, 129.7216
247.3272, 128.8106
247.8093, 127.4569
248.2914, 126.4108
248.7736, 126.0900
249.2557, 126.3196
249.7378, 126.3873
250.2199, 126.0696
250.7020, 125.8640
251.1841, 126.0555
251.6663, 126.3210
252.1484, 126.2460
252.6305, 125.6254
253.1126, 124.6299
253.5947, 123.7774
254.0768, 123.1510
254.5590, 122.5999
255.0411, 122.0986
255.5232, 121.6715
256.0053, 121.3363
256.4874, 121.1025
256.9695, 120.9759
257.4517, 120.9717
257.9338, 121.3514
258.4159, 121.5365
258.8980, 121.4710
259.3801, 121.2320
259.8622, 120.8469
260.3444, 120.3310
260.8265, 119.7898
261.3086, 119.4300
261.7907, 119.4740
262.2728, 119.3428
262.7549, 118.8446
263.2371, 118.2560
263.7192, 117.8288
264.2013, 117.6322
264.6834, 117.6320
265.1655, 117.8345
265.6476, 118.5223
266.1298, 118.6483
266.6119, 117.5418
267.0940, 116.2245
267.5761, 115.7600
268.0582, 116.3325
268.5403, 117.1949
269.0225, 117.4715
269.5046, 116.9866
269.9867, 116.6431
270.4688, 116.4106
270.9509, 116.3590
271.4330, 116.6653
271.9152, 117.3225
272.3973, 117.9595
272.8794, 118.2223
273.3615, 118.0689
273.8436, 117.8576
274.3257, 117.4334
274.8079, 117.0645
275.2900, 117.0301
275.7721, 117.3217
276.2542, 117.6323
276.7363, 117.7593
277.2184, 117.6893
277.7006, 117.5243
278.1827, 117.1132
278.6648, 116.7278
279.1469, 116.4682
279.6290, 116.3599
280.1111, 116.6175
280.5933, 117.5907
281.0754, 118.9596
281.5575, 119.6544
282.0396, 119.2823
282.5217, 118.7258
283.0038, 118.5406
283.4860, 118.6542
283.9681, 118.6601
284.4502, 118.2964
284.9323, 117.7844
285.4144, 117.5648
285.8965, 117.6653
286.3787, 117.9610
286.8608, 118.5258
287.3429, 119.2634
287.8250, 119.8186
288.3071, 120.0310
288.7892, 120.0649
289.2714, 120.2204
289.7535, 120.5425
290.2356, 120.6571
290.7177, 120.1773
291.1998, 119.3496
291.6819, 118.8566
292.1641, 118.9358
292.6462, 119.2127
293.1283, 119.2943
293.6104, 119.2031
294.0925, 119.0634
294.5746, 118.8195
295.0568, 118.5774
295.5389, 118.6292
296.0210, 119.1280
296.5031, 119.5622
296.9852, 119.3888
297.4673, 118.7870
297.9495, 118.1944
298.4316, 117.7068
298.9137, 117.3282
299.3958, 117.0837
299.8779, 116.9885
300.3600, 116.9571
300.8422, 117.0131
301.3243, 117.0838
301.8064, 117.0383
302.2885, 116.8550
302.7706, 116.5363
303.2527, 115.9880
303.7349, 115.1798
304.2170, 114.5499
304.6991, 114.4267
305.1812, 114.5531
305.6633, 114.6023
306.1454, 114.5556
306.6276, 114.3786
307.1097, 113.9212
307.5918, 113.2110
308.0739, 112.7388
308.5560, 112.8140
309.0381, 113.0798
309.5203, 113.1234
310.0024, 112.9194
310.4845, 112.6529
310.9666, 112.4281
311.4487, 112.2406
311.9308, 112.0842
312.4130, 112.0036
312.8951, 111.8832
313.3772, 111.6050
313.8593, 111.1888
314.3414, 110.7629
314.8235, 110.3500
315.3057, 109.9751
315.7878, 109.7218
316.2699, 109.6472
316.7520, 109.5761
317.2341, 109.4263
317.7162, 109.1891
318.1984, 108.8109
318.6805, 108.1055
319.1626, 107.3264
319.6447, 106.9033
320.1268, 106.8898
320.6089, 106.9681
321.0911, 107.1362
321.5732, 107.2328
322.0553, 106.9457
322.5374, 105.9653
323.0195, 104.9897
323.5016, 104.9481
323.9838, 105.8502
324.4659, 106.3757
324.9480, 105.6814
325.4301, 104.5908
325.9122, 104.1096
326.3943, 104.3455
326.8765, 104.8772
327.3586, 105.6075
327.8407, 106.4539
328.3228, 106.9112
328.8049, 106.7436
329.2870, 106.3021
329.7692, 105.9417
330.2513, 105.6555
330.7334, 105.3621
331.2155, 105.0044
331.6976, 104.6139
332.1797, 104.2196
332.6619, 103.7616
333.1440, 103.4783
333.6261, 103.7906
334.1082, 104.4490
334.5903, 104.8490
335.0724, 104.6759
335.5546, 104.2128
336.0367, 103.7264
336.5188, 103.1969
337.0009, 102.9039
337.4830, 103.1888
337.9651, 103.7709
338.4473, 104.1099
338.9294, 104.0501
339.4115, 103.8938
339.8936, 103.8732
340.3757, 103.9719
340.8578, 104.0614
341.3400, 104.0729
341.8221, 104.0780
342.3042, 104.2054
342.7863, 104.4869
343.2684, 104.7132
343.7505, 104.7070
344.2327, 104.5724
344.7148, 104.6058
345.1969, 104.9367
345.6790, 105.2643
346.1611, 105.0548
346.6432, 104.4111
347.1254, 104.1511
347.6075, 104.9368
348.0896, 106.0016
348.5717, 106.3380
349.0538, 105.8447
349.5359, 105.1430
350.0181, 104.5815
350.5002, 104.1880
350.9823, 104.0042
351.4644, 104.2332
351.9465, 104.5025
352.4286, 104.5514
352.9108, 104.4157
353.3929, 104.2576
353.8750, 104.1279
354.3571, 104.0533
354.8392, 104.1024
355.3214, 104.3132
355.8035, 104.5381
356.2856, 104.7395
356.7677, 104.9168
357.2498, 105.0636
357.7319, 105.1756
358.2141, 105.2743
358.6962, 105.4113
359.1783, 105.6129
359.6604, 105.6880
360.1425, 105.5355
360.6246, 105.2965
361.1068, 105.0746
361.5889, 104.8866
362.0710, 104.7550
362.5531, 104.6979
363.0352, 104.7200
363.5173, 104.8008
363.9995, 105.0379
364.4816, 105.2325
364.9637, 105.2605
365.4458, 105.1676
365.9279, 105.0671
366.4100, 105.0107
366.8922, 105.0017
367.3743, 105.0559
367.8564, 105.1744
368.3385, 105.3474
368.8206, 105.6574
369.3027, 105.9857
369.7849, 106.2007
370.2670, 106.2639
370.7491, 106.2087
371.2312, 106.0700
371.7133, 105.8097
372.1954, 105.5797
372.6776, 105.4010
373.1597, 105.2337
373.6418, 104.9823
374.1239, 104.6980
374.6060, 104.5816
375.0881, 104.8248
375.5703, 105.4107
376.0524, 105.7569
376.5345, 105.7239
377.0166, 105.6221
377.4987, 105.4311
377.9808, 105.2371
378.4630, 105.1792
378.9451, 105.3230
379.4272, 105.5631
379.9093, 105.6571
380.3914, 105.6100
380.8735, 105.3819
381.3557, 104.7171
381.8378, 104.0695
382.3199, 103.8265
382.8020, 104.0064
383.2841, 104.3058
383.7662, 104.3991
384.2484, 104.2678
384.7305, 104.0568
385.2126, 103.5506
385.6947, 103.1718
386.1768, 103.2593
386.6589, 103.5661
387.1411, 103.5570
387.6232, 102.8386
388.1053, 101.6808
388.5874, 101.1065
389.0695, 101.5147
389.5516, 101.7615
390.0338, 101.6607
390.5159, 101.2664
390.9980, 100.4655
391.4801, 99.23840
391.9622, 98.09364
392.4443, 97.76141
392.9265, 98.34341
393.4086, 98.75772
393.8907, 98.79756
394.3728, 98.69833
394.8549, 98.61768
395.3370, 98.52929
395.8192, 98.30556
396.3013, 97.72927
396.7834, 96.95772
397.2655, 96.55749
397.7476, 96.66338
398.2297, 96.79263
398.7119, 96.71349
399.1940, 96.49903
399.6761, 96.19838
400.1582, 95.75819
400.6403, 95.38085
401.1224, 95.39509
401.6046, 95.76499
402.0867, 95.86302
402.5688, 95.40187
403.0509, 94.68958
403.5330, 94.02395
404.0151, 93.39523
404.4973, 93.01850
404.9794, 93.13197
405.4615, 93.51794
405.9436, 93.83989
406.4257, 94.06801
406.9078, 94.14730
407.3900, 93.95914
407.8721, 93.56016
408.3542, 93.26283
408.8363, 93.09863
409.3184, 93.03383
409.8005, 93.12440
410.2827, 93.31471
410.7648, 93.40397
411.2469, 93.28905
411.7290, 93.05348
412.2111, 92.88093
412.6932, 92.78321
413.1754, 92.70537
413.6575, 92.65861
414.1396, 92.61610
414.6217, 92.52782
415.1038, 92.39311
415.5859, 92.28854
416.0681, 92.29465
416.5502, 92.42270
417.0323, 92.54641
417.5144, 92.66433
417.9965, 92.77968
418.4786, 92.92588
418.9608, 93.06681
419.4429, 93.10424
419.9250, 92.97890
420.4071, 92.79539
420.8892, 92.86523
421.3713, 93.62589
421.8535, 93.96047
422.3356, 93.55563
422.8177, 92.94371
423.2998, 92.42626
423.7819, 92.10282
424.2640, 92.04412
424.7462, 92.37332
425.2283, 93.12593
425.7104, 93.76016
426.1925, 94.36710
426.6746, 94.73215
427.1567, 94.57870
427.6389, 94.19461
428.1210, 94.03500
428.6031, 94.33822
429.0852, 94.88680
429.5673, 95.27795
430.0494, 95.52734
430.5316, 95.56969
431.0137, 95.20403
431.4958, 94.74331
431.9779, 94.33023
432.4600, 93.99277
432.9421, 93.78273
433.4243, 93.75254
433.9064, 93.88582
434.3885, 94.18630
434.8706, 94.83141
435.3527, 95.22916
435.8348, 94.71435
436.3170, 93.74301
436.7991, 93.07494
437.2812, 93.01112
437.7633, 93.14542
438.2454, 93.12296
438.7275, 92.96346
439.2097, 92.81033
439.6918, 92.72607
440.1739, 92.64931
440.6560, 92.48547
441.1381, 92.23453
441.6202, 91.95559
442.1024, 91.70023
442.5845, 91.40668
443.0666, 90.94622
443.5487, 90.32532
444.0308, 89.78451
444.5129, 89.53383
444.9951, 89.53391
445.4772, 89.38370
445.9593, 88.98527
446.4414, 88.57655
446.9235, 88.15569
447.4056, 87.79103
447.8878, 87.61876
448.3699, 87.68076
448.8520, 87.82988
449.3341, 87.85703
449.8162, 87.79459
450.2983, 87.48669
450.7805, 86.84161
451.2626, 86.07797
451.7447, 85.21570
452.2268, 84.32596
452.7089, 83.54190
453.1910, 82.96667
453.6732, 82.54663
454.1553, 82.06059
454.6374, 81.46328
455.1195, 80.87361
455.6016, 80.26157
456.0837, 79.69559
456.5659, 79.23339
457.0480, 78.88280
457.5301, 78.62856
458.0122, 78.61827
458.4943, 78.83643
458.9764, 78.42760
459.4586, 77.02959
459.9407, 75.48853
460.4228, 74.12859
460.9049, 72.96630
461.3870, 72.02131
461.8691, 71.25286
462.3513, 70.78334
462.8334, 70.98717
463.3155, 71.82635
463.7976, 72.25916
464.2797, 71.75661
464.7618, 70.95444
465.2440, 70.65782
465.7261, 70.86347
466.2082, 71.15691
466.6903, 71.59933
467.1724, 71.94905
467.6545, 71.77316
468.1367, 71.07944
468.6188, 70.49734
469.1009, 70.50576
469.5830, 70.95468
470.0651, 71.07698
470.5472, 70.50172
471.0294, 70.11398
471.5115, 70.20975
471.9936, 70.58530
472.4757, 71.06316
472.9578, 71.57417
473.4399, 71.97987
473.9221, 72.08616
474.4042, 71.81161
474.8863, 71.70995
475.3684, 72.00803
475.8505, 72.21719
476.3326, 72.04243
476.8148, 71.67779
477.2969, 71.44191
477.7790, 71.48813
478.2611, 71.76687
478.7432, 72.20493
479.2253, 72.86996
479.7075, 73.49813
480.1896, 74.15343
480.6717, 74.68492
481.1538, 75.02070
481.6359, 75.15247
482.1180, 75.07781
482.6002, 74.63096
483.0823, 74.02805
483.5644, 73.91795
484.0465, 74.40102
484.5286, 75.02212
485.0107, 75.73998
485.4929, 76.40599
485.9750, 76.80328
486.4571, 76.85416
486.9392, 76.91020
487.4213, 77.24809
487.9034, 77.73537
488.3856, 78.04995
488.8677, 78.12498
489.3498, 78.17607
489.8319, 78.40961
490.3140, 78.80489
490.7961, 79.06660
491.2783, 78.99667
491.7604, 79.00610
492.2425, 79.30344
492.7246, 79.80843
493.2067, 80.37985
493.6888, 80.96581
494.1710, 81.58312
494.6531, 82.26637
495.1352, 83.09889
495.6173, 83.71922
496.0994, 83.99606
496.5815, 84.22094
497.0637, 84.50032
497.5458, 84.83997
498.0279, 85.24931
498.5100, 85.74924
498.9921, 86.24142
499.4742, 86.43403
499.9564, 86.12157
500.4385, 86.03230
500.9206, 86.36153
501.4027, 86.86883
501.8848, 87.54142
502.3669, 88.30295
502.8491, 88.87763
503.3312, 88.93192
503.8133, 88.69626
504.2954, 88.79011
504.7775, 89.24232
505.2596, 89.90588
505.7418, 90.96973
506.2239, 92.05943
506.7060, 92.58876
507.1881, 92.38735
507.6702, 92.21732
508.1523, 92.49634
508.6345, 93.04160
509.1166, 93.60003
509.5987, 94.13618
510.0808, 94.54343
510.5629, 94.67103
511.0450, 94.56545
511.5272, 94.76981
512.0093, 95.64928
512.4914, 96.36272
512.9735, 96.43035
513.4556, 96.28829
513.9377, 96.63799
514.4199, 97.61752
514.9020, 98.61295
515.3841, 98.76951
515.8662, 97.88924
516.3483, 97.53503
516.8304, 98.05201
517.3126, 98.75188
517.7947, 99.60544
518.2768, 100.4766
518.7589, 101.1860
519.2410, 101.6589
519.7231, 102.0055
520.2053, 102.4172
520.6874, 102.9106
521.1695, 103.1884
521.6516, 103.0537
522.1337, 102.8941
522.6158, 102.9842
523.0980, 103.2602
523.5801, 103.5357
524.0622, 103.6536
524.5443, 103.8329
525.0264, 104.4137
525.5085, 105.3154
525.9907, 106.0209
526.4728, 106.3320
526.9549, 106.4230
527.4370, 106.5433
527.9191, 106.7123
528.4012, 106.7975
528.8834, 106.7624
529.3655, 106.6601
529.8476, 106.3511
530.3297, 105.9934
530.8118, 106.0980
531.2939, 106.9817
531.7761, 108.2194
532.2582, 108.7070
532.7403, 107.9718
533.2224, 107.3260
533.7045, 106.8539
534.1866, 106.4112
534.6688, 105.8831
535.1509, 105.3012
535.6330, 104.7667
536.1151, 104.3154
536.5972, 103.9959
537.0793, 104.0229
537.5615, 104.5374
538.0436, 104.8191
538.5257, 104.5654
539.0078, 104.0555
539.4899, 103.5151
539.9720, 102.9532
540.4542, 102.3327
540.9363, 101.4574
541.4184, 100.6042
541.9005, 100.3877
542.3826, 100.7709
542.8647, 100.6580
543.3469, 99.23583
543.8290, 97.19759
544.3111, 96.43192
544.7932, 97.53600
545.2753, 98.30119
545.7574, 98.26951
546.2396, 97.88592
546.7217, 97.50709
547.2038, 97.15083
547.6859, 96.63187
548.1680, 95.77771
548.6501, 94.73325
549.1323, 94.18241
549.6144, 94.60217
550.0965, 94.69051
550.5786, 94.00390
551.0607, 93.21043
551.5428, 92.85217
552.0250, 92.90793
552.5071, 92.93493
552.9892, 92.58726
553.4713, 91.98035
553.9534, 91.39474
554.4355, 90.79558
554.9177, 90.42715
555.3998, 90.65412
555.8819, 90.96217
556.3640, 90.56300
556.8461, 89.33325
557.3282, 88.33286
557.8104, 88.09059
558.2925, 88.22062
558.7746, 88.41625
559.2567, 88.59862
559.7388, 88.46539
560.2209, 87.77721
560.7031, 86.73289
561.1852, 85.96321
561.6673, 85.42400
562.1494, 85.24671
562.6315, 86.14185
563.1136, 86.84592
563.5958, 86.10487
564.0779, 84.22459
564.5600, 82.60569
565.0421, 82.29118
565.5242, 82.86366
566.0063, 82.91654
566.4885, 82.28735
566.9706, 81.61120
567.4527, 80.73576
567.9348, 80.09885
568.4169, 80.31249
568.8990, 81.22056
569.3812, 81.66963
569.8633, 80.65898
570.3454, 79.04659
570.8275, 78.08109
571.3096, 77.73531
571.7917, 77.44589
572.2739, 77.00113
572.7560, 76.43923
573.2381, 75.78117
573.7202, 74.93950
574.2023, 74.33669
574.6844, 74.20632
575.1666, 74.15542
575.6487, 73.95201
576.1308, 73.59925
576.6129, 73.12282
577.0950, 72.52229
577.5771, 71.94215
578.0593, 71.80186
578.5414, 72.51104
579.0235, 72.53505
579.5056, 70.89683
579.9877, 69.39666
580.4698, 69.01595
580.9520, 69.40360
581.4341, 69.64542
581.9162, 69.29230
582.3983, 68.70450
582.8804, 68.35802
583.3625, 68.22929
583.8447, 68.10194
584.3268, 67.96658
584.8089, 67.72621
585.2910, 67.18903
585.7731, 66.39919
586.2552, 65.82842
586.7374, 65.74489
587.2195, 65.65229
587.7016, 65.20255
588.1837, 64.59393
588.6658, 64.18624
589.1479, 64.08452
589.6301, 64.12226
590.1122, 64.08811
590.5943, 63.96096
591.0764, 63.97031
591.5585, 64.37586
592.0406, 64.61024
592.5228, 64.46319
593.0049, 64.11020
593.4870, 63.70607
593.9691, 63.29743
594.4512, 63.00153
594.9333, 63.00158
595.4155, 63.21999
595.8976, 63.28777
596.3797, 63.13945
596.8618, 63.05493
597.3439, 63.29717
597.8260, 63.67369
598.3082, 63.70757
598.7903, 63.25365
599.2724, 62.82687
599.7545, 62.59591
600.2366, 62.47170
600.7188, 62.31744
601.2009, 62.15569
601.6830, 62.19073
602.1651, 62.58887
602.6472, 63.21898
603.1293, 63.60476
603.6115, 63.11542
604.0936, 63.89354
604.5757, 64.33920
605.0578, 64.47030
605.5399, 63.34462
606.0220, 63.84180
606.5042, 63.68862
606.9863, 63.50877
607.4684, 64.23436
607.9505, 63.29147
608.4326, 64.00271
608.9147, 64.05365
609.3969, 64.40680
609.8790, 64.10555
610.3611, 64.00642
610.8432, 64.56190
611.3253, 64.75491
611.8074, 64.37833
612.2896, 64.75069
612.7717, 63.78495
613.2538, 63.99340
613.7359, 64.70847
614.2180, 64.36480
614.7001, 64.74911
615.1823, 64.85618
615.6644, 63.70321
616.1465, 64.74155
616.6286, 64.83223
617.1107, 63.94985
617.5928, 64.91311
618.0750, 64.16489
618.5571, 64.02756
619.0392, 64.41818
619.5213, 64.52846
620.0034, 64.73103
620.4855, 64.95551
620.9677, 65.00977
621.4498, 64.87998
621.9319, 64.78564
622.4140, 64.85091
622.8961, 65.00027
623.3782, 65.07220
623.8604, 65.04658
624.3425, 65.01978
624.8246, 65.03524
625.3067, 65.02399
625.7888, 64.83012
626.2709, 64.57751
626.7531, 64.60551
627.2352, 65.08791
627.7173, 65.72685
628.1994, 65.87508
628.6815, 65.35103
629.1636, 65.38503
629.6458, 66.61663
630.1279, 67.66465
630.6100, 67.73555
631.0921, 67.20620
631.5742, 66.68771
632.0563, 66.25395
632.5385, 66.08848
633.0206, 66.54658
633.5027, 67.30987
633.9848, 67.74700
634.4669, 67.76681
634.9490, 67.57446
635.4312, 67.25676
635.9133, 66.88780
636.3954, 66.81956
636.8775, 67.31477
637.3596, 67.77130
637.8417, 68.31786
638.3239, 68.69912
638.8060, 68.52857
639.2881, 68.00640
639.7702, 67.79747
640.2523, 68.37548
640.7344, 69.28880
641.2166, 69.60240
641.6987, 69.28469
642.1808, 69.11861
642.6629, 69.28868
643.1450, 69.59429
643.6271, 69.91484
644.1093, 70.23434
644.5914, 70.47594
645.0735, 70.44463
645.5556, 70.54344
646.0377, 71.15166
646.5198, 71.92602
647.0020, 72.29683
647.4841, 72.20042
647.9662, 72.09474
648.4483, 72.40576
648.9304, 73.05758
649.4125, 73.52428
649.8947, 73.74177
650.3768, 73.88314
650.8589, 73.82609
651.3410, 73.82692
651.8231, 74.10727
652.3052, 74.63208
652.7874, 75.15269
653.2695, 75.34514
653.7516, 75.66216
654.2337, 76.94627
654.7158, 78.92783
655.1979, 80.34429
655.6801, 80.81503
656.1622, 80.72107
