##NAMES=Amphibole
##RRUFFID=R110203
##LOCALITY=Bear Lake diggings, Tory Hill, Monmounth Township, Haliburton Co., Ontario, Canada
##OWNER=RRUFF
##SOURCE=Donald Doell
##DESCRIPTION=Black hexagonal prism, note that amphiboles from here are characterized by Hawthorne et al (2006)
##STATUS=The identification of this mineral has been confirmed only by single crystal X-ray diffraction.
##URL=rruff.info/R110203
176.3090, 128.6401
176.7911, 131.2339
177.2732, 133.5073
177.7553, 135.5071
178.2374, 137.0723
178.7195, 138.4729
179.2017, 140.1035
179.6838, 141.5923
180.1659, 142.0899
180.6480, 141.5378
181.1301, 141.0068
181.6122, 141.8665
182.0944, 143.7028
182.5765, 145.1211
183.0586, 145.3727
183.5407, 144.8320
184.0228, 144.1582
184.5049, 143.3179
184.9871, 142.6592
185.4692, 143.1775
185.9513, 144.5377
186.4334, 144.8788
186.9155, 142.2522
187.3976, 137.8028
187.8798, 135.5802
188.3619, 136.0249
188.8440, 137.4807
189.3261, 137.7570
189.8082, 136.9266
190.2903, 135.8512
190.7725, 134.8973
191.2546, 134.0423
191.7367, 133.1482
192.2188, 132.0980
192.7009, 131.2640
193.1830, 131.5232
193.6652, 132.8776
194.1473, 134.1238
194.6294, 134.4857
195.1115, 134.0414
195.5936, 133.7449
196.0757, 133.6195
196.5579, 133.7093
197.0400, 134.2944
197.5221, 135.4492
198.0042, 136.3185
198.4863, 136.1759
198.9684, 135.0044
199.4506, 134.4709
199.9327, 134.8125
200.4148, 135.6863
200.8969, 136.3744
201.3790, 136.8587
201.8611, 137.2988
202.3433, 138.0036
202.8254, 139.0760
203.3075, 139.0332
203.7896, 137.2726
204.2717, 134.7680
204.7538, 134.2360
205.2360, 136.1099
205.7181, 138.3249
206.2002, 139.6495
206.6823, 139.9482
207.1644, 140.2508
207.6465, 140.6865
208.1287, 141.1481
208.6108, 141.2134
209.0929, 140.6643
209.5750, 140.3137
210.0571, 140.7227
210.5392, 142.0429
211.0214, 143.4306
211.5035, 144.9229
211.9856, 146.3994
212.4677, 147.5232
212.9498, 148.3547
213.4319, 148.7190
213.9140, 148.2939
214.3962, 146.6366
214.8783, 145.7998
215.3604, 146.0799
215.8425, 147.2923
216.3246, 148.7789
216.8067, 150.7515
217.2889, 152.6151
217.7710, 153.9868
218.2531, 154.7067
218.7352, 155.4460
219.2173, 156.4292
219.6994, 157.4823
220.1816, 157.5587
220.6637, 155.8784
221.1458, 154.5562
221.6279, 155.1831
222.1100, 158.8885
222.5921, 161.5432
223.0743, 162.6475
223.5564, 162.4519
224.0385, 162.0903
224.5206, 161.4329
225.0027, 160.8330
225.4848, 160.4975
225.9670, 160.4449
226.4491, 160.6825
226.9312, 161.5344
227.4133, 162.7146
227.8954, 162.6855
228.3775, 160.5808
228.8597, 158.5357
229.3418, 158.0131
229.8239, 159.9746
230.3060, 161.2241
230.7881, 161.4530
231.2702, 160.7766
231.7524, 159.5581
232.2345, 157.0336
232.7166, 155.0539
233.1987, 154.9562
233.6808, 158.1093
234.1629, 160.0771
234.6451, 160.2867
235.1272, 159.0848
235.6093, 158.0035
236.0914, 157.1848
236.5735, 156.2936
237.0556, 155.0858
237.5378, 153.2299
238.0199, 151.7931
238.5020, 150.9148
238.9841, 150.4971
239.4662, 150.1736
239.9483, 149.9118
240.4305, 149.7964
240.9126, 149.9407
241.3947, 150.6904
241.8768, 150.9261
242.3589, 150.4068
242.8410, 149.3567
243.3232, 148.5364
243.8053, 147.9639
244.2874, 147.6016
244.7695, 147.5120
245.2516, 148.0592
245.7337, 148.0262
246.2159, 147.1272
246.6980, 145.6475
247.1801, 144.4803
247.6622, 143.5158
248.1443, 143.0041
248.6264, 143.2193
249.1086, 144.8385
249.5907, 145.5258
250.0728, 144.9265
250.5549, 143.4664
251.0370, 142.2420
251.5191, 141.2384
252.0013, 140.4965
252.4834, 140.0935
252.9655, 140.2817
253.4476, 140.1451
253.9297, 139.5238
254.4118, 138.6524
254.8940, 138.0511
255.3761, 137.8327
255.8582, 137.6814
256.3403, 137.4414
256.8224, 137.0166
257.3046, 136.8750
257.7867, 137.3009
258.2688, 137.8267
258.7509, 137.4245
259.2330, 135.6038
259.7151, 133.8622
260.1973, 132.7894
260.6794, 132.5499
261.1615, 132.3100
261.6436, 132.0101
262.1257, 131.7643
262.6078, 131.8525
263.0900, 132.5256
263.5721, 132.9361
264.0542, 132.7175
264.5363, 131.7484
265.0184, 130.9154
265.5005, 130.1183
265.9827, 129.5568
266.4648, 129.5966
266.9469, 130.4585
267.4290, 131.2936
267.9111, 131.9280
268.3932, 132.3727
268.8754, 132.2358
269.3575, 131.2529
269.8396, 130.0900
270.3217, 129.6833
270.8038, 130.2448
271.2859, 130.7312
271.7681, 130.8521
272.2502, 130.6169
272.7323, 130.2327
273.2144, 129.5527
273.6965, 129.0344
274.1786, 129.3582
274.6608, 130.7574
275.1429, 131.7265
275.6250, 131.7572
276.1071, 131.0051
276.5892, 130.6338
277.0714, 130.6898
277.5535, 131.0133
278.0356, 131.5987
278.5177, 132.5048
278.9998, 133.0342
279.4819, 132.9378
279.9641, 132.3777
280.4462, 132.0289
280.9283, 131.8930
281.4104, 131.9567
281.8925, 132.4090
282.3746, 133.2639
282.8568, 133.5061
283.3389, 132.7273
283.8210, 131.4283
284.3031, 131.0242
284.7852, 131.5781
285.2673, 132.5189
285.7495, 133.7657
286.2316, 135.2469
286.7137, 135.8263
287.1958, 135.0721
287.6779, 133.7822
288.1600, 133.6767
288.6422, 134.7706
289.1243, 136.0624
289.6064, 137.1332
290.0885, 137.9289
290.5706, 137.9468
291.0527, 136.9441
291.5349, 135.6297
292.0170, 135.1907
292.4991, 135.5630
292.9812, 136.0077
293.4633, 136.0997
293.9454, 135.9438
294.4276, 135.8437
294.9097, 135.8044
295.3918, 135.8763
295.8739, 136.1988
296.3560, 136.7194
296.8381, 137.2028
297.3203, 137.6213
297.8024, 137.9082
298.2845, 137.8967
298.7666, 137.5696
299.2487, 137.0827
299.7308, 136.4660
300.2130, 135.7918
300.6951, 135.2762
301.1772, 135.0594
301.6593, 135.0229
302.1414, 135.1074
302.6235, 135.3044
303.1057, 135.3052
303.5878, 134.5648
304.0699, 133.4714
304.5520, 132.7717
305.0341, 132.9259
305.5162, 133.3760
305.9984, 133.6637
306.4805, 133.7746
306.9626, 133.6243
307.4447, 132.9286
307.9268, 132.0058
308.4089, 131.2824
308.8911, 130.9264
309.3732, 130.7074
309.8553, 130.4485
310.3374, 130.1749
310.8195, 129.9666
311.3016, 129.9209
311.7838, 129.9369
312.2659, 129.9261
312.7480, 129.8698
313.2301, 129.7880
313.7122, 129.7552
314.1943, 129.7057
314.6765, 129.5013
315.1586, 128.8140
315.6407, 128.1403
316.1228, 127.8736
316.6049, 128.1961
317.0870, 128.3609
317.5692, 127.8932
318.0513, 127.1006
318.5334, 126.4147
319.0155, 125.9796
319.4976, 125.6761
319.9797, 125.3880
320.4619, 125.0809
320.9440, 125.1325
321.4261, 126.4013
321.9082, 127.7584
322.3903, 128.1268
322.8724, 125.8141
323.3546, 123.9632
323.8367, 123.7801
324.3188, 125.1974
324.8009, 125.9279
325.2830, 124.9529
325.7651, 123.5773
326.2473, 122.6473
326.7294, 122.4839
327.2115, 122.4920
327.6936, 122.8411
328.1757, 123.4028
328.6578, 123.5431
329.1400, 122.7840
329.6221, 122.0029
330.1042, 121.5588
330.5863, 121.5396
331.0684, 121.7291
331.5505, 122.3336
332.0327, 123.1054
332.5148, 123.4480
332.9969, 122.8684
333.4790, 122.5233
333.9611, 122.9785
334.4432, 124.6789
334.9254, 125.2937
335.4075, 124.2658
335.8896, 122.6106
336.3717, 121.7560
336.8538, 122.0042
337.3359, 122.3471
337.8180, 122.5651
338.3001, 122.6584
338.7823, 122.5157
339.2644, 121.9685
339.7465, 121.5251
340.2286, 121.7598
340.7107, 122.7864
341.1928, 123.8587
341.6750, 124.9542
342.1571, 125.9496
342.6392, 126.0712
343.1213, 125.1288
343.6034, 124.3361
344.0855, 124.9792
344.5677, 126.9584
345.0498, 127.6770
345.5319, 126.4201
346.0140, 124.4308
346.4961, 124.2136
346.9782, 125.7062
347.4604, 127.4198
347.9425, 128.6517
348.4246, 129.4412
348.9067, 129.8748
349.3888, 129.9522
349.8709, 129.7009
350.3531, 128.7976
350.8352, 127.4905
351.3173, 126.7047
351.7994, 127.3352
352.2815, 128.5633
352.7636, 128.8843
353.2458, 128.2973
353.7279, 127.7282
354.2100, 128.2637
354.6921, 129.3050
355.1742, 129.7889
355.6563, 129.0739
356.1385, 128.0069
356.6206, 127.1939
357.1027, 126.6597
357.5848, 126.5404
358.0669, 127.4831
358.5490, 128.5927
359.0312, 128.9270
359.5133, 127.9759
359.9954, 126.9886
360.4775, 126.8161
360.9596, 127.1335
361.4417, 127.2521
361.9239, 126.8241
362.4060, 126.1785
362.8881, 125.4668
363.3702, 124.6946
363.8523, 123.9192
364.3344, 122.6640
364.8166, 121.5871
365.2987, 121.4389
365.7808, 124.1961
366.2629, 126.1020
366.7450, 125.6627
367.2271, 122.8778
367.7093, 120.7603
368.1914, 120.0877
368.6735, 119.9165
369.1556, 119.6359
369.6377, 119.2890
370.1198, 118.7386
370.6020, 117.6228
371.0841, 116.2466
371.5662, 115.7839
372.0483, 117.0942
372.5304, 118.2737
373.0125, 118.4402
373.4947, 117.0486
373.9768, 116.2211
374.4589, 116.1428
374.9410, 116.4708
375.4231, 116.7263
375.9052, 117.0071
376.3874, 116.9416
376.8695, 116.3091
377.3516, 115.1225
377.8337, 114.2348
378.3158, 113.6846
378.7979, 113.2958
379.2801, 112.8034
379.7622, 112.1784
380.2443, 112.1201
380.7264, 113.0693
381.2085, 114.4172
381.6906, 114.2459
382.1728, 112.5235
382.6549, 110.9372
383.1370, 111.0333
383.6191, 112.3075
384.1012, 112.7192
384.5833, 111.9582
385.0655, 110.6566
385.5476, 109.4087
386.0297, 108.2655
386.5118, 107.4882
386.9939, 107.7519
387.4760, 108.2252
387.9582, 107.3750
388.4403, 105.1528
388.9224, 103.1923
389.4045, 103.1265
389.8866, 104.0848
390.3687, 104.8601
390.8509, 105.1503
391.3330, 105.0274
391.8151, 104.3732
392.2972, 103.2944
392.7793, 102.2146
393.2614, 101.1422
393.7436, 100.2794
394.2257, 99.79152
394.7078, 99.85054
395.1899, 99.94419
395.6720, 100.0754
396.1541, 100.0935
396.6363, 99.75669
397.1184, 98.55827
397.6005, 97.41158
398.0826, 96.58739
398.5647, 96.10720
399.0468, 95.89622
399.5290, 96.11172
400.0111, 96.50349
400.4932, 96.87899
400.9753, 97.44351
401.4574, 97.71464
401.9395, 97.62044
402.4217, 97.19537
402.9038, 96.56817
403.3859, 95.59431
403.8680, 94.63066
404.3501, 93.78698
404.8322, 92.96612
405.3144, 92.68288
405.7965, 93.11167
406.2786, 93.87283
406.7607, 94.40019
407.2428, 94.68604
407.7249, 94.77217
408.2071, 94.62297
408.6892, 94.27477
409.1713, 93.98086
409.6534, 93.75876
410.1355, 93.47612
410.6176, 92.71769
411.0998, 91.66244
411.5819, 91.48462
412.0640, 92.64397
412.5461, 94.38908
413.0282, 95.70242
413.5103, 96.57988
413.9925, 97.04372
414.4746, 96.95325
414.9567, 96.51256
415.4388, 95.93262
415.9209, 95.18623
416.4030, 94.66080
416.8852, 94.77527
417.3673, 95.30739
417.8494, 95.89088
418.3315, 96.62759
418.8136, 97.17529
419.2957, 97.18566
419.7779, 96.74300
420.2600, 96.39851
420.7421, 96.65520
421.2242, 96.95499
421.7063, 96.85786
422.1884, 96.02973
422.6706, 95.29124
423.1527, 94.71866
423.6348, 94.37930
424.1169, 94.39101
424.5990, 95.24055
425.0811, 95.99200
425.5633, 96.21533
426.0454, 95.75364
426.5275, 95.87928
427.0096, 97.17095
427.4917, 98.59103
427.9738, 99.25694
428.4560, 98.77483
428.9381, 98.33139
429.4202, 97.93764
429.9023, 97.69772
430.3844, 98.11779
430.8665, 99.50955
431.3487, 100.6656
431.8308, 100.8714
432.3129, 100.0766
432.7950, 99.40605
433.2771, 98.88962
433.7592, 98.45358
434.2414, 97.95365
434.7235, 97.40755
435.2056, 97.05400
435.6877, 97.14832
436.1698, 97.36052
436.6519, 96.77187
437.1341, 95.43629
437.6162, 94.31400
438.0983, 94.41662
438.5804, 95.13123
439.0625, 95.39339
439.5446, 94.97997
440.0268, 94.26081
440.5089, 93.35488
440.9910, 92.38860
441.4731, 91.63416
441.9552, 91.38271
442.4373, 91.23878
442.9195, 90.92422
443.4016, 90.43462
443.8837, 90.00602
444.3658, 89.66119
444.8479, 89.45539
445.3300, 89.43551
445.8122, 89.65520
446.2943, 89.99803
446.7764, 90.80733
447.2585, 91.74123
447.7406, 91.92256
448.2227, 90.65296
448.7049, 89.25587
449.1870, 88.08426
449.6691, 87.19068
450.1512, 86.24329
450.6333, 85.07765
451.1154, 84.05036
451.5976, 83.55020
452.0797, 83.73543
452.5618, 83.94315
453.0439, 84.08711
453.5260, 84.18275
454.0081, 84.31985
454.4903, 84.52490
454.9724, 84.60180
455.4545, 84.42539
455.9366, 84.01723
456.4187, 83.46521
456.9008, 82.74461
457.3830, 82.04906
457.8651, 81.61494
458.3472, 81.40056
458.8293, 81.28895
459.3114, 81.18198
459.7935, 81.21526
460.2757, 81.79379
460.7578, 82.76756
461.2399, 83.39719
461.7220, 82.75790
462.2041, 81.81475
462.6862, 81.59303
463.1684, 82.41727
463.6505, 83.15816
464.1326, 83.17514
464.6147, 82.78465
465.0968, 82.39275
465.5789, 82.11179
466.0611, 81.86543
466.5432, 81.71336
467.0253, 81.62888
467.5074, 81.32132
467.9895, 80.19555
468.4716, 79.29594
468.9538, 79.18933
469.4359, 80.46484
469.9180, 81.23991
470.4001, 81.41042
470.8822, 81.15696
471.3643, 80.68738
471.8465, 79.87515
472.3286, 79.20631
472.8107, 78.78786
473.2928, 78.61553
473.7749, 78.72257
474.2570, 79.16706
474.7392, 79.58012
475.2213, 79.61696
475.7034, 79.34325
476.1855, 79.22697
476.6676, 79.34427
477.1497, 79.53434
477.6319, 79.73453
478.1140, 79.85915
478.5961, 79.61253
479.0782, 78.22570
479.5603, 76.79581
480.0424, 76.84617
480.5246, 78.21116
481.0067, 79.53272
481.4888, 79.97461
481.9709, 79.98409
482.4530, 79.90038
482.9352, 79.68446
483.4173, 79.64108
483.8994, 79.96209
484.3815, 80.51601
484.8636, 81.09903
485.3457, 81.91936
485.8279, 82.50096
486.3100, 82.60054
486.7921, 82.21584
487.2742, 82.01313
487.7563, 81.95030
488.2384, 82.11277
488.7206, 82.63345
489.2027, 83.85509
489.6848, 84.47292
490.1669, 84.28441
490.6490, 83.69205
491.1311, 83.33228
491.6133, 83.24773
492.0954, 83.09596
492.5775, 82.62575
493.0596, 82.04738
493.5417, 82.19480
494.0238, 83.07108
494.5060, 84.23494
494.9881, 85.74374
495.4702, 87.26180
495.9523, 87.75182
496.4344, 86.84395
496.9165, 85.97097
497.3987, 87.12568
497.8808, 89.29049
498.3629, 90.52373
498.8450, 88.92086
499.3271, 87.05602
499.8092, 86.74664
500.2914, 87.73786
500.7735, 88.59476
501.2556, 88.46626
501.7377, 88.26216
502.2198, 88.61527
502.7019, 90.02197
503.1841, 90.88596
503.6662, 90.37672
504.1483, 89.49055
504.6304, 89.39958
505.1125, 90.59245
505.5946, 91.82020
506.0768, 93.14049
506.5589, 94.37491
507.0410, 94.51982
507.5231, 93.23296
508.0052, 91.81995
508.4873, 90.76519
508.9695, 90.07951
509.4516, 90.39111
509.9337, 91.87371
510.4158, 93.63651
510.8979, 94.60648
511.3800, 94.95273
511.8622, 95.44457
512.3443, 96.48027
512.8264, 97.47025
513.3085, 97.38013
513.7906, 96.50591
514.2728, 95.90871
514.7549, 96.34315
515.2370, 97.21132
515.7191, 98.13189
516.2012, 99.09233
516.6833, 99.76318
517.1655, 99.84634
517.6476, 99.66169
518.1297, 99.47597
518.6118, 98.99851
519.0939, 98.95583
519.5760, 99.95341
520.0582, 101.4359
520.5403, 102.0736
521.0224, 101.0401
521.5045, 100.3131
521.9866, 100.5454
522.4688, 101.7365
522.9509, 102.4919
523.4330, 102.6106
523.9151, 102.7677
524.3972, 103.6310
524.8793, 105.2183
525.3615, 106.3799
525.8436, 106.9862
526.3257, 107.2378
526.8078, 107.2650
527.2899, 107.1391
527.7720, 107.2090
528.2542, 107.7015
528.7363, 108.3909
529.2184, 109.1507
529.7005, 109.9083
530.1826, 110.3076
530.6647, 109.7248
531.1469, 108.9336
531.6290, 108.5913
532.1111, 108.8379
532.5932, 109.3137
533.0753, 110.1168
533.5574, 110.9771
534.0396, 111.6013
534.5217, 112.0267
535.0038, 112.1167
535.4859, 111.5767
535.9680, 110.6745
536.4501, 110.3002
536.9323, 110.8658
537.4144, 111.2481
537.8965, 110.8807
538.3786, 109.7316
538.8607, 109.3568
539.3428, 109.9364
539.8250, 110.7399
540.3071, 111.1473
540.7892, 111.1746
541.2713, 111.0236
541.7534, 110.7393
542.2355, 110.2380
542.7177, 109.0908
543.1998, 107.5652
543.6819, 106.5466
544.1640, 106.9741
544.6461, 107.7300
545.1282, 107.8178
545.6104, 107.2943
546.0925, 106.5428
546.5746, 105.4530
547.0567, 104.4242
547.5388, 103.7353
548.0209, 103.5050
548.5031, 103.3590
548.9852, 103.3376
549.4673, 103.3051
549.9494, 103.1079
550.4315, 102.5246
550.9136, 102.1411
551.3958, 102.2039
551.8779, 102.4563
552.3600, 102.0274
552.8421, 100.6682
553.3242, 99.49853
553.8063, 99.12586
554.2885, 99.40951
554.7706, 99.13206
555.2527, 98.23970
555.7348, 97.35916
556.2169, 97.18249
556.6990, 97.43869
557.1812, 97.38916
557.6633, 96.86358
558.1454, 96.23389
558.6275, 95.89622
559.1096, 95.70222
559.5917, 95.38187
560.0739, 94.62493
560.5560, 93.91215
561.0381, 93.48132
561.5202, 93.30202
562.0023, 93.21242
562.4844, 93.66348
562.9666, 93.77042
563.4487, 92.90812
563.9308, 90.71944
564.4129, 89.39418
564.8950, 89.35491
565.3771, 89.71589
565.8593, 89.76504
566.3414, 89.44101
566.8235, 89.05153
567.3056, 88.60487
567.7877, 88.13147
568.2698, 87.64969
568.7520, 87.16286
569.2341, 86.79540
569.7162, 86.63468
570.1983, 86.59302
570.6804, 86.50835
571.1625, 86.39010
571.6447, 86.29469
572.1268, 86.53102
572.6089, 86.65305
573.0910, 86.11268
573.5731, 84.75728
574.0552, 83.45317
574.5374, 82.30013
575.0195, 81.51934
575.5016, 81.31015
575.9837, 82.48750
576.4658, 83.27446
576.9479, 83.44992
577.4301, 83.15200
577.9122, 82.59168
578.3943, 81.51506
578.8764, 80.70091
579.3585, 80.57948
579.8406, 80.94632
580.3228, 80.12926
580.8049, 77.92480
581.2870, 75.85756
581.7691, 75.00926
582.2512, 75.15770
582.7333, 75.56869
583.2155, 76.26461
583.6975, 76.59999
584.1796, 75.72891
584.6617, 74.14787
585.1439, 72.63854
585.6260, 71.30030
586.1081, 70.29263
586.5902, 69.85036
587.0723, 69.79237
587.5544, 69.77389
588.0366, 70.02087
588.5187, 69.95778
589.0008, 69.00443
589.4829, 67.26447
589.9650, 66.66988
590.4471, 68.04074
590.9293, 69.49715
591.4114, 70.20901
591.8935, 70.14885
592.3756, 69.43546
592.8577, 67.84206
593.3398, 66.20135
593.8220, 65.40627
594.3041, 65.37222
594.7862, 65.48609
595.2683, 65.70554
595.7504, 65.85612
596.2325, 65.51659
596.7147, 64.91464
597.1968, 64.64472
597.6789, 65.27776
598.1610, 66.07630
598.6431, 66.61558
599.1252, 66.88869
599.6074, 66.90019
600.0895, 66.39203
600.5716, 65.84631
601.0537, 65.41957
601.5358, 65.06927
602.0179, 65.20301
602.5001, 66.30933
602.9822, 67.41771
603.4643, 67.77448
603.9464, 67.18910
604.4285, 66.56886
604.9106, 65.88670
605.3928, 65.32333
605.8749, 65.14912
606.3570, 65.35307
606.8391, 65.83221
607.3212, 66.75520
607.8033, 67.67827
608.2855, 67.87714
608.7676, 67.47493
609.2497, 66.93276
609.7318, 66.18155
610.2139, 65.63041
610.6960, 65.80434
611.1782, 66.68785
611.6603, 67.28087
612.1424, 66.71097
612.6245, 66.12517
613.1066, 66.29739
613.5887, 67.80103
614.0709, 68.87112
614.5530, 69.40795
615.0351, 69.61253
615.5172, 69.65598
615.9993, 69.48721
616.4814, 69.38588
616.9636, 69.37899
617.4457, 69.47676
617.9278, 69.92897
618.4099, 70.65096
618.8920, 70.76903
619.3741, 69.24898
619.8563, 67.40661
620.3384, 67.45957
620.8205, 69.08179
621.3026, 70.64469
621.7847, 71.38748
622.2668, 71.58590
622.7490, 71.21754
623.2311, 70.20958
623.7132, 69.58768
624.1953, 69.72876
624.6774, 70.28388
625.1595, 71.02750
625.6417, 72.09661
626.1238, 73.12697
626.6059, 74.34254
627.0880, 75.26831
627.5701, 74.94472
628.0522, 73.15725
628.5344, 72.30482
629.0165, 73.17137
629.4986, 74.81949
629.9807, 75.45387
630.4628, 75.21303
630.9449, 74.83950
631.4271, 74.34453
631.9092, 74.13187
632.3913, 74.92226
632.8734, 76.54270
633.3555, 77.88187
633.8376, 78.50426
634.3198, 78.59273
634.8019, 78.00499
635.2840, 76.44185
635.7661, 75.75675
636.2482, 76.80478
636.7303, 78.22079
637.2125, 79.07739
637.6946, 79.15604
638.1767, 79.26962
638.6588, 79.35698
639.1409, 79.64405
639.6230, 80.69939
640.1052, 82.44783
640.5873, 83.62328
641.0694, 83.77132
641.5515, 83.41225
642.0336, 83.08916
642.5157, 82.87392
642.9979, 82.97648
643.4800, 83.83956
643.9621, 84.77563
644.4442, 85.17498
644.9263, 85.15083
645.4084, 85.39902
645.8906, 86.43250
646.3727, 87.53309
646.8548, 88.29085
647.3369, 88.60442
647.8190, 89.31126
648.3011, 90.54301
648.7833, 91.96310
649.2654, 93.38232
649.7475, 94.84026
650.2296, 95.97733
650.7117, 96.74809
651.1938, 97.31725
651.6760, 97.69698
652.1581, 98.01723
652.6402, 98.70313
653.1223, 99.98299
653.6044, 101.4121
654.0865, 102.5162
654.5687, 103.5103
655.0508, 104.8092
655.5329, 107.0664
656.0150, 109.1621
656.4971, 110.5916
656.9792, 111.4699
657.4614, 112.4268
657.9435, 113.3127
658.4256, 114.5270
658.9077, 116.2669
659.3898, 118.5098
659.8719, 120.7305
660.3541, 122.9367
660.8362, 125.0727
661.3183, 127.1833
661.8004, 129.2025
662.2825, 130.9820
662.7646, 132.5121
663.2468, 133.8278
663.7289, 134.6409
664.2110, 135.3842
664.6931, 136.7151
665.1752, 139.0806
665.6573, 141.2444
666.1395, 142.7370
666.6216, 143.7197
667.1037, 144.3907
667.5858, 144.4652
668.0679, 144.6257
668.5500, 144.9473
669.0322, 145.3723
669.5143, 145.8498
669.9964, 146.4746
670.4785, 146.7070
670.9606, 146.3932
671.4427, 145.5625
671.9249, 143.9720
672.4070, 141.7509
672.8891, 140.0024
