##NAMES=Analcime
##RRUFFID=R050094
##IDEAL CHEMISTRY=NaAlSi_2_O_6_&#183;H_2_O
##LOCALITY=Springfield, Oregon, USA
##OWNER=RRUFF
##SOURCE=Rock Currier
##DESCRIPTION=Clear colorless single crystals associated with gmelinite
##STATUS=The identification of this mineral has been confirmed by X-ray diffraction and chemical analysis
##URL=rruff.info/R050094
##MEASURED CHEMISTRY=(Na_0.99_[box]_0.01_)_Σ=1_(Si_2.01_Al_0.99_)O_6_·H_2_O
130.6121, 3334.812
131.0942, 3332.332
131.5764, 3330.048
132.0585, 3330.138
132.5406, 3331.996
133.0227, 3333.531
133.5048, 3333.933
133.9869, 3334.879
134.4691, 3334.692
134.9512, 3335.299
135.4333, 3341.385
135.9154, 3357.491
136.3975, 3382.144
136.8796, 3390.170
137.3618, 3372.071
137.8439, 3349.886
138.3260, 3332.308
138.8081, 3319.901
139.2902, 3311.684
139.7723, 3309.429
140.2545, 3312.537
140.7366, 3306.236
141.2187, 3285.442
141.7008, 3256.801
142.1829, 3224.734
142.6650, 3188.164
143.1471, 3155.461
143.6293, 3138.218
144.1114, 3133.284
144.5935, 3127.731
145.0756, 3116.885
145.5577, 3101.424
146.0398, 3083.676
146.5220, 3064.869
147.0041, 3042.032
147.4862, 3010.558
147.9683, 2971.125
148.4504, 2934.297
148.9325, 2914.039
149.4147, 2912.957
149.8968, 2899.444
150.3789, 2854.710
150.8610, 2803.298
151.3431, 2756.387
151.8252, 2716.714
152.3074, 2682.467
152.7895, 2650.656
153.2716, 2618.810
153.7537, 2595.526
154.2358, 2586.365
154.7179, 2581.947
155.2001, 2574.733
155.6822, 2561.461
156.1643, 2543.322
156.6464, 2523.979
157.1285, 2502.281
157.6106, 2480.247
158.0928, 2455.888
158.5749, 2431.724
159.0570, 2411.901
159.5391, 2399.399
160.0212, 2393.063
160.5033, 2380.353
160.9855, 2355.619
161.4676, 2331.266
161.9497, 2308.125
162.4318, 2287.955
162.9139, 2274.912
163.3960, 2273.156
163.8782, 2283.328
164.3603, 2291.022
164.8424, 2301.589
165.3245, 2306.166
165.8066, 2297.477
166.2887, 2275.332
166.7709, 2246.342
167.2530, 2212.147
167.7351, 2173.341
168.2172, 2148.940
168.6993, 2153.829
169.1814, 2169.206
169.6636, 2171.646
170.1457, 2156.482
170.6278, 2133.995
171.1099, 2110.694
171.5920, 2087.058
172.0741, 2069.909
172.5563, 2066.043
173.0384, 2071.072
173.5205, 2072.551
174.0026, 2068.196
174.4847, 2059.914
174.9668, 2048.568
175.4490, 2034.461
175.9311, 2021.785
176.4132, 2012.844
176.8953, 2007.597
177.3774, 2006.259
177.8595, 2012.232
178.3417, 2019.735
178.8238, 2025.582
179.3059, 2029.393
179.7880, 2031.661
180.2701, 2034.031
180.7522, 2038.075
181.2344, 2035.327
181.7165, 2014.251
182.1986, 1992.696
182.6807, 1982.763
183.1628, 1987.585
183.6449, 1999.854
184.1271, 2006.567
184.6092, 2001.173
185.0913, 2003.663
185.5734, 2021.771
186.0555, 2044.247
186.5376, 2062.297
187.0198, 2072.338
187.5019, 2075.620
187.9840, 2075.215
188.4661, 2064.833
188.9482, 2058.719
189.4303, 2064.550
189.9125, 2073.134
190.3946, 2072.611
190.8767, 2056.511
191.3588, 2028.896
191.8409, 2008.449
192.3230, 1993.732
192.8052, 1987.779
193.2873, 1998.427
193.7694, 2017.976
194.2515, 2032.790
194.7336, 2034.050
195.2157, 2023.685
195.6979, 2021.029
196.1800, 2035.371
196.6621, 2046.121
197.1442, 2041.444
197.6263, 2025.857
198.1084, 2014.663
198.5906, 2020.500
199.0727, 2040.964
199.5548, 2045.487
200.0369, 2020.860
200.5190, 1993.270
201.0011, 1977.723
201.4833, 1974.010
201.9654, 1973.540
202.4475, 1970.425
202.9296, 1964.979
203.4117, 1960.815
203.8938, 1962.574
204.3760, 1962.847
204.8581, 1953.320
205.3402, 1933.086
205.8223, 1911.674
206.3044, 1896.274
206.7865, 1885.844
207.2687, 1877.077
207.7508, 1871.121
208.2329, 1865.859
208.7150, 1857.692
209.1971, 1845.498
209.6792, 1834.010
210.1614, 1828.070
210.6435, 1825.831
211.1256, 1823.427
211.6077, 1819.786
212.0898, 1814.981
212.5719, 1810.291
213.0541, 1808.440
213.5362, 1800.735
214.0183, 1776.045
214.5004, 1740.781
214.9825, 1710.943
215.4646, 1696.269
215.9468, 1694.328
216.4289, 1696.277
216.9110, 1706.111
217.3931, 1713.750
217.8752, 1710.998
218.3573, 1701.240
218.8395, 1694.218
219.3216, 1700.733
219.8037, 1719.030
220.2858, 1726.298
220.7679, 1715.472
221.2500, 1699.845
221.7322, 1681.831
222.2143, 1663.667
222.6964, 1650.640
223.1785, 1650.790
223.6606, 1665.149
224.1427, 1669.266
224.6249, 1651.178
225.1070, 1632.641
225.5891, 1622.632
226.0712, 1620.084
226.5533, 1618.784
227.0354, 1614.271
227.5176, 1607.141
227.9997, 1592.509
228.4818, 1553.341
228.9639, 1520.904
229.4460, 1514.229
229.9281, 1529.202
230.4103, 1545.497
230.8924, 1539.352
231.3745, 1501.705
231.8566, 1482.919
232.3387, 1497.000
232.8208, 1516.478
233.3030, 1534.257
233.7851, 1546.891
234.2672, 1549.756
234.7493, 1535.612
235.2314, 1496.748
235.7135, 1469.034
236.1957, 1454.291
236.6778, 1446.877
237.1599, 1449.480
237.6420, 1459.121
238.1241, 1465.470
238.6062, 1455.357
239.0884, 1420.889
239.5705, 1395.757
240.0526, 1381.451
240.5347, 1373.412
241.0168, 1372.490
241.4989, 1376.913
241.9811, 1380.395
242.4632, 1375.396
242.9453, 1358.699
243.4274, 1342.500
243.9095, 1322.351
244.3916, 1305.844
244.8738, 1300.379
245.3559, 1305.646
245.8380, 1312.774
246.3201, 1311.208
246.8022, 1297.081
247.2843, 1286.030
247.7665, 1276.624
248.2486, 1270.838
248.7307, 1273.315
249.2128, 1283.282
249.6949, 1291.730
250.1770, 1287.131
250.6592, 1262.436
251.1413, 1250.093
251.6234, 1260.695
252.1055, 1275.722
252.5876, 1283.325
253.0697, 1281.340
253.5519, 1271.184
254.0340, 1252.342
254.5161, 1220.053
254.9982, 1201.045
255.4803, 1203.425
255.9624, 1213.413
256.4445, 1223.459
256.9267, 1231.712
257.4088, 1234.853
257.8909, 1228.596
258.3730, 1210.345
258.8551, 1193.745
259.3372, 1171.728
259.8194, 1155.935
260.3015, 1159.776
260.7836, 1183.762
261.2657, 1212.087
261.7478, 1230.340
262.2299, 1236.776
262.7121, 1239.196
263.1942, 1237.081
263.6763, 1231.361
264.1584, 1220.533
264.6405, 1204.937
265.1227, 1190.838
265.6048, 1184.338
266.0869, 1186.218
266.5690, 1187.936
267.0511, 1188.658
267.5332, 1189.615
268.0154, 1193.201
268.4975, 1199.285
268.9796, 1203.040
269.4617, 1199.928
269.9438, 1189.681
270.4259, 1179.950
270.9081, 1168.743
271.3902, 1159.615
271.8723, 1156.640
272.3544, 1159.671
272.8365, 1163.368
273.3186, 1163.998
273.8008, 1161.530
274.2829, 1158.599
274.7650, 1154.094
275.2471, 1149.993
275.7292, 1146.201
276.2113, 1143.149
276.6935, 1145.486
277.1756, 1159.470
277.6577, 1182.276
278.1398, 1194.706
278.6219, 1189.705
279.1040, 1180.079
279.5862, 1173.292
280.0683, 1169.361
280.5504, 1167.163
281.0325, 1165.544
281.5146, 1165.543
281.9967, 1169.710
282.4789, 1183.150
282.9610, 1196.039
283.4431, 1200.124
283.9252, 1197.111
284.4073, 1196.444
284.8894, 1202.455
285.3716, 1215.088
285.8537, 1232.325
286.3358, 1257.860
286.8179, 1283.092
287.3000, 1301.795
287.7821, 1315.672
288.2643, 1331.081
288.7464, 1350.914
289.2285, 1374.533
289.7106, 1399.865
290.1927, 1427.560
290.6748, 1455.491
291.1570, 1481.491
291.6391, 1506.767
292.1212, 1535.164
292.6033, 1568.995
293.0854, 1605.727
293.5675, 1639.510
294.0497, 1668.501
294.5318, 1700.454
295.0139, 1740.840
295.4960, 1786.486
295.9781, 1831.924
296.4602, 1877.518
296.9424, 1917.676
297.4245, 1939.545
297.9066, 1941.421
298.3887, 1941.235
298.8708, 1949.644
299.3529, 1958.709
299.8351, 1953.995
300.3172, 1930.884
300.7993, 1896.134
301.2814, 1856.816
301.7635, 1813.255
302.2456, 1767.340
302.7278, 1713.604
303.2099, 1660.052
303.6920, 1620.165
304.1741, 1597.521
304.6562, 1579.630
305.1383, 1551.343
305.6205, 1512.015
306.1026, 1476.571
306.5847, 1450.433
307.0668, 1427.236
307.5489, 1398.174
308.0310, 1362.086
308.5132, 1329.868
308.9953, 1313.203
309.4774, 1312.971
309.9595, 1309.163
310.4416, 1297.418
310.9237, 1284.402
311.4059, 1275.455
311.8880, 1270.703
312.3701, 1266.730
312.8522, 1260.028
313.3343, 1251.424
313.8164, 1249.541
314.2986, 1263.943
314.7807, 1276.294
315.2628, 1272.421
315.7449, 1255.807
316.2270, 1242.688
316.7091, 1244.599
317.1913, 1257.873
317.6734, 1260.727
318.1555, 1243.511
318.6376, 1227.936
319.1197, 1226.636
319.6018, 1233.324
320.0840, 1231.409
320.5661, 1211.052
321.0482, 1179.997
321.5303, 1164.804
322.0124, 1169.266
322.4945, 1181.030
322.9767, 1203.172
323.4588, 1229.771
323.9409, 1253.293
324.4230, 1271.245
324.9051, 1282.417
325.3872, 1283.709
325.8694, 1268.358
326.3515, 1254.958
326.8336, 1241.678
327.3157, 1232.506
327.7978, 1234.199
328.2799, 1247.959
328.7621, 1264.661
329.2442, 1271.357
329.7263, 1261.232
330.2084, 1257.836
330.6905, 1265.500
331.1726, 1276.414
331.6548, 1285.609
332.1369, 1292.269
332.6190, 1297.997
333.1011, 1304.863
333.5832, 1314.010
334.0653, 1317.125
334.5475, 1306.005
335.0296, 1297.489
335.5117, 1303.838
335.9938, 1320.917
336.4759, 1334.109
336.9580, 1330.891
337.4402, 1311.685
337.9223, 1304.474
338.4044, 1318.706
338.8865, 1334.196
339.3686, 1347.562
339.8507, 1358.438
340.3329, 1366.819
340.8150, 1372.672
341.2971, 1376.369
341.7792, 1379.555
342.2613, 1382.408
342.7434, 1384.422
343.2256, 1385.003
343.7077, 1384.966
344.1898, 1384.575
344.6719, 1383.984
345.1540, 1384.468
345.6361, 1389.289
346.1183, 1402.959
346.6004, 1412.062
347.0825, 1410.522
347.5646, 1408.308
348.0467, 1414.479
348.5288, 1429.972
349.0110, 1446.589
349.4931, 1452.188
349.9752, 1442.214
350.4573, 1439.498
350.9394, 1449.770
351.4215, 1463.169
351.9037, 1478.404
352.3858, 1493.552
352.8679, 1504.005
353.3500, 1502.844
353.8321, 1490.656
354.3142, 1488.048
354.7964, 1503.675
355.2785, 1518.817
355.7606, 1522.879
356.2427, 1521.195
356.7248, 1525.154
357.2069, 1543.866
357.6891, 1570.893
358.1712, 1587.879
358.6533, 1592.969
359.1354, 1591.887
359.6175, 1579.765
360.0996, 1565.770
360.5818, 1561.605
361.0639, 1573.073
361.5460, 1590.339
362.0281, 1598.218
362.5102, 1594.946
362.9923, 1598.849
363.4745, 1622.726
363.9566, 1652.113
364.4387, 1672.355
364.9208, 1681.204
365.4029, 1687.253
365.8850, 1695.644
366.3672, 1706.344
366.8493, 1719.281
367.3314, 1734.064
367.8135, 1751.801
368.2956, 1776.661
368.7777, 1807.859
369.2599, 1832.425
369.7420, 1839.194
370.2241, 1837.438
370.7062, 1842.270
371.1883, 1855.528
371.6704, 1874.489
372.1526, 1900.219
372.6347, 1931.075
373.1168, 1957.237
373.5989, 1978.879
374.0810, 1994.449
374.5631, 1997.320
375.0453, 1989.769
375.5274, 1989.813
376.0095, 2010.298
376.4916, 2046.185
376.9737, 2074.571
377.4558, 2086.377
377.9380, 2102.060
378.4201, 2135.757
378.9022, 2177.921
379.3843, 2208.445
379.8664, 2218.535
380.3485, 2217.616
380.8307, 2224.844
381.3128, 2244.540
381.7949, 2264.610
382.2770, 2284.130
382.7591, 2303.857
383.2412, 2325.931
383.7234, 2350.168
384.2055, 2371.754
384.6876, 2384.295
385.1697, 2384.725
385.6518, 2389.249
386.1339, 2400.011
386.6161, 2412.109
387.0982, 2425.607
387.5803, 2438.668
388.0624, 2446.627
388.5445, 2445.141
389.0266, 2435.659
389.5088, 2434.081
389.9909, 2455.015
390.4730, 2467.092
390.9551, 2457.882
391.4372, 2439.245
391.9193, 2426.882
392.4015, 2427.757
392.8836, 2434.899
393.3657, 2434.409
393.8478, 2424.927
394.3299, 2410.719
394.8120, 2390.923
395.2942, 2367.983
395.7763, 2344.201
396.2584, 2319.557
396.7405, 2291.079
397.2226, 2253.648
397.7047, 2207.329
398.1869, 2163.403
398.6690, 2118.495
399.1511, 2081.740
399.6332, 2061.617
400.1153, 2053.603
400.5974, 2044.570
401.0796, 2027.855
401.5617, 2005.431
402.0438, 1982.006
402.5259, 1958.334
403.0080, 1930.624
403.4901, 1891.253
403.9723, 1847.999
404.4544, 1813.041
404.9365, 1789.514
405.4186, 1772.796
405.9007, 1764.544
406.3828, 1762.095
406.8650, 1749.629
407.3471, 1718.704
407.8292, 1678.868
408.3113, 1644.008
408.7934, 1613.269
409.2755, 1589.544
409.7577, 1579.873
410.2398, 1575.559
410.7219, 1565.169
411.2040, 1546.665
411.6861, 1523.054
412.1682, 1494.741
412.6504, 1460.343
413.1325, 1440.685
413.6146, 1450.741
414.0967, 1461.187
414.5788, 1454.591
415.0609, 1434.108
415.5431, 1411.754
416.0252, 1394.616
416.5073, 1381.825
416.9894, 1368.979
417.4715, 1357.635
417.9536, 1344.220
418.4358, 1322.932
418.9179, 1301.953
419.4000, 1291.117
419.8821, 1293.008
420.3642, 1300.720
420.8463, 1304.151
421.3285, 1302.430
421.8106, 1298.633
422.2927, 1291.194
422.7748, 1283.193
423.2569, 1277.098
423.7390, 1272.023
424.2212, 1264.292
424.7033, 1248.815
425.1854, 1228.103
425.6675, 1219.084
426.1496, 1231.325
426.6317, 1239.037
427.1139, 1223.870
427.5960, 1201.936
428.0781, 1195.607
428.5602, 1215.949
429.0423, 1244.561
429.5244, 1259.478
430.0066, 1260.517
430.4887, 1255.945
430.9708, 1243.424
431.4529, 1230.548
431.9350, 1225.267
432.4171, 1227.761
432.8993, 1234.038
433.3814, 1246.393
433.8635, 1260.228
434.3456, 1266.325
434.8277, 1262.868
435.3098, 1256.524
435.7920, 1251.501
436.2741, 1248.188
436.7562, 1248.619
437.2383, 1256.476
437.7204, 1264.764
438.2025, 1268.548
438.6847, 1269.286
439.1668, 1271.410
439.6489, 1277.060
440.1310, 1285.534
440.6131, 1295.016
441.0952, 1308.086
441.5774, 1318.580
442.0595, 1324.833
442.5416, 1329.250
443.0237, 1331.567
443.5058, 1332.986
443.9879, 1339.263
444.4701, 1358.789
444.9522, 1394.987
445.4343, 1419.398
445.9164, 1414.296
446.3985, 1415.164
446.8806, 1440.931
447.3628, 1479.875
447.8449, 1508.956
448.3270, 1514.461
448.8091, 1505.940
449.2912, 1507.098
449.7733, 1520.521
450.2555, 1536.511
450.7375, 1555.431
451.2197, 1574.176
451.7018, 1588.245
452.1839, 1596.967
452.6660, 1610.170
453.1481, 1635.415
453.6302, 1671.842
454.1124, 1717.393
454.5945, 1777.349
455.0766, 1835.116
455.5587, 1870.123
456.0408, 1890.573
456.5229, 1920.473
457.0051, 1971.396
457.4872, 2029.574
457.9693, 2083.043
458.4514, 2132.896
458.9335, 2183.567
459.4156, 2235.010
459.8978, 2291.254
460.3799, 2365.211
460.8620, 2466.316
461.3441, 2563.707
461.8262, 2648.847
462.3083, 2729.483
462.7905, 2811.082
463.2726, 2895.700
463.7547, 2985.405
464.2368, 3082.384
464.7189, 3185.995
465.2010, 3301.520
465.6832, 3427.734
466.1653, 3565.249
466.6474, 3717.428
467.1295, 3879.986
467.6116, 4047.544
468.0938, 4215.360
468.5759, 4389.700
469.0580, 4584.880
469.5401, 4809.494
470.0222, 5032.255
470.5043, 5236.647
470.9865, 5444.737
471.4686, 5674.062
471.9507, 5923.899
472.4328, 6180.128
472.9149, 6425.133
473.3970, 6666.385
473.8792, 6934.478
474.3613, 7237.808
474.8434, 7546.197
475.3255, 7844.104
475.8076, 8133.274
476.2897, 8420.829
476.7719, 8713.783
477.2540, 8997.622
477.7361, 9260.975
478.2182, 9507.015
478.7003, 9747.472
479.1824, 9986.937
479.6646, 10216.92
480.1467, 10424.58
480.6288, 10616.08
481.1109, 10762.88
481.5930, 10864.85
482.0751, 10919.83
482.5573, 10919.01
483.0394, 10867.89
483.5215, 10785.49
484.0036, 10685.41
484.4857, 10565.95
484.9678, 10416.53
485.4500, 10242.39
485.9321, 10026.49
486.4142, 9747.175
486.8963, 9438.482
487.3784, 9131.484
487.8605, 8835.441
488.3427, 8537.964
488.8248, 8220.854
489.3069, 7883.089
489.7890, 7550.953
490.2711, 7221.342
490.7532, 6903.297
491.2354, 6596.358
491.7175, 6301.835
492.1996, 6017.357
492.6817, 5743.254
493.1638, 5479.828
493.6459, 5223.635
494.1281, 4974.971
494.6102, 4745.395
495.0923, 4541.374
495.5744, 4356.125
496.0565, 4179.048
496.5386, 4008.721
497.0208, 3846.001
497.5029, 3693.249
497.9850, 3546.757
498.4671, 3399.276
498.9492, 3252.345
499.4313, 3118.215
499.9135, 3008.766
500.3956, 2922.405
500.8777, 2832.148
501.3598, 2727.452
501.8419, 2632.112
502.3240, 2556.828
502.8062, 2490.196
503.2883, 2418.042
503.7704, 2336.680
504.2525, 2254.245
504.7346, 2179.219
505.2167, 2111.843
505.6989, 2053.428
506.1810, 2012.587
506.6631, 1971.141
507.1452, 1917.188
507.6273, 1856.354
508.1094, 1801.282
508.5916, 1758.568
509.0737, 1722.564
509.5558, 1686.202
510.0379, 1649.696
510.5200, 1615.907
511.0021, 1587.461
511.4843, 1560.293
511.9664, 1526.842
512.4485, 1485.762
512.9306, 1448.982
513.4127, 1419.542
513.8948, 1395.916
514.3770, 1381.454
514.8591, 1373.679
515.3412, 1358.340
515.8233, 1323.837
516.3054, 1274.191
516.7875, 1236.194
517.2697, 1216.568
517.7518, 1200.646
518.2339, 1189.940
518.7160, 1180.623
519.1981, 1167.910
519.6802, 1151.395
520.1624, 1136.318
520.6445, 1130.740
521.1266, 1135.120
521.6087, 1129.764
522.0908, 1109.348
522.5729, 1086.833
523.0551, 1066.686
523.5372, 1048.729
524.0193, 1032.620
524.5014, 1017.712
524.9835, 1005.714
525.4656, 1001.666
525.9478, 1003.241
526.4299, 996.1830
526.9120, 973.6991
527.3941, 949.8436
527.8762, 944.3817
528.3583, 958.3980
528.8405, 961.9719
529.3226, 943.5212
529.8047, 921.5995
530.2868, 906.0966
530.7689, 897.1661
531.2510, 893.7584
531.7332, 895.7138
532.2153, 900.4623
532.6974, 901.9897
533.1795, 901.5370
533.6616, 895.1201
534.1437, 876.9518
534.6259, 858.4332
535.1080, 847.6807
535.5901, 843.4840
536.0722, 838.9833
536.5543, 828.4786
537.0364, 814.5575
537.5186, 805.9545
538.0007, 804.0281
538.4828, 802.1062
538.9649, 796.3572
539.4470, 790.2521
539.9291, 788.2990
540.4113, 791.3856
540.8934, 794.3022
541.3755, 798.4093
541.8576, 799.2297
542.3397, 786.0979
542.8218, 758.4199
543.3040, 732.7197
543.7861, 722.0420
544.2682, 724.2779
544.7503, 721.4954
545.2324, 705.0640
545.7145, 695.0403
546.1967, 700.5910
546.6788, 711.7896
547.1609, 718.4426
547.6430, 718.1176
548.1251, 714.1860
548.6072, 709.5672
549.0894, 704.1580
549.5715, 701.7736
550.0536, 707.9800
550.5357, 708.9789
551.0178, 695.6747
551.4999, 676.2714
551.9821, 661.8212
552.4642, 655.8521
552.9463, 653.9043
553.4284, 654.1835
553.9105, 655.4635
554.3926, 650.7839
554.8748, 636.4629
555.3569, 625.3260
555.8390, 632.5930
556.3211, 657.8152
556.8032, 671.5479
557.2853, 665.0314
557.7675, 655.6008
558.2496, 651.7634
558.7317, 650.4306
559.2138, 645.2460
559.6959, 634.0573
560.1780, 620.9028
560.6602, 611.5067
561.1423, 605.6524
561.6244, 604.4459
562.1065, 613.7012
562.5886, 622.0171
563.0707, 626.6384
563.5529, 627.3110
564.0350, 623.0615
564.5171, 611.8624
564.9992, 600.3813
565.4813, 599.4024
565.9634, 608.1184
566.4456, 613.2443
566.9277, 611.1743
567.4098, 605.8741
567.8919, 601.6064
568.3740, 598.1603
568.8561, 592.3591
569.3383, 577.8781
569.8204, 566.2597
570.3025, 568.0859
570.7846, 578.5826
571.2667, 585.7383
571.7488, 584.5150
572.2310, 579.0906
572.7131, 576.6780
573.1952, 577.5966
573.6773, 580.7790
574.1594, 592.2387
574.6415, 599.9130
575.1237, 594.4250
575.6058, 581.5103
576.0879, 573.9063
576.5700, 578.9020
577.0521, 589.0494
577.5342, 592.7215
578.0164, 589.8679
578.4985, 587.3875
578.9806, 587.3936
579.4627, 587.4905
579.9448, 583.5645
580.4269, 576.3166
580.9091, 573.4827
581.3912, 582.0313
581.8733, 590.4620
582.3554, 588.7119
582.8375, 580.4875
583.3196, 575.9510
583.8018, 579.4213
584.2839, 586.9170
584.7660, 591.7340
585.2481, 593.4835
585.7302, 593.5172
586.2123, 591.9056
586.6945, 588.6166
587.1766, 580.5986
587.6587, 571.2903
588.1408, 567.9114
588.6229, 575.0349
589.1050, 585.3234
589.5872, 586.0291
590.0693, 577.7479
590.5514, 578.1655
591.0335, 595.6495
591.5156, 614.1547
591.9977, 614.4271
592.4799, 599.3655
592.9620, 590.5964
593.4441, 597.6642
593.9262, 605.2047
594.4083, 603.1526
594.8904, 595.2134
595.3726, 588.9795
595.8547, 587.1553
596.3368, 587.7367
596.8189, 588.1219
597.3010, 588.5605
597.7831, 587.5937
598.2653, 581.9883
598.7474, 578.4136
599.2295, 581.3808
599.7116, 587.0459
600.1937, 588.3472
600.6758, 581.6718
601.1580, 576.0244
601.6401, 585.9089
602.1222, 606.6190
602.6043, 613.0467
603.0864, 598.4688
603.5685, 579.5585
604.0507, 567.6451
604.5328, 563.4569
605.0149, 567.4192
605.4970, 592.2425
605.9791, 610.2698
606.4612, 605.0526
606.9434, 590.6639
607.4255, 585.2978
607.9076, 592.8564
608.3897, 605.1837
608.8718, 614.4514
609.3539, 620.6457
609.8361, 622.8339
610.3182, 619.4431
610.8003, 614.5429
611.2824, 609.7610
611.7645, 604.1345
612.2466, 595.3736
612.7288, 582.7202
613.2109, 572.6639
613.6930, 569.7066
614.1751, 572.1887
614.6572, 579.3910
615.1393, 590.9512
615.6215, 598.1089
616.1036, 593.9155
616.5857, 582.4432
617.0678, 578.4995
617.5499, 593.7400
618.0320, 600.2512
618.5142, 587.4117
618.9963, 572.7139
619.4784, 571.3317
619.9605, 581.3384
620.4426, 590.5088
620.9247, 590.7585
621.4069, 583.8829
621.8890, 571.6730
622.3711, 551.4746
622.8532, 542.1820
623.3353, 554.4103
623.8174, 573.8486
624.2996, 588.2554
624.7817, 597.6045
625.2638, 599.0453
625.7459, 583.7880
626.2280, 567.3061
626.7101, 561.4819
