##NAMES=Analcime
##RRUFFID=R040128
##IDEAL CHEMISTRY=NaAlSi_2_O_6_&#183;H_2_O
##LOCALITY=Mont Saint-Hilaire, Rouville County, Quebec, Canada
##OWNER=RRUFF
##SOURCE=Bob Downs
##DESCRIPTION=White trapezohedra associated with black arfvedsonite, R040127
##STATUS=The identification of this mineral has been confirmed by X-ray diffraction and chemical analysis
##URL=rruff.info/R040128
##MEASURED CHEMISTRY=Na_0.93_(Si_2.04_Al_0.99_)O_6_Â·H_2_O
131.1439, 243.5052
131.6260, 251.0011
132.1081, 254.1921
132.5902, 262.6691
133.0723, 283.4019
133.5544, 302.5721
134.0366, 319.3541
134.5187, 332.6058
135.0008, 340.2251
135.4829, 340.1353
135.9650, 332.8769
136.4471, 330.1742
136.9293, 334.4163
137.4114, 340.2469
137.8935, 346.3416
138.3756, 352.7682
138.8577, 360.0447
139.3398, 368.4706
139.8220, 378.0721
140.3041, 389.6621
140.7862, 406.0558
141.2683, 421.3234
141.7504, 430.8552
142.2325, 436.2458
142.7147, 443.3933
143.1968, 457.0172
143.6789, 477.3644
144.1610, 497.9749
144.6431, 521.6264
145.1252, 543.1528
145.6074, 556.7669
146.0895, 563.8139
146.5716, 573.6365
147.0537, 594.9543
147.5358, 627.9454
148.0179, 654.3164
148.5001, 671.3079
148.9822, 683.8925
149.4643, 695.6453
149.9464, 706.7957
150.4285, 715.4111
150.9106, 718.9672
151.3928, 717.8868
151.8749, 718.5943
152.3570, 722.4183
152.8391, 727.5861
153.3212, 734.0899
153.8033, 742.0728
154.2855, 746.6709
154.7676, 742.6212
155.2497, 731.4016
155.7318, 719.5396
156.2139, 706.1341
156.6960, 693.4882
157.1782, 684.9258
157.6603, 681.1019
158.1424, 678.0337
158.6245, 672.5551
159.1066, 665.4847
159.5887, 658.7126
160.0709, 651.4932
160.5530, 645.3007
161.0351, 642.4807
161.5172, 643.4117
161.9993, 646.5597
162.4814, 652.5374
162.9636, 659.9201
163.4457, 666.1465
163.9278, 668.7633
164.4099, 670.0822
164.8920, 674.9152
165.3741, 684.7276
165.8563, 693.8959
166.3384, 698.1518
166.8205, 699.4836
167.3026, 701.1266
167.7847, 705.2437
168.2668, 710.2370
168.7490, 712.3838
169.2311, 710.6857
169.7132, 708.3395
170.1953, 706.2815
170.6774, 704.8286
171.1595, 704.8034
171.6417, 707.9380
172.1238, 712.1808
172.6059, 711.2945
173.0880, 701.2506
173.5701, 694.3260
174.0522, 699.4230
174.5344, 710.0665
175.0165, 716.5580
175.4986, 712.5432
175.9807, 702.3712
176.4628, 698.4251
176.9449, 704.0671
177.4271, 709.9847
177.9092, 712.4258
178.3913, 712.9490
178.8734, 713.6776
179.3555, 715.8232
179.8376, 718.6946
180.3197, 720.1973
180.8019, 719.6432
181.2840, 718.8541
181.7661, 718.3144
182.2482, 717.9509
182.7303, 717.3274
183.2124, 715.7791
183.6946, 714.5599
184.1767, 718.2221
184.6588, 732.2407
185.1409, 741.2704
185.6230, 737.1481
186.1051, 728.0862
186.5873, 723.8102
187.0694, 729.2892
187.5515, 740.8382
188.0336, 749.2060
188.5157, 754.6379
188.9978, 755.6970
189.4800, 747.8272
189.9621, 737.9611
190.4442, 733.8530
190.9263, 739.2946
191.4084, 750.2350
191.8905, 756.7821
192.3727, 756.3744
192.8548, 755.9035
193.3369, 756.7438
193.8190, 758.0247
194.3011, 759.2234
194.7832, 760.1556
195.2654, 760.2491
195.7475, 757.7147
196.2296, 749.1122
196.7117, 744.5251
197.1938, 747.8967
197.6759, 753.6661
198.1581, 757.4316
198.6402, 757.6669
199.1223, 755.1324
199.6044, 750.3883
200.0865, 739.4828
200.5686, 734.6986
201.0508, 741.7685
201.5329, 751.2953
202.0150, 755.5180
202.4971, 752.4913
202.9792, 746.5726
203.4613, 745.2070
203.9435, 751.9110
204.4256, 755.1994
204.9077, 753.8829
205.3898, 750.0653
205.8719, 743.7235
206.3540, 735.4786
206.8362, 728.0070
207.3183, 725.3619
207.8004, 729.8669
208.2825, 733.4623
208.7646, 736.3997
209.2467, 738.3309
209.7289, 738.6217
210.2110, 737.4235
210.6931, 735.7250
211.1752, 734.4518
211.6573, 733.2874
212.1395, 733.8374
212.6216, 738.3615
213.1037, 742.5549
213.5858, 744.0215
214.0679, 742.9548
214.5500, 741.1443
215.0322, 740.0975
215.5143, 739.6776
215.9964, 741.0583
216.4785, 746.6821
216.9606, 751.8265
217.4427, 754.4277
217.9249, 754.9154
218.4070, 754.8864
218.8891, 755.4216
219.3712, 756.4863
219.8533, 759.4239
220.3354, 767.6910
220.8176, 774.5212
221.2997, 777.0697
221.7818, 776.7484
222.2639, 776.8170
222.7460, 779.9000
223.2281, 785.4395
223.7103, 787.0902
224.1924, 778.5333
224.6745, 772.8987
225.1566, 775.6768
225.6387, 782.5356
226.1208, 786.3677
226.6030, 782.5911
227.0851, 773.8312
227.5672, 771.5997
228.0493, 784.9725
228.5314, 792.5707
229.0135, 785.9907
229.4957, 773.8416
229.9778, 767.1339
230.4599, 771.0660
230.9420, 779.7585
231.4241, 777.8209
231.9062, 756.0297
232.3884, 739.2899
232.8705, 733.5068
233.3526, 731.8931
233.8347, 728.3074
234.3168, 720.7880
234.7989, 711.9663
235.2811, 707.0386
235.7632, 709.2740
236.2453, 707.4708
236.7274, 697.3112
237.2095, 685.6583
237.6916, 677.2990
238.1738, 673.0157
238.6559, 669.8731
239.1380, 663.4066
239.6201, 651.5355
240.1022, 644.1445
240.5843, 646.2736
241.0665, 649.1075
241.5486, 648.4523
242.0307, 644.2304
242.5128, 638.8810
242.9949, 634.8112
243.4770, 632.2026
243.9592, 628.6080
244.4413, 623.8403
244.9234, 618.0862
245.4055, 610.9442
245.8876, 602.8011
246.3697, 594.4647
246.8519, 585.8148
247.3340, 577.2020
247.8161, 572.5678
248.2982, 575.8098
248.7803, 577.8942
249.2624, 575.1154
249.7446, 569.3053
250.2267, 563.3232
250.7088, 558.3386
251.1909, 554.5233
251.6730, 552.5674
252.1551, 553.3870
252.6373, 554.2419
253.1194, 555.3294
253.6015, 555.5801
254.0836, 553.2248
254.5657, 547.1354
255.0478, 540.1145
255.5300, 536.9496
256.0121, 538.6992
256.4942, 540.3375
256.9763, 539.8826
257.4584, 539.0984
257.9406, 540.0145
258.4227, 543.1573
258.9048, 545.1437
259.3869, 541.0368
259.8690, 530.4429
260.3511, 522.7266
260.8333, 519.9056
261.3154, 520.5566
261.7975, 525.4144
262.2796, 533.9312
262.7617, 540.2549
263.2438, 538.6014
263.7260, 530.4770
264.2081, 524.7193
264.6902, 522.7395
265.1723, 522.5761
265.6544, 522.6086
266.1365, 523.0303
266.6187, 524.6089
267.1008, 529.2296
267.5829, 534.9793
268.0650, 537.5908
268.5471, 536.3978
269.0292, 533.9229
269.5114, 530.2263
269.9935, 526.5515
270.4756, 525.5189
270.9577, 530.6968
271.4398, 536.4229
271.9219, 534.7259
272.4041, 525.3254
272.8862, 518.2873
273.3683, 520.5156
273.8504, 527.4388
274.3325, 529.8804
274.8146, 525.4576
275.2968, 520.1165
275.7789, 516.6517
276.2610, 515.2702
276.7431, 517.4686
277.2252, 525.3063
277.7073, 534.9178
278.1895, 539.0348
278.6716, 536.1894
279.1537, 535.7198
279.6358, 541.7809
280.1179, 552.2298
280.6000, 564.0648
281.0822, 576.9694
281.5643, 589.3163
282.0464, 599.3548
282.5285, 607.0183
283.0106, 612.5657
283.4927, 613.1475
283.9749, 613.4263
284.4570, 617.8087
284.9391, 626.5361
285.4212, 636.7474
285.9033, 645.3961
286.3854, 652.8409
286.8676, 667.1268
287.3497, 693.8187
287.8318, 721.2930
288.3139, 743.4017
288.7960, 761.7170
289.2781, 781.2421
289.7603, 805.1903
290.2424, 831.7460
290.7245, 852.6658
291.2066, 857.1116
291.6887, 869.6475
292.1708, 898.4630
292.6530, 935.7811
293.1351, 972.3850
293.6172, 1005.000
294.0993, 1035.686
294.5814, 1068.257
295.0635, 1107.894
295.5457, 1139.071
296.0278, 1160.822
296.5099, 1175.407
296.9920, 1183.350
297.4741, 1185.293
297.9562, 1182.821
298.4384, 1178.133
298.9205, 1172.225
299.4026, 1156.448
299.8847, 1125.426
300.3668, 1090.291
300.8489, 1052.614
301.3311, 1013.636
301.8131, 974.3638
302.2953, 934.6395
302.7774, 895.9456
303.2595, 866.7473
303.7416, 856.9707
304.2237, 842.1424
304.7058, 810.4449
305.1880, 774.6034
305.6701, 749.1270
306.1522, 739.5743
306.6343, 738.0579
307.1164, 731.5995
307.5985, 718.4669
308.0807, 706.9507
308.5628, 702.0723
309.0449, 696.7491
309.5270, 684.9930
310.0091, 666.9445
310.4912, 650.3460
310.9734, 642.8132
311.4555, 643.5155
311.9376, 643.4213
312.4197, 640.9221
312.9018, 639.1099
313.3839, 641.4252
313.8661, 646.0085
314.3482, 647.8419
314.8303, 642.2470
315.3124, 633.5842
315.7945, 630.2043
316.2766, 633.0513
316.7588, 635.7160
317.2409, 635.2731
317.7230, 632.1989
318.2051, 626.6285
318.6872, 615.8336
319.1693, 607.4183
319.6515, 608.5777
320.1336, 617.5222
320.6157, 626.4695
321.0978, 633.1161
321.5799, 638.0757
322.0620, 642.8770
322.5442, 648.2172
323.0263, 650.1305
323.5084, 643.4785
323.9905, 634.4788
324.4726, 632.0767
324.9547, 637.7356
325.4369, 645.0001
325.9190, 647.1803
326.4011, 643.5863
326.8832, 644.7479
327.3653, 657.9458
327.8474, 669.0763
328.3296, 667.6384
328.8117, 657.0477
329.2938, 648.3135
329.7759, 647.9800
330.2580, 654.2448
330.7401, 658.9641
331.2223, 660.9877
331.7044, 662.9015
332.1865, 663.4325
332.6686, 664.6886
333.1507, 670.4554
333.6328, 681.3926
334.1150, 692.4677
334.5971, 695.5768
335.0792, 686.4367
335.5613, 680.8481
336.0434, 680.9974
336.5255, 682.3109
337.0077, 680.9713
337.4898, 678.3808
337.9719, 679.7996
338.4540, 690.8539
338.9361, 709.8696
339.4182, 721.4286
339.9004, 720.7389
340.3825, 719.1946
340.8646, 720.5807
341.3467, 723.0338
341.8288, 724.1586
342.3109, 723.0094
342.7931, 720.4982
343.2752, 716.9113
343.7573, 711.5704
344.2394, 710.1902
344.7215, 717.6157
345.2036, 726.8380
345.6858, 731.4581
346.1679, 731.3419
346.6500, 732.6051
347.1321, 740.5426
347.6142, 752.7721
348.0963, 763.4324
348.5785, 772.6373
349.0606, 778.1086
349.5427, 774.9052
350.0248, 766.0974
350.5069, 760.8766
350.9890, 761.1119
351.4712, 765.2909
351.9533, 774.8523
352.4354, 788.3572
352.9175, 797.7731
353.3996, 797.9975
353.8817, 793.3244
354.3639, 795.4047
354.8460, 806.3837
355.3281, 817.7833
355.8102, 828.3508
356.2923, 838.0769
356.7744, 846.9415
357.2566, 854.9477
357.7387, 861.5544
358.2208, 865.7798
358.7029, 866.7159
359.1850, 870.5751
359.6671, 880.6372
360.1493, 889.9072
360.6314, 894.0917
361.1135, 895.0646
361.5956, 896.6826
362.0777, 900.9955
362.5598, 908.4640
363.0420, 921.4462
363.5241, 947.0562
364.0062, 966.5528
364.4883, 972.6302
364.9704, 975.5822
365.4525, 984.1761
365.9347, 1000.133
366.4168, 1018.963
366.8989, 1036.226
367.3810, 1052.076
367.8631, 1065.897
368.3452, 1076.894
368.8274, 1086.680
369.3095, 1093.330
369.7916, 1099.488
370.2737, 1111.825
370.7558, 1137.941
371.2379, 1168.359
371.7201, 1185.275
372.2022, 1187.219
372.6843, 1189.519
373.1664, 1198.165
373.6485, 1211.191
374.1306, 1225.374
374.6128, 1240.845
375.0949, 1256.638
375.5770, 1273.782
376.0591, 1290.531
376.5412, 1302.309
377.0233, 1307.675
377.5055, 1312.119
377.9876, 1322.024
378.4697, 1338.134
378.9518, 1349.573
379.4339, 1356.970
379.9160, 1358.946
380.3982, 1349.297
380.8803, 1332.988
381.3624, 1324.340
381.8445, 1331.968
382.3266, 1349.436
382.8087, 1357.233
383.2909, 1343.105
383.7730, 1334.958
384.2551, 1340.599
384.7372, 1347.702
385.2193, 1343.783
385.7014, 1328.392
386.1836, 1312.987
386.6657, 1311.255
387.1478, 1324.386
387.6299, 1328.298
388.1120, 1316.208
388.5941, 1302.132
389.0763, 1290.305
389.5584, 1279.677
390.0405, 1268.253
390.5226, 1254.791
391.0047, 1240.960
391.4868, 1229.348
391.9690, 1220.187
392.4511, 1211.484
392.9332, 1202.948
393.4153, 1194.550
393.8974, 1186.524
394.3795, 1178.823
394.8617, 1170.620
395.3438, 1160.725
395.8259, 1150.346
396.3080, 1141.533
396.7901, 1134.529
397.2722, 1128.485
397.7544, 1124.262
398.2365, 1120.434
398.7186, 1110.583
399.2007, 1090.644
399.6828, 1069.531
400.1649, 1048.750
400.6471, 1029.534
401.1292, 1014.233
401.6113, 1003.559
402.0934, 995.6121
402.5755, 987.8570
403.0576, 981.5398
403.5398, 971.3428
404.0219, 951.5650
404.5040, 933.6311
404.9861, 926.0577
405.4682, 925.3174
405.9503, 921.7380
406.4325, 908.7776
406.9146, 889.4225
407.3967, 874.4742
407.8788, 865.6378
408.3609, 857.8723
408.8430, 852.7728
409.3252, 846.5535
409.8073, 834.6428
410.2894, 816.8459
410.7715, 799.8422
411.2536, 791.1588
411.7357, 788.7606
412.2179, 781.1901
412.7000, 764.5673
413.1821, 750.4341
413.6642, 751.7516
414.1463, 760.9755
414.6284, 762.7351
415.1106, 748.4827
415.5927, 733.0037
416.0748, 728.1646
416.5569, 731.0491
417.0390, 732.6304
417.5211, 729.7363
418.0033, 724.8809
418.4854, 721.9809
418.9675, 722.2330
419.4496, 720.2252
419.9317, 713.9242
420.4138, 706.8408
420.8960, 701.2529
421.3781, 697.0029
421.8602, 692.5362
422.3423, 686.5773
422.8244, 680.1550
423.3065, 677.9656
423.7887, 684.6258
424.2708, 688.3130
424.7529, 686.9193
425.2350, 682.9716
425.7171, 677.1357
426.1992, 670.2073
426.6814, 665.0953
427.1635, 665.8730
427.6456, 671.8695
428.1277, 674.6036
428.6098, 672.2422
429.0919, 670.1276
429.5741, 672.5449
430.0562, 676.5642
430.5383, 677.5767
431.0204, 673.6370
431.5025, 668.3605
431.9846, 663.4582
432.4668, 659.4850
432.9489, 658.6551
433.4310, 661.8115
433.9131, 667.4119
434.3952, 674.8721
434.8773, 684.6692
435.3595, 689.7183
435.8416, 684.2169
436.3237, 678.7141
436.8058, 680.5811
437.2879, 687.8071
437.7701, 694.6688
438.2522, 698.2855
438.7343, 699.4222
439.2164, 699.6997
439.6985, 696.5620
440.1806, 697.3221
440.6628, 704.8635
441.1449, 713.5782
441.6270, 720.6003
442.1091, 725.4742
442.5912, 728.4673
443.0733, 729.1048
443.5555, 728.2491
444.0376, 728.8120
444.5197, 730.0992
445.0018, 734.7939
445.4839, 747.5988
445.9660, 762.5475
446.4482, 774.0482
446.9303, 781.2397
447.4124, 786.0490
447.8945, 786.1931
448.3766, 785.4611
448.8587, 793.0548
449.3409, 810.7067
449.8230, 829.9163
450.3051, 844.3261
450.7872, 854.3384
451.2693, 864.9133
451.7514, 873.2553
452.2336, 885.2996
452.7157, 905.2581
453.1978, 929.2538
453.6799, 951.4955
454.1620, 970.4204
454.6441, 989.0670
455.1263, 1011.820
455.6084, 1039.922
456.0905, 1064.919
456.5726, 1077.900
457.0547, 1096.818
457.5368, 1131.935
458.0190, 1175.506
458.5011, 1214.029
458.9832, 1240.943
459.4653, 1265.397
459.9474, 1301.451
460.4295, 1349.131
460.9117, 1396.707
461.3938, 1439.117
461.8759, 1484.904
462.3580, 1544.296
462.8401, 1614.706
463.3222, 1683.555
463.8044, 1743.672
464.2865, 1804.142
464.7686, 1871.844
465.2507, 1946.567
465.7328, 2027.065
466.2149, 2112.910
466.6971, 2203.564
467.1792, 2296.206
467.6613, 2387.932
468.1434, 2489.450
468.6255, 2601.159
469.1076, 2722.169
469.5898, 2850.813
470.0719, 2987.757
470.5540, 3134.326
471.0361, 3293.180
471.5182, 3459.520
472.0003, 3622.501
472.4825, 3778.196
472.9646, 3938.434
473.4467, 4107.898
473.9288, 4280.595
474.4109, 4450.789
474.8930, 4619.047
475.3752, 4794.882
475.8573, 4987.915
476.3394, 5189.979
476.8215, 5394.134
477.3036, 5599.883
477.7857, 5788.655
478.2679, 5952.061
478.7500, 6091.430
479.2321, 6209.874
479.7142, 6306.382
480.1963, 6387.682
480.6784, 6463.387
481.1606, 6518.775
481.6427, 6539.439
482.1248, 6525.458
482.6069, 6487.325
483.0890, 6433.777
483.5711, 6361.555
484.0533, 6249.559
484.5354, 6077.979
485.0175, 5896.586
485.4996, 5709.477
485.9817, 5519.000
486.4638, 5331.116
486.9460, 5144.155
487.4281, 4948.342
487.9102, 4725.164
488.3923, 4487.515
488.8744, 4276.459
489.3565, 4095.716
489.8387, 3924.073
490.3208, 3755.723
490.8029, 3588.276
491.2850, 3414.414
491.7671, 3224.183
492.2492, 3055.168
492.7314, 2934.978
493.2135, 2835.761
493.6956, 2726.617
494.1777, 2605.252
494.6598, 2484.168
495.1419, 2372.237
495.6241, 2269.511
496.1062, 2173.467
496.5883, 2088.023
497.0704, 2004.875
497.5525, 1919.285
498.0346, 1837.792
498.5168, 1768.393
498.9989, 1710.469
499.4810, 1654.244
499.9631, 1590.192
500.4452, 1521.339
500.9273, 1460.023
501.4095, 1406.644
501.8916, 1358.823
502.3737, 1315.196
502.8558, 1276.927
503.3379, 1247.819
503.8200, 1232.028
504.3022, 1208.432
504.7843, 1157.240
505.2664, 1100.968
505.7485, 1070.463
506.2306, 1064.694
506.7127, 1057.851
507.1949, 1031.850
507.6770, 991.9974
508.1591, 961.8999
508.6412, 950.2922
509.1233, 935.8104
509.6054, 915.4286
510.0876, 893.3652
510.5697, 872.2962
511.0518, 852.6068
511.5339, 833.6620
512.0161, 814.4854
512.4982, 796.0868
512.9803, 781.7002
513.4624, 772.1036
513.9445, 762.2650
514.4266, 749.6593
514.9088, 736.7064
515.3909, 727.2477
515.8730, 721.7089
516.3551, 713.9825
516.8372, 699.4163
517.3193, 683.9109
517.8015, 672.5016
518.2836, 665.1329
518.7657, 660.3360
519.2478, 657.7361
519.7299, 655.5588
520.2120, 649.4335
520.6942, 636.9140
521.1763, 624.9670
521.6584, 611.4857
522.1405, 600.4594
522.6226, 597.1581
523.1047, 598.0428
523.5869, 593.7278
524.0690, 577.4493
524.5511, 557.5656
525.0332, 549.3470
525.5153, 552.6999
525.9974, 551.7806
526.4796, 540.0021
526.9617, 527.4634
527.4438, 527.6395
527.9259, 538.6501
528.4080, 543.7033
528.8901, 538.3652
529.3723, 528.5145
529.8544, 512.8923
530.3365, 496.1498
530.8186, 488.3693
531.3007, 492.7310
531.7828, 501.2834
532.2650, 502.8697
532.7471, 496.1019
533.2292, 491.0869
533.7113, 491.1282
534.1934, 489.0428
534.6755, 480.0611
535.1577, 468.7029
535.6398, 461.5570
536.1219, 460.8094
536.6040, 461.2314
537.0861, 457.7172
537.5682, 451.4545
538.0504, 445.9276
538.5325, 441.4212
539.0146, 438.9577
539.4967, 440.5008
539.9788, 444.6477
540.4609, 444.4200
540.9431, 434.8996
541.4252, 428.2338
541.9073, 429.6297
542.3894, 433.1862
542.8715, 433.3431
543.3536, 429.6249
543.8358, 424.4855
544.3179, 419.4500
544.8000, 414.9859
545.2821, 413.7662
545.7642, 417.7603
546.2463, 419.6033
546.7285, 416.4949
547.2106, 411.1482
547.6927, 404.6296
548.1748, 397.3037
548.6569, 391.5402
549.1390, 389.0448
549.6211, 388.2062
550.1032, 387.4667
550.5853, 386.8572
551.0674, 386.8785
551.5496, 387.8360
552.0317, 388.9637
552.5138, 388.9891
552.9959, 387.5270
553.4780, 386.2406
553.9601, 387.1131
554.4423, 386.0276
554.9244, 379.2951
555.4065, 370.1432
555.8886, 363.8897
556.3707, 362.5192
556.8528, 362.7032
557.3350, 360.0154
557.8171, 354.9790
558.2992, 351.9536
558.7813, 351.5919
559.2634, 352.4537
559.7455, 353.8803
560.2277, 355.8251
560.7098, 358.2619
561.1919, 363.3720
561.6740, 365.1703
562.1561, 358.8130
562.6382, 350.0289
563.1204, 345.1679
563.6025, 344.4509
564.0846, 343.6584
564.5667, 339.2325
565.0488, 333.1553
565.5309, 334.5300
566.0131, 349.2484
566.4952, 356.4900
566.9773, 343.4282
567.4594, 329.2056
567.9415, 326.5281
568.4236, 333.8640
568.9058, 341.4461
569.3879, 345.2927
569.8700, 347.5101
570.3521, 351.1518
570.8342, 355.1133
571.3163, 354.7454
571.7985, 348.2726
572.2806, 340.7309
572.7627, 338.5325
573.2448, 342.5296
573.7269, 343.7223
574.2090, 339.3213
574.6912, 335.6055
575.1733, 335.2729
575.6554, 335.8435
576.1375, 333.9232
576.6196, 329.0040
577.1017, 324.4295
577.5839, 323.4691
578.0660, 325.2717
578.5481, 326.7928
579.0302, 327.8132
579.5123, 330.3871
579.9944, 336.7533
580.4766, 344.0674
580.9587, 346.1694
581.4408, 341.8092
581.9229, 338.6653
582.4050, 336.9468
582.8871, 337.5189
583.3693, 342.7732
583.8514, 350.5473
584.3335, 356.8388
584.8156, 359.7883
585.2977, 359.5602
585.7798, 355.2664
586.2620, 346.3303
586.7441, 340.0370
587.2262, 336.0905
587.7083, 335.8461
588.1904, 343.5570
588.6725, 354.5341
589.1547, 360.7377
589.6368, 359.4714
590.1189, 357.8168
590.6010, 358.4121
591.0831, 360.9565
591.5652, 366.8608
592.0474, 375.0451
592.5295, 379.6171
593.0116, 376.0804
593.4937, 367.8262
593.9758, 365.6823
594.4579, 372.8802
594.9401, 378.5232
595.4222, 381.5903
595.9043, 382.9609
596.3864, 381.7599
596.8685, 379.1953
597.3506, 378.0953
597.8328, 379.6357
598.3149, 382.7080
598.7970, 386.3162
599.2791, 390.6849
599.7612, 397.1517
600.2433, 406.0103
600.7255, 413.8912
601.2076, 417.8360
601.6897, 418.2747
602.1718, 418.7455
602.6539, 421.3105
603.1360, 420.9458
603.6182, 413.7902
604.1003, 406.3674
604.5824, 403.4134
605.0645, 404.8697
605.5466, 408.2277
606.0287, 412.5961
606.5109, 417.3480
606.9930, 422.7428
607.4751, 428.2634
607.9572, 428.9370
608.4393, 422.5415
608.9214, 414.8903
609.4036, 411.9068
609.8857, 413.6189
610.3678, 414.2818
610.8499, 413.5875
611.3320, 412.3475
611.8141, 409.9905
612.2963, 407.6483
612.7784, 406.7573
613.2605, 407.2388
613.7426, 407.6527
614.2247, 407.1396
614.7068, 405.6012
615.1890, 401.8465
615.6711, 395.6574
616.1532, 392.4567
616.6353, 394.6635
617.1174, 398.9038
617.5995, 401.7937
618.0817, 403.3041
618.5638, 403.8860
619.0459, 402.7414
619.5280, 401.6120
620.0101, 399.9770
620.4922, 399.3301
620.9744, 402.8079
621.4565, 410.1660
621.9386, 416.3351
622.4207, 416.4248
622.9028, 411.8244
623.3849, 407.5097
623.8671, 403.2641
624.3492, 400.7485
624.8313, 401.4709
625.3134, 402.9925
625.7955, 402.3254
626.2776, 399.6122
626.7598, 396.8119
