##NAMES=Analcime
##RRUFFID=R050094
##IDEAL CHEMISTRY=NaAlSi_2_O_6_&#183;H_2_O
##LOCALITY=Springfield, Oregon, USA
##OWNER=RRUFF
##SOURCE=Rock Currier
##DESCRIPTION=Clear colorless single crystals associated with gmelinite
##STATUS=The identification of this mineral has been confirmed by X-ray diffraction and chemical analysis
##URL=rruff.info/R050094
##MEASURED CHEMISTRY=(Na_0.99_[box]_0.01_)_Σ=1_(Si_2.01_Al_0.99_)O_6_·H_2_O
126.3948, 2070.239
126.8769, 2151.884
127.3591, 2226.693
127.8412, 2260.957
128.3233, 2265.734
128.8054, 2265.216
129.2875, 2260.006
129.7696, 2253.503
130.2518, 2255.576
130.7339, 2269.284
131.2160, 2284.660
131.6981, 2284.198
132.1802, 2269.776
132.6623, 2256.102
133.1445, 2247.520
133.6266, 2243.654
134.1087, 2242.177
134.5908, 2242.082
135.0729, 2246.082
135.5550, 2259.792
136.0372, 2283.853
136.5193, 2311.019
137.0014, 2340.475
137.4835, 2372.829
137.9656, 2397.313
138.4477, 2414.268
138.9299, 2422.517
139.4120, 2414.500
139.8941, 2382.771
140.3762, 2350.984
140.8583, 2338.964
141.3404, 2354.158
141.8226, 2366.200
142.3047, 2371.250
142.7868, 2369.526
143.2689, 2355.994
143.7510, 2322.174
144.2331, 2284.088
144.7152, 2263.558
145.1974, 2272.593
145.6795, 2280.074
146.1616, 2276.240
146.6437, 2255.074
147.1258, 2238.040
147.6079, 2228.151
148.0901, 2222.217
148.5722, 2211.947
149.0543, 2188.966
149.5364, 2168.823
150.0185, 2158.467
150.5006, 2172.460
150.9828, 2178.935
151.4649, 2172.622
151.9470, 2154.951
152.4291, 2142.558
152.9112, 2141.623
153.3933, 2143.105
153.8755, 2140.598
154.3576, 2133.531
154.8397, 2122.369
155.3218, 2106.245
155.8039, 2084.294
156.2860, 2062.094
156.7682, 2037.836
157.2503, 2014.766
157.7324, 1996.802
158.2145, 1992.336
158.6966, 1987.518
159.1787, 1974.423
159.6609, 1944.168
160.1430, 1923.607
160.6251, 1931.511
161.1072, 1955.991
161.5893, 1969.529
162.0714, 1953.122
162.5536, 1927.456
163.0357, 1906.423
163.5178, 1895.079
163.9999, 1887.061
164.4820, 1880.164
164.9641, 1874.366
165.4463, 1869.749
165.9284, 1867.932
166.4105, 1866.784
166.8926, 1864.000
167.3747, 1858.367
167.8568, 1851.052
168.3390, 1840.101
168.8211, 1825.068
169.3032, 1815.761
169.7853, 1829.043
170.2674, 1851.887
170.7495, 1861.539
171.2317, 1833.410
171.7138, 1793.532
172.1959, 1768.341
172.6780, 1762.678
173.1601, 1764.765
173.6422, 1766.115
174.1244, 1767.328
174.6065, 1770.235
175.0886, 1780.065
175.5707, 1791.340
176.0528, 1794.743
176.5349, 1783.811
177.0171, 1770.921
177.4992, 1773.557
177.9813, 1789.857
178.4634, 1804.182
178.9455, 1801.359
179.4276, 1787.368
179.9098, 1775.542
180.3919, 1766.555
180.8740, 1763.858
181.3561, 1778.653
181.8382, 1811.765
182.3203, 1842.769
182.8025, 1848.941
183.2846, 1834.643
183.7667, 1817.635
184.2488, 1803.314
184.7309, 1791.881
185.2130, 1785.140
185.6951, 1783.601
186.1773, 1784.568
186.6594, 1782.252
187.1415, 1777.490
187.6236, 1778.827
188.1057, 1798.741
188.5878, 1831.261
189.0700, 1846.583
189.5521, 1838.034
190.0342, 1817.313
190.5163, 1803.270
190.9984, 1795.979
191.4805, 1794.717
191.9627, 1803.316
192.4448, 1820.459
192.9269, 1829.432
193.4090, 1824.141
193.8911, 1810.708
194.3732, 1808.566
194.8554, 1819.175
195.3375, 1832.752
195.8196, 1843.231
196.3017, 1850.820
196.7838, 1847.879
197.2659, 1826.529
197.7481, 1791.490
198.2302, 1777.335
198.7123, 1789.057
199.1944, 1807.498
199.6765, 1807.603
200.1586, 1786.691
200.6408, 1768.404
201.1229, 1762.198
201.6050, 1768.317
202.0871, 1771.006
202.5692, 1768.801
203.0513, 1765.347
203.5335, 1768.792
204.0156, 1781.841
204.4977, 1790.239
204.9798, 1784.906
205.4619, 1763.164
205.9440, 1747.856
206.4262, 1741.758
206.9083, 1740.885
207.3904, 1734.010
207.8725, 1718.200
208.3546, 1704.322
208.8367, 1701.550
209.3189, 1714.967
209.8010, 1716.624
210.2831, 1699.216
210.7652, 1668.803
211.2473, 1652.849
211.7294, 1655.060
212.2116, 1664.487
212.6937, 1675.334
213.1758, 1691.383
213.6579, 1696.326
214.1400, 1683.536
214.6221, 1654.832
215.1043, 1638.165
215.5864, 1637.243
216.0685, 1642.810
216.5506, 1646.726
217.0327, 1650.228
217.5148, 1648.648
217.9970, 1637.467
218.4791, 1615.386
218.9612, 1608.451
219.4433, 1624.426
219.9254, 1647.637
220.4075, 1657.628
220.8897, 1650.591
221.3718, 1637.522
221.8539, 1619.326
222.3360, 1592.407
222.8181, 1576.949
223.3002, 1576.797
223.7824, 1585.787
224.2645, 1593.412
224.7466, 1600.426
225.2287, 1604.927
225.7108, 1606.116
226.1929, 1603.497
226.6750, 1598.798
227.1572, 1590.568
227.6393, 1580.778
228.1214, 1573.987
228.6035, 1569.242
229.0856, 1569.024
229.5677, 1576.234
230.0499, 1598.005
230.5320, 1610.247
231.0141, 1608.459
231.4962, 1596.174
231.9783, 1588.223
232.4604, 1588.421
232.9426, 1588.108
233.4247, 1581.585
233.9068, 1565.268
234.3889, 1550.162
234.8710, 1536.396
235.3531, 1524.225
235.8353, 1517.741
236.3174, 1521.579
236.7995, 1525.898
237.2816, 1522.185
237.7637, 1502.676
238.2458, 1490.387
238.7280, 1491.034
239.2101, 1504.356
239.6922, 1512.526
240.1743, 1513.053
240.6564, 1510.894
241.1385, 1511.107
241.6207, 1517.449
242.1028, 1519.225
242.5849, 1512.601
243.0670, 1496.496
243.5491, 1485.751
244.0313, 1482.323
244.5134, 1482.608
244.9955, 1482.758
245.4776, 1483.512
245.9597, 1482.765
246.4418, 1479.031
246.9240, 1471.042
247.4061, 1467.882
247.8882, 1472.384
248.3703, 1479.714
248.8524, 1483.364
249.3345, 1484.259
249.8167, 1479.730
250.2988, 1467.237
250.7809, 1443.168
251.2630, 1424.870
251.7451, 1410.929
252.2272, 1403.685
252.7094, 1409.836
253.1915, 1440.299
253.6736, 1465.514
254.1557, 1473.857
254.6378, 1460.071
255.1199, 1445.479
255.6021, 1428.120
256.0842, 1411.015
256.5663, 1401.294
257.0484, 1401.266
257.5305, 1404.634
258.0126, 1409.128
258.4948, 1415.574
258.9769, 1421.092
259.4590, 1426.022
259.9411, 1429.943
260.4232, 1431.129
260.9053, 1427.318
261.3875, 1424.968
261.8696, 1429.075
262.3517, 1444.203
262.8338, 1450.061
263.3159, 1440.846
263.7980, 1422.782
264.2802, 1418.724
264.7623, 1434.529
265.2444, 1452.508
265.7265, 1462.184
266.2086, 1461.361
266.6907, 1459.479
267.1729, 1457.205
267.6550, 1454.426
268.1371, 1450.153
268.6192, 1443.232
269.1013, 1437.411
269.5834, 1436.175
270.0656, 1440.995
270.5477, 1443.318
271.0298, 1440.972
271.5119, 1435.531
271.9940, 1433.875
272.4761, 1436.796
272.9583, 1441.585
273.4404, 1447.098
273.9225, 1453.933
274.4046, 1457.829
274.8867, 1456.892
275.3688, 1452.743
275.8510, 1454.513
276.3331, 1464.954
276.8152, 1473.026
277.2973, 1465.603
277.7794, 1440.077
278.2615, 1424.288
278.7437, 1425.263
279.2258, 1439.769
279.7079, 1454.759
280.1900, 1471.044
280.6721, 1484.751
281.1542, 1492.103
281.6364, 1492.968
282.1185, 1490.196
282.6006, 1480.918
283.0827, 1469.139
283.5648, 1472.977
284.0469, 1494.384
284.5291, 1521.301
285.0112, 1543.504
285.4933, 1561.065
285.9754, 1575.965
286.4575, 1586.866
286.9396, 1595.768
287.4217, 1609.146
287.9038, 1627.033
288.3860, 1648.911
288.8681, 1677.812
289.3502, 1712.204
289.8323, 1740.008
290.3144, 1751.657
290.7965, 1756.053
291.2787, 1782.138
291.7608, 1831.878
292.2429, 1882.693
292.7250, 1908.764
293.2071, 1915.404
293.6892, 1929.332
294.1714, 1962.422
294.6535, 2006.706
295.1356, 2046.643
295.6177, 2082.427
296.0998, 2114.006
296.5819, 2146.346
297.0641, 2175.993
297.5462, 2190.542
298.0283, 2180.329
298.5104, 2155.676
298.9925, 2132.334
299.4746, 2110.205
299.9568, 2088.008
300.4389, 2064.093
300.9210, 2039.067
301.4031, 2013.851
301.8852, 1992.360
302.3673, 1969.027
302.8495, 1932.715
303.3316, 1884.000
303.8137, 1837.006
304.2958, 1804.094
304.7779, 1781.122
305.2600, 1761.380
305.7422, 1740.886
306.2243, 1723.384
306.7064, 1715.649
307.1885, 1717.042
307.6706, 1715.969
308.1527, 1700.847
308.6349, 1678.913
309.1170, 1660.490
309.5991, 1652.557
310.0812, 1647.022
310.5633, 1637.698
311.0454, 1624.718
311.5276, 1611.645
312.0097, 1594.683
312.4918, 1580.800
312.9739, 1577.649
313.4560, 1605.773
313.9381, 1630.758
314.4203, 1627.566
314.9024, 1598.627
315.3845, 1575.461
315.8666, 1581.214
316.3487, 1596.182
316.8308, 1601.747
317.3130, 1575.550
317.7951, 1554.460
318.2772, 1560.106
318.7593, 1589.511
319.2414, 1608.415
319.7235, 1591.593
320.2057, 1566.798
320.6878, 1556.024
321.1699, 1580.708
321.6520, 1603.270
322.1341, 1611.977
322.6162, 1608.298
323.0984, 1607.465
323.5805, 1618.032
324.0626, 1629.139
324.5447, 1633.462
325.0268, 1617.493
325.5089, 1608.503
325.9911, 1614.848
326.4732, 1634.601
326.9553, 1647.486
327.4374, 1644.307
327.9195, 1639.235
328.4016, 1640.535
328.8838, 1658.928
329.3659, 1670.103
329.8480, 1669.386
330.3301, 1658.869
330.8122, 1651.696
331.2943, 1647.075
331.7765, 1646.452
332.2586, 1651.174
332.7407, 1665.653
333.2228, 1677.543
333.7049, 1685.723
334.1870, 1690.855
334.6692, 1695.799
335.1513, 1701.005
335.6334, 1705.464
336.1155, 1707.984
336.5976, 1706.999
337.0797, 1709.460
337.5619, 1717.044
338.0440, 1727.727
338.5261, 1735.396
339.0082, 1739.393
339.4903, 1742.245
339.9724, 1745.256
340.4546, 1748.535
340.9367, 1751.584
341.4188, 1755.408
341.9009, 1757.789
342.3830, 1749.715
342.8651, 1729.098
343.3473, 1717.701
343.8294, 1736.769
344.3115, 1782.707
344.7936, 1802.877
345.2757, 1789.554
345.7578, 1762.817
346.2400, 1752.107
346.7221, 1757.065
347.2042, 1768.433
347.6863, 1785.751
348.1684, 1806.225
348.6505, 1820.145
349.1327, 1826.363
349.6148, 1829.757
350.0969, 1835.150
350.5790, 1842.431
351.0611, 1851.325
351.5432, 1864.340
352.0254, 1877.908
352.5075, 1885.440
352.9896, 1886.105
353.4717, 1886.173
353.9538, 1894.238
354.4359, 1905.833
354.9181, 1911.908
355.4002, 1898.571
355.8823, 1884.197
356.3644, 1889.723
356.8465, 1915.656
357.3286, 1939.708
357.8108, 1943.668
358.2929, 1938.319
358.7750, 1937.868
359.2571, 1952.852
359.7392, 1969.669
360.2213, 1979.783
360.7035, 1983.676
361.1856, 1989.648
361.6677, 2005.398
362.1498, 2022.844
362.6319, 2035.157
363.1140, 2034.876
363.5962, 2034.896
364.0783, 2038.251
364.5604, 2044.868
365.0425, 2054.110
365.5246, 2069.901
366.0067, 2085.708
366.4889, 2097.507
366.9710, 2098.031
367.4531, 2102.600
367.9352, 2112.167
368.4173, 2126.703
368.8994, 2146.408
369.3815, 2183.302
369.8636, 2214.760
370.3458, 2229.648
370.8279, 2210.899
371.3100, 2205.019
371.7921, 2214.593
372.2742, 2236.368
372.7563, 2264.610
373.2385, 2308.374
373.7206, 2343.153
374.2027, 2355.243
374.6848, 2335.943
375.1669, 2329.859
375.6490, 2339.050
376.1312, 2359.327
376.6133, 2386.443
377.0954, 2423.090
377.5775, 2456.030
378.0596, 2479.673
378.5417, 2493.948
379.0239, 2509.716
379.5060, 2527.664
379.9881, 2544.715
380.4702, 2555.417
380.9523, 2560.121
381.4344, 2566.146
381.9166, 2575.766
382.3987, 2588.495
382.8808, 2605.873
383.3629, 2628.222
383.8450, 2647.349
384.3271, 2649.430
384.8093, 2640.807
385.2914, 2641.973
385.7735, 2665.580
386.2556, 2695.500
386.7377, 2709.017
387.2198, 2707.457
387.7020, 2701.108
388.1841, 2692.239
388.6662, 2684.628
389.1483, 2684.527
389.6304, 2699.192
390.1125, 2712.535
390.5947, 2712.339
391.0768, 2701.037
391.5589, 2686.023
392.0410, 2664.773
392.5231, 2645.262
393.0052, 2634.704
393.4874, 2639.370
393.9695, 2640.606
394.4516, 2631.947
394.9337, 2614.839
395.4158, 2591.946
395.8979, 2556.775
396.3801, 2521.948
396.8622, 2492.600
397.3443, 2469.816
397.8264, 2449.821
398.3085, 2435.892
398.7906, 2423.326
399.2728, 2406.485
399.7549, 2379.554
400.2370, 2354.754
400.7191, 2336.148
401.2012, 2324.589
401.6833, 2306.211
402.1655, 2275.924
402.6476, 2244.190
403.1297, 2220.793
403.6118, 2210.140
404.0939, 2196.954
404.5760, 2178.079
405.0582, 2154.871
405.5403, 2134.810
406.0224, 2118.255
406.5045, 2104.291
406.9866, 2095.391
407.4688, 2092.311
407.9509, 2077.336
408.4330, 2044.612
408.9151, 2004.415
409.3972, 1978.758
409.8793, 1967.779
410.3615, 1960.160
410.8436, 1949.017
411.3257, 1935.913
411.8078, 1927.133
412.2899, 1923.764
412.7720, 1921.388
413.2542, 1914.370
413.7363, 1904.040
414.2184, 1894.146
414.7005, 1885.831
415.1826, 1879.300
415.6647, 1876.201
416.1469, 1876.657
416.6290, 1875.346
417.1111, 1868.209
417.5932, 1856.983
418.0753, 1844.226
418.5574, 1826.114
419.0396, 1810.601
419.5217, 1803.129
420.0038, 1802.649
420.4859, 1801.709
420.9680, 1795.726
421.4501, 1789.334
421.9323, 1785.943
422.4144, 1788.795
422.8965, 1791.023
423.3786, 1793.139
423.8607, 1794.049
424.3428, 1790.604
424.8250, 1770.050
425.3071, 1780.681
425.7892, 1787.125
426.2713, 1789.606
426.7534, 1776.255
427.2355, 1783.347
427.7177, 1782.247
428.1998, 1780.811
428.6819, 1790.781
429.1640, 1779.732
429.6461, 1789.522
430.1282, 1790.993
430.6104, 1796.271
431.0925, 1793.306
431.5746, 1792.886
432.0567, 1800.713
432.5388, 1803.974
433.0209, 1800.060
433.5031, 1805.580
433.9852, 1794.243
434.4673, 1797.698
434.9494, 1807.536
435.4315, 1796.920
435.9136, 1796.898
436.3958, 1800.323
436.8779, 1809.019
437.3600, 1824.901
437.8421, 1841.222
438.3242, 1848.683
438.8063, 1850.209
439.2885, 1853.961
439.7706, 1869.948
440.2527, 1886.640
440.7348, 1890.542
441.2169, 1879.088
441.6990, 1871.420
442.1812, 1882.848
442.6633, 1902.500
443.1454, 1917.570
443.6275, 1918.389
444.1096, 1919.379
444.5917, 1925.917
445.0739, 1937.758
445.5560, 1949.650
446.0381, 1959.437
446.5202, 1969.667
447.0023, 1981.815
447.4844, 1995.841
447.9666, 2012.150
448.4487, 2032.653
448.9308, 2055.402
449.4129, 2074.548
449.8950, 2085.356
450.3771, 2099.807
450.8593, 2125.037
451.3413, 2164.499
451.8235, 2191.641
452.3056, 2201.485
452.7877, 2206.986
453.2698, 2225.634
453.7519, 2258.033
454.2340, 2296.320
454.7162, 2341.142
455.1983, 2389.510
455.6804, 2432.646
456.1625, 2470.641
456.6446, 2504.224
457.1267, 2524.586
457.6089, 2540.588
458.0910, 2580.875
458.5731, 2658.869
459.0552, 2748.804
459.5373, 2820.054
460.0194, 2876.558
460.5016, 2932.827
460.9837, 2986.439
461.4658, 3049.054
461.9479, 3136.983
462.4300, 3257.346
462.9121, 3371.461
463.3943, 3442.773
463.8764, 3500.365
464.3585, 3580.759
464.8406, 3711.936
465.3227, 3850.904
465.8048, 3984.646
466.2870, 4112.753
466.7691, 4242.806
467.2512, 4366.187
467.7333, 4499.816
468.2154, 4654.689
468.6975, 4845.590
469.1797, 5033.521
469.6618, 5210.007
470.1439, 5382.115
470.6260, 5565.448
471.1081, 5758.884
471.5902, 5966.114
472.0724, 6191.034
472.5545, 6436.744
473.0366, 6678.704
473.5187, 6912.453
474.0008, 7148.114
474.4829, 7396.453
474.9651, 7657.078
475.4472, 7925.992
475.9293, 8205.463
476.4114, 8490.229
476.8935, 8772.001
477.3756, 9048.584
477.8578, 9321.000
478.3399, 9608.971
478.8220, 9887.241
479.3041, 10113.67
479.7862, 10268.25
480.2683, 10400.68
480.7505, 10567.43
481.2326, 10739.21
481.7147, 10855.63
482.1968, 10875.69
482.6789, 10848.28
483.1610, 10797.07
483.6432, 10724.61
484.1253, 10618.97
484.6074, 10470.71
485.0895, 10291.91
485.5716, 10091.92
486.0537, 9874.253
486.5359, 9630.672
487.0180, 9354.187
487.5001, 9049.251
487.9822, 8732.366
488.4643, 8394.713
488.9464, 8064.867
489.4286, 7753.362
489.9107, 7464.488
490.3928, 7188.437
490.8749, 6927.082
491.3570, 6674.787
491.8391, 6413.970
492.3213, 6146.971
492.8034, 5894.388
493.2855, 5670.112
493.7676, 5465.986
494.2497, 5252.570
494.7318, 5032.134
495.2140, 4826.506
495.6961, 4668.008
496.1782, 4534.412
496.6603, 4390.765
497.1424, 4218.783
497.6245, 4053.285
498.1067, 3919.604
498.5888, 3811.870
499.0709, 3715.401
499.5530, 3633.383
500.0351, 3552.052
500.5172, 3460.361
500.9994, 3356.696
501.4815, 3258.574
501.9636, 3163.600
502.4457, 3078.295
502.9278, 3008.675
503.4099, 2974.823
503.8921, 2930.429
504.3742, 2864.439
504.8563, 2784.286
505.3384, 2722.358
505.8205, 2687.819
506.3026, 2654.365
506.7848, 2608.833
507.2669, 2548.873
507.7490, 2489.433
508.2311, 2426.956
508.7132, 2373.181
509.1953, 2353.321
509.6775, 2363.357
510.1596, 2355.108
510.6417, 2302.572
511.1238, 2228.818
511.6059, 2176.933
512.0880, 2145.800
512.5701, 2125.500
513.0522, 2117.134
513.5344, 2111.806
514.0165, 2096.113
514.4986, 2062.895
514.9807, 2033.380
515.4628, 2027.995
515.9449, 2034.140
516.4271, 2030.506
516.9092, 2004.545
517.3913, 1972.813
517.8734, 1938.264
518.3555, 1900.837
518.8376, 1871.215
519.3198, 1854.542
519.8019, 1843.386
520.2840, 1833.328
520.7661, 1824.499
521.2482, 1816.937
521.7303, 1811.728
522.2125, 1807.123
522.6946, 1798.537
523.1767, 1784.620
523.6588, 1772.264
524.1409, 1766.126
524.6230, 1764.779
525.1052, 1754.579
525.5873, 1734.326
526.0694, 1714.678
526.5515, 1707.212
527.0336, 1708.889
527.5157, 1712.103
527.9979, 1717.612
528.4800, 1719.350
528.9621, 1708.624
529.4442, 1688.403
529.9263, 1667.106
530.4084, 1646.367
530.8906, 1628.219
531.3727, 1615.085
531.8548, 1607.523
532.3369, 1600.435
532.8190, 1589.123
533.3011, 1578.899
533.7833, 1574.768
534.2654, 1583.725
534.7475, 1591.058
535.2296, 1594.554
535.7117, 1595.407
536.1938, 1598.412
536.6760, 1606.735
537.1581, 1611.378
537.6402, 1608.567
538.1223, 1598.048
538.6044, 1582.063
539.0865, 1558.697
539.5687, 1535.043
540.0508, 1518.221
540.5329, 1507.998
541.0150, 1505.578
541.4971, 1515.258
541.9792, 1527.720
542.4614, 1525.532
542.9435, 1511.761
543.4256, 1500.660
543.9077, 1506.526
544.3898, 1515.868
544.8719, 1514.632
545.3541, 1500.159
545.8362, 1484.502
546.3183, 1469.510
546.8004, 1457.836
547.2825, 1452.251
547.7646, 1462.566
548.2468, 1468.830
548.7289, 1465.956
549.2110, 1455.602
549.6931, 1444.256
550.1752, 1425.462
550.6573, 1414.565
551.1395, 1420.750
551.6216, 1448.676
552.1037, 1465.779
552.5858, 1470.739
553.0679, 1468.146
553.5500, 1462.569
554.0322, 1454.071
554.5143, 1441.447
554.9964, 1420.645
555.4785, 1400.290
555.9606, 1400.377
556.4427, 1417.375
556.9249, 1432.176
557.4070, 1431.541
557.8891, 1423.326
558.3712, 1415.676
558.8533, 1409.378
559.3354, 1403.486
559.8176, 1396.090
560.2997, 1389.341
560.7818, 1385.437
561.2639, 1382.710
561.7460, 1385.392
562.2281, 1400.247
562.7103, 1422.353
563.1924, 1433.323
563.6745, 1429.883
564.1566, 1419.299
564.6387, 1401.306
565.1208, 1373.946
565.6030, 1358.836
566.0851, 1359.140
566.5672, 1364.734
567.0493, 1364.644
567.5314, 1359.333
568.0135, 1359.433
568.4957, 1368.521
568.9778, 1381.090
569.4599, 1389.962
569.9420, 1394.938
570.4241, 1394.763
570.9063, 1380.148
571.3884, 1365.352
571.8705, 1367.716
572.3526, 1387.804
572.8347, 1405.903
573.3168, 1410.519
573.7990, 1409.136
574.2811, 1407.966
574.7632, 1409.603
575.2453, 1409.595
575.7274, 1405.658
576.2095, 1399.866
576.6917, 1396.493
577.1738, 1397.173
577.6559, 1397.531
578.1380, 1395.923
578.6201, 1392.583
579.1022, 1391.447
579.5844, 1392.634
580.0665, 1395.531
580.5486, 1401.971
581.0307, 1410.785
581.5128, 1412.100
581.9949, 1403.310
582.4771, 1392.242
582.9592, 1386.065
583.4413, 1385.076
583.9234, 1390.013
584.4055, 1410.985
584.8876, 1430.203
585.3698, 1431.204
585.8519, 1417.130
586.3340, 1405.130
586.8161, 1403.720
587.2982, 1405.536
587.7803, 1406.971
588.2625, 1408.494
588.7446, 1407.256
589.2267, 1400.393
589.7088, 1392.611
590.1909, 1388.813
590.6730, 1389.467
591.1552, 1393.129
591.6373, 1400.448
592.1194, 1410.083
592.6015, 1419.062
593.0836, 1427.562
593.5657, 1432.551
594.0479, 1432.105
594.5300, 1426.948
595.0121, 1416.728
595.4942, 1401.156
595.9763, 1389.126
596.4584, 1390.070
596.9406, 1398.332
597.4227, 1407.207
597.9048, 1418.074
598.3869, 1423.809
598.8690, 1415.881
599.3511, 1401.153
599.8333, 1392.828
600.3154, 1393.631
600.7975, 1401.548
601.2796, 1420.666
601.7617, 1450.484
602.2438, 1466.352
602.7260, 1464.113
603.2081, 1455.324
603.6902, 1444.979
604.1723, 1432.352
604.6544, 1428.511
605.1365, 1436.051
605.6187, 1446.250
606.1008, 1447.102
606.5829, 1440.358
607.0650, 1433.354
607.5471, 1428.878
608.0292, 1424.674
608.5114, 1414.977
608.9935, 1402.538
609.4756, 1397.049
609.9577, 1410.847
610.4398, 1427.684
610.9219, 1437.891
611.4041, 1440.186
611.8862, 1439.451
612.3683, 1432.139
612.8504, 1425.037
613.3325, 1423.478
613.8146, 1431.202
614.2968, 1437.315
614.7789, 1441.831
615.2610, 1444.060
615.7431, 1442.023
616.2252, 1435.412
616.7073, 1427.466
617.1895, 1416.743
617.6716, 1406.651
618.1537, 1410.977
618.6358, 1428.339
619.1179, 1440.898
619.6000, 1428.447
620.0822, 1407.476
620.5643, 1399.552
621.0464, 1409.365
621.5285, 1419.994
622.0106, 1422.129
622.4927, 1420.231
