##NAMES=Analcime
##RRUFFID=R060023
##IDEAL CHEMISTRY=NaAlSi_2_O_6_&#183;H_2_O
##LOCALITY=Dallas, Oregon, USA
##OWNER=RRUFF
##SOURCE=Bob Downs
##DESCRIPTION=White trapezohedral crystal associated with levyne-Na, R060021
##STATUS=The identification of this mineral has been confirmed by X-ray diffraction and chemical analysis
##URL=rruff.info/R060023
##MEASURED CHEMISTRY=(Na_0.98_[box]_0.02_)_Σ=1_(Si_2.02_Al_0.98_)O_6_·H_2_O
152.3061, 108.9036
152.7882, 108.3444
153.2704, 107.6789
153.7525, 106.9630
154.2346, 105.9009
154.7167, 103.9276
155.1988, 102.0974
155.6809, 101.1465
156.1631, 101.1233
156.6452, 101.4571
157.1273, 101.3762
157.6094, 100.6777
158.0915, 99.90971
158.5736, 98.94472
159.0558, 97.97491
159.5379, 97.15205
160.0200, 96.51881
160.5021, 96.09611
160.9842, 96.05237
161.4663, 96.61772
161.9485, 96.76719
162.4306, 95.96582
162.9127, 94.62029
163.3948, 93.50462
163.8769, 92.90112
164.3590, 92.59046
164.8412, 92.18826
165.3233, 91.64979
165.8054, 91.22120
166.2875, 91.27000
166.7696, 91.68509
167.2517, 91.57832
167.7339, 90.14355
168.2160, 88.47273
168.6981, 87.78123
169.1802, 88.28915
169.6623, 89.05534
170.1444, 89.07905
170.6266, 88.22780
171.1087, 87.46680
171.5908, 87.17913
172.0729, 87.02737
172.5550, 86.75906
173.0371, 86.29517
173.5193, 85.81729
174.0014, 85.65845
174.4835, 86.02750
174.9656, 86.27102
175.4477, 86.21261
175.9298, 86.03912
176.4120, 85.94873
176.8941, 86.02547
177.3762, 86.13951
177.8583, 85.90313
178.3404, 84.69632
178.8225, 83.96766
179.3047, 84.20982
179.7868, 84.86079
180.2689, 85.24751
180.7510, 85.01356
181.2331, 84.32569
181.7152, 83.93907
182.1974, 84.16710
182.6795, 84.33674
183.1616, 84.33397
183.6437, 84.19888
184.1258, 83.97069
184.6079, 83.64029
185.0900, 83.26588
185.5722, 83.24966
186.0543, 84.10001
186.5364, 84.69688
187.0185, 84.36913
187.5006, 83.38634
187.9827, 82.58923
188.4649, 82.48895
188.9470, 83.01500
189.4291, 83.60574
189.9112, 84.67654
190.3933, 85.46117
190.8754, 85.23170
191.3576, 84.06374
191.8397, 82.98753
192.3218, 82.70156
192.8039, 82.93143
193.2860, 83.00137
193.7681, 82.76826
194.2503, 82.41926
194.7324, 82.08463
195.2145, 81.73801
195.6966, 81.57552
196.1787, 82.06335
196.6608, 82.71656
197.1430, 82.91016
197.6251, 82.27690
198.1072, 81.27570
198.5893, 80.66982
199.0714, 80.55712
199.5535, 80.59587
200.0357, 80.84773
200.5178, 81.09362
200.9999, 81.01582
201.4820, 80.36589
201.9641, 79.42860
202.4462, 79.05483
202.9284, 79.69527
203.4105, 80.15883
203.8926, 80.03969
204.3747, 79.59624
204.8568, 79.13857
205.3389, 78.83379
205.8211, 78.64710
206.3032, 78.42538
206.7853, 78.09497
207.2674, 77.82172
207.7495, 77.56153
208.2316, 77.38947
208.7138, 77.46457
209.1959, 77.91800
209.6780, 78.64832
210.1601, 78.89872
210.6422, 78.03053
211.1243, 77.33036
211.6065, 77.08471
212.0886, 77.14882
212.5707, 77.25121
213.0528, 77.21050
213.5349, 77.06113
214.0170, 77.15537
214.4992, 77.82486
214.9813, 78.35603
215.4634, 78.46819
215.9455, 78.29595
216.4276, 78.16415
216.9097, 78.30624
217.3919, 78.66035
217.8740, 78.62186
218.3561, 77.83791
218.8382, 77.12150
219.3203, 76.78576
219.8024, 76.76894
220.2845, 76.88100
220.7667, 77.03779
221.2488, 77.22038
221.7309, 77.33045
222.2130, 77.35885
222.6951, 77.33524
223.1772, 77.24574
223.6594, 77.10480
224.1415, 76.97647
224.6236, 76.88736
225.1057, 76.84567
225.5878, 76.85477
226.0699, 76.95890
226.5521, 77.06286
227.0342, 77.09132
227.5163, 77.05168
227.9984, 77.03788
228.4805, 77.19557
228.9626, 77.34840
229.4448, 77.15147
229.9269, 76.37101
230.4090, 75.56448
230.8911, 75.30434
231.3732, 75.59577
231.8553, 75.73463
232.3375, 75.29271
232.8196, 74.58326
233.3017, 73.97295
233.7838, 73.50462
234.2659, 73.15845
234.7480, 72.99582
235.2302, 73.05102
235.7123, 72.95544
236.1944, 72.35900
236.6765, 71.66542
237.1586, 71.27702
237.6407, 71.32204
238.1229, 71.39368
238.6050, 70.89989
239.0871, 69.69222
239.5692, 68.72864
240.0513, 68.49232
240.5334, 68.46652
241.0156, 68.34792
241.4977, 68.06701
241.9798, 67.67454
242.4619, 67.18473
242.9440, 66.52324
243.4261, 66.04836
243.9083, 66.11597
244.3904, 66.18959
244.8725, 65.84666
245.3546, 65.03001
245.8367, 64.11772
246.3188, 63.66749
246.8010, 63.87774
247.2831, 63.93602
247.7652, 63.64338
248.2473, 63.29053
248.7294, 63.03684
249.2115, 62.91190
249.6937, 62.85928
250.1758, 62.82386
250.6579, 62.84340
251.1400, 62.77123
251.6221, 62.53274
252.1042, 62.27161
252.5864, 62.05517
253.0685, 61.89667
253.5506, 61.78811
254.0327, 61.73021
254.5148, 61.76173
254.9969, 61.71681
255.4790, 61.53107
255.9612, 61.33575
256.4433, 61.18982
256.9254, 61.10319
257.4075, 61.06074
257.8896, 61.04634
258.3718, 61.05561
258.8539, 61.11843
259.3360, 61.37817
259.8181, 61.55791
260.3002, 61.42499
260.7823, 61.04250
261.2645, 60.70087
261.7466, 60.69179
262.2287, 61.08289
262.7108, 61.30204
263.1929, 61.26360
263.6750, 61.17473
264.1572, 61.17214
264.6393, 61.21853
265.1214, 61.14573
265.6035, 60.78734
266.0856, 60.12894
266.5677, 59.73250
267.0499, 59.74097
267.5320, 59.80291
268.0141, 59.80796
268.4962, 59.74584
268.9783, 59.60645
269.4604, 59.35825
269.9426, 59.02403
270.4247, 58.90823
270.9068, 59.22163
271.3889, 59.48107
271.8710, 59.46891
272.3531, 59.25975
272.8352, 59.02954
273.3174, 58.85802
273.7995, 58.76098
274.2816, 58.82886
274.7637, 59.24208
275.2458, 59.57790
275.7279, 59.68562
276.2101, 59.62529
276.6922, 59.49380
277.1743, 59.30870
277.6564, 59.13020
278.1385, 59.16813
278.6206, 59.58313
279.1028, 59.87243
279.5849, 59.69444
280.0670, 59.32494
280.5491, 59.30035
281.0312, 59.86223
281.5133, 60.70113
281.9955, 61.19095
282.4776, 61.22729
282.9597, 61.37398
283.4418, 61.82335
283.9239, 62.45422
284.4060, 63.10236
284.8882, 63.73916
285.3703, 64.32197
285.8524, 64.70786
286.3345, 64.85340
286.8166, 65.26168
287.2987, 66.13368
287.7809, 67.28515
288.2630, 68.51273
288.7451, 69.77975
289.2272, 71.06653
289.7093, 72.26619
290.1914, 73.40063
290.6736, 74.81918
291.1557, 76.70622
291.6378, 78.83748
292.1199, 81.03228
292.6020, 83.27314
293.0841, 85.45692
293.5663, 87.39068
294.0484, 89.17464
294.5305, 91.28734
295.0126, 94.28355
295.4947, 97.27170
295.9768, 99.47937
296.4590, 100.9009
296.9411, 101.9270
297.4232, 102.7986
297.9053, 103.3922
298.3874, 103.5133
298.8695, 103.1623
299.3517, 102.3260
299.8338, 100.9514
300.3159, 99.05984
300.7980, 96.76019
301.2801, 93.95719
301.7622, 90.88173
302.2444, 88.01784
302.7265, 85.38139
303.2086, 82.89794
303.6907, 80.47121
304.1728, 78.14246
304.6549, 76.13829
305.1371, 74.61579
305.6192, 73.32117
306.1013, 71.83170
306.5834, 70.10189
307.0655, 68.56016
307.5476, 67.43794
308.0298, 66.63144
308.5119, 65.92189
308.9940, 65.29545
309.4761, 64.68163
309.9582, 63.86263
310.4403, 62.87830
310.9225, 62.28358
311.4046, 62.61650
311.8867, 63.32344
312.3688, 63.49506
312.8509, 62.97224
313.3330, 62.29106
313.8152, 61.86773
314.2973, 61.65081
314.7794, 61.50730
315.2615, 61.43437
315.7436, 61.40892
316.2257, 61.44690
316.7079, 61.55322
317.1900, 61.57586
317.6721, 61.36761
318.1542, 61.01880
318.6363, 60.75852
319.1184, 60.65013
319.6006, 60.57748
320.0827, 60.42211
320.5648, 60.20412
321.0469, 60.08197
321.5290, 60.15426
322.0111, 60.33974
322.4933, 60.47242
322.9754, 60.53237
323.4575, 60.60064
323.9396, 60.71698
324.4217, 60.87545
324.9038, 61.08702
325.3860, 61.41193
325.8681, 61.68198
326.3502, 61.53399
326.8323, 60.95011
327.3144, 60.68415
327.7965, 61.26051
328.2787, 62.25680
328.7608, 62.96997
329.2429, 63.27692
329.7250, 63.37320
330.2071, 63.37555
330.6892, 63.30268
331.1714, 63.26277
331.6535, 63.25431
332.1356, 63.30071
332.6177, 63.46143
333.0998, 63.73851
333.5819, 63.97512
334.0641, 63.94735
334.5462, 63.81407
335.0283, 64.13926
335.5104, 65.52039
335.9925, 66.79334
336.4746, 66.95161
336.9568, 66.24490
337.4389, 65.84919
337.9210, 66.39899
338.4031, 67.48316
338.8852, 68.10610
339.3673, 68.09947
339.8495, 68.11031
340.3316, 68.44369
340.8137, 68.96513
341.2958, 69.40955
341.7779, 69.69372
342.2600, 69.89574
342.7421, 70.13863
343.2242, 70.43911
343.7064, 70.64939
344.1885, 70.52842
344.6706, 70.41056
345.1527, 70.76328
345.6348, 71.65024
346.1169, 72.58900
346.5991, 73.13285
347.0812, 73.25197
347.5633, 73.43726
348.0454, 73.63698
348.5275, 73.94893
349.0096, 74.51181
349.4918, 75.27576
349.9739, 75.98475
350.4560, 76.45692
350.9381, 76.76662
351.4202, 77.29002
351.9023, 78.38074
352.3845, 79.24072
352.8666, 79.45676
353.3487, 79.30229
353.8308, 79.27120
354.3129, 79.56113
354.7950, 80.02553
355.2772, 80.37554
355.7593, 80.50035
356.2414, 80.75451
356.7235, 81.23580
357.2056, 81.82510
357.6877, 82.39190
358.1699, 82.91800
358.6520, 83.49717
359.1341, 84.27512
359.6162, 85.34107
360.0983, 86.05697
360.5804, 85.99831
361.0626, 86.01102
361.5447, 86.70824
362.0268, 87.92533
362.5089, 89.00195
362.9910, 89.44732
363.4731, 89.35812
363.9553, 89.61539
364.4374, 90.22353
364.9195, 91.14553
365.4016, 92.67300
365.8837, 94.42571
366.3658, 95.88618
366.8480, 96.84424
367.3301, 97.46629
367.8122, 98.09946
368.2943, 98.75426
368.7764, 99.40396
369.2585, 99.93410
369.7407, 100.5359
370.2228, 101.4867
370.7049, 102.7476
371.1870, 103.9047
371.6691, 104.4353
372.1512, 104.1589
372.6334, 104.3397
373.1155, 105.4909
373.5976, 106.5610
374.0797, 106.9558
374.5618, 106.9690
375.0439, 107.3195
375.5261, 108.5357
376.0082, 110.3840
376.4903, 111.6553
376.9724, 111.7613
377.4545, 112.1143
377.9366, 113.2828
378.4188, 114.6328
378.9009, 115.4403
379.3830, 115.4723
379.8651, 115.1958
380.3472, 115.3298
380.8293, 115.9422
381.3115, 116.7521
381.7936, 118.1146
382.2757, 119.3602
382.7578, 120.0321
383.2399, 120.1940
383.7220, 120.3174
384.2042, 120.8595
384.6863, 121.7792
385.1684, 122.4192
385.6505, 122.6170
386.1326, 122.7571
386.6147, 122.9934
387.0969, 123.2867
387.5790, 123.5600
388.0611, 123.7587
388.5432, 123.9652
389.0253, 124.4110
389.5074, 125.2106
389.9896, 125.7502
390.4717, 125.7231
390.9538, 125.3922
391.4359, 124.8677
391.9180, 124.1542
392.4001, 123.5171
392.8823, 123.2930
393.3644, 123.3893
393.8465, 123.1932
394.3286, 122.4757
394.8107, 121.6730
395.2928, 121.2196
395.7750, 121.0085
396.2571, 120.6407
396.7392, 119.7812
397.2213, 118.7636
397.7034, 118.1787
398.1855, 118.0864
398.6677, 117.7630
399.1498, 116.6912
399.6319, 115.1176
400.1140, 113.6657
400.5961, 112.3844
401.0782, 111.1899
401.5604, 109.9773
402.0425, 108.8018
402.5246, 107.8726
403.0067, 107.3313
403.4888, 106.8542
403.9709, 105.9271
404.4531, 104.5208
404.9352, 103.0562
405.4173, 101.5221
405.8994, 100.0104
406.3815, 98.71465
406.8636, 97.61408
407.3458, 96.33834
407.8279, 94.52319
408.3100, 92.22642
408.7921, 90.44712
409.2742, 89.48693
409.7563, 88.64001
410.2385, 87.71087
410.7206, 86.71622
411.2027, 85.73144
411.6848, 84.79305
412.1669, 83.82537
412.6490, 82.65721
413.1311, 80.96897
413.6133, 79.65418
414.0954, 79.02433
414.5775, 78.52713
415.0596, 77.74557
415.5417, 76.66137
416.0238, 75.52878
416.5060, 74.59139
416.9881, 73.86038
417.4702, 73.02873
417.9523, 71.77138
418.4344, 70.76164
418.9165, 70.29124
419.3987, 70.13157
419.8808, 69.96717
420.3629, 69.65787
420.8450, 69.23844
421.3271, 68.75253
421.8092, 68.10495
422.2914, 67.64223
422.7735, 67.56900
423.2556, 67.55058
423.7377, 67.36868
424.2198, 67.02139
424.7019, 66.66444
425.1841, 66.44520
425.6662, 66.34763
426.1483, 66.19642
426.6304, 65.93764
427.1125, 65.71577
427.5946, 65.50774
428.0768, 65.39358
428.5589, 65.54290
429.0410, 66.10490
429.5231, 66.75095
430.0052, 67.04186
430.4873, 66.97092
430.9695, 66.85326
431.4516, 66.68906
431.9337, 66.61321
432.4158, 66.79164
432.8979, 67.22710
433.3800, 67.65185
433.8622, 67.94302
434.3443, 68.13880
434.8264, 68.26274
435.3085, 68.29790
435.7906, 68.43372
436.2727, 68.84529
436.7549, 69.49052
437.2370, 70.10906
437.7191, 70.62388
438.2012, 71.17840
438.6833, 71.94853
439.1654, 72.81939
439.6476, 73.49158
440.1297, 73.83738
440.6118, 74.00623
441.0939, 74.22697
441.5760, 74.45137
442.0581, 74.88399
442.5403, 75.63789
443.0224, 76.52947
443.5045, 77.49113
443.9866, 78.47377
444.4687, 79.32105
444.9508, 79.86503
445.4330, 80.16587
445.9151, 80.93363
446.3972, 82.57217
446.8793, 84.20451
447.3614, 85.78515
447.8435, 87.25797
448.3257, 88.45884
448.8078, 89.37235
449.2899, 90.34132
449.7720, 91.94749
450.2541, 94.45710
450.7362, 96.66505
451.2184, 98.07042
451.7005, 99.63736
452.1826, 101.7393
452.6647, 104.3239
453.1468, 107.2419
453.6289, 110.4728
454.1111, 113.8976
454.5932, 117.0975
455.0753, 119.9291
455.5574, 123.0401
456.0395, 126.6922
456.5216, 130.6942
457.0038, 134.8741
457.4859, 139.2406
457.9680, 143.9135
458.4501, 149.0277
458.9322, 154.5472
459.4143, 160.2787
459.8965, 166.2157
460.3786, 172.2892
460.8607, 178.3416
461.3428, 184.4804
461.8249, 191.0541
462.3070, 197.9963
462.7892, 205.5187
463.2713, 213.9767
463.7534, 223.1937
464.2355, 232.3574
464.7176, 241.1231
465.1997, 249.8799
465.6819, 259.4368
466.1640, 269.9064
466.6461, 280.4681
467.1282, 290.5547
467.6103, 301.0420
468.0924, 312.8506
468.5746, 325.8324
469.0567, 339.1224
469.5388, 351.9604
470.0209, 364.5020
470.5030, 378.3136
470.9851, 394.1808
471.4673, 410.3102
471.9494, 426.2415
472.4315, 442.4668
472.9136, 459.5586
473.3957, 477.5839
473.8778, 496.1246
474.3600, 514.4855
474.8421, 532.4180
475.3242, 552.0179
475.8063, 575.7335
476.2884, 598.6778
476.7705, 619.2751
477.2527, 638.0789
477.7348, 656.2401
478.2169, 674.3951
478.6990, 691.7454
479.1811, 707.2844
479.6632, 721.2506
480.1454, 731.8238
480.6275, 738.1349
481.1096, 741.0704
481.5917, 741.9773
482.0738, 740.7222
482.5559, 736.0959
483.0380, 727.1219
483.5201, 714.5628
484.0023, 699.2030
484.4844, 681.0299
484.9665, 661.6754
485.4486, 642.2437
485.9307, 622.0955
486.4128, 599.4288
486.8950, 573.3162
487.3771, 547.0106
487.8592, 520.9529
488.3413, 495.6585
488.8234, 471.7084
489.3055, 449.1165
489.7877, 427.5815
490.2698, 406.8746
490.7519, 386.9029
491.2340, 368.2226
491.7161, 350.5743
492.1982, 334.0409
492.6804, 318.9756
493.1625, 304.8529
493.6446, 290.7552
494.1267, 276.3365
494.6088, 262.3521
495.0909, 250.2148
495.5731, 240.4314
496.0552, 230.8984
496.5373, 221.3872
497.0194, 212.3473
497.5015, 204.1051
497.9836, 196.5145
498.4658, 189.2551
498.9479, 182.1881
499.4300, 175.3095
499.9121, 168.4853
500.3942, 161.6976
500.8763, 155.3353
501.3585, 149.4754
501.8406, 144.1765
502.3227, 139.4604
502.8048, 135.3163
503.2869, 131.4261
503.7690, 127.8203
504.2512, 124.2882
504.7333, 120.3700
505.2154, 116.0148
505.6975, 112.1231
506.1796, 109.3417
506.6617, 107.3364
507.1439, 105.0034
507.6260, 102.0070
508.1081, 99.31422
508.5902, 97.43435
509.0723, 95.86504
509.5544, 93.99449
510.0366, 91.74863
510.5187, 89.42980
511.0008, 87.29911
511.4829, 85.35684
511.9650, 83.64359
512.4471, 82.28344
512.9293, 81.00633
513.4114, 79.94680
513.8935, 78.86109
514.3756, 77.34249
514.8577, 75.32088
515.3398, 73.30453
515.8220, 72.06554
516.3041, 71.70993
516.7862, 70.97153
517.2683, 69.46552
517.7504, 68.06670
518.2325, 67.23376
518.7147, 66.74976
519.1968, 66.27135
519.6789, 65.70481
520.1610, 65.04440
520.6431, 64.27054
521.1252, 63.39120
521.6074, 62.46295
522.0895, 61.49037
522.5716, 60.50004
523.0537, 59.39246
523.5358, 58.20978
524.0179, 57.44619
524.5001, 57.68827
524.9822, 57.92729
525.4643, 57.37720
525.9464, 56.21488
526.4285, 54.94962
526.9106, 53.76187
527.3928, 52.78462
527.8749, 52.29968
528.3570, 52.66935
528.8391, 52.68257
529.3212, 52.09547
529.8033, 51.40424
530.2855, 50.80049
530.7676, 50.32483
531.2497, 50.03767
531.7318, 50.00331
532.2139, 50.05372
532.6960, 49.68988
533.1782, 48.69276
533.6603, 47.90545
534.1424, 47.62181
534.6245, 47.46777
535.1066, 47.26771
535.5887, 47.01033
536.0709, 46.72755
536.5530, 46.44105
537.0351, 46.14118
537.5172, 45.81401
537.9993, 45.46205
538.4814, 45.05151
538.9636, 44.53636
539.4457, 43.98458
539.9278, 43.48553
540.4099, 43.02816
540.8920, 42.67400
541.3741, 42.48454
541.8563, 42.37492
542.3384, 42.33266
542.8205, 42.31376
543.3026, 42.10971
543.7847, 41.54968
544.2668, 40.78582
544.7490, 40.38822
545.2311, 40.86083
545.7132, 41.00769
546.1953, 40.66192
546.6774, 40.10045
547.1595, 39.36901
547.6417, 38.58570
548.1238, 38.06191
548.6059, 38.10065
549.0880, 38.52597
549.5701, 38.62586
550.0522, 38.31915
550.5344, 37.89347
551.0165, 37.18349
551.4986, 36.55100
551.9807, 36.35587
552.4628, 36.60571
552.9449, 36.87651
553.4271, 36.96368
553.9092, 36.89560
554.3913, 36.68367
554.8734, 36.32833
555.3555, 35.96368
555.8376, 35.64483
556.3198, 35.37713
556.8019, 35.19107
557.2840, 35.15412
557.7661, 35.02303
558.2482, 34.58157
558.7303, 34.14560
559.2125, 34.07719
559.6946, 34.32508
560.1767, 34.51061
560.6588, 34.35971
561.1409, 33.95320
561.6230, 33.63868
562.1052, 33.44904
562.5873, 33.29564
563.0694, 33.16695
563.5515, 33.06735
564.0336, 33.00567
564.5157, 32.97812
564.9979, 32.97584
565.4800, 33.03774
565.9621, 33.09515
566.4442, 32.88375
566.9263, 32.32777
567.4084, 32.03856
567.8906, 32.41353
568.3727, 33.02651
568.8548, 33.32572
569.3369, 33.30164
569.8190, 33.17299
570.3011, 32.87464
570.7833, 32.60019
571.2654, 32.62159
571.7475, 32.88186
572.2296, 33.05734
572.7117, 32.97237
573.1938, 32.71496
573.6760, 32.48552
574.1581, 32.18620
574.6402, 32.11536
575.1223, 32.54537
575.6044, 32.94283
576.0865, 32.86623
576.5687, 32.49133
577.0508, 32.34258
577.5329, 32.75259
578.0150, 33.42308
578.4971, 33.70205
578.9792, 33.53250
579.4614, 33.27298
579.9435, 32.84719
580.4256, 32.50038
580.9077, 32.45404
581.3898, 32.64242
581.8719, 32.80465
582.3541, 32.81853
582.8362, 32.79467
583.3183, 32.82157
583.8004, 32.89811
584.2825, 33.03541
584.7646, 33.24899
585.2468, 33.46591
585.7289, 33.58688
586.2110, 33.58760
586.6931, 33.62878
587.1752, 33.79548
587.6573, 33.90812
588.1394, 33.79406
588.6215, 33.61095
589.1036, 33.64162
589.5858, 33.97203
590.0679, 34.36797
590.5500, 34.47062
591.0321, 34.23571
591.5142, 34.19001
591.9963, 34.47676
592.4785, 34.74239
592.9606, 34.77954
593.4427, 34.72548
593.9248, 34.80683
594.4069, 35.11913
594.8890, 35.35390
595.3712, 35.16698
595.8533, 34.75246
596.3354, 34.57885
596.8175, 34.71418
597.2996, 34.94030
597.7817, 35.12394
598.2639, 35.26355
598.7460, 35.34251
599.2281, 35.32277
599.7102, 35.30445
600.1923, 35.28942
600.6744, 35.29058
601.1566, 35.35954
601.6387, 35.46917
602.1208, 35.48865
602.6029, 35.28900
603.0850, 34.96278
603.5671, 34.88941
604.0493, 35.14934
604.5314, 35.44865
605.0135, 35.81823
605.4956, 36.13247
605.9777, 36.26918
606.4598, 36.25187
606.9420, 36.24567
607.4241, 36.34024
607.9062, 36.47783
608.3883, 36.54705
608.8704, 36.57952
609.3525, 36.80459
609.8347, 37.36148
610.3168, 37.92491
610.7989, 38.00293
611.2810, 37.44287
611.7631, 37.15551
612.2452, 37.23882
612.7274, 37.47482
613.2095, 37.88320
613.6916, 38.34714
614.1737, 38.67758
614.6558, 38.81898
615.1379, 38.93096
615.6201, 39.23949
616.1022, 39.75024
616.5843, 40.20414
617.0664, 40.66170
617.5485, 40.94373
618.0306, 40.74749
618.5128, 40.42670
618.9949, 40.47946
619.4770, 41.05678
619.9591, 41.54180
620.4412, 41.40845
620.9233, 41.04543
621.4055, 41.10816
621.8876, 41.61375
622.3697, 42.10683
622.8518, 42.34705
623.3339, 42.32228
623.8160, 41.97874
624.2982, 40.85332
624.7803, 40.17532
625.2624, 40.31008
625.7445, 40.54750
626.2266, 40.49186
626.7087, 40.17531
627.1909, 39.76599
627.6730, 39.34266
628.1551, 38.92292
628.6372, 38.53047
629.1193, 38.16340
629.6014, 37.85633
630.0836, 37.60479
630.5657, 37.43264
631.0478, 37.49889
631.5299, 37.66376
632.0120, 37.53511
632.4941, 36.79387
632.9763, 36.13337
633.4584, 36.04054
633.9405, 36.18640
634.4226, 36.04958
634.9047, 35.56397
635.3868, 35.05978
635.8690, 34.82267
636.3511, 34.80808
636.8332, 34.70323
637.3153, 34.42738
637.7974, 34.19378
638.2795, 34.05074
638.7617, 33.93608
639.2438, 33.77340
639.7259, 33.58937
640.2080, 33.51339
640.6901, 33.69250
641.1722, 33.93694
641.6544, 33.92773
642.1365, 33.69039
642.6186, 33.50075
643.1007, 33.47223
643.5828, 33.40926
644.0649, 33.05450
644.5471, 32.38673
645.0292, 31.91022
645.5113, 31.64688
645.9934, 31.54747
646.4755, 31.72791
646.9576, 31.99821
647.4398, 32.09641
647.9219, 31.98812
648.4040, 31.86548
