##NAMES=Analcime
##RRUFFID=R040128
##IDEAL CHEMISTRY=NaAlSi_2_O_6_&#183;H_2_O
##LOCALITY=Mont Saint-Hilaire, Rouville County, Quebec, Canada
##OWNER=RRUFF
##SOURCE=Bob Downs
##DESCRIPTION=White trapezohedra associated with black arfvedsonite, R040127
##STATUS=The identification of this mineral has been confirmed by X-ray diffraction and chemical analysis
##URL=rruff.info/R040128
##MEASURED CHEMISTRY=Na_0.93_(Si_2.04_Al_0.99_)O_6_Â·H_2_O
134.7162, 2589.580
135.1983, 2656.841
135.6804, 2730.226
136.1626, 2813.144
136.6447, 2896.364
137.1268, 2961.017
137.6089, 3003.802
138.0910, 3037.829
138.5731, 3067.015
139.0553, 3090.091
139.5374, 3115.992
140.0195, 3145.600
140.5016, 3178.311
140.9837, 3211.645
141.4658, 3249.088
141.9480, 3282.188
142.4301, 3302.967
142.9122, 3301.652
143.3943, 3308.792
143.8764, 3329.357
144.3585, 3362.934
144.8407, 3399.419
145.3228, 3441.103
145.8049, 3483.715
146.2870, 3523.072
146.7691, 3558.857
147.2512, 3591.169
147.7334, 3619.013
148.2155, 3641.679
148.6976, 3664.173
149.1797, 3681.777
149.6618, 3700.654
150.1439, 3728.688
150.6261, 3777.415
151.1082, 3824.622
151.5903, 3865.360
152.0724, 3900.987
152.5545, 3926.516
153.0366, 3933.383
153.5188, 3930.009
154.0009, 3932.939
154.4830, 3951.834
154.9651, 3972.104
155.4472, 3987.650
155.9293, 3997.250
156.4115, 4002.662
156.8936, 3999.942
157.3757, 3992.207
157.8578, 3990.184
158.3399, 4000.574
158.8221, 4015.590
159.3042, 4030.280
159.7863, 4047.818
160.2684, 4060.592
160.7505, 4061.621
161.2326, 4052.911
161.7148, 4049.932
162.1969, 4067.579
162.6790, 4090.927
163.1611, 4105.370
163.6432, 4094.024
164.1253, 4082.321
164.6075, 4084.373
165.0896, 4100.708
165.5717, 4120.516
166.0538, 4142.045
166.5359, 4162.514
167.0180, 4178.057
167.5002, 4184.163
167.9823, 4186.722
168.4644, 4189.437
168.9465, 4192.377
169.4286, 4196.876
169.9107, 4203.974
170.3929, 4213.326
170.8750, 4224.408
171.3571, 4238.821
171.8392, 4253.896
172.3213, 4265.894
172.8034, 4273.034
173.2856, 4281.021
173.7677, 4296.794
174.2498, 4318.437
174.7319, 4339.062
175.2140, 4358.525
175.6961, 4373.507
176.1783, 4375.401
176.6604, 4354.862
177.1425, 4334.786
177.6246, 4349.365
178.1067, 4393.860
178.5888, 4438.551
179.0710, 4462.532
179.5531, 4470.412
180.0352, 4469.798
180.5173, 4456.367
180.9994, 4441.611
181.4815, 4445.323
181.9637, 4467.210
182.4458, 4496.893
182.9279, 4531.555
183.4100, 4568.381
183.8921, 4597.362
184.3742, 4614.672
184.8564, 4622.792
185.3385, 4625.642
185.8206, 4622.992
186.3027, 4618.157
186.7848, 4610.344
187.2669, 4601.066
187.7491, 4601.623
188.2312, 4621.410
188.7133, 4654.238
189.1954, 4676.457
189.6775, 4686.328
190.1596, 4692.689
190.6418, 4710.385
191.1239, 4738.811
191.6060, 4757.442
192.0881, 4749.166
192.5702, 4718.780
193.0524, 4711.534
193.5345, 4732.124
194.0166, 4763.594
194.4987, 4779.568
194.9808, 4779.154
195.4629, 4776.729
195.9451, 4779.858
196.4272, 4788.402
196.9093, 4791.589
197.3914, 4787.068
197.8735, 4780.354
198.3556, 4784.726
198.8378, 4802.641
199.3199, 4816.026
199.8020, 4811.274
200.2841, 4786.648
200.7662, 4771.582
201.2483, 4770.710
201.7305, 4777.614
202.2126, 4774.876
202.6947, 4759.461
203.1768, 4745.740
203.6589, 4742.093
204.1410, 4749.166
204.6232, 4763.225
205.1053, 4787.794
205.5874, 4817.478
206.0695, 4834.170
206.5516, 4836.200
207.0337, 4829.624
207.5159, 4816.037
207.9980, 4793.287
208.4801, 4774.776
208.9622, 4761.730
209.4443, 4754.190
209.9264, 4753.516
210.4086, 4762.267
210.8907, 4772.771
211.3728, 4777.770
211.8549, 4773.985
212.3370, 4776.775
212.8191, 4791.945
213.3013, 4816.868
213.7834, 4829.433
214.2655, 4825.374
214.7476, 4815.789
215.2297, 4808.763
215.7118, 4802.196
216.1940, 4804.381
216.6761, 4819.491
217.1582, 4846.783
217.6403, 4868.786
218.1224, 4885.430
218.6045, 4896.574
219.0867, 4900.567
219.5688, 4892.968
220.0509, 4888.734
220.5330, 4891.699
221.0151, 4902.061
221.4972, 4911.504
221.9794, 4919.228
222.4615, 4927.016
222.9436, 4937.193
223.4257, 4951.381
223.9078, 4964.894
224.3899, 4977.393
224.8721, 4989.394
225.3542, 4995.122
225.8363, 4990.760
226.3184, 4983.789
226.8005, 4983.916
227.2827, 4996.594
227.7648, 5005.892
228.2469, 5007.047
228.7290, 4998.866
229.2111, 4991.521
229.6932, 4983.723
230.1754, 4977.888
230.6575, 4977.351
231.1396, 4983.762
231.6217, 4992.836
232.1038, 5005.731
232.5859, 5025.358
233.0681, 5032.509
233.5502, 5022.531
234.0323, 5003.473
234.5144, 4986.432
234.9965, 4972.059
235.4786, 4958.712
235.9608, 4944.548
236.4429, 4927.523
236.9250, 4921.451
237.4071, 4936.779
237.8892, 4956.591
238.3713, 4950.709
238.8535, 4896.939
239.3356, 4854.886
239.8177, 4848.247
240.2998, 4891.290
240.7819, 4913.969
241.2640, 4907.515
241.7462, 4886.169
242.2283, 4874.500
242.7104, 4877.263
243.1925, 4881.909
243.6746, 4884.414
244.1567, 4884.006
244.6389, 4884.370
245.1210, 4887.113
245.6031, 4889.683
246.0852, 4886.915
246.5673, 4875.165
247.0494, 4864.225
247.5316, 4856.672
248.0137, 4851.253
248.4958, 4854.583
248.9779, 4872.448
249.4600, 4895.798
249.9421, 4907.260
250.4243, 4903.156
250.9064, 4893.875
251.3885, 4881.567
251.8706, 4863.021
252.3527, 4852.461
252.8348, 4852.253
253.3170, 4858.535
253.7991, 4865.624
254.2812, 4877.928
254.7633, 4882.310
255.2454, 4869.246
255.7275, 4828.167
256.2097, 4811.301
256.6918, 4829.603
257.1739, 4864.767
257.6560, 4881.323
258.1381, 4869.005
258.6202, 4859.380
259.1024, 4867.431
259.5845, 4900.888
260.0666, 4918.573
260.5487, 4914.605
261.0308, 4899.277
261.5129, 4890.577
261.9951, 4889.115
262.4772, 4893.101
262.9593, 4904.073
263.4414, 4925.394
263.9235, 4937.019
264.4056, 4934.904
264.8878, 4926.981
265.3699, 4927.645
265.8520, 4939.446
266.3341, 4952.571
266.8162, 4963.125
267.2983, 4970.309
267.7805, 4980.672
268.2626, 4997.473
268.7447, 5013.699
269.2268, 5012.447
269.7089, 4985.629
270.1910, 4970.595
270.6732, 4990.427
271.1553, 5051.640
271.6374, 5079.174
272.1195, 5063.750
272.6016, 5028.245
273.0837, 5010.764
273.5659, 5014.796
274.0480, 5018.359
274.5301, 5009.690
275.0122, 4987.958
275.4943, 4981.733
275.9764, 4994.878
276.4586, 5016.271
276.9407, 5028.856
277.4228, 5031.337
277.9049, 5034.994
278.3870, 5045.452
278.8691, 5062.250
279.3513, 5073.956
279.8334, 5079.287
280.3155, 5082.824
280.7976, 5089.357
281.2798, 5098.715
281.7619, 5113.877
282.2440, 5139.623
282.7261, 5173.710
283.2082, 5198.111
283.6903, 5211.451
284.1725, 5220.161
284.6546, 5231.549
285.1367, 5245.446
285.6188, 5259.900
286.1009, 5273.674
286.5830, 5287.383
287.0652, 5303.341
287.5473, 5321.263
288.0294, 5342.248
288.5115, 5367.628
288.9936, 5397.376
289.4757, 5430.192
289.9579, 5468.250
290.4400, 5508.567
290.9221, 5542.354
291.4042, 5569.050
291.8863, 5596.223
292.3684, 5629.709
292.8506, 5669.627
293.3327, 5717.492
293.8148, 5780.312
294.2969, 5847.911
294.7790, 5902.317
295.2611, 5943.688
295.7433, 5975.795
296.2254, 6002.564
296.7075, 6023.261
297.1896, 6035.071
297.6717, 6036.825
298.1538, 6030.053
298.6360, 6016.232
299.1181, 5995.404
299.6002, 5969.577
300.0823, 5938.554
300.5644, 5903.571
301.0465, 5866.034
301.5287, 5823.246
302.0108, 5781.939
302.4929, 5752.435
302.9750, 5732.803
303.4571, 5713.663
303.9392, 5686.560
304.4214, 5656.586
304.9035, 5629.695
305.3856, 5607.254
305.8677, 5589.367
306.3498, 5577.682
306.8319, 5571.355
307.3141, 5567.216
307.7962, 5566.162
308.2783, 5565.191
308.7604, 5560.700
309.2425, 5550.183
309.7246, 5540.187
310.2068, 5532.909
310.6889, 5529.162
311.1710, 5530.892
311.6531, 5545.971
312.1352, 5562.661
312.6173, 5571.416
313.0995, 5568.161
313.5816, 5564.180
314.0637, 5562.059
314.5458, 5563.036
315.0279, 5569.366
315.5100, 5592.198
315.9922, 5612.863
316.4743, 5618.027
316.9564, 5600.608
317.4385, 5590.764
317.9206, 5608.918
318.4027, 5638.226
318.8849, 5655.142
319.3670, 5639.475
319.8491, 5622.549
320.3312, 5616.157
320.8133, 5622.618
321.2954, 5630.833
321.7776, 5635.899
322.2597, 5642.724
322.7418, 5656.540
323.2239, 5695.056
323.7060, 5723.708
324.1881, 5730.266
324.6703, 5712.280
325.1524, 5699.545
325.6345, 5697.930
326.1166, 5700.434
326.5987, 5701.304
327.0808, 5690.233
327.5630, 5689.739
328.0451, 5708.121
328.5272, 5744.092
329.0093, 5769.862
329.4914, 5783.390
329.9735, 5788.089
330.4557, 5784.850
330.9378, 5764.683
331.4199, 5752.103
331.9020, 5748.690
332.3841, 5754.208
332.8662, 5768.544
333.3484, 5795.904
333.8305, 5825.491
334.3126, 5852.756
334.7947, 5879.029
335.2768, 5897.486
335.7589, 5905.266
336.2411, 5906.396
336.7232, 5911.436
337.2053, 5921.609
337.6874, 5932.012
338.1695, 5941.132
338.6516, 5949.168
339.1338, 5951.718
339.6159, 5945.194
340.0980, 5938.717
340.5801, 5951.534
341.0622, 5986.366
341.5443, 6016.693
342.0265, 6027.594
342.5086, 6022.033
342.9907, 6032.854
343.4728, 6064.096
343.9549, 6095.504
344.4370, 6094.130
344.9192, 6064.200
345.4013, 6046.737
345.8834, 6063.400
346.3655, 6100.995
346.8476, 6124.255
347.3297, 6132.791
347.8119, 6136.523
348.2940, 6140.540
348.7761, 6146.577
349.2582, 6160.658
349.7403, 6190.798
350.2225, 6223.614
350.7046, 6237.671
351.1867, 6235.095
351.6688, 6231.312
352.1509, 6236.881
352.6331, 6248.498
353.1152, 6261.992
353.5973, 6278.491
354.0794, 6292.776
354.5615, 6298.519
355.0436, 6297.856
355.5258, 6297.292
356.0079, 6293.363
356.4900, 6294.998
356.9721, 6312.949
357.4542, 6354.091
357.9363, 6393.825
358.4185, 6418.987
358.9006, 6433.344
359.3827, 6443.414
359.8648, 6437.114
360.3469, 6438.772
360.8290, 6467.449
361.3112, 6529.918
361.7933, 6581.531
362.2754, 6603.976
362.7575, 6610.234
363.2396, 6614.432
363.7217, 6607.171
364.2039, 6610.645
364.6860, 6638.240
365.1681, 6690.431
365.6502, 6728.334
366.1323, 6733.336
366.6144, 6731.580
367.0966, 6741.146
367.5787, 6774.371
368.0608, 6804.155
368.5429, 6821.081
369.0250, 6830.919
369.5071, 6864.164
369.9893, 6942.693
370.4714, 7018.974
370.9535, 7069.667
371.4356, 7084.806
371.9177, 7094.725
372.3998, 7094.455
372.8820, 7091.911
373.3641, 7107.010
373.8462, 7147.357
374.3283, 7185.276
374.8104, 7204.886
375.2925, 7203.078
375.7747, 7227.277
376.2568, 7288.688
376.7389, 7354.325
377.2210, 7370.034
377.7031, 7331.316
378.1852, 7308.713
378.6674, 7333.090
379.1495, 7390.333
379.6316, 7418.108
380.1137, 7413.790
380.5958, 7401.684
381.0779, 7401.251
381.5601, 7411.646
382.0422, 7429.648
382.5243, 7458.672
383.0064, 7490.016
383.4885, 7510.916
383.9706, 7521.750
384.4528, 7523.901
384.9349, 7507.375
385.4170, 7485.594
385.8991, 7483.907
386.3812, 7511.763
386.8633, 7541.339
387.3455, 7544.746
387.8276, 7529.939
388.3097, 7515.083
388.7918, 7507.493
389.2739, 7504.822
389.7560, 7505.376
390.2382, 7509.023
390.7203, 7515.893
391.2024, 7529.568
391.6845, 7545.272
392.1666, 7557.670
392.6487, 7570.153
393.1309, 7573.999
393.6130, 7562.417
394.0951, 7536.647
394.5772, 7511.169
395.0593, 7486.762
395.5414, 7465.603
396.0236, 7449.315
396.5057, 7443.158
396.9878, 7435.841
397.4699, 7415.563
397.9520, 7381.067
398.4341, 7388.836
398.9163, 7389.003
399.3984, 7381.979
399.8805, 7346.222
400.3626, 7347.568
400.8447, 7334.044
401.3268, 7319.911
401.8090, 7321.719
402.2911, 7314.036
402.7732, 7301.729
403.2553, 7284.324
403.7374, 7261.070
404.2195, 7232.181
404.7017, 7200.095
405.1838, 7162.638
405.6659, 7127.550
406.1480, 7104.634
406.6301, 7094.051
407.1122, 7077.227
407.5944, 7048.570
408.0765, 7013.992
408.5586, 6987.819
409.0407, 6969.829
409.5228, 6955.236
410.0049, 6941.648
410.4871, 6929.188
410.9692, 6919.958
411.4513, 6915.926
411.9334, 6907.831
412.4155, 6874.922
412.8976, 6827.421
413.3798, 6795.807
413.8619, 6814.295
414.3440, 6843.219
414.8261, 6836.496
415.3082, 6793.232
415.7903, 6749.667
416.2725, 6726.262
416.7546, 6716.630
417.2367, 6713.673
417.7188, 6726.588
418.2009, 6733.321
418.6830, 6717.794
419.1652, 6686.047
419.6473, 6660.825
420.1294, 6652.699
420.6115, 6650.700
421.0937, 6649.490
421.5758, 6650.256
422.0579, 6647.797
422.5400, 6633.596
423.0221, 6617.362
423.5042, 6615.068
423.9864, 6646.402
424.4685, 6670.063
424.9506, 6674.504
425.4327, 6657.806
425.9148, 6645.754
426.3969, 6639.361
426.8791, 6636.452
427.3612, 6634.695
427.8433, 6632.507
428.3254, 6637.573
428.8075, 6655.445
429.2896, 6679.564
429.7718, 6684.019
430.2539, 6664.860
430.7360, 6647.108
431.2181, 6646.663
431.7002, 6662.441
432.1823, 6680.590
432.6645, 6702.204
433.1466, 6720.297
433.6287, 6718.777
434.1108, 6702.428
434.5929, 6695.591
435.0750, 6717.043
435.5572, 6750.549
436.0393, 6768.640
436.5214, 6771.641
437.0035, 6766.446
437.4856, 6745.909
437.9677, 6724.220
438.4499, 6722.734
438.9320, 6754.617
439.4141, 6794.742
439.8962, 6832.021
440.3783, 6864.103
440.8604, 6886.027
441.3426, 6893.291
441.8247, 6891.176
442.3068, 6876.398
442.7889, 6841.900
443.2710, 6827.461
443.7531, 6862.197
444.2353, 6915.180
444.7174, 6952.806
445.1995, 6952.299
445.6816, 6955.383
446.1637, 6967.978
446.6458, 6989.688
447.1280, 7019.391
447.6101, 7068.015
448.0922, 7112.704
448.5743, 7139.156
449.0564, 7139.080
449.5385, 7143.040
450.0207, 7151.297
450.5028, 7164.362
450.9849, 7182.265
451.4670, 7203.903
451.9491, 7235.680
452.4312, 7287.313
452.9134, 7353.869
453.3955, 7391.143
453.8776, 7394.349
454.3597, 7401.425
454.8418, 7462.284
455.3239, 7562.394
455.8061, 7635.554
456.2882, 7656.051
456.7703, 7661.319
457.2524, 7703.406
457.7345, 7776.730
458.2166, 7860.011
458.6988, 7952.434
459.1809, 8041.636
459.6630, 8104.036
460.1451, 8132.155
460.6272, 8176.795
461.1093, 8288.061
461.5915, 8428.795
462.0736, 8550.668
462.5557, 8607.550
463.0378, 8672.586
463.5199, 8773.443
464.0020, 8906.788
464.4842, 9048.840
464.9663, 9194.481
465.4484, 9346.580
465.9305, 9506.659
466.4126, 9671.443
466.8947, 9853.623
467.3769, 10058.52
467.8590, 10277.57
468.3411, 10499.42
468.8232, 10718.86
469.3053, 10950.17
469.7874, 11201.22
470.2696, 11470.91
470.7517, 11736.61
471.2338, 11993.44
471.7159, 12258.88
472.1980, 12542.67
472.6801, 12846.14
473.1623, 13171.14
473.6444, 13524.14
474.1265, 13891.11
474.6086, 14253.41
475.0907, 14610.24
475.5728, 14956.38
476.0550, 15282.21
476.5371, 15599.30
477.0192, 15929.91
477.5013, 16276.76
477.9834, 16601.97
478.4655, 16879.42
478.9477, 17117.66
479.4298, 17325.45
479.9119, 17519.48
480.3940, 17669.78
480.8761, 17769.49
481.3582, 17813.89
481.8404, 17786.89
482.3225, 17653.30
482.8046, 17471.67
483.2867, 17268.68
483.7688, 17052.71
484.2509, 16794.25
484.7331, 16461.15
485.2152, 16100.52
485.6973, 15748.43
486.1794, 15413.02
486.6615, 15071.14
487.1436, 14717.08
487.6258, 14352.33
488.1079, 13980.03
488.5900, 13597.48
489.0721, 13220.73
489.5542, 12857.62
490.0363, 12506.52
490.5185, 12170.29
491.0006, 11849.96
491.4827, 11550.79
491.9648, 11287.64
492.4470, 11056.92
492.9291, 10845.20
493.4112, 10659.47
493.8933, 10485.12
494.3754, 10301.13
494.8575, 10109.05
495.3397, 9929.584
495.8218, 9782.045
496.3039, 9648.494
496.7860, 9508.793
497.2681, 9353.457
497.7502, 9208.968
498.2324, 9091.166
498.7145, 8991.226
499.1966, 8894.868
499.6787, 8803.017
500.1608, 8710.191
500.6429, 8609.387
501.1251, 8502.063
501.6072, 8411.588
502.0893, 8349.876
502.5714, 8294.956
503.0535, 8236.110
503.5356, 8168.601
504.0178, 8108.972
504.4999, 8058.927
504.9820, 8015.773
505.4641, 7974.786
505.9462, 7935.952
506.4283, 7900.249
506.9105, 7869.553
507.3926, 7842.125
507.8747, 7812.357
508.3568, 7780.260
508.8389, 7742.979
509.3210, 7688.375
509.8032, 7626.404
510.2853, 7586.390
510.7674, 7575.109
511.2495, 7572.430
511.7316, 7562.465
512.2137, 7545.540
512.6959, 7522.599
513.1780, 7483.724
513.6601, 7447.353
514.1422, 7429.167
514.6243, 7426.454
515.1064, 7420.038
515.5886, 7399.232
516.0707, 7374.556
516.5528, 7351.362
517.0349, 7325.054
517.5170, 7310.838
517.9991, 7322.437
518.4813, 7342.240
518.9634, 7348.292
519.4455, 7336.994
519.9276, 7317.058
520.4097, 7283.147
520.8918, 7240.643
521.3740, 7225.230
521.8561, 7244.097
522.3382, 7266.250
522.8203, 7267.794
523.3024, 7250.599
523.7845, 7251.971
524.2667, 7279.115
524.7488, 7305.035
525.2309, 7292.308
525.7130, 7249.767
526.1951, 7208.130
526.6772, 7174.957
527.1594, 7150.330
527.6415, 7136.573
528.1236, 7132.443
528.6057, 7132.268
529.0878, 7138.309
529.5699, 7143.514
530.0521, 7141.273
530.5342, 7128.668
531.0163, 7118.081
531.4984, 7112.513
531.9805, 7111.280
532.4626, 7113.597
532.9448, 7127.552
533.4269, 7135.015
533.9090, 7129.406
534.3911, 7115.338
534.8732, 7111.970
535.3553, 7125.708
535.8375, 7138.129
536.3196, 7140.823
536.8017, 7133.394
537.2838, 7126.101
537.7659, 7119.731
538.2480, 7110.641
538.7302, 7087.422
539.2123, 7054.151
539.6944, 7043.715
540.1765, 7071.965
540.6586, 7110.023
541.1407, 7115.983
541.6229, 7096.717
542.1050, 7077.189
542.5871, 7070.092
543.0692, 7069.174
543.5513, 7066.973
544.0334, 7063.245
544.5156, 7068.983
544.9977, 7104.973
545.4798, 7143.569
545.9619, 7162.164
546.4440, 7144.087
546.9261, 7124.418
547.4083, 7101.700
547.8904, 7081.555
548.3725, 7075.116
548.8546, 7092.302
549.3367, 7106.724
549.8188, 7110.956
550.3010, 7106.056
550.7831, 7106.604
551.2652, 7116.202
551.7473, 7119.187
552.2294, 7092.696
552.7115, 7042.288
553.1937, 7032.093
553.6758, 7074.203
554.1579, 7127.378
554.6400, 7139.281
555.1221, 7120.646
555.6042, 7101.981
556.0864, 7094.039
556.5685, 7090.720
557.0506, 7083.919
557.5327, 7076.124
558.0148, 7076.824
558.4969, 7103.637
558.9791, 7130.624
559.4612, 7140.184
559.9433, 7127.037
560.4254, 7114.606
560.9075, 7099.420
561.3896, 7091.321
561.8718, 7098.952
562.3539, 7133.857
562.8360, 7166.092
563.3181, 7198.871
563.8002, 7224.837
564.2823, 7220.142
564.7645, 7176.091
565.2466, 7141.099
565.7287, 7140.047
566.2108, 7164.271
566.6929, 7171.017
567.1750, 7159.773
567.6572, 7141.333
568.1393, 7119.340
568.6214, 7097.701
569.1035, 7084.188
569.5856, 7079.317
570.0677, 7084.950
570.5499, 7111.999
571.0320, 7148.653
571.5141, 7176.399
571.9962, 7189.036
572.4783, 7190.939
572.9604, 7176.590
573.4426, 7150.266
573.9247, 7133.108
574.4068, 7126.516
574.8889, 7132.247
575.3710, 7155.688
575.8531, 7203.529
576.3353, 7230.926
576.8174, 7229.015
577.2995, 7219.409
577.7816, 7225.212
578.2637, 7248.780
578.7458, 7261.006
579.2280, 7255.190
579.7101, 7240.828
580.1922, 7235.563
580.6743, 7237.548
581.1564, 7236.351
581.6385, 7216.176
582.1207, 7195.930
582.6028, 7207.410
583.0849, 7246.379
583.5670, 7280.412
584.0491, 7283.043
584.5313, 7277.745
585.0134, 7283.933
585.4955, 7309.155
585.9776, 7330.591
586.4597, 7341.867
586.9418, 7346.503
587.4240, 7348.249
587.9061, 7346.559
588.3882, 7342.988
588.8703, 7335.212
589.3524, 7326.334
589.8345, 7327.681
590.3167, 7343.077
590.7988, 7353.588
591.2809, 7345.231
591.7630, 7324.297
592.2451, 7326.145
592.7272, 7351.439
593.2094, 7383.295
593.6915, 7409.665
594.1736, 7432.199
594.6557, 7457.814
595.1378, 7491.254
595.6199, 7509.984
596.1021, 7475.753
596.5842, 7421.595
597.0663, 7394.523
597.5485, 7444.262
598.0306, 7487.989
598.5127, 7492.803
598.9948, 7467.989
599.4769, 7455.489
599.9590, 7472.404
600.4412, 7484.029
600.9233, 7474.403
601.4054, 7440.743
601.8875, 7431.189
602.3696, 7452.080
602.8517, 7481.793
603.3339, 7502.540
603.8160, 7515.099
604.2981, 7526.920
604.7802, 7538.698
605.2623, 7549.982
605.7444, 7559.253
606.2266, 7567.449
606.7087, 7576.845
607.1908, 7592.723
607.6729, 7605.747
608.1550, 7604.009
608.6371, 7592.520
609.1193, 7587.500
609.6014, 7608.150
610.0835, 7625.903
610.5656, 7623.194
611.0477, 7595.010
611.5298, 7578.332
612.0120, 7581.423
612.4941, 7589.349
612.9762, 7592.260
613.4583, 7588.344
613.9404, 7585.481
614.4225, 7583.113
614.9047, 7583.447
615.3868, 7592.565
615.8689, 7609.521
616.3510, 7620.158
616.8331, 7617.574
617.3152, 7610.210
617.7974, 7609.431
618.2795, 7614.828
618.7616, 7624.620
619.2437, 7644.740
619.7258, 7663.691
620.2079, 7670.735
620.6901, 7665.432
621.1722, 7662.685
621.6543, 7670.450
622.1364, 7680.517
622.6185, 7687.618
623.1006, 7690.948
623.5828, 7692.903
624.0649, 7696.013
624.5470, 7695.421
625.0291, 7681.252
625.5112, 7648.225
625.9933, 7631.013
626.4755, 7639.089
626.9576, 7662.117
627.4397, 7685.782
627.9218, 7708.263
628.4039, 7715.675
628.8860, 7684.517
629.3682, 7643.016
629.8503, 7630.889
630.3324, 7645.482
