##NAMES=Anapaite
##RRUFFID=R050510
##IDEAL CHEMISTRY=Ca_2_Fe^2+^(PO_4_)_2_&#183;4H_2_O
##LOCALITY=Prats-Sampsor, Spain
##OWNER=RRUFF
##SOURCE=University of Arizona Mineral Museum
##DESCRIPTION=Pale green tabular crystals lining fractured rock. Probe photo shows two phases. This sample is the lighter phase in the probe photo.
##STATUS=The identification of this mineral has been confirmed by X-ray diffraction and chemical analysis
##URL=rruff.info/R050510
##MEASURED CHEMISTRY=Ca_2.00_(Fe^2+^_0.93_Mn_0.07_)_Σ=1_(P_1.00_O_4_)_2_·4H_2_O; (lighter phase)
90.92609, 0.0000000E+00
91.40820, 531.3143
91.89032, 528.1083
92.37244, 529.2281
92.85455, 534.1417
93.33667, 539.6633
93.81879, 542.9055
94.30090, 544.8411
94.78302, 549.0293
95.26514, 557.8211
95.74725, 567.9430
96.22937, 570.6993
96.71149, 565.4824
97.19360, 559.5150
97.67572, 560.1052
98.15784, 567.1390
98.63995, 574.3104
99.12207, 579.8177
99.60419, 583.8643
100.0863, 588.4808
100.5684, 593.4350
101.0505, 599.4602
101.5327, 607.4474
102.0148, 617.2424
102.4969, 629.3506
102.9790, 643.9465
103.4611, 660.7761
103.9432, 680.4365
104.4253, 701.2542
104.9075, 725.7532
105.3896, 757.8975
105.8717, 796.5240
106.3538, 844.8458
106.8359, 905.4412
107.3180, 982.5259
107.8002, 1063.544
108.2823, 1147.402
108.7644, 1234.796
109.2465, 1331.935
109.7286, 1433.750
110.2107, 1547.713
110.6929, 1678.990
111.1750, 1826.313
111.6571, 1990.835
112.1392, 2171.085
112.6213, 2367.719
113.1034, 2589.239
113.5856, 2831.197
114.0677, 3104.847
114.5498, 3415.635
115.0319, 3764.384
115.5140, 4153.150
115.9961, 4594.689
116.4783, 5088.076
116.9604, 5577.829
117.4425, 6049.859
117.9246, 6511.655
118.4067, 6967.606
118.8888, 7429.247
119.3710, 7883.068
119.8531, 8324.072
120.3352, 8750.762
120.8173, 9159.598
121.2994, 9533.020
121.7815, 9884.205
122.2637, 10237.59
122.7458, 10572.59
123.2279, 10927.24
123.7100, 11337.56
124.1921, 11809.44
124.6742, 12328.30
125.1564, 12882.78
125.6385, 13473.65
126.1206, 14106.14
126.6027, 14788.32
127.0848, 15508.39
127.5669, 16243.35
128.0491, 16992.67
128.5312, 17749.87
129.0133, 18514.34
129.4954, 19278.37
129.9775, 20034.49
130.4596, 20786.84
130.9418, 21524.04
131.4239, 22230.04
131.9060, 22900.85
132.3881, 23541.50
132.8702, 24152.53
133.3523, 24736.99
133.8345, 25291.18
134.3166, 25809.57
134.7987, 26296.32
135.2808, 26754.23
135.7629, 27187.33
136.2450, 27599.53
136.7272, 27993.65
137.2093, 28367.09
137.6914, 28737.45
138.1735, 29119.85
138.6556, 29510.09
139.1377, 29922.86
139.6199, 30366.15
140.1020, 30836.07
140.5841, 31330.56
141.0662, 31843.80
141.5483, 32381.47
142.0304, 32950.47
142.5126, 33546.10
142.9947, 34159.55
143.4768, 34677.89
143.9589, 35025.61
144.4410, 35370.22
144.9231, 35707.32
145.4053, 36046.93
145.8874, 36414.29
146.3695, 36828.31
146.8516, 37241.98
147.3337, 37634.66
147.8158, 38012.76
148.2980, 38376.83
148.7801, 38771.47
149.2622, 39148.77
149.7443, 39401.30
150.2264, 39478.68
150.7085, 39484.91
151.1907, 39448.04
151.6728, 39314.28
152.1549, 39226.08
152.6370, 39188.29
153.1191, 39195.30
153.6012, 39236.86
154.0834, 39359.06
154.5655, 39476.99
155.0476, 39556.29
155.5297, 39584.90
156.0118, 39582.92
156.4939, 39536.38
156.9761, 39457.16
157.4582, 39386.79
157.9403, 39320.38
158.4224, 39273.94
158.9045, 39257.14
159.3866, 39287.95
159.8688, 39330.13
160.3509, 39375.11
160.8330, 39423.89
161.3151, 39480.61
161.7972, 39548.68
162.2793, 39624.75
162.7615, 39706.37
163.2436, 39803.19
163.7257, 39895.85
164.2078, 39976.86
164.6899, 40046.80
165.1720, 40110.39
165.6541, 40165.01
166.1363, 40215.63
166.6184, 40267.20
167.1005, 40324.55
167.5826, 40380.00
168.0647, 40429.22
168.5468, 40472.28
169.0290, 40511.73
169.5111, 40547.46
169.9932, 40580.93
170.4753, 40614.20
170.9574, 40658.23
171.4395, 40695.93
171.9217, 40710.61
172.4038, 40702.58
172.8859, 40688.02
173.3680, 40674.73
173.8501, 40664.27
174.3322, 40658.81
174.8144, 40652.57
175.2965, 40655.13
175.7786, 40680.26
176.2607, 40728.54
176.7428, 40786.59
177.2249, 40845.21
177.7071, 40903.94
178.1892, 40963.50
178.6713, 41027.18
179.1534, 41090.49
179.6355, 41143.75
180.1176, 41185.62
180.5998, 41227.30
181.0819, 41277.48
181.5640, 41336.20
182.0461, 41406.62
182.5282, 41501.91
183.0103, 41608.04
183.4925, 41691.55
183.9746, 41749.16
184.4567, 41792.30
184.9388, 41839.09
185.4209, 41886.96
185.9030, 41916.23
186.3852, 41908.32
186.8673, 41873.76
187.3494, 41846.35
187.8315, 41827.32
188.3136, 41818.51
188.7957, 41825.02
189.2779, 41846.29
189.7600, 41871.50
190.2421, 41894.65
190.7242, 41916.69
191.2063, 41943.18
191.6884, 41973.99
192.1706, 42008.76
192.6527, 42050.45
193.1348, 42098.50
193.6169, 42142.86
194.0990, 42173.15
194.5811, 42190.39
195.0633, 42220.19
195.5454, 42263.10
196.0275, 42318.35
196.5096, 42385.02
196.9917, 42463.95
197.4738, 42547.93
197.9560, 42638.21
198.4381, 42734.95
198.9202, 42816.96
199.4023, 42878.16
199.8844, 42933.15
200.3665, 43018.35
200.8487, 43143.00
201.3308, 43250.33
201.8129, 43315.29
202.2950, 43338.09
202.7771, 43318.99
203.2592, 43250.30
203.7414, 43147.85
204.2235, 43036.68
204.7056, 42910.36
205.1877, 42801.43
205.6698, 42729.72
206.1519, 42699.62
206.6341, 42672.04
207.1162, 42641.96
207.5983, 42616.09
208.0804, 42613.34
208.5625, 42639.61
209.0446, 42669.89
209.5268, 42689.92
210.0089, 42695.01
210.4910, 42713.36
210.9731, 42747.82
211.4552, 42795.30
211.9373, 42849.48
212.4195, 42913.98
212.9016, 42977.09
213.3837, 43032.43
213.8658, 43077.67
214.3479, 43124.71
214.8300, 43171.59
215.3121, 43221.88
215.7943, 43284.81
216.2764, 43361.43
216.7585, 43445.93
217.2406, 43541.04
217.7227, 43656.46
218.2048, 43744.71
218.6870, 43798.89
219.1691, 43827.74
219.6512, 43853.86
220.1333, 43880.86
220.6154, 43897.55
221.0975, 43898.64
221.5797, 43880.46
222.0618, 43857.81
222.5439, 43829.63
223.0260, 43798.58
223.5081, 43769.19
223.9902, 43742.33
224.4724, 43718.51
224.9545, 43699.15
225.4366, 43685.68
225.9187, 43673.30
226.4008, 43654.71
226.8829, 43641.43
227.3651, 43659.86
227.8472, 43726.27
228.3293, 43797.50
228.8114, 43856.77
229.2935, 43899.59
229.7757, 43942.98
230.2578, 43991.18
230.7399, 44036.37
231.2220, 44062.25
231.7041, 44056.77
232.1862, 44049.13
232.6684, 44049.72
233.1505, 44061.48
233.6326, 44070.10
234.1147, 44074.29
234.5968, 44075.75
235.0789, 44076.56
235.5611, 44072.14
236.0432, 44075.06
236.5253, 44092.36
237.0074, 44130.83
237.4895, 44158.34
237.9716, 44167.25
238.4538, 44170.34
238.9359, 44189.55
239.4180, 44237.83
239.9001, 44281.89
240.3822, 44309.73
240.8643, 44315.83
241.3465, 44330.79
241.8286, 44357.52
242.3107, 44390.83
242.7928, 44423.96
243.2749, 44458.19
243.7570, 44489.11
244.2392, 44514.36
244.7213, 44532.46
245.2034, 44554.65
245.6855, 44587.52
246.1676, 44619.54
246.6497, 44634.77
247.1319, 44622.71
247.6140, 44614.44
248.0961, 44618.36
248.5782, 44636.22
249.0603, 44655.54
249.5424, 44675.53
250.0246, 44698.86
250.5067, 44728.49
250.9888, 44764.64
251.4709, 44807.27
251.9530, 44858.20
252.4351, 44918.19
252.9173, 44971.24
253.3994, 45011.26
253.8815, 45050.14
254.3636, 45101.75
254.8457, 45175.55
255.3278, 45236.27
255.8100, 45272.14
256.2921, 45283.77
256.7742, 45306.68
257.2563, 45344.42
257.7384, 45388.35
258.2205, 45432.55
258.7026, 45481.82
259.1848, 45521.36
259.6669, 45547.46
260.1490, 45562.07
260.6311, 45574.99
261.1132, 45583.05
261.5953, 45596.34
262.0775, 45622.87
262.5596, 45666.32
263.0417, 45714.54
263.5238, 45769.54
264.0059, 45827.99
264.4880, 45876.13
264.9702, 45910.07
265.4523, 45938.82
265.9344, 45967.72
266.4165, 45997.39
266.8986, 46023.73
267.3807, 46045.59
267.8629, 46064.18
268.3450, 46086.71
268.8271, 46120.03
269.3092, 46142.45
269.7913, 46136.89
270.2734, 46094.46
270.7556, 46073.37
271.2377, 46081.85
271.7198, 46110.59
272.2019, 46136.40
272.6840, 46157.44
273.1661, 46185.61
273.6483, 46229.31
274.1304, 46290.87
274.6125, 46347.03
275.0946, 46393.90
275.5767, 46438.02
276.0588, 46488.21
276.5410, 46541.66
277.0231, 46608.74
277.5052, 46697.97
277.9873, 46809.30
278.4694, 46901.17
278.9515, 46967.16
279.4337, 47023.80
279.9158, 47096.30
280.3979, 47185.76
280.8800, 47272.86
281.3621, 47353.89
281.8442, 47427.90
282.3264, 47475.34
282.8085, 47492.05
283.2906, 47500.17
283.7727, 47523.32
284.2548, 47562.24
284.7369, 47611.89
285.2191, 47678.28
285.7012, 47754.06
286.1833, 47809.98
286.6654, 47845.21
287.1475, 47867.61
287.6296, 47884.07
288.1118, 47894.12
288.5939, 47892.80
289.0760, 47875.37
289.5581, 47847.59
290.0402, 47822.65
290.5223, 47800.13
291.0045, 47779.77
291.4866, 47761.89
291.9687, 47745.93
292.4508, 47729.30
292.9329, 47711.12
293.4150, 47693.44
293.8972, 47681.71
294.3793, 47675.54
294.8614, 47665.79
295.3435, 47638.02
295.8256, 47602.21
296.3077, 47586.91
296.7899, 47598.07
297.2720, 47624.94
297.7541, 47659.61
298.2362, 47699.66
298.7183, 47734.48
299.2004, 47754.87
299.6826, 47766.14
300.1647, 47777.11
300.6468, 47787.20
301.1289, 47800.18
301.6110, 47822.73
302.0931, 47850.98
302.5753, 47876.32
303.0574, 47893.35
303.5395, 47905.19
304.0216, 47914.45
304.5037, 47921.29
304.9858, 47929.36
305.4680, 47946.55
305.9501, 47967.10
306.4322, 47980.65
306.9143, 47975.62
307.3964, 47968.98
307.8785, 47979.01
308.3607, 48004.51
308.8428, 48030.77
309.3249, 48042.25
309.8070, 48051.23
310.2891, 48072.57
310.7712, 48117.27
311.2534, 48166.07
311.7355, 48204.24
312.2176, 48234.30
312.6997, 48265.80
313.1818, 48306.11
313.6639, 48347.35
314.1461, 48382.52
314.6282, 48406.20
315.1103, 48431.04
315.5924, 48464.23
316.0745, 48502.96
316.5566, 48542.11
317.0388, 48581.88
317.5209, 48619.90
318.0030, 48658.40
318.4851, 48701.76
318.9672, 48730.09
319.4493, 48726.51
319.9315, 48707.23
320.4136, 48693.57
320.8957, 48682.02
321.3778, 48686.16
321.8599, 48715.86
322.3420, 48773.66
322.8242, 48829.29
323.3063, 48881.50
323.7884, 48926.20
324.2705, 48959.88
324.7526, 48964.29
325.2347, 48976.44
325.7169, 49002.42
326.1990, 49042.08
326.6811, 49092.02
327.1632, 49174.63
327.6453, 49251.97
328.1274, 49302.88
328.6096, 49294.04
329.0917, 49299.79
329.5738, 49327.27
330.0559, 49371.03
330.5380, 49414.95
331.0201, 49469.20
331.5023, 49512.73
331.9844, 49534.38
332.4665, 49519.14
332.9486, 49518.54
333.4307, 49537.86
333.9128, 49568.90
334.3950, 49597.52
334.8771, 49622.10
335.3592, 49647.48
335.8413, 49675.45
336.3234, 49706.57
336.8055, 49735.69
337.2877, 49766.24
337.7698, 49789.20
338.2519, 49789.58
338.7340, 49758.11
339.2161, 49740.79
339.6982, 49751.13
340.1803, 49784.49
340.6624, 49811.89
341.1446, 49833.40
341.6267, 49850.49
342.1088, 49861.46
342.5909, 49865.76
343.0730, 49880.75
343.5551, 49912.30
344.0373, 49951.16
344.5194, 49972.46
345.0015, 49975.37
345.4836, 49979.65
345.9657, 49998.23
346.4478, 50028.74
346.9300, 50060.43
347.4121, 50094.54
347.8942, 50124.75
348.3763, 50137.69
348.8584, 50137.25
349.3405, 50144.71
349.8227, 50176.96
350.3048, 50223.24
350.7869, 50264.01
351.2690, 50299.87
351.7511, 50324.83
352.2332, 50323.29
352.7154, 50306.92
353.1975, 50300.38
353.6796, 50312.71
354.1617, 50336.20
354.6438, 50363.93
355.1259, 50394.93
355.6081, 50427.02
356.0902, 50464.78
356.5723, 50498.99
357.0544, 50517.09
357.5365, 50509.43
358.0186, 50498.78
358.5008, 50498.29
358.9829, 50505.69
359.4650, 50516.71
359.9471, 50540.16
360.4292, 50558.98
360.9113, 50560.80
361.3935, 50543.09
361.8756, 50522.74
362.3577, 50498.18
362.8398, 50479.02
363.3219, 50476.02
363.8040, 50526.51
364.2862, 50561.99
364.7683, 50549.70
365.2504, 50492.73
365.7325, 50451.89
366.2146, 50443.57
366.6967, 50452.63
367.1789, 50469.64
367.6610, 50507.57
368.1431, 50537.04
368.6252, 50552.35
369.1073, 50557.32
369.5894, 50563.99
370.0716, 50566.12
370.5537, 50576.18
371.0358, 50600.76
371.5179, 50647.57
372.0000, 50683.96
372.4821, 50702.83
372.9643, 50715.11
373.4464, 50735.54
373.9285, 50766.68
374.4106, 50798.75
374.8927, 50829.87
375.3748, 50859.60
375.8570, 50884.18
376.3391, 50899.25
376.8212, 50917.06
377.3033, 50952.00
377.7854, 51007.41
378.2675, 51051.78
378.7497, 51079.02
379.2318, 51095.17
379.7139, 51120.25
380.1960, 51156.19
380.6781, 51180.42
381.1602, 51168.48
381.6424, 51129.07
382.1245, 51119.60
382.6066, 51147.90
383.0887, 51186.73
383.5708, 51201.82
384.0529, 51197.18
384.5351, 51191.36
385.0172, 51188.99
385.4993, 51191.57
385.9814, 51203.27
386.4635, 51223.54
386.9456, 51245.90
387.4278, 51260.97
387.9099, 51274.85
388.3920, 51298.60
388.8741, 51338.29
389.3562, 51381.66
389.8383, 51421.95
390.3205, 51457.89
390.8026, 51485.36
391.2847, 51487.71
391.7668, 51489.68
392.2489, 51517.25
392.7310, 51580.75
393.2132, 51629.29
393.6953, 51622.45
394.1774, 51591.41
394.6595, 51573.76
395.1416, 51586.56
395.6237, 51609.92
396.1059, 51645.20
396.5880, 51690.76
397.0701, 51721.65
397.5522, 51714.51
398.0343, 51703.77
398.5164, 51710.02
398.9986, 51756.84
399.4807, 51793.08
399.9628, 51815.95
400.4449, 51827.83
400.9270, 51832.68
401.4091, 51816.69
401.8913, 51812.10
402.3734, 51832.23
402.8555, 51882.74
403.3376, 51924.64
403.8197, 51950.00
404.3018, 51975.47
404.7840, 52021.82
405.2661, 52096.94
405.7482, 52164.46
406.2303, 52218.70
406.7124, 52259.27
407.1945, 52282.54
407.6767, 52283.62
408.1588, 52288.21
408.6409, 52321.49
409.1230, 52379.89
409.6051, 52413.34
410.0872, 52412.92
410.5694, 52401.49
411.0515, 52413.20
411.5336, 52445.59
412.0157, 52482.09
412.4978, 52519.34
412.9799, 52555.62
413.4621, 52588.01
413.9442, 52617.30
414.4263, 52642.36
414.9084, 52652.91
415.3905, 52661.68
415.8727, 52691.52
416.3548, 52759.68
416.8369, 52832.90
417.3190, 52881.10
417.8011, 52911.73
418.2832, 52945.36
418.7654, 52990.40
419.2475, 53042.00
419.7296, 53095.52
420.2117, 53149.96
420.6938, 53209.14
421.1759, 53270.60
421.6581, 53338.08
422.1402, 53416.58
422.6223, 53528.04
423.1044, 53627.24
423.5865, 53691.67
424.0686, 53726.92
424.5508, 53780.55
425.0329, 53875.24
425.5150, 53974.23
425.9971, 54059.40
426.4792, 54112.82
426.9613, 54191.27
427.4435, 54304.59
427.9256, 54438.07
428.4077, 54570.84
428.8898, 54712.53
429.3719, 54836.11
429.8540, 54933.55
430.3362, 55005.80
430.8183, 55074.58
431.3004, 55144.76
431.7825, 55196.26
432.2646, 55204.86
432.7467, 55170.39
433.2289, 55140.80
433.7110, 55124.45
434.1931, 55112.27
434.6752, 55089.89
435.1573, 55057.07
435.6394, 55014.63
436.1216, 54947.66
436.6036, 54873.40
437.0858, 54834.06
437.5679, 54830.50
438.0500, 54841.57
438.5321, 54859.78
439.0142, 54878.06
439.4963, 54882.26
439.9785, 54854.20
440.4606, 54831.13
440.9427, 54852.76
441.4248, 54906.49
441.9069, 54953.87
442.3890, 54986.92
442.8712, 55001.32
443.3533, 54989.63
443.8354, 54946.14
444.3175, 54903.73
444.7996, 54874.96
445.2817, 54852.18
445.7639, 54826.96
446.2460, 54786.58
446.7281, 54754.55
447.2102, 54742.27
447.6923, 54744.70
448.1744, 54730.48
448.6566, 54689.37
449.1387, 54639.92
449.6208, 54588.73
450.1029, 54532.54
450.5850, 54481.99
451.0671, 54440.21
451.5493, 54401.37
452.0314, 54354.28
452.5135, 54294.49
452.9956, 54251.50
453.4777, 54244.02
453.9598, 54258.57
454.4420, 54227.16
454.9241, 54145.57
455.4062, 54061.92
455.8883, 54011.83
456.3704, 53990.68
456.8525, 53982.92
457.3347, 53991.39
457.8168, 53997.11
458.2989, 53964.35
458.7810, 53907.51
459.2631, 53869.80
459.7452, 53891.84
460.2274, 53929.47
460.7095, 53929.18
461.1916, 53895.86
461.6737, 53866.09
462.1558, 53862.05
462.6379, 53871.52
463.1201, 53883.64
463.6022, 53896.67
464.0843, 53910.63
464.5664, 53924.31
465.0485, 53938.51
465.5306, 53954.68
466.0128, 53986.40
466.4949, 54006.36
466.9770, 53997.85
467.4591, 53959.34
467.9412, 53940.21
468.4233, 53954.25
468.9055, 53977.17
469.3876, 53996.14
469.8697, 54011.61
470.3518, 54023.08
470.8339, 54027.23
471.3160, 54031.38
471.7982, 54053.15
472.2803, 54100.14
472.7624, 54134.54
473.2445, 54135.32
473.7266, 54111.28
474.2087, 54118.34
474.6909, 54158.40
475.1730, 54207.87
475.6551, 54248.82
476.1372, 54281.60
476.6193, 54307.72
477.1014, 54324.20
477.5836, 54340.85
478.0657, 54375.65
478.5478, 54421.21
479.0299, 54456.34
479.5120, 54464.38
479.9941, 54462.49
480.4763, 54462.99
480.9584, 54466.96
481.4405, 54479.79
481.9226, 54523.94
482.4047, 54567.61
482.8868, 54581.61
483.3690, 54541.07
483.8511, 54511.22
484.3332, 54517.79
484.8153, 54545.48
485.2974, 54569.29
485.7795, 54588.67
486.2617, 54600.45
486.7438, 54599.05
487.2259, 54584.97
487.7080, 54585.16
488.1901, 54607.38
488.6722, 54634.09
489.1544, 54655.60
489.6365, 54671.20
490.1186, 54683.81
490.6007, 54692.41
491.0828, 54699.94
491.5649, 54712.31
492.0471, 54729.63
492.5292, 54743.31
493.0113, 54745.93
493.4934, 54744.36
493.9755, 54760.94
494.4576, 54794.26
494.9398, 54827.16
495.4219, 54844.17
495.9040, 54851.90
496.3861, 54861.14
496.8682, 54872.68
497.3503, 54887.89
497.8325, 54919.63
498.3146, 54953.79
498.7967, 54969.18
499.2788, 54937.82
499.7609, 54905.36
500.2430, 54904.24
500.7252, 54925.82
501.2073, 54928.41
501.6894, 54865.45
502.1715, 54810.23
502.6536, 54804.39
503.1357, 54880.43
503.6179, 54923.95
504.1000, 54903.98
504.5821, 54868.92
505.0642, 54866.70
505.5463, 54908.53
506.0284, 54957.56
506.5106, 55012.74
506.9927, 55068.38
507.4748, 55104.30
507.9569, 55115.80
508.4390, 55125.85
508.9211, 55145.05
509.4033, 55172.21
509.8854, 55201.84
510.3675, 55234.25
510.8496, 55264.89
511.3317, 55286.54
511.8138, 55303.07
512.2960, 55327.26
512.7781, 55369.82
513.2602, 55406.11
513.7423, 55396.62
514.2244, 55360.26
514.7065, 55342.73
515.1887, 55403.27
515.6708, 55461.15
516.1529, 55447.38
516.6350, 55363.02
517.1171, 55304.86
517.5992, 55323.75
518.0814, 55369.61
518.5635, 55411.24
519.0456, 55449.88
519.5277, 55475.80
520.0098, 55477.16
520.4919, 55470.36
520.9741, 55479.73
521.4562, 55510.43
521.9383, 55546.54
522.4204, 55586.89
522.9025, 55629.56
523.3846, 55663.76
523.8668, 55687.80
524.3489, 55707.05
524.8310, 55723.68
525.3131, 55737.77
525.7952, 55748.46
526.2773, 55753.97
526.7595, 55766.08
527.2416, 55815.29
527.7237, 55882.24
528.2058, 55915.28
528.6879, 55885.13
529.1700, 55835.75
529.6522, 55798.83
530.1343, 55777.05
530.6164, 55775.96
531.0985, 55822.92
531.5806, 55873.36
532.0627, 55892.86
532.5449, 55876.58
533.0270, 55878.37
533.5091, 55926.04
533.9912, 55988.57
534.4733, 56043.34
534.9554, 56089.02
535.4376, 56125.01
535.9197, 56141.11
536.4018, 56151.06
536.8839, 56179.90
537.3660, 56234.71
537.8481, 56288.13
538.3303, 56333.50
538.8124, 56371.33
539.2945, 56403.26
539.7766, 56427.90
540.2587, 56459.05
540.7408, 56510.85
541.2230, 56578.23
541.7051, 56640.12
542.1872, 56695.29
542.6693, 56747.76
543.1514, 56803.57
543.6335, 56860.18
544.1157, 56914.41
544.5978, 56969.03
545.0799, 57016.36
545.5620, 57052.27
546.0441, 57076.53
546.5262, 57088.38
547.0084, 57097.88
547.4905, 57085.21
547.9726, 57030.60
548.4547, 56928.70
548.9368, 56846.09
549.4189, 56794.59
549.9011, 56757.70
550.3832, 56726.91
550.8653, 56704.09
551.3474, 56679.75
551.8295, 56649.74
552.3116, 56621.99
552.7938, 56610.42
553.2759, 56616.39
553.7580, 56624.58
554.2401, 56634.55
554.7222, 56641.29
555.2043, 56628.32
555.6865, 56597.64
556.1686, 56566.81
556.6507, 56542.64
557.1328, 56527.73
557.6149, 56528.36
558.0970, 56545.50
558.5792, 56566.94
559.0613, 56592.96
559.5434, 56615.46
560.0255, 56624.43
560.5076, 56606.43
560.9897, 56595.74
561.4719, 56607.78
561.9540, 56633.36
562.4361, 56656.88
562.9182, 56673.87
563.4003, 56690.46
563.8824, 56704.43
564.3646, 56716.84
564.8467, 56740.61
565.3288, 56779.48
565.8109, 56819.59
566.2930, 56853.32
566.7751, 56879.67
567.2573, 56909.41
567.7394, 56944.29
568.2215, 56973.36
568.7036, 56977.15
569.1857, 56964.18
569.6678, 56969.48
570.1500, 57006.10
570.6321, 57049.39
571.1142, 57076.17
571.5963, 57088.16
572.0784, 57088.80
572.5605, 57060.92
573.0427, 57039.70
573.5248, 57056.67
574.0069, 57105.27
574.4890, 57139.11
574.9711, 57128.25
575.4532, 57112.23
575.9354, 57111.05
576.4175, 57130.45
576.8996, 57149.13
577.3817, 57167.02
577.8638, 57184.07
578.3459, 57196.34
578.8281, 57196.21
579.3102, 57223.65
579.7923, 57291.30
580.2744, 57374.54
580.7565, 57425.15
581.2386, 57444.15
581.7208, 57456.01
582.2029, 57472.25
582.6850, 57485.24
583.1671, 57482.10
583.6492, 57463.66
