##NAMES=Anapaite
##RRUFFID=R050510
##IDEAL CHEMISTRY=Ca_2_Fe^2+^(PO_4_)_2_&#183;4H_2_O
##LOCALITY=Prats-Sampsor, Spain
##OWNER=RRUFF
##SOURCE=University of Arizona Mineral Museum
##DESCRIPTION=Pale green tabular crystals lining fractured rock. Probe photo shows two phases. This sample is the lighter phase in the probe photo.
##STATUS=The identification of this mineral has been confirmed by X-ray diffraction and chemical analysis
##URL=rruff.info/R050510
##MEASURED CHEMISTRY=Ca_2.00_(Fe^2+^_0.93_Mn_0.07_)_Σ=1_(P_1.00_O_4_)_2_·4H_2_O; (lighter phase)
92.37695, 1222.736
92.85907, 1209.446
93.34119, 1212.746
93.82330, 1222.718
94.30542, 1228.643
94.78754, 1228.451
95.26965, 1224.820
95.75177, 1220.605
96.23389, 1217.890
96.71600, 1215.208
97.19812, 1212.441
97.68024, 1210.160
98.16235, 1207.098
98.64447, 1201.768
99.12659, 1194.718
99.60870, 1181.442
100.0908, 1163.003
100.5729, 1142.751
101.0551, 1122.717
101.5372, 1103.311
102.0193, 1084.936
102.5014, 1071.093
102.9835, 1064.368
103.4656, 1059.563
103.9478, 1056.661
104.4299, 1054.950
104.9120, 1053.358
105.3941, 1050.879
105.8762, 1047.196
106.3583, 1045.973
106.8405, 1047.106
107.3226, 1049.807
107.8047, 1054.898
108.2868, 1062.056
108.7689, 1068.426
109.2510, 1070.883
109.7332, 1069.263
110.2153, 1064.673
110.6974, 1055.942
111.1795, 1044.615
111.6616, 1032.237
112.1437, 1018.193
112.6259, 1005.458
113.1080, 997.3969
113.5901, 993.6600
114.0722, 991.2356
114.5543, 988.2310
115.0364, 984.7148
115.5185, 982.5713
116.0007, 984.1832
116.4828, 985.8160
116.9649, 985.0004
117.4470, 981.3998
117.9291, 976.6035
118.4112, 972.2345
118.8934, 967.4250
119.3755, 965.4898
119.8576, 968.2279
120.3397, 972.6389
120.8218, 976.6917
121.3039, 979.5369
121.7861, 981.2971
122.2682, 982.3476
122.7503, 982.5922
123.2324, 982.0406
123.7145, 979.9098
124.1966, 977.0883
124.6788, 974.8337
125.1609, 973.8746
125.6430, 974.0861
126.1251, 974.3894
126.6072, 974.3552
127.0893, 974.7776
127.5715, 976.2571
128.0536, 978.6230
128.5357, 980.9523
129.0178, 982.4431
129.4999, 983.3113
129.9821, 984.8856
130.4642, 988.3998
130.9463, 992.0353
131.4284, 993.7488
131.9105, 993.1980
132.3926, 992.0056
132.8748, 990.6594
133.3569, 989.5253
133.8390, 989.5392
134.3211, 991.8086
134.8032, 995.6437
135.2853, 998.6361
135.7674, 1000.201
136.2496, 1001.657
136.7317, 1003.675
137.2138, 1006.134
137.6959, 1008.701
138.1780, 1011.529
138.6601, 1014.821
139.1423, 1016.216
139.6244, 1012.857
140.1065, 1009.916
140.5886, 1009.238
141.0707, 1010.951
141.5528, 1014.216
142.0350, 1018.183
142.5171, 1023.283
142.9992, 1028.008
143.4813, 1030.993
143.9634, 1034.534
144.4455, 1040.001
144.9277, 1047.766
145.4098, 1057.626
145.8919, 1069.458
146.3740, 1085.066
146.8561, 1099.357
147.3382, 1114.997
147.8204, 1128.376
148.3025, 1134.898
148.7846, 1132.728
149.2667, 1123.826
149.7488, 1110.223
150.2309, 1090.032
150.7131, 1072.179
151.1952, 1060.199
151.6773, 1053.213
152.1594, 1048.822
152.6415, 1046.730
153.1236, 1046.501
153.6058, 1047.729
154.0879, 1051.506
154.5700, 1053.401
155.0521, 1049.261
155.5342, 1038.917
156.0163, 1027.130
156.4985, 1013.630
156.9806, 1000.539
157.4627, 989.5070
157.9448, 980.8914
158.4269, 974.5563
158.9090, 970.5907
159.3912, 969.7951
159.8733, 969.5096
160.3554, 969.6062
160.8375, 969.5876
161.3196, 968.7844
161.8017, 966.8327
162.2839, 964.3661
162.7660, 963.3271
163.2481, 964.8721
163.7302, 966.4338
164.2123, 967.6426
164.6944, 968.6481
165.1766, 969.7164
165.6587, 971.0309
166.1408, 972.4740
166.6229, 973.2646
167.1050, 972.0471
167.5871, 971.6556
168.0693, 973.3419
168.5514, 976.2960
169.0335, 979.0720
169.5156, 980.8431
169.9977, 981.5457
170.4798, 980.4782
170.9620, 976.5062
171.4441, 972.2611
171.9262, 968.5894
172.4083, 965.5880
172.8904, 963.3510
173.3725, 962.0668
173.8547, 961.7556
174.3368, 961.6094
174.8189, 961.5540
175.3010, 961.7095
175.7831, 962.2995
176.2652, 963.3463
176.7474, 964.3264
177.2295, 964.4529
177.7116, 964.2222
178.1937, 964.8903
178.6758, 967.5177
179.1579, 970.9072
179.6401, 973.1898
180.1222, 973.9902
180.6043, 974.7389
181.0864, 976.1121
181.5685, 978.0426
182.0506, 980.5661
182.5328, 984.2010
183.0149, 988.3846
183.4970, 991.5023
183.9791, 993.8617
184.4612, 994.3751
184.9433, 992.3850
185.4255, 988.5975
185.9076, 984.0931
186.3897, 979.2157
186.8718, 974.1058
187.3539, 970.4017
187.8360, 968.7580
188.3182, 968.0284
188.8003, 968.2711
189.2824, 969.1603
189.7645, 970.1231
190.2466, 970.6309
190.7287, 970.6348
191.2109, 971.4531
191.6930, 974.1475
192.1751, 976.6348
192.6572, 977.9841
193.1393, 978.4850
193.6214, 978.9613
194.1036, 980.0266
194.5857, 981.5883
195.0678, 984.7429
195.5499, 989.6589
196.0320, 995.5746
196.5141, 1002.704
196.9963, 1010.692
197.4784, 1018.578
197.9605, 1025.487
198.4426, 1031.299
198.9247, 1036.299
199.4068, 1041.240
199.8890, 1044.912
200.3711, 1046.453
200.8532, 1045.818
201.3353, 1043.651
201.8174, 1040.620
202.2995, 1036.550
202.7817, 1030.347
203.2638, 1018.874
203.7459, 1007.015
204.2280, 999.8242
204.7101, 997.9601
205.1922, 997.5449
205.6744, 995.0969
206.1565, 991.0712
206.6386, 987.6679
207.1207, 985.6816
207.6028, 984.4199
208.0849, 982.6254
208.5671, 979.8219
209.0492, 977.9576
209.5313, 979.6268
210.0134, 983.4609
210.4955, 986.6378
210.9776, 987.4302
211.4598, 986.9534
211.9419, 987.6979
212.4240, 989.9418
212.9061, 992.9473
213.3882, 996.0133
213.8703, 999.4210
214.3525, 1003.839
214.8346, 1010.119
215.3167, 1017.666
215.7988, 1024.277
216.2809, 1030.089
216.7630, 1034.583
217.2451, 1037.611
217.7273, 1039.407
218.2094, 1040.387
218.6915, 1040.771
219.1736, 1040.548
219.6557, 1039.610
220.1378, 1037.691
220.6200, 1035.276
221.1021, 1033.032
221.5842, 1030.396
222.0663, 1026.200
222.5484, 1019.294
223.0305, 1010.162
223.5127, 1003.456
223.9948, 1001.061
224.4769, 999.4504
224.9590, 998.1150
225.4411, 997.0281
225.9232, 996.3365
226.4054, 996.1838
226.8875, 996.5012
227.3696, 996.4296
227.8517, 995.6390
228.3338, 994.7974
228.8159, 993.8068
229.2981, 992.8826
229.7802, 992.5302
230.2623, 993.1848
230.7444, 994.6429
231.2265, 994.5145
231.7086, 992.2528
232.1908, 989.1697
232.6729, 984.8384
233.1550, 979.9206
233.6371, 975.4318
234.1192, 971.9007
234.6013, 969.3964
235.0835, 968.6500
235.5656, 971.2938
236.0477, 973.5388
236.5298, 973.8245
237.0119, 972.8485
237.4940, 972.2204
237.9762, 972.8735
238.4583, 974.5222
238.9404, 975.8205
239.4225, 976.7833
239.9046, 977.4601
240.3867, 977.6340
240.8689, 977.5078
241.3510, 977.7266
241.8331, 978.8524
242.3152, 980.2401
242.7973, 979.9835
243.2794, 977.5002
243.7616, 974.6484
244.2437, 972.0477
244.7258, 969.6848
245.2079, 967.5946
245.6900, 965.9613
246.1721, 964.4090
246.6543, 962.1612
247.1364, 959.0773
247.6185, 955.8245
248.1006, 952.5554
248.5827, 949.3557
249.0648, 946.4801
249.5470, 943.9963
250.0291, 941.9127
250.5112, 940.0869
250.9933, 938.4396
251.4754, 937.3412
251.9576, 937.5641
252.4397, 938.6839
252.9218, 938.6459
253.4039, 936.1074
253.8860, 933.2644
254.3681, 932.6838
254.8503, 934.3446
255.3324, 936.0881
255.8145, 936.5992
256.2966, 936.0589
256.7787, 935.3097
257.2608, 934.1879
257.7430, 933.3187
258.2251, 933.0450
258.7072, 933.3690
259.1893, 934.2943
259.6714, 936.1478
260.1535, 938.7337
260.6357, 941.0127
261.1178, 943.0688
261.5999, 944.4904
262.0820, 944.7697
262.5641, 944.2443
263.0462, 943.9436
263.5284, 944.8568
264.0105, 946.6909
264.4926, 947.6368
264.9747, 947.0495
265.4568, 946.4527
265.9389, 947.1207
266.4211, 948.3269
266.9032, 948.4667
267.3853, 945.8065
267.8674, 941.3677
268.3495, 939.9571
268.8316, 944.2328
269.3138, 947.5342
269.7959, 946.7869
270.2780, 943.7495
270.7601, 941.0311
271.2422, 940.0450
271.7243, 940.2924
272.2065, 939.9710
272.6886, 937.9245
273.1707, 937.3950
273.6528, 939.9282
274.1349, 943.9447
274.6170, 947.8095
275.0992, 950.8809
275.5813, 953.0840
276.0634, 953.9611
276.5455, 952.1649
277.0276, 951.6270
277.5097, 953.7630
277.9919, 956.8875
278.4740, 959.3808
278.9561, 960.6773
279.4382, 961.4893
279.9203, 963.3045
280.4024, 966.9901
280.8846, 969.7919
281.3667, 970.8311
281.8488, 971.4207
282.3309, 972.5258
282.8130, 974.3801
283.2951, 976.5432
283.7773, 978.3762
284.2594, 979.7670
284.7415, 981.0880
285.2236, 982.9539
285.7057, 984.3196
286.1878, 984.4504
286.6700, 983.3256
287.1521, 981.5193
287.6342, 979.7162
288.1163, 978.1353
288.5984, 975.6758
289.0805, 971.0598
289.5627, 966.7737
290.0448, 964.1423
290.5269, 962.9728
291.0090, 962.1885
291.4911, 960.7963
291.9732, 958.7259
292.4554, 956.9614
292.9375, 955.2548
293.4196, 954.0828
293.9017, 954.1689
294.3838, 954.9357
294.8659, 955.1642
295.3481, 953.9244
295.8302, 951.3458
296.3123, 949.2397
296.7944, 947.8541
297.2765, 946.7110
297.7586, 946.0701
298.2408, 945.5558
298.7229, 944.5671
299.2050, 942.7501
299.6871, 940.3857
300.1692, 938.5750
300.6513, 938.4089
301.1335, 937.4835
301.6156, 934.8531
302.0977, 931.6881
302.5798, 929.3204
303.0619, 928.2750
303.5440, 927.9651
304.0262, 927.1191
304.5083, 925.0779
304.9904, 923.4965
305.4725, 922.4417
305.9546, 921.7829
306.4367, 921.5453
306.9189, 921.6779
307.4010, 921.8933
307.8831, 921.7628
308.3652, 921.0459
308.8473, 920.6019
309.3294, 920.8414
309.8116, 920.9702
310.2937, 919.9562
310.7758, 918.1030
311.2579, 917.0235
311.7400, 918.5638
312.2221, 923.3702
312.7043, 926.2015
313.1864, 925.6812
313.6685, 924.8649
314.1506, 924.9149
314.6327, 925.6801
315.1148, 926.4749
315.5970, 926.7805
316.0791, 926.6542
316.5612, 926.8684
317.0433, 927.6584
317.5254, 928.5374
318.0075, 929.6330
318.4897, 930.7100
318.9718, 931.2867
319.4539, 931.0821
319.9360, 930.5225
320.4181, 931.0118
320.9002, 934.2321
321.3824, 936.3855
321.8645, 936.2403
322.3466, 935.4523
322.8287, 935.7619
323.3108, 937.7083
323.7929, 940.4258
324.2751, 942.3405
324.7572, 942.4244
325.2393, 943.7487
325.7214, 947.2078
326.2035, 951.0712
326.6856, 954.3290
327.1678, 956.7790
327.6499, 958.6810
328.1320, 960.2938
328.6141, 961.5807
329.0962, 962.7537
329.5783, 963.2996
330.0605, 964.2272
330.5426, 966.7073
331.0247, 970.0247
331.5068, 972.3492
331.9889, 972.2346
332.4710, 969.8196
332.9532, 967.3539
333.4353, 964.5936
333.9174, 962.0273
334.3995, 959.5754
334.8816, 957.4293
335.3637, 955.9011
335.8459, 955.1689
336.3280, 955.0206
336.8101, 954.8771
337.2922, 955.0501
337.7743, 954.7252
338.2564, 953.3915
338.7386, 951.8348
339.2206, 950.8850
339.7028, 950.7164
340.1849, 950.7103
340.6670, 949.7808
341.1491, 947.1273
341.6312, 945.5880
342.1133, 946.0426
342.5955, 946.7297
343.0776, 946.5257
343.5597, 945.5283
344.0418, 944.6472
344.5239, 944.7220
345.0060, 945.7863
345.4882, 947.2134
345.9703, 950.4039
346.4524, 952.5565
346.9345, 952.0649
347.4166, 950.0573
347.8987, 948.6063
348.3809, 949.0431
348.8630, 950.8743
349.3451, 952.1412
349.8272, 953.0305
350.3093, 952.9452
350.7914, 951.5026
351.2736, 949.2989
351.7557, 946.8187
352.2378, 944.2304
352.7199, 941.6501
353.2020, 939.2794
353.6841, 937.1359
354.1663, 935.1451
354.6484, 933.8590
355.1305, 932.2893
355.6126, 929.5271
356.0947, 925.6912
356.5768, 921.9328
357.0590, 919.3624
357.5411, 918.0291
358.0232, 917.1138
358.5053, 918.1354
358.9874, 917.7885
359.4695, 913.3653
359.9517, 906.6664
360.4338, 901.4815
360.9159, 900.4420
361.3980, 902.1873
361.8801, 902.4794
362.3622, 900.7461
362.8444, 898.7822
363.3265, 897.1041
363.8086, 895.5899
364.2907, 894.1575
364.7728, 892.7947
365.2549, 891.3856
365.7371, 889.4853
366.2192, 886.9155
366.7013, 885.4490
367.1834, 886.3801
367.6655, 887.8890
368.1476, 888.7757
368.6298, 888.9680
369.1119, 888.7261
369.5940, 888.0231
370.0761, 886.9865
370.5582, 886.3128
371.0403, 886.3719
371.5225, 886.2234
372.0046, 884.9989
372.4867, 883.1002
372.9688, 881.4114
373.4509, 880.1576
373.9330, 879.3715
374.4152, 879.3486
374.8973, 880.2130
375.3794, 880.7406
375.8615, 879.7963
376.3436, 878.3917
376.8257, 878.2061
377.3079, 879.9081
377.7900, 881.5197
378.2721, 881.2017
378.7542, 879.4473
379.2363, 878.5079
379.7184, 879.2648
380.2006, 880.6225
380.6827, 881.3252
381.1648, 881.4222
381.6469, 880.9553
382.1290, 879.2726
382.6111, 877.2987
383.0933, 876.6168
383.5754, 877.4719
384.0575, 878.2059
384.5396, 877.2352
385.0217, 874.8447
385.5038, 873.4449
385.9860, 873.7871
386.4681, 874.5298
386.9502, 875.1306
387.4323, 875.5036
387.9144, 875.2798
388.3965, 874.0922
388.8787, 872.5054
389.3608, 872.1445
389.8429, 873.7037
390.3250, 874.7823
390.8071, 874.4681
391.2892, 873.5957
391.7714, 873.1552
392.2535, 873.3690
392.7356, 873.8997
393.2177, 874.4440
393.6998, 875.1125
394.1819, 875.0401
394.6641, 873.4514
395.1462, 871.8816
395.6283, 870.8425
396.1104, 870.5274
396.5925, 871.4182
397.0746, 874.0053
397.5568, 877.8099
398.0389, 880.2078
398.5210, 879.7623
399.0031, 879.5837
399.4852, 880.6757
399.9673, 881.9016
400.4495, 881.6683
400.9316, 879.5855
401.4137, 877.0691
401.8958, 876.3470
402.3779, 878.1483
402.8600, 879.8172
403.3422, 881.8561
403.8243, 883.3502
404.3064, 883.2518
404.7885, 882.0931
405.2706, 881.5245
405.7527, 883.0056
406.2349, 886.1592
406.7170, 887.8522
407.1991, 886.8610
407.6812, 886.0858
408.1633, 886.1771
408.6454, 886.8365
409.1276, 887.7823
409.6097, 888.9185
410.0918, 890.1560
410.5739, 891.5257
411.0560, 893.1814
411.5381, 894.1052
412.0203, 892.8314
412.5024, 891.8931
412.9845, 892.6672
413.4666, 895.1229
413.9487, 898.5885
414.4308, 903.1487
414.9130, 908.4063
415.3951, 912.7188
415.8772, 915.6692
416.3593, 918.6923
416.8414, 923.1901
417.3235, 928.0742
417.8057, 931.7414
418.2878, 933.4556
418.7699, 934.5650
419.2520, 935.9340
419.7341, 937.6512
420.2162, 940.6509
420.6984, 945.3926
421.1805, 951.3350
421.6626, 957.9308
422.1447, 965.2287
422.6268, 972.3267
423.1089, 979.3874
423.5911, 985.8458
424.0732, 990.1494
424.5553, 992.0837
425.0374, 995.0983
425.5195, 1001.958
426.0016, 1012.353
426.4838, 1022.745
426.9659, 1034.203
427.4480, 1044.541
427.9301, 1052.245
428.4122, 1058.130
428.8943, 1063.945
429.3765, 1070.424
429.8586, 1076.823
430.3407, 1081.962
430.8228, 1086.212
431.3049, 1087.923
431.7870, 1085.385
432.2692, 1081.580
432.7513, 1078.494
433.2334, 1076.279
433.7155, 1074.169
434.1976, 1071.583
434.6797, 1068.544
435.1619, 1065.306
435.6440, 1061.520
436.1261, 1057.914
436.6082, 1054.459
437.0903, 1051.303
437.5724, 1048.538
438.0546, 1046.216
438.5367, 1044.399
439.0188, 1043.256
439.5009, 1042.959
439.9830, 1042.768
440.4651, 1043.299
440.9473, 1043.358
441.4294, 1042.327
441.9115, 1040.337
442.3936, 1037.910
442.8757, 1035.538
443.3578, 1032.901
443.8400, 1028.782
444.3221, 1022.531
444.8042, 1016.388
445.2863, 1011.311
445.7684, 1006.618
446.2505, 1002.140
446.7327, 997.9543
447.2148, 992.6296
447.6969, 984.1223
448.1790, 973.1116
448.6611, 963.2525
449.1432, 955.2112
449.6254, 948.2587
450.1075, 941.9935
450.5896, 936.3152
451.0717, 930.9816
451.5538, 925.9619
452.0359, 921.2512
452.5181, 917.1103
453.0002, 913.4150
453.4823, 909.2476
453.9644, 903.8911
454.4465, 898.1738
454.9286, 894.0626
455.4108, 891.8181
455.8929, 889.9581
456.3750, 888.5197
456.8571, 887.1025
457.3392, 885.2752
457.8214, 882.9775
458.3035, 880.2753
458.7856, 877.0378
459.2677, 873.2401
459.7498, 870.9097
460.2319, 871.6320
460.7141, 871.7526
461.1962, 869.5197
461.6783, 866.2867
462.1604, 864.0811
462.6425, 863.6600
463.1246, 864.1451
463.6068, 864.0978
464.0889, 863.4507
464.5710, 862.4328
465.0531, 861.0038
465.5352, 859.2758
466.0173, 856.7924
466.4995, 854.0198
466.9816, 852.1231
467.4637, 852.0765
467.9458, 853.1926
468.4279, 853.1448
468.9100, 851.3408
469.3922, 849.9139
469.8743, 849.9811
470.3564, 850.3745
470.8385, 850.1149
471.3206, 849.0610
471.8027, 847.8846
472.2849, 847.0115
472.7670, 846.4239
473.2491, 846.2115
473.7312, 846.5995
474.2133, 846.7123
474.6954, 845.5236
475.1776, 843.5941
475.6597, 842.2454
476.1418, 841.9203
476.6239, 841.9421
477.1060, 841.9613
477.5881, 841.9614
478.0703, 841.9003
478.5524, 841.7717
479.0345, 841.5643
479.5166, 841.3387
479.9987, 841.2177
480.4808, 840.4219
480.9630, 837.8129
481.4451, 835.4384
481.9272, 834.9539
482.4093, 836.0087
482.8914, 837.1961
483.3735, 837.6802
483.8557, 837.6656
484.3378, 837.9202
484.8199, 839.5084
485.3020, 839.7630
485.7841, 837.4123
486.2662, 834.5727
486.7484, 832.7925
487.2305, 832.2682
487.7126, 832.4179
488.1947, 832.9337
488.6768, 833.7326
489.1589, 833.4329
489.6411, 830.9235
490.1232, 829.0817
490.6053, 829.1603
491.0874, 830.1262
491.5695, 830.9402
492.0516, 831.3408
492.5338, 831.2709
493.0159, 830.3785
493.4980, 828.7985
493.9801, 827.8096
494.4622, 827.8189
494.9443, 828.0345
495.4265, 827.9122
495.9086, 827.4976
496.3907, 826.8456
496.8728, 825.9285
497.3549, 824.8154
497.8370, 823.4111
498.3192, 821.8276
498.8013, 820.4171
499.2834, 819.2485
499.7655, 818.5117
500.2476, 818.6091
500.7297, 819.8123
501.2119, 820.8733
501.6940, 822.1656
502.1761, 822.9199
502.6582, 821.9062
503.1403, 819.7624
503.6224, 818.6968
504.1045, 820.2406
504.5866, 823.3942
505.0688, 824.4837
505.5509, 821.5319
506.0330, 819.5916
506.5151, 819.7630
506.9972, 820.3568
507.4793, 820.1154
507.9615, 818.9879
508.4436, 817.7136
508.9257, 816.9221
509.4078, 816.5146
509.8899, 815.8731
510.3720, 814.7976
510.8542, 813.9216
511.3363, 813.2088
511.8184, 812.9434
512.3005, 813.7949
512.7827, 816.0213
513.2648, 817.7747
513.7469, 816.9539
514.2290, 814.5761
514.7111, 813.8821
515.1932, 815.5993
515.6754, 817.4507
516.1575, 817.6729
516.6396, 816.5403
517.1217, 815.5810
517.6038, 814.9327
518.0859, 814.3635
518.5681, 813.6758
519.0502, 813.0242
519.5323, 812.6415
520.0144, 812.5953
520.4965, 812.9325
520.9786, 813.8369
521.4608, 815.5698
521.9429, 816.2383
522.4250, 815.0114
522.9071, 813.8090
523.3892, 813.0445
523.8713, 812.8255
524.3535, 813.5687
524.8356, 815.4138
525.3177, 817.2430
525.7998, 816.8119
526.2819, 813.4023
526.7640, 811.3327
527.2462, 811.6212
527.7283, 812.5742
528.2104, 813.4830
528.6925, 814.4008
529.1746, 815.5861
529.6567, 817.3429
530.1389, 819.1041
530.6210, 820.1324
531.1031, 820.4459
531.5852, 820.2916
532.0673, 819.5896
532.5494, 818.6790
533.0316, 818.0738
533.5137, 817.7557
533.9958, 817.0152
534.4779, 814.6373
534.9600, 812.6711
535.4421, 813.1970
535.9243, 815.6093
536.4064, 817.7527
536.8885, 818.6019
537.3706, 818.5608
537.8527, 818.3771
538.3348, 817.2253
538.8170, 817.7150
539.2991, 820.9938
539.7812, 824.7427
540.2633, 827.6322
540.7454, 829.8449
541.2275, 832.2249
541.7097, 835.2648
542.1918, 838.8677
542.6739, 843.0720
543.1560, 848.5475
543.6381, 852.5449
544.1202, 854.1614
544.6024, 854.3278
545.0845, 853.2592
545.5666, 851.1273
546.0487, 848.5997
546.5308, 846.3624
547.0129, 843.7570
547.4951, 839.3802
547.9772, 833.2780
548.4593, 827.4919
548.9414, 822.9302
549.4235, 819.0965
549.9056, 814.8610
550.3878, 809.7928
550.8699, 806.5556
551.3520, 806.9665
551.8341, 808.4207
552.3162, 809.0707
552.7983, 808.8116
553.2805, 807.9615
553.7626, 806.6425
554.2447, 805.0976
554.7268, 804.0369
555.2089, 803.6966
555.6910, 803.4421
556.1732, 803.1254
556.6553, 802.9815
557.1374, 803.0654
557.6195, 803.4417
558.1016, 804.2895
558.5837, 805.8670
559.0659, 807.7784
559.5480, 809.1893
560.0301, 810.1241
560.5122, 810.3052
560.9943, 809.0067
561.4764, 807.5231
561.9586, 807.0695
562.4407, 807.6169
562.9228, 808.5676
563.4049, 809.9505
563.8870, 811.4614
564.3691, 812.7890
564.8513, 813.9445
565.3334, 815.0345
565.8155, 816.1053
566.2976, 817.1376
566.7797, 818.0341
567.2618, 818.3577
567.7440, 819.6743
568.2261, 822.7249
568.7082, 826.0665
569.1903, 828.9675
569.6724, 831.4662
570.1545, 833.9498
570.6367, 836.6253
571.1188, 839.2346
571.6009, 841.1018
572.0830, 841.9802
572.5651, 843.1150
573.0472, 845.0710
573.5294, 846.8653
574.0115, 847.4278
574.4936, 847.3812
574.9757, 848.5338
575.4578, 852.3224
575.9399, 856.6740
576.4221, 859.2054
576.9042, 860.1418
577.3863, 860.7225
577.8684, 861.2204
578.3505, 861.6733
578.8326, 862.0386
579.3148, 862.3012
579.7969, 863.0137
580.2790, 865.4543
580.7611, 867.0368
581.2432, 866.5651
581.7253, 864.3920
582.2075, 861.0637
582.6896, 856.8151
583.1717, 851.6837
583.6538, 845.4012
584.1359, 837.5181
584.6180, 831.7391
585.1002, 829.2750
