##NAMES=Anatase
##RRUFFID=R070582
##IDEAL CHEMISTRY=Ti^4+^O_2_
##LOCALITY=Asker, Akershus, Norway
##OWNER=RRUFF
##SOURCE=James Shigley
##DESCRIPTION=Dark dipyramidal crystals on albite matrix
##STATUS=The identification of this mineral has been confirmed by single-crystal X-ray diffraction.
##URL=rruff.info/R070582
119.7566, 4355.018
120.2387, 4859.931
120.7209, 5438.958
121.2030, 6091.328
121.6851, 6805.469
122.1672, 7588.909
122.6493, 8468.631
123.1314, 9463.094
123.6136, 10561.35
124.0957, 11751.45
124.5778, 13045.48
125.0599, 14424.64
125.5420, 15862.46
126.0241, 17364.76
126.5063, 18913.22
126.9884, 20526.16
127.4705, 22177.71
127.9526, 23805.09
128.4347, 25392.98
128.9168, 26941.56
129.3990, 28417.86
129.8811, 29818.57
130.3632, 31181.01
130.8453, 32551.23
131.3274, 33917.69
131.8095, 35288.34
132.2917, 36658.35
132.7738, 38031.50
133.2559, 39421.20
133.7380, 40824.30
134.2201, 42253.74
134.7022, 43758.02
135.1843, 45348.11
135.6665, 46984.96
136.1486, 48632.25
136.6307, 50274.57
137.1128, 51963.51
137.5949, 53700.13
138.0770, 55482.46
138.5592, 57401.46
139.0413, 59487.56
139.5234, 61689.25
140.0055, 63900.98
140.4876, 66135.52
140.9697, 68387.55
141.4519, 70675.83
141.9340, 73097.91
142.4161, 75298.15
142.8982, 77404.23
143.3803, 79285.09
143.8624, 80473.02
144.3446, 80996.10
144.8267, 80602.45
145.3088, 78841.59
145.7909, 76163.38
146.2730, 72988.27
146.7551, 69294.76
147.2373, 65058.48
147.7194, 60801.47
148.2015, 56393.27
148.6836, 52031.04
149.1657, 47824.49
149.6478, 43664.20
150.1300, 39815.87
150.6121, 36337.11
151.0942, 33272.70
151.5763, 30427.31
152.0584, 27803.79
152.5405, 25413.73
153.0227, 23235.65
153.5048, 21303.63
153.9869, 19561.41
154.4690, 17990.29
154.9511, 16631.18
155.4332, 15377.19
155.9154, 14199.65
156.3975, 13108.10
156.8796, 12124.97
157.3617, 11277.42
157.8438, 10515.17
158.3259, 9824.307
158.8080, 9207.539
159.2902, 8644.351
159.7723, 8135.674
160.2544, 7682.459
160.7365, 7258.710
161.2186, 6864.047
161.7007, 6495.636
162.1829, 6149.073
162.6650, 5823.933
163.1471, 5523.199
163.6292, 5250.549
164.1113, 5007.992
164.5934, 4783.370
165.0756, 4573.813
165.5577, 4378.272
166.0398, 4194.233
166.5219, 4018.877
167.0040, 3857.313
167.4861, 3716.500
167.9683, 3607.865
168.4504, 3500.349
168.9325, 3367.953
169.4146, 3218.909
169.8967, 3081.830
170.3788, 2976.622
170.8610, 2891.340
171.3431, 2814.812
171.8252, 2752.688
172.3073, 2689.694
172.7894, 2610.010
173.2715, 2514.892
173.7537, 2422.974
174.2358, 2345.681
174.7179, 2280.806
175.2000, 2224.168
175.6821, 2180.584
176.1642, 2140.871
176.6464, 2091.769
177.1285, 2032.012
177.6106, 1975.060
178.0927, 1932.214
178.5748, 1902.220
179.0569, 1880.904
179.5390, 1868.695
180.0212, 1862.976
180.5033, 1861.453
180.9854, 1866.208
181.4675, 1868.549
181.9496, 1854.127
182.4317, 1825.146
182.9139, 1796.845
183.3960, 1780.696
183.8781, 1772.370
184.3602, 1760.015
184.8423, 1739.114
185.3244, 1715.735
185.8066, 1700.908
186.2887, 1694.648
186.7708, 1690.031
187.2529, 1681.567
187.7350, 1669.817
188.2171, 1657.721
188.6993, 1645.138
189.1814, 1632.965
189.6635, 1622.258
190.1456, 1612.413
190.6277, 1607.637
191.1098, 1614.908
191.5920, 1633.362
192.0741, 1652.112
192.5562, 1662.462
193.0383, 1667.805
193.5204, 1689.979
194.0025, 1730.577
194.4847, 1784.185
194.9668, 1845.403
195.4489, 1914.449
195.9310, 1985.719
196.4131, 2065.397
196.8952, 2151.598
197.3774, 2211.181
197.8595, 2245.190
198.3416, 2247.069
198.8237, 2195.060
199.3058, 2085.056
199.7879, 1954.455
200.2701, 1822.405
200.7522, 1688.358
201.2343, 1562.470
201.7164, 1445.035
202.1985, 1337.007
202.6806, 1241.489
203.1628, 1160.020
203.6449, 1089.613
204.1270, 1031.099
204.6091, 985.8392
205.0912, 943.1885
205.5733, 900.0788
206.0555, 857.4213
206.5376, 824.1348
207.0197, 802.3101
207.5018, 785.4667
207.9839, 766.2980
208.4660, 743.7224
208.9482, 723.2690
209.4303, 707.1700
209.9124, 695.4778
210.3945, 682.6492
210.8766, 667.7254
211.3587, 652.8887
211.8409, 641.5579
212.3230, 635.1689
212.8051, 627.9656
213.2872, 616.8065
213.7693, 599.8505
214.2514, 589.5048
214.7336, 588.3578
215.2157, 591.8861
215.6978, 590.9352
216.1799, 584.4664
216.6620, 575.9077
217.1441, 566.1937
217.6263, 554.4627
218.1084, 544.7161
218.5905, 537.5562
219.0726, 532.3051
219.5547, 527.1459
220.0368, 522.8917
220.5190, 517.2383
221.0011, 508.2074
221.4832, 493.4511
221.9653, 481.2897
222.4474, 472.2715
222.9295, 466.3110
223.4117, 463.3381
223.8938, 466.1021
224.3759, 467.9899
224.8580, 463.2255
225.3401, 446.7564
225.8222, 435.2994
226.3043, 432.6870
226.7865, 438.4229
227.2686, 441.7313
227.7507, 441.8418
228.2328, 440.3936
228.7149, 439.0204
229.1970, 438.7655
229.6792, 436.4205
230.1613, 430.2167
230.6434, 419.6794
231.1255, 412.8790
231.6076, 410.5340
232.0897, 411.4178
232.5719, 414.8329
233.0540, 423.8028
233.5361, 429.8848
234.0182, 430.2804
234.5003, 423.6002
234.9824, 418.5301
235.4646, 416.4251
235.9467, 415.0711
236.4288, 410.7352
236.9109, 400.6620
237.3930, 392.1379
237.8751, 387.6457
238.3573, 388.5524
238.8394, 389.3038
239.3215, 389.8474
239.8036, 390.2628
240.2857, 390.6580
240.7678, 390.7072
241.2500, 391.2141
241.7321, 393.1201
242.2142, 399.4084
242.6963, 399.6665
243.1784, 389.6236
243.6605, 374.3983
244.1427, 368.1691
244.6248, 376.0898
245.1069, 385.7736
245.5890, 391.4684
246.0711, 391.8301
246.5532, 390.9101
247.0353, 388.0925
247.5175, 384.0468
247.9996, 381.6572
248.4817, 382.3014
248.9638, 382.7339
249.4459, 380.7019
249.9280, 373.7228
250.4102, 369.6150
250.8923, 369.7029
251.3744, 373.3725
251.8565, 376.7386
252.3386, 380.1803
252.8207, 382.9172
253.3029, 384.4508
253.7850, 384.7852
254.2671, 383.7101
254.7492, 379.9042
255.2313, 373.9426
255.7134, 373.1216
256.1956, 380.8736
256.6777, 389.4609
257.1598, 392.3152
257.6419, 386.1244
258.1240, 381.5103
258.6061, 380.0351
259.0883, 381.6564
259.5704, 385.3542
260.0525, 393.6641
260.5346, 400.8071
261.0167, 399.8414
261.4988, 385.2153
261.9810, 376.1178
262.4631, 378.4196
262.9452, 392.3702
263.4273, 400.2479
263.9094, 399.9752
264.3915, 396.3339
264.8737, 394.0176
265.3558, 392.9273
265.8379, 393.6850
266.3200, 397.7915
266.8021, 405.6303
267.2842, 406.8482
267.7664, 397.7924
268.2485, 386.9479
268.7306, 385.3070
269.2127, 396.2323
269.6948, 406.2499
270.1769, 411.6620
270.6591, 412.2281
271.1412, 411.3807
271.6233, 408.1329
272.1054, 404.8314
272.5875, 405.1372
273.0696, 410.2587
273.5518, 414.6006
274.0339, 416.2869
274.5160, 415.1635
274.9981, 413.1567
275.4802, 409.5827
275.9623, 406.1830
276.4445, 406.0303
276.9266, 409.7367
277.4087, 413.6713
277.8908, 416.3866
278.3729, 417.8327
278.8550, 419.9240
279.3372, 422.8765
279.8193, 426.1378
280.3014, 429.5359
280.7835, 433.4875
281.2656, 434.7493
281.7477, 430.0401
282.2298, 419.1977
282.7119, 413.3843
283.1941, 413.0789
283.6762, 416.8978
284.1583, 424.1952
284.6404, 435.4008
285.1225, 444.4999
285.6046, 446.9502
286.0868, 443.3513
286.5689, 444.0157
287.0510, 450.1575
287.5331, 458.4008
288.0152, 463.4803
288.4973, 465.3390
288.9795, 466.0274
289.4616, 465.4681
289.9437, 464.1616
290.4258, 465.8179
290.9079, 471.3143
291.3900, 477.9417
291.8722, 481.6131
292.3543, 482.4119
292.8364, 482.1423
293.3185, 480.6406
293.8006, 478.6222
294.2827, 478.8856
294.7649, 481.7394
295.2470, 486.5330
295.7291, 493.1636
296.2112, 501.4556
296.6933, 509.4060
297.1754, 516.7885
297.6576, 523.1429
298.1397, 527.5118
298.6218, 529.9753
299.1039, 529.7701
299.5860, 522.4622
300.0681, 510.2162
300.5503, 502.5529
301.0324, 508.4803
301.5145, 522.0128
301.9966, 532.4726
302.4787, 538.9703
302.9608, 542.2400
303.4430, 540.6782
303.9251, 535.8968
304.4072, 533.2478
304.8893, 537.0991
305.3714, 544.2639
305.8535, 551.3239
306.3357, 558.5238
306.8178, 562.9612
307.2999, 559.1262
307.7820, 549.9142
308.2641, 542.9133
308.7462, 543.2605
309.2284, 547.2773
309.7105, 551.3483
310.1926, 555.0042
310.6747, 558.8824
311.1568, 564.4047
311.6389, 570.5118
312.1211, 574.9189
312.6032, 574.7899
313.0853, 573.5510
313.5674, 574.2003
314.0495, 577.6967
314.5316, 580.6890
315.0138, 580.5386
315.4959, 578.5777
315.9780, 577.2095
316.4601, 577.7627
316.9422, 579.0280
317.4243, 579.8541
317.9065, 579.5292
318.3886, 581.2072
318.8707, 590.0765
319.3528, 601.2289
319.8349, 606.9576
320.3170, 599.4362
320.7992, 590.0751
321.2813, 583.5373
321.7634, 580.4735
322.2455, 579.8464
322.7276, 582.9867
323.2097, 588.0302
323.6919, 592.3838
324.1740, 594.8639
324.6561, 597.0364
325.1382, 599.8955
325.6203, 604.2425
326.1024, 606.1870
326.5845, 601.0038
327.0667, 594.3920
327.5488, 593.4412
328.0309, 609.1653
328.5130, 620.7819
328.9951, 621.8924
329.4772, 609.0659
329.9594, 599.1352
330.4415, 592.2555
330.9236, 588.2856
331.4057, 587.2635
331.8878, 592.5627
332.3699, 596.6074
332.8521, 597.3395
333.3342, 594.0867
333.8163, 592.6262
334.2984, 593.6431
334.7805, 595.8734
335.2626, 598.4211
335.7448, 603.1484
336.2269, 604.3234
336.7090, 598.0159
337.1911, 584.0457
337.6732, 582.4149
338.1553, 599.5377
338.6375, 620.2043
339.1196, 628.8766
339.6017, 621.3892
340.0838, 615.7626
340.5659, 616.1652
341.0480, 621.7996
341.5302, 625.8606
342.0123, 627.6938
342.4944, 629.6313
342.9765, 634.3154
343.4586, 642.0430
343.9407, 648.7097
344.4229, 653.2336
344.9050, 656.0777
345.3871, 658.2137
345.8692, 659.4329
346.3513, 661.3005
346.8334, 665.4460
347.3156, 671.6787
347.7977, 677.8097
348.2798, 683.5128
348.7619, 688.8690
349.2440, 693.7777
349.7261, 698.3167
350.2083, 703.8011
350.6904, 711.2697
351.1725, 720.5106
351.6546, 731.2817
352.1367, 744.5944
352.6188, 757.2740
353.1010, 762.7425
353.5831, 762.3766
354.0652, 763.7015
354.5473, 772.7692
355.0294, 786.3492
355.5115, 799.7825
355.9937, 812.4765
356.4758, 824.0792
356.9579, 833.0966
357.4400, 840.5652
357.9221, 849.1428
358.4042, 862.7369
358.8864, 876.8227
359.3685, 885.8976
359.8506, 887.0854
360.3327, 890.9279
360.8148, 904.7345
361.2969, 925.5763
361.7791, 948.0712
362.2612, 970.2011
362.7433, 993.2035
363.2254, 1018.842
363.7075, 1048.915
364.1896, 1074.675
364.6718, 1090.720
365.1539, 1101.746
365.6360, 1113.969
366.1181, 1125.161
366.6002, 1141.299
367.0823, 1165.336
367.5645, 1198.315
368.0466, 1233.062
368.5287, 1272.095
369.0108, 1310.767
369.4929, 1343.833
369.9750, 1363.000
370.4571, 1385.252
370.9392, 1411.406
371.4214, 1441.331
371.9035, 1481.950
372.3856, 1542.485
372.8677, 1605.995
373.3498, 1659.206
373.8319, 1697.101
374.3141, 1732.074
374.7962, 1761.526
375.2783, 1787.825
375.7604, 1830.539
376.2425, 1896.618
376.7246, 1966.795
377.2068, 2026.610
377.6889, 2073.741
378.1710, 2122.238
378.6531, 2172.381
379.1352, 2225.279
379.6173, 2285.167
380.0995, 2355.431
380.5816, 2420.054
381.0637, 2465.774
381.5458, 2493.678
382.0279, 2532.988
382.5100, 2587.538
382.9922, 2651.629
383.4743, 2719.271
383.9564, 2790.229
384.4385, 2859.299
384.9206, 2930.055
385.4027, 2997.503
385.8849, 3045.458
386.3670, 3069.464
386.8491, 3090.100
387.3312, 3134.462
387.8133, 3195.209
388.2954, 3250.174
388.7776, 3287.130
389.2597, 3313.677
389.7418, 3339.692
390.2239, 3365.472
390.7060, 3386.501
391.1881, 3394.815
391.6703, 3397.334
392.1524, 3404.341
392.6345, 3427.168
393.1166, 3449.648
393.5987, 3464.364
394.0808, 3470.868
394.5630, 3465.514
395.0451, 3439.305
395.5272, 3404.011
396.0093, 3370.222
396.4914, 3352.252
396.9735, 3322.854
397.4557, 3269.768
397.9378, 3197.538
398.4199, 3125.650
398.9020, 3060.848
399.3841, 2995.425
399.8662, 2925.445
400.3484, 2847.932
400.8305, 2769.913
401.3126, 2690.106
401.7947, 2610.001
402.2768, 2533.106
402.7589, 2463.094
403.2411, 2391.507
403.7232, 2315.545
404.2053, 2234.197
404.6874, 2152.552
405.1695, 2067.448
405.6516, 1984.788
406.1338, 1914.532
406.6159, 1860.678
407.0980, 1806.879
407.5801, 1747.184
408.0622, 1681.547
408.5443, 1622.553
409.0265, 1570.276
409.5086, 1522.217
409.9907, 1476.953
410.4728, 1434.281
410.9549, 1390.786
411.4370, 1343.505
411.9192, 1295.655
412.4013, 1257.518
412.8834, 1229.147
413.3655, 1203.162
413.8476, 1170.480
414.3297, 1135.943
414.8119, 1112.614
415.2939, 1106.737
415.7761, 1105.264
416.2582, 1094.456
416.7403, 1075.133
417.2224, 1050.764
417.7045, 1016.359
418.1866, 981.2291
418.6688, 955.1152
419.1509, 940.8018
419.6330, 929.8942
420.1151, 918.0837
420.5972, 906.2143
421.0793, 895.4846
421.5615, 888.5493
422.0436, 881.1516
422.5257, 870.7903
423.0078, 857.0926
423.4899, 843.9230
423.9720, 831.6644
424.4542, 820.9443
424.9363, 812.5793
425.4184, 810.2106
425.9005, 806.2683
426.3826, 798.1942
426.8647, 786.4402
427.3469, 777.6810
427.8290, 775.8424
428.3111, 773.3142
428.7932, 765.2118
429.2753, 746.8798
429.7574, 733.1362
430.2396, 726.2573
430.7217, 723.8235
431.2038, 719.1107
431.6859, 710.4935
432.1680, 703.8724
432.6501, 703.7243
433.1323, 710.8002
433.6144, 710.8601
434.0965, 702.3503
434.5786, 690.6963
435.0607, 684.0576
435.5428, 682.1573
436.0250, 679.2927
436.5071, 672.1560
436.9892, 662.8648
437.4713, 656.9805
437.9534, 654.5434
438.4355, 653.6802
438.9177, 655.2842
439.3998, 657.0920
439.8819, 653.7800
440.3640, 639.9362
440.8461, 625.6529
441.3282, 622.1137
441.8104, 627.0828
442.2925, 631.5815
442.7746, 631.2733
443.2567, 627.9138
443.7388, 622.1700
444.2209, 612.2944
444.7031, 604.9186
445.1852, 605.1013
445.6673, 609.2678
446.1494, 611.3051
446.6315, 606.4425
447.1136, 601.9484
447.5958, 601.1048
448.0779, 605.1859
448.5600, 606.8027
449.0421, 602.3846
449.5242, 596.9670
450.0063, 595.2204
450.4885, 602.9568
450.9706, 605.1622
451.4527, 597.5370
451.9348, 581.9698
452.4169, 570.8778
452.8990, 563.7354
453.3812, 561.9222
453.8633, 569.5000
454.3454, 589.0381
454.8275, 597.5763
455.3096, 590.7263
455.7917, 575.9596
456.2739, 566.0546
456.7560, 560.9359
457.2381, 559.8404
457.7202, 564.8136
458.2023, 573.6882
458.6844, 578.7471
459.1666, 579.5615
459.6487, 579.5876
460.1308, 582.2078
460.6129, 586.6621
461.0950, 591.4815
461.5771, 598.6091
462.0592, 603.6846
462.5414, 599.7557
463.0235, 588.5551
463.5056, 580.8098
463.9877, 585.4384
464.4698, 594.4997
464.9519, 601.6997
465.4341, 605.6582
465.9162, 607.6630
466.3983, 606.1317
466.8804, 603.0166
467.3625, 602.3688
467.8446, 608.0098
468.3268, 613.4619
468.8089, 616.0466
469.2910, 614.5442
469.7731, 615.0071
470.2552, 619.2667
470.7373, 624.1962
471.2195, 625.9808
471.7016, 620.4708
472.1837, 621.1167
472.6658, 632.7433
473.1479, 652.5876
473.6300, 665.1130
474.1122, 669.2347
474.5943, 669.7419
475.0764, 667.0699
475.5585, 661.6435
476.0406, 665.1834
476.5227, 680.8283
477.0049, 700.8276
477.4870, 713.1782
477.9691, 718.8414
478.4512, 723.6682
478.9333, 730.1791
479.4154, 737.7518
479.8976, 745.8514
480.3797, 754.4783
480.8618, 762.5888
481.3439, 770.6090
481.8260, 777.1566
482.3081, 779.9870
482.7903, 772.2401
483.2724, 767.6855
483.7545, 774.9440
484.2366, 791.7354
484.7187, 809.8688
485.2008, 828.2296
485.6830, 845.6550
486.1651, 861.8038
486.6472, 877.7787
487.1293, 889.9819
487.6114, 892.2210
488.0935, 892.5978
488.5757, 901.8989
489.0578, 927.2941
489.5399, 950.7524
490.0220, 967.7706
490.5041, 978.7242
490.9862, 991.6404
491.4684, 1005.445
491.9505, 1023.518
492.4326, 1049.329
492.9147, 1083.487
493.3968, 1118.729
493.8789, 1155.377
494.3611, 1191.361
494.8432, 1218.949
495.3253, 1239.299
495.8074, 1265.220
496.2895, 1309.209
496.7716, 1362.004
497.2538, 1406.348
497.7359, 1440.659
498.2180, 1473.229
498.7001, 1510.669
499.1822, 1550.572
499.6643, 1589.157
500.1465, 1622.740
500.6286, 1657.500
501.1107, 1696.451
501.5928, 1739.550
502.0749, 1786.915
502.5570, 1844.381
503.0392, 1902.402
503.5213, 1956.310
504.0034, 2005.768
504.4855, 2052.010
504.9676, 2090.631
505.4497, 2127.947
505.9318, 2172.187
506.4139, 2227.643
506.8961, 2282.970
507.3782, 2337.583
507.8603, 2390.975
508.3424, 2438.195
508.8245, 2477.155
509.3066, 2515.148
509.7888, 2560.048
510.2709, 2611.599
510.7530, 2658.186
511.2351, 2699.005
511.7172, 2731.959
512.1993, 2750.063
512.6815, 2755.361
513.1636, 2759.478
513.6457, 2775.915
514.1278, 2791.651
514.6099, 2782.990
515.0920, 2749.291
515.5742, 2714.699
516.0563, 2699.586
516.5384, 2691.898
517.0205, 2677.904
517.5026, 2652.061
517.9847, 2621.278
518.4669, 2587.780
518.9490, 2551.453
519.4311, 2511.723
519.9132, 2464.278
520.3953, 2416.787
520.8774, 2372.148
521.3596, 2330.603
521.8417, 2291.307
522.3238, 2257.084
522.8059, 2222.689
523.2880, 2182.427
523.7701, 2134.783
524.2523, 2085.072
524.7344, 2033.190
525.2165, 1980.074
525.6986, 1929.510
526.1807, 1880.776
526.6628, 1837.006
527.1450, 1804.308
527.6271, 1778.753
528.1092, 1743.948
528.5913, 1696.898
529.0734, 1649.241
529.5555, 1613.057
530.0377, 1585.156
530.5198, 1559.397
531.0019, 1535.637
531.4840, 1510.615
531.9661, 1479.156
532.4482, 1442.653
532.9304, 1410.362
533.4125, 1388.711
533.8946, 1370.695
534.3767, 1351.834
534.8588, 1331.312
535.3409, 1310.397
535.8231, 1289.790
536.3052, 1268.778
536.7873, 1246.545
537.2694, 1219.617
537.7515, 1196.632
538.2336, 1181.199
538.7158, 1172.262
539.1979, 1157.203
539.6800, 1133.821
540.1621, 1110.049
540.6442, 1092.335
541.1263, 1080.302
541.6085, 1065.833
542.0906, 1047.229
542.5727, 1028.662
543.0548, 1016.357
543.5369, 1009.350
544.0190, 1003.899
544.5012, 1000.498
544.9833, 996.4928
545.4654, 987.5051
545.9475, 974.1681
546.4296, 961.7499
546.9117, 955.1248
547.3939, 949.9438
547.8760, 942.3724
548.3581, 930.2126
548.8402, 918.4922
549.3223, 909.3459
549.8044, 901.2551
550.2866, 891.5635
550.7687, 876.9360
551.2508, 864.1833
551.7329, 854.8967
552.2150, 849.0246
552.6971, 844.2903
553.1793, 841.2379
553.6614, 838.2877
554.1435, 833.9496
554.6256, 828.0463
555.1077, 823.8841
555.5898, 822.1425
556.0720, 821.3473
556.5541, 819.2831
557.0362, 816.1034
557.5183, 812.6590
558.0004, 809.2591
558.4825, 805.8828
558.9647, 801.9788
559.4468, 797.7292
559.9289, 795.0535
560.4110, 797.2551
560.8931, 800.4982
561.3752, 801.2899
561.8574, 798.5558
562.3395, 794.1306
562.8216, 784.3932
563.3037, 774.1729
563.7858, 771.2631
564.2679, 789.7910
564.7501, 800.9504
565.2322, 795.1392
565.7143, 774.1328
566.1964, 764.1354
566.6785, 769.3519
567.1606, 777.8254
567.6428, 782.1369
568.1249, 781.9222
568.6070, 782.6625
569.0891, 785.3381
569.5712, 787.3032
570.0533, 782.9867
570.5355, 773.9067
571.0176, 767.6603
571.4997, 769.7381
571.9818, 774.2160
572.4639, 771.4916
572.9460, 762.9924
573.4281, 757.3585
573.9102, 760.1644
574.3923, 767.7244
574.8745, 778.6531
575.3566, 795.4087
575.8387, 806.3853
576.3208, 804.3832
576.8029, 795.9051
577.2850, 788.8309
577.7672, 780.6386
578.2493, 778.2677
578.7314, 785.9327
579.2135, 800.5751
579.6956, 806.7888
580.1777, 800.6149
580.6599, 795.7757
581.1420, 800.6518
581.6241, 815.0725
582.1062, 826.2426
582.5883, 833.6024
583.0704, 840.0189
583.5526, 849.8180
584.0347, 861.3489
584.5168, 869.1135
584.9989, 869.5948
585.4810, 868.6287
585.9631, 872.3688
586.4453, 879.5149
586.9274, 886.2841
587.4095, 888.7480
587.8916, 891.9944
588.3737, 900.0080
588.8558, 913.9208
589.3380, 925.2818
589.8201, 928.8193
590.3022, 931.6307
590.7843, 938.9607
591.2664, 952.7977
591.7485, 967.7173
592.2307, 984.7808
592.7128, 1001.945
593.1949, 1013.535
593.6770, 1018.411
594.1591, 1025.356
594.6412, 1037.407
595.1234, 1054.079
595.6055, 1075.752
596.0876, 1102.525
596.5697, 1126.720
597.0518, 1138.493
597.5339, 1145.180
598.0161, 1159.615
598.4982, 1185.785
598.9803, 1212.425
599.4624, 1230.989
599.9445, 1245.390
600.4266, 1261.668
600.9088, 1279.407
601.3909, 1301.471
601.8730, 1331.072
602.3551, 1366.954
602.8372, 1398.646
603.3193, 1420.801
603.8015, 1444.793
604.2836, 1476.319
604.7657, 1516.150
605.2478, 1554.157
605.7299, 1590.012
606.2120, 1625.031
606.6942, 1657.702
607.1763, 1689.080
607.6584, 1733.295
608.1405, 1797.259
608.6226, 1868.589
609.1047, 1933.671
609.5869, 1993.051
610.0690, 2050.728
610.5511, 2104.533
611.0332, 2159.916
611.5153, 2219.929
611.9974, 2285.472
612.4796, 2354.752
612.9617, 2426.021
613.4438, 2502.322
613.9259, 2584.673
614.4080, 2675.087
614.8901, 2770.140
615.3723, 2867.071
615.8544, 2971.081
616.3365, 3088.978
616.8186, 3225.250
617.3007, 3357.910
617.7828, 3478.947
618.2650, 3592.925
