##NAMES=Anatase
##RRUFFID=R060277
##IDEAL CHEMISTRY=Ti^4+^O_2_
##LOCALITY=Taftan, near Dalbandi, Baluchistan Province, Pakistan
##OWNER=RRUFF
##SOURCE=Herb Obodda
##DESCRIPTION=Dark brown tetragonal tabular crystals
##STATUS=The identification of this mineral is confirmed by single-crystal X-ray diffraction and chemical analysis.
##URL=rruff.info/R060277
##MEASURED CHEMISTRY=Ti_1.00_O_2_
90.49219, 111.4687
90.97430, 118.5341
91.45642, 121.0503
91.93854, 115.2483
92.42065, 105.9870
92.90277, 101.3346
93.38489, 102.7252
93.86700, 104.3429
94.34912, 96.90697
94.83124, 82.09299
95.31335, 69.75114
95.79547, 68.45123
96.27759, 75.37653
96.75970, 78.87340
97.24182, 77.13313
97.72394, 71.51237
98.20605, 63.01168
98.68817, 50.94036
99.17029, 41.46294
99.65240, 41.49525
100.1345, 51.91232
100.6166, 58.59382
101.0988, 57.47726
101.5809, 49.79317
102.0630, 46.22754
102.5451, 47.82597
103.0272, 51.62202
103.5093, 54.41256
103.9915, 55.74703
104.4736, 57.16951
104.9557, 59.01744
105.4378, 61.28485
105.9199, 64.33288
106.4020, 70.28924
106.8842, 76.01102
107.3663, 75.70432
107.8484, 64.00542
108.3305, 52.47709
108.8126, 44.99512
109.2947, 42.58852
109.7769, 42.54311
110.2590, 47.45749
110.7411, 55.19988
111.2232, 59.01484
111.7053, 54.83709
112.1874, 49.49475
112.6696, 46.07726
113.1517, 47.99961
113.6338, 48.49690
114.1159, 44.45490
114.5980, 36.95746
115.0801, 33.71317
115.5623, 42.09060
116.0444, 52.77166
116.5265, 58.53069
117.0086, 50.92973
117.4907, 43.89861
117.9728, 43.80328
118.4550, 51.03562
118.9371, 57.61301
119.4192, 55.11959
119.9013, 50.99422
120.3834, 54.78332
120.8655, 72.39510
121.3477, 98.12378
121.8298, 126.4017
122.3119, 155.7397
122.7940, 194.1214
123.2761, 239.7825
123.7582, 298.0670
124.2404, 380.8723
124.7225, 493.8659
125.2046, 635.7946
125.6867, 802.6958
126.1688, 993.8854
126.6509, 1212.527
127.1331, 1462.244
127.6152, 1742.588
128.0973, 2051.305
128.5794, 2384.632
129.0615, 2745.130
129.5436, 3137.776
130.0258, 3562.476
130.5079, 4021.457
130.9900, 4521.556
131.4721, 5058.480
131.9542, 5654.395
132.4363, 6311.605
132.9185, 7035.472
133.4006, 7859.810
133.8827, 8786.523
134.3648, 9815.423
134.8469, 11009.96
135.3290, 12371.45
135.8112, 13899.97
136.2933, 15572.33
136.7754, 17394.04
137.2575, 19380.46
137.7396, 21575.41
138.2217, 23938.12
138.7039, 26403.12
139.1860, 29019.30
139.6681, 31666.97
140.1502, 34262.37
140.6323, 36829.97
141.1144, 39183.04
141.5966, 41333.31
142.0787, 43376.48
142.5608, 44723.19
143.0429, 45350.62
143.5250, 45299.50
144.0071, 44597.16
144.4893, 43076.98
144.9714, 41184.21
145.4535, 39099.57
145.9356, 36639.16
146.4177, 34302.97
146.8998, 32033.38
147.3820, 29876.99
147.8641, 27933.85
148.3462, 26261.44
148.8283, 24772.20
149.3104, 23406.38
149.7925, 22201.25
150.2747, 21082.71
150.7568, 20078.47
151.2389, 19182.33
151.7210, 18327.78
152.2031, 17523.94
152.6852, 16764.37
153.1674, 16036.29
153.6495, 15357.40
154.1316, 14698.22
154.6137, 14050.27
155.0958, 13413.12
155.5779, 12809.73
156.0601, 12245.52
156.5422, 11713.51
157.0243, 11214.56
157.5064, 10742.37
157.9885, 10308.79
158.4706, 9919.971
158.9528, 9577.818
159.4349, 9265.391
159.9170, 8978.262
160.3991, 8718.596
160.8812, 8488.886
161.3633, 8302.699
161.8455, 8136.345
162.3276, 7977.490
162.8097, 7824.728
163.2918, 7691.103
163.7739, 7593.817
164.2560, 7510.866
164.7382, 7375.424
165.2203, 7214.902
165.7024, 7059.806
166.1845, 6918.305
166.6666, 6791.551
167.1487, 6675.165
167.6309, 6571.634
168.1130, 6475.132
168.5951, 6375.271
169.0772, 6259.728
169.5593, 6141.515
170.0414, 6032.577
170.5236, 5937.421
171.0057, 5844.800
171.4878, 5746.308
171.9699, 5642.403
172.4520, 5536.743
172.9341, 5422.763
173.4163, 5310.008
173.8984, 5210.057
174.3805, 5126.416
174.8626, 5053.376
175.3447, 4983.834
175.8268, 4918.079
176.3090, 4857.801
176.7911, 4805.058
177.2732, 4758.653
177.7553, 4717.416
178.2374, 4681.845
178.7195, 4650.011
179.2017, 4620.791
179.6838, 4593.595
180.1659, 4565.675
180.6480, 4533.504
181.1301, 4498.844
181.6122, 4465.065
182.0944, 4433.267
182.5765, 4402.818
183.0586, 4369.153
183.5407, 4332.905
184.0228, 4302.501
184.5049, 4289.825
184.9871, 4290.636
185.4692, 4290.183
185.9513, 4282.525
186.4334, 4271.026
186.9155, 4262.447
187.3976, 4256.723
187.8798, 4255.026
188.3619, 4257.415
188.8440, 4264.296
189.3261, 4278.183
189.8082, 4298.836
190.2903, 4327.163
190.7725, 4364.630
191.2546, 4410.684
191.7367, 4471.216
192.2188, 4558.246
192.7009, 4671.320
193.1830, 4788.144
193.6652, 4896.315
194.1473, 5000.326
194.6294, 5134.005
195.1115, 5309.170
195.5936, 5475.181
196.0757, 5581.394
196.5579, 5629.258
197.0400, 5589.136
197.5221, 5427.759
198.0042, 5153.621
198.4863, 4866.286
198.9684, 4556.311
199.4506, 4256.863
199.9327, 4022.987
200.4148, 3856.702
200.8969, 3723.165
201.3790, 3611.182
201.8611, 3521.585
202.3433, 3443.898
202.8254, 3379.166
203.3075, 3324.190
203.7896, 3273.997
204.2717, 3227.472
204.7538, 3189.364
205.2360, 3164.911
205.7181, 3156.281
206.2002, 3139.795
206.6823, 3112.164
207.1644, 3080.625
207.6465, 3059.568
208.1287, 3051.891
208.6108, 3045.232
209.0929, 3034.003
209.5750, 3017.147
210.0571, 3001.610
210.5392, 2987.900
211.0214, 2975.085
211.5035, 2960.358
211.9856, 2942.252
212.4677, 2926.816
212.9498, 2917.503
213.4319, 2916.059
213.9140, 2913.750
214.3962, 2910.244
214.8783, 2905.952
215.3604, 2901.411
215.8425, 2895.416
216.3246, 2891.632
216.8067, 2892.373
217.2889, 2899.455
217.7710, 2904.758
218.2531, 2908.627
218.7352, 2910.324
219.2173, 2906.825
219.6994, 2893.500
220.1816, 2883.725
220.6637, 2884.982
221.1458, 2903.448
221.6279, 2915.120
222.1100, 2918.543
222.5921, 2915.585
223.0743, 2910.027
223.5564, 2898.675
224.0385, 2890.569
224.5206, 2891.862
225.0027, 2909.864
225.4848, 2917.135
225.9670, 2908.524
226.4491, 2890.541
226.9312, 2880.472
227.4133, 2882.630
227.8954, 2885.817
228.3775, 2884.053
228.8597, 2872.659
229.3418, 2867.993
229.8239, 2873.272
230.3060, 2884.442
230.7881, 2889.954
231.2702, 2886.826
231.7524, 2882.432
232.2345, 2880.112
232.7166, 2880.793
233.1987, 2881.220
233.6808, 2881.682
234.1629, 2881.807
234.6451, 2880.042
235.1272, 2873.511
235.6093, 2869.534
236.0914, 2872.227
236.5735, 2886.768
237.0556, 2896.072
237.5378, 2897.409
238.0199, 2894.437
238.5020, 2896.794
238.9841, 2908.582
239.4662, 2919.785
239.9483, 2925.659
240.4305, 2922.467
240.9126, 2922.430
241.3947, 2925.262
241.8768, 2931.260
242.3589, 2942.005
242.8410, 2961.583
243.3232, 2979.489
243.8053, 2990.596
244.2874, 2991.064
244.7695, 2993.979
245.2516, 2999.950
245.7337, 3008.118
246.2159, 3016.440
246.6980, 3023.951
247.1801, 3033.224
247.6622, 3045.910
248.1443, 3064.281
248.6264, 3079.395
249.1086, 3088.247
249.5907, 3095.440
250.0728, 3111.315
250.5549, 3141.401
251.0370, 3170.795
251.5191, 3192.657
252.0013, 3202.188
252.4834, 3220.207
252.9655, 3251.227
253.4476, 3287.759
253.9297, 3315.507
254.4118, 3330.578
254.8940, 3343.439
255.3761, 3356.862
255.8582, 3369.934
256.3403, 3387.965
256.8224, 3413.083
257.3046, 3441.566
257.7867, 3466.301
258.2688, 3485.223
258.7509, 3505.329
259.2330, 3529.048
259.7151, 3557.254
260.1973, 3585.097
260.6794, 3611.799
261.1615, 3638.441
261.6436, 3665.873
262.1257, 3694.442
262.6078, 3723.452
263.0900, 3752.041
263.5721, 3780.165
264.0542, 3810.686
264.5363, 3844.742
265.0184, 3880.064
265.5005, 3915.021
265.9827, 3949.218
266.4648, 3983.030
266.9469, 4015.258
267.4290, 4045.573
267.9111, 4082.401
268.3932, 4129.188
268.8754, 4176.674
269.3575, 4211.985
269.8396, 4230.529
270.3217, 4255.374
270.8038, 4294.132
271.2859, 4346.209
271.7681, 4391.345
272.2502, 4425.782
272.7323, 4461.101
273.2144, 4509.979
273.6965, 4575.601
274.1786, 4638.252
274.6608, 4692.771
275.1429, 4740.673
275.6250, 4795.210
276.1071, 4857.580
276.5892, 4922.973
277.0714, 4984.210
277.5535, 5040.511
278.0356, 5102.912
278.5177, 5174.734
278.9998, 5253.931
279.4819, 5331.306
279.9641, 5406.823
280.4462, 5484.052
280.9283, 5567.672
281.4104, 5657.271
281.8925, 5744.646
282.3746, 5827.007
282.8568, 5907.505
283.3389, 5994.327
283.8210, 6087.444
284.3031, 6186.925
284.7852, 6296.231
285.2673, 6413.692
285.7495, 6526.654
286.2316, 6631.937
286.7137, 6733.931
287.1958, 6841.543
287.6779, 6954.760
288.1600, 7070.876
288.6422, 7189.738
289.1243, 7311.643
289.6064, 7430.166
290.0885, 7546.059
290.5706, 7659.208
291.0527, 7767.649
291.5349, 7871.845
292.0170, 7978.424
292.4991, 8092.295
292.9812, 8211.816
293.4633, 8327.405
293.9454, 8439.731
294.4276, 8546.982
294.9097, 8642.006
295.3918, 8727.332
295.8739, 8814.362
296.3560, 8908.914
296.8381, 9008.795
297.3203, 9107.847
297.8024, 9205.767
298.2845, 9300.097
298.7666, 9386.918
299.2487, 9466.979
299.7308, 9545.319
300.2130, 9624.813
300.6951, 9703.492
301.1772, 9779.371
301.6593, 9852.216
302.1414, 9921.513
302.6235, 9981.185
303.1057, 10036.90
303.5878, 10098.67
304.0699, 10174.57
304.5520, 10255.46
305.0341, 10333.00
305.5162, 10406.77
305.9984, 10476.28
306.4805, 10537.01
306.9626, 10593.71
307.4447, 10651.63
307.9268, 10712.67
308.4089, 10775.58
308.8911, 10843.43
309.3732, 10913.70
309.8553, 10976.31
310.3374, 11019.29
310.8195, 11054.45
311.3016, 11093.63
311.7838, 11141.80
312.2659, 11188.85
312.7480, 11229.20
313.2301, 11263.05
313.7122, 11291.69
314.1943, 11310.83
314.6765, 11328.59
315.1586, 11352.46
315.6407, 11386.46
316.1228, 11416.14
316.6049, 11433.28
317.0870, 11441.61
317.5692, 11447.06
318.0513, 11448.78
318.5334, 11450.41
319.0155, 11455.39
319.4976, 11465.20
319.9797, 11468.42
320.4619, 11453.40
320.9440, 11432.20
321.4261, 11418.55
321.9082, 11426.19
322.3903, 11431.37
322.8724, 11425.02
323.3546, 11406.67
323.8367, 11390.50
324.3188, 11380.96
324.8009, 11373.87
325.2830, 11366.23
325.7651, 11354.46
326.2473, 11346.08
326.7294, 11344.87
327.2115, 11349.74
327.6936, 11350.82
328.1757, 11339.36
328.6578, 11330.21
329.1400, 11330.80
329.6221, 11350.16
330.1042, 11366.93
330.5863, 11379.93
331.0684, 11390.11
331.5505, 11399.74
332.0327, 11402.96
332.5148, 11412.19
332.9969, 11433.75
333.4790, 11473.26
333.9611, 11506.89
334.4432, 11527.48
334.9254, 11546.31
335.4075, 11583.95
335.8896, 11650.72
336.3717, 11716.13
336.8538, 11769.10
337.3359, 11808.59
337.8180, 11852.19
338.3001, 11898.58
338.7823, 11951.22
339.2644, 12014.29
339.7465, 12090.01
340.2286, 12168.27
340.7107, 12246.06
341.1928, 12324.65
341.6750, 12404.11
342.1571, 12484.81
342.6392, 12568.55
343.1213, 12658.79
343.6034, 12754.71
344.0855, 12852.49
344.5677, 12950.52
345.0498, 13049.72
345.5319, 13147.96
346.0140, 13244.96
346.4961, 13348.56
346.9782, 13465.39
347.4604, 13594.43
347.9425, 13724.16
348.4246, 13854.22
348.9067, 13987.46
349.3888, 14128.41
349.8709, 14276.94
350.3531, 14431.71
350.8352, 14593.27
351.3173, 14759.84
351.7994, 14928.48
352.2815, 15097.81
352.7636, 15276.51
353.2458, 15475.37
353.7279, 15689.78
354.2100, 15909.80
354.6921, 16129.14
355.1742, 16352.77
355.6563, 16588.66
356.1385, 16835.59
356.6206, 17091.23
357.1027, 17346.79
357.5848, 17612.02
358.0669, 17902.83
358.5490, 18229.69
359.0312, 18571.54
359.5133, 18913.46
359.9954, 19260.41
360.4775, 19632.03
360.9596, 20044.73
361.4417, 20479.99
361.9239, 20926.31
362.4060, 21374.42
362.8881, 21854.35
363.3702, 22381.88
363.8523, 22947.21
364.3344, 23535.41
364.8166, 24129.21
365.2987, 24762.07
365.7808, 25433.36
366.2629, 26149.05
366.7450, 26905.05
367.2271, 27698.40
367.7093, 28533.17
368.1914, 29412.97
368.6735, 30340.02
369.1556, 31318.45
369.6377, 32321.90
370.1198, 33361.96
370.6020, 34480.39
371.0841, 35685.27
371.5662, 36966.55
372.0483, 38305.06
372.5304, 39704.26
373.0125, 41174.63
373.4947, 42703.70
373.9768, 44293.27
374.4589, 45968.36
374.9410, 47731.82
375.4231, 49582.95
375.9052, 51533.78
376.3874, 53593.17
376.8695, 55744.89
377.3516, 58018.30
377.8337, 60372.11
378.3158, 62821.01
378.7979, 65375.79
379.2801, 68019.34
379.7622, 70780.15
380.2443, 73629.52
380.7264, 76562.06
381.2085, 79562.70
381.6906, 82656.20
382.1728, 85865.17
382.6549, 89205.66
383.1370, 92583.64
383.6191, 96017.95
384.1012, 99479.99
384.5833, 102988.5
385.0655, 106548.2
385.5476, 110147.3
386.0297, 113896.7
386.5118, 117701.8
386.9939, 121483.3
387.4760, 125216.3
387.9582, 128896.8
388.4403, 132585.0
388.9224, 136259.0
389.4045, 139844.0
389.8866, 143385.7
390.3687, 146817.7
390.8509, 150053.6
391.3330, 153080.1
391.8151, 155928.6
392.2972, 158706.6
392.7793, 161239.7
393.2614, 163368.9
393.7436, 165001.8
394.2257, 166258.6
394.7078, 167229.0
395.1899, 167852.3
395.6720, 167969.4
396.1541, 167582.3
396.6363, 166639.1
397.1184, 165100.9
397.6005, 162927.4
398.0826, 160280.5
398.5647, 157138.0
399.0468, 153552.1
399.5290, 149585.5
400.0111, 145115.4
400.4932, 140395.0
400.9753, 135405.8
401.4574, 130126.4
401.9395, 124865.2
402.4217, 119556.0
402.9038, 114285.9
403.3859, 109102.0
403.8680, 103974.2
404.3501, 98976.69
404.8322, 94138.14
405.3144, 89443.08
405.7965, 84994.02
406.2786, 80774.50
406.7607, 76770.64
407.2428, 72977.37
407.7249, 69380.39
408.2071, 66013.63
408.6892, 62868.57
409.1713, 59919.02
409.6534, 57126.41
410.1355, 54503.36
410.6176, 52059.57
411.0998, 49793.02
411.5819, 47688.93
412.0640, 45714.22
412.5461, 43884.47
413.0282, 42161.10
413.5103, 40547.71
413.9925, 39040.31
414.4746, 37611.25
414.9567, 36251.23
415.4388, 34975.70
415.9209, 33786.15
416.4030, 32684.41
416.8852, 31640.74
417.3673, 30657.24
417.8494, 29731.13
418.3315, 28851.04
418.8136, 28024.14
419.2957, 27238.00
419.7779, 26497.98
420.2600, 25796.84
420.7421, 25139.64
421.2242, 24531.81
421.7063, 23956.02
422.1884, 23396.95
422.6706, 22860.27
423.1527, 22344.69
423.6348, 21855.79
424.1169, 21390.65
424.5990, 20944.70
425.0811, 20525.80
425.5633, 20114.87
426.0454, 19702.65
426.5275, 19302.59
427.0096, 18926.81
427.4917, 18586.00
427.9738, 18257.43
428.4560, 17938.42
428.9381, 17626.27
429.4202, 17322.48
429.9023, 17032.11
430.3844, 16747.13
430.8665, 16462.74
431.3487, 16175.69
431.8308, 15908.46
432.3129, 15664.52
432.7950, 15439.14
433.2771, 15227.47
433.7592, 15031.11
434.2414, 14849.81
434.7235, 14688.63
435.2056, 14543.26
435.6877, 14394.53
436.1698, 14242.14
436.6519, 14095.86
437.1341, 13969.50
437.6162, 13859.19
438.0983, 13750.99
438.5804, 13638.42
439.0625, 13530.70
439.5446, 13441.02
440.0268, 13366.17
440.5089, 13294.21
440.9910, 13218.33
441.4731, 13142.50
441.9552, 13069.58
442.4373, 13001.25
442.9195, 12932.91
443.4016, 12859.93
443.8837, 12786.56
444.3658, 12717.95
444.8479, 12659.22
445.3300, 12601.90
445.8122, 12541.35
446.2943, 12478.78
446.7764, 12420.71
447.2585, 12371.98
447.7406, 12324.96
448.2227, 12275.62
448.7049, 12223.17
449.1870, 12170.41
449.6691, 12116.02
450.1512, 12062.19
450.6333, 12013.51
451.1154, 11970.69
451.5976, 11930.50
452.0797, 11891.97
452.5618, 11855.13
453.0439, 11824.94
453.5260, 11804.09
454.0081, 11783.23
454.4903, 11753.11
454.9724, 11714.17
455.4545, 11679.44
455.9366, 11650.01
456.4187, 11627.16
456.9008, 11615.65
457.3830, 11614.36
457.8651, 11615.72
458.3472, 11613.04
458.8293, 11611.50
459.3114, 11622.24
459.7935, 11645.15
460.2757, 11671.36
460.7578, 11689.74
461.2399, 11707.97
461.7220, 11737.43
462.2041, 11786.02
462.6862, 11838.51
463.1684, 11881.64
463.6505, 11921.21
464.1326, 11969.76
464.6147, 12035.44
465.0968, 12109.02
465.5789, 12187.27
466.0611, 12271.17
466.5432, 12349.45
467.0253, 12407.28
467.5074, 12464.52
467.9895, 12537.52
468.4716, 12638.68
468.9538, 12742.60
469.4359, 12847.19
469.9180, 12952.62
470.4001, 13059.69
470.8822, 13165.34
471.3643, 13277.34
471.8465, 13400.33
472.3286, 13535.62
472.8107, 13668.85
473.2928, 13795.62
473.7749, 13927.65
474.2570, 14078.80
474.7392, 14249.03
475.2213, 14416.59
475.7034, 14573.83
476.1855, 14729.40
476.6676, 14900.05
477.1497, 15086.11
477.6319, 15282.11
478.1140, 15486.09
478.5961, 15699.09
479.0782, 15923.80
479.5603, 16160.56
480.0424, 16404.86
480.5246, 16649.96
481.0067, 16901.35
481.4888, 17167.31
481.9709, 17457.93
482.4530, 17757.70
482.9352, 18052.39
483.4173, 18348.55
483.8994, 18667.04
484.3815, 19020.40
484.8636, 19394.34
485.3457, 19779.70
485.8279, 20174.07
486.3100, 20593.65
486.7921, 21045.44
487.2742, 21519.46
487.7563, 22011.32
488.2384, 22514.82
488.7206, 23050.41
489.2027, 23616.06
489.6848, 24215.66
490.1669, 24856.65
490.6490, 25531.75
491.1311, 26254.67
491.6133, 27023.06
492.0954, 27839.97
492.5775, 28704.31
493.0596, 29610.59
493.5417, 30571.29
494.0238, 31588.16
494.5060, 32668.54
494.9881, 33834.24
495.4702, 35082.55
495.9523, 36414.59
496.4344, 37811.28
496.9165, 39275.03
497.3987, 40808.29
497.8808, 42421.60
498.3629, 44117.48
498.8450, 45895.71
499.3271, 47771.24
499.8092, 49728.38
500.2914, 51791.74
500.7735, 53926.77
501.2556, 56157.46
501.7377, 58438.39
502.2198, 60838.82
502.7019, 63418.52
503.1841, 66140.72
503.6662, 68920.36
504.1483, 71734.63
504.6304, 74676.84
505.1125, 77762.27
505.5946, 80998.55
506.0768, 84293.25
506.5589, 87631.40
507.0410, 91018.54
507.5231, 94473.98
508.0052, 97997.95
508.4873, 101543.6
508.9695, 105086.5
509.4516, 108574.7
509.9337, 111926.4
510.4158, 115136.1
510.8979, 118086.3
511.3800, 120810.5
511.8622, 123236.3
512.3443, 125250.4
512.8264, 126835.6
513.3085, 128001.1
513.7906, 128713.8
514.2728, 129018.8
514.7549, 128972.2
515.2370, 128582.8
515.7191, 127850.4
516.2012, 126707.6
516.6833, 125240.0
517.1655, 123560.8
517.6476, 121658.5
518.1297, 119602.5
518.6118, 117411.3
519.0939, 115086.6
519.5760, 112621.9
520.0582, 109978.6
520.5403, 107241.9
521.0224, 104472.2
521.5045, 101640.6
521.9866, 98810.17
522.4688, 95958.44
522.9509, 93129.37
523.4330, 90333.07
523.9151, 87567.61
524.3972, 84828.20
524.8793, 82116.91
525.3615, 79463.39
525.8436, 76901.83
526.3257, 74422.23
526.8078, 72044.26
527.2899, 69775.79
527.7720, 67586.72
528.2542, 65429.42
528.7363, 63308.89
529.2184, 61257.52
529.7005, 59336.60
530.1826, 57518.26
530.6647, 55769.60
531.1469, 54098.55
531.6290, 52495.21
532.1111, 50975.84
532.5932, 49532.02
533.0753, 48152.50
533.5574, 46832.87
534.0396, 45563.83
534.5217, 44327.05
535.0038, 43132.95
535.4859, 41978.83
535.9680, 40867.87
536.4501, 39802.82
536.9323, 38791.73
537.4144, 37835.75
537.8965, 36902.64
538.3786, 35992.47
538.8607, 35124.36
539.3428, 34265.20
539.8250, 33465.66
540.3071, 32683.52
540.7892, 31921.06
541.2713, 31172.48
541.7534, 30448.28
542.2355, 29748.74
542.7177, 29078.47
543.1998, 28433.99
543.6819, 27813.96
544.1640, 27221.96
544.6461, 26657.66
545.1282, 26113.02
545.6104, 25592.36
546.0925, 25090.47
546.5746, 24601.07
547.0567, 24117.35
547.5388, 23653.27
548.0209, 23220.61
548.5031, 22815.32
548.9852, 22418.97
549.4673, 22023.46
549.9494, 21642.92
550.4315, 21281.33
550.9136, 20938.68
551.3958, 20610.36
551.8779, 20300.15
552.3600, 19997.17
552.8421, 19688.84
553.3242, 19372.74
553.8063, 19074.44
554.2885, 18795.71
554.7706, 18532.89
555.2527, 18284.70
555.7348, 18049.60
556.2169, 17816.21
556.6990, 17580.08
557.1812, 17349.29
557.6633, 17139.78
558.1454, 16947.70
558.6275, 16757.92
559.1096, 16558.66
559.5917, 16361.94
560.0739, 16182.11
560.5560, 16019.47
561.0381, 15859.63
561.5202, 15698.90
562.0023, 15539.18
562.4844, 15382.15
562.9666, 15224.55
563.4487, 15074.07
563.9308, 14929.91
564.4129, 14793.16
564.8950, 14667.05
565.3771, 14557.54
565.8593, 14447.68
566.3414, 14333.20
566.8235, 14215.89
567.3056, 14097.52
567.7877, 13977.82
568.2698, 13862.98
568.7520, 13758.69
569.2341, 13662.39
569.7162, 13557.65
570.1983, 13444.20
570.6804, 13334.01
571.1625, 13242.93
571.6447, 13162.82
572.1268, 13080.85
572.6089, 12992.53
573.0910, 12903.48
573.5731, 12817.17
574.0552, 12732.28
574.5374, 12644.51
575.0195, 12549.58
575.5016, 12455.72
575.9837, 12363.72
576.4658, 12274.68
576.9479, 12194.03
577.4301, 12130.61
577.9122, 12066.34
578.3943, 11991.27
578.8764, 11902.47
579.3585, 11820.88
579.8406, 11746.26
580.3228, 11679.25
580.8049, 11625.79
581.2870, 11584.72
581.7691, 11530.34
582.2512, 11454.94
582.7333, 11372.89
583.2155, 11304.71
583.6975, 11248.20
584.1796, 11193.39
584.6617, 11138.33
585.1439, 11081.56
585.6260, 11017.47
586.1081, 10948.68
586.5902, 10888.60
587.0723, 10856.08
587.5544, 10824.52
