##NAMES=Ancylite-(Ce)
##RRUFFID=R060218
##IDEAL CHEMISTRY=CeSr(CO_3_)_2_(OH)&#183;H_2_O
##LOCALITY=Mont Saint-Hilaire, Rouville County, Quebec, Canada
##OWNER=RRUFF
##SOURCE=Royal Ontario Museum
##DESCRIPTION=Pale pink prismatic crystals
##STATUS=The identification of this mineral has been confirmed by X-ray diffraction and chemical analysis
##URL=rruff.info/R060218
##MEASURED CHEMISTRY=(Ce_0.40_(La,Pr)_0.23_Ca_0.18_Nd_0.10_Sr_0.09_)_Σ=1_CO_3_((OH)_0.67_(H_2_O)_0.27_F_0.06_)_Σ=1_
91.82715, 350.5522
92.30927, 346.5094
92.79138, 347.4284
93.27350, 350.3181
93.75562, 352.3584
94.23773, 353.3188
94.71985, 353.8361
95.20197, 353.8345
95.68408, 353.3345
96.16620, 352.5893
96.64832, 352.0732
97.13043, 351.9482
97.61255, 352.0309
98.09467, 351.8582
98.57678, 350.9166
99.05890, 350.3670
99.54102, 351.9419
100.0231, 354.6563
100.5052, 357.4826
100.9874, 359.8718
101.4695, 361.9216
101.9516, 364.2672
102.4337, 367.0313
102.9158, 369.9942
103.3979, 373.5001
103.8801, 377.1767
104.3622, 380.3817
104.8443, 382.6196
105.3264, 383.8412
105.8085, 384.3562
106.2906, 384.0705
106.7728, 383.2241
107.2549, 381.8987
107.7370, 380.1225
108.2191, 377.9226
108.7012, 375.1333
109.1833, 371.6771
109.6655, 368.7199
110.1476, 366.9778
110.6297, 365.6767
111.1118, 363.4571
111.5939, 359.6845
112.0760, 355.7530
112.5582, 353.0843
113.0403, 351.5812
113.5224, 350.6446
114.0045, 350.4013
114.4866, 350.7755
114.9688, 350.2012
115.4509, 347.2577
115.9330, 344.0417
116.4151, 341.7982
116.8972, 340.7151
117.3793, 340.1961
117.8615, 339.4160
118.3436, 338.0903
118.8257, 337.2336
119.3078, 337.4169
119.7899, 337.7772
120.2720, 337.5555
120.7542, 336.4568
121.2363, 334.8555
121.7184, 333.8156
122.2005, 333.6093
122.6826, 333.7771
123.1647, 334.7494
123.6468, 336.0050
124.1290, 336.7807
124.6111, 336.6065
125.0932, 335.6077
125.5753, 334.8569
126.0574, 334.8464
126.5395, 334.5472
127.0217, 333.0753
127.5038, 330.7130
127.9859, 328.9166
128.4680, 328.9413
128.9501, 330.5396
129.4323, 331.6728
129.9144, 332.2348
130.3965, 332.3274
130.8786, 331.7899
131.3607, 330.4129
131.8428, 329.3736
132.3250, 329.9693
132.8071, 331.5321
133.2892, 332.9405
133.7713, 333.5333
134.2534, 333.5725
134.7355, 333.9615
135.2177, 334.7491
135.6998, 335.8851
136.1819, 337.4724
136.6640, 339.3603
137.1461, 341.1794
137.6282, 342.6064
138.1104, 343.5959
138.5925, 344.6877
139.0746, 345.6149
139.5567, 346.8763
140.0388, 349.0068
140.5209, 351.8170
141.0031, 354.5533
141.4852, 356.2176
141.9673, 356.0548
142.4494, 356.8325
142.9315, 359.0342
143.4136, 361.6421
143.8958, 364.0218
144.3779, 366.0050
144.8600, 367.8643
145.3421, 370.0591
145.8242, 372.9694
146.3063, 375.4963
146.7885, 377.3431
147.2706, 378.8749
147.7527, 380.5627
148.2348, 382.5932
148.7169, 384.7601
149.1990, 386.6024
149.6812, 388.0013
150.1633, 389.5711
150.6454, 391.7650
151.1275, 394.3587
151.6096, 396.5080
152.0917, 397.5201
152.5739, 398.3420
153.0560, 400.4679
153.5381, 404.2437
154.0202, 408.1958
154.5023, 411.0381
154.9844, 412.7096
155.4665, 414.4329
155.9487, 417.1990
156.4308, 419.8848
156.9129, 421.3273
157.3950, 421.0659
157.8771, 420.3540
158.3592, 421.1864
158.8414, 424.2486
159.3235, 427.1638
159.8056, 429.4203
160.2877, 431.2618
160.7698, 432.7654
161.2519, 433.9232
161.7341, 434.9932
162.2162, 436.7530
162.6983, 439.9394
163.1804, 442.8777
163.6625, 445.2315
164.1446, 447.2477
164.6268, 449.1867
165.1089, 451.1992
165.5910, 453.2891
166.0731, 455.5449
166.5552, 458.0897
167.0373, 460.6683
167.5195, 463.0265
168.0016, 465.3885
168.4837, 468.2295
168.9658, 471.8960
169.4479, 476.3532
169.9300, 480.5639
170.4122, 484.9380
170.8943, 488.7551
171.3764, 491.4178
171.8585, 493.1132
172.3406, 494.6559
172.8227, 496.4476
173.3049, 498.6201
173.7870, 501.5433
174.2691, 506.2075
174.7512, 510.9523
175.2333, 514.2057
175.7154, 515.8808
176.1976, 517.4421
176.6797, 519.8373
177.1618, 522.9460
177.6439, 526.4634
178.1260, 530.6867
178.6081, 535.1615
179.0903, 539.2923
179.5724, 543.0472
180.0545, 546.4774
180.5366, 549.7020
181.0187, 552.6439
181.5008, 555.0377
181.9830, 556.3654
182.4651, 557.1043
182.9472, 558.8162
183.4293, 562.0092
183.9114, 565.4623
184.3935, 568.6574
184.8757, 571.6918
185.3578, 574.8329
185.8399, 578.5008
186.3220, 582.5313
186.8041, 585.0593
187.2862, 584.9178
187.7684, 584.3486
188.2505, 583.4650
188.7326, 582.6469
189.2147, 582.6035
189.6968, 584.1368
190.1789, 587.3711
190.6611, 588.7970
191.1432, 586.5914
191.6253, 584.3539
192.1074, 583.3257
192.5895, 583.2812
193.0716, 583.3204
193.5538, 582.6659
194.0359, 581.2321
194.5180, 579.7307
195.0001, 577.8693
195.4822, 576.2054
195.9643, 575.4088
196.4465, 575.2239
196.9286, 574.4855
197.4107, 571.8730
197.8928, 566.9756
198.3749, 564.1422
198.8570, 564.9504
199.3392, 566.4016
199.8213, 566.3759
200.3034, 564.7827
200.7855, 563.1291
201.2676, 562.7817
201.7497, 563.8641
202.2319, 565.0938
202.7140, 565.8239
203.1961, 567.0398
203.6782, 570.2518
204.1603, 575.7402
204.6424, 580.9383
205.1246, 582.9706
205.6067, 582.5489
206.0888, 582.9221
206.5709, 584.8935
207.0530, 587.9431
207.5351, 591.5261
208.0173, 595.7499
208.4994, 600.0439
208.9815, 603.8547
209.4636, 607.3978
209.9457, 611.1240
210.4278, 615.2018
210.9100, 619.5850
211.3921, 624.1900
211.8742, 628.9719
212.3563, 634.0422
212.8384, 639.7025
213.3205, 645.6511
213.8027, 651.3689
214.2848, 656.7067
214.7669, 661.5985
215.2490, 665.5502
215.7311, 667.6677
216.2132, 670.2604
216.6954, 674.3250
217.1775, 679.4464
217.6596, 684.9326
218.1417, 690.3943
218.6238, 695.8738
219.1059, 701.6559
219.5881, 708.7039
220.0702, 714.7491
220.5523, 718.7070
221.0344, 721.3254
221.5165, 723.8449
221.9986, 727.0902
222.4808, 730.9465
222.9629, 734.3192
223.4450, 736.5794
223.9271, 738.9631
224.4092, 741.6258
224.8913, 744.6093
225.3735, 748.0450
225.8556, 752.1418
226.3377, 756.7371
226.8198, 760.2160
227.3019, 761.2237
227.7840, 762.4674
228.2662, 764.4004
228.7483, 766.9750
229.2304, 770.1010
229.7125, 773.8022
230.1946, 777.9719
230.6767, 781.3533
231.1589, 783.4415
231.6410, 785.3635
232.1231, 787.1501
232.6052, 788.9803
233.0873, 791.2672
233.5694, 794.3577
234.0516, 798.0309
234.5337, 800.6000
235.0158, 801.6207
235.4979, 802.3054
235.9800, 802.7220
236.4621, 803.0637
236.9443, 803.7897
237.4264, 805.2525
237.9085, 807.1914
238.3906, 808.3846
238.8727, 808.7112
239.3548, 808.6210
239.8370, 807.9619
240.3191, 806.9717
240.8012, 806.3739
241.2833, 806.7530
241.7654, 807.4766
242.2475, 806.6061
242.7297, 803.0471
243.2118, 799.9315
243.6939, 799.1022
244.1760, 799.8761
244.6581, 800.2736
245.1402, 799.5900
245.6224, 797.8969
246.1045, 795.3458
246.5866, 791.6689
247.0687, 788.0032
247.5508, 784.8879
248.0329, 782.2500
248.5151, 779.8575
248.9972, 777.8324
249.4793, 775.7448
249.9614, 772.8735
250.4435, 769.0587
250.9256, 765.4730
251.4078, 763.1474
251.8899, 761.7171
252.3720, 759.3859
252.8541, 755.1904
253.3362, 750.5897
253.8183, 747.1841
254.3005, 744.9500
254.7826, 743.0329
255.2647, 740.9134
255.7468, 738.6682
256.2289, 736.6932
256.7110, 735.1058
257.1931, 733.7721
257.6753, 732.7171
258.1574, 731.8698
258.6395, 730.7639
259.1216, 728.8266
259.6037, 726.2731
260.0858, 724.2834
260.5680, 723.0955
261.0501, 722.3763
261.5322, 722.0588
262.0143, 722.0016
262.4964, 721.7821
262.9785, 720.8447
263.4607, 719.4050
263.9428, 718.7917
264.4249, 719.5692
264.9070, 720.4055
265.3891, 720.3277
265.8712, 719.8282
266.3534, 719.9455
266.8355, 721.5790
267.3176, 724.2813
267.7997, 726.0791
268.2818, 726.2993
268.7639, 726.6093
269.2461, 727.9051
269.7282, 729.6116
270.2103, 730.7637
270.6924, 730.6342
271.1745, 729.8531
271.6566, 730.6146
272.1388, 733.9922
272.6209, 737.1399
273.1030, 739.4186
273.5851, 741.0553
274.0672, 742.1352
274.5493, 742.6340
275.0315, 742.9314
275.5136, 743.9648
275.9957, 745.9644
276.4778, 748.3409
276.9599, 750.9166
277.4420, 753.7685
277.9242, 757.1249
278.4063, 761.0718
278.8884, 765.1419
279.3705, 768.4898
279.8526, 770.8654
280.3347, 772.9742
280.8169, 774.4391
281.2990, 775.9996
281.7811, 778.3371
282.2632, 781.5634
282.7453, 785.0925
283.2274, 788.0139
283.7096, 789.9529
284.1917, 792.2236
284.6738, 795.2170
285.1559, 798.2278
285.6380, 800.6984
286.1201, 802.6443
286.6023, 804.6091
287.0844, 807.2048
287.5665, 810.4633
288.0486, 814.1934
288.5307, 818.6896
289.0128, 823.3225
289.4950, 828.1336
289.9771, 832.9015
290.4592, 837.0123
290.9413, 839.7036
291.4234, 840.7507
291.9055, 843.2847
292.3877, 849.0159
292.8698, 854.5131
293.3519, 858.3407
293.8340, 861.0521
294.3161, 863.9984
294.7982, 868.1454
295.2804, 873.4181
295.7625, 878.6099
296.2446, 883.6415
296.7267, 888.6968
297.2088, 893.9221
297.6909, 899.1653
298.1731, 904.1813
298.6552, 908.8204
299.1373, 913.1081
299.6194, 917.0963
300.1015, 920.1272
300.5836, 923.6427
301.0658, 927.6703
301.5479, 932.2350
302.0300, 937.6370
302.5121, 943.9415
302.9942, 950.4959
303.4763, 956.0201
303.9585, 959.8049
304.4406, 963.4543
304.9227, 966.2592
305.4048, 969.3779
305.8869, 974.1749
306.3690, 980.7659
306.8512, 987.7216
307.3333, 992.9969
307.8154, 995.7552
308.2975, 998.9550
308.7796, 1002.896
309.2617, 1006.978
309.7439, 1011.025
310.2260, 1014.912
310.7081, 1018.386
311.1902, 1021.156
311.6723, 1023.182
312.1544, 1024.900
312.6366, 1025.093
313.1187, 1026.202
313.6008, 1030.056
314.0829, 1035.709
314.5650, 1040.734
315.0471, 1043.240
315.5293, 1043.491
316.0114, 1045.011
316.4935, 1049.794
316.9756, 1053.632
317.4577, 1055.429
317.9398, 1055.764
318.4220, 1055.396
318.9041, 1054.680
319.3862, 1053.825
319.8683, 1053.528
320.3504, 1055.388
320.8326, 1055.713
321.3147, 1053.073
321.7968, 1049.458
322.2789, 1046.833
322.7610, 1045.844
323.2431, 1045.665
323.7253, 1044.952
324.2074, 1043.666
324.6895, 1041.818
325.1716, 1039.167
325.6537, 1036.211
326.1358, 1033.457
326.6180, 1030.856
327.1001, 1027.738
327.5822, 1023.157
328.0643, 1016.505
328.5464, 1011.542
329.0285, 1009.786
329.5107, 1008.022
329.9928, 1004.963
330.4749, 1000.742
330.9570, 996.0900
331.4391, 991.5297
331.9212, 987.0424
332.4034, 982.3430
332.8855, 977.2870
333.3676, 972.1201
333.8497, 966.7655
334.3318, 961.3742
334.8139, 956.1401
335.2961, 951.1945
335.7782, 946.4630
336.2603, 941.9083
336.7424, 938.0448
337.2245, 933.5196
337.7066, 927.4164
338.1888, 921.1093
338.6709, 916.0643
339.1530, 912.5645
339.6351, 909.5273
340.1172, 905.2328
340.5993, 899.0054
341.0815, 893.2559
341.5636, 887.9449
342.0457, 883.0949
342.5278, 879.1385
343.0099, 875.7956
343.4920, 872.0657
343.9742, 866.7767
344.4563, 859.7672
344.9384, 854.2008
345.4205, 851.4469
345.9026, 848.9021
346.3847, 845.9385
346.8669, 842.6986
347.3490, 839.5883
347.8311, 836.9161
348.3132, 834.4687
348.7953, 831.3496
349.2774, 826.4960
349.7596, 822.6289
350.2417, 820.8953
350.7238, 819.9397
351.2059, 818.4745
351.6880, 816.0505
352.1701, 813.0629
352.6523, 810.1441
353.1344, 807.3264
353.6165, 804.4772
354.0986, 801.1053
354.5807, 798.0576
355.0628, 796.0623
355.5450, 795.0447
356.0271, 794.1899
356.5092, 792.6667
356.9913, 790.4553
357.4734, 788.4407
357.9555, 786.4850
358.4377, 784.9417
358.9198, 784.3279
359.4019, 784.2036
359.8840, 783.6047
360.3661, 781.6678
360.8482, 779.0938
361.3304, 778.1778
361.8125, 779.7784
362.2946, 781.1676
362.7767, 781.1824
363.2588, 780.6227
363.7409, 780.3974
364.2231, 780.8513
364.7052, 781.2238
365.1873, 779.9662
365.6694, 776.7025
366.1515, 775.3535
366.6336, 779.0995
367.1158, 783.2062
367.5979, 784.0859
368.0800, 781.7066
368.5621, 778.5015
369.0442, 775.9286
369.5263, 773.9370
370.0085, 772.3342
370.4906, 771.1404
370.9727, 770.2944
371.4548, 769.9886
371.9369, 769.9763
372.4190, 769.6749
372.9012, 768.6314
373.3833, 767.3355
373.8654, 766.7507
374.3475, 767.0354
374.8296, 766.6698
375.3117, 764.3174
375.7939, 761.1395
376.2760, 758.9011
376.7581, 758.0110
377.2402, 757.3983
377.7223, 756.3080
378.2044, 754.8408
378.6866, 753.5977
379.1687, 753.1224
379.6508, 752.2502
380.1329, 748.7775
380.6150, 742.7784
381.0971, 738.2643
381.5793, 737.6693
382.0614, 738.8129
382.5435, 738.7656
383.0256, 737.1818
383.5077, 734.7350
383.9898, 731.4345
384.4720, 727.5849
384.9541, 725.0084
385.4362, 725.0897
385.9183, 725.2655
386.4004, 723.8057
386.8825, 721.1008
387.3647, 718.5203
387.8468, 716.7381
388.3289, 715.4444
388.8110, 713.8264
389.2931, 711.6201
389.7752, 709.7011
390.2574, 708.7623
390.7395, 707.9813
391.2216, 706.2809
391.7037, 703.4473
392.1858, 700.1237
392.6679, 696.9822
393.1501, 693.9805
393.6322, 691.5526
394.1143, 689.9385
394.5964, 688.6112
395.0785, 687.2199
395.5606, 685.8600
396.0428, 685.0695
396.5249, 685.3392
397.0070, 686.2360
397.4891, 685.3732
397.9712, 680.5961
398.4533, 676.6347
398.9355, 674.3661
399.4176, 672.9826
399.8997, 671.6242
400.3818, 670.0147
400.8639, 668.3591
401.3460, 667.0175
401.8282, 666.2687
402.3103, 665.0411
402.7924, 662.8381
403.2745, 660.6591
403.7566, 659.0705
404.2387, 657.9647
404.7209, 656.8691
405.2030, 655.4112
405.6851, 653.6563
406.1672, 652.1974
406.6493, 651.4155
407.1314, 650.3890
407.6136, 648.8393
408.0957, 646.9954
408.5778, 644.9753
409.0599, 642.8183
409.5420, 640.8821
410.0241, 639.8445
410.5063, 639.9401
410.9884, 639.7062
411.4705, 639.0773
411.9526, 637.9034
412.4347, 635.6759
412.9168, 632.6731
413.3990, 630.0463
413.8811, 628.6973
414.3632, 628.3766
414.8453, 628.2957
415.3274, 628.7192
415.8095, 628.7242
416.2917, 627.7149
416.7738, 626.0198
417.2559, 623.7281
417.7380, 620.1962
418.2201, 617.4925
418.7022, 618.8442
419.1844, 623.6514
419.6665, 625.8422
420.1486, 622.4406
420.6307, 617.2419
421.1128, 615.3220
421.5949, 616.6191
422.0771, 617.4052
422.5592, 615.8567
423.0413, 613.2388
423.5234, 611.1318
424.0055, 609.7047
424.4876, 608.7889
424.9698, 608.4291
425.4519, 608.5216
425.9340, 608.3212
426.4161, 607.4906
426.8982, 606.7316
427.3803, 606.5209
427.8625, 606.5973
428.3446, 606.4322
428.8267, 605.8298
429.3088, 604.8899
429.7909, 603.7303
430.2730, 602.0450
430.7552, 600.8934
431.2373, 600.2369
431.7194, 600.1598
432.2015, 601.1869
432.6836, 603.0116
433.1657, 604.4207
433.6479, 604.3638
434.1300, 602.9835
434.6121, 602.1688
435.0942, 602.9114
435.5763, 603.0692
436.0584, 601.7216
436.5406, 599.8580
437.0227, 598.6033
437.5048, 598.3486
437.9869, 598.6903
438.4690, 599.0120
438.9511, 599.2341
439.4333, 599.6966
439.9154, 600.9887
440.3975, 602.0007
440.8796, 601.9780
441.3617, 601.2224
441.8438, 600.6229
442.3260, 600.8471
442.8081, 601.5986
443.2902, 601.8605
443.7723, 601.4703
444.2544, 600.9995
444.7365, 600.2003
445.2187, 599.6484
445.7008, 600.1082
446.1829, 601.7841
446.6650, 603.5263
447.1471, 604.1808
447.6292, 603.9589
448.1114, 604.0896
448.5935, 604.8903
449.0756, 605.7849
449.5577, 606.1934
450.0398, 606.2814
450.5219, 606.5567
451.0041, 607.3778
451.4862, 608.2783
451.9683, 608.6881
452.4504, 608.6976
452.9325, 608.9596
453.4146, 609.8446
453.8968, 611.0553
454.3789, 611.8773
454.8610, 612.0875
455.3431, 612.6708
455.8252, 614.6605
456.3073, 616.6954
456.7895, 616.9485
457.2716, 615.3338
457.7537, 613.6251
458.2358, 613.3992
458.7179, 614.6596
459.2000, 615.5362
459.6822, 615.5648
460.1643, 615.8127
460.6464, 616.6683
461.1285, 617.8931
461.6106, 619.2155
462.0927, 620.5189
462.5748, 621.6850
463.0569, 622.3690
463.5391, 621.9456
464.0212, 622.7543
464.5033, 626.2063
464.9854, 629.4857
465.4675, 631.2143
465.9496, 631.6568
466.4318, 631.7177
466.9139, 631.8612
467.3960, 632.1824
467.8781, 633.0006
468.3602, 634.4222
468.8423, 636.0817
469.3245, 638.2858
469.8066, 640.4436
470.2887, 642.0758
470.7708, 643.1151
471.2529, 643.8034
471.7350, 644.4437
472.2172, 644.9050
472.6993, 644.3001
473.1814, 641.9015
473.6635, 640.3493
474.1456, 642.3817
474.6277, 646.6072
475.1099, 650.0198
475.5920, 652.0881
476.0741, 653.2874
476.5562, 653.0446
477.0383, 652.1061
477.5204, 653.1467
478.0026, 657.4368
478.4847, 662.3946
478.9668, 664.1648
479.4489, 661.9420
479.9310, 660.4037
480.4131, 659.8550
480.8953, 660.0110
481.3774, 660.8225
481.8595, 662.1940
482.3416, 664.0692
482.8237, 666.5238
483.3058, 669.1515
483.7880, 670.5146
484.2701, 668.7440
484.7522, 668.4102
485.2343, 670.4437
485.7164, 673.3378
486.1985, 676.1812
486.6807, 678.7382
487.1628, 680.9923
487.6449, 682.9763
488.1270, 684.6746
488.6091, 685.8496
489.0912, 686.0129
489.5734, 686.4343
490.0555, 688.0169
490.5376, 689.7902
491.0197, 690.3292
491.5018, 689.1552
491.9839, 688.1713
492.4661, 689.7252
492.9482, 693.5005
493.4303, 696.6436
493.9124, 698.7021
494.3945, 700.1950
494.8766, 701.1652
495.3588, 701.8655
495.8409, 703.0166
496.3230, 705.3209
496.8051, 707.6429
497.2872, 708.9280
497.7693, 709.3986
498.2515, 709.8474
498.7336, 710.5410
499.2157, 711.4167
499.6978, 712.4620
500.1799, 713.8489
500.6620, 714.7357
501.1442, 714.0082
501.6263, 713.6530
502.1084, 715.4302
502.5905, 718.8842
503.0726, 722.4078
503.5547, 725.0733
504.0369, 726.9333
504.5190, 728.1276
505.0011, 727.8922
505.4832, 728.2107
505.9653, 729.6525
506.4474, 731.2787
506.9296, 732.3316
507.4117, 732.8312
507.8938, 733.3317
508.3759, 734.1897
508.8580, 735.4423
509.3401, 737.4037
509.8223, 740.5286
510.3044, 743.3582
510.7865, 745.3608
511.2686, 746.8153
511.7507, 747.7964
512.2328, 748.2759
512.7150, 748.8939
513.1971, 750.3459
513.6792, 752.3134
514.1613, 753.7158
514.6434, 754.2546
515.1255, 755.1367
515.6077, 757.7335
516.0898, 761.4608
516.5719, 763.7340
517.0540, 763.0266
517.5361, 762.5980
518.0182, 764.1002
518.5004, 766.8065
518.9825, 769.7289
519.4646, 772.5861
519.9467, 774.9918
520.4288, 776.4354
520.9109, 776.7676
521.3931, 777.1133
521.8752, 776.9581
522.3573, 777.3701
522.8394, 778.8620
523.3215, 781.1129
523.8036, 783.8381
524.2858, 786.8824
524.7679, 789.7639
525.2500, 791.5067
525.7321, 791.8094
526.2142, 792.4800
526.6964, 793.9736
527.1785, 795.4633
527.6606, 796.1755
528.1427, 796.6125
528.6248, 798.0704
529.1069, 801.7216
529.5891, 805.5442
530.0712, 806.2353
530.5533, 804.0279
531.0354, 802.9972
531.5175, 804.5370
531.9996, 807.2266
532.4818, 809.6213
532.9639, 811.7325
533.4460, 813.5322
533.9281, 815.4216
534.4102, 816.6600
534.8923, 815.8866
535.3745, 813.8584
535.8566, 813.1531
536.3387, 815.0683
536.8208, 818.4804
537.3029, 821.1057
537.7850, 822.7928
538.2672, 823.9639
538.7493, 823.9301
539.2314, 824.0452
539.7135, 825.2092
540.1956, 827.1920
540.6777, 829.3220
541.1599, 831.2561
541.6420, 832.8705
542.1241, 833.7916
542.6062, 833.8538
543.0883, 833.7645
543.5704, 833.8200
544.0526, 833.5971
544.5347, 832.3079
545.0168, 830.3084
545.4989, 829.2980
545.9810, 831.1826
546.4631, 834.0039
546.9453, 834.0342
547.4274, 831.3826
547.9095, 830.2667
548.3916, 832.9054
548.8737, 837.3327
549.3558, 840.1058
549.8380, 841.0706
550.3201, 841.9813
550.8022, 843.3378
551.2843, 844.6066
551.7664, 845.5275
552.2485, 845.9869
552.7307, 845.4775
553.2128, 843.5447
553.6949, 841.1616
554.1770, 841.2699
554.6591, 846.8417
555.1412, 849.5304
555.6234, 847.2227
556.1055, 844.0723
556.5876, 842.1415
557.0697, 841.5847
557.5518, 842.0452
558.0339, 843.6105
558.5161, 845.5480
558.9982, 845.9241
559.4803, 844.4037
559.9624, 843.3546
560.4445, 843.5040
560.9266, 844.3026
561.4088, 845.5117
561.8909, 847.0363
562.3730, 847.8542
562.8551, 846.8530
563.3372, 845.4824
563.8193, 845.4476
564.3015, 846.5302
564.7836, 847.3514
565.2657, 847.2350
565.7478, 846.7533
566.2299, 846.9595
566.7120, 848.1121
567.1942, 849.3948
567.6763, 851.7364
568.1584, 853.3307
568.6405, 852.5431
569.1226, 850.2052
569.6047, 848.2579
570.0869, 847.7244
570.5690, 848.0599
571.0511, 848.1701
571.5332, 847.9632
572.0153, 847.8907
572.4974, 848.2225
572.9796, 848.4713
573.4617, 848.2684
573.9438, 847.7842
574.4259, 847.5211
574.9080, 847.9540
575.3901, 848.2972
575.8723, 847.3373
576.3544, 845.3607
576.8365, 843.9719
577.3186, 843.6497
577.8007, 843.9437
578.2828, 844.5392
578.7650, 845.4590
579.2471, 845.8239
579.7292, 845.3549
580.2113, 844.5840
580.6934, 843.4799
581.1755, 842.3207
581.6577, 841.5706
582.1398, 841.3740
582.6219, 841.3897
583.1040, 841.1650
583.5861, 840.6652
584.0682, 840.2015
584.5504, 839.7196
585.0325, 839.3499
585.5146, 839.2126
585.9967, 839.1791
586.4788, 839.1575
