##NAMES=Ancylite-(Ce)
##RRUFFID=R060218
##IDEAL CHEMISTRY=CeSr(CO_3_)_2_(OH)&#183;H_2_O
##LOCALITY=Mont Saint-Hilaire, Rouville County, Quebec, Canada
##OWNER=RRUFF
##SOURCE=Royal Ontario Museum
##DESCRIPTION=Pale pink prismatic crystals
##STATUS=The identification of this mineral has been confirmed by X-ray diffraction and chemical analysis
##URL=rruff.info/R060218
##MEASURED CHEMISTRY=(Ce_0.40_(La,Pr)_0.23_Ca_0.18_Nd_0.10_Sr_0.09_)_Σ=1_CO_3_((OH)_0.67_(H_2_O)_0.27_F_0.06_)_Σ=1_
92.07813, 12.72554
92.56024, 12.59499
93.04236, 12.66992
93.52448, 12.90660
94.00659, 13.14335
94.48871, 13.29884
94.97083, 13.38559
95.45294, 13.44882
95.93506, 13.50439
96.41718, 13.51529
96.89929, 13.37046
97.38141, 13.06861
97.86353, 12.79090
98.34564, 12.65386
98.82776, 12.65769
99.30988, 12.77941
99.79199, 13.07703
100.2741, 13.46970
100.7562, 13.61349
101.2383, 13.43052
101.7205, 13.21556
102.2026, 13.30623
102.6847, 13.84211
103.1668, 14.12376
103.6489, 13.89187
104.1310, 13.12916
104.6132, 12.75587
105.0953, 12.93989
105.5774, 13.35888
106.0595, 13.61631
106.5416, 13.63555
107.0237, 13.61293
107.5059, 13.58711
107.9880, 13.54091
108.4701, 13.54667
108.9522, 13.63229
109.4343, 13.76436
109.9164, 13.88439
110.3986, 13.94897
110.8807, 14.03647
111.3628, 14.19024
111.8449, 14.57240
112.3270, 14.75492
112.8091, 14.41380
113.2913, 13.81291
113.7734, 13.68691
114.2555, 14.59758
114.7376, 15.72286
115.2197, 16.61598
115.7018, 16.96354
116.1840, 17.34760
116.6661, 17.91462
117.1482, 18.64381
117.6303, 19.42371
118.1124, 20.09344
118.5945, 20.86046
119.0767, 21.89409
119.5588, 23.47477
120.0409, 25.15622
120.5230, 26.59122
121.0051, 27.79819
121.4872, 29.31379
121.9694, 31.43694
122.4515, 34.05840
122.9336, 37.04004
123.4157, 40.22111
123.8978, 43.76258
124.3799, 47.76448
124.8621, 52.22477
125.3442, 57.22274
125.8263, 63.17057
126.3084, 69.75362
126.7905, 76.22949
127.2726, 82.22704
127.7548, 87.83119
128.2369, 93.17761
128.7190, 98.31545
129.2011, 103.0409
129.6832, 106.9791
130.1653, 110.1810
130.6474, 113.1717
131.1296, 116.2323
131.6117, 119.3050
132.0938, 122.2618
132.5759, 125.0373
133.0580, 127.7890
133.5401, 130.5722
134.0223, 133.3814
134.5044, 136.7792
134.9865, 141.2533
135.4686, 146.8321
135.9507, 152.7793
136.4328, 159.1624
136.9150, 165.8664
137.3971, 172.3302
137.8792, 178.5224
138.3613, 184.7298
138.8434, 191.2890
139.3255, 198.2590
139.8077, 205.0124
140.2898, 211.4981
140.7719, 217.6752
141.2540, 223.7562
141.7361, 229.7647
142.2182, 235.5282
142.7004, 240.8182
143.1825, 245.3916
143.6646, 249.9937
144.1467, 254.6874
144.6288, 259.5421
145.1109, 264.3848
145.5931, 269.3626
146.0752, 274.2447
146.5573, 278.7958
147.0394, 282.5187
147.5215, 286.5896
148.0036, 291.2059
148.4858, 296.4998
148.9679, 302.0873
149.4500, 307.8704
149.9321, 313.9957
150.4142, 320.5579
150.8963, 328.2706
151.3785, 335.8695
151.8606, 342.7549
152.3427, 348.3041
152.8248, 354.8687
153.3069, 363.1641
153.7890, 372.4605
154.2712, 380.3119
154.7533, 385.0653
155.2354, 389.1475
155.7175, 392.8003
156.1996, 396.0478
156.6817, 398.7348
157.1639, 400.6255
157.6460, 401.9649
158.1281, 403.2265
158.6102, 404.3973
159.0923, 405.5995
159.5744, 406.9526
160.0566, 408.8558
160.5387, 410.2895
161.0208, 410.5083
161.5029, 409.9645
161.9850, 409.9709
162.4671, 411.5943
162.9493, 413.5604
163.4314, 414.9674
163.9135, 414.8994
164.3956, 415.1564
164.8777, 416.6816
165.3598, 419.2365
165.8420, 421.8544
166.3241, 423.6214
166.8062, 425.4372
167.2883, 428.1146
167.7704, 432.2856
168.2525, 436.9370
168.7346, 441.7872
169.2168, 446.7505
169.6989, 451.2935
170.1810, 454.4904
170.6631, 457.2667
171.1452, 460.7543
171.6273, 465.7921
172.1095, 471.2647
172.5916, 476.2823
173.0737, 480.8880
173.5558, 485.5490
174.0379, 490.6272
174.5201, 495.9640
175.0022, 501.3946
175.4843, 506.8685
175.9664, 512.4390
176.4485, 517.8914
176.9306, 523.2740
177.4128, 528.9921
177.8949, 535.8314
178.3770, 543.2505
178.8591, 550.2084
179.3412, 555.8807
179.8233, 560.9694
180.3055, 566.5844
180.7876, 572.7849
181.2697, 579.2604
181.7518, 586.0474
182.2339, 592.9572
182.7160, 599.6132
183.1982, 605.7686
183.6803, 611.5289
184.1624, 616.9483
184.6445, 621.9545
185.1266, 626.9932
185.6087, 632.8167
186.0909, 639.2802
186.5730, 645.2789
187.0551, 650.2244
187.5372, 654.3331
188.0193, 658.6380
188.5014, 663.2627
188.9836, 667.5133
189.4657, 670.6706
189.9478, 672.7307
190.4299, 674.0133
190.9120, 674.8455
191.3941, 675.0797
191.8763, 673.7712
192.3584, 670.7393
192.8405, 666.6488
193.3226, 662.5963
193.8047, 658.6067
194.2868, 653.2981
194.7690, 645.4250
195.2511, 635.2305
195.7332, 625.6198
196.2153, 616.8390
196.6974, 608.2623
197.1795, 599.2557
197.6617, 589.7945
198.1438, 579.8438
198.6259, 568.9451
199.1080, 557.1481
199.5901, 546.5260
200.0722, 537.2347
200.5544, 529.0294
201.0365, 521.7196
201.5186, 515.3206
202.0007, 509.4038
202.4828, 503.6956
202.9649, 498.1521
203.4471, 493.3531
203.9292, 489.2866
204.4113, 485.9091
204.8934, 483.0712
205.3755, 480.7583
205.8576, 479.1098
206.3398, 478.1686
206.8219, 477.9165
207.3040, 478.5684
207.7861, 480.3688
208.2682, 482.8243
208.7503, 484.8688
209.2325, 486.3290
209.7146, 487.8803
210.1967, 489.7022
210.6788, 491.6725
211.1609, 494.5674
211.6430, 498.5703
212.1252, 503.3941
212.6073, 508.4146
213.0894, 513.7111
213.5715, 518.9543
214.0536, 523.8489
214.5357, 528.1190
215.0179, 533.1815
215.5000, 539.2642
215.9821, 546.0282
216.4642, 552.7982
216.9463, 559.5959
217.4284, 566.2264
217.9105, 572.6885
218.3927, 578.9481
218.8748, 584.9188
219.3569, 590.5357
219.8390, 595.8851
220.3211, 601.3043
220.8032, 606.9302
221.2854, 612.4055
221.7675, 617.7395
222.2496, 622.9919
222.7317, 627.7471
223.2138, 631.9651
223.6959, 635.6926
224.1781, 639.1882
224.6602, 642.6347
225.1423, 645.4774
225.6244, 647.2953
226.1065, 647.6293
226.5886, 648.3937
227.0708, 649.7422
227.5529, 651.4486
228.0350, 653.0300
228.5171, 654.3338
228.9992, 655.8014
229.4813, 657.6823
229.9635, 660.2377
230.4456, 662.3807
230.9277, 663.9996
231.4098, 665.2514
231.8919, 666.4150
232.3740, 667.3434
232.8562, 668.4244
233.3383, 669.8939
233.8204, 672.0455
234.3025, 673.5997
234.7846, 674.2299
235.2667, 674.4508
235.7489, 675.2023
236.2310, 676.7744
236.7131, 678.4085
237.1952, 679.8795
237.6773, 681.1248
238.1594, 682.4121
238.6416, 683.9899
239.1237, 685.4689
239.6058, 686.1849
240.0879, 685.8362
240.5700, 685.2335
241.0521, 684.7111
241.5343, 684.4726
242.0164, 683.3629
242.4985, 680.9055
242.9806, 677.8882
243.4627, 675.6043
243.9448, 675.0253
244.4270, 673.4823
244.9091, 670.0575
245.3912, 664.3605
245.8733, 658.7581
246.3554, 653.5613
246.8375, 648.1542
247.3197, 641.7043
247.8018, 633.9052
248.2839, 625.6043
248.7660, 616.9533
249.2481, 607.8894
249.7302, 598.7929
250.2124, 589.7463
250.6945, 580.5444
251.1766, 570.7772
251.6587, 560.1855
252.1408, 549.5750
252.6229, 539.2391
253.1051, 529.1486
253.5872, 518.4832
254.0693, 506.8245
254.5514, 494.8731
255.0335, 483.2621
255.5156, 472.0935
255.9978, 461.3014
256.4799, 450.9655
256.9620, 441.0343
257.4441, 430.9969
257.9262, 420.7458
258.4083, 410.5273
258.8904, 400.7134
259.3726, 391.2840
259.8547, 382.1161
260.3368, 373.2866
260.8189, 364.7153
261.3010, 356.3998
261.7831, 348.4419
262.2653, 340.6005
262.7474, 332.7120
263.2295, 324.4449
263.7116, 316.9238
264.1937, 310.3500
264.6758, 304.6494
265.1580, 299.0213
265.6401, 293.4101
266.1222, 288.0524
266.6043, 283.2243
267.0864, 279.0924
267.5685, 274.6973
268.0507, 269.6849
268.5328, 264.3720
269.0149, 259.9774
269.4970, 256.7340
269.9791, 253.7445
270.4612, 250.3730
270.9434, 246.5176
271.4255, 242.8609
271.9076, 239.4316
272.3897, 236.1956
272.8718, 232.9590
273.3539, 229.6090
273.8361, 226.6123
274.3182, 224.3749
274.8003, 223.0470
275.2824, 221.3012
275.7645, 218.9808
276.2466, 216.3658
276.7288, 213.9750
277.2109, 211.8255
277.6930, 209.8347
278.1751, 208.0120
278.6572, 206.3508
279.1393, 204.8831
279.6215, 203.7032
280.1036, 202.5439
280.5857, 200.9498
281.0678, 198.8920
281.5499, 196.7653
282.0320, 194.6616
282.5142, 192.5970
282.9963, 190.9555
283.4784, 189.7885
283.9605, 188.8875
284.4426, 188.0971
284.9247, 187.4231
285.4069, 186.5316
285.8890, 185.0577
286.3711, 183.2559
286.8532, 182.5202
287.3353, 183.0118
287.8174, 183.6708
288.2996, 183.2769
288.7817, 181.9237
289.2638, 180.7004
289.7459, 179.9706
290.2280, 179.5342
290.7101, 178.7671
291.1923, 177.6463
291.6744, 176.5187
292.1565, 175.6989
292.6386, 175.1318
293.1207, 174.5345
293.6028, 173.8205
294.0850, 173.0728
294.5671, 172.3912
295.0492, 171.7763
295.5313, 171.2657
296.0134, 171.0862
296.4955, 171.0508
296.9777, 170.5383
297.4598, 169.3167
297.9419, 167.8975
298.4240, 167.1000
298.9061, 166.8229
299.3882, 166.5158
299.8704, 165.7529
300.3525, 164.7542
300.8346, 163.9241
301.3167, 163.3233
301.7988, 162.8491
302.2809, 162.5328
302.7631, 162.2807
303.2452, 161.7981
303.7273, 160.6412
304.2094, 159.2858
304.6915, 158.4291
305.1736, 158.1248
305.6558, 158.0036
306.1379, 157.8189
306.6200, 157.5777
307.1021, 157.2952
307.5842, 156.9071
308.0663, 156.5175
308.5485, 156.2702
309.0306, 156.1571
309.5127, 155.9576
309.9948, 155.3438
310.4769, 154.6028
310.9590, 154.1201
311.4412, 154.4181
311.9233, 154.6192
312.4054, 153.8943
312.8875, 152.4243
313.3696, 151.1825
313.8517, 150.9488
314.3339, 151.0737
314.8160, 150.9762
315.2981, 150.3273
315.7802, 149.7407
316.2623, 149.6835
316.7444, 149.9517
317.2266, 149.9911
317.7087, 149.2811
318.1908, 148.4691
318.6729, 147.9758
319.1550, 147.9806
319.6371, 147.9942
320.1193, 147.9210
320.6014, 147.7396
321.0835, 147.4129
321.5656, 146.4294
322.0477, 145.7222
322.5298, 145.8376
323.0120, 147.0280
323.4941, 147.8856
323.9762, 147.8624
324.4583, 147.4580
324.9404, 147.2133
325.4225, 147.6081
325.9047, 147.7751
326.3868, 147.2578
326.8689, 146.0137
327.3510, 145.4061
327.8331, 146.0504
328.3152, 147.0553
328.7974, 147.8061
329.2795, 148.2914
329.7616, 148.5216
330.2437, 148.3352
330.7258, 147.8334
331.2079, 147.5774
331.6901, 147.7327
332.1722, 147.9667
332.6543, 148.0979
333.1364, 147.8836
333.6185, 148.0229
334.1006, 148.7059
334.5828, 149.6881
335.0649, 150.3700
335.5470, 150.6214
336.0291, 150.8069
336.5112, 151.0533
336.9933, 151.3733
337.4755, 151.6902
337.9576, 151.9788
338.4397, 152.2913
338.9218, 152.6850
339.4039, 153.1352
339.8860, 153.7599
340.3681, 154.6727
340.8503, 155.8422
341.3324, 156.6568
341.8145, 157.0193
342.2966, 157.3297
342.7787, 157.9455
343.2608, 158.8658
343.7430, 160.0393
344.2251, 161.5572
344.7072, 163.2436
345.1893, 164.5110
345.6714, 165.3478
346.1535, 166.0454
346.6357, 166.6031
347.1178, 167.1186
347.5999, 168.2604
348.0820, 170.2326
348.5641, 172.5612
349.0462, 174.6865
349.5284, 176.5865
350.0105, 178.1799
350.4926, 179.1190
350.9747, 179.7608
351.4568, 180.9731
351.9389, 182.8265
352.4211, 184.8491
352.9032, 186.3957
353.3853, 187.7098
353.8674, 189.3835
354.3495, 191.8479
354.8316, 194.6684
355.3138, 197.5324
355.7959, 200.4043
356.2780, 202.8839
356.7601, 204.3073
357.2422, 205.3248
357.7243, 206.8056
358.2065, 209.1535
358.6886, 211.7326
359.1707, 214.1227
359.6528, 216.3874
360.1349, 218.7188
360.6170, 221.1763
361.0992, 223.7547
361.5813, 226.5140
362.0634, 229.5257
362.5455, 232.4016
363.0276, 234.9326
363.5097, 237.2337
363.9919, 239.4772
364.4740, 241.5449
364.9561, 243.7124
365.4382, 246.1299
365.9203, 248.8358
366.4024, 251.4888
366.8846, 254.1031
367.3667, 256.6158
367.8488, 258.9767
368.3309, 261.5574
368.8130, 263.5655
369.2951, 264.6907
369.7773, 265.0619
370.2594, 265.5507
370.7415, 266.0734
371.2236, 266.8000
371.7057, 267.8595
372.1878, 269.6543
372.6700, 271.0441
373.1521, 272.1363
373.6342, 272.7715
374.1163, 272.5117
374.5984, 270.8503
375.0805, 269.2938
375.5627, 268.4238
376.0448, 268.3320
376.5269, 267.7328
377.0090, 266.5648
377.4911, 264.9836
377.9732, 263.0517
378.4554, 260.7208
378.9375, 258.4193
379.4196, 256.2589
379.9017, 254.1748
380.3838, 251.9144
380.8659, 249.5243
381.3481, 246.7579
381.8302, 243.1799
382.3123, 238.9503
382.7944, 235.2613
383.2765, 232.2529
383.7586, 229.7139
384.2408, 227.4933
384.7229, 225.5272
385.2050, 223.2789
385.6871, 220.2015
386.1692, 216.7665
386.6513, 213.7476
387.1335, 211.1967
387.6156, 208.9070
388.0977, 206.9841
388.5798, 205.1928
389.0619, 203.0510
389.5440, 200.1784
390.0262, 197.1254
390.5083, 194.3134
390.9904, 191.6975
391.4725, 189.1983
391.9546, 186.7528
392.4367, 184.4130
392.9189, 182.2164
393.4010, 180.2362
393.8831, 178.2639
394.3652, 176.1976
394.8473, 174.0962
395.3294, 172.0392
395.8116, 170.1322
396.2937, 168.2303
396.7758, 166.2631
397.2579, 164.2179
397.7400, 162.1948
398.2221, 160.2773
398.7043, 158.3756
399.1864, 156.4231
399.6685, 154.2962
400.1506, 152.2544
400.6327, 150.2842
401.1148, 148.4054
401.5970, 146.7091
402.0791, 145.2652
402.5612, 143.9455
403.0433, 142.7163
403.5254, 141.6324
404.0075, 140.4903
404.4897, 139.2777
404.9718, 138.0227
405.4539, 136.7486
405.9360, 135.4197
406.4181, 134.1841
406.9002, 133.0935
407.3824, 132.1401
407.8645, 131.1460
408.3466, 130.0945
408.8287, 129.0624
409.3108, 128.1778
409.7929, 127.4280
410.2751, 126.4663
410.7572, 125.1788
411.2393, 123.7354
411.7214, 122.3530
412.2035, 121.0497
412.6856, 120.0758
413.1678, 119.8223
413.6499, 119.9610
414.1320, 119.7692
414.6141, 119.1970
415.0962, 118.4759
415.5783, 117.6945
416.0605, 116.9323
416.5426, 116.3243
417.0247, 115.9886
417.5068, 115.7668
417.9889, 115.6574
418.4710, 115.5948
418.9532, 115.2636
419.4353, 114.1467
419.9174, 112.8930
420.3995, 112.0684
420.8816, 111.9180
421.3637, 111.7875
421.8459, 111.3408
422.3280, 110.7688
422.8101, 110.3575
423.2922, 110.4143
423.7743, 110.4180
424.2564, 110.2092
424.7386, 109.7756
425.2207, 109.2378
425.7028, 108.3685
426.1849, 107.5614
426.6670, 107.0880
427.1491, 107.2890
427.6313, 107.2784
428.1134, 106.8680
428.5955, 106.2504
429.0776, 105.9644
429.5597, 106.1464
430.0418, 106.3959
430.5240, 106.6450
431.0061, 106.9270
431.4882, 106.6955
431.9703, 105.7931
432.4524, 104.7235
432.9345, 104.0302
433.4167, 103.7188
433.8988, 103.6021
434.3809, 103.7359
434.8630, 103.9534
435.3451, 103.7421
435.8272, 103.1188
436.3094, 102.5952
436.7915, 102.6376
437.2736, 103.0254
437.7557, 103.1999
438.2378, 103.0879
438.7199, 102.9207
439.2020, 103.0225
439.6841, 103.2388
440.1663, 103.2525
440.6484, 102.6547
441.1305, 102.0021
441.6126, 101.8223
442.0947, 102.0433
442.5768, 102.2348
443.0590, 102.1562
443.5411, 101.9652
444.0232, 101.7832
444.5053, 101.6471
444.9874, 101.4875
445.4695, 101.2817
445.9517, 101.0392
446.4338, 100.7729
446.9159, 100.2913
447.3980, 99.97752
447.8801, 100.0186
448.3622, 100.4448
448.8444, 100.7362
449.3265, 100.8573
449.8086, 100.8757
450.2907, 100.8278
450.7728, 100.6791
451.2549, 100.5366
451.7371, 100.3792
452.2192, 100.2509
452.7013, 100.3024
453.1834, 100.6205
453.6655, 100.7913
454.1476, 100.5599
454.6298, 99.98254
455.1119, 99.73587
455.5940, 99.87317
456.0761, 100.0650
456.5582, 99.98820
457.0403, 99.67948
457.5225, 99.31766
458.0046, 98.91385
458.4867, 98.53154
458.9688, 98.22209
459.4509, 98.00516
459.9330, 97.97627
460.4152, 98.38354
460.8973, 98.91067
461.3794, 99.16389
461.8615, 99.12261
462.3436, 98.98904
462.8257, 98.82610
463.3079, 98.67151
463.7900, 98.57518
464.2721, 98.71683
464.7542, 98.71673
465.2363, 98.25680
465.7184, 97.51962
466.2006, 97.02294
466.6827, 97.05804
467.1648, 97.21559
467.6469, 97.35837
468.1290, 97.48843
468.6111, 97.56033
469.0933, 97.53947
469.5754, 97.48476
470.0575, 97.44423
470.5396, 97.40868
471.0217, 97.41534
471.5038, 97.51702
471.9860, 97.65263
472.4681, 97.60435
472.9502, 97.33940
473.4323, 96.99550
473.9144, 96.45776
474.3965, 95.75084
474.8787, 96.02657
475.3608, 97.49630
475.8429, 98.94450
476.3250, 98.69292
476.8071, 97.09583
477.2892, 95.95146
477.7714, 95.80870
478.2535, 96.22251
478.7356, 96.71700
479.2177, 97.26186
479.6998, 97.71500
480.1819, 98.18061
480.6641, 98.41695
481.1462, 97.97583
481.6283, 96.77048
482.1104, 95.80946
482.5925, 95.87538
483.0746, 96.40324
483.5568, 96.81261
484.0389, 96.99121
484.5210, 96.96818
485.0031, 96.62164
485.4852, 96.06147
485.9673, 95.61808
486.4495, 95.36231
486.9316, 95.21580
487.4137, 95.16737
487.8958, 95.23715
488.3779, 95.30460
488.8600, 95.40942
489.3422, 95.46778
489.8243, 95.37331
490.3064, 95.04792
490.7885, 94.83958
491.2706, 94.80148
491.7527, 94.89783
492.2349, 95.10695
492.7170, 95.44962
493.1991, 95.64632
493.6812, 95.43406
494.1633, 94.94706
494.6454, 94.78393
495.1276, 94.96281
495.6097, 95.15535
496.0918, 95.06542
496.5739, 94.76608
497.0560, 94.37194
497.5381, 93.79682
498.0203, 93.36846
498.5024, 93.49129
498.9845, 93.98018
499.4666, 94.42812
499.9487, 94.65897
500.4308, 94.78139
500.9130, 94.80497
501.3951, 94.73434
501.8772, 94.75178
502.3593, 95.10588
502.8414, 95.43999
503.3235, 95.51462
503.8057, 95.00368
504.2878, 94.66516
504.7699, 94.57297
505.2520, 94.64300
505.7341, 94.74467
506.2162, 94.90114
506.6984, 95.04508
507.1805, 95.18975
507.6626, 95.31702
508.1447, 95.19909
508.6268, 94.75103
509.1089, 94.37016
509.5911, 94.44138
510.0732, 94.90788
510.5553, 95.09343
511.0374, 94.90128
511.5195, 94.59712
512.0016, 94.51356
512.4838, 94.60157
512.9659, 94.70829
513.4480, 94.88679
513.9301, 94.95743
514.4122, 94.57424
514.8943, 93.85440
515.3765, 93.29189
515.8586, 93.29722
516.3407, 93.48091
516.8228, 93.54278
517.3049, 93.42236
517.7870, 93.32057
518.2692, 93.22131
518.7513, 93.21382
519.2334, 93.38528
519.7155, 94.11066
520.1976, 94.57713
520.6797, 94.61864
521.1619, 94.35121
521.6440, 94.07394
522.1261, 93.69770
522.6082, 93.48273
523.0903, 93.59300
523.5724, 94.03941
524.0546, 94.22166
524.5367, 94.08363
525.0188, 93.85503
525.5009, 93.63988
525.9830, 93.46252
526.4651, 93.70940
526.9473, 94.58421
527.4294, 95.48615
527.9115, 95.33620
528.3936, 94.42759
528.8757, 93.72994
529.3578, 93.99031
529.8400, 94.48709
530.3221, 94.34464
530.8042, 93.67696
531.2863, 93.22115
531.7684, 93.68032
532.2505, 94.32369
532.7327, 94.59348
533.2148, 94.32621
533.6969, 93.95586
534.1790, 93.31871
534.6611, 92.74988
535.1432, 92.64283
535.6254, 93.75572
536.1075, 94.39659
536.5896, 94.17627
537.0717, 93.37029
537.5538, 92.95027
538.0359, 93.04331
538.5181, 93.22336
539.0002, 93.33558
539.4823, 93.38036
539.9644, 93.34804
540.4465, 93.21003
540.9286, 93.13903
541.4108, 93.46505
541.8929, 94.04199
542.3750, 94.13848
542.8571, 93.50127
543.3392, 92.73090
543.8214, 92.58537
544.3035, 92.86943
544.7856, 93.09882
545.2677, 92.95003
545.7498, 92.75242
546.2319, 92.81365
546.7141, 93.07650
547.1962, 93.18987
547.6783, 92.82117
548.1604, 92.40770
548.6425, 92.18253
549.1246, 92.19930
549.6068, 92.32771
550.0889, 92.63338
550.5710, 92.99834
551.0531, 93.33565
551.5352, 93.73117
552.0173, 93.90218
552.4995, 93.75209
552.9816, 93.39995
553.4637, 93.12350
553.9458, 92.92494
554.4279, 92.78914
554.9100, 92.71706
555.3922, 92.70318
555.8743, 92.79211
556.3564, 92.98394
556.8385, 93.03585
557.3206, 92.48134
557.8027, 91.72822
558.2849, 91.54262
558.7670, 92.13713
559.2491, 92.82372
559.7312, 93.09348
560.2133, 93.12182
560.6954, 93.14505
561.1776, 93.33897
561.6597, 93.43924
562.1418, 93.26817
562.6239, 92.91164
563.1060, 92.68750
563.5881, 92.77574
564.0703, 92.86260
564.5524, 92.84422
565.0345, 92.70953
565.5166, 92.61813
565.9987, 92.58254
566.4808, 92.56949
566.9630, 92.56081
567.4451, 92.55872
567.9272, 92.55030
568.4093, 92.55715
568.8914, 92.49702
569.3735, 92.09090
569.8557, 91.45851
570.3378, 91.18382
570.8199, 91.67945
571.3020, 92.41176
571.7841, 92.68740
572.2662, 92.59766
572.7484, 92.47967
573.2305, 92.48973
573.7126, 92.55489
574.1947, 92.60432
574.6768, 92.62650
575.1589, 92.75098
575.6411, 93.12413
576.1232, 93.54388
576.6053, 93.87453
577.0874, 94.24818
577.5695, 94.28065
578.0516, 93.76849
578.5338, 93.04833
579.0159, 92.60755
579.4980, 92.51865
579.9801, 92.47121
580.4622, 92.37578
580.9443, 92.28876
581.4265, 92.49081
581.9086, 92.98110
582.3907, 93.27978
582.8728, 92.87794
583.3549, 92.14985
583.8370, 91.93417
584.3192, 92.23819
584.8013, 92.62454
585.2834, 92.79204
585.7655, 92.85661
586.2476, 92.94173
586.7297, 93.06582
