##NAMES=Andalusite
##RRUFFID=R050258
##IDEAL CHEMISTRY=Al_2_SiO_5_
##LOCALITY=Bautista Canyon, near Hemet, Riverside County, California, USA
##OWNER=RRUFF
##SOURCE=Marcus Origlieri
##DESCRIPTION=Brown fragment
##STATUS=The identification of this mineral has been confirmed by X-ray diffraction and chemical analysis
##URL=rruff.info/R050258
##MEASURED CHEMISTRY=Al_2.00_Si_1.00_O_5_
92.54132, 0.0000000E+00
93.02344, 1036.154
93.50555, 981.5596
93.98767, 961.6849
94.46979, 985.0695
94.95190, 1042.688
95.43402, 1111.876
95.91614, 1190.012
96.39825, 1289.016
96.88037, 1430.755
97.36249, 1613.929
97.84460, 1803.754
98.32672, 1976.362
98.80884, 2132.860
99.29095, 2317.269
99.77307, 2528.280
100.2552, 2766.851
100.7373, 3030.717
101.2194, 3315.156
101.7015, 3633.041
102.1837, 3999.292
102.6658, 4419.385
103.1479, 4849.227
103.6300, 5282.360
104.1121, 5719.677
104.5942, 6168.026
105.0763, 6645.844
105.5585, 7115.381
106.0406, 7554.117
106.5227, 7949.011
107.0048, 8328.876
107.4869, 8692.990
107.9690, 9040.478
108.4512, 9381.063
108.9333, 9692.315
109.4154, 10010.96
109.8975, 10374.11
110.3796, 10842.59
110.8617, 11301.67
111.3439, 11710.94
111.8260, 12030.70
112.3081, 12438.65
112.7902, 12996.86
113.2723, 13640.85
113.7544, 14272.14
114.2366, 14839.60
114.7187, 15420.62
115.2008, 16048.58
115.6829, 16761.91
116.1650, 17446.26
116.6471, 18086.26
117.1293, 18683.30
117.6114, 19247.62
118.0935, 19770.50
118.5756, 20267.07
119.0577, 20754.97
119.5398, 21250.29
120.0220, 21713.36
120.5041, 22106.91
120.9862, 22446.76
121.4683, 22797.18
121.9504, 23224.69
122.4325, 23668.85
122.9147, 24067.57
123.3968, 24355.32
123.8789, 24627.13
124.3610, 24971.89
124.8431, 25385.29
125.3252, 25804.59
125.8074, 26172.41
126.2895, 26512.32
126.7716, 26869.23
127.2537, 27259.02
127.7358, 27678.19
128.2179, 28122.26
128.7001, 28590.32
129.1822, 29068.12
129.6643, 29538.93
130.1464, 30005.07
130.6285, 30476.20
131.1106, 30969.29
131.5928, 31472.30
132.0749, 31940.36
132.5570, 32355.26
133.0391, 32762.85
133.5212, 33238.39
134.0033, 33727.38
134.4855, 34042.78
134.9676, 34178.34
135.4497, 34256.33
135.9318, 34299.78
136.4139, 34301.36
136.8960, 34285.54
137.3782, 34310.73
137.8603, 34388.23
138.3424, 34449.80
138.8245, 34436.79
139.3066, 34332.51
139.7887, 34292.14
140.2709, 34341.58
140.7530, 34457.53
141.2351, 34567.97
141.7172, 34680.90
142.1993, 34773.79
142.6814, 34827.41
143.1636, 34830.28
143.6457, 34823.59
144.1278, 34794.02
144.6099, 34749.34
145.0920, 34775.62
145.5741, 34908.71
146.0563, 35067.76
146.5384, 35188.50
147.0205, 35250.21
147.5026, 35307.98
147.9847, 35368.14
148.4668, 35430.25
148.9490, 35496.75
149.4311, 35585.72
149.9132, 35669.05
150.3953, 35719.16
150.8774, 35676.21
151.3595, 35666.43
151.8417, 35732.80
152.3238, 35899.82
152.8059, 36004.15
153.2880, 36000.36
153.7701, 35948.99
154.2522, 35914.79
154.7344, 35912.70
155.2165, 35918.70
155.6986, 35925.72
156.1807, 35931.31
156.6628, 35944.04
157.1449, 35971.10
157.6271, 36003.72
158.1092, 36030.48
158.5913, 36028.32
159.0734, 36035.68
159.5555, 36077.10
160.0376, 36176.75
160.5198, 36246.76
161.0019, 36232.43
161.4840, 36174.13
161.9661, 36142.16
162.4482, 36192.23
162.9303, 36253.90
163.4125, 36283.71
163.8946, 36258.22
164.3767, 36238.91
164.8588, 36241.32
165.3409, 36269.08
165.8230, 36330.79
166.3052, 36496.08
166.7873, 36660.38
167.2694, 36732.49
167.7515, 36642.86
168.2336, 36548.63
168.7157, 36563.03
169.1978, 36656.92
169.6800, 36737.20
170.1621, 36724.06
170.6442, 36682.37
171.1263, 36682.09
171.6084, 36761.21
172.0905, 36856.02
172.5727, 36922.04
173.0548, 36960.44
173.5369, 36978.25
174.0190, 36963.65
174.5011, 36935.76
174.9832, 36921.88
175.4654, 36936.18
175.9475, 36960.08
176.4296, 36971.20
176.9117, 36971.65
177.3938, 36977.95
177.8759, 37019.03
178.3581, 37073.85
178.8402, 37100.19
179.3223, 37069.71
179.8044, 37017.03
180.2865, 36983.73
180.7686, 36970.18
181.2508, 36980.89
181.7329, 37037.30
182.2150, 37123.00
182.6971, 37191.96
183.1792, 37214.67
183.6613, 37218.48
184.1435, 37270.29
184.6256, 37372.48
185.1077, 37459.95
185.5898, 37454.22
186.0719, 37374.19
186.5540, 37300.88
187.0362, 37252.72
187.5183, 37232.43
188.0004, 37269.24
188.4825, 37371.28
188.9646, 37462.91
189.4467, 37432.90
189.9289, 37299.18
190.4110, 37210.90
190.8931, 37241.16
191.3752, 37357.78
191.8573, 37428.93
192.3394, 37450.29
192.8216, 37451.82
193.3037, 37472.78
193.7858, 37512.31
194.2679, 37534.11
194.7500, 37509.72
195.2321, 37451.33
195.7143, 37445.67
196.1964, 37503.84
196.6785, 37578.90
197.1606, 37602.79
197.6427, 37571.21
198.1248, 37555.55
198.6070, 37589.46
199.0891, 37668.63
199.5712, 37728.35
200.0533, 37766.45
200.5354, 37790.07
201.0175, 37809.11
201.4997, 37824.67
201.9818, 37827.34
202.4639, 37801.31
202.9460, 37746.54
203.4281, 37746.61
203.9102, 37819.78
204.3924, 37915.17
204.8745, 37956.84
205.3566, 37935.77
205.8387, 37904.48
206.3208, 37876.46
206.8029, 37850.70
207.2851, 37847.46
207.7672, 37870.69
208.2493, 37910.87
208.7314, 37957.05
209.2135, 38013.09
209.6956, 38061.61
210.1778, 38088.38
210.6599, 38087.27
211.1420, 38126.24
211.6241, 38225.04
212.1062, 38339.22
212.5883, 38392.12
213.0705, 38360.02
213.5526, 38330.54
214.0347, 38333.48
214.5168, 38371.54
214.9989, 38422.15
215.4810, 38492.56
215.9632, 38568.07
216.4453, 38625.56
216.9274, 38665.58
217.4095, 38686.12
217.8916, 38677.93
218.3737, 38630.85
218.8559, 38618.30
219.3380, 38657.47
219.8201, 38715.98
220.3022, 38742.28
220.7843, 38726.41
221.2664, 38699.63
221.7486, 38667.79
222.2307, 38627.78
222.7128, 38604.09
223.1949, 38596.43
223.6770, 38606.32
224.1591, 38640.24
224.6413, 38715.92
225.1234, 38782.96
225.6055, 38825.82
226.0876, 38840.46
226.5697, 38849.42
227.0518, 38846.87
227.5340, 38843.05
228.0161, 38855.30
228.4982, 38895.68
228.9803, 38929.43
229.4624, 38940.99
229.9445, 38921.10
230.4267, 38926.03
230.9088, 38960.34
231.3909, 39015.41
231.8730, 39083.04
232.3551, 39181.70
232.8372, 39261.11
233.3194, 39304.71
233.8015, 39307.21
234.2836, 39304.56
234.7657, 39293.73
235.2478, 39280.27
235.7299, 39267.07
236.2121, 39233.87
236.6942, 39238.57
237.1763, 39314.31
237.6584, 39480.89
238.1405, 39573.04
238.6226, 39548.10
239.1048, 39481.82
239.5869, 39467.54
240.0690, 39539.10
240.5511, 39601.30
241.0332, 39624.73
241.5153, 39601.17
241.9975, 39611.88
242.4796, 39673.09
242.9617, 39754.05
243.4438, 39824.64
243.9259, 39899.89
244.4080, 39935.52
244.8902, 39902.58
245.3723, 39792.76
245.8544, 39750.79
246.3365, 39810.13
246.8186, 39905.45
247.3007, 39972.07
247.7829, 39992.69
248.2650, 40018.15
248.7471, 40063.35
249.2292, 40129.27
249.7113, 40167.86
250.1934, 40158.97
250.6756, 40144.59
251.1577, 40167.73
251.6398, 40259.13
252.1219, 40322.78
252.6040, 40331.55
253.0861, 40288.74
253.5683, 40271.95
254.0504, 40285.48
254.5325, 40319.94
255.0146, 40375.91
255.4967, 40483.28
255.9788, 40540.59
256.4609, 40511.49
256.9431, 40411.19
257.4252, 40370.90
257.9073, 40420.08
258.3894, 40487.74
258.8715, 40519.70
259.3536, 40494.74
259.8358, 40490.67
260.3179, 40519.15
260.8000, 40575.98
261.2821, 40642.32
261.7642, 40736.55
262.2463, 40810.36
262.7285, 40823.38
263.2106, 40746.09
263.6927, 40704.56
264.1748, 40721.25
264.6569, 40778.71
265.1390, 40814.27
265.6212, 40821.68
266.1033, 40820.04
266.5854, 40814.21
267.0675, 40796.02
267.5496, 40808.74
268.0317, 40865.58
268.5139, 40948.21
268.9960, 41007.01
269.4781, 41036.32
269.9602, 41056.54
270.4423, 41081.61
270.9244, 41117.98
271.4066, 41116.45
271.8887, 41052.26
272.3708, 40973.25
272.8529, 40989.32
273.3350, 41126.71
273.8171, 41263.89
274.2993, 41343.88
274.7814, 41357.53
275.2635, 41389.10
275.7456, 41439.44
276.2277, 41505.59
276.7098, 41593.34
277.1920, 41711.80
277.6741, 41799.36
278.1562, 41821.27
278.6383, 41778.04
279.1204, 41759.30
279.6025, 41770.06
280.0847, 41793.10
280.5668, 41804.07
281.0489, 41801.37
281.5310, 41807.33
282.0131, 41830.05
282.4952, 41868.58
282.9774, 41921.21
283.4595, 41995.68
283.9416, 42056.12
284.4237, 42044.16
284.9058, 41960.48
285.3879, 41914.04
285.8701, 41941.99
286.3522, 42026.20
286.8343, 42104.11
287.3164, 42174.78
287.7985, 42239.86
288.2806, 42296.68
288.7628, 42346.22
289.2449, 42403.70
289.7270, 42480.25
290.2091, 42559.36
290.6912, 42593.17
291.1733, 42580.57
291.6555, 42564.34
292.1376, 42577.26
292.6197, 42614.34
293.1018, 42659.90
293.5839, 42724.98
294.0660, 42773.86
294.5482, 42720.48
295.0303, 42574.35
295.5124, 42437.95
295.9945, 42387.57
296.4766, 42396.75
296.9587, 42390.47
297.4409, 42358.16
297.9230, 42317.95
298.4051, 42292.94
298.8872, 42281.05
299.3693, 42272.75
299.8514, 42252.82
300.3336, 42234.90
300.8157, 42248.95
301.2978, 42299.46
301.7799, 42360.16
302.2620, 42405.68
302.7441, 42438.73
303.2263, 42467.15
303.7084, 42501.16
304.1905, 42528.48
304.6726, 42522.39
305.1547, 42481.11
305.6368, 42451.62
306.1190, 42482.07
306.6011, 42550.93
307.0832, 42619.90
307.5653, 42687.63
308.0474, 42741.90
308.5295, 42770.60
309.0117, 42775.32
309.4938, 42762.45
309.9759, 42710.32
310.4580, 42652.75
310.9401, 42635.76
311.4222, 42710.81
311.9044, 42779.67
312.3865, 42745.77
312.8686, 42639.84
313.3507, 42573.07
313.8328, 42651.63
314.3149, 42769.23
314.7971, 42827.61
315.2792, 42771.00
315.7613, 42732.55
316.2434, 42809.15
316.7255, 42952.67
317.2076, 43058.98
317.6898, 43049.34
318.1719, 43017.91
318.6540, 43016.93
319.1361, 43057.32
319.6182, 43112.64
320.1003, 43203.97
320.5825, 43298.01
321.0646, 43348.93
321.5467, 43288.20
322.0288, 43232.97
322.5109, 43231.77
322.9930, 43293.61
323.4752, 43352.26
323.9573, 43410.16
324.4394, 43451.70
324.9215, 43462.75
325.4036, 43423.44
325.8857, 43372.00
326.3679, 43308.36
326.8500, 43233.40
327.3321, 43169.79
327.8142, 43089.85
328.2963, 43040.59
328.7784, 43050.29
329.2606, 43207.38
329.7427, 43315.76
330.2248, 43353.69
330.7069, 43336.00
331.1890, 43318.86
331.6711, 43293.01
332.1533, 43277.80
332.6354, 43282.71
333.1175, 43319.05
333.5996, 43350.51
334.0817, 43375.69
334.5638, 43396.22
335.0460, 43415.09
335.5281, 43431.17
336.0102, 43446.77
336.4923, 43461.50
336.9744, 43474.20
337.4565, 43495.11
337.9387, 43535.03
338.4208, 43568.39
338.9029, 43554.71
339.3850, 43475.08
339.8671, 43423.50
340.3492, 43434.68
340.8313, 43496.93
341.3134, 43509.31
341.7956, 43460.80
342.2777, 43400.46
342.7598, 43363.91
343.2419, 43352.35
343.7240, 43367.03
344.2061, 43416.85
344.6883, 43485.70
345.1704, 43528.08
345.6525, 43542.98
346.1346, 43558.86
346.6167, 43602.89
347.0988, 43667.68
347.5810, 43697.85
348.0631, 43679.35
348.5452, 43654.27
349.0273, 43699.48
349.5094, 43801.78
349.9915, 43880.10
350.4737, 43858.48
350.9558, 43789.54
351.4379, 43805.93
351.9200, 43913.54
352.4021, 44027.85
352.8842, 44069.31
353.3664, 44057.40
353.8485, 44036.46
354.3306, 44009.30
354.8127, 43992.23
355.2948, 44006.53
355.7769, 44050.76
356.2591, 44111.94
356.7412, 44204.16
357.2233, 44300.44
357.7054, 44372.25
358.1875, 44416.61
358.6696, 44427.72
359.1518, 44375.14
359.6339, 44283.67
360.1160, 44214.46
360.5981, 44213.55
361.0802, 44232.51
361.5623, 44243.90
362.0445, 44246.80
362.5266, 44227.30
363.0087, 44130.82
363.4908, 44021.79
363.9729, 43982.99
364.4550, 44109.85
364.9372, 44242.90
365.4193, 44329.10
365.9014, 44365.56
366.3835, 44386.87
366.8656, 44380.23
367.3477, 44372.41
367.8299, 44382.75
368.3120, 44433.51
368.7941, 44479.28
369.2762, 44519.74
369.7583, 44553.04
370.2404, 44571.20
370.7226, 44563.34
371.2047, 44551.34
371.6868, 44544.92
372.1689, 44551.64
372.6510, 44547.97
373.1331, 44535.72
373.6153, 44512.72
374.0974, 44465.09
374.5795, 44352.60
375.0616, 44302.32
375.5437, 44383.71
376.0258, 44601.20
376.5080, 44690.05
376.9901, 44605.91
377.4722, 44475.54
377.9543, 44418.45
378.4364, 44442.71
378.9185, 44488.48
379.4007, 44552.57
379.8828, 44624.96
380.3649, 44672.70
380.8470, 44693.55
381.3291, 44704.13
381.8112, 44706.88
382.2934, 44705.02
382.7755, 44728.36
383.2576, 44786.45
383.7397, 44848.83
384.2218, 44874.58
384.7039, 44866.80
385.1861, 44840.81
385.6682, 44762.40
386.1503, 44681.27
386.6324, 44721.25
387.1145, 44884.86
387.5966, 45037.49
388.0788, 45041.55
388.5609, 44958.91
389.0430, 44901.26
389.5251, 44915.10
390.0072, 44948.61
390.4893, 44951.34
390.9715, 44931.80
391.4536, 44922.09
391.9357, 44951.73
392.4178, 44992.38
392.8999, 45021.15
393.3820, 45033.67
393.8642, 45039.25
394.3463, 45030.23
394.8284, 45020.31
395.3105, 45030.46
395.7926, 45100.85
396.2747, 45162.68
396.7569, 45187.26
397.2390, 45172.43
397.7211, 45148.61
398.2032, 45096.67
398.6853, 45052.34
399.1674, 45042.21
399.6496, 45086.41
400.1317, 45142.68
400.6138, 45227.01
401.0959, 45323.26
401.5780, 45374.33
402.0602, 45340.37
402.5423, 45306.59
403.0244, 45308.97
403.5065, 45361.65
403.9886, 45399.73
404.4707, 45420.48
404.9529, 45429.17
405.4350, 45427.39
405.9171, 45405.08
406.3992, 45407.92
406.8813, 45459.25
407.3634, 45548.16
407.8456, 45601.21
408.3277, 45616.26
408.8098, 45605.52
409.2919, 45570.27
409.7740, 45512.35
410.2561, 45456.22
410.7383, 45394.24
411.2204, 45356.35
411.7025, 45427.45
412.1846, 45591.00
412.6667, 45709.19
413.1488, 45658.83
413.6310, 45521.15
414.1131, 45469.82
414.5952, 45514.14
415.0773, 45584.32
415.5594, 45624.17
416.0415, 45645.40
416.5237, 45669.13
417.0058, 45697.12
417.4879, 45735.19
417.9700, 45813.88
418.4521, 45915.02
418.9342, 45967.55
419.4164, 45874.66
419.8985, 45754.63
420.3806, 45703.26
420.8627, 45753.61
421.3448, 45809.32
421.8269, 45834.91
422.3091, 45842.57
422.7912, 45849.87
423.2733, 45863.77
423.7554, 45875.11
424.2375, 45877.80
424.7196, 45871.77
425.2018, 45876.39
425.6839, 45915.36
426.1660, 45951.21
426.6481, 45960.99
427.1302, 45910.95
427.6123, 45891.73
428.0945, 45919.04
428.5766, 45975.05
429.0587, 46020.51
429.5408, 46058.69
430.0229, 46079.11
430.5050, 46070.91
430.9872, 46032.29
431.4693, 46012.74
431.9514, 46015.14
432.4335, 46027.39
432.9156, 46038.42
433.3977, 46047.70
433.8799, 46052.93
434.3620, 46048.93
434.8441, 46044.45
435.3262, 46064.95
435.8083, 46108.94
436.2904, 46151.10
436.7726, 46185.56
437.2547, 46205.76
437.7368, 46188.18
438.2189, 46127.15
438.7010, 46061.98
439.1831, 46027.08
439.6652, 46016.08
440.1473, 46016.15
440.6295, 46018.14
441.1116, 46034.20
441.5937, 46092.51
442.0758, 46182.31
442.5579, 46245.81
443.0400, 46227.64
443.5222, 46189.13
444.0043, 46177.40
444.4864, 46212.16
444.9685, 46242.90
445.4506, 46250.59
445.9327, 46244.74
446.4149, 46239.15
446.8970, 46227.21
447.3791, 46224.22
447.8612, 46236.64
448.3433, 46264.57
448.8254, 46288.05
449.3076, 46280.24
449.7897, 46292.57
450.2718, 46364.03
450.7539, 46546.66
451.2360, 46667.92
451.7181, 46706.91
452.2003, 46694.34
452.6824, 46688.66
453.1645, 46691.16
453.6466, 46695.95
454.1287, 46705.74
454.6108, 46717.59
455.0930, 46697.81
455.5751, 46640.16
456.0572, 46586.82
456.5393, 46594.39
457.0214, 46647.00
457.5035, 46652.23
457.9857, 46574.00
458.4678, 46485.21
458.9499, 46507.91
459.4320, 46615.78
459.9141, 46713.38
460.3962, 46749.96
460.8784, 46749.43
461.3605, 46729.21
461.8426, 46690.54
462.3247, 46659.46
462.8068, 46661.43
463.2889, 46676.25
463.7711, 46681.92
464.2532, 46661.61
464.7353, 46646.16
465.2174, 46649.00
465.6995, 46665.23
466.1816, 46683.78
466.6638, 46710.41
467.1459, 46729.61
467.6280, 46732.55
468.1101, 46713.66
468.5922, 46700.76
469.0743, 46695.12
469.5565, 46694.73
470.0386, 46696.84
470.5207, 46693.58
471.0028, 46711.75
471.4849, 46765.98
471.9670, 46839.24
472.4492, 46882.97
472.9313, 46893.49
473.4134, 46887.23
473.8955, 46862.25
474.3776, 46820.57
474.8597, 46807.22
475.3419, 46824.01
475.8240, 46857.86
476.3061, 46913.30
476.7882, 46979.46
477.2703, 46997.69
477.7524, 46929.22
478.2346, 46849.91
478.7167, 46886.32
479.1988, 47009.18
479.6809, 47109.66
480.1630, 47101.09
480.6451, 47054.83
481.1273, 47044.45
481.6094, 47076.23
482.0915, 47108.34
482.5736, 47107.50
483.0557, 47099.41
483.5378, 47109.82
484.0200, 47174.88
484.5021, 47222.45
484.9842, 47215.92
485.4663, 47175.20
485.9484, 47154.58
486.4305, 47196.71
486.9127, 47225.18
487.3948, 47203.71
487.8769, 47117.87
488.3590, 47085.87
488.8411, 47132.97
489.3232, 47207.52
489.8054, 47274.07
490.2875, 47343.48
490.7696, 47365.84
491.2517, 47325.00
491.7338, 47246.63
492.2159, 47181.92
492.6981, 47130.40
493.1802, 47103.42
493.6623, 47120.19
494.1444, 47167.04
494.6265, 47175.43
495.1086, 47143.71
495.5908, 47133.07
496.0729, 47230.18
496.5550, 47381.67
497.0371, 47474.07
497.5192, 47469.37
498.0013, 47432.54
498.4835, 47406.56
498.9656, 47390.78
499.4477, 47385.27
499.9298, 47409.14
500.4119, 47426.64
500.8940, 47409.86
501.3762, 47359.86
501.8583, 47323.07
502.3404, 47309.54
502.8225, 47316.56
503.3046, 47344.85
503.7867, 47425.98
504.2689, 47478.23
504.7510, 47479.25
505.2331, 47460.02
505.7152, 47470.16
506.1973, 47535.54
506.6794, 47576.79
507.1616, 47568.02
507.6437, 47517.44
508.1258, 47481.40
508.6079, 47457.80
509.0900, 47455.98
509.5721, 47503.38
510.0543, 47591.00
510.5364, 47608.85
511.0185, 47536.79
511.5006, 47456.09
511.9827, 47480.07
512.4648, 47579.64
512.9470, 47664.08
513.4291, 47703.63
513.9112, 47713.64
514.3933, 47705.08
514.8754, 47680.20
515.3575, 47647.26
515.8397, 47589.54
516.3218, 47539.64
516.8039, 47516.21
517.2860, 47519.26
517.7681, 47561.82
518.2502, 47703.30
518.7324, 47857.42
519.2145, 47946.94
519.6966, 47907.36
520.1787, 47865.96
520.6608, 47817.88
521.1429, 47776.79
521.6251, 47780.80
522.1072, 47860.51
522.5893, 47930.39
523.0714, 47966.87
523.5535, 47970.28
524.0356, 47929.88
524.5178, 47828.65
524.9999, 47742.92
525.4820, 47764.35
525.9641, 47878.13
526.4462, 47920.23
526.9283, 47851.04
527.4105, 47767.61
527.8926, 47823.78
528.3747, 47980.50
528.8568, 48107.35
529.3389, 48142.49
529.8210, 48126.09
530.3032, 48071.63
530.7853, 47990.36
531.2674, 47941.70
531.7495, 47993.44
532.2316, 48065.31
532.7137, 48091.99
533.1959, 48048.04
533.6780, 48025.81
534.1601, 48043.38
534.6422, 48096.04
535.1243, 48180.89
535.6064, 48382.91
536.0886, 48502.11
536.5707, 48482.52
537.0528, 48372.94
537.5349, 48331.52
538.0170, 48397.70
538.4991, 48433.23
538.9813, 48361.45
539.4634, 48191.90
539.9455, 48124.63
540.4276, 48172.47
540.9097, 48252.28
541.3918, 48288.32
541.8740, 48292.05
542.3561, 48309.59
542.8382, 48349.18
543.3203, 48398.63
543.8024, 48462.92
544.2845, 48526.00
544.7667, 48550.56
545.2488, 48464.70
545.7309, 48379.59
546.2130, 48390.74
546.6951, 48477.29
547.1772, 48541.85
547.6594, 48509.72
548.1415, 48472.72
548.6236, 48493.33
549.1057, 48609.54
549.5878, 48664.84
550.0699, 48588.49
550.5521, 48486.33
551.0342, 48449.80
551.5163, 48516.76
551.9984, 48567.54
552.4805, 48586.27
552.9626, 48586.51
553.4448, 48601.94
553.9269, 48636.16
554.4090, 48659.05
554.8911, 48649.85
555.3732, 48621.61
555.8553, 48631.63
556.3375, 48678.83
556.8196, 48713.95
557.3017, 48681.80
557.7838, 48617.08
558.2659, 48570.81
558.7480, 48546.79
559.2302, 48557.02
559.7123, 48648.52
560.1944, 48767.41
560.6765, 48844.04
561.1586, 48834.98
561.6407, 48804.41
562.1229, 48762.63
562.6050, 48714.14
563.0871, 48670.75
563.5692, 48620.59
564.0513, 48590.86
564.5334, 48597.05
565.0156, 48641.35
565.4977, 48664.63
565.9798, 48657.47
566.4619, 48646.93
566.9440, 48654.15
567.4261, 48680.91
567.9083, 48701.80
568.3904, 48715.08
568.8725, 48722.66
569.3546, 48727.97
569.8367, 48730.04
570.3188, 48722.48
570.8010, 48692.64
571.2831, 48666.14
571.7652, 48681.14
572.2473, 48728.50
572.7294, 48776.20
573.2115, 48825.51
573.6937, 48856.08
574.1758, 48837.86
574.6579, 48768.23
575.1400, 48732.07
575.6221, 48792.79
576.1042, 48870.41
576.5864, 48911.29
577.0685, 48892.76
577.5506, 48871.65
578.0327, 48838.78
578.5148, 48809.84
578.9969, 48807.70
579.4791, 48839.29
579.9612, 48870.18
580.4433, 48888.39
580.9254, 48904.34
581.4075, 48955.66
581.8896, 49041.07
582.3718, 49113.92
582.8539, 49134.19
583.3360, 49127.69
583.8181, 49159.13
584.3002, 49226.14
584.7823, 49275.66
585.2645, 49253.02
585.7466, 49201.93
586.2286, 49166.85
586.7108, 49158.93
587.1929, 49161.29
587.6750, 49174.32
588.1571, 49192.43
588.6392, 49209.15
589.1213, 49255.85
589.6035, 49261.43
