##NAMES=Andalusite
##RRUFFID=R050561
##IDEAL CHEMISTRY=Al_2_SiO_5_
##LOCALITY=Cargo Muchacho Mountain, Imperial County, California
##OWNER=RRUFF
##SOURCE=Dave Bunk Minerals
##DESCRIPTION=Brown coarsely crystalline massive
##STATUS=The identification of this mineral has been confirmed by X-ray diffraction and chemical analysis
##URL=rruff.info/R050561
##MEASURED CHEMISTRY=(Al_1.98_Fe^3+^_0.02_)_Î£=2_Si_1.00_O_5_
93.07361, 4.786524
93.55573, 5.272690
94.03784, 5.732508
94.51996, 5.816058
95.00208, 5.588497
95.48419, 5.272128
95.96631, 4.826680
96.44843, 4.360175
96.93054, 4.237984
97.41266, 4.503642
97.89478, 4.885880
98.37689, 5.025062
98.85901, 4.914812
99.34113, 4.881839
99.82324, 5.172982
100.3054, 5.785642
100.7875, 5.946795
101.2696, 5.497182
101.7517, 4.801428
102.2338, 4.566386
102.7159, 4.930864
103.1981, 5.365571
103.6802, 5.656683
104.1623, 5.827208
104.6444, 5.746360
105.1265, 5.208153
105.6086, 4.427660
106.0908, 4.258385
106.5729, 5.139837
107.0550, 6.120103
107.5371, 6.647020
108.0192, 6.409568
108.5013, 6.186105
108.9835, 5.961866
109.4656, 5.745595
109.9477, 5.782730
110.4298, 6.313808
110.9119, 6.966377
111.3940, 7.497505
111.8762, 7.257199
112.3583, 7.540960
112.8404, 8.998779
113.3225, 11.83582
113.8046, 13.67550
114.2867, 13.36921
114.7689, 12.17070
115.2510, 11.45441
115.7331, 11.80633
116.2152, 12.45150
116.6973, 13.16025
117.1794, 13.94144
117.6616, 14.64141
118.1437, 15.16881
118.6258, 15.58618
119.1079, 15.97934
119.5900, 16.23453
120.0721, 16.57466
120.5543, 17.18798
121.0364, 18.20505
121.5185, 19.24135
122.0006, 20.00951
122.4827, 20.59911
122.9648, 21.27946
123.4470, 22.26438
123.9291, 23.39430
124.4112, 24.48640
124.8933, 25.48731
125.3754, 26.45651
125.8575, 27.43071
126.3397, 28.41518
126.8218, 29.44668
127.3039, 30.42127
127.7860, 31.45840
128.2681, 32.83130
128.7502, 34.84371
129.2324, 37.07478
129.7145, 38.87047
130.1966, 40.24145
130.6787, 41.15764
131.1608, 41.30403
131.6429, 40.84876
132.1251, 40.63482
132.6072, 41.06728
133.0893, 41.94900
133.5714, 42.55683
134.0535, 42.82802
134.5356, 43.11365
135.0178, 43.99739
135.4999, 45.49342
135.9820, 46.76112
136.4641, 47.26855
136.9462, 47.05509
137.4283, 47.54769
137.9105, 48.91294
138.3926, 50.69696
138.8747, 52.16721
139.3568, 53.30902
139.8389, 54.25332
140.3210, 55.08065
140.8032, 55.83301
141.2853, 56.21831
141.7674, 56.04245
142.2495, 55.61459
142.7316, 55.65592
143.2137, 56.12056
143.6959, 56.48978
144.1780, 56.88131
144.6601, 57.39289
145.1422, 57.70465
145.6243, 57.74851
146.1064, 57.59650
146.5886, 57.51851
147.0707, 57.59104
147.5528, 57.65150
148.0349, 57.61784
148.5170, 57.51392
148.9991, 57.28008
149.4813, 56.76287
149.9634, 56.02150
150.4455, 55.67097
150.9276, 56.00219
151.4097, 56.51295
151.8918, 56.88665
152.3740, 56.94548
152.8561, 57.07878
153.3382, 57.44334
153.8203, 58.02634
154.3024, 58.29175
154.7845, 58.07211
155.2667, 57.59456
155.7488, 57.02332
156.2309, 56.15536
156.7130, 55.43013
157.1951, 54.94769
157.6772, 54.71462
158.1594, 54.61879
158.6415, 54.58828
159.1236, 54.70196
159.6057, 55.03852
160.0878, 55.92723
160.5699, 56.75663
161.0521, 57.33264
161.5342, 57.63094
162.0163, 57.75097
162.4984, 57.59973
162.9805, 57.32453
163.4626, 57.11153
163.9448, 57.04334
164.4269, 57.04078
164.9090, 57.07207
165.3911, 57.13968
165.8732, 57.21022
166.3553, 57.24192
166.8375, 57.26819
167.3196, 57.34417
167.8017, 57.56249
168.2838, 57.79665
168.7659, 57.94722
169.2480, 57.98532
169.7302, 58.00678
170.2123, 58.04370
170.6944, 58.10910
171.1765, 58.23156
171.6586, 58.41127
172.1407, 58.66026
172.6229, 59.05047
173.1050, 59.67759
173.5871, 60.19419
174.0692, 60.13277
174.5513, 59.67175
175.0334, 59.34071
175.5156, 59.56989
175.9977, 60.08671
176.4798, 60.49758
176.9619, 60.72437
177.4440, 60.87855
177.9261, 61.07587
178.4083, 61.30634
178.8904, 61.52248
179.3725, 61.66833
179.8546, 61.78044
180.3367, 61.95243
180.8188, 62.26542
181.3010, 62.53548
181.7831, 62.31876
182.2652, 61.69850
182.7473, 61.32261
183.2294, 61.92733
183.7115, 63.17320
184.1937, 64.06350
184.6758, 64.28320
185.1579, 64.21084
185.6400, 64.57487
186.1221, 65.35363
186.6042, 66.10295
187.0864, 66.35832
187.5685, 66.24434
188.0506, 66.32756
188.5327, 66.84117
189.0148, 67.52372
189.4969, 67.68087
189.9791, 67.28347
190.4612, 66.99483
190.9433, 67.70260
191.4254, 69.22620
191.9075, 69.99960
192.3896, 69.39481
192.8718, 67.94521
193.3539, 67.19192
193.8360, 67.18177
194.3181, 67.43652
194.8002, 67.49345
195.2823, 67.36179
195.7645, 67.45705
196.2466, 67.93835
196.7287, 68.70371
197.2108, 69.37202
197.6929, 69.94703
198.1750, 70.40211
198.6572, 70.66127
199.1393, 70.71110
199.6214, 70.79235
200.1035, 70.91033
200.5856, 71.09962
201.0677, 71.59159
201.5499, 72.43497
202.0320, 73.42426
202.5141, 74.41634
202.9962, 75.43340
203.4783, 76.28629
203.9604, 76.93498
204.4426, 77.38536
204.9247, 77.72368
205.4068, 78.02549
205.8889, 78.03280
206.3710, 77.37307
206.8531, 75.90447
207.3353, 74.50476
207.8174, 73.38548
208.2995, 72.52639
208.7816, 71.61475
209.2637, 70.57133
209.7458, 69.64491
210.2280, 69.11437
210.7101, 69.04319
211.1922, 69.14954
211.6743, 69.48582
212.1564, 70.02867
212.6385, 70.07102
213.1207, 69.37923
213.6028, 68.56326
214.0849, 68.27678
214.5670, 68.66055
215.0491, 69.16778
215.5313, 69.79578
216.0134, 70.54153
216.4955, 70.73479
216.9776, 70.12664
217.4597, 69.31137
217.9418, 68.89665
218.4240, 68.99567
218.9061, 69.21008
219.3882, 69.46282
219.8703, 69.75100
220.3524, 70.13067
220.8345, 70.60794
221.3167, 71.16281
221.7988, 71.84060
222.2809, 72.81840
222.7630, 73.47594
223.2451, 73.55537
223.7272, 73.04528
224.2094, 72.89468
224.6915, 73.17995
225.1736, 73.73915
225.6557, 74.49789
226.1378, 75.82971
226.6199, 76.55322
227.1021, 76.15598
227.5842, 74.62592
228.0663, 74.08183
228.5484, 75.12126
229.0305, 76.49186
229.5126, 76.94207
229.9948, 75.83713
230.4769, 75.11065
230.9590, 75.18041
231.4411, 76.04546
231.9232, 76.87276
232.4053, 77.84358
232.8875, 78.59288
233.3696, 78.65696
233.8517, 77.25005
234.3338, 76.74337
234.8159, 77.87171
235.2980, 80.59754
235.7802, 82.37870
236.2623, 82.74678
236.7444, 82.68191
237.2265, 82.99216
237.7086, 83.88204
238.1907, 84.75790
238.6729, 85.57812
239.1550, 86.33534
239.6371, 86.87968
240.1192, 87.10863
240.6013, 87.23972
241.0834, 87.46800
241.5656, 87.97035
242.0477, 88.20956
242.5298, 88.08175
243.0119, 87.61015
243.4940, 87.02336
243.9761, 86.23811
244.4583, 85.43410
244.9404, 84.78422
245.4225, 84.54624
245.9046, 83.90210
246.3867, 82.50730
246.8688, 80.54452
247.3510, 79.30612
247.8331, 79.06074
248.3152, 79.19500
248.7973, 79.37965
249.2794, 79.80932
249.7615, 79.84136
250.2437, 79.19784
250.7258, 78.09370
251.2079, 77.58439
251.6900, 77.92827
252.1721, 78.50000
252.6542, 78.95720
253.1364, 79.27037
253.6185, 79.53423
254.1006, 79.77568
254.5827, 79.96907
255.0648, 80.01598
255.5469, 79.90362
256.0291, 79.66732
256.5112, 79.27232
256.9933, 78.53214
257.4754, 78.12275
257.9575, 78.16959
258.4396, 78.52894
258.9218, 78.78430
259.4039, 78.86824
259.8860, 78.97653
260.3681, 79.17246
260.8502, 79.39780
261.3323, 79.91442
261.8145, 80.83155
262.2966, 81.97311
262.7787, 82.98582
263.2608, 83.87173
263.7429, 84.62099
264.2250, 85.18125
264.7072, 85.44337
265.1893, 85.91472
265.6714, 86.56148
266.1535, 87.44139
266.6356, 88.71053
267.1177, 90.51878
267.5999, 92.34512
268.0820, 93.92400
268.5641, 95.18613
269.0462, 96.83489
269.5283, 98.96328
270.0104, 101.3934
270.4926, 103.8762
270.9747, 106.3750
271.4568, 109.1501
271.9389, 112.2774
272.4210, 115.7883
272.9031, 119.6045
273.3853, 123.7697
273.8674, 128.1704
274.3495, 132.6598
274.8316, 137.3568
275.3137, 141.6069
275.7958, 145.0908
276.2780, 147.8790
276.7601, 151.2101
277.2422, 155.2027
277.7243, 159.4264
278.2064, 163.3118
278.6885, 166.7618
279.1707, 170.7041
279.6528, 175.3654
280.1349, 180.6918
280.6170, 186.4137
281.0991, 192.5264
281.5812, 199.0860
282.0634, 205.9480
282.5455, 213.1909
283.0276, 221.1515
283.5097, 229.8845
283.9918, 239.3938
284.4739, 249.5652
284.9561, 260.3386
285.4382, 272.2265
285.9203, 286.0786
286.4024, 301.6639
286.8845, 317.2252
287.3666, 332.3740
287.8488, 347.2771
288.3309, 362.7548
288.8130, 378.8579
289.2951, 393.2662
289.7772, 405.3248
290.2593, 414.6337
290.7415, 419.5807
291.2236, 420.0411
291.7057, 415.9147
292.1878, 406.3737
292.6699, 391.5966
293.1520, 373.6241
293.6342, 352.7043
294.1163, 329.3875
294.5984, 305.7938
295.0805, 281.5248
295.5626, 258.3109
296.0447, 237.8456
296.5269, 219.9853
297.0090, 203.9798
297.4911, 189.5687
297.9732, 176.8051
298.4553, 166.3494
298.9374, 158.3083
299.4196, 151.7358
299.9017, 145.9725
300.3838, 141.0150
300.8659, 136.9242
301.3480, 133.7997
301.8301, 131.5571
302.3123, 130.2243
302.7944, 129.7735
303.2765, 129.7738
303.7586, 129.8949
304.2407, 130.2122
304.7228, 130.8788
305.2050, 132.0300
305.6871, 133.4641
306.1692, 134.9613
306.6513, 136.5417
307.1334, 138.1974
307.6155, 139.6087
308.0977, 141.2181
308.5798, 143.6382
309.0619, 147.2666
309.5440, 151.3309
310.0261, 155.1741
310.5082, 158.9359
310.9904, 163.0236
311.4725, 167.3436
311.9546, 172.3014
312.4367, 178.1978
312.9188, 184.9619
313.4009, 192.9688
313.8831, 202.5167
314.3652, 213.3741
314.8473, 225.2376
315.3294, 237.6917
315.8115, 251.4457
316.2936, 267.4431
316.7758, 286.1176
317.2579, 304.5438
317.7400, 322.5048
318.2221, 339.2852
318.7042, 354.3590
319.1863, 370.0315
319.6685, 381.7426
320.1506, 387.9813
320.6327, 388.6705
321.1148, 383.7847
321.5969, 371.5426
322.0790, 354.6813
322.5612, 335.1972
323.0433, 309.5333
323.5254, 285.5993
324.0075, 265.6530
324.4896, 249.2381
324.9717, 233.4457
325.4539, 216.9769
325.9360, 201.3492
326.4181, 187.5794
326.9002, 176.1122
327.3823, 165.8808
327.8644, 156.8708
328.3466, 149.0578
328.8287, 142.3763
329.3108, 137.0259
329.7929, 132.5874
330.2750, 129.0970
330.7571, 126.9798
331.2393, 124.7151
331.7214, 121.8501
332.2035, 118.9964
332.6856, 117.2134
333.1677, 117.0958
333.6498, 117.1623
334.1320, 116.9872
334.6141, 116.5004
335.0962, 116.3692
335.5783, 116.7750
336.0604, 117.3484
336.5425, 117.6174
337.0247, 117.2414
337.5068, 117.4435
337.9889, 118.5689
338.4710, 120.5192
338.9531, 122.4414
339.4352, 124.2703
339.9174, 126.2550
340.3995, 128.6971
340.8816, 131.7571
341.3637, 134.3445
341.8458, 136.2212
342.3279, 137.6561
342.8101, 139.3968
343.2922, 141.4210
343.7743, 143.8012
344.2564, 146.6357
344.7385, 149.9276
345.2206, 153.2564
345.7028, 156.6448
346.1849, 160.0405
346.6670, 163.1716
347.1491, 166.0883
347.6312, 169.5557
348.1133, 174.0837
348.5955, 179.4533
349.0776, 184.8999
349.5597, 190.4362
350.0418, 196.4365
350.5239, 203.1458
351.0060, 210.6196
351.4882, 218.7954
351.9703, 227.8940
352.4524, 237.4956
352.9345, 246.8191
353.4166, 255.8979
353.8987, 265.0677
354.3809, 274.7209
354.8630, 284.5333
355.3451, 293.9615
355.8272, 303.2732
356.3093, 311.3820
356.7914, 317.7569
357.2736, 322.2505
357.7557, 324.2741
358.2378, 323.3427
358.7199, 319.9055
359.2020, 313.9972
359.6841, 305.3920
360.1663, 295.6997
360.6484, 285.7933
361.1305, 275.3716
361.6126, 264.0126
362.0947, 250.1491
362.5768, 236.5536
363.0590, 224.1292
363.5411, 212.9294
364.0232, 203.1873
364.5053, 195.7480
364.9874, 189.3826
365.4695, 183.1358
365.9517, 176.1918
366.4338, 170.0338
366.9159, 165.0176
367.3980, 161.0045
367.8801, 157.4255
368.3622, 154.3146
368.8444, 151.5781
369.3265, 149.2102
369.8086, 147.4206
370.2907, 145.6003
370.7728, 143.5792
371.2549, 141.5801
371.7371, 140.0191
372.2192, 139.4052
372.7013, 138.5158
373.1834, 136.9429
373.6655, 134.5839
374.1476, 132.4889
374.6298, 130.7437
375.1119, 129.2172
375.5940, 127.8337
376.0761, 126.6722
376.5582, 125.4335
377.0403, 123.9972
377.5225, 122.4623
378.0046, 121.1735
378.4867, 120.1421
378.9688, 119.4003
379.4509, 119.1531
379.9330, 119.4186
380.4152, 119.1974
380.8973, 118.2907
381.3794, 117.1217
381.8615, 116.4519
382.3436, 116.2623
382.8257, 116.1202
383.3079, 115.7416
383.7900, 115.2450
384.2721, 115.1155
384.7542, 115.3888
385.2363, 115.6397
385.7184, 115.3213
386.2006, 114.6361
386.6827, 114.1179
387.1648, 113.9102
387.6469, 113.9783
388.1290, 114.3821
388.6111, 115.0738
389.0933, 115.7819
389.5754, 116.4157
390.0575, 116.9383
390.5396, 117.3677
391.0217, 117.7912
391.5038, 117.8752
391.9860, 117.1523
392.4681, 115.9497
392.9502, 114.8509
393.4323, 114.0428
393.9144, 113.4707
394.3965, 113.2554
394.8787, 113.4235
395.3608, 113.3286
395.8429, 112.4307
396.3250, 111.3106
396.8071, 110.4846
397.2892, 110.1909
397.7714, 110.0654
398.2535, 110.1507
398.7356, 110.3840
399.2177, 110.4650
399.6998, 110.1340
400.1819, 109.8335
400.6641, 109.7476
401.1462, 109.9092
401.6283, 110.2115
402.1104, 110.5594
402.5925, 111.0905
403.0746, 112.0921
403.5568, 113.9852
404.0389, 115.5750
404.5210, 116.4525
405.0031, 116.6158
405.4852, 117.0833
405.9673, 118.0095
406.4495, 118.9533
406.9316, 119.4700
407.4137, 119.4860
407.8958, 119.6543
408.3779, 120.0237
408.8600, 120.6412
409.3422, 121.8111
409.8243, 123.5775
410.3064, 125.1162
410.7885, 125.7489
411.2706, 125.7107
411.7527, 126.0777
412.2349, 126.8901
412.7170, 128.1236
413.1991, 129.8623
413.6812, 132.0218
414.1633, 134.2918
414.6454, 136.8028
415.1276, 139.1745
415.6097, 140.7851
416.0918, 141.6940
416.5739, 142.4478
417.0560, 143.6938
417.5381, 144.8745
418.0203, 145.3359
418.5024, 144.8913
418.9845, 143.8685
419.4666, 142.5077
419.9487, 140.7115
420.4308, 138.3301
420.9130, 134.5113
421.3951, 130.7425
421.8772, 127.7801
422.3593, 125.7801
422.8414, 123.8130
423.3235, 121.5491
423.8057, 119.2801
424.2878, 117.2648
424.7699, 115.4894
425.2520, 114.0260
425.7341, 113.0132
426.2162, 112.3611
426.6984, 111.7113
427.1805, 111.1863
427.6626, 110.5292
428.1447, 109.5847
428.6268, 108.2182
429.1089, 107.0712
429.5911, 106.1328
430.0732, 105.4111
430.5553, 104.9405
431.0374, 104.7879
431.5195, 104.6098
432.0016, 104.2820
432.4838, 103.8701
432.9659, 103.6811
433.4480, 103.7262
433.9301, 103.9193
434.4122, 104.1820
434.8943, 104.5286
435.3765, 105.0927
435.8586, 105.9230
436.3407, 106.8619
436.8228, 107.7396
437.3049, 108.5545
437.7870, 109.2777
438.2692, 109.8988
438.7513, 110.4296
439.2334, 110.8103
439.7155, 111.0568
440.1976, 111.4183
440.6797, 112.1256
441.1619, 113.0327
441.6440, 113.9548
442.1261, 114.7747
442.6082, 115.7179
443.0903, 116.9309
443.5724, 118.3610
444.0546, 119.8948
444.5367, 121.8832
445.0188, 123.6297
445.5009, 124.5375
445.9830, 124.3599
446.4651, 124.9840
446.9473, 127.1289
447.4294, 130.0331
447.9115, 133.0314
448.3936, 136.5088
448.8757, 139.5615
449.3578, 141.8357
449.8400, 143.6035
450.3221, 146.1283
450.8042, 150.5934
451.2863, 153.9479
451.7684, 155.1442
452.2505, 154.1990
452.7327, 150.6629
453.2148, 143.8086
453.6969, 135.7221
454.1790, 128.8985
454.6611, 123.2923
455.1432, 118.4625
455.6254, 114.3268
456.1075, 110.9265
456.5896, 108.7147
457.0717, 107.6511
457.5538, 106.8538
458.0359, 105.7588
458.5181, 104.4954
459.0002, 103.2590
459.4823, 102.0371
459.9644, 101.1216
460.4465, 100.9903
460.9286, 101.3673
461.4108, 101.7312
461.8929, 101.7865
462.3750, 101.8357
462.8571, 102.2601
463.3392, 102.9413
463.8214, 103.3035
464.3035, 102.4903
464.7856, 101.6660
465.2677, 101.7165
465.7498, 103.1470
466.2319, 104.3995
466.7141, 104.8956
467.1962, 105.0654
467.6783, 105.4666
468.1604, 106.5577
468.6425, 107.4403
469.1246, 107.8724
469.6068, 107.8990
470.0889, 108.0438
470.5710, 108.2081
471.0531, 108.6228
471.5352, 109.5138
472.0173, 111.1482
472.4995, 112.2920
472.9816, 112.8307
473.4637, 113.0127
473.9458, 113.1410
474.4279, 113.2041
474.9100, 113.4020
475.3922, 113.7698
475.8743, 114.3314
476.3564, 115.2424
476.8385, 116.4999
477.3206, 117.7845
477.8027, 119.0958
478.2849, 120.2162
478.7670, 120.4712
479.2491, 119.5652
479.7312, 118.7043
480.2133, 119.4778
480.6954, 121.0760
481.1776, 121.9931
481.6597, 121.0870
482.1418, 119.7045
482.6239, 118.5409
483.1060, 117.5967
483.5881, 116.8287
484.0703, 116.4384
484.5524, 116.0542
485.0345, 115.4352
485.5166, 114.4595
485.9987, 113.4616
486.4808, 112.4109
486.9630, 111.3980
487.4451, 110.5531
487.9272, 110.0322
488.4093, 109.4568
488.8914, 108.6858
489.3735, 107.7631
489.8557, 107.1699
490.3378, 107.0373
490.8199, 106.9224
491.3020, 106.5349
491.7841, 105.8455
492.2662, 105.2297
492.7484, 104.6810
493.2305, 104.2694
493.7126, 104.1473
494.1947, 104.2848
494.6768, 104.4597
495.1589, 104.5151
495.6411, 104.6428
496.1232, 105.3582
496.6053, 106.5644
497.0874, 107.5607
497.5695, 107.5686
498.0516, 107.2952
498.5338, 107.6096
499.0159, 108.6833
499.4980, 109.8844
499.9801, 110.9965
500.4622, 111.9636
500.9443, 112.7427
501.4265, 112.9398
501.9086, 113.3254
502.3907, 114.1875
502.8728, 115.4445
503.3549, 116.7517
503.8370, 118.3110
504.3192, 119.7015
504.8013, 120.7784
505.2834, 121.5167
505.7655, 122.0020
506.2476, 121.9121
506.7297, 121.9296
507.2119, 122.8885
507.6940, 125.1364
508.1761, 126.8596
508.6582, 127.7265
509.1403, 127.9871
509.6224, 128.1569
510.1046, 128.2320
510.5867, 128.3389
511.0688, 128.5112
511.5509, 128.7646
512.0330, 129.1985
512.5151, 129.8195
512.9973, 130.4161
513.4794, 131.0120
513.9615, 131.4187
514.4436, 131.2347
514.9257, 130.0907
515.4078, 128.9988
515.8900, 128.9261
516.3721, 129.4218
516.8542, 129.6182
517.3363, 128.9690
517.8184, 128.1635
518.3005, 127.4326
518.7827, 126.7904
519.2648, 126.2743
519.7469, 126.1024
520.2290, 125.8972
520.7111, 125.4123
521.1932, 124.3066
521.6754, 123.6551
522.1575, 123.6336
522.6396, 123.9139
523.1217, 123.9752
523.6038, 123.6752
524.0859, 123.7232
524.5681, 124.4615
525.0502, 125.5963
525.5323, 126.0180
526.0144, 125.6902
526.4965, 125.3028
526.9786, 125.1222
527.4608, 125.2253
527.9429, 125.9519
528.4250, 127.3685
528.9071, 128.9213
529.3892, 130.3193
529.8713, 131.4649
530.3535, 132.1105
530.8356, 131.7706
531.3177, 131.5387
531.7998, 132.2989
532.2819, 133.7256
532.7640, 135.0007
533.2462, 135.3775
533.7283, 135.9837
534.2104, 137.4326
534.6925, 139.8307
535.1746, 142.0415
535.6567, 143.8277
536.1389, 145.5031
536.6210, 147.2194
537.1031, 149.0962
537.5852, 150.7526
538.0673, 151.9943
538.5494, 153.2158
539.0316, 155.2320
539.5137, 158.2306
539.9958, 160.8328
540.4779, 162.4543
540.9600, 163.4939
541.4421, 165.2070
541.9243, 167.5603
542.4064, 169.9871
542.8885, 171.9252
543.3706, 173.6976
543.8527, 175.9926
544.3348, 178.9074
544.8170, 181.8243
545.2991, 184.2462
545.7812, 186.3774
546.2633, 188.4946
546.7454, 190.5948
547.2275, 192.7805
547.7097, 195.1975
548.1918, 197.7399
548.6739, 200.1197
549.1560, 202.4046
549.6381, 204.4197
550.1202, 206.3082
550.6024, 208.1125
551.0845, 208.6592
551.5666, 207.4832
552.0487, 205.6699
552.5308, 204.0172
553.0129, 202.7092
553.4951, 200.4249
553.9772, 196.9238
554.4593, 192.8429
554.9414, 188.8880
555.4235, 185.0799
555.9056, 181.6575
556.3878, 178.7348
556.8699, 176.2261
557.3520, 174.1737
557.8341, 172.4988
558.3162, 170.9014
558.7983, 169.1960
559.2805, 167.4919
559.7626, 165.8510
560.2447, 164.2860
560.7268, 162.9021
561.2089, 161.6213
561.6910, 160.6042
562.1732, 160.0232
562.6553, 160.5469
563.1374, 160.5169
563.6195, 159.1459
564.1016, 157.2838
564.5837, 156.2095
565.0659, 156.3375
565.5480, 156.4876
566.0301, 156.4715
566.5122, 156.2842
566.9943, 155.8171
567.4764, 154.9981
567.9586, 154.2651
568.4407, 153.9642
568.9228, 154.0055
569.4049, 153.8002
569.8870, 153.3079
570.3691, 152.9204
570.8513, 153.3322
571.3334, 154.0772
571.8155, 154.1955
572.2976, 153.3191
572.7797, 152.1462
573.2618, 151.0713
573.7440, 150.0820
574.2261, 149.1316
574.7082, 148.0322
575.1903, 147.1448
575.6724, 146.9275
576.1545, 147.2412
576.6367, 146.8422
577.1188, 144.9635
577.6009, 143.0252
578.0830, 141.5673
578.5651, 140.6890
579.0472, 139.8547
579.5294, 139.1134
580.0115, 138.3116
580.4936, 137.2195
580.9757, 135.8190
581.4578, 134.6102
581.9399, 133.6944
582.4221, 132.9279
582.9042, 132.1654
583.3863, 131.3772
583.8684, 130.3937
584.3505, 128.7660
584.8326, 127.1971
585.3148, 126.6321
585.7969, 126.8660
586.2790, 126.9854
586.7611, 126.4090
587.2432, 125.6311
587.7253, 124.9749
588.2075, 124.4933
588.6896, 123.9774
589.1717, 123.0770
