##NAMES=Andalusite
##RRUFFID=R060197
##IDEAL CHEMISTRY=Al_2_SiO_5_
##LOCALITY=Brazil
##OWNER=RRUFF
##SOURCE=Marcus Origlieri
##DESCRIPTION=Green colored water worn pebble
##STATUS=The identification of this mineral has been confirmed by X-ray diffraction and chemical analysis
##URL=rruff.info/R060197
##MEASURED CHEMISTRY=(Al_1.97_Mn^3+^_0.03_)_Î£=2_Si_1.00_O_5_
91.62726, 0.0000000E+00
92.10938, 4.136061
92.59149, 4.122256
93.07361, 4.160703
93.55573, 4.242762
94.03784, 4.255324
94.51996, 3.997892
95.00208, 3.564140
95.48419, 3.286965
95.96631, 3.346618
96.44843, 3.619674
96.93054, 3.736904
97.41266, 3.675626
97.89478, 3.574338
98.37689, 3.601831
98.85901, 3.758815
99.34113, 3.941356
99.82324, 4.145590
100.3054, 4.369804
100.7875, 4.457121
101.2696, 4.369940
101.7517, 4.194192
102.2338, 4.105898
102.7159, 4.153148
103.1981, 4.151099
103.6802, 3.955498
104.1623, 3.415919
104.6444, 3.185637
105.1265, 3.405273
105.6086, 3.940011
106.0908, 4.276764
106.5729, 4.279227
107.0550, 4.239836
107.5371, 4.329978
108.0192, 4.677576
108.5013, 4.962428
108.9835, 5.100372
109.4656, 5.099581
109.9477, 5.258696
110.4298, 5.755085
110.9119, 6.314151
111.3940, 6.759174
111.8762, 6.895007
112.3583, 7.104242
112.8404, 7.492131
113.3225, 8.082087
113.8046, 8.609096
114.2867, 8.866448
114.7689, 9.103027
115.2510, 9.585935
115.7331, 10.60179
116.2152, 11.68763
116.6973, 12.69445
117.1794, 13.62083
117.6616, 14.40846
118.1437, 14.94911
118.6258, 15.34949
119.1079, 15.76789
119.5900, 16.31392
120.0721, 16.87696
120.5543, 17.37014
121.0364, 17.74325
121.5185, 18.13462
122.0006, 18.57065
122.4827, 19.08300
122.9648, 19.76810
123.4470, 20.86962
123.9291, 22.09949
124.4112, 23.10959
124.8933, 23.72997
125.3754, 24.24474
125.8575, 24.88249
126.3397, 25.64535
126.8218, 26.55039
127.3039, 27.66153
127.7860, 28.91603
128.2681, 30.18607
128.7502, 31.47528
129.2324, 32.73692
129.7145, 33.92235
130.1966, 35.03814
130.6787, 35.95816
131.1608, 36.48085
131.6429, 36.66507
132.1251, 36.82365
132.6072, 37.05772
133.0893, 37.34378
133.5714, 37.58549
134.0535, 37.76479
134.5356, 37.98274
135.0178, 38.35591
135.4999, 38.88418
135.9820, 39.53312
136.4641, 40.32887
136.9462, 41.27077
137.4283, 42.19827
137.9105, 43.12673
138.3926, 44.02880
138.8747, 44.86242
139.3568, 45.64790
139.8389, 46.31294
140.3210, 46.78150
140.8032, 46.99919
141.2853, 47.32738
141.7674, 47.79030
142.2495, 48.35049
142.7316, 48.89919
143.2137, 49.33572
143.6959, 49.39088
144.1780, 49.13728
144.6601, 48.17898
145.1422, 47.92921
145.6243, 48.73037
146.1064, 50.24641
146.5886, 51.21265
147.0707, 51.21315
147.5528, 51.14643
148.0349, 51.53338
148.5170, 53.08211
148.9991, 53.96930
149.4813, 53.79438
149.9634, 52.70037
150.4455, 51.99961
150.9276, 51.91139
151.4097, 52.04993
151.8918, 52.17827
152.3740, 52.25522
152.8561, 52.36830
153.3382, 52.47438
153.8203, 52.57516
154.3024, 52.86766
154.7845, 53.69902
155.2667, 54.54616
155.7488, 55.02783
156.2309, 54.89494
156.7130, 54.58656
157.1951, 54.05511
157.6772, 53.28271
158.1594, 52.82973
158.6415, 52.99086
159.1236, 53.45525
159.6057, 53.92117
160.0878, 54.31045
160.5699, 54.68562
161.0521, 55.07013
161.5342, 55.46437
162.0163, 55.86091
162.4984, 56.44835
162.9805, 56.99068
163.4626, 57.18887
163.9448, 56.47838
164.4269, 55.74776
164.9090, 55.47866
165.3911, 55.76544
165.8732, 56.22205
166.3553, 56.78729
166.8375, 57.38222
167.3196, 57.87585
167.8017, 58.24186
168.2838, 58.46651
168.7659, 58.46945
169.2480, 58.15812
169.7302, 57.95798
170.2123, 58.27164
170.6944, 58.91931
171.1765, 59.49171
171.6586, 59.72823
172.1407, 59.81483
172.6229, 59.98347
173.1050, 60.34418
173.5871, 60.56406
174.0692, 60.21876
174.5513, 59.46300
175.0334, 58.75775
175.5156, 58.34900
175.9977, 58.15990
176.4798, 58.10511
176.9619, 58.19215
177.4440, 58.35269
177.9261, 58.59692
178.4083, 58.88486
178.8904, 59.03320
179.3725, 58.86292
179.8546, 58.47511
180.3367, 58.04313
180.8188, 57.56118
181.3010, 57.11397
181.7831, 56.72300
182.2652, 56.41766
182.7473, 56.41296
183.2294, 57.06502
183.7115, 58.16207
184.1937, 59.08564
184.6758, 59.67831
185.1579, 60.09472
185.6400, 60.64460
186.1221, 61.31666
186.6042, 61.95412
187.0864, 62.28707
187.5685, 62.42915
188.0506, 62.88921
188.5327, 63.87180
189.0148, 65.15224
189.4969, 66.31141
189.9791, 67.34264
190.4612, 68.29292
190.9433, 69.02487
191.4254, 69.60430
191.9075, 70.69605
192.3896, 72.58848
192.8718, 75.00935
193.3539, 77.30325
193.8360, 79.50528
194.3181, 81.47820
194.8002, 83.44722
195.2823, 85.39912
195.7645, 85.92390
196.2466, 84.39462
196.7287, 81.25729
197.2108, 78.16561
197.6929, 75.07847
198.1750, 72.21480
198.6572, 69.72255
199.1393, 67.60145
199.6214, 66.00011
200.1035, 65.11430
200.5856, 64.80219
201.0677, 64.20434
201.5499, 63.22725
202.0320, 62.25898
202.5141, 61.69539
202.9962, 61.57176
203.4783, 61.59076
203.9604, 61.76975
204.4426, 62.06304
204.9247, 62.01076
205.4068, 61.50318
205.8889, 60.93002
206.3710, 60.67957
206.8531, 60.79197
207.3353, 61.02423
207.8174, 61.32947
208.2995, 61.70837
208.7816, 62.17514
209.2637, 62.73417
209.7458, 63.36161
210.2280, 64.02903
210.7101, 64.72953
211.1922, 65.49309
211.6743, 66.33345
212.1564, 67.24183
212.6385, 68.21685
213.1207, 69.30083
213.6028, 70.36496
214.0849, 71.29919
214.5670, 72.12509
215.0491, 72.74790
215.5313, 73.25066
216.0134, 73.62793
216.4955, 73.17993
216.9776, 71.63944
217.4597, 69.63895
217.9418, 67.77959
218.4240, 66.12267
218.9061, 64.47742
219.3882, 62.68421
219.8703, 60.75206
220.3524, 59.46518
220.8345, 59.03737
221.3167, 59.00575
221.7988, 58.92566
222.2809, 58.77705
222.7630, 58.62835
223.2451, 58.49717
223.7272, 58.38295
224.2094, 58.26259
224.6915, 58.15823
225.1736, 58.02081
225.6557, 57.77591
226.1378, 57.29186
226.6199, 56.96863
227.1021, 56.85830
227.5842, 56.96018
228.0663, 57.39666
228.5484, 58.50132
229.0305, 59.58432
229.5126, 59.93762
229.9948, 59.11783
230.4769, 58.46486
230.9590, 58.17989
231.4411, 58.26484
231.9232, 58.66405
232.4053, 59.61216
232.8875, 60.62922
233.3696, 61.25363
233.8517, 61.18023
234.3338, 61.31991
234.8159, 61.87622
235.2980, 62.84463
235.7802, 63.71107
236.2623, 64.43428
236.7444, 65.10189
237.2265, 65.77663
237.7086, 66.42821
238.1907, 67.16187
238.6729, 68.10296
239.1550, 69.21791
239.6371, 69.90200
240.1192, 70.01241
240.6013, 69.85359
241.0834, 69.60361
241.5656, 69.03353
242.0477, 68.83784
242.5298, 69.18839
243.0119, 70.03512
243.4940, 70.88345
243.9761, 71.77785
244.4583, 72.61970
244.9404, 73.35719
245.4225, 74.06657
245.9046, 74.50056
246.3867, 74.51340
246.8688, 74.19015
247.3510, 74.12410
247.8331, 74.39541
248.3152, 74.82121
248.7973, 75.27402
249.2794, 75.67506
249.7615, 76.29136
250.2437, 77.22914
250.7258, 78.40827
251.2079, 79.40673
251.6900, 80.06103
252.1721, 80.76778
252.6542, 81.76248
253.1364, 83.10147
253.6185, 84.56771
254.1006, 86.08442
254.5827, 87.71678
255.0648, 89.67963
255.5469, 91.94437
256.0291, 94.54811
256.5112, 97.34875
256.9933, 99.80565
257.4754, 103.9637
257.9575, 110.2925
258.4396, 118.2560
258.9218, 126.1476
259.4039, 133.9476
259.8860, 141.8405
260.3681, 150.1677
260.8502, 159.5368
261.3323, 168.0486
261.8145, 177.1826
262.2966, 184.5452
262.7787, 184.4268
263.2608, 174.5273
263.7429, 161.9243
264.2250, 148.5679
264.7072, 133.5512
265.1893, 122.0057
265.6714, 114.5096
266.1535, 110.1106
266.6356, 107.3406
267.1177, 106.4832
267.5999, 106.4420
268.0820, 106.8203
268.5641, 107.5909
269.0462, 109.0439
269.5283, 111.3019
270.0104, 114.1200
270.4926, 117.1021
270.9747, 120.1314
271.4568, 123.8590
271.9389, 128.5860
272.4210, 134.3797
272.9031, 140.3697
273.3853, 146.6437
273.8674, 152.9705
274.3495, 159.0972
274.8316, 165.2332
275.3137, 170.2303
275.7958, 173.6382
276.2780, 175.5344
276.7601, 177.0798
277.2422, 178.0863
277.7243, 179.2138
278.2064, 180.9391
278.6885, 183.1850
279.1707, 186.7202
279.6528, 191.9181
280.1349, 198.5479
280.6170, 205.4452
281.0991, 212.5904
281.5812, 220.1210
282.0634, 227.9049
282.5455, 236.0283
283.0276, 245.0157
283.5097, 255.0453
283.9918, 265.9715
284.4739, 277.3102
284.9561, 289.0357
285.4382, 301.3799
285.9203, 315.1947
286.4024, 330.2072
286.8845, 343.8275
287.3666, 355.3784
287.8488, 365.5134
288.3309, 376.2469
288.8130, 387.6510
289.2951, 396.4959
289.7772, 400.9807
290.2593, 401.1469
290.7415, 397.2456
291.2236, 389.0853
291.7057, 377.5023
292.1878, 363.1609
292.6699, 346.1967
293.1520, 328.1441
293.6342, 309.4719
294.1163, 290.3564
294.5984, 271.8820
295.0805, 253.8352
295.5626, 236.8969
296.0447, 221.5446
296.5269, 207.7661
297.0090, 195.4610
297.4911, 184.7884
297.9732, 175.5686
298.4553, 167.8496
298.9374, 161.7064
299.4196, 156.4222
299.9017, 151.1521
300.3838, 146.1916
300.8659, 142.4296
301.3480, 140.7914
301.8301, 140.3011
302.3123, 139.5678
302.7944, 138.5982
303.2765, 137.7651
303.7586, 137.5595
304.2407, 137.6745
304.7228, 137.5107
305.2050, 136.5598
305.6871, 135.5788
306.1692, 135.2850
306.6513, 135.6638
307.1334, 136.6762
307.6155, 138.6628
308.0977, 141.1544
308.5798, 143.5057
309.0619, 145.3884
309.5440, 147.4656
310.0261, 150.1926
310.5082, 153.5412
310.9904, 157.4110
311.4725, 161.6259
311.9546, 166.4442
312.4367, 172.1616
312.9188, 178.9021
313.4009, 186.2265
313.8831, 193.5924
314.3652, 201.2857
314.8473, 209.9544
315.3294, 220.7091
315.8115, 232.0121
316.2936, 243.1987
316.7758, 254.3151
317.2579, 264.4926
317.7400, 274.2426
318.2221, 282.6409
318.7042, 288.7360
319.1863, 292.9789
319.6685, 294.1822
320.1506, 291.5621
320.6327, 285.0746
321.1148, 276.3703
321.5969, 264.6734
322.0790, 251.6644
322.5612, 238.4769
323.0433, 224.2047
323.5254, 211.1102
324.0075, 199.8938
324.4896, 190.3788
324.9717, 181.5884
325.4539, 173.0787
325.9360, 165.3244
326.4181, 158.6870
326.9002, 153.8540
327.3823, 149.2195
327.8644, 144.3393
328.3466, 139.5388
328.8287, 135.8192
329.3108, 133.7669
329.7929, 132.2840
330.2750, 131.0529
330.7571, 130.1171
331.2393, 129.2997
331.7214, 128.6770
332.2035, 128.1410
332.6856, 127.4998
333.1677, 126.4639
333.6498, 125.7308
334.1320, 125.5038
334.6141, 125.8205
335.0962, 126.3977
335.5783, 127.4610
336.0604, 128.5505
336.5425, 129.1388
337.0247, 128.9628
337.5068, 128.9518
337.9889, 129.2860
338.4710, 129.9429
338.9531, 130.6758
339.4352, 131.3820
339.9174, 132.4096
340.3995, 134.1161
340.8816, 136.6363
341.3637, 139.1068
341.8458, 141.5363
342.3279, 143.7844
342.8101, 145.4787
343.2922, 146.5126
343.7743, 147.6142
344.2564, 149.1902
344.7385, 151.2378
345.2206, 153.4046
345.7028, 155.6708
346.1849, 158.1128
346.6670, 160.8938
347.1491, 164.0015
347.6312, 167.2377
348.1133, 170.2765
348.5955, 173.3805
349.0776, 177.4841
349.5597, 182.6494
350.0418, 188.5557
350.5239, 195.1597
351.0060, 202.2924
351.4882, 209.1463
351.9703, 215.4364
352.4524, 221.3513
352.9345, 226.8743
353.4166, 232.0616
353.8987, 237.4382
354.3809, 243.7933
354.8630, 250.4507
355.3451, 256.3473
355.8272, 261.4404
356.3093, 265.3477
356.7914, 267.9717
357.2736, 269.1901
357.7557, 268.5782
358.2378, 265.4499
358.7199, 260.6849
359.2020, 254.9704
359.6841, 248.3861
360.1663, 240.8521
360.6484, 231.8683
361.1305, 222.0107
361.6126, 212.0886
362.0947, 201.9661
362.5768, 192.2323
363.0590, 182.9268
363.5411, 174.0669
364.0232, 166.0939
364.5053, 159.4233
364.9874, 153.5526
365.4695, 148.0908
365.9517, 142.8232
366.4338, 138.1057
366.9159, 134.0397
367.3980, 130.5648
367.8801, 127.4299
368.3622, 124.6505
368.8444, 122.2007
369.3265, 120.1206
369.8086, 118.7757
370.2907, 117.1174
370.7728, 114.8717
371.2549, 112.4001
371.7371, 110.3056
372.2192, 108.7262
372.7013, 107.3299
373.1834, 106.0616
373.6655, 104.9202
374.1476, 103.8802
374.6298, 103.0812
375.1119, 102.2451
375.5940, 101.0175
376.0761, 99.16967
376.5582, 97.70783
377.0403, 96.83070
377.5225, 96.46680
378.0046, 96.37615
378.4867, 96.67657
378.9688, 96.82522
379.4509, 96.33765
379.9330, 95.20187
380.4152, 94.32256
380.8973, 93.77649
381.3794, 93.50839
381.8615, 93.61103
382.3436, 94.06841
382.8257, 94.25038
383.3079, 93.57722
383.7900, 92.38695
384.2721, 91.92908
384.7542, 92.26296
385.2363, 92.70858
385.7184, 92.50923
386.2006, 91.87959
386.6827, 91.40559
387.1648, 91.32110
387.6469, 91.42863
388.1290, 91.49728
388.6111, 91.53777
389.0933, 91.60835
389.5754, 91.89426
390.0575, 92.17200
390.5396, 92.20008
391.0217, 91.95010
391.5038, 91.40755
391.9860, 90.37343
392.4681, 89.05968
392.9502, 87.83599
393.4323, 86.83140
393.9144, 85.99611
394.3965, 85.35155
394.8787, 84.90000
395.3608, 84.47230
395.8429, 83.96861
396.3250, 83.47508
396.8071, 83.06658
397.2892, 82.87545
397.7714, 82.64421
398.2535, 82.31345
398.7356, 81.89556
399.2177, 81.45715
399.6998, 80.68945
400.1819, 80.16314
400.6641, 80.16314
401.1462, 81.04829
401.6283, 81.72032
402.1104, 82.09203
402.5925, 82.28956
403.0746, 82.50005
403.5568, 82.69756
404.0389, 82.95946
404.5210, 83.35283
405.0031, 83.87774
405.4852, 84.17961
405.9673, 84.16450
406.4495, 84.10354
406.9316, 84.23599
407.4137, 84.58477
407.8958, 84.95975
408.3779, 85.35386
408.8600, 85.74129
409.3422, 86.04762
409.8243, 86.26790
410.3064, 86.47012
410.7885, 86.68080
411.2706, 86.90479
411.7527, 87.11990
412.2349, 87.30339
412.7170, 87.61114
413.1991, 88.40804
413.6812, 89.51885
414.1633, 90.32630
414.6454, 90.39118
415.1276, 90.19627
415.6097, 90.32362
416.0918, 90.75848
416.5739, 91.40361
417.0560, 92.53856
417.5381, 93.70705
418.0203, 94.33730
418.5024, 94.18697
418.9845, 93.82464
419.4666, 93.67494
419.9487, 93.56126
420.4308, 93.15512
420.9130, 91.77779
421.3951, 90.53642
421.8772, 90.15580
422.3593, 90.76760
422.8414, 91.03361
423.3235, 90.28215
423.8057, 89.20662
424.2878, 88.36929
424.7699, 88.13729
425.2520, 87.81420
425.7341, 87.14436
426.2162, 86.29432
426.6984, 85.86321
427.1805, 86.28158
427.6626, 86.62546
428.1447, 86.45406
428.6268, 85.47907
429.1089, 85.09241
429.5911, 85.56384
430.0732, 86.33602
430.5553, 86.67236
431.0374, 86.42525
431.5195, 86.31115
432.0016, 86.45329
432.4838, 86.86093
432.9659, 87.76466
433.4480, 89.28740
433.9301, 90.53349
434.4122, 90.57683
434.8943, 89.62704
435.3765, 89.24516
435.8586, 89.66915
436.3407, 90.42574
436.8228, 90.83481
437.3049, 90.99362
437.7870, 91.30522
438.2692, 92.12107
438.7513, 93.12333
439.2334, 93.86216
439.7155, 94.34724
440.1976, 94.74322
440.6797, 95.00690
441.1619, 95.31171
441.6440, 95.89352
442.1261, 96.92044
442.6082, 98.01487
443.0903, 98.94329
443.5724, 99.77740
444.0546, 100.6719
444.5367, 101.4284
445.0188, 102.4729
445.5009, 104.1720
445.9830, 106.6436
446.4651, 108.8558
446.9473, 110.2682
447.4294, 111.5277
447.9115, 113.1590
448.3936, 115.5252
448.8757, 117.8783
449.3578, 120.3086
449.8400, 122.6795
450.3221, 124.8003
450.8042, 127.3338
451.2863, 128.5571
451.7684, 127.6653
452.2505, 124.4218
452.7327, 120.4112
453.2148, 115.3616
453.6969, 110.0882
454.1790, 105.6178
454.6611, 101.9111
455.1432, 98.86194
455.6254, 96.51624
456.1075, 94.78220
456.5896, 93.60769
457.0717, 92.97335
457.5538, 92.50740
458.0359, 91.84010
458.5181, 91.17014
459.0002, 90.94837
459.4823, 91.22176
459.9644, 91.89336
460.4465, 93.30868
460.9286, 95.01685
461.4108, 96.12287
461.8929, 95.70378
462.3750, 95.05892
462.8571, 95.17314
463.3392, 95.92216
463.8214, 96.72025
464.3035, 97.33945
464.7856, 97.88887
465.2677, 98.44192
465.7498, 99.01484
466.2319, 99.57985
466.7141, 100.0775
467.1962, 100.5781
467.6783, 101.1786
468.1604, 102.1289
468.6425, 102.9056
469.1246, 103.3343
469.6068, 103.4532
470.0889, 103.7334
470.5710, 104.2489
471.0531, 104.8228
471.5352, 105.3730
472.0173, 105.9212
472.4995, 106.3987
472.9816, 106.8391
473.4637, 107.1607
473.9458, 107.1596
474.4279, 106.8109
474.9100, 106.5558
475.3922, 106.5738
475.8743, 106.7700
476.3564, 106.8683
476.8385, 106.8697
477.3206, 106.8164
477.8027, 106.8106
478.2849, 106.7639
478.7670, 106.4027
479.2491, 105.6024
479.7312, 104.8750
480.2133, 104.8384
480.6954, 105.2099
481.1776, 105.4643
481.6597, 105.6234
482.1418, 105.3849
482.6239, 104.3530
483.1060, 102.6337
483.5881, 101.0110
484.0703, 99.81600
484.5524, 98.78359
485.0345, 97.74828
485.5166, 96.66781
485.9987, 95.65156
486.4808, 94.87759
486.9630, 94.13208
487.4451, 93.11849
487.9272, 91.53934
488.4093, 90.11695
488.8914, 89.01367
489.3735, 88.18371
489.8557, 87.28432
490.3378, 86.24406
490.8199, 85.26844
491.3020, 84.48457
491.7841, 83.89366
492.2662, 83.45477
492.7484, 83.21148
493.2305, 83.00841
493.7126, 82.58411
494.1947, 81.97559
494.6768, 81.51446
495.1589, 81.41244
495.6411, 81.42505
496.1232, 80.99879
496.6053, 80.21357
497.0874, 79.64009
497.5695, 79.81848
498.0516, 80.31184
498.5338, 80.61732
499.0159, 80.65047
499.4980, 80.63613
499.9801, 80.65516
500.4622, 80.72393
500.9443, 80.86330
501.4265, 80.92944
501.9086, 81.22338
502.3907, 82.05428
502.8728, 83.24849
503.3549, 84.09681
503.8370, 84.21940
504.3192, 84.25240
504.8013, 84.41159
505.2834, 84.71214
505.7655, 85.11506
506.2476, 85.84103
506.7297, 86.42158
507.2119, 86.22128
507.6940, 84.88551
508.1761, 84.31339
508.6582, 85.03096
509.1403, 86.41855
509.6224, 86.93037
510.1046, 86.54548
510.5867, 86.09035
511.0688, 85.96059
511.5509, 86.08176
512.0330, 86.26405
512.5151, 86.50925
512.9973, 86.74931
513.4794, 87.05016
513.9615, 87.27858
514.4436, 87.19975
514.9257, 86.68871
515.4078, 86.03294
515.8900, 85.31746
516.3721, 84.62116
516.8542, 84.09035
517.3363, 83.93591
517.8184, 83.80710
518.3005, 83.50806
518.7827, 83.04051
519.2648, 82.71573
519.7469, 82.85078
520.2290, 82.94033
520.7111, 82.68023
521.1932, 81.78040
521.6754, 81.14144
522.1575, 80.84344
522.6396, 80.73352
523.1217, 80.58627
523.6038, 80.36502
524.0859, 80.24141
524.5681, 80.26771
525.0502, 80.41645
525.5323, 80.63042
526.0144, 80.91658
526.4965, 81.14966
526.9786, 81.19625
527.4608, 81.13015
527.9429, 81.15186
528.4250, 81.27123
528.9071, 81.50507
529.3892, 81.97547
529.8713, 82.55003
530.3535, 82.98583
530.8356, 83.08067
531.3177, 83.21965
531.7998, 83.72601
532.2819, 84.47442
532.7640, 85.14022
533.2462, 85.60214
533.7283, 85.97859
534.2104, 86.29630
534.6925, 86.54579
535.1746, 86.83806
535.6567, 86.98972
536.1389, 87.34077
536.6210, 88.11153
537.1031, 89.53813
537.5852, 90.85213
538.0673, 91.93766
538.5494, 93.01678
539.0316, 94.56359
539.5137, 96.69853
539.9958, 98.52703
540.4779, 99.56207
540.9600, 100.2284
541.4421, 101.9821
541.9243, 104.7695
542.4064, 107.5704
542.8885, 109.6326
543.3706, 111.2252
543.8527, 112.6662
544.3348, 113.9354
544.8170, 115.6490
545.2991, 118.9501
545.7812, 122.7355
546.2633, 125.6459
546.7454, 126.7093
547.2275, 127.5430
547.7097, 129.0894
548.1918, 130.9003
548.6739, 131.9101
549.1560, 131.5139
549.6381, 130.6884
550.1202, 129.7533
550.6024, 128.7304
551.0845, 127.2033
551.5666, 125.0760
552.0487, 122.5634
552.5308, 119.7778
553.0129, 116.6561
553.4951, 113.4726
553.9772, 110.1396
554.4593, 106.9582
554.9414, 104.4232
555.4235, 102.4918
555.9056, 100.6356
556.3878, 98.62733
556.8699, 96.71803
557.3520, 95.48009
557.8341, 94.78698
558.3162, 94.11723
558.7983, 93.02170
559.2805, 91.89510
559.7626, 91.09339
560.2447, 90.64951
560.7268, 90.44213
561.2089, 90.60627
561.6910, 90.86674
562.1732, 90.98806
562.6553, 90.65807
563.1374, 90.60928
563.6195, 91.19138
564.1016, 92.02687
564.5837, 92.54903
565.0659, 92.58279
565.5480, 92.63451
566.0301, 92.81930
566.5122, 93.10551
566.9943, 93.29416
567.4764, 93.33941
567.9586, 93.50008
568.4407, 94.02560
568.9228, 94.82674
569.4049, 95.37455
569.8870, 95.63505
570.3691, 95.86472
570.8513, 96.40280
571.3334, 97.07344
571.8155, 97.48078
572.2976, 97.43833
572.7797, 97.36767
573.2618, 97.71976
573.7440, 98.24722
574.2261, 98.51261
574.7082, 97.86954
575.1903, 97.40604
575.6724, 97.64207
576.1545, 98.50728
576.6367, 99.32939
577.1188, 100.2243
577.6009, 100.8765
578.0830, 101.0867
578.5651, 100.7140
579.0472, 100.6266
579.5294, 100.8393
580.0115, 101.3146
580.4936, 102.1447
580.9757, 103.3497
581.4578, 104.2294
581.9399, 104.6092
582.4221, 104.8035
582.9042, 105.2484
583.3863, 105.9216
583.8684, 106.7519
584.3505, 107.7289
584.8326, 108.8309
585.3148, 110.1712
585.7969, 111.6734
586.2790, 112.9332
586.7611, 113.4367
587.2432, 113.8580
587.7253, 114.6968
588.2075, 116.0997
588.6896, 117.3038
589.1717, 117.8863
