##NAMES=Andalusite
##RRUFFID=R050561
##IDEAL CHEMISTRY=Al_2_SiO_5_
##LOCALITY=Cargo Muchacho Mountain, Imperial County, California
##OWNER=RRUFF
##SOURCE=Dave Bunk Minerals
##DESCRIPTION=Brown coarsely crystalline massive
##STATUS=The identification of this mineral has been confirmed by X-ray diffraction and chemical analysis
##URL=rruff.info/R050561
##MEASURED CHEMISTRY=(Al_1.98_Fe^3+^_0.02_)_Î£=2_Si_1.00_O_5_
92.20605, 110.9775
92.68817, 111.9830
93.17029, 113.1879
93.65240, 112.9840
94.13452, 112.4075
94.61664, 111.7109
95.09875, 111.1308
95.58087, 110.6026
96.06299, 109.6286
96.54510, 107.6996
97.02722, 106.0725
97.50933, 105.0838
97.99145, 104.5460
98.47356, 104.2431
98.95568, 104.0051
99.43780, 103.6880
99.91991, 102.9341
100.4020, 101.3292
100.8841, 99.81890
101.3663, 98.75053
101.8484, 98.10997
102.3305, 97.69435
102.8126, 97.30237
103.2947, 96.91092
103.7768, 96.72491
104.2590, 97.01112
104.7411, 97.36867
105.2232, 97.30914
105.7053, 96.66527
106.1874, 95.85701
106.6695, 95.43710
107.1517, 95.36597
107.6338, 95.28568
108.1159, 95.02821
108.5980, 94.61863
109.0801, 94.16166
109.5622, 93.44930
110.0444, 92.92824
110.5265, 93.07603
111.0086, 93.94648
111.4907, 94.89971
111.9728, 95.16114
112.4549, 94.50880
112.9371, 93.91216
113.4192, 93.35143
113.9013, 93.01006
114.3834, 93.16212
114.8655, 93.90968
115.3476, 94.94495
115.8298, 95.43140
116.3119, 94.83968
116.7940, 94.29646
117.2761, 93.81206
117.7582, 93.46326
118.2403, 93.36233
118.7225, 93.59171
119.2046, 94.11511
119.6867, 94.50896
120.1688, 94.80651
120.6509, 94.97659
121.1330, 94.88630
121.6152, 94.61393
122.0973, 94.44003
122.5794, 94.61132
123.0615, 95.13258
123.5436, 95.54905
124.0257, 95.85481
124.5079, 96.05944
124.9900, 96.12048
125.4721, 96.01008
125.9542, 95.91163
126.4363, 96.04251
126.9184, 96.32207
127.4006, 96.57494
127.8827, 96.73758
128.3648, 96.82310
128.8469, 96.87478
129.3290, 96.92648
129.8111, 96.88970
130.2932, 96.71253
130.7754, 96.41427
131.2575, 96.06360
131.7396, 95.65441
132.2217, 95.15728
132.7038, 94.87531
133.1859, 95.05264
133.6681, 95.27624
134.1502, 95.38163
134.6323, 95.34839
135.1144, 95.25004
135.5965, 95.15484
136.0786, 94.93822
136.5608, 95.01176
137.0429, 95.61467
137.5250, 96.30912
138.0071, 96.77488
138.4892, 96.91420
138.9713, 96.83435
139.4535, 96.75381
139.9356, 96.84281
140.4177, 96.67963
140.8998, 96.04530
141.3819, 95.18875
141.8640, 94.43603
142.3462, 93.92870
142.8283, 93.61646
143.3104, 93.36183
143.7925, 93.09927
144.2746, 92.97295
144.7567, 93.13661
145.2388, 93.52288
145.7210, 93.84884
146.2031, 93.98293
146.6852, 93.95731
147.1673, 93.87553
147.6494, 93.72836
148.1315, 93.54379
148.6137, 93.37373
149.0958, 93.23427
149.5779, 92.99133
150.0600, 92.19042
150.5421, 91.38219
151.0242, 91.22146
151.5064, 92.14176
151.9885, 93.52987
152.4706, 94.02503
152.9527, 92.97785
153.4348, 92.25953
153.9169, 92.86507
154.3991, 93.97028
154.8812, 94.49662
155.3633, 93.72386
155.8454, 91.94569
156.3275, 90.97159
156.8096, 91.76698
157.2918, 92.43381
157.7739, 92.50581
158.2560, 92.17680
158.7381, 91.82878
159.2202, 91.74764
159.7023, 91.94209
160.1845, 92.07563
160.6666, 92.17620
161.1487, 92.20162
161.6308, 92.07372
162.1129, 91.83640
162.5950, 91.63361
163.0772, 91.61089
163.5593, 91.80341
164.0414, 91.83224
164.5235, 91.46270
165.0056, 91.11772
165.4877, 91.16961
165.9698, 91.63400
166.4520, 92.11401
166.9341, 92.13766
167.4162, 91.70670
167.8983, 91.55190
168.3804, 92.00761
168.8625, 92.67793
169.3447, 93.08570
169.8268, 93.15316
170.3089, 93.01469
170.7910, 92.65115
171.2731, 92.13899
171.7552, 91.80673
172.2374, 91.95533
172.7195, 92.39352
173.2016, 92.52859
173.6837, 92.06454
174.1658, 91.64713
174.6479, 91.79366
175.1301, 92.39034
175.6122, 93.00658
176.0943, 93.39104
176.5764, 93.54710
177.0585, 93.51092
177.5406, 93.04006
178.0228, 92.59483
178.5049, 92.34288
178.9870, 92.30291
179.4691, 92.46278
179.9512, 92.88560
180.4333, 93.66984
180.9155, 94.26427
181.3976, 94.70872
181.8797, 94.93999
182.3618, 94.70773
182.8439, 94.11190
183.3260, 93.61082
183.8082, 93.83248
184.2903, 95.21397
184.7724, 96.18439
185.2545, 96.55337
185.7366, 96.74575
186.2187, 97.04805
186.7009, 97.50379
187.1830, 97.93279
187.6651, 98.05306
188.1472, 97.56889
188.6293, 97.40414
189.1114, 97.76089
189.5936, 98.30933
190.0757, 98.83457
190.5578, 99.26895
191.0399, 99.54671
191.5220, 99.50410
192.0041, 98.93875
192.4863, 98.62046
192.9684, 98.84747
193.4505, 99.29527
193.9326, 99.51064
194.4147, 99.32825
194.8968, 99.02749
195.3790, 99.08876
195.8611, 99.50614
196.3432, 100.0115
196.8253, 100.5869
197.3074, 101.1916
197.7895, 101.7295
198.2717, 102.1525
198.7538, 102.5394
199.2359, 103.0030
199.7180, 103.5474
200.2001, 104.0720
200.6822, 104.3537
201.1644, 104.5089
201.6465, 105.1635
202.1286, 106.8336
202.6107, 108.6380
203.0928, 109.8495
203.5749, 110.4639
204.0571, 110.6513
204.5392, 110.4871
205.0213, 109.9743
205.5034, 109.2504
205.9855, 108.2307
206.4676, 107.0749
206.9497, 105.7582
207.4319, 104.3264
207.9140, 103.0633
208.3961, 102.3002
208.8782, 102.1026
209.3603, 101.9945
209.8424, 102.0482
210.3246, 102.0972
210.8067, 101.9506
211.2888, 101.6435
211.7709, 101.4671
212.2530, 101.8691
212.7351, 103.1466
213.2173, 104.0474
213.6994, 104.5423
214.1815, 104.7047
214.6636, 104.3487
215.1457, 103.5666
215.6278, 102.8084
216.1100, 102.6964
216.5921, 103.5658
217.0742, 104.2806
217.5563, 104.8748
218.0384, 105.3310
218.5205, 105.5852
219.0027, 105.6543
219.4848, 105.6675
219.9669, 105.7960
220.4490, 106.0881
220.9311, 106.3917
221.4132, 106.7432
221.8954, 107.0824
222.3775, 107.3686
222.8596, 107.5937
223.3417, 107.7658
223.8238, 107.8774
224.3059, 107.8484
224.7881, 108.0163
225.2702, 108.4353
225.7523, 109.0138
226.2344, 109.7843
226.7165, 110.7340
227.1986, 111.5773
227.6807, 111.9064
228.1629, 111.5730
228.6450, 111.4503
229.1271, 111.7323
229.6092, 112.1769
230.0913, 112.5543
230.5734, 112.8232
231.0556, 113.0350
231.5377, 113.2609
232.0198, 113.5012
232.5019, 113.6121
232.9840, 113.3734
233.4661, 113.0754
233.9483, 113.0139
234.4304, 113.2086
234.9125, 113.7574
235.3946, 115.0684
235.8767, 116.9371
236.3588, 118.4664
236.8410, 119.4184
237.3231, 119.9021
237.8052, 119.9469
238.2873, 119.4116
238.7694, 118.9471
239.2515, 119.3406
239.7337, 120.2266
240.2158, 120.7877
240.6979, 120.5005
241.1800, 119.7702
241.6621, 119.4154
242.1442, 119.6214
242.6264, 119.7155
243.1085, 119.1346
243.5906, 118.1762
244.0727, 117.3025
244.5548, 116.7280
245.0369, 116.3458
245.5191, 115.9222
246.0012, 115.4197
246.4833, 114.9691
246.9654, 114.6789
247.4475, 114.4641
247.9296, 114.2036
248.4117, 113.8145
248.8939, 113.3807
249.3760, 113.0968
249.8581, 113.0290
250.3402, 112.9776
250.8223, 112.8563
251.3044, 112.7154
251.7866, 112.6080
252.2687, 112.5543
252.7508, 112.5504
253.2329, 112.6330
253.7150, 112.9794
254.1971, 113.0266
254.6793, 112.2470
255.1614, 111.3269
255.6435, 111.0035
256.1256, 111.5973
256.6077, 112.6624
257.0898, 113.2771
257.5720, 113.2953
258.0541, 113.1021
258.5362, 112.4842
259.0183, 111.8723
259.5004, 111.7223
259.9825, 112.1783
260.4647, 112.8701
260.9468, 113.0155
261.4289, 111.9704
261.9110, 111.6827
262.3931, 112.5999
262.8752, 113.9866
263.3574, 115.3557
263.8395, 116.5545
264.3216, 117.6203
264.8037, 118.6246
265.2858, 119.5985
265.7679, 120.4324
266.2501, 120.7543
266.7322, 121.2126
267.2143, 122.2466
267.6964, 123.9282
268.1785, 126.0529
268.6606, 128.3892
269.1428, 131.0574
269.6249, 133.6077
270.1070, 135.8256
270.5891, 138.1124
271.0712, 140.8121
271.5533, 143.8870
272.0355, 146.9441
272.5176, 149.5154
272.9997, 151.3873
273.4818, 153.6315
273.9639, 156.6467
274.4460, 159.6071
274.9282, 161.9568
275.4103, 163.7856
275.8924, 165.5990
276.3745, 167.8750
276.8566, 170.6905
277.3387, 173.2681
277.8208, 175.1864
278.3029, 177.3306
278.7851, 180.0928
279.2672, 183.4313
279.7493, 187.1149
280.2314, 190.9975
280.7135, 195.0683
281.1956, 199.2518
281.6778, 203.4154
282.1599, 207.8144
282.6420, 212.3003
283.1241, 217.0870
283.6062, 222.6575
284.0883, 229.3334
284.5705, 236.9933
285.0526, 244.6880
285.5347, 252.6351
286.0168, 260.4030
286.4989, 268.0035
286.9810, 275.3409
287.4632, 282.2943
287.9453, 288.8335
288.4274, 294.8899
288.9095, 300.3702
289.3916, 306.8090
289.8737, 310.5182
290.3559, 310.6475
290.8380, 307.7549
291.3201, 302.3916
291.8022, 294.7153
292.2843, 285.0785
292.7664, 273.6808
293.2486, 259.6900
293.7307, 246.0635
294.2128, 232.6546
294.6949, 219.9474
295.1770, 208.4563
295.6591, 198.2547
296.1413, 189.2404
296.6234, 181.3046
297.1055, 174.5798
297.5876, 168.8070
298.0697, 164.0356
298.5518, 160.1800
299.0340, 157.3511
299.5161, 155.5175
299.9982, 154.1627
300.4803, 152.7897
300.9624, 151.4005
301.4445, 150.6279
301.9267, 150.9960
302.4088, 151.5442
302.8909, 151.5802
303.3730, 151.1518
303.8551, 150.7870
304.3372, 150.8250
304.8194, 151.2725
305.3015, 151.9597
305.7836, 153.1140
306.2657, 154.2587
306.7478, 154.9248
307.2299, 155.3529
307.7121, 156.2607
308.1942, 158.0229
308.6763, 160.5287
309.1584, 163.3959
309.6405, 166.7532
310.1227, 170.1926
310.6048, 173.5138
311.0869, 176.8312
311.5690, 180.2122
312.0511, 183.5882
312.5332, 187.3104
313.0154, 192.1625
313.4975, 198.3783
313.9796, 204.7774
314.4617, 210.9584
314.9438, 217.2554
315.4259, 224.2093
315.9081, 231.9438
316.3902, 240.1084
316.8723, 248.4306
317.3544, 257.0154
317.8365, 265.1606
318.3186, 273.9124
318.8007, 281.5220
319.2828, 286.8468
319.7650, 289.6861
320.2471, 289.3808
320.7292, 284.9619
321.2113, 276.1831
321.6934, 266.7780
322.1755, 256.1902
322.6577, 245.4369
323.1398, 234.8762
323.6219, 224.6439
324.1040, 215.0069
324.5861, 206.3219
325.0682, 198.3341
325.5504, 190.0640
326.0325, 180.4903
326.5146, 171.7604
326.9967, 164.6234
327.4788, 158.8578
327.9609, 153.9819
328.4431, 149.8269
328.9252, 146.3582
329.4073, 143.5375
329.8894, 141.2742
330.3715, 139.6918
330.8536, 139.4674
331.3358, 139.7035
331.8179, 139.1586
332.3000, 137.4987
332.7821, 135.4675
333.2642, 133.9631
333.7463, 133.0262
334.2285, 132.7029
334.7106, 133.4247
335.1927, 134.4726
335.6748, 135.3277
336.1569, 135.9228
336.6390, 136.3872
337.1212, 136.7588
337.6033, 137.0372
338.0854, 137.8164
338.5675, 139.6927
339.0496, 141.4461
339.5317, 142.3346
340.0139, 142.5799
340.4960, 142.8217
340.9781, 143.3954
341.4602, 144.3117
341.9423, 145.6721
342.4244, 148.0589
342.9066, 150.1185
343.3887, 151.3624
343.8708, 152.1713
344.3529, 153.0322
344.8350, 154.1237
345.3171, 155.4345
345.7993, 156.9436
346.2814, 158.7307
346.7635, 160.6194
347.2456, 162.3726
347.7277, 164.3586
348.2098, 166.9452
348.6920, 170.1505
349.1741, 173.7039
349.6562, 177.2120
350.1383, 180.5341
350.6204, 184.7269
351.1025, 190.7449
351.5847, 196.6061
352.0668, 201.0833
352.5489, 204.4559
353.0310, 207.7856
353.5131, 211.8238
353.9952, 216.4781
354.4774, 220.8907
354.9595, 225.4385
355.4416, 229.2993
355.9237, 232.4039
356.4058, 234.6914
356.8879, 236.2679
357.3701, 237.1733
357.8522, 237.0303
358.3343, 234.8938
358.8164, 229.3127
359.2985, 223.8264
359.7806, 218.8046
360.2627, 213.7012
360.7448, 208.1108
361.2270, 201.9456
361.7091, 195.4221
362.1912, 188.6190
362.6733, 181.2403
363.1554, 174.9346
363.6375, 170.0832
364.1197, 165.8667
364.6018, 162.1148
365.0839, 158.7195
365.5660, 155.6212
366.0481, 152.7622
366.5302, 150.1539
367.0124, 147.8857
367.4945, 145.9757
367.9766, 144.4403
368.4587, 143.4605
368.9408, 142.7703
369.4229, 142.1195
369.9051, 141.4115
370.3872, 140.5880
370.8693, 139.4420
371.3514, 137.6703
371.8335, 136.3821
372.3156, 136.1416
372.7978, 136.0662
373.2799, 135.6582
373.7620, 134.8416
374.2441, 133.7689
374.7262, 132.4335
375.2083, 130.8054
375.6905, 129.6813
376.1726, 129.5681
376.6547, 129.4018
377.1368, 128.6154
377.6189, 127.4349
378.1010, 126.3473
378.5832, 125.5763
379.0653, 125.1071
379.5474, 124.9704
380.0295, 125.3404
380.5116, 125.5805
380.9937, 125.3901
381.4759, 124.9861
381.9580, 124.5614
382.4401, 124.1679
382.9222, 123.7243
383.4043, 123.0658
383.8864, 122.1944
384.3686, 121.5202
384.8507, 121.1114
385.3328, 120.9763
385.8149, 121.2509
386.2970, 121.8654
386.7791, 122.2440
387.2613, 121.7592
387.7434, 120.8435
388.2255, 120.6198
388.7076, 121.3414
389.1897, 122.1328
389.6718, 122.2753
390.1540, 122.0503
390.6361, 122.0355
391.1182, 122.6720
391.6003, 123.2172
392.0824, 122.8063
392.5645, 121.5560
393.0467, 120.5272
393.5288, 120.2223
394.0109, 120.3233
394.4930, 120.1993
394.9751, 119.7587
395.4572, 119.4626
395.9394, 119.4430
396.4215, 119.6970
396.9036, 120.3018
397.3857, 121.3079
397.8678, 122.3823
398.3499, 123.1670
398.8321, 123.6376
399.3142, 124.1926
399.7963, 124.8740
400.2784, 125.6285
400.7605, 126.5991
401.2426, 127.6646
401.7247, 128.2451
402.2068, 127.8217
402.6890, 126.8107
403.1711, 127.1355
403.6532, 129.9985
404.1353, 132.4771
404.6174, 134.0382
405.0995, 134.9509
405.5817, 135.3184
406.0638, 135.2154
406.5459, 135.1552
407.0280, 135.9198
407.5101, 137.9264
407.9922, 139.4308
408.4744, 139.9129
408.9565, 140.4179
409.4386, 141.6335
409.9207, 143.4075
410.4028, 145.1250
410.8849, 146.3429
411.3671, 147.1427
411.8492, 148.1889
412.3313, 149.5493
412.8134, 151.0999
413.2955, 153.0264
413.7776, 155.0356
414.2598, 156.8106
414.7419, 158.2519
415.2240, 159.5195
415.7061, 160.9281
416.1882, 162.6776
416.6703, 163.8810
417.1525, 164.6509
417.6346, 164.7040
418.1167, 163.7714
418.5988, 161.9535
419.0809, 159.5845
419.5630, 156.7902
420.0452, 153.6516
420.5273, 150.4109
421.0094, 146.9652
421.4915, 143.6777
421.9736, 140.5463
422.4557, 137.7118
422.9379, 135.4058
423.4200, 133.7212
423.9021, 132.3978
424.3842, 131.1974
424.8663, 130.1232
425.3484, 129.2099
425.8306, 128.5258
426.3127, 127.9352
426.7948, 127.3342
427.2769, 126.7189
427.7590, 126.0509
428.2411, 125.1442
428.7233, 124.2428
429.2054, 123.7910
429.6875, 123.8280
430.1696, 123.9144
430.6517, 123.7615
431.1339, 123.4724
431.6160, 123.3671
432.0981, 123.5631
432.5802, 123.7583
433.0623, 123.7165
433.5444, 123.5745
434.0266, 123.6613
434.5087, 124.0972
434.9908, 124.6324
435.4729, 124.9315
435.9550, 124.9389
436.4371, 124.9258
436.9193, 124.8506
437.4014, 124.7988
437.8835, 124.8758
438.3656, 125.0436
438.8477, 125.1170
439.3298, 124.9385
439.8120, 124.6098
440.2941, 124.6876
440.7762, 125.6571
441.2583, 126.4359
441.7404, 126.6977
442.2225, 126.8283
442.7046, 127.2291
443.1867, 127.9921
443.6689, 128.9195
444.1510, 129.7401
444.6331, 130.3953
445.1152, 131.2490
445.5973, 132.5254
446.0794, 133.7772
446.5616, 134.5577
447.0437, 135.2259
447.5258, 136.5276
448.0079, 138.9509
448.4900, 142.0338
448.9721, 144.6595
449.4543, 146.7488
449.9364, 148.6003
450.4185, 150.8253
450.9006, 152.4715
451.3827, 152.8929
451.8648, 152.0050
452.3470, 149.9981
452.8291, 146.4924
453.3112, 141.8703
453.7933, 137.8604
454.2754, 134.5751
454.7575, 131.9050
455.2397, 129.8316
455.7218, 128.3196
456.2039, 127.4568
456.6860, 127.4901
457.1681, 127.8593
457.6502, 128.1895
458.1324, 128.4765
458.6145, 128.6752
459.0966, 128.7182
459.5787, 128.7756
460.0608, 129.2371
460.5429, 130.1810
461.0251, 130.6743
461.5072, 129.8984
461.9893, 129.0530
462.4714, 129.4882
462.9535, 131.0603
463.4356, 132.3680
463.9178, 132.3874
464.3999, 131.4362
464.8820, 131.2805
465.3641, 132.8166
465.8462, 133.9453
466.3283, 134.0725
466.8105, 133.8117
467.2926, 133.7618
467.7747, 134.0865
468.2568, 134.6875
468.7389, 135.5038
469.2210, 136.6247
469.7032, 137.4022
470.1853, 137.4249
470.6674, 137.5280
471.1495, 137.9850
471.6316, 138.6837
472.1137, 139.4604
472.5959, 140.2570
473.0780, 140.9704
473.5601, 141.2973
474.0422, 141.0561
474.5243, 141.2084
475.0064, 142.2482
475.4886, 143.4823
475.9707, 144.6971
476.4528, 145.7835
476.9349, 146.4174
477.4170, 145.9073
477.8991, 144.8988
478.3813, 145.0123
478.8634, 146.4345
479.3455, 147.8913
479.8276, 148.9549
480.3097, 149.5187
480.7918, 149.3987
481.2740, 148.3846
481.7561, 147.2692
482.2382, 146.2998
482.7203, 145.5363
483.2024, 145.1464
483.6845, 145.1753
484.1666, 145.3462
484.6487, 145.4155
485.1309, 145.3771
485.6130, 145.3353
486.0951, 145.3656
486.5772, 145.3129
487.0593, 145.2163
487.5414, 144.9689
488.0236, 144.3396
488.5057, 143.2360
488.9878, 141.8742
489.4699, 140.6296
489.9520, 139.4769
490.4341, 138.4939
490.9163, 137.7225
491.3984, 137.0521
491.8805, 136.5125
492.3626, 136.0303
492.8447, 135.4356
493.3268, 134.5902
493.8090, 133.6355
494.2911, 133.0272
494.7732, 132.9321
495.2553, 132.7357
495.7374, 132.0516
496.2195, 131.3898
496.7017, 131.2096
497.1838, 131.5009
497.6659, 131.7382
498.1480, 131.4345
498.6301, 130.8043
499.1122, 130.4749
499.5944, 130.5251
500.0765, 130.6016
500.5586, 130.5256
501.0407, 130.3271
501.5228, 130.0319
502.0049, 129.4603
502.4871, 129.1841
502.9692, 129.8210
503.4513, 130.8613
503.9334, 131.3005
504.4155, 130.9126
504.8976, 130.3785
505.3798, 130.3808
505.8619, 130.9609
506.3440, 131.3879
506.8261, 131.6101
507.3082, 131.7580
507.7903, 131.9484
508.2725, 132.0778
508.7546, 131.8837
509.2367, 131.2876
509.7188, 130.6521
510.2009, 130.6169
510.6830, 131.4624
511.1652, 131.9598
511.6473, 131.7763
512.1294, 131.5722
512.6115, 131.6430
513.0936, 131.8807
513.5757, 132.0333
514.0579, 131.9621
514.5400, 131.7735
515.0221, 131.6620
515.5042, 131.6381
515.9863, 131.6113
516.4684, 131.6008
516.9506, 131.5357
517.4327, 131.3860
517.9148, 131.1453
518.3969, 130.7762
518.8790, 130.1244
519.3611, 129.4120
519.8433, 128.8573
520.3254, 128.4757
520.8075, 128.4408
521.2896, 128.9817
521.7717, 129.7512
522.2538, 129.8565
522.7360, 129.0213
523.2181, 128.4459
523.7002, 128.4102
524.1823, 128.6604
524.6644, 129.1068
525.1465, 129.6582
525.6287, 130.0741
526.1108, 130.1629
526.5929, 129.9887
527.0750, 129.8748
527.5571, 129.6155
528.0392, 129.7442
528.5214, 130.7966
529.0035, 131.8978
529.4856, 132.2340
529.9677, 131.7860
530.4498, 131.2191
530.9319, 131.1418
531.4141, 131.4591
531.8962, 131.5101
532.3783, 131.0185
532.8604, 130.9035
533.3425, 131.9436
533.8246, 133.3818
534.3068, 134.5012
534.7889, 135.1894
535.2710, 135.5967
535.7531, 135.6603
536.2352, 135.5468
536.7173, 135.6142
537.1995, 135.9126
537.6816, 136.3281
538.1637, 136.7825
538.6458, 137.2859
539.1279, 137.8677
539.6100, 138.3504
540.0922, 139.1211
540.5743, 140.7212
541.0564, 142.4741
541.5385, 143.3772
542.0206, 143.3090
542.5027, 143.1479
542.9849, 143.8579
543.4670, 145.4684
543.9491, 146.6276
544.4312, 146.5066
544.9133, 146.9262
545.3954, 148.8019
545.8775, 151.1187
546.3596, 152.6531
546.8417, 153.1172
547.3239, 153.3186
547.8060, 154.1560
548.2881, 155.5676
548.7702, 156.8897
549.2523, 158.3315
549.7344, 159.1676
550.2166, 158.3590
550.6987, 156.7915
551.1808, 155.9102
551.6629, 156.3722
552.1450, 156.5704
552.6271, 155.3153
553.1093, 153.1094
553.5914, 150.9031
554.0735, 148.8816
554.5556, 147.0330
555.0377, 145.3835
555.5198, 143.9237
556.0020, 142.3723
556.4841, 140.3038
556.9662, 138.6663
557.4483, 137.8285
557.9304, 137.4918
558.4125, 137.4754
558.8947, 137.6509
559.3768, 137.6442
559.8589, 136.9167
560.3410, 135.4438
560.8231, 134.5626
561.3052, 134.7224
561.7874, 134.8454
562.2695, 134.6077
562.7516, 134.1427
563.2337, 133.5146
563.7158, 132.7210
564.1979, 132.1007
564.6801, 132.0262
565.1622, 132.3642
565.6443, 132.7145
566.1264, 133.0633
566.6085, 133.2853
567.0906, 133.2469
567.5728, 133.0122
568.0549, 132.8590
568.5370, 132.8924
569.0191, 132.8423
569.5012, 132.4988
569.9833, 132.0793
570.4655, 131.8948
570.9476, 131.9683
571.4297, 132.0559
571.9118, 131.9569
572.3939, 131.6700
572.8760, 131.1708
573.3582, 129.9460
573.8403, 129.2264
574.3224, 129.5088
574.8045, 130.1236
575.2866, 130.5666
575.7687, 130.7284
576.2509, 130.6604
576.7330, 130.4261
577.2151, 129.9985
577.6972, 129.0906
578.1793, 127.4668
578.6614, 126.4090
579.1436, 126.8077
579.6257, 127.9113
580.1078, 128.6847
580.5899, 129.1373
581.0720, 129.1090
581.5541, 128.0137
582.0363, 126.7316
582.5184, 126.3125
583.0005, 126.7302
583.4826, 127.3323
583.9647, 127.7629
584.4468, 128.0475
584.9290, 128.2515
585.4111, 128.1344
585.8932, 128.3289
586.3753, 129.3061
586.8574, 130.1674
587.3395, 130.1370
587.8217, 129.4831
588.3038, 129.0891
