##NAMES=Andalusite
##RRUFFID=R050626
##IDEAL CHEMISTRY=Al_2_SiO_5_
##LOCALITY=Minas Gerais, Brazil
##OWNER=RRUFF
##SOURCE=Gemological Center
##DESCRIPTION=Grayish brown fragment
##STATUS=The identification of this mineral has been confirmed by X-ray diffraction and chemical analysis
##URL=rruff.info/R050626
##MEASURED CHEMISTRY=(Al_1.99_Fe^3+^_0.01_)_Î£=1_Si_1.00_O_5_
91.62726, 0.0000000E+00
92.10938, 1.304385
92.59149, 1.388563
93.07361, 1.349649
93.55573, 1.198344
94.03784, 1.069144
94.51996, 1.116809
95.00208, 1.291842
95.48419, 1.418791
95.96631, 1.424755
96.44843, 1.348300
96.93054, 1.285925
97.41266, 1.234386
97.89478, 1.217231
98.37689, 1.303964
98.85901, 1.495246
99.34113, 1.621553
99.82324, 1.577007
100.3054, 1.362106
100.7875, 1.237552
101.2696, 1.223724
101.7517, 1.274065
102.2338, 1.312323
102.7159, 1.345777
103.1981, 1.345017
103.6802, 1.275765
104.1623, 1.088334
104.6444, 0.9986134
105.1265, 1.054049
105.6086, 1.209095
106.0908, 1.289375
106.5729, 1.248280
107.0550, 1.186057
107.5371, 1.159492
108.0192, 1.187743
108.5013, 1.222042
108.9835, 1.244079
109.4656, 1.255896
109.9477, 1.326574
110.4298, 1.554727
110.9119, 1.787428
111.3940, 1.924886
111.8762, 1.839709
112.3583, 1.783760
112.8404, 1.812011
113.3225, 1.935437
113.8046, 2.043048
114.2867, 2.082144
114.7689, 2.110554
115.2510, 2.190629
115.7331, 2.332159
116.2152, 2.531252
116.6973, 2.828098
117.1794, 3.272885
117.6616, 3.606969
118.1437, 3.685615
118.6258, 3.597603
119.1079, 3.487801
119.5900, 3.309822
120.0721, 3.194677
120.5543, 3.263496
121.0364, 3.616441
121.5185, 3.950760
122.0006, 4.003571
122.4827, 3.872231
122.9648, 3.836295
123.4470, 4.170201
123.9291, 4.644233
124.4112, 4.989885
124.8933, 5.095011
125.3754, 5.131400
125.8575, 5.281425
126.3397, 5.527253
126.8218, 5.760211
127.3039, 5.842977
127.7860, 5.855234
128.2681, 5.962544
128.7502, 6.246572
129.2324, 6.626299
129.7145, 6.984094
130.1966, 7.321863
130.6787, 7.609581
131.1608, 7.835222
131.6429, 7.991339
132.1251, 8.044438
132.6072, 7.901623
133.0893, 7.650031
133.5714, 7.616396
134.0535, 7.832108
134.5356, 8.121647
135.0178, 8.258721
135.4999, 8.238942
135.9820, 8.227493
136.4641, 8.268936
136.9462, 8.364868
137.4283, 8.561347
137.9105, 8.883168
138.3926, 9.264788
138.8747, 9.612800
139.3568, 9.941787
139.8389, 10.19000
140.3210, 10.31697
140.8032, 10.30306
141.2853, 10.27693
141.7674, 10.24377
142.2495, 10.19624
142.7316, 10.09106
143.2137, 9.829778
143.6959, 9.585670
144.1780, 9.517758
144.6601, 9.702395
145.1422, 9.850651
145.6243, 9.909731
146.1064, 9.926418
146.5886, 10.10532
147.0707, 10.63093
147.5528, 11.10861
148.0349, 11.31640
148.5170, 11.11779
148.9991, 10.87759
149.4813, 10.54562
149.9634, 10.14659
150.4455, 9.952470
150.9276, 10.18834
151.4097, 10.47104
151.8918, 10.56218
152.3740, 10.18430
152.8561, 9.935107
153.3382, 9.930631
153.8203, 10.16287
154.3024, 10.31679
154.7845, 10.35639
155.2667, 10.31777
155.7488, 10.22770
156.2309, 9.959783
156.7130, 9.771555
157.1951, 9.756103
157.6772, 9.923177
158.1594, 10.05501
158.6415, 10.09243
159.1236, 10.07888
159.6057, 10.05671
160.0878, 10.00621
160.5699, 9.975737
161.0521, 9.994444
161.5342, 10.07112
162.0163, 10.13099
162.4984, 10.15225
162.9805, 10.14118
163.4626, 10.10562
163.9448, 9.949751
164.4269, 9.844483
164.9090, 9.915333
165.3911, 10.20949
165.8732, 10.47371
166.3553, 10.58356
166.8375, 10.58088
167.3196, 10.53429
167.8017, 10.34973
168.2838, 10.20944
168.7659, 10.28799
169.2480, 10.66382
169.7302, 11.02485
170.2123, 11.19177
170.6944, 11.19005
171.1765, 11.07555
171.6586, 10.74648
172.1407, 10.38124
172.6229, 10.17189
173.1050, 10.18592
173.5871, 10.24069
174.0692, 10.15476
174.5513, 9.973646
175.0334, 9.833498
175.5156, 9.833228
175.9977, 9.917345
176.4798, 10.01440
176.9619, 10.12470
177.4440, 10.22110
177.9261, 10.24796
178.4083, 10.22330
178.8904, 10.22490
179.3725, 10.34678
179.8546, 10.52619
180.3367, 10.63589
180.8188, 10.63570
181.3010, 10.58741
181.7831, 10.55890
182.2652, 10.55115
182.7473, 10.57105
183.2294, 10.60366
183.7115, 10.66571
184.1937, 10.81591
184.6758, 11.10653
185.1579, 11.44191
185.6400, 11.64895
186.1221, 11.73090
186.6042, 11.80936
187.0864, 11.95097
187.5685, 12.16145
188.0506, 12.47950
188.5327, 12.98100
189.0148, 13.53782
189.4969, 13.88528
189.9791, 14.01736
190.4612, 14.03697
190.9433, 14.05519
191.4254, 14.05617
191.9075, 13.88200
192.3896, 13.43041
192.8718, 12.81704
193.3539, 12.35885
193.8360, 12.05906
194.3181, 11.85323
194.8002, 11.66136
195.2823, 11.48445
195.7645, 11.46231
196.2466, 11.69137
196.7287, 12.08611
197.2108, 12.28701
197.6929, 12.26908
198.1750, 12.17169
198.6572, 12.10444
199.1393, 12.06649
199.6214, 12.07338
200.1035, 12.14052
200.5856, 12.25713
201.0677, 12.33558
201.5499, 12.34885
202.0320, 12.41157
202.5141, 12.66761
202.9962, 13.14365
203.4783, 13.60403
203.9604, 14.01347
204.4426, 14.36704
204.9247, 14.63303
205.4068, 14.82720
205.8889, 14.89242
206.3710, 14.74672
206.8531, 14.36024
207.3353, 13.91149
207.8174, 13.40413
208.2995, 12.85074
208.7816, 12.43226
209.2637, 12.17773
209.7458, 12.00841
210.2280, 11.82938
210.7101, 11.60500
211.1922, 11.51296
211.6743, 11.66683
212.1564, 12.04950
212.6385, 12.14138
213.1207, 11.82852
213.6028, 11.40812
214.0849, 11.19340
214.5670, 11.24463
215.0491, 11.32531
215.5313, 11.40123
216.0134, 11.47210
216.4955, 11.47086
216.9776, 11.34687
217.4597, 11.22017
217.9418, 11.22931
218.4240, 11.43665
218.9061, 11.61686
219.3882, 11.71862
219.8703, 11.74069
220.3524, 11.74788
220.8345, 11.70669
221.3167, 11.69172
221.7988, 11.80735
222.2809, 12.16004
222.7630, 12.38425
223.2451, 12.33866
223.7272, 12.01649
224.2094, 11.93306
224.6915, 12.19027
225.1736, 12.57117
225.6557, 12.85941
226.1378, 13.04142
226.6199, 13.16915
227.1021, 13.24041
227.5842, 13.25550
228.0663, 13.28174
228.5484, 13.34517
229.0305, 13.39170
229.5126, 13.34354
229.9948, 13.06901
230.4769, 12.97392
230.9590, 13.18802
231.4411, 13.70990
231.9232, 14.10849
232.4053, 14.33412
232.8875, 14.49446
233.3696, 14.67952
233.8517, 14.88364
234.3338, 15.11902
234.8159, 15.35318
235.2980, 15.59197
235.7802, 16.03256
236.2623, 16.76200
236.7444, 17.59877
237.2265, 18.39917
237.7086, 19.15536
238.1907, 19.89542
238.6729, 20.65530
239.1550, 21.42542
239.6371, 22.04796
240.1192, 22.57171
240.6013, 22.89428
241.0834, 22.90076
241.5656, 22.42492
242.0477, 21.96380
242.5298, 21.59097
243.0119, 21.29416
243.4940, 20.93998
243.9761, 20.47043
244.4583, 20.01158
244.9404, 19.66626
245.4225, 19.52369
245.9046, 19.30738
246.3867, 18.94164
246.8688, 18.46130
247.3510, 18.10549
247.8331, 17.88832
248.3152, 17.77747
248.7973, 17.76524
249.2794, 17.90832
249.7615, 18.03619
250.2437, 18.16278
250.7258, 18.26743
251.2079, 18.22489
251.6900, 17.91526
252.1721, 17.62889
252.6542, 17.54193
253.1364, 17.73191
253.6185, 17.94130
254.1006, 18.15210
254.5827, 18.37112
255.0648, 18.62391
255.5469, 18.92270
256.0291, 19.23119
256.5112, 19.52480
256.9933, 19.78117
257.4754, 20.08997
257.9575, 20.48636
258.4396, 20.92834
258.9218, 21.26838
259.4039, 21.43852
259.8860, 21.63675
260.3681, 21.96334
260.8502, 22.46105
261.3323, 22.96635
261.8145, 23.46377
262.2966, 23.97364
262.7787, 24.54736
263.2608, 25.19332
263.7429, 25.88850
264.2250, 26.66277
264.7072, 27.56498
265.1893, 28.28112
265.6714, 28.67087
266.1535, 28.98798
266.6356, 29.69726
267.1177, 30.89071
267.5999, 32.25176
268.0820, 33.65002
268.5641, 35.07704
269.0462, 36.69880
269.5283, 38.56586
270.0104, 40.59168
270.4926, 42.55066
270.9747, 44.24443
271.4568, 46.64875
271.9389, 50.17405
272.4210, 54.87917
272.9031, 59.71003
273.3853, 64.62119
273.8674, 69.74738
274.3495, 75.09611
274.8316, 80.68185
275.3137, 86.58925
275.7958, 93.29158
276.2780, 100.5928
276.7601, 106.1817
277.2422, 109.8940
277.7243, 112.3148
278.2064, 113.4749
278.6885, 113.0887
279.1707, 113.9597
279.6528, 116.9123
280.1349, 121.6473
280.6170, 126.5121
281.0991, 131.3493
281.5812, 136.9775
282.0634, 144.1796
282.5455, 153.0747
283.0276, 162.3148
283.5097, 171.4517
283.9918, 180.8892
284.4739, 191.8552
284.9561, 204.3779
285.4382, 218.2293
285.9203, 233.0683
286.4024, 248.8311
286.8845, 266.8689
287.3666, 287.4924
287.8488, 310.0086
288.3309, 333.1603
288.8130, 356.9622
289.2951, 380.6157
289.7772, 405.4929
290.2593, 430.3891
290.7415, 450.1867
291.2236, 464.8196
291.7057, 472.7017
292.1878, 471.1205
292.6699, 460.1948
293.1520, 441.1756
293.6342, 411.9111
294.1163, 374.7444
294.5984, 337.8015
295.0805, 300.8263
295.5626, 265.6641
296.0447, 233.6078
296.5269, 204.7154
297.0090, 179.1872
297.4911, 157.7007
297.9732, 139.6538
298.4553, 124.5278
298.9374, 112.4283
299.4196, 102.3840
299.9017, 93.91566
300.3838, 86.88155
300.8659, 81.00013
301.3480, 76.37317
301.8301, 72.78683
302.3123, 70.10516
302.7944, 68.28918
303.2765, 66.91815
303.7586, 65.81391
304.2407, 64.88045
304.7228, 63.90434
305.2050, 62.71660
305.6871, 61.57167
306.1692, 60.72750
306.6513, 60.17236
307.1334, 59.91797
307.6155, 60.08649
308.0977, 60.51733
308.5798, 60.96972
309.0619, 61.26316
309.5440, 61.79765
310.0261, 62.88851
310.5082, 64.48464
310.9904, 66.42338
311.4725, 68.68723
311.9546, 71.23679
312.4367, 74.01600
312.9188, 76.95556
313.4009, 80.28426
313.8831, 83.71463
314.3652, 87.61703
314.8473, 92.73319
315.3294, 99.49663
315.8115, 107.5406
316.2936, 116.7316
316.7758, 127.0953
317.2579, 138.2754
317.7400, 150.8121
318.2221, 163.9372
318.7042, 176.9223
319.1863, 190.4360
319.6685, 202.9495
320.1506, 214.9744
320.6327, 226.5508
321.1148, 233.3635
321.5969, 233.7866
322.0790, 229.0832
322.5612, 220.3054
323.0433, 204.3613
323.5254, 187.8376
324.0075, 171.5628
324.4896, 155.6270
324.9717, 141.1323
325.4539, 128.1051
325.9360, 116.4820
326.4181, 106.3585
326.9002, 97.70995
327.3823, 90.46707
327.8644, 84.94041
328.3466, 80.86156
328.8287, 77.41621
329.3108, 74.85554
329.7929, 72.66415
330.2750, 70.70139
330.7571, 68.88135
331.2393, 67.43089
331.7214, 66.51324
332.2035, 65.90119
332.6856, 65.24375
333.1677, 64.49429
333.6498, 63.76075
334.1320, 63.08731
334.6141, 62.50677
335.0962, 61.80310
335.5783, 60.86293
336.0604, 59.91777
336.5425, 59.21778
337.0247, 58.86184
337.5068, 58.49977
337.9889, 58.05495
338.4710, 57.54168
338.9531, 57.05384
339.4352, 56.56725
339.9174, 56.15260
340.3995, 55.90398
340.8816, 55.85676
341.3637, 55.71629
341.8458, 55.38003
342.3279, 54.98285
342.8101, 54.92237
343.2922, 55.25006
343.7743, 55.57422
344.2564, 55.58670
344.7385, 55.31377
345.2206, 55.29052
345.7028, 55.57292
346.1849, 56.03951
346.6670, 56.46191
347.1491, 56.85543
347.6312, 57.45602
348.1133, 58.34402
348.5955, 59.52300
349.0776, 61.01934
349.5597, 62.85021
350.0418, 64.96202
350.5239, 67.16243
351.0060, 69.57580
351.4882, 72.52652
351.9703, 76.28200
352.4524, 80.49544
352.9345, 84.45903
353.4166, 88.23998
353.8987, 92.46178
354.3809, 97.76604
354.8630, 103.7313
355.3451, 109.6912
355.8272, 115.6683
356.3093, 121.2682
356.7914, 126.3353
357.2736, 130.7982
357.7557, 134.3310
358.2378, 137.1693
358.7199, 138.7314
359.2020, 138.4663
359.6841, 136.2497
360.1663, 132.5732
360.6484, 127.2502
361.1305, 120.7460
361.6126, 113.7136
362.0947, 105.5268
362.5768, 97.62679
363.0590, 90.62614
363.5411, 84.54256
364.0232, 78.89481
364.5053, 73.49520
364.9874, 68.48329
365.4695, 63.96737
365.9517, 60.16033
366.4338, 56.63927
366.9159, 53.25847
367.3980, 50.06442
367.8801, 47.23326
368.3622, 44.87054
368.8444, 42.84026
369.3265, 41.11383
369.8086, 39.86614
370.2907, 38.59554
370.7728, 37.24304
371.2549, 35.88755
371.7371, 34.66619
372.2192, 33.60083
372.7013, 32.63708
373.1834, 31.78671
373.6655, 31.05610
374.1476, 30.32581
374.6298, 29.58813
375.1119, 28.88149
375.5940, 28.26107
376.0761, 27.77163
376.5582, 27.23290
377.0403, 26.55914
377.5225, 25.82318
378.0046, 25.33317
378.4867, 25.13060
378.9688, 25.05140
379.4509, 25.00135
379.9330, 24.98025
380.4152, 25.02735
380.8973, 25.16367
381.3794, 25.33158
381.8615, 25.47328
382.3436, 25.58661
382.8257, 25.55575
383.3079, 25.30515
383.7900, 24.86923
384.2721, 24.32194
384.7542, 23.65675
385.2363, 22.97927
385.7184, 22.33840
386.2006, 21.76489
386.6827, 21.31453
387.1648, 21.05784
387.6469, 20.88577
388.1290, 20.66656
388.6111, 20.40744
389.0933, 20.14495
389.5754, 19.86983
390.0575, 19.61669
390.5396, 19.42698
391.0217, 19.31719
391.5038, 19.23708
391.9860, 19.15847
392.4681, 19.08397
392.9502, 19.01713
393.4323, 19.10876
393.9144, 19.09130
394.3965, 18.72976
394.8787, 17.99225
395.3608, 17.34633
395.8429, 16.95761
396.3250, 16.73121
396.8071, 16.57999
397.2892, 16.57858
397.7714, 16.54880
398.2535, 16.46402
398.7356, 16.32332
399.2177, 16.12383
399.6998, 15.73452
400.1819, 15.39349
400.6641, 15.19723
401.1462, 15.15314
401.6283, 15.24666
402.1104, 15.59425
402.5925, 16.02542
403.0746, 16.27019
403.5568, 16.19821
404.0389, 16.17854
404.5210, 16.33739
405.0031, 16.67508
405.4852, 16.87517
405.9673, 16.88773
406.4495, 16.85691
406.9316, 16.90640
407.4137, 17.04560
407.8958, 17.16947
408.3779, 17.20568
408.8600, 17.27416
409.3422, 17.85432
409.8243, 18.99417
410.3064, 19.82785
410.7885, 19.53373
411.2706, 18.43075
411.7527, 18.11671
412.2349, 18.71258
412.7170, 19.73091
413.1991, 20.76396
413.6812, 21.77827
414.1633, 22.63049
414.6454, 23.26014
415.1276, 23.70752
415.6097, 23.90170
416.0918, 23.88719
416.5739, 24.00268
417.0560, 24.64357
417.5381, 25.47680
418.0203, 26.16363
418.5024, 26.71976
418.9845, 26.90166
419.4666, 26.43846
419.9487, 25.49608
420.4308, 24.39785
420.9130, 23.10254
421.3951, 21.81648
421.8772, 20.59765
422.3593, 19.46956
422.8414, 18.46203
423.3235, 17.63574
423.8057, 16.91425
424.2878, 16.24597
424.7699, 15.58745
425.2520, 15.02294
425.7341, 14.58711
426.2162, 14.26380
426.6984, 13.97251
427.1805, 13.65921
427.6626, 13.44541
428.1447, 13.41763
428.6268, 13.68405
429.1089, 13.71851
429.5911, 13.39321
430.0732, 12.97001
430.5553, 12.80184
431.0374, 12.97163
431.5195, 13.05949
432.0016, 12.92919
432.4838, 12.64636
432.9659, 12.53786
433.4480, 12.62600
433.9301, 12.74791
434.4122, 12.76754
434.8943, 12.70601
435.3765, 12.74051
435.8586, 12.91886
436.3407, 13.10015
436.8228, 13.01023
437.3049, 12.72418
437.7870, 12.56462
438.2692, 12.74361
438.7513, 13.10180
439.2334, 13.45894
439.7155, 13.81044
440.1976, 14.08792
440.6797, 14.13280
441.1619, 14.11669
441.6440, 14.26395
442.1261, 14.71296
442.6082, 15.17496
443.0903, 15.46895
443.5724, 15.65294
444.0546, 15.85214
444.5367, 16.00218
445.0188, 16.27208
445.5009, 16.73454
445.9830, 17.39205
446.4651, 18.24016
446.9473, 19.48019
447.4294, 20.80749
447.9115, 21.95043
448.3936, 22.52735
448.8757, 23.38711
449.3578, 24.69964
449.8400, 26.32909
450.3221, 27.91168
450.8042, 29.47546
451.2863, 30.96841
451.7684, 32.67187
452.2505, 34.91988
452.7327, 35.08142
453.2148, 32.68212
453.6969, 29.04785
454.1790, 25.57382
454.6611, 22.19985
455.1432, 19.41811
455.6254, 17.41154
456.1075, 16.03893
456.5896, 15.10772
457.0717, 14.60242
457.5538, 14.20244
458.0359, 13.68214
458.5181, 13.11180
459.0002, 12.63112
459.4823, 12.25165
459.9644, 11.99461
460.4465, 11.92137
460.9286, 11.98578
461.4108, 12.10407
461.8929, 12.33686
462.3750, 12.53060
462.8571, 12.53499
463.3392, 12.38610
463.8214, 12.25085
464.3035, 12.14764
464.7856, 12.12544
465.2677, 12.25954
465.7498, 12.67494
466.2319, 12.92402
466.7141, 12.68332
467.1962, 12.28523
467.6783, 12.15368
468.1604, 12.59118
468.6425, 13.02400
469.1246, 13.36238
469.6068, 13.61122
470.0889, 13.82373
470.5710, 13.96363
471.0531, 14.11642
471.5352, 14.34720
472.0173, 14.71101
472.4995, 14.94986
472.9816, 15.02706
473.4637, 15.02527
473.9458, 15.10313
474.4279, 15.27423
474.9100, 15.30791
475.3922, 15.05546
475.8743, 14.64577
476.3564, 14.52073
476.8385, 14.67713
477.3206, 14.81307
477.8027, 14.60938
478.2849, 14.23191
478.7670, 14.03810
479.2491, 14.09490
479.7312, 14.25199
480.2133, 14.46162
480.6954, 14.66012
481.1776, 14.72903
481.6597, 14.41971
482.1418, 14.12959
482.6239, 14.17790
483.1060, 14.51260
483.5881, 14.75365
484.0703, 14.77078
484.5524, 14.63622
485.0345, 14.35475
485.5166, 13.77722
485.9987, 13.39606
486.4808, 13.47712
486.9630, 13.72888
487.4451, 13.74775
487.9272, 13.30094
488.4093, 12.95202
488.8914, 12.83483
489.3735, 12.91693
489.8557, 12.91862
490.3378, 12.83376
490.8199, 12.68465
491.3020, 12.44179
491.7841, 12.08482
492.2662, 11.91638
492.7484, 11.99832
493.2305, 12.13311
493.7126, 12.01270
494.1947, 11.67235
494.6768, 11.38209
495.1589, 11.22058
495.6411, 11.16858
496.1232, 11.24249
496.6053, 11.42353
497.0874, 11.58088
497.5695, 11.64357
498.0516, 11.63290
498.5338, 11.54917
499.0159, 11.37684
499.4980, 11.23941
499.9801, 11.24613
500.4622, 11.31709
500.9443, 11.35784
501.4265, 11.28122
501.9086, 11.23068
502.3907, 11.25934
502.8728, 11.35201
503.3549, 11.44339
503.8370, 11.53837
504.3192, 11.61890
504.8013, 11.66591
505.2834, 11.65591
505.7655, 11.73036
506.2476, 11.97330
506.7297, 12.20583
507.2119, 12.21898
507.6940, 11.93161
508.1761, 11.75378
508.6582, 11.74066
509.1403, 11.87430
509.6224, 12.20419
510.1046, 12.73957
510.5867, 13.10838
511.0688, 12.97090
511.5509, 12.52615
512.0330, 12.40213
512.5151, 12.60612
512.9973, 12.87228
513.4794, 12.99623
513.9615, 13.02814
514.4436, 13.03891
514.9257, 13.02750
515.4078, 13.03882
515.8900, 13.15326
516.3721, 13.30983
516.8542, 13.39228
517.3363, 13.25760
517.8184, 13.13342
518.3005, 13.13659
518.7827, 13.26719
519.2648, 13.36650
519.7469, 13.46553
520.2290, 13.48089
520.7111, 13.33264
521.1932, 12.74724
521.6754, 12.60325
522.1575, 13.16272
522.6396, 13.94748
523.1217, 14.22967
523.6038, 13.85717
524.0859, 13.54396
524.5681, 13.46437
525.0502, 13.56846
525.5323, 13.71366
526.0144, 13.90475
526.4965, 14.05824
526.9786, 14.04936
527.4608, 13.96320
527.9429, 14.08779
528.4250, 14.45613
528.9071, 14.84910
529.3892, 14.97795
529.8713, 15.01270
530.3535, 15.24296
530.8356, 15.88844
531.3177, 16.55871
531.7998, 16.91766
532.2819, 17.10368
532.7640, 17.43136
533.2462, 18.14817
533.7283, 18.91015
534.2104, 19.57355
534.6925, 20.11221
535.1746, 20.69312
535.6567, 21.25129
536.1389, 21.91858
536.6210, 22.77122
537.1031, 23.92418
537.5852, 25.02815
538.0673, 26.06933
538.5494, 27.07774
539.0316, 28.07697
539.5137, 29.05660
539.9958, 30.15763
540.4779, 31.41068
540.9600, 32.82200
541.4421, 34.43623
541.9243, 36.24178
542.4064, 38.15537
542.8885, 40.04554
543.3706, 42.00625
543.8527, 44.22741
544.3348, 46.73326
544.8170, 49.38946
545.2991, 52.09630
545.7812, 54.87703
546.2633, 57.81841
546.7454, 61.18826
547.2275, 64.35588
547.7097, 67.07996
548.1918, 69.42013
548.6739, 71.47195
549.1560, 73.36031
549.6381, 74.88318
550.1202, 76.05123
550.6024, 76.88566
551.0845, 76.95558
551.5666, 76.14239
552.0487, 74.71832
552.5308, 72.87573
553.0129, 70.63130
553.4951, 67.79268
553.9772, 64.26198
554.4593, 60.33154
554.9414, 56.24147
555.4235, 52.02876
555.9056, 48.11654
556.3878, 44.67934
556.8699, 41.59812
557.3520, 38.72914
557.8341, 36.08650
558.3162, 33.79112
558.7983, 32.08484
559.2805, 30.65266
559.7626, 29.16702
560.2447, 27.60876
560.7268, 26.23285
561.2089, 25.15753
561.6910, 24.30256
562.1732, 23.60543
562.6553, 23.09909
563.1374, 22.69354
563.6195, 22.52993
564.1016, 22.41329
564.5837, 22.03027
565.0659, 21.14550
565.5480, 20.42135
566.0301, 20.01385
566.5122, 19.87890
566.9943, 19.82432
567.4764, 19.85669
567.9586, 19.93961
568.4407, 20.10437
568.9228, 20.31748
569.4049, 20.35985
569.8870, 20.21424
570.3691, 20.04406
570.8513, 20.04441
571.3334, 20.12904
571.8155, 20.11950
572.2976, 19.93896
572.7797, 19.74370
573.2618, 19.70364
573.7440, 19.72310
574.2261, 19.62868
574.7082, 19.24059
575.1903, 18.83987
575.6724, 18.59424
576.1545, 18.47381
576.6367, 18.18702
577.1188, 17.50919
577.6009, 16.86602
578.0830, 16.43457
578.5651, 16.26757
579.0472, 16.03451
579.5294, 15.67286
580.0115, 15.35235
580.4936, 15.30168
580.9757, 15.52949
581.4578, 15.54053
581.9399, 15.20443
582.4221, 14.76747
582.9042, 14.63775
583.3863, 14.74978
583.8684, 14.82810
584.3505, 14.70724
584.8326, 14.53172
585.3148, 14.46370
585.7969, 14.48158
586.2790, 14.48951
586.7611, 14.34084
587.2432, 14.23734
587.7253, 14.36772
588.2075, 14.80932
588.6896, 15.09706
