##NAMES=Andalusite
##RRUFFID=R050258
##IDEAL CHEMISTRY=Al_2_SiO_5_
##LOCALITY=Bautista Canyon, near Hemet, Riverside County, California, USA
##OWNER=RRUFF
##SOURCE=Marcus Origlieri
##DESCRIPTION=Brown fragment
##STATUS=The identification of this mineral has been confirmed by X-ray diffraction and chemical analysis
##URL=rruff.info/R050258
##MEASURED CHEMISTRY=Al_2.00_Si_1.00_O_5_
92.67285, 1817.857
93.15497, 1809.305
93.63708, 1818.642
94.11920, 1878.550
94.60132, 1939.845
95.08344, 1999.667
95.56555, 2028.667
96.04767, 2034.227
96.52979, 2032.716
97.01190, 2025.760
97.49402, 2017.028
97.97614, 2008.711
98.45825, 1999.992
98.94037, 1991.387
99.42249, 1979.984
99.90460, 1963.918
100.3867, 1948.105
100.8688, 1934.818
101.3510, 1924.034
101.8331, 1915.552
102.3152, 1907.881
102.7973, 1899.390
103.2794, 1889.768
103.7615, 1881.936
104.2437, 1877.773
104.7258, 1875.440
105.2079, 1873.914
105.6900, 1872.947
106.1721, 1872.226
106.6542, 1870.959
107.1364, 1867.914
107.6185, 1865.132
108.1006, 1862.784
108.5827, 1860.979
109.0648, 1859.883
109.5469, 1859.609
110.0291, 1860.091
110.5112, 1860.757
110.9933, 1862.242
111.4754, 1863.192
111.9575, 1862.752
112.4396, 1861.250
112.9218, 1859.746
113.4039, 1859.296
113.8860, 1860.217
114.3681, 1860.769
114.8502, 1860.762
115.3323, 1860.519
115.8144, 1860.049
116.2966, 1859.347
116.7787, 1858.954
117.2608, 1859.905
117.7429, 1862.249
118.2250, 1864.169
118.7071, 1865.461
119.1893, 1866.008
119.6714, 1865.333
120.1535, 1862.603
120.6356, 1859.598
121.1177, 1858.349
121.5998, 1858.848
122.0820, 1859.645
122.5641, 1859.608
123.0462, 1858.677
123.5283, 1857.857
124.0104, 1857.157
124.4925, 1856.786
124.9747, 1857.150
125.4568, 1858.317
125.9389, 1859.573
126.4210, 1859.647
126.9031, 1857.633
127.3852, 1856.252
127.8674, 1856.539
128.3495, 1857.157
128.8316, 1856.751
129.3137, 1854.705
129.7958, 1851.616
130.2780, 1849.662
130.7601, 1850.214
131.2422, 1850.507
131.7243, 1849.987
132.2064, 1849.052
132.6885, 1848.364
133.1707, 1848.351
133.6528, 1848.965
134.1349, 1849.576
134.6170, 1850.409
135.0991, 1851.063
135.5812, 1851.209
136.0633, 1850.937
136.5455, 1850.827
137.0276, 1851.707
137.5097, 1853.140
137.9918, 1852.987
138.4739, 1849.047
138.9560, 1844.518
139.4382, 1843.489
139.9203, 1846.930
140.4024, 1850.195
140.8845, 1849.062
141.3666, 1845.236
141.8487, 1841.567
142.3309, 1838.884
142.8130, 1837.244
143.2951, 1837.001
143.7772, 1839.103
144.2593, 1841.370
144.7414, 1843.058
145.2236, 1844.094
145.7057, 1844.365
146.1878, 1843.470
146.6699, 1841.300
147.1520, 1839.892
147.6341, 1839.877
148.1163, 1840.161
148.5984, 1840.407
149.0805, 1840.598
149.5626, 1840.908
150.0447, 1841.623
150.5268, 1843.157
151.0090, 1843.752
151.4911, 1842.622
151.9732, 1841.326
152.4553, 1841.211
152.9374, 1842.353
153.4195, 1843.382
153.9017, 1842.143
154.3838, 1836.248
154.8659, 1832.819
155.3480, 1833.607
155.8301, 1836.084
156.3122, 1837.697
156.7944, 1837.631
157.2765, 1836.597
157.7586, 1835.764
158.2407, 1835.155
158.7228, 1834.591
159.2049, 1834.327
159.6871, 1834.087
160.1692, 1833.079
160.6513, 1830.662
161.1334, 1827.921
161.6155, 1826.449
162.0976, 1826.338
162.5798, 1826.753
163.0619, 1827.569
163.5440, 1828.713
164.0261, 1829.044
164.5082, 1827.459
164.9903, 1825.373
165.4725, 1824.184
165.9546, 1824.180
166.4367, 1824.218
166.9188, 1822.569
167.4009, 1818.499
167.8830, 1815.791
168.3652, 1815.982
168.8473, 1817.443
169.3294, 1819.560
169.8115, 1822.157
170.2936, 1824.448
170.7757, 1824.742
171.2579, 1821.654
171.7400, 1819.011
172.2221, 1817.203
172.7042, 1816.029
173.1863, 1815.518
173.6684, 1815.679
174.1506, 1816.109
174.6327, 1815.574
175.1148, 1812.406
175.5969, 1810.107
176.0790, 1809.344
176.5611, 1809.480
177.0433, 1809.675
177.5254, 1809.484
178.0075, 1809.039
178.4896, 1809.005
178.9717, 1809.702
179.4538, 1810.398
179.9360, 1811.243
180.4181, 1811.980
180.9002, 1811.946
181.3823, 1810.573
181.8644, 1808.272
182.3465, 1807.074
182.8287, 1808.307
183.3108, 1809.195
183.7929, 1807.905
184.2750, 1804.865
184.7571, 1802.278
185.2392, 1801.420
185.7214, 1802.058
186.2035, 1803.040
186.6856, 1805.478
187.1677, 1807.135
187.6498, 1805.195
188.1319, 1799.458
188.6141, 1794.565
189.0962, 1793.722
189.5783, 1795.172
190.0604, 1796.695
190.5425, 1798.114
191.0246, 1799.105
191.5068, 1799.122
191.9889, 1797.953
192.4710, 1796.506
192.9531, 1794.563
193.4352, 1792.792
193.9173, 1792.175
194.3995, 1793.505
194.8816, 1795.644
195.3637, 1795.711
195.8458, 1792.117
196.3279, 1789.397
196.8100, 1789.649
197.2922, 1791.094
197.7743, 1791.614
198.2564, 1790.031
198.7385, 1786.944
199.2206, 1784.657
199.7027, 1783.926
200.1849, 1783.047
200.6670, 1780.699
201.1491, 1778.245
201.6312, 1777.806
202.1133, 1780.800
202.5954, 1786.371
203.0776, 1789.406
203.5597, 1786.966
204.0418, 1784.892
204.5239, 1784.784
205.0060, 1785.557
205.4881, 1785.303
205.9703, 1782.770
206.4524, 1778.293
206.9345, 1774.809
207.4166, 1772.421
207.8987, 1770.777
208.3808, 1770.631
208.8630, 1771.220
209.3451, 1770.818
209.8272, 1768.143
210.3093, 1763.669
210.7914, 1761.021
211.2735, 1761.023
211.7557, 1761.566
212.2378, 1762.243
212.7199, 1762.861
213.2020, 1762.852
213.6841, 1761.685
214.1662, 1759.661
214.6484, 1758.292
215.1305, 1758.687
215.6126, 1758.615
216.0947, 1755.971
216.5768, 1751.259
217.0589, 1747.847
217.5410, 1748.193
218.0232, 1750.992
218.5053, 1752.407
218.9874, 1752.001
219.4695, 1750.705
219.9516, 1748.841
220.4337, 1746.434
220.9159, 1744.605
221.3980, 1744.217
221.8801, 1744.624
222.3622, 1744.959
222.8443, 1745.245
223.3264, 1745.191
223.8086, 1744.264
224.2907, 1742.343
224.7728, 1740.679
225.2549, 1739.868
225.7370, 1739.539
226.2191, 1739.476
226.7013, 1739.694
227.1834, 1739.932
227.6655, 1740.030
228.1476, 1740.147
228.6297, 1739.381
229.1118, 1736.137
229.5940, 1732.623
230.0761, 1730.632
230.5582, 1730.731
231.0403, 1731.672
231.5224, 1731.635
232.0045, 1730.386
232.4867, 1728.828
232.9688, 1725.898
233.4509, 1723.468
233.9330, 1723.729
234.4151, 1727.148
234.8972, 1731.045
235.3794, 1730.548
235.8615, 1722.610
236.3436, 1717.333
236.8257, 1716.828
237.3078, 1718.075
237.7899, 1719.431
238.2721, 1720.312
238.7542, 1720.483
239.2363, 1719.452
239.7184, 1716.406
240.2005, 1713.701
240.6826, 1711.150
241.1648, 1709.046
241.6469, 1707.629
242.1290, 1706.948
242.6111, 1706.904
243.0932, 1707.434
243.5753, 1709.127
244.0575, 1710.176
244.5396, 1710.267
245.0217, 1710.017
245.5038, 1710.081
245.9859, 1710.485
246.4680, 1710.465
246.9502, 1708.781
247.4323, 1703.852
247.9144, 1701.436
248.3965, 1704.198
248.8786, 1707.408
249.3607, 1707.094
249.8429, 1702.889
250.3250, 1697.831
250.8071, 1695.549
251.2892, 1697.099
251.7713, 1697.956
252.2534, 1698.217
252.7356, 1697.749
253.2177, 1695.958
253.6998, 1692.969
254.1819, 1690.122
254.6640, 1688.841
255.1461, 1689.470
255.6283, 1689.778
256.1104, 1689.887
256.5925, 1689.616
257.0746, 1688.438
257.5567, 1686.448
258.0388, 1684.932
258.5210, 1685.318
259.0031, 1687.619
259.4852, 1688.354
259.9673, 1685.907
260.4494, 1683.111
260.9315, 1682.312
261.4137, 1683.474
261.8958, 1684.689
262.3779, 1684.587
262.8600, 1683.318
263.3421, 1682.312
263.8242, 1681.765
264.3064, 1681.339
264.7885, 1680.853
265.2706, 1680.294
265.7527, 1679.537
266.2348, 1678.215
266.7169, 1676.765
267.1991, 1676.246
267.6812, 1676.774
268.1633, 1678.122
268.6454, 1680.581
269.1275, 1684.012
269.6096, 1687.046
270.0918, 1688.993
270.5739, 1690.161
271.0560, 1691.182
271.5381, 1691.896
272.0202, 1692.881
272.5023, 1694.535
272.9845, 1696.836
273.4666, 1699.682
273.9487, 1703.748
274.4308, 1707.691
274.9129, 1709.860
275.3951, 1710.044
275.8772, 1709.599
276.3593, 1709.076
276.8414, 1708.561
277.3235, 1708.615
277.8056, 1709.415
278.2878, 1710.856
278.7699, 1712.836
279.2520, 1715.348
279.7341, 1717.839
280.2162, 1719.826
280.6983, 1721.450
281.1805, 1723.342
281.6626, 1725.471
282.1447, 1728.088
282.6268, 1730.916
283.1089, 1734.139
283.5910, 1738.618
284.0732, 1745.662
284.5553, 1754.473
285.0374, 1762.140
285.5195, 1768.184
286.0016, 1773.562
286.4837, 1777.844
286.9659, 1781.938
287.4480, 1787.923
287.9301, 1797.773
288.4122, 1810.038
288.8943, 1820.719
289.3764, 1829.537
289.8586, 1837.358
290.3407, 1846.254
290.8228, 1854.205
291.3049, 1858.511
291.7870, 1858.254
292.2691, 1853.515
292.7513, 1843.860
293.2334, 1828.324
293.7155, 1810.534
294.1976, 1789.854
294.6797, 1768.636
295.1618, 1748.603
295.6440, 1730.325
296.1261, 1713.926
296.6082, 1699.937
297.0903, 1688.816
297.5724, 1678.165
298.0545, 1665.315
298.5367, 1653.929
299.0188, 1647.427
299.5009, 1646.363
299.9830, 1646.979
300.4651, 1644.938
300.9472, 1639.757
301.4294, 1635.514
301.9115, 1632.609
302.3936, 1631.035
302.8757, 1631.442
303.3578, 1633.534
303.8399, 1635.691
304.3221, 1636.756
304.8042, 1636.724
305.2863, 1635.332
305.7684, 1630.599
306.2505, 1626.601
306.7326, 1625.191
307.2148, 1626.019
307.6969, 1628.032
308.1790, 1631.111
308.6611, 1634.882
309.1432, 1636.865
309.6253, 1635.976
310.1075, 1634.728
310.5896, 1633.412
311.0717, 1632.526
311.5538, 1632.899
312.0359, 1635.187
312.5180, 1638.686
313.0002, 1641.447
313.4823, 1642.848
313.9644, 1644.792
314.4465, 1647.568
314.9286, 1651.175
315.4107, 1655.639
315.8929, 1660.986
316.3750, 1667.192
316.8571, 1674.395
317.3392, 1683.010
317.8213, 1691.450
318.3034, 1699.583
318.7856, 1707.335
319.2677, 1715.248
319.7498, 1723.237
320.2319, 1729.552
320.7140, 1732.057
321.1961, 1730.447
321.6783, 1727.546
322.1604, 1724.064
322.6425, 1718.710
323.1246, 1710.514
323.6067, 1699.768
324.0888, 1687.590
324.5710, 1674.535
325.0531, 1660.733
325.5352, 1646.724
326.0173, 1630.966
326.4994, 1617.196
326.9815, 1607.244
327.4637, 1600.085
327.9458, 1593.921
328.4279, 1587.756
328.9100, 1581.896
329.3921, 1577.266
329.8742, 1574.105
330.3564, 1571.802
330.8385, 1571.136
331.3206, 1570.707
331.8027, 1568.803
332.2848, 1564.680
332.7669, 1559.702
333.2491, 1555.942
333.7312, 1553.557
334.2133, 1551.720
334.6954, 1550.271
335.1775, 1549.305
335.6596, 1549.167
336.1418, 1549.849
336.6239, 1550.562
337.1060, 1550.418
337.5881, 1549.386
338.0702, 1548.555
338.5523, 1548.086
339.0345, 1547.813
339.5165, 1547.505
339.9987, 1547.262
340.4808, 1547.458
340.9629, 1548.880
341.4450, 1551.096
341.9271, 1551.804
342.4092, 1550.578
342.8914, 1548.492
343.3735, 1544.859
343.8556, 1541.032
344.3377, 1539.467
344.8198, 1542.044
345.3019, 1546.337
345.7841, 1547.858
346.2662, 1545.976
346.7483, 1543.808
347.2304, 1541.947
347.7125, 1540.709
348.1946, 1540.732
348.6768, 1542.329
349.1589, 1544.055
349.6410, 1543.735
350.1231, 1541.408
350.6052, 1541.412
351.0873, 1546.625
351.5695, 1552.635
352.0516, 1555.760
352.5337, 1556.055
353.0158, 1555.509
353.4979, 1554.394
353.9800, 1553.298
354.4622, 1554.576
354.9443, 1559.352
355.4264, 1564.580
355.9085, 1568.075
356.3906, 1570.369
356.8727, 1572.615
357.3549, 1575.832
357.8370, 1578.863
358.3191, 1580.215
358.8012, 1579.892
359.2833, 1577.766
359.7654, 1572.663
360.2476, 1566.097
360.7297, 1560.655
361.2118, 1557.245
361.6939, 1553.620
362.1760, 1547.581
362.6581, 1539.612
363.1403, 1532.513
363.6224, 1527.404
364.1045, 1523.208
364.5866, 1518.100
365.0687, 1511.963
365.5508, 1507.002
366.0330, 1505.242
366.5151, 1504.987
366.9972, 1502.761
367.4793, 1497.646
367.9614, 1492.810
368.4435, 1491.835
368.9257, 1494.006
369.4078, 1494.964
369.8899, 1493.599
370.3720, 1491.174
370.8541, 1488.562
371.3362, 1485.789
371.8184, 1482.836
372.3005, 1479.471
372.7826, 1476.037
373.2647, 1473.622
373.7468, 1472.504
374.2289, 1471.812
374.7111, 1471.825
375.1932, 1471.951
375.6753, 1470.835
376.1574, 1467.913
376.6395, 1464.227
377.1216, 1461.322
377.6038, 1459.187
378.0859, 1457.878
378.5680, 1458.233
379.0501, 1458.893
379.5322, 1458.610
380.0143, 1457.267
380.4965, 1455.465
380.9786, 1453.665
381.4607, 1451.860
381.9428, 1450.247
382.4249, 1449.542
382.9070, 1448.272
383.3892, 1444.869
383.8713, 1440.484
384.3534, 1437.862
384.8355, 1438.593
385.3176, 1441.300
385.7997, 1441.897
386.2819, 1437.886
386.7640, 1434.830
387.2461, 1432.496
387.7282, 1431.427
388.2103, 1433.218
388.6924, 1437.742
389.1746, 1441.878
389.6567, 1441.515
390.1388, 1435.169
390.6209, 1430.102
391.1030, 1425.862
391.5851, 1423.063
392.0673, 1422.665
392.5494, 1423.964
393.0315, 1425.413
393.5136, 1425.999
393.9957, 1425.789
394.4778, 1425.193
394.9600, 1423.868
395.4421, 1422.575
395.9242, 1421.541
396.4063, 1420.544
396.8884, 1419.192
397.3705, 1417.395
397.8527, 1415.698
398.3348, 1415.012
398.8169, 1415.611
399.2990, 1416.265
399.7811, 1417.811
400.2632, 1418.629
400.7454, 1417.118
401.2275, 1413.939
401.7096, 1411.470
402.1917, 1411.942
402.6738, 1414.729
403.1559, 1416.026
403.6381, 1415.060
404.1202, 1413.895
404.6023, 1413.510
405.0844, 1413.350
405.5665, 1412.587
406.0486, 1410.774
406.5308, 1408.872
407.0129, 1408.334
407.4950, 1409.280
407.9771, 1409.916
408.4592, 1409.814
408.9413, 1409.192
409.4235, 1407.823
409.9056, 1405.812
410.3877, 1404.702
410.8698, 1406.068
411.3519, 1408.939
411.8340, 1410.801
412.3162, 1411.315
412.7983, 1411.373
413.2804, 1410.902
413.7625, 1410.493
414.2446, 1411.734
414.7267, 1416.832
415.2089, 1421.597
415.6910, 1421.724
416.1731, 1418.085
416.6552, 1415.473
417.1373, 1416.141
417.6194, 1418.283
418.1016, 1418.520
418.5837, 1416.667
419.0658, 1414.477
419.5479, 1412.609
420.0300, 1410.563
420.5121, 1407.492
420.9943, 1403.309
421.4764, 1399.128
421.9585, 1396.142
422.4406, 1394.375
422.9227, 1391.197
423.4048, 1385.025
423.8870, 1379.218
424.3691, 1375.124
424.8512, 1372.543
425.3333, 1371.248
425.8154, 1371.233
426.2975, 1371.659
426.7797, 1370.557
427.2618, 1366.322
427.7439, 1362.938
428.2260, 1360.861
428.7081, 1359.300
429.1902, 1357.489
429.6724, 1355.471
430.1545, 1354.027
430.6366, 1354.081
431.1187, 1355.695
431.6008, 1356.141
432.0829, 1353.999
432.5651, 1352.152
433.0472, 1351.302
433.5293, 1351.086
434.0114, 1351.043
434.4935, 1350.990
434.9756, 1350.791
435.4578, 1350.340
435.9399, 1349.933
436.4220, 1348.296
436.9041, 1342.765
437.3862, 1337.916
437.8683, 1337.137
438.3505, 1339.864
438.8326, 1342.429
439.3147, 1341.723
439.7968, 1338.595
440.2789, 1336.755
440.7610, 1336.641
441.2432, 1336.829
441.7253, 1336.639
442.2074, 1336.321
442.6895, 1336.227
443.1716, 1336.543
443.6537, 1336.798
444.1359, 1336.344
444.6180, 1335.338
445.1001, 1334.882
445.5822, 1335.502
446.0643, 1336.328
446.5464, 1336.153
447.0286, 1335.109
447.5107, 1334.553
447.9928, 1334.919
448.4749, 1335.911
448.9570, 1337.628
449.4391, 1339.942
449.9213, 1341.611
450.4034, 1341.832
450.8855, 1340.881
451.3676, 1339.874
451.8497, 1339.573
452.3318, 1338.108
452.8140, 1334.258
453.2961, 1329.281
453.7782, 1324.649
454.2603, 1320.739
454.7424, 1317.392
455.2245, 1314.412
455.7067, 1311.801
456.1888, 1309.582
456.6709, 1307.434
457.1530, 1305.918
457.6351, 1305.771
458.1172, 1306.342
458.5994, 1306.327
459.0815, 1305.013
459.5636, 1303.077
460.0457, 1302.369
460.5278, 1303.990
461.0099, 1304.578
461.4921, 1303.051
461.9742, 1301.226
462.4563, 1300.465
462.9384, 1300.678
463.4205, 1300.722
463.9026, 1299.639
464.3848, 1297.557
464.8669, 1295.192
465.3490, 1291.909
465.8311, 1289.604
466.3132, 1289.848
466.7953, 1291.046
467.2775, 1291.336
467.7596, 1290.149
468.2417, 1288.487
468.7238, 1287.207
469.2059, 1286.274
469.6880, 1285.521
470.1702, 1284.896
470.6523, 1284.476
471.1344, 1284.521
471.6165, 1284.888
472.0986, 1284.972
472.5807, 1284.422
473.0629, 1283.671
473.5450, 1283.113
474.0271, 1282.729
474.5092, 1282.492
474.9913, 1282.622
475.4734, 1282.553
475.9556, 1280.663
476.4377, 1275.815
476.9198, 1272.285
477.4019, 1271.781
477.8840, 1272.239
478.3661, 1271.766
478.8483, 1270.183
479.3304, 1268.279
479.8125, 1266.605
480.2946, 1265.192
480.7767, 1264.425
481.2589, 1264.232
481.7410, 1264.788
482.2231, 1267.239
482.7052, 1269.927
483.1873, 1270.958
483.6694, 1269.830
484.1516, 1267.552
484.6337, 1265.294
485.1158, 1262.990
485.5979, 1261.030
486.0800, 1259.698
486.5621, 1258.426
487.0443, 1256.960
487.5264, 1255.408
488.0085, 1253.937
488.4906, 1252.561
488.9727, 1251.476
489.4548, 1251.408
489.9370, 1252.500
490.4191, 1252.312
490.9012, 1249.386
491.3833, 1245.764
491.8654, 1243.468
492.3475, 1242.427
492.8297, 1241.537
493.3118, 1240.288
493.7939, 1238.983
494.2760, 1238.057
494.7581, 1237.512
495.2402, 1237.104
495.7224, 1236.877
496.2045, 1236.561
496.6866, 1235.225
497.1687, 1232.171
497.6508, 1229.688
498.1329, 1228.432
498.6151, 1227.932
499.0972, 1228.074
499.5793, 1228.647
500.0614, 1228.636
500.5435, 1226.969
501.0256, 1223.669
501.5078, 1221.403
501.9899, 1220.994
502.4720, 1220.652
502.9541, 1219.920
503.4362, 1219.139
503.9183, 1218.997
504.4004, 1219.602
504.8825, 1219.994
505.3647, 1218.678
505.8468, 1215.348
506.3289, 1212.641
506.8110, 1210.317
507.2931, 1209.037
507.7752, 1209.779
508.2574, 1211.538
508.7395, 1212.602
509.2216, 1212.266
509.7037, 1211.098
510.1858, 1209.351
510.6679, 1207.109
511.1501, 1206.033
511.6322, 1207.047
512.1143, 1208.615
512.5964, 1209.287
513.0786, 1209.133
513.5607, 1208.240
514.0428, 1205.902
514.5249, 1203.383
515.0070, 1201.984
515.4891, 1201.487
515.9713, 1200.764
516.4534, 1199.219
516.9355, 1197.314
517.4176, 1196.139
517.8997, 1196.668
518.3818, 1195.894
518.8640, 1191.612
519.3461, 1187.682
519.8282, 1187.820
520.3103, 1191.094
520.7924, 1193.448
521.2745, 1191.939
521.7567, 1187.652
522.2388, 1185.333
522.7209, 1186.573
523.2030, 1186.846
523.6851, 1184.432
524.1672, 1181.771
524.6494, 1181.039
525.1315, 1182.148
525.6136, 1182.935
526.0957, 1180.988
526.5778, 1177.387
527.0599, 1176.599
527.5421, 1179.683
528.0242, 1181.852
528.5063, 1179.624
528.9884, 1175.885
529.4705, 1174.829
529.9526, 1177.470
530.4348, 1179.502
530.9169, 1178.011
531.3990, 1174.667
531.8811, 1172.109
532.3632, 1170.685
532.8453, 1169.991
533.3275, 1169.906
533.8096, 1170.296
534.2917, 1170.080
534.7738, 1168.555
535.2559, 1167.404
535.7380, 1167.446
536.2202, 1167.823
536.7023, 1167.301
537.1844, 1165.797
537.6665, 1164.616
538.1486, 1165.424
538.6307, 1168.258
539.1129, 1168.912
539.5950, 1164.830
540.0771, 1161.891
540.5592, 1162.037
541.0413, 1163.737
541.5234, 1165.566
542.0056, 1167.109
542.4877, 1168.038
542.9698, 1167.748
543.4519, 1166.411
543.9340, 1165.272
544.4161, 1164.383
544.8983, 1163.772
545.3804, 1163.363
545.8625, 1163.266
546.3446, 1163.853
546.8267, 1165.718
547.3088, 1167.249
547.7910, 1166.978
548.2731, 1165.825
548.7552, 1165.820
549.2373, 1167.419
549.7194, 1169.111
550.2015, 1169.318
550.6837, 1167.985
551.1658, 1167.411
551.6479, 1168.853
552.1300, 1169.447
552.6121, 1168.194
553.0942, 1165.742
553.5764, 1162.722
554.0585, 1159.395
554.5406, 1156.048
555.0227, 1153.006
555.5048, 1150.258
555.9869, 1147.762
556.4691, 1145.836
556.9512, 1143.695
557.4333, 1140.798
557.9154, 1137.647
558.3975, 1134.879
558.8796, 1132.677
559.3618, 1130.840
559.8439, 1129.471
560.3260, 1128.365
560.8081, 1126.629
561.2902, 1123.998
561.7723, 1121.372
562.2545, 1119.420
562.7366, 1118.060
563.2187, 1116.696
563.7008, 1114.897
564.1829, 1113.654
564.6650, 1113.740
565.1472, 1114.447
565.6293, 1114.786
566.1114, 1114.559
566.5935, 1114.254
567.0756, 1114.385
567.5577, 1114.947
568.0399, 1115.127
568.5220, 1114.930
569.0041, 1114.291
569.4862, 1112.707
569.9683, 1110.948
570.4504, 1110.047
570.9326, 1110.083
571.4147, 1109.873
571.8968, 1107.945
572.3789, 1104.637
572.8610, 1102.085
573.3431, 1100.382
573.8253, 1099.227
574.3074, 1098.940
574.7895, 1098.920
575.2716, 1098.181
575.7537, 1096.411
576.2358, 1094.978
576.7180, 1094.897
577.2001, 1095.391
577.6822, 1095.495
578.1643, 1095.080
578.6464, 1094.017
579.1285, 1091.966
579.6107, 1089.427
580.0928, 1088.565
580.5749, 1091.690
581.0570, 1093.431
581.5391, 1093.074
582.0212, 1091.664
582.5034, 1089.703
582.9855, 1087.435
583.4676, 1085.143
583.9497, 1082.886
584.4318, 1080.913
584.9139, 1080.115
585.3961, 1080.677
585.8782, 1081.804
586.3602, 1084.317
586.8423, 1086.460
587.3245, 1086.586
587.8066, 1084.844
588.2887, 1082.978
588.7708, 1082.054
589.2529, 1081.184
589.7350, 1078.753
