##NAMES=Andalusite
##RRUFFID=R050449
##IDEAL CHEMISTRY=Al_2_SiO_5_
##LOCALITY=Itinga, Minas Gerais, Brazil
##OWNER=RRUFF
##SOURCE=Marcus Origlieri
##DESCRIPTION=Green fragment
##STATUS=The identification of this mineral has been confirmed by X-ray diffraction and chemical analysis
##URL=rruff.info/R050449
##MEASURED CHEMISTRY=Al_2.00_Fe^3+^_0.01_Si_0.99_O_5_
93.78320, 168.1617
94.26532, 170.3278
94.74744, 171.1361
95.22955, 170.1435
95.71167, 168.1754
96.19379, 165.4934
96.67590, 162.3983
97.15802, 159.0564
97.64014, 155.0969
98.12225, 150.9491
98.60437, 147.3737
99.08649, 144.7143
99.56860, 142.7300
100.0507, 141.0266
100.5328, 139.4756
101.0150, 137.7352
101.4971, 135.4545
101.9792, 132.5959
102.4613, 129.9663
102.9434, 127.8721
103.4255, 126.0915
103.9077, 124.4727
104.3898, 122.9368
104.8719, 121.6033
105.3540, 120.7897
105.8361, 120.9267
106.3182, 120.8162
106.8004, 120.4036
107.2825, 119.5788
107.7646, 118.1323
108.2467, 115.8764
108.7288, 112.8878
109.2109, 110.2514
109.6931, 107.7620
110.1752, 105.7809
110.6573, 104.6737
111.1394, 104.2164
111.6215, 103.8171
112.1036, 102.9092
112.5858, 101.3584
113.0679, 100.5223
113.5500, 100.9530
114.0321, 101.6418
114.5142, 101.8846
114.9964, 101.5690
115.4785, 101.0038
115.9606, 100.5708
116.4427, 100.2637
116.9248, 99.68237
117.4069, 98.42085
117.8891, 96.84117
118.3712, 95.68952
118.8533, 95.19140
119.3354, 95.07146
119.8175, 95.02893
120.2996, 95.06290
120.7818, 95.20955
121.2639, 95.58557
121.7460, 96.20552
122.2281, 96.64310
122.7102, 96.64125
123.1923, 96.54405
123.6745, 96.56316
124.1566, 96.72325
124.6387, 96.84656
125.1208, 96.65675
125.6029, 95.99649
126.0850, 95.33153
126.5672, 94.77608
127.0493, 94.19601
127.5314, 93.41299
128.0135, 92.36205
128.4956, 91.22069
128.9777, 90.47124
129.4599, 90.59306
129.9420, 90.61251
130.4241, 90.43508
130.9062, 90.11745
131.3883, 89.74908
131.8705, 89.37709
132.3526, 88.99193
132.8347, 88.53357
133.3168, 87.81935
133.7989, 87.22455
134.2810, 86.81911
134.7632, 86.63103
135.2453, 86.84409
135.7274, 87.89155
136.2095, 89.38683
136.6916, 90.01881
137.1737, 89.06705
137.6559, 87.62219
138.1380, 86.75965
138.6201, 86.54164
139.1022, 86.61812
139.5843, 87.18813
140.0664, 87.85616
140.5486, 87.95461
141.0307, 86.84123
141.5128, 85.01498
141.9949, 84.00920
142.4770, 84.28924
142.9591, 84.75782
143.4413, 84.96900
143.9234, 84.99860
144.4055, 85.02510
144.8876, 85.27378
145.3697, 85.75060
145.8518, 85.61201
146.3340, 83.77896
146.8161, 82.25537
147.2982, 82.02637
147.7803, 82.76159
148.2624, 83.36024
148.7445, 82.61945
149.2267, 79.98671
149.7088, 78.36496
150.1909, 78.12411
150.6730, 78.33930
151.1551, 78.50266
151.6372, 78.54652
152.1194, 78.73966
152.6015, 79.47475
153.0836, 81.14017
153.5657, 82.24459
154.0478, 82.63502
154.5299, 82.54346
155.0121, 82.14630
155.4942, 81.48003
155.9763, 80.60900
156.4584, 79.46981
156.9405, 77.97774
157.4227, 76.90034
157.9048, 76.46120
158.3869, 76.58080
158.8690, 77.18905
159.3511, 78.49136
159.8332, 79.93629
160.3154, 80.97566
160.7975, 81.63936
161.2796, 81.82307
161.7617, 81.15945
162.2438, 79.73235
162.7259, 78.71906
163.2081, 78.77934
163.6902, 79.04675
164.1723, 78.84980
164.6544, 78.12443
165.1365, 77.26564
165.6186, 76.60073
166.1008, 76.08098
166.5829, 76.00968
167.0650, 76.98073
167.5471, 78.05666
168.0292, 78.61860
168.5113, 78.52139
168.9935, 78.11092
169.4756, 77.99856
169.9577, 78.53770
170.4398, 78.67538
170.9219, 78.00285
171.4040, 77.14468
171.8862, 76.66235
172.3683, 76.75484
172.8504, 77.15572
173.3325, 77.22381
173.8146, 76.16393
174.2967, 75.74010
174.7789, 76.75813
175.2610, 78.18867
175.7431, 78.71770
176.2252, 77.72343
176.7073, 75.72848
177.1894, 74.46106
177.6716, 74.03456
178.1537, 74.07230
178.6358, 74.83453
179.1179, 76.00462
179.6000, 77.00227
180.0821, 77.55214
180.5643, 77.71300
181.0464, 77.67289
181.5285, 77.21221
182.0106, 76.89783
182.4927, 77.31693
182.9749, 78.24049
183.4570, 78.52943
183.9391, 77.19047
184.4212, 75.15023
184.9033, 74.42169
185.3854, 75.61339
185.8676, 77.16010
186.3497, 77.75447
186.8318, 77.37029
187.3139, 76.95900
187.7960, 76.95134
188.2781, 77.14188
188.7603, 77.35872
189.2424, 77.63070
189.7245, 77.78439
190.2066, 77.38718
190.6887, 76.11946
191.1708, 75.49154
191.6530, 77.02144
192.1351, 78.96271
192.6172, 79.65691
193.0993, 78.38806
193.5814, 76.13470
194.0635, 74.88035
194.5457, 75.10542
195.0278, 75.43289
195.5099, 75.50060
195.9920, 74.14692
196.4741, 75.76424
196.9562, 76.65813
197.4384, 76.86744
197.9205, 74.34187
198.4026, 75.34785
198.8847, 74.93854
199.3668, 74.47119
199.8489, 75.97421
200.3311, 73.84641
200.8132, 75.31819
201.2953, 75.35309
201.7774, 76.04560
202.2595, 77.68951
202.7416, 79.06116
203.2238, 77.76183
203.7059, 75.25895
204.1880, 73.67757
204.6701, 74.20161
205.1522, 76.30476
205.6344, 77.64320
206.1165, 78.17027
206.5986, 78.11490
207.0807, 76.84567
207.5628, 75.05608
208.0449, 74.15532
208.5271, 75.03075
209.0092, 77.11239
209.4913, 78.01891
209.9734, 77.01906
210.4555, 76.00349
210.9376, 75.70512
211.4198, 75.92181
211.9019, 76.06985
212.3840, 75.79953
212.8661, 75.32928
213.3482, 75.28551
213.8303, 75.95416
214.3125, 76.55981
214.7946, 76.53982
215.2767, 76.01570
215.7588, 75.67706
216.2409, 75.97559
216.7230, 76.53120
217.2052, 76.57929
217.6873, 75.83286
218.1694, 75.17635
218.6515, 75.44985
219.1336, 76.61417
219.6157, 77.59137
220.0979, 77.87270
220.5800, 77.81850
221.0621, 77.79149
221.5442, 77.80765
222.0263, 77.94096
222.5084, 78.41958
222.9906, 79.31245
223.4727, 79.80696
223.9548, 79.23213
224.4369, 78.39317
224.9190, 77.83329
225.4011, 77.65057
225.8833, 77.71634
226.3654, 77.96040
226.8475, 78.45557
227.3296, 78.76887
227.8117, 78.62769
228.2938, 78.38991
228.7760, 78.28623
229.2581, 78.35986
229.7402, 78.46623
230.2223, 78.35795
230.7044, 77.88342
231.1866, 77.68797
231.6687, 78.06194
232.1508, 78.55615
232.6329, 78.89645
233.1150, 79.03482
233.5971, 79.10782
234.0793, 79.33452
234.5614, 79.85925
235.0435, 80.17122
235.5256, 80.25163
236.0077, 80.16248
236.4898, 79.79154
236.9720, 79.19451
237.4541, 78.68116
237.9362, 78.73179
238.4183, 79.74422
238.9004, 80.34698
239.3825, 80.21672
239.8647, 79.99353
240.3468, 80.23281
240.8289, 80.93028
241.3110, 81.51836
241.7931, 81.22299
242.2752, 79.50632
242.7574, 78.47329
243.2395, 78.26408
243.7216, 78.51443
244.2037, 79.22133
244.6858, 80.27136
245.1679, 81.25859
245.6501, 81.72243
246.1322, 81.52231
246.6143, 81.26645
247.0964, 80.95399
247.5785, 80.59284
248.0606, 80.10151
248.5428, 79.51540
249.0249, 79.05978
249.5070, 78.99903
249.9891, 79.42220
250.4712, 79.57312
250.9533, 79.29252
251.4355, 78.88416
251.9176, 78.56207
252.3997, 78.32912
252.8818, 78.01336
253.3639, 77.38287
253.8460, 76.45677
254.3282, 76.06790
254.8103, 76.77254
255.2924, 77.56139
255.7745, 77.72537
256.2566, 77.27461
256.7387, 76.62376
257.2209, 75.98324
257.7030, 75.39274
258.1851, 74.98312
258.6672, 74.60929
259.1493, 74.53236
259.6314, 75.27959
260.1136, 76.72017
260.5957, 77.58351
261.0778, 76.61939
261.5599, 74.69319
262.0420, 74.46303
262.5241, 77.21330
263.0063, 80.16655
263.4884, 81.43748
263.9705, 81.14619
264.4526, 80.25041
264.9347, 78.77300
265.4168, 77.23048
265.8990, 76.60058
266.3811, 77.25661
266.8632, 78.02625
267.3453, 77.79742
267.8275, 76.75493
268.3096, 76.40485
268.7917, 77.55657
269.2738, 79.47181
269.7559, 81.25100
270.2380, 82.96543
270.7202, 84.08815
271.2023, 83.76244
271.6844, 82.26779
272.1665, 81.55254
272.6486, 82.39041
273.1307, 83.93510
273.6129, 85.33482
274.0950, 86.59371
274.5771, 87.76516
275.0592, 88.80095
275.5413, 89.75093
276.0234, 90.93079
276.5056, 92.61548
276.9877, 94.23560
277.4698, 95.45595
277.9519, 96.28271
278.4340, 96.76552
278.9161, 96.63908
279.3983, 96.11330
279.8804, 96.21726
280.3625, 97.42882
280.8446, 98.62041
281.3267, 98.91428
281.8088, 98.65539
282.2910, 98.65485
282.7731, 99.34554
283.2552, 100.6280
283.7373, 102.2874
284.2194, 104.6920
284.7015, 106.7601
285.1837, 107.9241
285.6658, 108.5021
286.1479, 108.9054
286.6300, 109.1926
287.1121, 109.5386
287.5942, 110.4472
288.0764, 112.2594
288.5585, 113.8260
289.0406, 114.8524
289.5227, 115.3970
290.0048, 115.4372
290.4869, 114.9316
290.9691, 114.0472
291.4512, 113.1004
291.9333, 112.1925
292.4154, 110.8930
292.8975, 109.0328
293.3796, 106.7903
293.8618, 104.1204
294.3439, 101.0142
294.8260, 97.93383
295.3081, 95.56265
295.7902, 94.07962
296.2723, 92.47012
296.7545, 90.39831
297.2366, 88.27601
297.7187, 86.02144
298.2008, 83.76568
298.6829, 82.20285
299.1650, 82.36832
299.6472, 84.48758
300.1293, 86.19872
300.6114, 87.43303
301.0935, 88.12263
301.5756, 87.88737
302.0577, 86.98556
302.5399, 86.18936
303.0220, 86.12621
303.5041, 86.76952
303.9862, 87.57762
304.4683, 88.99740
304.9504, 90.03744
305.4326, 89.93233
305.9147, 89.24501
306.3968, 89.05127
306.8789, 90.12859
307.3610, 92.12695
307.8431, 93.48595
308.3253, 93.74767
308.8074, 94.06462
309.2895, 94.61116
309.7716, 95.43498
310.2537, 96.69178
310.7358, 98.51311
311.2180, 100.5192
311.7001, 101.7896
312.1822, 101.9354
312.6643, 102.2140
313.1464, 102.5412
313.6285, 103.2638
314.1107, 104.8296
314.5928, 107.3317
315.0749, 110.2083
315.5570, 112.7457
316.0392, 114.9957
316.5213, 116.6900
317.0034, 117.1660
317.4855, 117.5768
317.9676, 118.8195
318.4497, 120.8056
318.9319, 122.5208
319.4140, 122.8780
319.8961, 121.7610
320.3782, 120.4578
320.8603, 118.9353
321.3424, 117.2375
321.8246, 115.4806
322.3067, 113.5726
322.7888, 111.2503
323.2709, 108.2272
323.7530, 104.6160
324.2351, 101.3257
324.7173, 98.27139
325.1994, 95.70954
325.6815, 93.81058
326.1636, 92.34962
326.6457, 91.05696
327.1278, 89.86156
327.6100, 88.62480
328.0921, 86.84779
328.5742, 83.90923
329.0563, 81.81145
329.5384, 81.31005
330.0205, 81.57111
330.5027, 82.06383
330.9848, 82.62975
331.4669, 83.04340
331.9490, 82.82544
332.4311, 81.70995
332.9132, 81.13662
333.3954, 81.84687
333.8775, 82.78044
334.3596, 83.48286
334.8417, 83.87877
335.3238, 84.00717
335.8059, 83.63885
336.2881, 82.75410
336.7702, 82.72459
337.2523, 84.45909
337.7344, 86.08973
338.2165, 86.57542
338.6986, 86.29380
339.1808, 86.19790
339.6629, 86.96934
340.1450, 88.34607
340.6271, 89.34752
341.1092, 89.85873
341.5913, 90.19188
342.0735, 90.16415
342.5556, 90.15157
343.0377, 90.69061
343.5198, 92.07183
344.0019, 93.80373
344.4840, 95.04942
344.9662, 95.68546
345.4483, 96.41619
345.9304, 97.67632
346.4125, 98.98164
346.8946, 99.94024
347.3767, 100.4990
347.8589, 100.9783
348.3410, 101.6809
348.8231, 102.6039
349.3052, 103.4667
349.7873, 103.8075
350.2694, 104.6178
350.7516, 107.1470
351.2337, 110.8953
351.7158, 113.7241
352.1979, 113.7116
352.6800, 111.7577
353.1621, 110.8204
353.6443, 111.1421
354.1264, 112.0527
354.6085, 113.6710
355.0906, 115.5063
355.5727, 116.7307
356.0548, 116.9509
356.5370, 116.5947
357.0191, 116.1354
357.5012, 115.5623
357.9833, 115.0554
358.4654, 114.9181
358.9475, 114.7377
359.4297, 114.0618
359.9118, 112.8352
360.3939, 111.1843
360.8760, 108.8436
361.3581, 106.0331
361.8402, 103.9348
362.3224, 103.1827
362.8045, 102.6687
363.2866, 101.0471
363.7687, 98.45419
364.2508, 96.19379
364.7329, 95.07475
365.2151, 94.51209
365.6972, 93.41805
366.1793, 91.59318
366.6614, 89.87486
367.1436, 88.97313
367.6257, 88.69190
368.1078, 88.42249
368.5899, 88.23511
369.0720, 87.90961
369.5541, 87.15078
370.0363, 86.02861
370.5184, 84.99614
371.0005, 84.21390
371.4826, 83.71145
371.9647, 83.54388
372.4468, 83.80785
372.9290, 84.11420
373.4111, 84.49614
373.8932, 84.78638
374.3753, 84.53906
374.8574, 83.56770
375.3395, 82.49782
375.8217, 82.26482
376.3038, 83.02023
376.7859, 83.20310
377.2680, 81.89541
377.7501, 80.48143
378.2322, 80.39646
378.7144, 81.57467
379.1965, 82.62223
379.6786, 82.40623
380.1607, 81.08421
380.6428, 80.53708
381.1249, 81.39650
381.6071, 82.21393
382.0892, 82.37341
382.5713, 82.14467
383.0534, 82.14836
383.5355, 82.68425
384.0176, 83.34499
384.4998, 83.22575
384.9819, 81.50196
385.4640, 80.32680
385.9461, 79.80434
386.4282, 79.81400
386.9103, 80.54336
387.3925, 81.86675
387.8746, 83.11048
388.3567, 83.53684
388.8388, 83.05339
389.3209, 82.38313
389.8030, 80.93778
390.2852, 79.92471
390.7673, 80.11353
391.2494, 81.06762
391.7315, 81.93753
392.2136, 82.23897
392.6957, 82.03048
393.1779, 81.48553
393.6600, 79.83833
394.1421, 78.98267
394.6242, 79.67513
395.1063, 80.83543
395.5884, 81.53104
396.0706, 81.51942
396.5527, 81.12071
397.0348, 80.68194
397.5169, 80.12859
397.9990, 79.84251
398.4811, 80.00559
398.9633, 80.28201
399.4454, 80.61238
399.9275, 80.95213
400.4096, 81.23926
400.8917, 81.42809
401.3738, 81.53118
401.8560, 81.59974
402.3381, 81.62857
402.8202, 81.63100
403.3023, 81.64954
403.7844, 81.63094
404.2665, 81.48265
404.7487, 81.16689
405.2308, 80.85158
405.7129, 80.68034
406.1950, 80.64226
406.6771, 80.97939
407.1592, 82.27312
407.6414, 83.38412
408.1235, 83.18965
408.6056, 81.94681
409.0877, 81.10620
409.5698, 81.86131
410.0519, 83.55332
410.5341, 84.71616
411.0162, 85.32161
411.4983, 85.34021
411.9804, 84.08180
412.4625, 82.37433
412.9446, 81.69639
413.4268, 82.72612
413.9089, 84.07499
414.3910, 84.66148
414.8731, 84.60878
415.3553, 84.49170
415.8374, 84.46169
416.3195, 84.49487
416.8016, 84.66425
417.2837, 85.01907
417.7658, 84.99311
418.2480, 83.93983
418.7301, 82.69015
419.2122, 82.42528
419.6943, 83.21397
420.1764, 83.81497
420.6585, 83.11812
421.1407, 81.28291
421.6228, 80.26161
422.1049, 80.36794
422.5870, 80.83568
423.0691, 81.65268
423.5512, 82.57390
424.0334, 83.23354
424.5155, 83.49126
424.9976, 83.30580
425.4797, 82.53581
425.9618, 80.49690
426.4439, 79.28740
426.9261, 79.53078
427.4082, 80.08455
427.8903, 80.21484
428.3724, 79.86665
428.8545, 79.27023
429.3366, 78.52975
429.8188, 77.68401
430.3009, 77.64323
430.7830, 79.84636
431.2651, 81.27328
431.7472, 80.83587
432.2293, 79.59805
432.7115, 78.79997
433.1936, 78.90636
433.6757, 79.57991
434.1578, 80.40092
434.6399, 81.55537
435.1220, 82.18749
435.6042, 81.41426
436.0863, 80.79092
436.5684, 81.37647
437.0505, 82.84270
437.5326, 83.97306
438.0147, 83.79679
438.4969, 82.68388
438.9790, 81.94209
439.4611, 81.67778
439.9432, 81.52058
440.4253, 81.30006
440.9074, 81.11310
441.3896, 81.03613
441.8717, 81.06511
442.3538, 81.31596
442.8359, 82.07596
443.3180, 83.22957
443.8001, 84.01431
444.2823, 84.18358
444.7644, 84.14433
445.2465, 84.28816
445.7286, 84.57164
446.2107, 84.79582
446.6928, 84.83170
447.1750, 84.83435
447.6571, 85.01948
448.1392, 85.35957
448.6213, 85.56178
449.1034, 85.42107
449.5855, 85.08318
450.0677, 84.93984
450.5498, 84.93329
451.0319, 85.18015
451.5140, 86.28746
451.9961, 87.40182
452.4782, 87.23252
452.9604, 85.61754
453.4425, 83.74417
453.9246, 82.81667
454.4067, 82.92308
454.8888, 83.10747
455.3709, 83.81522
455.8531, 84.11237
456.3352, 83.06377
456.8173, 81.49826
457.2994, 80.94601
457.7815, 82.12622
458.2636, 84.12959
458.7458, 85.00801
459.2279, 84.13098
459.7100, 83.41442
460.1921, 82.87493
460.6742, 82.52153
461.1563, 82.58825
461.6385, 82.89937
462.1206, 82.84614
462.6027, 81.70763
463.0848, 79.86562
463.5669, 79.46264
464.0491, 81.30364
464.5312, 82.95934
465.0133, 83.46273
465.4954, 83.45750
465.9775, 83.61632
466.4597, 84.11357
466.9418, 84.48222
467.4239, 84.10567
467.9060, 83.12717
468.3881, 82.48647
468.8702, 82.28596
469.3524, 82.51013
469.8345, 83.63483
470.3166, 85.24881
470.7987, 86.04530
471.2808, 84.97145
471.7629, 83.51768
472.2451, 83.07631
472.7272, 83.47353
473.2093, 83.78121
473.6914, 83.55574
474.1735, 83.14547
474.6556, 83.33215
475.1378, 84.41428
475.6199, 84.99870
476.1020, 84.33168
476.5841, 83.45419
477.0662, 83.30779
477.5483, 83.92016
478.0305, 84.80458
478.5126, 85.65179
478.9947, 86.42024
479.4768, 86.71253
479.9589, 86.00931
480.4410, 85.45876
480.9232, 85.14565
481.4053, 85.08611
481.8874, 85.43429
482.3695, 86.16119
482.8516, 86.85411
483.3337, 86.95402
483.8159, 86.36655
484.2980, 85.98315
484.7801, 85.73849
485.2622, 85.80437
485.7443, 86.54409
486.2264, 87.55135
486.7086, 88.17310
487.1907, 88.10381
487.6728, 87.66850
488.1549, 87.21918
488.6370, 86.73650
489.1191, 86.61673
489.6013, 87.19545
490.0834, 87.89193
490.5655, 88.18077
491.0476, 88.10966
491.5297, 87.99992
492.0118, 88.03438
492.4940, 88.07048
492.9761, 87.99305
493.4582, 87.78755
493.9403, 85.76216
494.4224, 87.25047
494.9045, 88.01533
495.3867, 88.09561
495.8688, 85.44101
496.3509, 86.31797
496.8330, 85.77964
497.3151, 85.18328
497.7972, 86.55728
498.2794, 84.30045
498.7615, 85.64320
499.2436, 85.54908
499.7257, 86.11257
500.2078, 85.25205
500.6899, 84.82376
501.1721, 84.77109
501.6542, 85.06392
502.1363, 85.41182
502.6184, 85.49092
503.1005, 85.22571
503.5826, 84.80172
504.0648, 84.41553
504.5469, 84.06018
505.0290, 83.81489
505.5111, 83.66925
505.9932, 83.66065
506.4753, 83.93637
506.9575, 84.31421
507.4396, 84.49510
507.9217, 84.34299
508.4038, 84.05182
508.8859, 83.74232
509.3680, 83.43413
509.8502, 83.59789
510.3323, 84.72018
510.8144, 85.72469
511.2965, 85.24028
511.7786, 83.56639
512.2607, 82.31160
512.7429, 81.96092
513.2250, 82.11738
513.7071, 82.70394
514.1892, 83.56456
514.6713, 84.02273
515.1534, 83.68233
515.6356, 83.07644
516.1177, 83.32527
516.5998, 85.17972
517.0819, 86.19106
517.5640, 85.79800
518.0461, 84.95298
518.5283, 84.01203
519.0104, 83.18034
519.4925, 82.81780
519.9746, 83.19069
520.4567, 84.12328
520.9388, 85.01772
521.4210, 86.16309
521.9031, 86.69290
522.3852, 85.97275
522.8673, 85.09001
523.3494, 84.85334
523.8315, 85.26241
524.3137, 85.77664
524.7958, 86.11172
525.2779, 86.20843
525.7600, 85.56364
526.2421, 83.73292
526.7242, 82.87532
527.2064, 85.09508
527.6885, 88.19374
528.1706, 89.18598
528.6527, 87.48067
529.1348, 85.82484
529.6169, 85.61559
530.0991, 86.35561
530.5812, 87.45277
531.0633, 88.81729
531.5454, 89.89672
532.0275, 90.27226
532.5096, 90.01148
532.9918, 89.56499
533.4739, 88.30846
533.9560, 87.68864
534.4381, 88.74583
534.9202, 90.19063
535.4023, 90.39844
535.8845, 89.20521
536.3666, 87.89472
536.8487, 87.80373
537.3308, 88.92686
537.8129, 89.81511
538.2951, 90.43761
538.7772, 90.83954
539.2593, 91.00490
539.7415, 90.98489
540.2236, 90.66042
540.7057, 90.03023
541.1878, 89.69031
541.6699, 90.59904
542.1520, 92.49384
542.6342, 93.41426
543.1163, 92.86187
543.5984, 92.22049
544.0805, 92.45483
544.5626, 93.20319
545.0447, 93.80949
545.5269, 94.11742
546.0090, 94.40996
546.4911, 94.85418
546.9732, 95.39973
547.4553, 96.04914
547.9374, 96.81018
548.4196, 97.27775
548.9017, 96.93022
549.3838, 95.73275
549.8659, 95.38040
550.3480, 96.92705
550.8301, 97.90875
551.3123, 97.27708
551.7944, 95.87116
552.2765, 94.57793
552.7586, 93.70247
553.2407, 93.29610
553.7228, 93.63917
554.2050, 94.82164
554.6871, 95.03221
555.1692, 93.48264
555.6513, 92.05974
556.1334, 91.44097
556.6155, 91.33107
557.0977, 91.45894
557.5798, 91.81100
558.0619, 91.95036
558.5440, 91.18356
559.0261, 89.83785
559.5082, 89.19911
559.9904, 89.54922
560.4725, 90.13685
560.9546, 90.47237
561.4367, 90.56444
561.9188, 90.55440
562.4009, 90.39229
562.8831, 90.19172
563.3652, 89.90132
563.8473, 89.63520
564.3294, 89.58803
564.8115, 89.78435
565.2936, 90.03079
565.7758, 90.10950
566.2579, 90.01956
566.7400, 90.21276
567.2221, 91.28238
567.7042, 91.91031
568.1863, 91.53313
568.6685, 90.80196
569.1506, 90.38612
569.6327, 90.42354
570.1148, 90.56786
570.5969, 90.39555
571.0790, 89.99989
571.5612, 90.16544
572.0433, 91.31595
572.5254, 91.78963
573.0075, 89.84740
573.4896, 87.09957
573.9717, 86.06013
574.4539, 87.35572
574.9360, 88.80090
575.4181, 89.51167
575.9002, 89.69007
576.3823, 89.41640
576.8644, 88.77398
577.3466, 88.35672
577.8287, 88.63998
578.3108, 89.45183
578.7929, 89.94456
579.2750, 90.03075
579.7571, 89.89078
580.2393, 89.25052
580.7214, 88.59459
581.2035, 88.33382
581.6856, 88.45254
582.1677, 88.62432
582.6498, 88.56028
583.1320, 88.40902
583.6141, 88.78360
584.0962, 89.92242
584.5783, 90.76507
585.0604, 90.75459
585.5425, 90.54073
586.0247, 90.80421
586.5068, 91.49864
586.9889, 91.82594
587.4710, 90.89826
587.9531, 89.78056
588.4352, 90.00709
588.9174, 91.32964
589.3995, 92.12669
589.8816, 91.62017
590.3637, 90.46529
590.8458, 89.74343
591.3279, 89.48363
