##NAMES=Andalusite
##RRUFFID=R050626
##IDEAL CHEMISTRY=Al_2_SiO_5_
##LOCALITY=Minas Gerais, Brazil
##OWNER=RRUFF
##SOURCE=Gemological Center
##DESCRIPTION=Grayish brown fragment
##STATUS=The identification of this mineral has been confirmed by X-ray diffraction and chemical analysis
##URL=rruff.info/R050626
##MEASURED CHEMISTRY=(Al_1.99_Fe^3+^_0.01_)_Î£=1_Si_1.00_O_5_
91.72394, 0.0000000E+00
92.20605, 103.5400
92.68817, 104.6642
93.17029, 105.8717
93.65240, 106.0222
94.13452, 105.5537
94.61664, 104.0900
95.09875, 101.5180
95.58087, 98.36939
96.06299, 95.82558
96.54510, 94.27784
97.02721, 92.75404
97.50933, 90.97897
97.99145, 89.17730
98.47356, 87.69690
98.95568, 86.76084
99.43780, 86.24604
99.91991, 85.34142
100.4020, 84.05857
100.8841, 82.52396
101.3663, 80.61665
101.8484, 78.41862
102.3305, 76.24358
102.8126, 74.38741
103.2947, 72.90355
103.7768, 71.61640
104.2590, 70.44646
104.7411, 69.48458
105.2232, 68.93208
105.7053, 68.89537
106.1874, 68.96638
106.6695, 68.56507
107.1517, 67.73336
107.6338, 66.85448
108.1159, 66.11550
108.5980, 65.47843
109.0801, 64.73525
109.5622, 63.72010
110.0444, 62.67899
110.5265, 61.88399
111.0086, 61.36012
111.4907, 60.79089
111.9728, 59.66663
112.4549, 57.67828
112.9371, 56.23876
113.4192, 55.93789
113.9013, 56.03589
114.3834, 56.03068
114.8655, 55.72942
115.3476, 55.26435
115.8298, 54.99237
116.3119, 55.08081
116.7940, 55.17673
117.2761, 55.32061
117.7582, 55.43401
118.2403, 55.40275
118.7225, 55.14774
119.2046, 54.69524
119.6867, 54.36131
120.1688, 54.25790
120.6509, 54.13381
121.1330, 53.83590
121.6152, 53.41456
122.0973, 53.07427
122.5794, 53.00544
123.0615, 53.20617
123.5436, 53.28141
124.0257, 53.19952
124.5079, 53.01020
124.9900, 52.71650
125.4721, 52.29738
125.9542, 51.90273
126.4363, 51.70568
126.9184, 51.64386
127.4006, 51.59304
127.8827, 51.50212
128.3648, 51.38660
128.8469, 51.30471
129.3290, 51.31047
129.8111, 51.27746
130.2932, 51.15258
130.7754, 50.93731
131.2575, 50.64217
131.7396, 50.19732
132.2217, 49.55975
132.7038, 49.16731
133.1859, 49.29315
133.6681, 49.47743
134.1502, 49.55593
134.6323, 49.49810
135.1144, 49.34855
135.5965, 49.13633
136.0786, 48.71662
136.5608, 48.55004
137.0429, 48.85048
137.5250, 49.22748
138.0071, 49.40537
138.4892, 49.29758
138.9713, 48.97842
139.4535, 48.59517
139.9356, 48.00478
140.4177, 47.54852
140.8998, 47.23024
141.3819, 47.05800
141.8640, 47.10237
142.3462, 47.43813
142.8283, 47.90025
143.3104, 47.99929
143.7925, 47.61554
144.2746, 47.17859
144.7567, 46.79461
145.2388, 46.47940
145.7210, 46.30490
146.2031, 46.35176
146.6852, 46.54786
147.1673, 46.72252
147.6494, 46.85400
148.1315, 46.98633
148.6137, 47.24405
149.0958, 47.67788
149.5779, 47.87529
150.0600, 47.27224
150.5421, 46.44759
151.0242, 45.96825
151.5064, 46.09045
151.9885, 46.56507
152.4706, 46.90117
152.9527, 47.06935
153.4348, 47.14150
153.9169, 47.09130
154.3991, 46.99310
154.8812, 46.94365
155.3633, 47.00693
155.8454, 47.15749
156.3275, 47.23999
156.8096, 47.21407
157.2918, 47.15094
157.7739, 47.04656
158.2560, 46.91607
158.7381, 46.77462
159.2202, 46.62628
159.7023, 46.46835
160.1845, 46.40953
160.6666, 46.45966
161.1487, 46.58094
161.6308, 46.83406
162.1129, 47.16883
162.5950, 47.44061
163.0772, 47.51302
163.5593, 47.35488
164.0414, 47.21831
164.5235, 47.08491
165.0056, 46.98422
165.4877, 46.88971
165.9698, 46.80915
166.4520, 46.87624
166.9341, 47.34108
167.4162, 48.19921
167.8983, 48.72612
168.3804, 48.72734
168.8625, 48.40606
169.3447, 47.91265
169.8268, 47.19612
170.3089, 46.59403
170.7910, 46.59127
171.2731, 47.03419
171.7552, 47.40470
172.2374, 47.45988
172.7195, 47.28680
173.2016, 47.13570
173.6837, 47.06527
174.1658, 46.96534
174.6479, 46.70576
175.1301, 46.33380
175.6122, 46.03100
176.0943, 45.93441
176.5764, 46.03721
177.0585, 46.19898
177.5406, 46.56851
178.0228, 46.84357
178.5049, 46.74929
178.9870, 46.37337
179.4691, 46.08288
179.9512, 46.37464
180.4333, 47.49473
180.9155, 48.04934
181.3976, 47.43666
181.8797, 46.75674
182.3618, 46.49685
182.8439, 46.69913
183.3260, 47.12063
183.8082, 47.45839
184.2903, 47.61998
184.7724, 47.95209
185.2545, 48.44564
185.7366, 49.07281
186.2187, 49.90424
186.7009, 50.91302
187.1830, 51.91349
187.6651, 52.63062
188.1472, 52.91880
188.6293, 53.18755
189.1114, 53.60383
189.5936, 53.91169
190.0757, 53.84065
190.5578, 53.32471
191.0399, 52.57405
191.5220, 51.90464
192.0041, 51.34932
192.4863, 50.79072
192.9684, 50.16648
193.4505, 49.55163
193.9326, 49.02960
194.4147, 48.62054
194.8968, 48.32564
195.3790, 48.18253
195.8611, 48.18724
196.3432, 48.23523
196.8253, 48.38085
197.3074, 48.54443
197.7895, 48.52656
198.2717, 48.21360
198.7538, 47.80634
199.2359, 47.52974
199.7180, 47.37136
200.2001, 47.34671
200.6822, 47.49704
201.1644, 47.80025
201.6465, 48.14510
202.1286, 48.50158
202.6107, 48.90993
203.0928, 49.50923
203.5749, 50.29075
204.0571, 50.84458
204.5392, 50.70128
205.0213, 49.87345
205.5034, 49.27234
205.9855, 49.28344
206.4676, 49.38027
206.9497, 49.24918
207.4319, 48.87556
207.9140, 48.41396
208.3961, 47.98739
208.8782, 47.58533
209.3603, 47.28656
209.8424, 47.08638
210.3246, 47.00666
210.8067, 47.16058
211.2888, 47.51361
211.7709, 47.84570
212.2530, 47.85612
212.7351, 47.40284
213.2173, 47.07458
213.6994, 46.90304
214.1815, 46.82824
214.6636, 46.81688
215.1457, 46.86633
215.6278, 46.99942
216.1100, 47.25902
216.5921, 47.71592
217.0742, 48.12886
217.5563, 48.54372
218.0384, 48.89441
218.5205, 49.08094
219.0027, 49.11673
219.4848, 49.16208
219.9669, 49.45136
220.4490, 50.18052
220.9311, 50.65408
221.4132, 50.67826
221.8954, 50.60984
222.3775, 50.73252
222.8596, 51.08758
223.3417, 51.49107
223.8238, 51.70251
224.3059, 51.61839
224.7881, 51.60891
225.2702, 51.64840
225.7523, 51.77498
226.2344, 52.06681
226.7165, 52.53028
227.1986, 53.01883
227.6807, 53.33303
228.1629, 53.41207
228.6450, 53.63267
229.1271, 54.02759
229.6092, 54.56913
230.0913, 55.24302
230.5734, 56.04707
231.0556, 56.94133
231.5377, 57.90373
232.0198, 58.93227
232.5019, 59.94516
232.9840, 60.79731
233.4661, 61.67992
233.9483, 62.82096
234.4304, 64.25546
234.9125, 65.90810
235.3946, 67.66851
235.8767, 69.56346
236.3588, 71.87830
236.8410, 75.11143
237.3231, 78.66174
237.8052, 81.71178
238.2873, 84.22319
238.7694, 86.20125
239.2515, 87.73887
239.7337, 88.79218
240.2158, 89.05357
240.6979, 88.13306
241.1800, 86.41734
241.6621, 84.57565
242.1442, 82.57275
242.6264, 80.53657
243.1085, 78.45792
243.5906, 76.40609
244.0727, 74.51065
244.5548, 72.79409
245.0369, 71.28692
245.5191, 70.06998
246.0012, 69.18839
246.4833, 68.51067
246.9654, 68.13339
247.4475, 67.86572
247.9296, 67.41779
248.4117, 66.56225
248.8939, 65.55735
249.3760, 65.00313
249.8581, 65.08299
250.3402, 65.24835
250.8223, 65.31475
251.3044, 65.34336
251.7866, 65.40427
252.2687, 65.53224
252.7508, 65.69557
253.2329, 65.81240
253.7150, 65.82462
254.1971, 65.91247
254.6793, 66.14445
255.1614, 66.44804
255.6435, 66.71027
256.1256, 66.87358
256.6077, 67.09218
257.0898, 67.78277
257.5720, 69.42909
258.0541, 70.56923
258.5362, 70.57363
259.0183, 70.29423
259.5004, 70.48866
259.9825, 71.41123
260.4647, 72.70741
260.9468, 73.69731
261.4289, 74.13518
261.9110, 74.74706
262.3931, 75.60009
262.8752, 76.60967
263.3574, 77.68152
263.8395, 78.80489
264.3216, 80.06078
264.8037, 81.59072
265.2858, 83.45370
265.7679, 85.51350
266.2501, 87.57753
266.7322, 89.91714
267.2143, 92.77950
267.6964, 96.16521
268.1785, 99.82178
268.6606, 103.3510
269.1428, 106.3607
269.6249, 110.3329
270.1070, 115.4287
270.5891, 121.1442
271.0712, 127.2467
271.5533, 133.6653
272.0355, 140.3827
272.5176, 147.4258
272.9997, 154.8463
273.4818, 162.1886
273.9639, 169.7772
274.4460, 177.0205
274.9282, 183.9781
275.4103, 190.4024
275.8924, 195.5351
276.3745, 198.5669
276.8566, 199.2604
277.3387, 200.0583
277.8208, 200.4815
278.3029, 201.4274
278.7851, 202.8842
279.2672, 205.1384
279.7493, 208.8129
280.2314, 214.4006
280.7135, 221.8556
281.1956, 230.4697
281.6778, 240.3828
282.1599, 251.0593
282.6420, 262.0921
283.1241, 273.7511
283.6062, 286.5251
284.0883, 300.6051
284.5705, 316.1786
285.0526, 333.9254
285.5347, 353.7871
286.0168, 375.5416
286.4989, 398.9160
286.9810, 424.1927
287.4632, 452.4572
287.9453, 484.5892
288.4274, 518.7686
288.9095, 550.3786
289.3916, 582.3087
289.8737, 607.6985
290.3559, 627.2495
290.8380, 638.9280
291.3201, 639.6816
291.8022, 628.4237
292.2843, 606.5240
292.7664, 574.6984
293.2486, 529.2064
293.7307, 483.0454
294.2128, 434.7788
294.6949, 387.6718
295.1770, 344.9403
295.6591, 307.1787
296.1413, 274.2032
296.6234, 245.9555
297.1055, 223.1918
297.5876, 203.6435
298.0697, 188.0622
298.5518, 175.1617
299.0340, 163.9155
299.5161, 154.2259
299.9982, 146.3891
300.4803, 140.8955
300.9624, 138.0529
301.4445, 135.6963
301.9267, 134.3327
302.4088, 133.0499
302.8909, 131.0333
303.3730, 128.4049
303.8551, 126.1225
304.3372, 125.0178
304.8194, 124.8848
305.3015, 123.8117
305.7836, 120.4392
306.2657, 117.5591
306.7478, 116.5934
307.2299, 117.2190
307.7121, 118.4662
308.1942, 119.9251
308.6763, 121.5636
309.1584, 123.2324
309.6405, 124.6662
310.1227, 126.5006
310.6048, 128.8785
311.0869, 131.7990
311.5690, 135.2483
312.0511, 139.2101
312.5332, 143.6820
313.0154, 148.5842
313.4975, 153.6420
313.9796, 159.7896
314.4617, 167.0110
314.9438, 175.4931
315.4259, 185.4881
315.9081, 197.0255
316.3902, 210.1956
316.8723, 225.4885
317.3544, 243.2939
317.8365, 261.2205
318.3186, 280.6718
318.8007, 299.1919
319.2828, 315.6948
319.7650, 329.8464
320.2471, 339.2547
320.7292, 341.9244
321.2113, 337.1288
321.6934, 327.1277
322.1755, 308.9724
322.6577, 288.3309
323.1398, 267.3625
323.6219, 246.6518
324.1040, 227.2958
324.5861, 210.0285
325.0682, 194.7928
325.5504, 181.6547
326.0325, 170.2999
326.5146, 160.9157
326.9967, 154.0793
327.4788, 149.2184
327.9609, 145.0673
328.4431, 141.0678
328.9252, 138.6165
329.4073, 135.5057
329.8894, 135.4080
330.3715, 135.3829
330.8536, 135.3929
331.3358, 135.1785
331.8179, 134.1847
332.3000, 132.2541
332.7821, 130.2233
333.2642, 129.2254
333.7463, 129.5949
334.2285, 129.9258
334.7106, 130.1114
335.1927, 130.2864
335.6748, 130.6007
336.1569, 131.0477
336.6390, 131.4252
337.1212, 131.4626
337.6033, 131.1453
338.0854, 131.5679
338.5675, 133.4755
339.0496, 135.3213
339.5317, 136.3911
340.0139, 136.7708
340.4960, 136.7402
340.9781, 136.3915
341.4602, 135.8493
341.9423, 135.7677
342.4244, 136.3495
342.9066, 137.0674
343.3887, 137.8102
343.8708, 138.6269
344.3529, 139.5586
344.8350, 140.6142
345.3171, 141.8514
345.7993, 143.3663
346.2814, 145.0774
346.7635, 147.3067
347.2456, 150.0976
347.7277, 153.3685
348.2098, 157.0771
348.6920, 161.1828
349.1741, 165.6670
349.6562, 170.3804
350.1383, 175.1821
350.6204, 181.2448
351.1025, 188.5406
351.5847, 196.8751
352.0668, 206.2581
352.5489, 216.5491
353.0310, 227.5473
353.5131, 239.0794
353.9952, 251.1131
354.4774, 263.6354
354.9595, 277.8779
355.4416, 291.1427
355.9237, 303.9671
356.4058, 315.1783
356.8879, 323.4692
357.3701, 328.2178
357.8522, 329.5450
358.3343, 327.7567
358.8164, 322.4515
359.2985, 314.1176
359.7806, 301.9520
360.2627, 287.6002
360.7448, 271.7466
361.2270, 254.7886
361.7091, 237.7464
362.1912, 221.6076
362.6733, 206.2725
363.1554, 192.3562
363.6375, 180.2206
364.1197, 169.0712
364.6018, 158.6100
365.0839, 148.8338
365.5660, 140.0541
366.0481, 132.4790
366.5302, 126.0637
367.0124, 120.4952
367.4945, 116.3289
367.9766, 112.3720
368.4587, 108.2400
368.9408, 104.2452
369.4229, 100.7641
369.9051, 97.96777
370.3872, 95.69437
370.8693, 93.72153
371.3514, 92.26344
371.8335, 90.55773
372.3156, 88.10331
372.7978, 85.68958
373.2799, 83.85063
373.7620, 82.62057
374.2441, 81.56809
374.7262, 80.27082
375.2083, 78.71687
375.6905, 77.22952
376.1726, 75.58614
376.6547, 74.29696
377.1368, 73.67420
377.6189, 73.54003
378.1010, 73.53251
378.5832, 73.46060
379.0653, 73.37231
379.5474, 73.44906
380.0295, 73.83053
380.5116, 74.00183
380.9937, 73.69346
381.4759, 73.12309
381.9580, 72.40202
382.4401, 71.51697
382.9222, 70.74245
383.4043, 70.52864
383.8864, 70.86758
384.3686, 70.86752
384.8507, 70.16238
385.3328, 69.22560
385.8149, 68.37521
386.2970, 67.63518
386.7791, 67.12132
387.2613, 67.03352
387.7434, 67.20834
388.2255, 67.23449
388.7076, 67.03547
389.1897, 66.86147
389.6718, 66.93389
390.1540, 67.15720
390.6361, 67.35947
391.1182, 67.62203
391.6003, 67.73256
392.0824, 67.49770
392.5645, 66.93008
393.0467, 66.11176
393.5288, 64.96433
394.0109, 63.69361
394.4930, 62.64234
394.9751, 61.78860
395.4572, 61.17693
395.9394, 60.92289
396.4215, 60.89844
396.9036, 60.94005
397.3857, 61.02805
397.8678, 61.04083
398.3499, 60.77064
398.8321, 60.19538
399.3142, 59.94917
399.7963, 60.48941
400.2784, 61.01257
400.7605, 60.77047
401.2426, 59.93679
401.7247, 59.35704
402.2068, 59.58140
402.6890, 60.40255
403.1711, 60.89270
403.6532, 60.72619
404.1353, 60.68897
404.6174, 61.02978
405.0995, 61.53028
405.5817, 61.96220
406.0638, 62.24900
406.5459, 62.36757
407.0280, 62.25629
407.5101, 61.78515
407.9922, 61.50318
408.4744, 61.48656
408.9565, 61.56581
409.4386, 61.62064
409.9207, 61.68382
410.4028, 61.88970
410.8849, 62.35593
411.3671, 63.03696
411.8492, 63.58924
412.3313, 63.78662
412.8134, 64.13724
413.2955, 64.80246
413.7776, 65.60734
414.2598, 66.37493
414.7419, 67.04515
415.2240, 67.66250
415.7061, 68.32565
416.1882, 69.11568
416.6703, 69.67422
417.1525, 69.93017
417.6346, 69.98869
418.1167, 69.90938
418.5988, 69.67015
419.0809, 69.18472
419.5630, 68.31746
420.0452, 67.17178
420.5273, 66.18463
421.0094, 65.45280
421.4915, 64.68721
421.9736, 63.68612
422.4557, 62.63938
422.9379, 61.76871
423.4200, 61.14568
423.9021, 60.63742
424.3842, 60.07447
424.8663, 59.46643
425.3484, 59.04445
425.8306, 58.95203
426.3127, 58.94253
426.7948, 58.72213
427.2769, 58.34024
427.7590, 58.13342
428.2411, 58.36976
428.7233, 58.81348
429.2054, 59.10943
429.6875, 59.23861
430.1696, 59.31108
430.6517, 59.38064
431.1339, 59.44246
431.6160, 59.49483
432.0981, 59.59079
432.5802, 59.59344
433.0623, 59.25956
433.5444, 58.80178
434.0266, 58.69581
434.5087, 59.10273
434.9908, 59.77264
435.4729, 60.44677
435.9550, 61.19930
436.4371, 61.52186
436.9193, 60.98675
437.4014, 60.34879
437.8835, 60.13446
438.3656, 60.30821
438.8477, 60.55968
439.3298, 60.68314
439.8120, 60.72035
440.2941, 60.89500
440.7762, 61.34922
441.2583, 61.76728
441.7404, 61.99110
442.2225, 62.22791
442.7046, 62.73954
443.1867, 63.56469
443.6689, 64.47041
444.1510, 65.13329
444.6331, 65.47495
445.1152, 65.97616
445.5973, 66.64094
446.0794, 67.46444
446.5616, 68.45335
447.0437, 69.59682
447.5258, 70.88790
448.0079, 72.31025
448.4900, 73.88209
448.9721, 75.67184
449.4543, 77.74234
449.9364, 79.84792
450.4185, 82.52235
450.9006, 84.81824
451.3827, 86.23447
451.8648, 86.65905
452.3470, 85.85825
452.8291, 83.12752
453.3112, 78.89694
453.7933, 75.02995
454.2754, 71.54702
454.7575, 68.67141
455.2397, 66.75453
455.7218, 65.52143
456.2039, 64.64050
456.6860, 64.27015
457.1681, 63.91005
457.6502, 62.90804
458.1324, 61.47681
458.6145, 60.62115
459.0966, 60.77189
459.5787, 61.42757
460.0608, 61.93994
460.5429, 62.33215
461.0251, 62.50746
461.5072, 62.24855
461.9893, 61.90211
462.4714, 61.76604
462.9535, 61.84898
463.4356, 62.03782
463.9178, 62.27742
464.3999, 62.54878
464.8820, 62.75260
465.3641, 62.83955
465.8462, 62.92663
466.3283, 62.94892
466.8105, 63.02055
467.2926, 63.28521
467.7747, 63.76538
468.2568, 64.34559
468.7389, 64.89660
469.2210, 65.42238
469.7032, 65.91940
470.1853, 66.56537
470.6674, 66.99235
471.1495, 66.88724
471.6316, 66.52934
472.1137, 66.36851
472.5959, 66.62398
473.0780, 67.12275
473.5601, 67.63462
474.0422, 68.26643
474.5243, 68.44763
475.0064, 67.64969
475.4886, 66.70312
475.9707, 66.05785
476.4528, 65.72586
476.9349, 65.55300
477.4170, 65.41335
477.8991, 65.37682
478.3813, 65.67684
478.8634, 66.37762
479.3455, 67.02409
479.8276, 67.38978
480.3097, 67.54530
480.7918, 67.60568
481.2740, 67.51418
481.7561, 67.50292
482.2382, 67.92146
482.7203, 68.44669
483.2024, 68.38110
483.6845, 67.56582
484.1666, 66.60117
484.6487, 66.03712
485.1309, 65.89698
485.6130, 65.76334
486.0951, 65.66734
486.5772, 65.54463
487.0593, 65.37926
487.5414, 65.16457
488.0236, 64.87119
488.5057, 64.48683
488.9878, 64.07812
489.4699, 63.76081
489.9520, 63.53024
490.4341, 63.40619
490.9163, 63.46252
491.3984, 63.53768
491.8805, 63.54282
492.3626, 63.49802
492.8447, 63.48211
493.3268, 63.55901
493.8090, 63.66738
494.2911, 63.62788
494.7732, 63.42295
495.2553, 63.11927
495.7374, 62.47046
496.2195, 61.91433
496.7017, 61.86915
497.1838, 62.31970
497.6659, 62.74958
498.1480, 62.80858
498.6301, 62.56972
499.1122, 62.15858
499.5944, 61.51154
500.0765, 61.00017
500.5586, 60.76377
501.0407, 60.84748
501.5228, 61.39222
502.0049, 62.77660
502.4871, 63.80941
502.9692, 63.64427
503.4513, 62.79456
503.9334, 62.13464
504.4155, 61.85344
504.8976, 61.81777
505.3798, 61.93563
505.8619, 62.22100
506.3440, 62.41254
506.8261, 62.37933
507.3082, 62.40852
507.7903, 62.64698
508.2725, 63.00490
508.7546, 63.37243
509.2367, 63.70273
509.7188, 63.93870
510.2009, 63.94117
510.6830, 63.55413
511.1652, 63.46421
511.6473, 64.03560
512.1294, 64.54436
512.6115, 64.69619
513.0936, 64.57527
513.5757, 64.34202
514.0579, 64.02557
514.5400, 63.78952
515.0221, 64.04649
515.5042, 64.89838
515.9863, 65.46107
516.4684, 65.35847
516.9506, 65.06636
517.4327, 64.96626
517.9148, 65.04764
518.3969, 65.19142
518.8790, 65.42868
519.3611, 65.65532
519.8433, 65.63746
520.3254, 65.40534
520.8075, 65.43834
521.2896, 66.08352
521.7717, 66.99710
522.2538, 67.33616
522.7360, 66.95994
523.2181, 66.55289
523.7002, 66.12362
524.1823, 65.78256
524.6644, 65.69807
525.1465, 65.82862
525.6287, 65.91061
526.1108, 65.72021
526.5929, 65.36404
527.0750, 65.41433
527.5571, 66.12364
528.0392, 66.90830
528.5214, 67.76738
529.0035, 68.64294
529.4856, 69.50522
529.9677, 70.33994
530.4498, 71.11883
530.9319, 71.78916
531.4141, 72.37595
531.8962, 73.09217
532.3783, 74.09095
532.8604, 74.85569
533.3425, 74.83759
533.8246, 74.62513
534.3068, 74.79858
534.7889, 75.44994
535.2710, 76.44291
535.7531, 78.02469
536.2352, 79.82129
536.7173, 80.93092
537.1995, 81.19446
537.6816, 81.37737
538.1637, 82.03325
538.6458, 83.10091
539.1279, 84.13196
539.6100, 84.98576
540.0922, 85.98177
540.5743, 87.07573
541.0564, 88.42775
541.5385, 90.33287
542.0206, 92.80090
542.5027, 95.46606
542.9849, 97.91416
543.4670, 100.1330
543.9491, 102.6828
544.4312, 105.7803
544.9133, 108.9524
545.3954, 111.9320
545.8775, 115.0164
546.3596, 118.7507
546.8417, 123.2140
547.3239, 127.4903
547.8060, 130.6198
548.2881, 132.6450
548.7702, 133.8950
549.2523, 134.3064
549.7344, 134.1132
550.2166, 133.1524
550.6987, 131.7439
551.1808, 130.4084
551.6629, 129.4867
552.1450, 128.0630
552.6271, 125.4601
553.1093, 121.9579
553.5914, 117.9566
554.0735, 113.5217
554.5556, 109.1227
555.0377, 105.1580
555.5198, 101.6177
556.0020, 98.44718
556.4841, 95.65427
556.9662, 93.15778
557.4483, 90.98920
557.9304, 89.06257
558.4125, 87.31564
558.8947, 85.71832
559.3768, 84.27090
559.8589, 82.91605
560.3410, 81.65125
560.8231, 80.88984
561.3052, 80.95375
561.7874, 81.08101
562.2695, 81.13222
562.7516, 81.05764
563.2337, 80.74899
563.7158, 80.16737
564.1979, 79.57870
564.6801, 79.18532
565.1622, 78.96792
565.6443, 78.85408
566.1264, 78.82752
566.6085, 78.95601
567.0906, 79.32789
567.5728, 79.89671
568.0549, 80.44572
568.5370, 80.92741
569.0191, 81.46307
569.5012, 82.13689
569.9833, 82.86535
570.4655, 83.65080
570.9476, 84.43831
571.4297, 84.97180
571.9118, 84.99940
572.3939, 84.55065
572.8760, 84.00678
573.3582, 83.31493
573.8403, 82.58962
574.3224, 81.80294
574.8045, 81.01643
575.2866, 80.35384
575.7687, 79.78882
576.2509, 79.07474
576.7330, 77.72743
577.2151, 76.06092
577.6972, 75.46661
578.1793, 76.23026
578.6614, 76.82716
579.1436, 76.47678
579.6257, 75.64798
580.1078, 75.05773
580.5899, 74.76147
581.0720, 74.43919
581.5541, 73.88526
582.0363, 73.29707
582.5184, 72.87813
583.0005, 72.64055
583.4826, 72.52687
583.9647, 72.51002
584.4468, 72.57978
584.9290, 72.70496
585.4111, 72.87827
585.8932, 73.12709
586.3753, 73.58089
586.8574, 73.99410
587.3395, 74.16369
587.8217, 74.15443
588.3038, 74.18021
588.7859, 74.37513
