##NAMES=Andalusite
##RRUFFID=R060212
##IDEAL CHEMISTRY=Al_2_SiO_5_
##LOCALITY=Brazil
##OWNER=RRUFF
##SOURCE=Marcus Origlieri
##DESCRIPTION=Transparent yellow-green water-worn pebble
##STATUS=The identification of this mineral is confirmed by single-crystal X-ray diffraction and chemical analysis.
##URL=rruff.info/R060212
##MEASURED CHEMISTRY=(Al_1.98_Fe^3+^_0.02_)_Î£=2_Si_1.00_O_5_
91.62726, 0.0000000E+00
92.10938, 5.141037
92.59149, 5.043173
93.07361, 5.114234
93.55573, 5.336267
94.03784, 5.480008
94.51996, 5.219881
95.00208, 4.685985
95.48419, 4.340869
95.96631, 4.419500
96.44843, 4.769140
96.93054, 4.948874
97.41266, 4.939263
97.89478, 4.855258
98.37689, 4.830012
98.85901, 4.864736
99.34113, 4.894880
99.82324, 4.905433
100.3054, 4.896350
100.7875, 4.824008
101.2696, 4.655078
101.7517, 4.465949
102.2338, 4.434096
102.7159, 4.638878
103.1981, 4.773625
103.6802, 4.629999
104.1623, 4.029668
104.6444, 3.741300
105.1265, 3.891793
105.6086, 4.363398
106.0908, 4.722221
106.5729, 4.939250
107.0550, 5.073218
107.5371, 5.152379
108.0192, 5.135896
108.5013, 5.125247
108.9835, 5.100321
109.4656, 5.064707
109.9477, 5.130236
110.4298, 5.406753
110.9119, 5.724156
111.3940, 5.972229
111.8762, 6.056273
112.3583, 6.160962
112.8404, 6.321100
113.3225, 6.541289
113.8046, 6.773417
114.2867, 6.945440
114.7689, 7.150389
115.2510, 7.486666
115.7331, 8.138848
116.2152, 8.792827
116.6973, 9.333391
117.1794, 9.742661
117.6616, 10.06796
118.1437, 10.31259
118.6258, 10.48755
119.1079, 10.60312
119.5900, 10.42034
120.0721, 10.33249
120.5543, 10.67089
121.0364, 11.66417
121.5185, 12.64344
122.0006, 13.13180
122.4827, 13.26348
122.9648, 13.43196
123.4470, 13.98119
123.9291, 14.64329
124.4112, 15.07023
124.8933, 15.00755
125.3754, 14.95083
125.8575, 15.45761
126.3397, 16.46287
126.8218, 17.57170
127.3039, 18.50440
127.7860, 19.32357
128.2681, 20.16347
128.7502, 21.16188
129.2324, 22.13109
129.7145, 22.72820
130.1966, 22.95693
130.6787, 22.96734
131.1608, 22.72113
131.6429, 22.30668
132.1251, 22.16251
132.6072, 22.61691
133.0893, 23.44576
133.5714, 23.83010
134.0535, 23.70144
134.5356, 23.44276
135.0178, 23.49968
135.4999, 23.87672
135.9820, 24.40884
136.4641, 25.11868
136.9462, 25.99961
137.4283, 26.65659
137.9105, 27.01678
138.3926, 27.29252
138.8747, 27.93821
139.3568, 29.11330
139.8389, 30.02466
140.3210, 30.21770
140.8032, 29.50949
141.2853, 29.06926
141.7674, 28.97661
142.2495, 29.11596
142.7316, 29.17665
143.2137, 28.97092
143.6959, 28.71286
144.1780, 28.67444
144.6601, 28.86218
145.1422, 29.24530
145.6243, 29.95652
146.1064, 30.85995
146.5886, 31.45374
147.0707, 31.60986
147.5528, 31.61260
148.0349, 31.61209
148.5170, 31.65724
148.9991, 31.62280
149.4813, 31.44417
149.9634, 31.14529
150.4455, 30.96733
150.9276, 30.94159
151.4097, 31.00913
151.8918, 31.13226
152.3740, 31.32488
152.8561, 31.55484
153.3382, 31.87606
153.8203, 32.28216
154.3024, 32.54217
154.7845, 32.65240
155.2667, 32.60572
155.7488, 32.39628
156.2309, 31.77558
156.7130, 31.24385
157.1951, 30.90212
157.6772, 30.75561
158.1594, 30.73873
158.6415, 30.92117
159.1236, 31.19361
159.6057, 31.45031
160.0878, 31.70509
160.5699, 31.90162
161.0521, 32.00247
161.5342, 31.99427
162.0163, 31.98944
162.4984, 32.07566
162.9805, 32.17592
163.4626, 32.19278
163.9448, 31.94722
164.4269, 31.71972
164.9090, 31.69797
165.3911, 31.94334
165.8732, 32.14187
166.3553, 32.02909
166.8375, 31.77721
167.3196, 31.67076
167.8017, 32.02440
168.2838, 32.45185
168.7659, 32.64871
169.2480, 32.52966
169.7302, 32.37687
170.2123, 32.39402
170.6944, 32.51995
171.1765, 32.61727
171.6586, 32.53340
172.1407, 32.42521
172.6229, 32.50268
173.1050, 32.88736
173.5871, 33.19123
174.0692, 32.96421
174.5513, 32.35236
175.0334, 31.78940
175.5156, 31.54795
175.9977, 31.50381
176.4798, 31.50110
176.9619, 31.53351
177.4440, 31.55528
177.9261, 31.47243
178.4083, 31.31580
178.8904, 31.22111
179.3725, 31.41214
179.8546, 31.71379
180.3367, 31.74489
180.8188, 31.32500
181.3010, 30.80329
181.7831, 30.71330
182.2652, 31.00824
182.7473, 31.31507
183.2294, 31.21785
183.7115, 30.90518
184.1937, 30.92142
184.6758, 31.44155
185.1579, 32.25624
185.6400, 33.14901
186.1221, 34.10278
186.6042, 34.87549
187.0864, 34.96461
187.5685, 34.60124
188.0506, 34.89946
188.5327, 36.44274
189.0148, 38.47919
189.4969, 39.34868
189.9791, 39.01413
190.4612, 38.23310
190.9433, 37.56011
191.4254, 36.98258
191.9075, 36.33046
192.3896, 35.54227
192.8718, 34.67366
193.3539, 33.82694
193.8360, 32.98205
194.3181, 32.25254
194.8002, 31.77043
195.2823, 31.52665
195.7645, 31.33301
196.2466, 31.15921
196.7287, 30.99915
197.2108, 30.81442
197.6929, 30.59207
198.1750, 30.40108
198.6572, 30.35427
199.1393, 30.46378
199.6214, 30.44801
200.1035, 30.17177
200.5856, 29.70651
201.0677, 29.49758
201.5499, 29.57891
202.0320, 29.79683
202.5141, 30.02031
202.9962, 30.25109
203.4783, 30.48857
203.9604, 30.79065
204.4426, 31.12078
204.9247, 31.13408
205.4068, 30.77625
205.8889, 30.24282
206.3710, 29.66663
206.8531, 29.00455
207.3353, 28.52762
207.8174, 28.34092
208.2995, 28.42095
208.7816, 28.44755
209.2637, 28.39872
209.7458, 28.33876
210.2280, 28.35846
210.7101, 28.50536
211.1922, 28.55328
211.6743, 28.42999
212.1564, 28.14243
212.6385, 27.84473
213.1207, 27.49213
213.6028, 27.20547
214.0849, 27.12929
214.5670, 27.31903
215.0491, 27.55413
215.5313, 27.80899
216.0134, 28.08386
216.4955, 28.29149
216.9776, 28.43805
217.4597, 28.51201
217.9418, 28.47502
218.4240, 28.25223
218.9061, 28.11450
219.3882, 28.12896
219.8703, 28.29585
220.3524, 28.49740
220.8345, 28.72802
221.3167, 28.99697
221.7988, 29.35805
222.2809, 29.94130
222.7630, 30.28968
223.2451, 30.18634
223.7272, 29.61929
224.2094, 29.50935
224.6915, 30.11371
225.1736, 30.88514
225.6557, 31.21269
226.1378, 30.77605
226.6199, 30.60945
227.1021, 31.03720
227.5842, 32.06746
228.0663, 32.66414
228.5484, 32.63994
229.0305, 32.39246
229.5126, 32.26670
229.9948, 32.22892
230.4769, 32.38815
230.9590, 32.83556
231.4411, 33.56852
231.9232, 34.13316
232.4053, 34.40259
232.8875, 34.64629
233.3696, 35.10625
233.8517, 35.85695
234.3338, 36.67523
234.8159, 37.50142
235.2980, 38.34593
235.7802, 39.38524
236.2623, 40.77086
236.7444, 42.18779
237.2265, 43.34827
237.7086, 44.04394
238.1907, 44.90680
238.6729, 46.16441
239.1550, 47.77047
239.6371, 48.91587
240.1192, 49.52244
240.6013, 49.75817
241.0834, 49.72337
241.5656, 49.33163
242.0477, 48.84063
242.5298, 48.27650
243.0119, 47.63805
243.4940, 46.90972
243.9761, 46.04980
244.4583, 45.14840
244.9404, 44.26828
245.4225, 43.41576
245.9046, 42.56612
246.3867, 41.70000
246.8688, 40.82621
247.3510, 39.97889
247.8331, 39.02601
248.3152, 38.26873
248.7973, 37.93494
249.2794, 38.24459
249.7615, 38.52035
250.2437, 38.73491
250.7258, 38.87783
251.2079, 38.87459
251.6900, 38.63776
252.1721, 38.37965
252.6542, 38.22398
253.1364, 38.20985
253.6185, 38.21299
254.1006, 38.24300
254.5827, 38.28393
255.0648, 38.25438
255.5469, 38.05400
256.0291, 37.94492
256.5112, 38.09304
256.9933, 38.64152
257.4754, 39.07475
257.9575, 39.29331
258.4396, 39.41300
258.9218, 39.78517
259.4039, 40.56445
259.8860, 41.31969
260.3681, 41.83200
260.8502, 41.98617
261.3323, 42.25067
261.8145, 42.69047
262.2966, 43.20537
262.7787, 43.52054
263.2608, 43.43153
263.7429, 43.58020
264.2250, 44.34166
264.7072, 45.94987
265.1893, 47.15334
265.6714, 47.77059
266.1535, 48.12501
266.6356, 48.80243
267.1177, 49.89934
267.5999, 51.07288
268.0820, 52.07731
268.5641, 52.80396
269.0462, 54.34158
269.5283, 57.03103
270.0104, 60.13544
270.4926, 62.43215
270.9747, 63.53736
271.4568, 65.28222
271.9389, 68.41796
272.4210, 73.01865
272.9031, 77.32533
273.3853, 81.23564
273.8674, 85.04456
274.3495, 88.99857
274.8316, 93.13204
275.3137, 97.34943
275.7958, 101.8609
276.2780, 106.5655
276.7601, 110.2995
277.2422, 112.9154
277.7243, 114.9352
278.2064, 116.6773
278.6885, 118.0490
279.1707, 119.9599
279.6528, 122.7061
280.1349, 126.1617
280.6170, 129.6052
281.0991, 132.9455
281.5812, 136.6612
282.0634, 141.1205
282.5455, 146.3872
283.0276, 152.0841
283.5097, 158.0837
283.9918, 164.5067
284.4739, 171.7462
284.9561, 179.8250
285.4382, 188.5601
285.9203, 197.8440
286.4024, 207.6052
286.8845, 218.0869
287.3666, 229.2754
287.8488, 241.0755
288.3309, 253.6548
288.8130, 267.0483
289.2951, 279.6482
289.7772, 291.1657
290.2593, 301.2072
290.7415, 308.3942
291.2236, 312.8779
291.7057, 313.6201
292.1878, 308.4291
292.6699, 297.5012
293.1520, 283.1174
293.6342, 265.7289
294.1163, 245.7926
294.5984, 224.8905
295.0805, 202.5311
295.5626, 180.9323
296.0447, 162.2742
296.5269, 146.4334
297.0090, 132.7688
297.4911, 121.5894
297.9732, 112.3365
298.4553, 104.1478
298.9374, 97.04601
299.4196, 90.86372
299.9017, 85.58859
300.3838, 81.17595
300.8659, 77.57065
301.3480, 74.87171
301.8301, 72.94289
302.3123, 71.72292
302.7944, 71.18766
303.2765, 70.97449
303.7586, 70.87588
304.2407, 70.87640
304.7228, 70.94588
305.2050, 71.06992
305.6871, 71.26615
306.1692, 71.54319
306.6513, 71.90545
307.1334, 72.35711
307.6155, 72.92342
308.0977, 73.57874
308.5798, 74.28034
309.0619, 74.99145
309.5440, 75.80964
310.0261, 76.68143
310.5082, 77.69738
310.9904, 79.12712
311.4725, 81.41938
311.9546, 84.04287
312.4367, 86.44919
312.9188, 88.37205
313.4009, 90.62006
313.8831, 93.41990
314.3652, 96.87731
314.8473, 101.2251
315.3294, 106.7839
315.8115, 113.1501
316.2936, 120.1947
316.7758, 127.9613
317.2579, 135.9720
317.7400, 144.6153
318.2221, 153.2564
318.7042, 161.2667
319.1863, 169.2839
319.6685, 175.8764
320.1506, 180.9452
320.6327, 184.4907
321.1148, 184.9171
321.5969, 180.9083
322.0790, 174.0265
322.5612, 165.4795
323.0433, 153.7815
323.5254, 142.3159
324.0075, 131.7863
324.4896, 122.1055
324.9717, 112.9251
325.4539, 103.5151
325.9360, 94.92715
326.4181, 87.84895
326.9002, 82.93889
327.3823, 78.68344
327.8644, 74.98760
328.3466, 71.88076
328.8287, 69.45858
329.3108, 68.29873
329.7929, 67.30112
330.2750, 66.07809
330.7571, 64.36459
331.2393, 62.99245
331.7214, 62.03682
332.2035, 61.39180
332.6856, 60.89083
333.1677, 60.44994
333.6498, 60.27338
334.1320, 60.51593
334.6141, 61.26254
335.0962, 61.71348
335.5783, 61.78286
336.0604, 61.64568
336.5425, 61.40488
337.0247, 60.84585
337.5068, 60.74327
337.9889, 61.34446
338.4710, 62.56829
338.9531, 63.69216
339.4352, 64.63249
339.9174, 65.68296
340.3995, 67.12460
340.8816, 69.05321
341.3637, 70.82888
341.8458, 72.35263
342.3279, 73.70985
342.8101, 75.21523
343.2922, 76.87108
343.7743, 78.57677
344.2564, 80.24180
344.7385, 81.88501
345.2206, 83.55592
345.7028, 85.23520
346.1849, 87.04379
346.6670, 89.17972
347.1491, 91.63593
347.6312, 94.29543
348.1133, 97.12354
348.5955, 100.1289
349.0776, 103.2903
349.5597, 106.6114
350.0418, 110.3541
350.5239, 114.8021
351.0060, 119.9006
351.4882, 125.2968
351.9703, 130.8443
352.4524, 136.6675
352.9345, 142.7772
353.4166, 149.1961
353.8987, 156.1592
354.3809, 164.3055
354.8630, 172.9460
355.3451, 180.9514
355.8272, 188.2434
356.3093, 194.5204
356.7914, 199.6745
357.2736, 203.6505
357.7557, 206.1552
358.2378, 207.5905
358.7199, 207.1410
359.2020, 203.8607
359.6841, 197.4176
360.1663, 189.4842
360.6484, 180.3620
361.1305, 170.4819
361.6126, 160.4492
362.0947, 150.0045
362.5768, 139.8857
363.0590, 130.2550
363.5411, 121.1278
364.0232, 112.6755
364.5053, 104.7541
364.9874, 97.63779
365.4695, 91.53948
365.9517, 87.11649
366.4338, 83.03625
366.9159, 78.95390
367.3980, 74.96612
367.8801, 71.44917
368.3622, 68.47712
368.8444, 66.00278
369.3265, 64.07602
369.8086, 63.20360
370.2907, 61.94563
370.7728, 59.98648
371.2549, 57.74276
371.7371, 55.90755
372.2192, 54.66609
372.7013, 53.57409
373.1834, 52.52649
373.6655, 51.50779
374.1476, 50.65590
374.6298, 50.10561
375.1119, 49.58197
375.5940, 48.75090
376.0761, 47.41744
376.5582, 46.44781
377.0403, 46.08405
377.5225, 46.18340
378.0046, 46.09749
378.4867, 45.79546
378.9688, 45.43152
379.4509, 45.06862
379.9330, 44.70759
380.4152, 44.48047
380.8973, 44.43827
381.3794, 44.45416
381.8615, 44.25432
382.3436, 43.84423
382.8257, 43.55608
383.3079, 43.63313
383.7900, 43.95255
384.2721, 44.10188
384.7542, 44.07335
385.2363, 43.94303
385.7184, 43.72733
386.2006, 43.46565
386.6827, 43.23609
387.1648, 42.95893
387.6469, 42.83907
388.1290, 43.28678
388.6111, 44.20585
389.0933, 45.05352
389.5754, 45.40514
390.0575, 45.52439
390.5396, 45.75335
391.0217, 46.20892
391.5038, 46.60887
391.9860, 46.86739
392.4681, 46.92356
392.9502, 46.66533
393.4323, 45.93556
393.9144, 44.95610
394.3965, 43.77416
394.8787, 42.37701
395.3608, 41.09969
395.8429, 39.96867
396.3250, 39.04425
396.8071, 38.37459
397.2892, 38.18192
397.7714, 38.01466
398.2535, 37.84379
398.7356, 37.64275
399.2177, 37.28842
399.6998, 36.23949
400.1819, 35.46947
400.6641, 35.46883
401.1462, 36.86723
401.6283, 37.73069
402.1104, 37.80003
402.5925, 37.45262
403.0746, 37.24038
403.5568, 37.13236
404.0389, 37.22660
404.5210, 37.64240
405.0031, 38.38045
405.4852, 38.78538
405.9673, 38.75245
406.4495, 38.58311
406.9316, 38.53338
407.4137, 38.62011
407.8958, 38.68678
408.3779, 38.69572
408.8600, 38.68787
409.3422, 38.81891
409.8243, 39.10378
410.3064, 39.27880
410.7885, 39.12006
411.2706, 38.70474
411.7527, 38.35802
412.2349, 38.06649
412.7170, 37.98263
413.1991, 38.44925
413.6812, 39.30762
414.1633, 40.02394
414.6454, 40.42908
415.1276, 40.57053
415.6097, 40.32950
416.0918, 39.77637
416.5739, 39.41095
417.0560, 39.81771
417.5381, 40.50434
418.0203, 40.90234
418.5024, 40.87987
418.9845, 40.60532
419.4666, 40.02738
419.9487, 39.28183
420.4308, 38.63757
420.9130, 38.37349
421.3951, 38.08485
421.8772, 37.47519
422.3593, 36.50250
422.8414, 35.74226
423.3235, 35.52351
423.8057, 35.49259
424.2878, 35.36952
424.7699, 34.97343
425.2520, 34.64739
425.7341, 34.48902
426.2162, 34.44497
426.6984, 34.30588
427.1805, 33.93671
427.6626, 33.63048
428.1447, 33.52466
428.6268, 33.71017
429.1089, 33.75576
429.5911, 33.59541
430.0732, 33.36435
430.5553, 33.23176
431.0374, 33.21974
431.5195, 33.21270
432.0016, 33.16156
432.4838, 33.09691
432.9659, 33.17766
433.4480, 33.41855
433.9301, 33.71088
434.4122, 34.01333
434.8943, 34.31413
435.3765, 34.51023
435.8586, 34.57034
436.3407, 34.59198
436.8228, 34.72044
437.3049, 34.93363
437.7870, 35.13259
438.2692, 35.21370
438.7513, 35.28343
439.2334, 35.54820
439.7155, 35.99409
440.1976, 36.38037
440.6797, 36.42069
441.1619, 36.34460
441.6440, 36.44971
442.1261, 36.91323
442.6082, 37.37254
443.0903, 37.55420
443.5724, 37.57734
444.0546, 37.69908
444.5367, 38.02607
445.0188, 38.46500
445.5009, 38.94574
445.9830, 39.43805
446.4651, 40.14661
446.9473, 41.29950
447.4294, 42.58706
447.9115, 43.73524
448.3936, 44.60556
448.8757, 45.50032
449.3578, 46.51671
449.8400, 47.56720
450.3221, 48.42115
450.8042, 49.07713
451.2863, 49.54808
451.7684, 49.96759
452.2505, 50.47963
452.7327, 49.93760
453.2148, 48.10955
453.6969, 45.65200
454.1790, 43.23397
454.6611, 40.80771
455.1432, 38.82735
455.6254, 37.44075
456.1075, 36.55013
456.5896, 36.04549
457.0717, 35.91508
457.5538, 35.84970
458.0359, 35.68174
458.5181, 35.42343
459.0002, 35.01173
459.4823, 34.39828
459.9644, 33.95824
460.4465, 34.26585
460.9286, 35.00129
461.4108, 35.54938
461.8929, 35.51129
462.3750, 35.33789
462.8571, 35.39373
463.3392, 35.62214
463.8214, 35.75525
464.3035, 35.47085
464.7856, 35.18158
465.2677, 35.18286
465.7498, 35.60434
466.2319, 36.07583
466.7141, 36.57693
467.1962, 37.05399
467.6783, 37.44436
468.1604, 37.78319
468.6425, 37.97631
469.1246, 37.90942
469.6068, 37.62003
470.0889, 37.58152
470.5710, 37.96034
471.0531, 38.36214
471.5352, 38.51955
472.0173, 38.27434
472.4995, 38.41691
472.9816, 39.10801
473.4637, 39.98063
473.9458, 40.43052
474.4279, 40.43634
474.9100, 40.39830
475.3922, 40.39067
475.8743, 40.45288
476.3564, 40.77970
476.8385, 41.36799
477.3206, 41.91292
477.8027, 42.08076
478.2849, 42.04875
478.7670, 42.20807
479.2491, 42.64317
479.7312, 43.12699
480.2133, 43.46000
480.6954, 43.68490
481.1776, 43.88249
481.6597, 44.07357
482.1418, 44.25594
482.6239, 44.54128
483.1060, 44.87574
483.5881, 44.89377
484.0703, 44.19470
484.5524, 43.31861
485.0345, 42.58832
485.5166, 42.10173
485.9987, 41.65859
486.4808, 41.37046
486.9630, 41.07001
487.4451, 40.52479
487.9272, 39.49024
488.4093, 38.55001
488.8914, 37.75578
489.3735, 37.11740
489.8557, 36.82513
490.3378, 37.05429
490.8199, 37.22737
491.3020, 36.91305
491.7841, 36.05115
492.2662, 35.50930
492.7484, 35.38167
493.2305, 35.40911
493.7126, 35.19905
494.1947, 34.79324
494.6768, 34.55146
495.1589, 34.72607
495.6411, 35.00722
496.1232, 34.73500
496.6053, 33.99219
497.0874, 33.35565
497.5695, 33.25845
498.0516, 33.42865
498.5338, 33.57063
499.0159, 33.64838
499.4980, 33.69220
499.9801, 33.62606
500.4622, 33.57030
500.9443, 33.66731
501.4265, 34.20945
501.9086, 34.64635
502.3907, 34.75883
502.8728, 34.61786
503.3549, 34.52622
503.8370, 34.52643
504.3192, 34.58223
504.8013, 34.69783
505.2834, 34.90291
505.7655, 35.04031
506.2476, 35.11315
506.7297, 35.11544
507.2119, 34.99137
507.6940, 34.65937
508.1761, 34.56527
508.6582, 34.84932
509.1403, 35.33254
509.6224, 35.54972
510.1046, 35.49278
510.5867, 35.47937
511.0688, 35.78978
511.5509, 36.26398
512.0330, 36.37330
512.5151, 36.10974
512.9973, 35.77689
513.4794, 35.60889
513.9615, 35.54738
514.4436, 35.51233
514.9257, 35.51242
515.4078, 35.47292
515.8900, 35.25728
516.3721, 34.97055
516.8542, 34.81257
517.3363, 35.02184
517.8184, 35.22125
518.3005, 35.19615
518.7827, 34.94882
519.2648, 34.83095
519.7469, 35.13048
520.2290, 35.40039
520.7111, 35.37683
521.1932, 34.83411
521.6754, 34.46587
522.1575, 34.30998
522.6396, 34.29327
523.1217, 34.32136
523.6038, 34.40023
524.0859, 34.50344
524.5681, 34.63457
525.0502, 34.77975
525.5323, 34.87011
526.0144, 34.90029
526.4965, 34.97933
526.9786, 35.25613
527.4608, 35.63729
527.9429, 35.81576
528.4250, 35.76347
528.9071, 35.65786
529.3892, 35.61452
529.8713, 35.64128
530.3535, 35.76566
530.8356, 36.09551
531.3177, 36.38012
531.7998, 36.26445
532.2819, 35.97024
532.7640, 36.03158
533.2462, 37.11292
533.7283, 38.15054
534.2104, 38.65477
534.6925, 38.54247
535.1746, 38.49428
535.6567, 38.45523
536.1389, 38.58774
536.6210, 39.01521
537.1031, 39.94976
537.5852, 40.69596
538.0673, 41.15145
538.5494, 41.50621
539.0316, 42.12377
539.5137, 43.06800
539.9958, 43.85854
540.4779, 44.26287
540.9600, 44.46406
541.4421, 45.00449
541.9243, 45.87415
542.4064, 46.93306
542.8885, 48.14867
543.3706, 49.46373
543.8527, 50.81030
544.3348, 52.19237
544.8170, 53.48009
545.2991, 54.38022
545.7812, 55.18882
546.2633, 56.31306
546.7454, 58.23821
547.2275, 59.99410
547.7097, 61.17801
548.1918, 61.90190
548.6739, 62.41044
549.1560, 62.66985
549.6381, 62.81305
550.1202, 62.88237
550.6024, 62.88219
551.0845, 62.77598
551.5666, 62.70826
552.0487, 62.33796
552.5308, 61.38557
553.0129, 59.73615
553.4951, 58.12302
553.9772, 56.60228
554.4593, 55.06366
554.9414, 53.22687
555.4235, 51.13968
555.9056, 49.39106
556.3878, 48.30275
556.8699, 47.49211
557.3520, 46.25277
557.8341, 44.70539
558.3162, 43.39697
558.7983, 42.74650
559.2805, 42.42490
559.7626, 42.17083
560.2447, 41.96692
560.7268, 41.74823
561.2089, 41.38769
561.6910, 41.05436
562.1732, 40.89212
562.6553, 41.08868
563.1374, 41.20597
563.6195, 41.05902
564.1016, 40.84370
564.5837, 40.87514
565.0659, 41.38977
565.5480, 41.69846
566.0301, 41.54201
566.5122, 41.06319
566.9943, 41.03103
567.4764, 41.52591
567.9586, 42.08051
568.4407, 42.40856
568.9228, 42.55096
569.4049, 42.73914
569.8870, 42.97585
570.3691, 43.25502
570.8513, 43.69931
571.3334, 44.16114
571.8155, 44.31423
572.2976, 44.01007
572.7797, 43.57518
573.2618, 43.23829
573.7440, 42.94410
574.2261, 42.58527
574.7082, 42.08423
575.1903, 41.55053
575.6724, 41.06093
576.1545, 40.60196
576.6367, 40.03202
577.1188, 39.04265
577.6009, 38.24899
578.0830, 37.94704
578.5651, 38.26836
579.0472, 38.40123
579.5294, 38.29961
580.0115, 38.09408
580.4936, 37.90577
580.9757, 37.73417
581.4578, 37.51100
581.9399, 37.19548
582.4221, 36.89863
582.9042, 36.87054
583.3863, 37.03396
583.8684, 37.06859
584.3505, 36.64592
584.8326, 36.17432
585.3148, 36.18043
585.7969, 36.56140
586.2790, 36.84586
586.7611, 36.60583
587.2432, 36.32223
587.7253, 36.38280
588.2075, 36.91385
588.6896, 37.20918
