##NAMES=Andalusite
##RRUFFID=R060197
##IDEAL CHEMISTRY=Al_2_SiO_5_
##LOCALITY=Brazil
##OWNER=RRUFF
##SOURCE=Marcus Origlieri
##DESCRIPTION=Green colored water worn pebble
##STATUS=The identification of this mineral has been confirmed by X-ray diffraction and chemical analysis
##URL=rruff.info/R060197
##MEASURED CHEMISTRY=(Al_1.97_Mn^3+^_0.03_)_Î£=2_Si_1.00_O_5_
92.20605, 202.0746
92.68817, 205.6273
93.17029, 208.5922
93.65240, 208.4255
94.13452, 206.3695
94.61664, 201.7815
95.09875, 194.3919
95.58087, 185.6037
96.06299, 178.7333
96.54510, 174.9086
97.02722, 171.3387
97.50933, 167.6035
97.99145, 163.8339
98.47356, 160.3301
98.95568, 157.2757
99.43780, 154.4676
99.91991, 150.6259
100.4020, 144.6738
100.8841, 138.9828
101.3663, 134.2362
101.8484, 130.5047
102.3305, 127.7550
102.8126, 126.1050
103.2947, 125.9093
103.7768, 125.2346
104.2590, 123.7193
104.7411, 121.8811
105.2232, 120.3846
105.7053, 119.4597
106.1874, 118.4490
106.6695, 116.1506
107.1517, 112.6441
107.6338, 109.5486
108.1159, 107.6318
108.5980, 106.7491
109.0801, 106.1686
109.5622, 105.7767
110.0444, 105.6131
110.5265, 106.0214
111.0086, 107.0541
111.4907, 107.6434
111.9728, 106.3159
112.4549, 102.4143
112.9371, 98.86012
113.4192, 96.22939
113.9013, 94.08162
114.3834, 92.13820
114.8655, 90.30061
115.3476, 88.61678
115.8298, 87.23211
116.3119, 86.02247
116.7940, 85.34110
117.2761, 85.67509
117.7582, 86.43425
118.2403, 86.80473
118.7225, 86.26244
119.2046, 84.92909
119.6867, 84.26087
120.1688, 84.49551
120.6509, 84.98953
121.1330, 85.82173
121.6152, 86.81799
122.0973, 87.42380
122.5794, 87.11894
123.0615, 85.87663
123.5436, 84.82387
124.0257, 83.99873
124.5079, 83.33704
124.9900, 82.80132
125.4721, 82.39050
125.9542, 82.07984
126.4363, 81.91187
126.9184, 81.83754
127.4006, 81.75021
127.8827, 81.57708
128.3648, 81.35699
128.8469, 81.22159
129.3290, 81.24169
129.8111, 81.26614
130.2932, 81.37320
130.7754, 81.46633
131.2575, 81.22544
131.7396, 80.09045
132.2217, 77.87044
132.7038, 76.49853
133.1859, 76.76670
133.6681, 77.36961
134.1502, 77.92348
134.6323, 78.31436
135.1144, 78.51894
135.5965, 78.46147
136.0786, 77.86872
136.5608, 77.57777
137.0429, 77.85391
137.5250, 78.21535
138.0071, 78.28257
138.4892, 77.94680
138.9713, 77.38270
139.4535, 76.95503
139.9356, 76.79030
140.4177, 76.59049
140.8998, 76.25636
141.3819, 75.89585
141.8640, 75.71578
142.3462, 75.85392
142.8283, 76.10697
143.3104, 75.86489
143.7925, 74.93111
144.2746, 73.97623
144.7567, 73.14608
145.2388, 72.47825
145.7210, 72.16020
146.2031, 72.45988
146.6852, 73.07858
147.1673, 73.39745
147.6494, 73.27222
148.1315, 73.02303
148.6137, 72.95014
149.0958, 73.07726
149.5779, 73.21273
150.0600, 73.24095
150.5421, 73.23815
151.0242, 73.25493
151.5064, 73.26965
151.9885, 73.36428
152.4706, 73.77146
152.9527, 74.79135
153.4348, 75.55170
153.9169, 75.68962
154.3991, 75.49098
154.8812, 75.31798
155.3633, 75.39782
155.8454, 75.65467
156.3275, 75.61835
156.8096, 74.91154
157.2918, 74.28228
157.7739, 73.85346
158.2560, 73.61058
158.7381, 73.49789
159.2202, 73.46574
159.7023, 73.50970
160.1845, 73.81954
160.6666, 74.73705
161.1487, 75.55643
161.6308, 75.96610
162.1129, 76.02010
162.5950, 75.98890
163.0772, 76.12620
163.5593, 76.47091
164.0414, 76.54859
164.5235, 76.15996
165.0056, 75.68064
165.4877, 75.27265
165.9698, 74.97118
166.4520, 74.91183
166.9341, 75.35484
167.4162, 76.30052
167.8983, 77.00362
168.3804, 77.38686
168.8625, 77.48958
169.3447, 77.24139
169.8268, 76.53690
170.3089, 75.86772
170.7910, 75.85313
171.2731, 76.32795
171.7552, 76.74651
172.2374, 76.81571
172.7195, 76.66162
173.2016, 76.71410
173.6837, 77.31135
174.1658, 77.64017
174.6479, 76.98779
175.1301, 75.56375
175.6122, 74.16305
176.0943, 73.31278
176.5764, 72.99567
177.0585, 72.87051
177.5406, 73.06960
178.0228, 73.33641
178.5049, 73.55723
178.9870, 73.73251
179.4691, 73.90510
179.9512, 74.16874
180.4333, 74.59792
180.9155, 74.76595
181.3976, 74.42300
181.8797, 74.02734
182.3618, 73.77689
182.8439, 73.69092
183.3260, 73.67304
183.8082, 73.56400
184.2903, 73.15871
184.7724, 73.24587
185.2545, 74.18358
185.7366, 75.24512
186.2187, 76.03606
186.7009, 76.45466
187.1830, 76.56367
187.6651, 76.41711
188.1472, 75.72020
188.6293, 75.41177
189.1114, 75.94478
189.5936, 76.60220
190.0757, 76.54678
190.5578, 75.58102
191.0399, 74.52320
191.5220, 74.79902
192.0041, 77.08659
192.4863, 78.82133
192.9684, 79.47037
193.4505, 79.50389
193.9326, 79.53338
194.4147, 79.75460
194.8968, 79.92651
195.3790, 79.53616
195.8611, 78.54575
196.3432, 77.62827
196.8253, 77.06885
197.3074, 76.72189
197.7895, 76.25352
198.2717, 75.53439
198.7538, 74.73824
199.2359, 74.11440
199.7180, 73.66396
200.2001, 73.17053
200.6822, 72.32420
201.1644, 71.26135
201.6465, 70.67478
202.1286, 70.87223
202.6107, 71.46761
203.0928, 72.22672
203.5749, 73.13305
204.0571, 73.75315
204.5392, 73.54697
205.0213, 72.53017
205.5034, 71.85997
205.9855, 72.12225
206.4676, 72.47083
206.9497, 72.35104
207.4319, 71.75446
207.9140, 71.06373
208.3961, 70.63026
208.8782, 70.46873
209.3603, 70.47567
209.8424, 70.66737
210.3246, 71.01653
210.8067, 71.62917
211.2888, 72.46262
211.7709, 73.27393
212.2530, 73.72092
212.7351, 73.61880
213.2173, 73.72948
213.6994, 74.68051
214.1815, 75.36633
214.6636, 74.82262
215.1457, 73.11516
215.6278, 71.32823
216.1100, 71.03008
216.5921, 73.35113
217.0742, 74.31519
217.5563, 73.01348
218.0384, 71.32923
218.5205, 70.45211
219.0027, 70.56545
219.4848, 71.06020
219.9669, 71.13466
220.4490, 70.61472
220.9311, 70.05088
221.4132, 69.09484
221.8954, 68.32396
222.3775, 68.39357
222.8596, 69.33062
223.3417, 70.33978
223.8238, 70.32937
224.3059, 68.61417
224.7881, 67.79298
225.2702, 68.61169
225.7523, 69.86144
226.2344, 70.46434
226.7165, 70.23094
227.1986, 69.75259
227.6807, 69.74342
228.1629, 70.31874
228.6450, 70.83559
229.1271, 71.36608
229.6092, 71.76585
230.0913, 71.72984
230.5734, 71.18550
231.0556, 70.69933
231.5377, 71.00272
232.0198, 72.08419
232.5019, 73.08287
232.9840, 73.95179
233.4661, 74.63127
233.9483, 74.94461
234.4304, 74.81068
234.9125, 74.67139
235.3946, 75.02238
235.8767, 75.75950
236.3588, 76.49926
236.8410, 77.20229
237.3231, 77.83260
237.8052, 78.25993
238.2873, 78.38532
238.7694, 78.63691
239.2515, 79.62734
239.7337, 81.03146
240.2158, 82.12075
240.6979, 82.43662
241.1800, 82.33110
241.6621, 82.53076
242.1442, 83.23151
242.6264, 83.71970
243.1085, 83.36637
243.5906, 82.52946
244.0727, 81.73817
244.5548, 81.05685
245.0369, 80.62159
245.5191, 80.81859
246.0012, 81.90197
246.4833, 83.02390
246.9654, 83.87904
247.4475, 84.49788
247.9296, 84.86229
248.4117, 84.86553
248.8939, 84.70731
249.3760, 84.83482
249.8581, 85.29897
250.3402, 85.96744
250.8223, 86.92327
251.3044, 87.97888
251.7866, 88.87558
252.2687, 89.44944
252.7508, 89.94286
253.2329, 91.03296
253.7150, 93.27054
254.1971, 94.94193
254.6793, 95.16842
255.1614, 94.93130
255.6435, 95.12331
256.1256, 96.09375
256.6077, 97.68456
257.0898, 99.65674
257.5720, 102.3132
258.0541, 104.7425
258.5362, 106.5454
259.0183, 108.2401
259.5004, 110.4015
259.9825, 113.2016
260.4647, 116.1642
260.9468, 118.5089
261.4289, 120.6120
261.9110, 121.1724
262.3931, 119.6137
262.8752, 117.1132
263.3574, 114.1714
263.8395, 111.0589
264.3216, 108.3776
264.8037, 107.1565
265.2858, 108.2073
265.7679, 109.1846
266.2501, 109.4408
266.7322, 110.0386
267.2143, 111.9102
267.6964, 115.1048
268.1785, 118.7908
268.6606, 121.7801
269.1428, 123.3962
269.6249, 126.1273
270.1070, 130.8215
270.5891, 135.7379
271.0712, 139.7760
271.5533, 142.8681
272.0355, 145.6863
272.5176, 149.0306
272.9997, 153.1686
273.4818, 156.5400
273.9639, 158.7718
274.4460, 160.7244
274.9282, 162.8730
275.4103, 165.1869
275.8924, 167.3067
276.3745, 168.8770
276.8566, 169.8261
277.3387, 170.9186
277.8208, 171.8752
278.3029, 173.1983
278.7851, 174.9604
279.2672, 177.2611
279.7493, 180.3726
280.2314, 184.6133
280.7135, 189.9195
281.1956, 194.5424
281.6778, 197.8427
282.1599, 201.2949
282.6420, 205.5938
283.1241, 210.4393
283.6062, 215.0834
284.0883, 219.0313
284.5705, 222.4859
285.0526, 226.4882
285.5347, 231.7982
286.0168, 236.7108
286.4989, 241.1517
286.9810, 244.8834
287.4632, 247.4976
287.9453, 248.7820
288.4274, 248.9189
288.9095, 248.3887
289.3916, 248.0799
289.8737, 245.9153
290.3559, 241.1827
290.8380, 234.5119
291.3201, 226.5837
291.8022, 217.5965
292.2843, 207.8764
292.7664, 197.6961
293.2486, 186.4336
293.7307, 176.3461
294.2128, 168.2582
294.6949, 161.1751
295.1770, 153.8500
295.6591, 145.9692
296.1413, 138.5540
296.6234, 132.9482
297.1055, 129.6001
297.5876, 126.6239
298.0697, 123.9272
298.5518, 121.5998
299.0340, 119.8290
299.5161, 118.6097
299.9982, 117.5510
300.4803, 116.2040
300.9624, 114.5369
301.4445, 113.6557
301.9267, 114.3497
302.4088, 115.1759
302.8909, 115.0190
303.3730, 113.9887
303.8551, 113.1128
304.3372, 113.1410
304.8194, 113.9926
305.3015, 114.6889
305.7836, 115.0334
306.2657, 115.4356
306.7478, 115.9882
307.2299, 116.7391
307.7121, 117.8630
308.1942, 119.5202
308.6763, 121.5392
309.1584, 123.3010
309.6405, 124.6939
310.1227, 126.0600
310.6048, 127.2770
311.0869, 128.5633
311.5690, 130.3519
312.0511, 132.8237
312.5332, 135.7681
313.0154, 138.7725
313.4975, 141.7755
313.9796, 145.0144
314.4617, 148.8347
314.9438, 152.8029
315.4259, 156.3684
315.9081, 159.3803
316.3902, 162.1326
316.8723, 165.1288
317.3544, 168.5463
317.8365, 170.9344
318.3186, 172.3345
318.8007, 172.5600
319.2828, 171.3197
319.7650, 168.6137
320.2471, 164.8602
320.7292, 160.2236
321.2113, 154.6865
321.6934, 149.3064
322.1755, 143.8465
322.6577, 138.7127
323.1398, 134.1519
323.6219, 130.1517
324.1040, 126.5566
324.5861, 123.3703
325.0682, 120.4942
325.5504, 117.5361
326.0325, 113.9711
326.5146, 110.8941
326.9967, 108.9736
327.4788, 107.8008
327.9609, 106.4137
328.4431, 104.3171
328.9252, 102.0299
329.4073, 100.8665
329.8894, 101.3237
330.3715, 101.6262
330.8536, 101.3957
331.3358, 100.8556
331.8179, 100.1342
332.3000, 99.25851
332.7821, 98.61975
333.2642, 98.82600
333.7463, 100.2204
334.2285, 101.2409
334.7106, 101.5243
335.1927, 101.6254
335.6748, 101.9660
336.1569, 102.5876
336.6390, 103.3306
337.1212, 104.0537
337.6033, 104.7592
338.0854, 105.5635
338.5675, 106.6776
339.0496, 107.6867
339.5317, 108.2899
340.0139, 108.6060
340.4960, 108.9910
340.9781, 109.6699
341.4602, 110.5684
341.9423, 111.3078
342.4244, 111.5747
342.9066, 112.0783
343.3887, 113.3753
343.8708, 114.8885
344.3529, 115.6049
344.8350, 115.1157
345.3171, 114.1749
345.7993, 114.1934
346.2814, 115.5154
346.7635, 117.3875
347.2456, 120.5794
347.7277, 123.8404
348.2098, 125.8759
348.6920, 126.5736
349.1741, 127.0489
349.6562, 128.5691
350.1383, 131.4395
350.6204, 133.8864
351.1025, 135.5326
351.5847, 137.1758
352.0668, 139.2760
352.5489, 141.7170
353.0310, 144.1213
353.5131, 146.2233
353.9952, 148.0253
354.4774, 149.5756
354.9595, 151.1115
355.4416, 152.1205
355.9237, 152.5905
356.4058, 152.4453
356.8879, 151.5175
357.3701, 149.7272
357.8522, 147.3031
358.3343, 144.7758
358.8164, 142.5685
359.2985, 139.5203
359.7806, 135.0912
360.2627, 130.2296
360.7448, 125.5514
361.2270, 121.2149
361.7091, 117.2348
362.1912, 113.6405
362.6733, 110.5268
363.1554, 107.3811
363.6375, 103.9200
364.1197, 100.7031
364.6018, 98.06663
365.0839, 95.86613
365.5660, 93.78193
366.0481, 91.57734
366.5302, 89.27914
367.0124, 87.06796
367.4945, 84.53252
367.9766, 82.68410
368.4587, 82.18173
368.9408, 82.26264
369.4229, 82.01762
369.9051, 81.07339
370.3872, 79.80511
370.8693, 78.93230
371.3514, 78.64227
371.8335, 78.27715
372.3156, 77.69166
372.7978, 77.06112
373.2799, 76.47438
373.7620, 75.95081
374.2441, 75.46419
374.7262, 75.04996
375.2083, 74.72176
375.6905, 74.14100
376.1726, 72.82164
376.6547, 71.81719
377.1368, 71.78981
377.6189, 72.38981
378.1010, 72.87251
378.5832, 72.79062
379.0653, 72.34471
379.5474, 72.07798
380.0295, 72.06462
380.5116, 72.03513
380.9937, 71.82629
381.4759, 71.58135
381.9580, 71.44242
382.4401, 71.45036
382.9222, 71.52681
383.4043, 71.62753
383.8864, 71.75173
384.3686, 71.77883
384.8507, 71.69465
385.3328, 71.47723
385.8149, 71.06867
386.2970, 70.49574
386.7791, 69.96548
387.2613, 69.49619
387.7434, 69.16531
388.2255, 69.24262
388.7076, 69.86747
389.1897, 70.48312
389.6718, 70.70024
390.1540, 70.62347
390.6361, 70.43030
391.1182, 70.20592
391.6003, 69.82500
392.0824, 68.97093
392.5645, 67.72681
393.0467, 66.92296
393.5288, 67.12820
394.0109, 67.73904
394.4930, 67.56889
394.9751, 66.39593
395.4572, 65.39123
395.9394, 65.10299
396.4215, 65.25484
396.9036, 65.43214
397.3857, 65.56001
397.8678, 65.62924
398.3499, 65.63469
398.8321, 65.57101
399.3142, 65.41673
399.7963, 64.88931
400.2784, 64.49842
400.7605, 64.69172
401.2426, 65.37621
401.7247, 66.15929
402.2068, 66.87580
402.6890, 67.44554
403.1711, 67.46114
403.6532, 66.05704
404.1353, 65.26251
404.6174, 65.82543
405.0995, 67.03548
405.5817, 68.11065
406.0638, 68.80010
406.5459, 69.16621
407.0280, 69.26945
407.5101, 69.01580
407.9922, 68.77785
408.4744, 68.55611
408.9565, 68.34898
409.4386, 68.04635
409.9207, 67.74203
410.4028, 67.72587
410.8849, 68.25936
411.3671, 69.22402
411.8492, 69.70784
412.3313, 68.97073
412.8134, 68.67030
413.2955, 69.42628
413.7776, 70.53423
414.2598, 71.25333
414.7419, 71.33991
415.2240, 71.05701
415.7061, 70.74279
416.1882, 70.33011
416.6703, 70.11887
417.1525, 70.33092
417.6346, 70.57103
418.1167, 70.82433
418.5988, 70.97548
419.0809, 70.73150
419.5630, 69.73241
420.0452, 68.20873
420.5273, 67.11073
421.0094, 66.49424
421.4915, 66.21793
421.9736, 66.62026
422.4557, 67.14248
422.9379, 67.13945
423.4200, 66.40242
423.9021, 65.34193
424.3842, 64.19920
424.8663, 62.99844
425.3484, 62.34077
425.8306, 62.66053
426.3127, 63.17567
426.7948, 63.09047
427.2769, 62.50579
427.7590, 62.08563
428.2411, 62.26793
428.7233, 62.71560
429.2054, 62.88206
429.6875, 62.72729
430.1696, 62.57969
430.6517, 62.59701
431.1339, 62.79121
431.6160, 63.13966
432.0981, 63.74729
432.5802, 64.34377
433.0623, 64.89590
433.5444, 65.32797
434.0266, 65.40496
434.5087, 65.01746
434.9908, 64.51672
435.4729, 64.39664
435.9550, 64.77402
436.4371, 65.03127
436.9193, 65.01118
437.4014, 64.97610
437.8835, 65.06020
438.3656, 65.28714
438.8477, 65.71555
439.3298, 66.42654
439.8120, 67.31788
440.2941, 67.81844
440.7762, 67.55383
441.2583, 67.35664
441.7404, 67.20129
442.2225, 67.20739
442.7046, 67.54227
443.1867, 68.22374
443.6689, 69.07940
444.1510, 69.92912
444.6331, 70.83400
445.1152, 71.43320
445.5973, 71.33644
446.0794, 71.31747
446.5616, 71.57003
447.0437, 72.10605
447.5258, 72.96562
448.0079, 74.22707
448.4900, 75.65840
448.9721, 76.71535
449.4543, 77.39825
449.9364, 77.69780
450.4185, 77.51018
450.9006, 77.00206
451.3827, 76.22698
451.8648, 75.20420
452.3470, 74.01572
452.8291, 72.53587
453.3112, 70.90008
453.7933, 69.80660
454.2754, 69.46239
454.7575, 69.26308
455.2397, 68.72830
455.7218, 68.07668
456.2039, 67.74120
456.6860, 68.12606
457.1681, 68.40968
457.6502, 67.52160
458.1324, 65.81092
458.6145, 64.95239
459.0966, 65.68089
459.5787, 67.10757
460.0608, 67.92851
460.5429, 68.10944
461.0251, 68.35221
461.5072, 68.65530
461.9893, 69.15715
462.4714, 70.24895
462.9535, 71.78620
463.4356, 72.90575
463.9178, 72.97008
464.3999, 72.18680
464.8820, 71.69881
465.3641, 71.64666
465.8462, 71.68564
466.3283, 71.74743
466.8105, 71.88768
467.2926, 72.24386
467.7747, 72.81259
468.2568, 73.33036
468.7389, 73.39944
469.2210, 72.84678
469.7032, 73.01044
470.1853, 75.01234
470.6674, 76.56684
471.1495, 76.66460
471.6316, 75.92337
472.1137, 75.40803
472.5959, 75.64139
473.0780, 76.18606
473.5601, 76.14672
474.0422, 75.33264
474.5243, 74.75576
475.0064, 74.79530
475.4886, 74.97015
475.9707, 75.04179
476.4528, 74.99197
476.9349, 74.84531
477.4170, 74.52249
477.8991, 74.13233
478.3813, 73.96352
478.8634, 74.06239
479.3455, 74.11150
479.8276, 73.95022
480.3097, 73.63036
480.7918, 73.19978
481.2740, 72.52566
481.7561, 72.12753
482.2382, 72.72702
482.7203, 73.67620
483.2024, 73.66825
483.6845, 72.41911
484.1666, 70.75907
484.6487, 69.39474
485.1309, 68.34862
485.6130, 67.45126
486.0951, 66.77258
486.5772, 66.15905
487.0593, 65.45194
487.5414, 64.77841
488.0236, 64.41917
488.5057, 64.48312
488.9878, 64.74154
489.4699, 64.79091
489.9520, 64.54185
490.4341, 64.29411
490.9163, 64.18649
491.3984, 63.95296
491.8805, 63.24489
492.3626, 62.29692
492.8447, 61.70415
493.3268, 61.90295
493.8090, 62.57845
494.2911, 62.76719
494.7732, 62.24815
495.2553, 61.84372
495.7374, 61.76867
496.2195, 61.86359
496.7017, 62.14103
497.1838, 62.55558
497.6659, 62.79712
498.1480, 62.45760
498.6301, 61.79063
499.1122, 61.56569
499.5944, 61.90597
500.0765, 62.22189
500.5586, 62.09245
501.0407, 61.74067
501.5228, 61.67064
502.0049, 62.11139
502.4871, 62.38762
502.9692, 61.94241
503.4513, 61.16064
503.9334, 60.72062
504.4155, 60.77102
504.8976, 61.12320
505.3798, 61.66288
505.8619, 62.41502
506.3440, 62.84157
506.8261, 62.72371
507.3082, 62.56372
507.7903, 62.49903
508.2725, 62.52547
508.7546, 62.61128
509.2367, 62.74621
509.7188, 62.97160
510.2009, 63.45149
510.6830, 64.49824
511.1652, 64.74036
511.6473, 63.15229
512.1294, 61.77364
512.6115, 61.66172
513.0936, 62.32487
513.5757, 62.66083
514.0579, 62.03561
514.5400, 61.02452
515.0221, 60.73272
515.5042, 61.26051
515.9863, 61.76121
516.4684, 62.26149
516.9506, 62.43306
517.4327, 61.73461
517.9148, 60.33186
518.3969, 59.43372
518.8790, 60.06294
519.3611, 61.17755
519.8433, 61.29650
520.3254, 60.47588
520.8075, 59.87759
521.2896, 60.13589
521.7717, 60.86167
522.2538, 61.14111
522.7360, 60.86354
523.2181, 60.56573
523.7002, 60.39134
524.1823, 60.19574
524.6644, 59.75129
525.1465, 59.12240
525.6287, 58.65104
526.1108, 58.59964
526.5929, 58.89860
527.0750, 59.18270
527.5571, 59.33799
528.0392, 59.64861
528.5214, 60.10476
529.0035, 60.74026
529.4856, 61.74615
529.9677, 63.03882
530.4498, 64.13235
530.9319, 64.43936
531.4141, 64.14748
531.8962, 64.54104
532.3783, 66.07516
532.8604, 67.23280
533.3425, 66.91759
533.8246, 66.09962
534.3068, 65.72344
534.7889, 65.94370
535.2710, 66.49338
535.7531, 67.45097
536.2352, 68.56484
536.7173, 69.22300
537.1995, 69.31645
537.6816, 69.39315
538.1637, 69.91202
538.6458, 70.76698
539.1279, 71.29772
539.6100, 70.97593
540.0922, 71.00788
540.5743, 71.93026
541.0564, 73.30157
541.5385, 74.68178
542.0206, 75.93236
542.5027, 76.96609
542.9849, 77.64127
543.4670, 77.94482
543.9491, 78.47520
544.4312, 79.62569
544.9133, 80.52502
545.3954, 80.84862
545.8775, 80.90913
546.3596, 81.08384
546.8417, 81.46272
547.3239, 81.79467
547.8060, 81.74605
548.2881, 81.35539
548.7702, 81.17216
549.2523, 81.51225
549.7344, 81.43952
550.2166, 79.96950
550.6987, 77.80959
551.1808, 76.01725
551.6629, 74.87296
552.1450, 73.87536
552.6271, 72.65970
553.1093, 71.37164
553.5914, 70.34753
554.0735, 69.65931
554.5556, 69.04794
555.0377, 68.29112
555.5198, 67.38698
556.0020, 66.44284
556.4841, 65.31027
556.9662, 64.32148
557.4483, 63.48691
557.9304, 62.87314
558.4125, 62.70204
558.8947, 62.95825
559.3768, 63.18413
559.8589, 62.76585
560.3410, 61.67892
560.8231, 61.18386
561.3052, 61.73877
561.7874, 62.23924
562.2695, 62.27949
562.7516, 62.10729
563.2337, 62.06569
563.7158, 62.25385
564.1979, 62.28695
564.6801, 61.57615
565.1622, 60.43066
565.6443, 59.92165
566.1264, 60.22644
566.6085, 60.83442
567.0906, 61.59763
567.5728, 62.36106
568.0549, 62.59053
568.5370, 61.83022
569.0191, 61.25646
569.5012, 61.39811
569.9833, 61.88111
570.4655, 62.40699
570.9476, 62.84731
571.4297, 62.86586
571.9118, 62.05528
572.3939, 60.52671
572.8760, 59.76942
573.3582, 60.61239
573.8403, 61.10929
574.3224, 60.73031
574.8045, 60.08363
575.2866, 59.74425
575.7687, 59.76329
576.2509, 59.75040
576.7330, 59.28955
577.2151, 58.52879
577.6972, 58.06092
578.1793, 57.94100
578.6614, 57.88477
579.1436, 57.84110
579.6257, 57.74553
580.1078, 57.46441
580.5899, 56.94067
581.0720, 56.56305
581.5541, 56.69664
582.0363, 56.91665
582.5184, 56.54164
583.0005, 55.68427
583.4826, 55.28197
583.9647, 55.97954
584.4468, 57.30465
584.9290, 57.85659
585.4111, 56.74007
585.8932, 56.24773
586.3753, 56.87504
586.8574, 57.65181
587.3395, 57.90335
587.8217, 57.76131
588.3038, 57.79280
588.7859, 58.38820
589.2680, 59.21018
589.7501, 59.47699
