##NAMES=Andalusite
##RRUFFID=R050449
##IDEAL CHEMISTRY=Al_2_SiO_5_
##LOCALITY=Itinga, Minas Gerais, Brazil
##OWNER=RRUFF
##SOURCE=Marcus Origlieri
##DESCRIPTION=Green fragment
##STATUS=The identification of this mineral has been confirmed by X-ray diffraction and chemical analysis
##URL=rruff.info/R050449
##MEASURED CHEMISTRY=Al_2.00_Fe^3+^_0.01_Si_0.99_O_5_
91.00781, 2.848444
91.48993, 2.935768
91.97205, 2.970773
92.45416, 2.937929
92.93628, 2.853790
93.41840, 2.748575
93.90051, 2.618420
94.38263, 2.484590
94.86475, 2.319675
95.34686, 2.125540
95.82898, 2.079494
96.31110, 2.321258
96.79321, 2.841748
97.27533, 3.608681
97.75745, 4.813384
98.23956, 6.228473
98.72168, 6.731749
99.20380, 6.149386
99.68591, 5.186255
100.1680, 4.393346
100.6501, 3.654086
101.1323, 3.722182
101.6144, 5.129073
102.0965, 8.052735
102.5786, 10.09064
103.0607, 10.99648
103.5428, 11.25122
104.0250, 11.63121
104.5071, 12.12071
104.9892, 12.75646
105.4713, 13.53375
105.9534, 14.38662
106.4355, 15.53665
106.9177, 17.21515
107.3998, 19.20023
107.8819, 20.84945
108.3640, 21.96603
108.8461, 22.88601
109.3282, 23.77475
109.8104, 24.36744
110.2925, 25.20989
110.7746, 26.49310
111.2567, 28.13675
111.7388, 29.56500
112.2209, 30.32131
112.7031, 31.04062
113.1852, 32.17191
113.6673, 34.31974
114.1494, 36.38227
114.6315, 38.02055
115.1136, 39.22514
115.5958, 40.44400
116.0779, 41.85392
116.5600, 43.34337
117.0421, 44.78112
117.5242, 45.81556
118.0063, 47.03030
118.4885, 48.86743
118.9706, 51.48201
119.4527, 54.06683
119.9348, 55.81559
120.4169, 57.22396
120.8990, 59.23502
121.3812, 63.10802
121.8633, 67.42557
122.3454, 70.93883
122.8275, 73.61702
123.3096, 75.13778
123.7917, 74.59496
124.2739, 72.43481
124.7560, 70.29535
125.2381, 69.07548
125.7202, 68.59188
126.2023, 68.57469
126.6844, 69.04905
127.1666, 69.84830
127.6487, 70.81174
128.1308, 71.93724
128.6129, 73.10756
129.0950, 74.17728
129.5771, 75.20689
130.0593, 76.46626
130.5414, 78.30779
131.0235, 80.31208
131.5056, 80.95936
131.9877, 79.79091
132.4698, 78.36549
132.9520, 79.08633
133.4341, 81.81781
133.9162, 84.22097
134.3983, 85.41150
134.8804, 85.55273
135.3625, 85.68533
135.8447, 85.69315
136.3268, 85.96800
136.8089, 87.26653
137.2910, 89.78948
137.7731, 92.14606
138.2552, 93.86678
138.7374, 94.93336
139.2195, 95.53370
139.7016, 95.68250
140.1837, 95.37785
140.6658, 94.49178
141.1479, 92.71753
141.6301, 91.04932
142.1122, 90.02940
142.5943, 90.06525
143.0764, 89.54659
143.5585, 88.05321
144.0406, 86.01079
144.5228, 84.94546
145.0049, 85.43520
145.4870, 86.17650
145.9691, 86.48343
146.4512, 86.35242
146.9333, 85.78429
147.4155, 84.42413
147.8976, 82.41904
148.3797, 81.29231
148.8618, 81.44788
149.3439, 82.16871
149.8260, 82.98878
150.3082, 84.30379
150.7903, 85.28712
151.2724, 85.73272
151.7545, 85.61999
152.2366, 85.71494
152.7188, 86.42330
153.2009, 87.16177
153.6830, 87.45334
154.1651, 86.99303
154.6472, 86.33916
155.1293, 85.43861
155.6115, 84.20013
156.0936, 83.48393
156.5757, 83.74699
157.0578, 84.49267
157.5399, 85.17653
158.0220, 86.00111
158.5042, 86.47368
158.9863, 86.23555
159.4684, 85.06683
159.9505, 84.18214
160.4326, 84.06367
160.9147, 84.44421
161.3969, 84.92686
161.8790, 85.84640
162.3611, 86.49615
162.8432, 86.32950
163.3253, 84.94383
163.8074, 83.78810
164.2896, 83.66885
164.7717, 84.24480
165.2538, 84.83730
165.7359, 85.19661
166.2180, 85.42230
166.7001, 85.59605
167.1823, 85.75383
167.6644, 85.80586
168.1465, 85.47100
168.6286, 84.93842
169.1107, 84.74266
169.5928, 85.72485
170.0750, 86.96475
170.5571, 87.41126
171.0392, 86.35224
171.5213, 85.23270
172.0034, 85.63924
172.4855, 87.20851
172.9677, 88.32164
173.4498, 87.43098
173.9319, 85.57821
174.4140, 84.23491
174.8961, 83.84280
175.3782, 84.04518
175.8604, 84.56203
176.3425, 85.37404
176.8246, 86.29256
177.3067, 87.53899
177.7888, 88.78832
178.2709, 89.30384
178.7531, 88.40913
179.2352, 87.04066
179.7173, 86.75639
180.1994, 87.51160
180.6815, 88.26437
181.1636, 87.63933
181.6458, 86.18584
182.1279, 85.60243
182.6100, 86.96781
183.0921, 89.31367
183.5742, 90.62048
184.0563, 90.82826
184.5385, 90.76848
185.0206, 91.17902
185.5027, 92.00671
185.9848, 92.99191
186.4669, 94.25040
186.9490, 95.57970
187.4312, 96.22050
187.9133, 96.05321
188.3954, 95.91628
188.8775, 97.18864
189.3596, 99.66533
189.8417, 101.4259
190.3239, 101.4868
190.8060, 100.1503
191.2881, 98.80688
191.7702, 97.41729
192.2523, 96.22649
192.7344, 95.61944
193.2166, 95.59950
193.6987, 95.70066
194.1808, 95.98882
194.6629, 96.38454
195.1450, 95.71321
195.6271, 93.64785
196.1093, 91.34882
196.5914, 90.68276
197.0735, 91.77110
197.5556, 92.96400
198.0377, 93.37320
198.5198, 92.99150
199.0020, 93.55504
199.4841, 95.40479
199.9662, 97.59813
200.4483, 98.43491
200.9304, 97.67194
201.4125, 97.03142
201.8947, 97.39043
202.3768, 98.84794
202.8589, 100.0683
203.3410, 101.0716
203.8231, 101.8060
204.3052, 102.1013
204.7874, 101.8820
205.2695, 101.5591
205.7516, 101.4743
206.2337, 101.7866
206.7158, 101.1339
207.1979, 99.13548
207.6801, 96.52074
208.1622, 94.87362
208.6443, 94.41133
209.1264, 94.20296
209.6085, 93.78735
210.0906, 93.04382
210.5728, 92.69707
211.0549, 92.94247
211.5370, 93.45872
212.0191, 93.43286
212.5012, 92.60906
212.9833, 91.87544
213.4655, 91.71040
213.9476, 92.30329
214.4297, 92.74941
214.9118, 92.98372
215.3939, 93.08720
215.8760, 93.27846
216.3581, 93.60995
216.8403, 93.91720
217.3224, 94.10011
217.8045, 94.09495
218.2866, 94.17294
218.7687, 94.39101
219.2508, 94.67300
219.7330, 94.79374
220.2151, 94.67104
220.6972, 94.53327
221.1793, 94.47401
221.6614, 94.46972
222.1435, 94.61559
222.6257, 94.99333
223.1078, 95.49657
223.5899, 95.81483
224.0720, 95.80244
224.5541, 95.84171
225.0362, 96.15892
225.5184, 96.97934
226.0005, 97.50944
226.4826, 97.66122
226.9647, 97.53934
227.4468, 97.41206
227.9289, 97.20677
228.4111, 97.11421
228.8932, 97.25105
229.3753, 97.76380
229.8574, 98.15361
230.3395, 98.34912
230.8216, 98.43026
231.3038, 98.65131
231.7859, 99.20084
232.2680, 99.60870
232.7501, 99.61707
233.2322, 98.93977
233.7143, 98.48946
234.1965, 98.20045
234.6786, 98.15239
235.1607, 98.58770
235.6428, 99.68246
236.1249, 101.0011
236.6070, 102.4039
237.0892, 104.0841
237.5713, 105.4037
238.0534, 106.2475
238.5355, 106.7593
239.0176, 107.3008
239.4997, 107.9009
239.9819, 108.5000
240.4640, 109.0759
240.9461, 109.6593
241.4282, 110.1786
241.9103, 110.7676
242.3924, 111.2516
242.8746, 111.1551
243.3567, 110.1118
243.8388, 109.0475
244.3209, 108.3512
244.8030, 108.2128
245.2851, 107.9410
245.7673, 107.4052
246.2494, 106.7909
246.7315, 106.5044
247.2136, 106.6426
247.6957, 106.9581
248.1778, 107.4229
248.6600, 108.1992
249.1421, 108.6107
249.6242, 108.5521
250.1063, 108.1892
250.5884, 107.7890
251.0705, 107.1559
251.5527, 106.8204
252.0348, 107.0536
252.5169, 108.0787
252.9990, 108.8880
253.4811, 109.5457
253.9632, 109.9528
254.4454, 109.8286
254.9275, 108.7377
255.4096, 107.9407
255.8917, 107.8662
256.3738, 108.6070
256.8560, 109.7230
257.3381, 111.5143
257.8202, 113.4371
258.3023, 114.6066
258.7844, 114.6097
259.2665, 114.7357
259.7487, 115.4135
260.2308, 116.7251
260.7129, 118.0471
261.1950, 119.4945
261.6771, 120.8234
262.1592, 121.5466
262.6414, 121.2205
263.1235, 121.4154
263.6056, 122.7557
264.0877, 125.3649
264.5698, 127.3423
265.0519, 128.3362
265.5341, 129.1717
266.0162, 130.8409
266.4983, 133.4850
266.9804, 136.5085
267.4625, 139.8663
267.9446, 143.5253
268.4268, 147.1366
268.9089, 150.4389
269.3910, 154.0266
269.8731, 158.5034
270.3552, 163.8631
270.8373, 170.0238
271.3195, 177.0004
271.8016, 184.7815
272.2837, 193.6290
272.7658, 203.9293
273.2479, 214.6851
273.7300, 225.1368
274.2122, 235.1679
274.6943, 245.5195
275.1764, 256.7871
275.6585, 268.4357
276.1406, 277.3930
276.6227, 283.2204
277.1049, 287.8229
277.5870, 292.5081
278.0691, 297.2600
278.5512, 302.2424
279.0333, 307.3192
279.5154, 312.7278
279.9976, 319.1198
280.4797, 326.4626
280.9618, 335.0667
281.4439, 345.5576
281.9260, 357.9077
282.4081, 370.7726
282.8903, 383.7988
283.3724, 397.4418
283.8545, 412.7950
284.3366, 429.8934
284.8187, 448.3972
285.3008, 467.6707
285.7830, 487.9666
286.2651, 510.3734
286.7472, 535.4667
287.2293, 562.0823
287.7114, 588.6978
288.1935, 615.3007
288.6757, 640.7883
289.1578, 665.6649
289.6399, 689.2896
290.1220, 708.0551
290.6041, 722.6183
291.0862, 729.9812
291.5684, 726.0065
292.0505, 710.8070
292.5326, 686.2882
293.0147, 650.0463
293.4968, 605.1237
293.9789, 558.1798
294.4611, 509.3233
294.9432, 461.5662
295.4253, 417.3960
295.9074, 376.9641
296.3895, 341.9417
296.8716, 313.6742
297.3538, 290.8019
297.8359, 270.7099
298.3180, 253.2436
298.8001, 238.0972
299.2822, 224.7203
299.7643, 213.1955
300.2465, 203.9436
300.7286, 197.4610
301.2107, 193.0855
301.6928, 190.2053
302.1749, 188.7952
302.6570, 188.0883
303.1392, 187.7191
303.6213, 187.6207
304.1034, 187.6785
304.5855, 187.8129
305.0676, 188.1461
305.5497, 188.8698
306.0319, 189.9342
306.5140, 191.1174
306.9961, 191.9014
307.4782, 192.8414
307.9603, 194.7277
308.4424, 198.1313
308.9246, 201.7547
309.4067, 204.3837
309.8888, 206.3643
310.3709, 208.7442
310.8530, 211.8741
311.3351, 215.7410
311.8173, 220.2878
312.2994, 225.5009
312.7815, 231.5760
313.2636, 238.4687
313.7457, 246.2448
314.2278, 255.1111
314.7100, 264.8856
315.1921, 275.8951
315.6742, 288.4584
316.1563, 302.6526
316.6384, 317.8609
317.1205, 334.0257
317.6027, 350.7650
318.0848, 367.5106
318.5669, 385.7926
319.0490, 402.5279
319.5311, 417.6674
320.0132, 431.3167
320.4954, 439.1757
320.9775, 439.9042
321.4596, 434.3479
321.9417, 423.1352
322.4238, 402.0720
322.9059, 379.8559
323.3881, 357.6195
323.8702, 335.6819
324.3523, 314.9348
324.8344, 295.3277
325.3165, 277.1111
325.7986, 260.2451
326.2808, 243.9517
326.7629, 229.9288
327.2450, 218.3395
327.7271, 209.1254
328.2092, 202.0215
328.6913, 198.5956
329.1735, 195.9044
329.6556, 192.6933
330.1377, 188.1635
330.6198, 184.6295
331.1019, 182.2967
331.5840, 180.9037
332.0662, 180.0052
332.5483, 180.2088
333.0304, 180.0016
333.5125, 178.6390
333.9946, 175.6272
334.4767, 174.0702
334.9589, 174.6082
335.4410, 175.9882
335.9231, 176.6094
336.4052, 176.1490
336.8873, 175.7648
337.3694, 175.7337
337.8516, 176.0403
338.3336, 176.4207
338.8158, 176.8675
339.2979, 177.4131
339.7800, 178.0445
340.2621, 178.7207
340.7442, 179.7910
341.2263, 181.4254
341.7085, 183.4287
342.1906, 184.9822
342.6727, 186.0166
343.1548, 187.1215
343.6369, 188.9176
344.1190, 191.3206
344.6012, 193.0808
345.0833, 193.8182
345.5654, 194.3091
346.0475, 196.0225
346.5296, 198.8862
347.0117, 201.9513
347.4939, 204.4732
347.9760, 206.7452
348.4581, 209.8114
348.9402, 213.7718
349.4223, 218.1987
349.9044, 222.7639
350.3866, 227.4835
350.8687, 232.4423
351.3508, 237.2929
351.8329, 242.6233
352.3150, 249.7177
352.7971, 258.5644
353.2793, 267.5653
353.7614, 275.5928
354.2435, 283.0777
354.7256, 290.8028
355.2077, 299.2341
355.6898, 307.6480
356.1720, 316.3215
356.6541, 324.8079
357.1362, 331.2090
357.6183, 334.5560
358.1004, 335.3615
358.5826, 334.0498
359.0647, 330.6593
359.5468, 325.2704
360.0289, 317.3088
360.5110, 307.4177
360.9931, 296.7753
361.4753, 285.3810
361.9574, 273.8532
362.4395, 262.3129
362.9216, 250.6396
363.4037, 239.8469
363.8858, 230.4939
364.3680, 222.0735
364.8501, 214.0184
365.3322, 205.5279
365.8143, 198.2033
366.2964, 192.9102
366.7785, 189.5797
367.2607, 185.9240
367.7428, 180.8608
368.2249, 175.9513
368.7070, 172.1346
369.1891, 169.9800
369.6712, 168.2121
370.1534, 166.9434
370.6355, 166.0295
371.1176, 165.0519
371.5997, 164.1932
372.0818, 163.0196
372.5639, 161.2219
373.0461, 158.3920
373.5282, 156.2667
374.0103, 155.0506
374.4924, 154.2982
374.9745, 153.2985
375.4566, 151.8624
375.9388, 150.7653
376.4209, 150.3477
376.9030, 150.5539
377.3851, 150.5216
377.8672, 150.2173
378.3493, 149.7970
378.8315, 149.3211
379.3136, 148.7822
379.7957, 148.5627
380.2778, 148.8154
380.7599, 149.3482
381.2420, 149.8366
381.7242, 150.2730
382.2063, 150.3402
382.6884, 149.5179
383.1705, 148.1054
383.6526, 147.1903
384.1347, 146.9189
384.6169, 146.9632
385.0990, 147.0855
385.5811, 147.2220
386.0632, 147.1622
386.5453, 146.6670
387.0274, 145.9823
387.5096, 145.2511
387.9917, 144.4887
388.4738, 144.2370
388.9559, 145.4755
389.4380, 147.3238
389.9201, 148.6260
390.4023, 148.8599
390.8844, 148.6107
391.3665, 148.0230
391.8486, 147.2084
392.3307, 146.5955
392.8128, 146.8074
393.2950, 147.0140
393.7771, 146.5956
394.2592, 145.2296
394.7413, 143.8416
395.2234, 142.7008
395.7055, 141.7322
396.1877, 140.8209
396.6698, 139.7712
397.1519, 138.9373
397.6340, 138.5260
398.1161, 138.6112
398.5982, 138.4912
399.0804, 137.7352
399.5625, 136.9963
400.0446, 136.7686
400.5267, 137.6476
401.0088, 138.1590
401.4909, 137.9391
401.9731, 137.2402
402.4552, 137.1028
402.9373, 137.7490
403.4194, 138.5962
403.9015, 139.3576
404.3836, 139.9613
404.8658, 140.8204
405.3479, 142.0838
405.8300, 143.3850
406.3121, 144.0872
406.7942, 144.0835
407.2763, 144.2145
407.7585, 144.7707
408.2406, 145.6882
408.7227, 146.7507
409.2048, 148.0128
409.6869, 148.9286
410.1690, 148.4980
410.6512, 147.1207
411.1333, 146.7966
411.6154, 148.0972
412.0975, 150.2555
412.5796, 152.3287
413.0617, 154.3081
413.5439, 156.1868
414.0260, 158.0169
414.5081, 159.7471
414.9902, 161.2986
415.4723, 162.6800
415.9544, 163.8480
416.4366, 164.6757
416.9187, 165.2773
417.4008, 165.8210
417.8829, 167.0568
418.3650, 167.6713
418.8471, 166.7149
419.3293, 164.3654
419.8114, 161.6471
420.2935, 158.5854
420.7756, 155.5732
421.2577, 152.9848
421.7398, 151.0959
422.2220, 149.1195
422.7041, 146.8481
423.1862, 144.3731
423.6683, 141.8539
424.1504, 138.5682
424.6325, 135.9447
425.1147, 134.6221
425.5968, 134.7804
426.0789, 134.4234
426.5610, 133.3269
427.0431, 131.9199
427.5252, 130.4494
428.0074, 128.5271
428.4895, 127.5201
428.9716, 127.9611
429.4537, 129.2968
429.9358, 129.7132
430.4179, 128.9932
430.9001, 128.1200
431.3822, 127.4168
431.8643, 126.8755
432.3464, 127.2386
432.8285, 128.7425
433.3106, 130.3869
433.7928, 130.6319
434.2749, 129.6787
434.7570, 129.2592
435.2391, 130.1391
435.7212, 131.6948
436.2033, 132.7990
436.6855, 133.4632
437.1676, 133.8905
437.6497, 134.1021
438.1318, 134.2042
438.6139, 134.3033
439.0960, 134.3542
439.5782, 134.6352
440.0603, 135.5059
440.5424, 136.7631
441.0245, 138.0108
441.5066, 139.1430
441.9887, 140.1765
442.4709, 141.0137
442.9530, 141.6709
443.4351, 142.5549
443.9172, 143.8280
444.3993, 145.3748
444.8814, 147.1066
445.3636, 149.3411
445.8457, 151.3249
446.3278, 152.6354
446.8099, 153.6133
447.2920, 155.1593
447.7741, 158.1465
448.2563, 160.7540
448.7384, 162.2297
449.2205, 162.3652
449.7026, 163.2278
450.1847, 165.2055
450.6668, 167.4122
451.1490, 169.3390
451.6311, 171.4259
452.1132, 171.4630
452.5953, 168.8581
453.0774, 164.2173
453.5595, 158.6452
454.0417, 151.9934
454.5238, 145.5884
455.0059, 139.6482
455.4880, 134.4203
455.9701, 131.3131
456.4522, 130.6138
456.9344, 130.5200
457.4165, 128.9653
457.8986, 126.4348
458.3807, 124.3285
458.8628, 123.1212
459.3449, 122.4781
459.8271, 122.2174
460.3092, 122.2467
460.7913, 122.1627
461.2734, 121.4276
461.7555, 120.6607
462.2376, 120.5020
462.7198, 121.2069
463.2019, 121.7287
463.6840, 121.2694
464.1661, 120.4534
464.6482, 120.0364
465.1303, 120.6406
465.6125, 121.2179
466.0946, 121.4773
466.5767, 121.4460
467.0588, 121.4034
467.5409, 120.9872
468.0230, 120.9047
468.5052, 121.6119
468.9873, 123.8749
469.4694, 124.9361
469.9515, 124.1623
470.4336, 122.7388
470.9157, 122.4404
471.3979, 123.6655
471.8800, 124.6497
472.3621, 124.8508
472.8442, 124.4661
473.3263, 124.4957
473.8084, 124.9922
474.2906, 125.4944
474.7727, 125.5993
475.2548, 125.3999
475.7369, 125.3377
476.2190, 125.4547
476.7011, 125.7179
477.1833, 126.2954
477.6654, 127.0109
478.1475, 127.3751
478.6296, 126.7485
479.1117, 125.9765
479.5938, 126.0678
480.0760, 126.8939
480.5581, 127.5879
481.0402, 127.4726
481.5223, 127.1323
482.0044, 127.0874
482.4865, 127.6075
482.9687, 127.9460
483.4508, 127.6692
483.9329, 127.1066
484.4150, 126.7322
484.8971, 126.7058
485.3792, 126.7915
485.8614, 126.9841
486.3435, 127.2721
486.8256, 127.5162
487.3077, 127.7976
487.7898, 127.9376
488.2719, 127.7735
488.7541, 127.1074
489.2362, 126.8431
489.7183, 127.1838
490.2004, 127.6637
490.6825, 127.4467
491.1646, 126.4316
491.6468, 125.7486
492.1289, 125.8008
492.6110, 126.3768
493.0931, 126.8848
493.5752, 127.3282
494.0573, 127.8118
494.5395, 128.7207
495.0216, 129.6767
495.5037, 129.6375
495.9858, 128.2689
496.4679, 127.1320
496.9500, 128.0169
497.4322, 130.0486
497.9143, 131.7616
498.3964, 132.1563
498.8785, 132.4538
499.3606, 133.4465
499.8427, 134.9852
500.3249, 136.2940
500.8070, 137.2321
501.2891, 137.7896
501.7712, 137.7834
502.2533, 136.7210
502.7354, 136.4617
503.2176, 137.8827
503.6997, 139.7896
504.1818, 140.9324
504.6639, 140.6650
505.1460, 140.8651
505.6281, 142.0364
506.1103, 143.8399
506.5924, 144.8581
507.0745, 144.9143
507.5566, 144.8025
508.0387, 144.9220
508.5208, 145.2577
509.0030, 145.5235
509.4851, 145.7212
509.9672, 145.8388
510.4493, 145.7712
510.9314, 145.5995
511.4135, 145.6344
511.8957, 146.0786
512.3778, 146.5489
512.8599, 146.4850
513.3420, 146.0605
513.8242, 145.7798
514.3063, 146.0872
514.7884, 146.5111
515.2705, 146.6836
515.7526, 146.5788
516.2347, 146.4189
516.7169, 146.2662
517.1990, 146.1059
517.6811, 145.9217
518.1632, 145.5862
518.6453, 145.3921
519.1274, 145.4025
519.6096, 145.5644
520.0917, 145.7879
520.5738, 146.0795
521.0559, 146.4193
521.5380, 146.8242
522.0201, 147.2872
522.5023, 147.6425
522.9844, 147.8179
523.4665, 148.0999
523.9486, 148.8159
524.4307, 149.9357
524.9128, 150.6681
525.3950, 150.8533
525.8771, 150.9672
526.3592, 151.7351
526.8413, 152.9852
527.3234, 154.1232
527.8055, 154.8856
528.2877, 155.4552
528.7698, 155.8452
529.2519, 156.1615
529.7340, 156.8716
530.2161, 158.6178
530.6982, 160.6005
531.1804, 162.1357
531.6625, 162.9783
532.1446, 164.2208
532.6267, 166.5614
533.1088, 169.2932
533.5909, 171.7278
534.0731, 173.5049
534.5552, 175.3424
535.0373, 177.1814
535.5194, 179.1257
536.0015, 181.5818
536.4836, 184.7251
536.9658, 187.9999
537.4479, 191.3250
537.9300, 194.6610
538.4121, 197.2634
538.8942, 198.9515
539.3763, 200.5954
539.8585, 202.8870
540.3406, 205.7681
540.8227, 208.9952
541.3048, 212.6615
541.7869, 216.3222
542.2690, 219.2674
542.7512, 221.7765
543.2333, 224.5511
543.7154, 227.9147
544.1975, 231.6349
544.6796, 235.8471
545.1617, 240.3874
545.6439, 244.3584
546.1260, 246.6964
546.6081, 248.8526
547.0902, 251.9410
547.5723, 256.5369
548.0544, 259.9863
548.5366, 261.2507
549.0187, 261.6095
549.5008, 262.2476
549.9829, 263.8797
550.4650, 264.5002
550.9471, 263.8958
551.4293, 262.2142
551.9114, 259.6613
552.3935, 256.1263
552.8756, 252.2779
553.3577, 248.5045
553.8398, 244.6253
554.3220, 239.4434
554.8041, 232.8853
555.2862, 226.5953
555.7683, 221.9682
556.2504, 218.4633
556.7325, 214.8460
557.2147, 210.8865
557.6968, 207.1945
558.1789, 204.3642
558.6610, 202.0996
559.1431, 199.9919
559.6252, 197.7702
560.1074, 195.8033
560.5895, 194.3914
561.0716, 193.3741
561.5537, 192.2458
562.0358, 190.6375
562.5179, 189.1464
563.0001, 188.0149
563.4822, 187.2801
563.9643, 186.5274
564.4464, 185.6570
564.9285, 184.9100
565.4106, 184.5059
565.8928, 184.5069
566.3749, 184.4384
566.8570, 184.2567
567.3391, 184.0128
567.8212, 183.7400
568.3033, 183.4521
568.7855, 183.2894
569.2676, 183.4357
569.7497, 183.5912
570.2318, 183.1833
570.7139, 182.3437
571.1960, 181.6159
571.6782, 181.6317
572.1603, 181.6875
572.6424, 181.1023
573.1245, 179.7675
573.6066, 178.5837
574.0887, 177.9123
574.5709, 177.5112
575.0530, 177.1991
575.5351, 177.5133
576.0172, 177.0723
576.4993, 175.4153
576.9814, 173.1965
577.4636, 171.4937
577.9457, 170.4532
578.4278, 169.5634
578.9099, 168.7963
579.3920, 168.0787
579.8741, 166.9926
580.3563, 165.4974
580.8384, 164.2528
581.3205, 163.8965
581.8026, 164.0786
582.2847, 163.7503
582.7668, 162.8707
583.2490, 161.9463
583.7311, 161.3548
584.2132, 160.9913
584.6953, 160.7429
585.1774, 160.6613
585.6595, 160.5126
586.1416, 160.1904
586.6237, 159.7221
587.1058, 159.1447
587.5880, 158.1601
588.0701, 157.4057
588.5522, 157.2173
