##NAMES=Andersonite
##RRUFFID=R080133
##IDEAL CHEMISTRY=Na_2_Ca(U^6+^O_2_)(CO_3_)_3_&#183;5-6H_2_O
##LOCALITY=Monte Cristo mine, Cane Springs Canyon, near Moab, Grand County, Utah, USA
##OWNER=RRUFF
##SOURCE=James Shigley
##DESCRIPTION=Bright yellowish green platy to granular crystals
##STATUS=The identification of this mineral has been confirmed only by single crystal X-ray diffraction.
##URL=rruff.info/R080133
93.78320, 2395.563
94.26532, 2395.845
94.74744, 2405.120
95.22955, 2417.415
95.71167, 2433.405
96.19379, 2440.982
96.67590, 2444.973
97.15802, 2444.532
97.64014, 2437.211
98.12225, 2425.779
98.60437, 2415.416
99.08649, 2408.965
99.56860, 2404.479
100.0507, 2398.199
100.5328, 2385.748
101.0150, 2372.632
101.4971, 2363.071
101.9792, 2357.160
102.4613, 2353.253
102.9434, 2350.897
103.4255, 2349.678
103.9077, 2349.488
104.3898, 2350.248
104.8719, 2351.957
105.3540, 2354.632
105.8361, 2358.105
106.3182, 2362.675
106.8004, 2368.641
107.2825, 2375.358
107.7646, 2381.722
108.2467, 2386.857
108.7288, 2390.919
109.2109, 2396.850
109.6931, 2405.120
110.1752, 2414.641
110.6573, 2425.335
111.1394, 2437.043
111.6215, 2449.667
112.1036, 2463.207
112.5858, 2477.948
113.0679, 2491.317
113.5500, 2502.327
114.0321, 2512.695
114.5142, 2523.645
114.9964, 2535.363
115.4785, 2547.228
115.9606, 2558.410
116.4427, 2568.927
116.9248, 2579.383
117.4069, 2590.038
117.8891, 2600.678
118.3712, 2611.109
118.8533, 2621.547
119.3354, 2631.153
119.8175, 2638.306
120.2996, 2643.321
120.7818, 2649.711
121.2639, 2661.500
121.7460, 2678.978
122.2281, 2693.534
122.7102, 2699.336
123.1923, 2704.548
123.6745, 2713.599
124.1566, 2727.196
124.6387, 2742.679
125.1208, 2756.565
125.6029, 2768.848
126.0850, 2779.167
126.5672, 2788.016
127.0493, 2795.131
127.5314, 2799.849
128.0135, 2801.994
128.4956, 2802.406
128.9777, 2803.481
129.4599, 2805.902
129.9420, 2808.310
130.4241, 2810.661
130.9062, 2812.960
131.3883, 2814.981
131.8705, 2816.434
132.3526, 2817.781
132.8347, 2821.603
133.3168, 2831.837
133.7989, 2840.176
134.2810, 2843.340
134.7632, 2841.613
135.2453, 2836.784
135.7274, 2829.728
136.2095, 2820.065
136.6916, 2807.948
137.1737, 2792.748
137.6559, 2775.417
138.1380, 2755.931
138.6201, 2733.593
139.1022, 2712.248
139.5843, 2694.543
140.0664, 2679.220
140.5486, 2665.192
141.0307, 2652.538
141.5128, 2640.747
141.9949, 2628.439
142.4770, 2615.023
142.9591, 2601.911
143.4413, 2590.324
143.9234, 2579.493
144.4055, 2567.909
144.8876, 2554.423
145.3697, 2539.054
145.8518, 2523.672
146.3340, 2508.677
146.8161, 2493.339
147.2982, 2476.593
147.7803, 2459.082
148.2624, 2442.541
148.7445, 2428.671
149.2267, 2418.215
149.7088, 2407.954
150.1909, 2397.434
150.6730, 2387.384
151.1551, 2377.621
151.6372, 2368.371
152.1194, 2360.863
152.6015, 2356.862
153.0836, 2358.530
153.5657, 2358.044
154.0478, 2352.684
154.5299, 2346.451
155.0121, 2343.534
155.4942, 2345.081
155.9763, 2348.919
156.4584, 2352.213
156.9405, 2354.992
157.4227, 2357.416
157.9048, 2358.946
158.3869, 2360.162
158.8690, 2362.448
159.3511, 2366.575
159.8332, 2371.266
160.3154, 2375.166
160.7975, 2378.321
161.2796, 2380.667
161.7617, 2382.297
162.2438, 2383.185
162.7259, 2382.796
163.2081, 2379.909
163.6902, 2376.524
164.1723, 2374.492
164.6544, 2373.954
165.1365, 2373.200
165.6186, 2370.337
166.1008, 2365.080
166.5829, 2359.043
167.0650, 2352.604
167.5471, 2345.461
168.0292, 2336.823
168.5113, 2326.640
168.9935, 2316.444
169.4756, 2309.093
169.9577, 2306.891
170.4398, 2303.123
170.9219, 2296.441
171.4040, 2288.732
171.8862, 2281.488
172.3683, 2275.271
172.8504, 2269.708
173.3325, 2263.844
173.8146, 2256.797
174.2967, 2250.603
174.7789, 2245.250
175.2610, 2240.772
175.7431, 2237.395
176.2252, 2235.219
176.7073, 2233.903
177.1894, 2232.343
177.6716, 2229.552
178.1537, 2227.704
178.6358, 2227.974
179.1179, 2229.437
179.6000, 2230.187
180.0821, 2229.094
180.5643, 2226.944
181.0464, 2226.163
181.5285, 2226.968
182.0106, 2228.493
182.4927, 2230.940
182.9749, 2234.006
183.4570, 2236.298
183.9391, 2237.054
184.4212, 2236.554
184.9033, 2235.798
185.3854, 2234.961
185.8676, 2233.608
186.3497, 2230.729
186.8318, 2226.246
187.3139, 2223.016
187.7960, 2223.406
188.2781, 2225.315
188.7603, 2226.515
189.2424, 2226.483
189.7245, 2225.858
190.2066, 2225.407
190.6887, 2225.155
191.1708, 2224.972
191.6530, 2224.635
192.1351, 2224.413
192.6172, 2224.518
193.0993, 2225.001
193.5814, 2225.925
194.0635, 2227.409
194.5457, 2229.466
195.0278, 2232.137
195.5099, 2236.091
195.9920, 2240.247
196.4741, 2243.316
196.9562, 2244.658
197.4384, 2245.127
197.9205, 2247.330
198.4026, 2253.434
198.8847, 2258.335
199.3668, 2259.960
199.8489, 2260.594
200.3311, 2263.011
200.8132, 2268.656
201.2953, 2276.617
201.7774, 2283.208
202.2595, 2287.826
202.7416, 2291.620
203.2238, 2293.917
203.7059, 2295.631
204.1880, 2298.099
204.6701, 2302.060
205.1522, 2307.143
205.6344, 2311.683
206.1165, 2315.776
206.5986, 2319.355
207.0807, 2322.041
207.5628, 2324.218
208.0449, 2326.637
208.5271, 2329.733
209.0092, 2333.287
209.4913, 2336.337
209.9734, 2338.509
210.4555, 2340.744
210.9376, 2343.484
211.4198, 2346.559
211.9019, 2349.499
212.3840, 2351.976
212.8661, 2354.214
213.3482, 2356.838
213.8303, 2359.991
214.3125, 2363.250
214.7946, 2365.879
215.2767, 2368.172
215.7588, 2371.881
216.2409, 2378.857
216.7230, 2386.946
217.2052, 2392.365
217.6873, 2394.327
218.1694, 2395.125
218.6515, 2396.479
219.1336, 2398.356
219.6157, 2399.619
220.0979, 2399.433
220.5800, 2398.647
221.0621, 2398.131
221.5442, 2397.961
222.0263, 2398.140
222.5084, 2399.144
222.9906, 2401.167
223.4727, 2401.921
223.9548, 2401.000
224.4369, 2398.171
224.9190, 2392.577
225.4011, 2383.910
225.8833, 2374.334
226.3654, 2366.642
226.8475, 2361.509
227.3296, 2355.090
227.8117, 2344.526
228.2938, 2333.734
228.7760, 2325.611
229.2581, 2320.620
229.7402, 2316.594
230.2223, 2310.433
230.7044, 2301.145
231.1866, 2292.831
231.6687, 2286.365
232.1508, 2280.627
232.6329, 2275.432
233.1150, 2270.536
233.5971, 2265.211
234.0793, 2257.964
234.5614, 2246.917
235.0435, 2238.772
235.5256, 2234.298
236.0077, 2231.784
236.4898, 2230.745
236.9720, 2230.851
237.4541, 2231.476
237.9362, 2231.717
238.4183, 2231.074
238.9004, 2231.324
239.3825, 2233.218
239.8647, 2235.263
240.3468, 2236.464
240.8289, 2236.709
241.3110, 2236.547
241.7931, 2236.594
242.2752, 2236.704
242.7574, 2237.558
243.2395, 2240.183
243.7216, 2242.656
244.2037, 2243.621
244.6858, 2242.988
245.1679, 2241.691
245.6501, 2240.757
246.1322, 2240.343
246.6143, 2239.638
247.0964, 2237.596
247.5785, 2236.064
248.0606, 2236.765
248.5428, 2239.591
249.0249, 2242.677
249.5070, 2244.275
249.9891, 2244.158
250.4712, 2243.518
250.9533, 2242.795
251.4355, 2241.284
251.9176, 2237.557
252.3997, 2231.954
252.8818, 2227.401
253.3639, 2226.754
253.8460, 2230.140
254.3282, 2231.826
254.8103, 2231.799
255.2924, 2230.168
255.7745, 2226.325
256.2566, 2220.502
256.7387, 2214.500
257.2209, 2209.222
257.7030, 2204.958
258.1851, 2202.203
258.6672, 2202.664
259.1493, 2203.244
259.6314, 2201.391
260.1136, 2197.358
260.5957, 2193.722
261.0778, 2192.244
261.5599, 2192.219
262.0420, 2191.187
262.5241, 2188.374
263.0063, 2185.426
263.4884, 2183.730
263.9705, 2183.112
264.4526, 2182.062
264.9347, 2179.779
265.4168, 2176.654
265.8990, 2173.687
266.3811, 2171.099
266.8632, 2168.182
267.3453, 2163.662
267.8275, 2157.914
268.3096, 2154.008
268.7917, 2154.202
269.2738, 2155.846
269.7559, 2155.123
270.2380, 2151.540
270.7202, 2148.032
271.2023, 2147.041
271.6844, 2148.162
272.1665, 2148.545
272.6486, 2147.282
273.1307, 2145.197
273.6129, 2142.695
274.0950, 2139.788
274.5771, 2138.068
275.0592, 2139.702
275.5413, 2143.896
276.0234, 2145.827
276.5056, 2143.592
276.9877, 2140.416
277.4698, 2138.625
277.9519, 2138.095
278.4340, 2138.184
278.9161, 2138.983
279.3983, 2140.203
279.8804, 2140.260
280.3625, 2137.670
280.8446, 2136.173
281.3267, 2139.183
281.8088, 2144.912
282.2910, 2149.135
282.7731, 2148.711
283.2552, 2145.058
283.7373, 2143.208
284.2194, 2144.761
284.7015, 2145.023
285.1837, 2141.308
285.6658, 2135.161
286.1479, 2128.694
286.6300, 2122.674
287.1121, 2117.135
287.5942, 2112.400
288.0764, 2109.038
288.5585, 2105.112
289.0406, 2099.241
289.5227, 2092.782
290.0048, 2087.418
290.4869, 2083.921
290.9691, 2080.936
291.4512, 2075.696
291.9333, 2067.091
292.4154, 2059.868
292.8975, 2056.735
293.3796, 2054.616
293.8618, 2051.134
294.3439, 2045.685
294.8260, 2039.644
295.3081, 2034.808
295.7902, 2031.426
296.2723, 2028.094
296.7545, 2024.017
297.2366, 2020.341
297.7187, 2017.900
298.2008, 2016.690
298.6829, 2015.946
299.1650, 2015.196
299.6472, 2014.536
300.1293, 2012.802
300.6114, 2009.226
301.0935, 2005.069
301.5756, 2000.679
302.0577, 1996.158
302.5399, 1991.541
303.0220, 1986.603
303.5041, 1981.422
303.9862, 1977.619
304.4683, 1976.786
304.9504, 1975.549
305.4326, 1972.381
305.9147, 1968.002
306.3968, 1963.793
306.8789, 1960.623
307.3610, 1958.262
307.8431, 1955.767
308.3253, 1953.080
308.8074, 1950.369
309.2895, 1947.597
309.7716, 1944.855
310.2537, 1942.313
310.7358, 1940.052
311.2180, 1937.910
311.7001, 1935.572
312.1822, 1932.990
312.6643, 1930.209
313.1464, 1926.076
313.6285, 1922.394
314.1107, 1921.107
314.5928, 1922.648
315.0749, 1924.966
315.5570, 1924.903
316.0392, 1921.584
316.5213, 1919.045
317.0034, 1918.324
317.4855, 1917.991
317.9676, 1917.380
318.4497, 1916.403
318.9319, 1915.280
319.4140, 1914.486
319.8961, 1914.192
320.3782, 1912.574
320.8603, 1906.988
321.3424, 1902.620
321.8246, 1902.239
322.3067, 1904.775
322.7888, 1907.327
323.2709, 1907.576
323.7530, 1905.977
324.2351, 1906.002
324.7173, 1909.126
325.1994, 1911.856
325.6815, 1913.655
326.1636, 1914.308
326.6457, 1913.264
327.1278, 1909.934
327.6100, 1905.575
328.0921, 1903.385
328.5742, 1904.418
329.0563, 1905.384
329.5384, 1904.841
330.0205, 1904.257
330.5027, 1905.309
330.9848, 1908.464
331.4669, 1911.921
331.9490, 1912.910
332.4311, 1910.756
332.9132, 1909.130
333.3954, 1908.426
333.8775, 1908.533
334.3596, 1909.883
334.8417, 1912.285
335.3238, 1914.652
335.8059, 1915.813
336.2881, 1915.753
336.7702, 1916.117
337.2523, 1917.575
337.7344, 1918.737
338.2165, 1918.608
338.6986, 1917.693
339.1808, 1917.210
339.6629, 1918.081
340.1450, 1919.901
340.6271, 1921.092
341.1092, 1921.165
341.5913, 1921.535
342.0735, 1923.316
342.5556, 1925.464
343.0377, 1926.609
343.5198, 1926.093
344.0019, 1924.834
344.4840, 1924.050
344.9662, 1923.572
345.4483, 1924.281
345.9304, 1928.423
346.4125, 1932.722
346.8946, 1934.617
347.3767, 1933.728
347.8589, 1931.974
348.3410, 1930.883
348.8231, 1930.452
349.3052, 1930.856
349.7873, 1933.486
350.2694, 1935.331
350.7516, 1933.621
351.2337, 1929.151
351.7158, 1925.378
352.1979, 1924.895
352.6800, 1926.725
353.1621, 1927.761
353.6443, 1927.982
354.1264, 1927.318
354.6085, 1925.266
355.0906, 1922.436
355.5727, 1919.835
356.0548, 1918.205
356.5370, 1916.463
357.0191, 1912.579
357.5012, 1906.291
357.9833, 1901.130
358.4654, 1899.356
358.9475, 1899.083
359.4297, 1898.096
359.9118, 1896.126
360.3939, 1893.837
360.8760, 1891.650
361.3581, 1889.546
361.8402, 1887.265
362.3224, 1884.387
362.8045, 1881.910
363.2866, 1881.040
363.7687, 1881.606
364.2508, 1882.271
364.7329, 1882.750
365.2151, 1882.914
365.6972, 1882.657
366.1793, 1882.027
366.6614, 1880.546
367.1436, 1876.822
367.6257, 1871.920
368.1078, 1869.178
368.5899, 1870.509
369.0720, 1872.913
369.5541, 1874.099
370.0363, 1874.209
370.5184, 1874.189
371.0005, 1874.659
371.4826, 1875.084
371.9647, 1874.149
372.4468, 1871.189
372.9290, 1868.716
373.4111, 1867.779
373.8932, 1867.968
374.3753, 1868.793
374.8574, 1870.227
375.3395, 1871.594
375.8217, 1871.978
376.3038, 1871.278
376.7859, 1870.362
377.2680, 1868.492
377.7501, 1866.974
378.2322, 1867.479
378.7144, 1869.812
379.1965, 1871.736
379.6786, 1871.468
380.1607, 1869.219
380.6428, 1867.699
381.1249, 1867.432
381.6071, 1867.211
382.0892, 1866.458
382.5713, 1865.473
383.0534, 1864.896
383.5355, 1865.026
384.0176, 1865.531
384.4998, 1865.670
384.9819, 1864.903
385.4640, 1864.686
385.9461, 1865.949
386.4282, 1867.223
386.9103, 1867.348
387.3925, 1866.120
387.8746, 1863.736
388.3567, 1860.088
388.8388, 1854.617
389.3209, 1852.103
389.8030, 1854.972
390.2852, 1857.801
390.7673, 1858.043
391.2494, 1856.693
391.7315, 1856.046
392.2136, 1857.475
392.6957, 1860.465
393.1779, 1863.085
393.6600, 1865.923
394.1421, 1867.393
394.6242, 1866.798
395.1063, 1865.199
395.5884, 1863.347
396.0706, 1861.500
396.5527, 1859.763
397.0348, 1858.172
397.5169, 1856.580
397.9990, 1855.730
398.4811, 1856.367
398.9633, 1857.085
399.4454, 1857.044
399.9275, 1856.597
400.4096, 1856.823
400.8917, 1858.790
401.3738, 1861.840
401.8560, 1862.867
402.3381, 1860.376
402.8202, 1858.736
403.3023, 1860.379
403.7844, 1862.923
404.2665, 1863.670
404.7487, 1861.731
405.2308, 1859.179
405.7129, 1859.048
406.1950, 1861.560
406.6771, 1862.294
407.1592, 1858.803
407.6414, 1855.032
408.1235, 1854.167
408.6056, 1855.769
409.0877, 1857.127
409.5698, 1856.307
410.0519, 1854.196
410.5341, 1852.799
411.0162, 1852.183
411.4983, 1852.204
411.9804, 1853.229
412.4625, 1854.736
412.9446, 1855.865
413.4268, 1856.422
413.9089, 1856.664
414.3910, 1856.813
414.8731, 1856.826
415.3553, 1856.440
415.8374, 1855.438
416.3195, 1854.226
416.8016, 1853.298
417.2837, 1852.595
417.7658, 1852.417
418.2480, 1853.488
418.7301, 1854.789
419.2122, 1855.073
419.6943, 1854.234
420.1764, 1852.977
420.6585, 1851.626
421.1407, 1850.302
421.6228, 1850.050
422.1049, 1851.591
422.5870, 1853.280
423.0691, 1854.713
423.5512, 1855.801
424.0334, 1856.374
424.5155, 1856.350
424.9976, 1855.943
425.4797, 1855.582
425.9618, 1855.648
426.4439, 1854.929
426.9261, 1852.713
427.4082, 1850.312
427.8903, 1848.553
428.3724, 1847.520
428.8545, 1846.965
429.3366, 1846.721
429.8188, 1846.783
430.3009, 1846.889
430.7830, 1847.560
431.2651, 1847.691
431.7472, 1846.278
432.2293, 1844.547
432.7115, 1844.230
433.1936, 1845.917
433.6757, 1848.265
434.1578, 1848.810
434.6399, 1846.681
435.1220, 1845.761
435.6042, 1847.904
436.0863, 1849.949
436.5684, 1850.243
437.0505, 1849.034
437.5326, 1847.485
438.0147, 1845.899
438.4969, 1844.714
438.9790, 1846.018
439.4611, 1851.219
439.9432, 1855.329
440.4253, 1854.925
440.9074, 1853.010
441.3896, 1852.908
441.8717, 1855.607
442.3538, 1858.459
442.8359, 1858.666
443.3180, 1856.759
443.8001, 1855.901
444.2823, 1856.877
444.7644, 1858.730
445.2465, 1860.742
445.7286, 1862.892
446.2107, 1865.004
446.6928, 1867.045
447.1750, 1869.018
447.6571, 1871.100
448.1392, 1873.214
448.6213, 1874.650
449.1034, 1874.789
449.5855, 1874.195
450.0677, 1874.489
450.5498, 1875.921
451.0319, 1877.481
451.5140, 1879.159
451.9961, 1880.711
452.4782, 1881.773
452.9604, 1882.298
453.4425, 1882.604
453.9246, 1882.996
454.4067, 1883.484
454.8888, 1883.997
455.3709, 1883.768
455.8531, 1884.374
456.3352, 1886.895
456.8173, 1890.535
457.2994, 1894.059
457.7815, 1896.885
458.2636, 1899.176
458.7458, 1901.082
459.2279, 1901.561
459.7100, 1903.969
460.1921, 1911.164
460.6742, 1917.752
461.1563, 1919.899
461.6385, 1918.276
462.1206, 1916.381
462.6027, 1916.881
463.0848, 1919.332
463.5669, 1921.684
464.0491, 1924.662
464.5312, 1925.927
465.0133, 1924.575
465.4954, 1921.291
465.9775, 1916.412
466.4597, 1909.910
466.9418, 1902.700
467.4239, 1894.467
467.9060, 1885.764
468.3881, 1880.689
468.8702, 1881.267
469.3524, 1882.750
469.8345, 1881.622
470.3166, 1878.298
470.7987, 1873.478
471.2808, 1865.965
471.7629, 1858.129
472.2451, 1851.579
472.7272, 1846.436
473.2093, 1843.613
473.6914, 1844.065
474.1735, 1846.019
474.6556, 1845.972
475.1378, 1843.473
475.6199, 1840.904
476.1020, 1838.649
476.5841, 1836.434
477.0662, 1833.394
477.5483, 1829.858
478.0305, 1827.691
478.5126, 1828.485
478.9947, 1831.868
479.4768, 1834.606
479.9589, 1838.253
480.4410, 1839.281
480.9232, 1835.062
481.4053, 1829.110
481.8874, 1824.860
482.3695, 1823.192
482.8516, 1823.023
483.3337, 1823.223
483.8159, 1823.858
484.2980, 1824.324
484.7801, 1824.868
485.2622, 1824.923
485.7443, 1824.378
486.2264, 1823.217
486.7086, 1821.164
487.1907, 1817.833
487.6728, 1814.571
488.1549, 1813.740
488.6370, 1815.541
489.1191, 1816.473
489.6013, 1815.206
490.0834, 1813.454
490.5655, 1813.152
491.0476, 1813.992
491.5297, 1813.816
492.0118, 1810.864
492.4940, 1806.939
492.9761, 1804.058
493.4582, 1802.282
493.9403, 1801.851
494.4224, 1803.391
494.9045, 1805.911
495.3867, 1806.746
495.8688, 1805.238
496.3509, 1804.039
496.8330, 1804.186
497.3151, 1804.685
497.7972, 1804.522
498.2794, 1803.566
498.7615, 1802.039
499.2436, 1799.902
499.7257, 1797.286
500.2078, 1796.615
500.6899, 1800.801
501.1721, 1803.392
501.6542, 1802.311
502.1363, 1799.639
502.6184, 1797.368
503.1005, 1796.135
503.5826, 1795.796
504.0648, 1796.383
504.5469, 1798.030
505.0290, 1799.410
505.5111, 1801.203
505.9932, 1801.821
506.4753, 1799.839
506.9575, 1796.589
507.4396, 1794.129
507.9217, 1793.221
508.4038, 1793.289
508.8859, 1794.066
509.3680, 1795.469
509.8502, 1796.038
510.3323, 1795.306
510.8144, 1793.872
511.2965, 1792.124
511.7786, 1790.129
512.2607, 1788.211
512.7429, 1786.571
513.2250, 1784.942
513.7071, 1782.944
514.1892, 1780.705
514.6713, 1778.590
515.1534, 1776.613
515.6356, 1775.288
516.1177, 1775.798
516.5998, 1779.648
517.0819, 1781.986
517.5640, 1782.224
518.0461, 1781.314
518.5283, 1779.097
519.0104, 1776.226
519.4925, 1774.418
519.9746, 1774.920
520.4567, 1776.981
520.9388, 1777.757
521.4210, 1776.521
521.9031, 1775.298
522.3852, 1774.272
522.8673, 1773.355
523.3494, 1772.312
523.8315, 1771.238
524.3137, 1770.662
524.7958, 1771.292
525.2779, 1772.696
525.7600, 1773.262
526.2421, 1772.736
526.7242, 1772.311
527.2064, 1772.782
527.6885, 1773.496
528.1706, 1773.592
528.6527, 1772.921
529.1348, 1772.160
529.6169, 1771.346
530.0991, 1770.777
530.5812, 1771.296
531.0633, 1772.977
531.5454, 1774.228
532.0275, 1773.742
532.5096, 1771.818
532.9918, 1770.546
533.4739, 1770.516
533.9560, 1770.278
534.4381, 1768.813
534.9202, 1767.379
535.4023, 1767.964
535.8845, 1770.577
536.3666, 1772.767
536.8487, 1771.840
537.3308, 1767.806
537.8129, 1764.918
538.2951, 1762.999
538.7772, 1762.609
539.2593, 1765.355
539.7415, 1768.829
540.2236, 1770.197
540.7057, 1768.779
541.1878, 1766.846
541.6699, 1766.709
542.1520, 1768.131
542.6342, 1769.618
543.1163, 1771.363
543.5984, 1772.431
544.0805, 1771.291
544.5626, 1769.230
545.0447, 1768.851
545.5269, 1771.552
546.0090, 1773.950
546.4911, 1773.345
546.9732, 1771.236
547.4553, 1770.739
547.9374, 1772.531
548.4196, 1774.717
548.9017, 1775.429
549.3838, 1774.633
549.8659, 1774.344
550.3480, 1774.707
550.8301, 1775.309
551.3123, 1776.387
551.7944, 1777.487
552.2765, 1777.847
552.7586, 1777.366
553.2407, 1776.956
553.7228, 1777.808
554.2050, 1780.004
554.6871, 1782.008
555.1692, 1784.349
555.6513, 1785.669
556.1334, 1784.551
556.6155, 1782.624
557.0977, 1782.159
557.5798, 1783.901
558.0619, 1785.977
558.5440, 1786.494
559.0261, 1785.913
559.5082, 1786.187
559.9904, 1787.839
560.4725, 1789.145
560.9546, 1788.514
561.4367, 1786.347
561.9188, 1784.906
562.4009, 1784.356
562.8831, 1784.361
563.3652, 1785.556
563.8473, 1786.930
564.3294, 1786.767
564.8115, 1784.849
565.2936, 1782.822
565.7758, 1782.472
566.2579, 1783.812
566.7400, 1783.801
567.2221, 1780.319
567.7042, 1778.043
568.1863, 1778.604
568.6685, 1780.265
569.1506, 1781.349
569.6327, 1781.462
570.1148, 1781.170
570.5969, 1780.969
571.0790, 1780.828
571.5612, 1780.651
572.0433, 1780.602
572.5254, 1779.986
573.0075, 1777.792
573.4896, 1775.098
573.9717, 1773.680
574.4539, 1774.154
574.9360, 1774.200
575.4181, 1771.979
575.9002, 1769.028
576.3823, 1767.585
576.8644, 1767.834
577.3466, 1768.701
577.8287, 1769.653
578.3108, 1770.435
578.7929, 1769.772
579.2750, 1765.860
579.7571, 1762.841
580.2393, 1761.245
580.7214, 1760.375
581.2035, 1759.901
581.6856, 1759.644
582.1677, 1759.354
582.6498, 1758.928
583.1320, 1758.236
583.6141, 1756.561
584.0962, 1753.267
584.5783, 1751.162
585.0604, 1752.060
585.5425, 1753.651
586.0247, 1753.874
586.5068, 1752.786
586.9889, 1751.910
587.4710, 1752.322
587.9531, 1753.034
588.4352, 1752.814
588.9174, 1751.787
589.3995, 1750.896
589.8816, 1750.679
