##NAMES=Andersonite
##RRUFFID=R080133
##IDEAL CHEMISTRY=Na_2_Ca(U^6+^O_2_)(CO_3_)_3_&#183;5-6H_2_O
##LOCALITY=Monte Cristo mine, Cane Springs Canyon, near Moab, Grand County, Utah, USA
##OWNER=RRUFF
##SOURCE=James Shigley
##DESCRIPTION=Bright yellowish green platy to granular crystals
##STATUS=The identification of this mineral has been confirmed only by single crystal X-ray diffraction.
##URL=rruff.info/R080133
91.00781, 232.9831
91.48993, 226.9086
91.97205, 224.4868
92.45416, 226.1707
92.93628, 231.4571
93.41840, 239.3226
93.90051, 249.6217
94.38263, 262.3133
94.86475, 277.7365
95.34686, 295.8827
95.82898, 315.9873
96.31110, 336.6924
96.79321, 358.2842
97.27533, 383.1884
97.75745, 411.2880
98.23956, 442.8489
98.72168, 478.1341
99.20380, 516.6697
99.68591, 559.2770
100.1680, 606.7703
100.6501, 658.6741
101.1323, 715.7411
101.6144, 777.4600
102.0965, 843.6429
102.5786, 916.4137
103.0607, 996.4215
103.5428, 1082.960
104.0250, 1176.715
104.5071, 1276.490
104.9892, 1384.171
105.4713, 1499.919
105.9534, 1624.945
106.4355, 1754.854
106.9177, 1891.031
107.3998, 2032.058
107.8819, 2178.627
108.3640, 2335.038
108.8461, 2491.846
109.3282, 2646.806
109.8104, 2795.464
110.2925, 2943.875
110.7746, 3092.022
111.2567, 3239.055
111.7388, 3384.526
112.2209, 3525.247
112.7031, 3664.371
113.1852, 3805.712
113.6673, 3941.803
114.1494, 4086.522
114.6315, 4243.447
115.1136, 4414.109
115.5958, 4595.789
116.0779, 4789.585
116.5600, 4993.538
117.0421, 5204.536
117.5242, 5426.483
118.0063, 5653.887
118.4885, 5888.009
118.9706, 6130.104
119.4527, 6371.946
119.9348, 6614.408
120.4169, 6852.376
120.8990, 7080.335
121.3812, 7290.732
121.8633, 7490.487
122.3454, 7684.745
122.8275, 7877.877
123.3096, 8060.344
123.7917, 8221.775
124.2739, 8364.710
124.7560, 8498.481
125.2381, 8631.012
125.7202, 8758.559
126.2023, 8871.473
126.6844, 8963.709
127.1666, 9047.155
127.6487, 9136.140
128.1308, 9231.034
128.6129, 9330.301
129.0950, 9432.205
129.5771, 9537.976
130.0593, 9652.400
130.5414, 9775.021
131.0235, 9906.864
131.5056, 10043.86
131.9877, 10149.43
132.4698, 10209.96
132.9520, 10263.71
133.4341, 10311.23
133.9162, 10356.82
134.3983, 10402.00
134.8804, 10446.65
135.3625, 10489.57
135.8447, 10531.45
136.3268, 10571.39
136.8089, 10609.15
137.2910, 10645.25
137.7731, 10677.92
138.2552, 10707.57
138.7374, 10734.53
139.2195, 10753.34
139.7016, 10760.90
140.1837, 10763.14
140.6658, 10774.19
141.1479, 10799.70
141.6301, 10820.17
142.1122, 10825.32
142.5943, 10808.54
143.0764, 10794.16
143.5585, 10785.26
144.0406, 10778.63
144.5228, 10761.82
145.0049, 10728.11
145.4870, 10692.81
145.9691, 10664.91
146.4512, 10649.65
146.9333, 10632.77
147.4155, 10611.38
147.8976, 10586.44
148.3797, 10567.97
148.8618, 10557.70
149.3439, 10552.51
149.8260, 10550.30
150.3082, 10552.80
150.7903, 10556.16
151.2724, 10560.10
151.7545, 10564.48
152.2366, 10568.92
152.7188, 10571.12
153.2009, 10574.08
153.6830, 10580.14
154.1651, 10594.95
154.6472, 10607.18
155.1293, 10613.90
155.6115, 10614.73
156.0936, 10612.81
156.5757, 10604.71
157.0578, 10595.57
157.5399, 10591.16
158.0220, 10600.70
158.5042, 10608.81
158.9863, 10608.21
159.4684, 10596.11
159.9505, 10587.75
160.4326, 10591.74
160.9147, 10602.01
161.3969, 10609.43
161.8790, 10608.94
162.3611, 10606.32
162.8432, 10604.76
163.3253, 10605.18
163.8074, 10604.88
164.2896, 10603.27
164.7717, 10599.84
165.2538, 10593.72
165.7359, 10585.11
166.2180, 10572.96
166.7001, 10555.65
167.1823, 10531.06
167.6644, 10505.39
168.1465, 10483.60
168.6286, 10464.01
169.1107, 10442.00
169.5928, 10409.50
170.0750, 10375.69
170.5571, 10350.39
171.0392, 10339.83
171.5213, 10332.36
172.0034, 10319.16
172.4855, 10300.97
172.9677, 10281.19
173.4498, 10260.02
173.9319, 10239.02
174.4140, 10220.49
174.8961, 10205.58
175.3782, 10192.76
175.8604, 10179.11
176.3425, 10164.94
176.8246, 10153.58
177.3067, 10150.70
177.7888, 10152.12
178.2709, 10149.07
178.7531, 10136.30
179.2352, 10119.79
179.7173, 10108.33
180.1994, 10101.72
180.6815, 10096.83
181.1636, 10092.59
181.6458, 10088.17
182.1279, 10081.14
182.6100, 10068.83
183.0921, 10054.18
183.5742, 10042.93
184.0563, 10035.34
184.5385, 10029.30
185.0206, 10024.41
185.5027, 10019.90
185.9848, 10012.39
186.4669, 9997.655
186.9490, 9979.228
187.4312, 9968.731
187.9133, 9967.284
188.3954, 9967.157
188.8775, 9957.868
189.3596, 9940.561
189.8417, 9925.868
190.3239, 9919.537
190.8060, 9919.715
191.2881, 9916.894
191.7702, 9910.630
192.2523, 9903.628
192.7344, 9900.776
193.2166, 9902.157
193.6987, 9900.268
194.1808, 9890.439
194.6629, 9873.600
195.1450, 9859.140
195.6271, 9846.738
196.1093, 9837.522
196.5914, 9834.221
197.0735, 9837.212
197.5556, 9840.723
198.0377, 9841.582
198.5198, 9839.700
199.0020, 9841.172
199.4841, 9846.990
199.9662, 9854.166
200.4483, 9858.438
200.9304, 9859.771
201.4125, 9858.075
201.8947, 9851.104
202.3768, 9837.913
202.8589, 9832.000
203.3410, 9835.228
203.8231, 9843.471
204.3052, 9848.859
204.7874, 9850.697
205.2695, 9853.046
205.7516, 9858.582
206.2337, 9868.271
206.7158, 9874.616
207.1979, 9876.760
207.6801, 9876.373
208.1622, 9876.451
208.6443, 9876.657
209.1264, 9878.403
209.6085, 9882.941
210.0906, 9891.237
210.5728, 9897.733
211.0549, 9901.514
211.5370, 9904.056
212.0191, 9908.405
212.5012, 9914.639
212.9833, 9922.783
213.4655, 9933.205
213.9476, 9946.769
214.4297, 9960.052
214.9118, 9973.549
215.3939, 9986.521
215.8760, 9997.199
216.3581, 10004.62
216.8403, 10011.46
217.3224, 10019.05
217.8045, 10028.14
218.2866, 10035.45
218.7687, 10040.57
219.2508, 10043.69
219.7330, 10044.80
220.2151, 10041.62
220.6972, 10039.99
221.1793, 10044.09
221.6614, 10059.22
222.1435, 10064.77
222.6257, 10057.76
223.1078, 10041.69
223.5899, 10026.40
224.0720, 10014.31
224.5541, 9999.177
225.0362, 9977.621
225.5184, 9948.152
226.0005, 9916.490
226.4826, 9880.710
226.9647, 9843.564
227.4468, 9811.682
227.9289, 9787.446
228.4111, 9765.649
228.8932, 9744.453
229.3753, 9725.362
229.8574, 9703.871
230.3395, 9679.764
230.8216, 9653.562
231.3038, 9625.784
231.7859, 9595.116
232.2680, 9564.957
232.7501, 9535.971
233.2322, 9504.759
233.7143, 9482.361
234.1965, 9470.444
234.6786, 9466.790
235.1607, 9465.960
235.6428, 9471.599
236.1249, 9474.452
236.6070, 9469.713
237.0892, 9452.600
237.5713, 9437.985
238.0534, 9425.748
238.5355, 9415.915
239.0176, 9409.112
239.4997, 9407.889
239.9819, 9405.827
240.4640, 9399.509
240.9461, 9384.819
241.4282, 9376.155
241.9103, 9377.794
242.3924, 9384.189
242.8746, 9381.494
243.3567, 9364.897
243.8388, 9346.717
244.3209, 9331.638
244.8030, 9320.532
245.2851, 9311.247
245.7673, 9305.503
246.2494, 9301.031
246.7315, 9292.377
247.2136, 9276.368
247.6957, 9261.306
248.1778, 9250.199
248.6600, 9243.533
249.1421, 9240.216
249.6242, 9242.999
250.1063, 9247.611
250.5884, 9245.036
251.0705, 9230.499
251.5527, 9216.700
252.0348, 9208.564
252.5169, 9207.598
252.9990, 9206.354
253.4811, 9204.598
253.9632, 9202.581
254.4454, 9200.976
254.9275, 9200.506
255.4096, 9198.939
255.8917, 9195.403
256.3738, 9189.590
256.8560, 9183.043
257.3381, 9174.637
257.8202, 9166.426
258.3023, 9161.817
258.7844, 9162.672
259.2665, 9163.308
259.7487, 9162.088
260.2308, 9158.889
260.7129, 9154.567
261.1950, 9148.378
261.6771, 9141.854
262.1592, 9136.825
262.6414, 9132.928
263.1235, 9131.595
263.6056, 9133.932
264.0877, 9140.300
264.5698, 9145.485
265.0519, 9149.668
265.5341, 9152.437
266.0162, 9153.207
266.4983, 9151.646
266.9804, 9148.981
267.4625, 9144.434
267.9446, 9138.146
268.4268, 9137.694
268.9089, 9146.363
269.3910, 9155.112
269.8731, 9152.427
270.3552, 9134.011
270.8373, 9121.922
271.3195, 9123.476
271.8016, 9136.760
272.2837, 9140.672
272.7658, 9131.770
273.2479, 9121.198
273.7300, 9119.888
274.2122, 9129.406
274.6943, 9138.642
275.1764, 9145.745
275.6585, 9150.896
276.1406, 9154.170
276.6227, 9154.858
277.1049, 9156.288
277.5870, 9162.173
278.0691, 9173.135
278.5512, 9181.847
279.0333, 9186.951
279.5154, 9189.145
279.9976, 9189.807
280.4797, 9188.332
280.9618, 9188.368
281.4439, 9194.815
281.9260, 9207.718
282.4081, 9213.757
282.8903, 9209.984
283.3724, 9199.672
283.8545, 9189.986
284.3366, 9180.916
284.8187, 9172.426
285.3008, 9164.970
285.7830, 9158.366
286.2651, 9151.159
286.7472, 9143.088
287.2293, 9134.501
287.7114, 9126.798
288.1935, 9119.924
288.6757, 9110.730
289.1578, 9094.210
289.6399, 9072.669
290.1220, 9060.635
290.6041, 9060.863
291.0862, 9063.833
291.5684, 9053.873
292.0505, 9032.374
292.5326, 9013.167
293.0147, 9005.448
293.4968, 9005.263
293.9789, 9000.460
294.4611, 8990.553
294.9432, 8977.739
295.4253, 8962.824
295.9074, 8946.610
296.3895, 8932.729
296.8716, 8922.782
297.3538, 8916.135
297.8359, 8913.143
298.3180, 8914.062
298.8001, 8912.888
299.2822, 8902.145
299.7643, 8884.630
300.2465, 8867.839
300.7286, 8855.294
301.2107, 8844.381
301.6928, 8830.288
302.1749, 8813.454
302.6570, 8798.522
303.1392, 8792.450
303.6213, 8790.447
304.1034, 8783.979
304.5855, 8767.232
305.0676, 8749.017
305.5497, 8739.040
306.0319, 8735.956
306.5140, 8732.221
306.9961, 8720.381
307.4782, 8706.061
307.9603, 8696.079
308.4424, 8693.376
308.9246, 8692.688
309.4067, 8691.778
309.8888, 8689.830
310.3709, 8684.576
310.8530, 8670.657
311.3351, 8655.130
311.8173, 8644.182
312.2994, 8639.407
312.7815, 8636.929
313.2636, 8637.108
313.7457, 8637.882
314.2278, 8635.474
314.7100, 8625.591
315.1921, 8614.158
315.6742, 8604.526
316.1563, 8597.206
316.6384, 8591.303
317.1205, 8586.729
317.6027, 8583.460
318.0848, 8581.487
318.5669, 8583.597
319.0490, 8584.475
319.5311, 8581.329
320.0132, 8573.844
320.4954, 8566.452
320.9775, 8560.169
321.4596, 8554.565
321.9417, 8549.378
322.4238, 8540.151
322.9059, 8535.803
323.3881, 8542.706
323.8702, 8559.341
324.3523, 8568.191
324.8344, 8558.725
325.3165, 8546.123
325.7986, 8539.311
326.2808, 8545.032
326.7629, 8549.597
327.2450, 8552.282
327.7271, 8553.261
328.2092, 8553.141
328.6913, 8549.752
329.1735, 8547.206
329.6556, 8547.196
330.1377, 8551.393
330.6198, 8554.888
331.1019, 8558.187
331.5840, 8560.489
332.0662, 8559.930
332.5483, 8552.597
333.0304, 8547.836
333.5125, 8549.874
333.9946, 8560.996
334.4767, 8565.986
334.9589, 8561.708
335.4410, 8554.245
335.9231, 8551.822
336.4052, 8557.098
336.8873, 8560.465
337.3694, 8558.783
337.8516, 8552.545
338.3336, 8549.335
338.8158, 8549.664
339.2979, 8552.308
339.7800, 8557.351
340.2621, 8565.651
340.7442, 8570.915
341.2263, 8571.601
341.7085, 8568.808
342.1906, 8564.849
342.6727, 8559.116
343.1548, 8555.901
343.6369, 8560.457
344.1190, 8571.970
344.6012, 8577.662
345.0833, 8574.727
345.5654, 8567.889
346.0475, 8563.895
346.5296, 8562.770
347.0117, 8566.134
347.4939, 8579.195
347.9760, 8597.630
348.4581, 8606.910
348.9402, 8605.322
349.4223, 8600.133
349.9044, 8599.246
350.3866, 8601.598
350.8687, 8603.459
351.3508, 8602.402
351.8329, 8600.407
352.3150, 8602.179
352.7971, 8607.527
353.2793, 8609.853
353.7614, 8599.556
354.2435, 8583.679
354.7256, 8573.985
355.2077, 8577.477
355.6898, 8583.760
356.1720, 8583.521
356.6541, 8578.010
357.1362, 8572.704
357.6183, 8570.324
358.1004, 8569.726
358.5826, 8570.460
359.0647, 8573.707
359.5468, 8574.972
360.0289, 8568.477
360.5110, 8558.479
360.9931, 8553.079
361.4753, 8562.783
361.9574, 8572.085
362.4395, 8571.060
362.9216, 8556.573
363.4037, 8546.497
363.8858, 8551.762
364.3680, 8562.012
364.8501, 8566.368
365.3322, 8555.477
365.8143, 8545.890
366.2964, 8542.718
366.7785, 8545.935
367.2607, 8547.491
367.7428, 8544.955
368.2249, 8541.830
368.7070, 8540.225
369.1891, 8540.513
369.6712, 8541.913
370.1534, 8545.119
370.6355, 8549.339
371.1176, 8552.100
371.5997, 8551.851
372.0818, 8551.713
372.5639, 8552.617
373.0461, 8554.165
373.5282, 8557.729
374.0103, 8564.612
374.4924, 8572.077
374.9745, 8575.676
375.4566, 8574.298
375.9388, 8572.638
376.4209, 8572.218
376.9030, 8572.999
377.3851, 8573.162
377.8672, 8572.807
378.3493, 8572.271
378.8315, 8571.976
379.3136, 8572.078
379.7957, 8572.085
380.2778, 8571.647
380.7599, 8571.554
381.2420, 8573.777
381.7242, 8578.271
382.2063, 8583.696
382.6884, 8588.859
383.1705, 8594.012
383.6526, 8600.460
384.1347, 8608.488
384.6169, 8616.265
385.0990, 8621.045
385.5811, 8623.355
386.0632, 8624.958
386.5453, 8625.909
387.0274, 8626.932
387.5096, 8629.119
387.9917, 8632.502
388.4738, 8636.388
388.9559, 8639.928
389.4380, 8643.821
389.9201, 8649.271
390.4023, 8659.720
390.8844, 8668.488
391.3665, 8669.395
391.8486, 8664.451
392.3307, 8660.856
392.8128, 8663.700
393.2950, 8667.904
393.7771, 8669.794
394.2592, 8667.722
394.7413, 8665.790
395.2234, 8664.791
395.7055, 8664.688
396.1877, 8665.478
396.6698, 8670.373
397.1519, 8673.017
397.6340, 8669.963
398.1161, 8660.126
398.5982, 8654.220
399.0804, 8657.717
399.5625, 8662.732
400.0446, 8663.554
400.5267, 8656.529
401.0088, 8651.070
401.4909, 8648.138
401.9731, 8647.588
402.4552, 8648.774
402.9373, 8652.419
403.4194, 8656.774
403.9015, 8661.057
404.3836, 8665.204
404.8658, 8669.216
405.3479, 8672.686
405.8300, 8676.278
406.3121, 8680.854
406.7942, 8686.226
407.2763, 8692.969
407.7585, 8701.692
408.2406, 8711.843
408.7227, 8720.808
409.2048, 8728.497
409.6869, 8734.619
410.1690, 8738.237
410.6512, 8739.771
411.1333, 8741.682
411.6154, 8744.782
412.0975, 8747.892
412.5796, 8747.766
413.0617, 8745.463
413.5439, 8746.014
414.0260, 8756.311
414.5081, 8769.788
414.9902, 8775.828
415.4723, 8773.104
415.9544, 8770.226
416.4366, 8776.235
416.9187, 8786.217
417.4008, 8792.747
417.8829, 8791.100
418.3650, 8786.903
418.8471, 8781.719
419.3293, 8776.125
419.8114, 8773.255
420.2935, 8774.012
420.7756, 8778.267
421.2577, 8786.769
421.7398, 8804.405
422.2220, 8817.282
422.7041, 8820.032
423.1862, 8816.587
423.6683, 8814.065
424.1504, 8811.888
424.6325, 8812.167
425.1147, 8816.224
425.5968, 8824.691
426.0789, 8831.779
426.5610, 8837.489
427.0431, 8841.843
427.5252, 8844.165
428.0074, 8841.781
428.4895, 8843.656
428.9716, 8851.688
429.4537, 8864.147
429.9358, 8876.715
430.4179, 8890.489
430.9001, 8900.186
431.3822, 8901.147
431.8643, 8893.189
432.3464, 8888.699
432.8285, 8887.936
433.3106, 8889.950
433.7928, 8894.677
434.2749, 8901.724
434.7570, 8907.689
435.2391, 8911.129
435.7212, 8913.214
436.2033, 8915.737
436.6855, 8918.798
437.1676, 8923.107
437.6497, 8932.299
438.1318, 8942.233
438.6139, 8944.549
439.0960, 8935.207
439.5782, 8928.292
440.0603, 8938.060
440.5424, 8958.311
441.0245, 8977.261
441.5066, 8990.822
441.9887, 9000.971
442.4709, 9007.734
442.9530, 9011.266
443.4351, 9015.040
443.9172, 9020.500
444.3993, 9026.450
444.8814, 9031.967
445.3636, 9037.470
445.8457, 9041.636
446.3278, 9041.347
446.8099, 9039.536
447.2920, 9043.603
447.7741, 9058.932
448.2563, 9074.522
448.7384, 9087.747
449.2205, 9099.063
449.7026, 9105.803
450.1847, 9105.587
450.6668, 9103.943
451.1490, 9106.217
451.6311, 9113.605
452.1132, 9120.576
452.5953, 9126.053
453.0774, 9130.941
453.5595, 9137.229
454.0417, 9144.709
454.5238, 9155.520
455.0059, 9172.708
455.4880, 9194.666
455.9701, 9214.132
456.4522, 9230.611
456.9344, 9245.387
457.4165, 9259.099
457.8986, 9272.196
458.3807, 9285.479
458.8628, 9299.042
459.3449, 9313.257
459.8271, 9330.882
460.3092, 9350.472
460.7913, 9366.159
461.2734, 9371.500
461.7555, 9373.287
462.2376, 9377.530
462.7198, 9385.627
463.2019, 9393.272
463.6840, 9397.423
464.1661, 9400.194
464.6482, 9404.145
465.1303, 9417.594
465.6125, 9424.079
466.0946, 9414.422
466.5767, 9390.782
467.0588, 9374.599
467.5409, 9372.517
468.0230, 9373.751
468.5052, 9373.643
468.9873, 9370.729
469.4694, 9370.388
469.9515, 9373.228
470.4336, 9378.264
470.9157, 9385.578
471.3979, 9397.709
471.8800, 9403.119
472.3621, 9396.341
472.8442, 9380.855
473.3263, 9372.787
473.8084, 9372.569
474.2906, 9376.269
474.7727, 9381.174
475.2548, 9387.474
475.7369, 9397.324
476.2190, 9411.848
476.7011, 9426.020
477.1833, 9432.090
477.6654, 9432.829
478.1475, 9435.936
478.6296, 9448.124
479.1117, 9461.814
479.5938, 9468.559
480.0760, 9469.286
480.5581, 9469.955
481.0402, 9475.063
481.5223, 9480.979
482.0044, 9484.079
482.4865, 9481.572
482.9687, 9482.193
483.4508, 9491.926
483.9329, 9505.831
484.4150, 9516.728
484.8971, 9522.460
485.3792, 9526.042
485.8614, 9527.188
486.3435, 9526.137
486.8256, 9525.958
487.3077, 9524.598
487.7898, 9526.515
488.2719, 9535.040
488.7541, 9552.928
489.2362, 9568.224
489.7183, 9580.981
490.2004, 9590.975
490.6825, 9597.122
491.1646, 9598.953
491.6468, 9601.612
492.1289, 9606.759
492.6110, 9613.698
493.0931, 9620.701
493.5752, 9627.797
494.0573, 9635.467
494.5395, 9645.172
495.0216, 9655.529
495.5037, 9663.266
495.9858, 9667.309
496.4679, 9671.889
496.9500, 9683.673
497.4322, 9698.150
497.9143, 9707.600
498.3964, 9701.255
498.8785, 9696.105
499.3606, 9704.563
499.8427, 9723.718
500.3249, 9739.201
500.8070, 9742.976
501.2891, 9744.413
501.7712, 9748.281
502.2533, 9755.878
502.7354, 9763.514
503.2176, 9768.970
503.6997, 9775.259
504.1818, 9785.796
504.6639, 9803.798
505.1460, 9819.807
505.6281, 9832.321
506.1103, 9841.717
506.5924, 9848.659
507.0745, 9852.178
507.5566, 9856.206
508.0387, 9863.718
508.5208, 9874.358
509.0030, 9881.535
509.4851, 9885.010
509.9672, 9886.427
510.4493, 9887.240
510.9314, 9887.533
511.4135, 9887.028
511.8957, 9884.699
512.3778, 9883.687
512.8599, 9888.766
513.3420, 9898.531
513.8242, 9908.554
514.3063, 9915.608
514.7884, 9923.026
515.2705, 9935.104
515.7526, 9952.137
516.2347, 9964.984
516.7169, 9965.110
517.1990, 9962.328
517.6811, 9964.141
518.1632, 9976.730
518.6453, 9986.877
519.1274, 9990.012
519.6096, 9990.292
520.0917, 9995.536
520.5738, 10008.50
521.0559, 10021.56
521.5380, 10032.45
522.0201, 10041.40
522.5023, 10052.72
522.9844, 10067.19
523.4665, 10082.14
523.9486, 10096.08
524.4307, 10109.08
524.9128, 10120.10
525.3950, 10128.36
525.8771, 10136.70
526.3592, 10150.08
526.8413, 10166.86
527.3234, 10181.66
527.8055, 10192.64
528.2877, 10200.20
528.7698, 10203.31
529.2519, 10202.89
529.7340, 10203.13
530.2161, 10205.71
530.6982, 10210.33
531.1804, 10217.12
531.6625, 10226.24
532.1446, 10236.44
532.6267, 10249.76
533.1088, 10262.91
533.5909, 10272.65
534.0731, 10273.10
534.5552, 10277.38
535.0373, 10288.52
535.5194, 10303.86
536.0015, 10317.16
536.4836, 10327.70
536.9658, 10337.34
537.4479, 10346.21
537.9300, 10354.27
538.4121, 10363.05
538.8942, 10372.23
539.3763, 10382.71
539.8585, 10398.03
540.3406, 10416.26
540.8227, 10423.95
541.3048, 10416.33
541.7869, 10409.19
542.2690, 10427.82
542.7512, 10462.66
543.2333, 10489.77
543.7154, 10491.75
544.1975, 10488.21
544.6796, 10495.65
545.1617, 10511.83
545.6439, 10526.55
546.1260, 10535.06
546.6081, 10540.86
547.0902, 10545.47
547.5723, 10548.48
548.0544, 10552.82
548.5366, 10560.02
549.0187, 10568.21
549.5008, 10575.59
549.9829, 10580.13
550.4650, 10588.11
550.9471, 10602.76
551.4293, 10619.77
551.9114, 10627.47
552.3935, 10623.17
552.8756, 10623.02
553.3577, 10635.92
553.8398, 10657.97
554.3220, 10670.07
554.8041, 10671.98
555.2862, 10672.03
555.7683, 10676.02
556.2504, 10683.00
556.7325, 10691.39
557.2147, 10701.12
557.6968, 10711.37
558.1789, 10721.75
558.6610, 10732.09
559.1431, 10742.10
559.6252, 10750.80
560.1074, 10759.85
560.5895, 10770.42
561.0716, 10781.92
561.5537, 10792.28
562.0358, 10800.23
562.5179, 10807.86
563.0001, 10816.31
563.4822, 10825.82
563.9643, 10832.64
564.4464, 10834.59
564.9285, 10837.01
565.4106, 10844.59
565.8928, 10858.43
566.3749, 10870.67
566.8570, 10880.71
567.3391, 10889.46
567.8212, 10899.54
568.3033, 10910.38
568.7855, 10916.63
569.2676, 10913.28
569.7497, 10907.65
570.2318, 10910.96
570.7139, 10921.82
571.1960, 10934.53
571.6782, 10949.59
572.1603, 10962.36
572.6424, 10967.29
573.1245, 10963.45
573.6066, 10960.89
574.0887, 10962.76
574.5709, 10967.93
575.0530, 10975.69
575.5351, 10992.14
576.0172, 11002.25
576.4993, 11002.13
576.9814, 10997.29
577.4636, 10996.86
577.9457, 11002.88
578.4278, 11007.55
578.9099, 11007.12
579.3920, 11004.48
579.8741, 11012.52
580.3563, 11031.92
580.8384, 11051.67
581.3205, 11065.70
581.8026, 11074.99
582.2847, 11081.44
582.7668, 11085.08
583.2490, 11087.08
583.7311, 11085.61
584.2132, 11084.08
584.6953, 11087.85
585.1774, 11101.37
585.6595, 11112.71
586.1416, 11111.96
586.6237, 11106.08
587.1058, 11105.57
