##NAMES=Andradite
##RRUFFID=R060358
##IDEAL CHEMISTRY=Ca_3_Fe^3+^_2_(SiO_4_)_3_
##LOCALITY=Soghan, near Jiroft, Kerman, Iran
##OWNER=RRUFF
##SOURCE=Herb Obodda
##DESCRIPTION=Green dodecahedron
##STATUS=The identification of this mineral has been confirmed by X-ray diffraction and chemical analysis
##URL=rruff.info/R060358
##MEASURED CHEMISTRY=Ca_3.00_(Fe^3+^_1.89_Cr_0.11_)_Î£=2_(Si_1.00_O_4_)_3_
91.62726, 0.0000000E+00
92.10938, 3.511909
92.59149, 3.498072
93.07361, 3.502254
93.55573, 3.523210
94.03784, 3.545659
94.51996, 3.545053
95.00208, 3.532215
95.48419, 3.549222
95.96631, 3.650244
96.44843, 3.782817
96.93054, 3.764411
97.41266, 3.571833
97.89478, 3.353584
98.37689, 3.311911
98.85901, 3.449852
99.34113, 3.572895
99.82324, 3.586530
100.3054, 3.490714
100.7875, 3.460036
101.2696, 3.522993
101.7517, 3.614221
102.2338, 3.601469
102.7159, 3.452016
103.1981, 3.291887
103.6802, 3.155522
104.1623, 3.000241
104.6444, 3.022022
105.1265, 3.323467
105.6086, 3.800093
106.0908, 4.051204
106.5729, 3.929278
107.0550, 3.751759
107.5371, 3.701806
108.0192, 3.878577
108.5013, 4.034562
108.9835, 4.154812
109.4656, 4.238973
109.9477, 4.297525
110.4298, 4.320172
110.9119, 4.322859
111.3940, 4.316997
111.8762, 4.203945
112.3583, 4.182398
112.8404, 4.292882
113.3225, 4.543103
113.8046, 4.858321
114.2867, 5.361361
114.7689, 5.883847
115.2510, 6.239194
115.7331, 6.229722
116.2152, 6.181372
116.6973, 6.183496
117.1794, 6.224418
117.6616, 6.409589
118.1437, 6.953331
118.6258, 7.654727
119.1079, 8.162835
119.5900, 8.089561
120.0721, 7.935297
120.5543, 8.061133
121.0364, 8.622938
121.5185, 9.221861
122.0006, 9.595162
122.4827, 9.805991
122.9648, 10.04176
123.4470, 10.48590
123.9291, 10.98276
124.4112, 11.33744
124.8933, 11.43122
125.3754, 11.48214
125.8575, 11.72272
126.3397, 12.12988
126.8218, 12.56365
127.3039, 12.81495
127.7860, 13.01837
128.2681, 13.47049
128.7502, 14.41185
129.2324, 15.53514
129.7145, 16.28119
130.1966, 16.65355
130.6787, 16.91035
131.1608, 17.29485
131.6429, 17.77526
132.1251, 18.21012
132.6072, 18.51726
133.0893, 18.74237
133.5714, 19.07732
134.0535, 19.54398
134.5356, 20.02001
135.0178, 20.39061
135.4999, 20.65440
135.9820, 20.75698
136.4641, 20.54654
136.9462, 20.04077
137.4283, 19.94695
137.9105, 20.35563
138.3926, 21.01415
138.8747, 21.50882
139.3568, 21.81692
139.8389, 22.07367
140.3210, 22.31614
140.8032, 22.52967
141.2853, 22.81023
141.7674, 23.14918
142.2495, 23.56038
142.7316, 24.07907
143.2137, 24.71330
143.6959, 25.15731
144.1780, 25.37269
144.6601, 25.20088
145.1422, 25.21848
145.6243, 25.45980
146.1064, 25.89314
146.5886, 26.44644
147.0707, 27.29852
147.5528, 28.06848
148.0349, 28.52715
148.5170, 28.43452
148.9991, 28.41883
149.4813, 28.41030
149.9634, 28.44490
150.4455, 28.88953
150.9276, 29.81872
151.4097, 31.09678
151.8918, 32.60767
152.3740, 34.02518
152.8561, 36.04804
153.3382, 38.87886
153.8203, 42.48283
154.3024, 46.21448
154.7845, 50.46801
155.2667, 54.56384
155.7488, 58.05550
156.2309, 60.59594
156.7130, 62.74723
157.1951, 64.52025
157.6772, 65.89919
158.1594, 67.30238
158.6415, 68.68843
159.1236, 70.17731
159.6057, 71.89373
160.0878, 73.76291
160.5699, 75.91998
161.0521, 78.48580
161.5342, 81.48518
162.0163, 84.60252
162.4984, 87.61582
162.9805, 90.71037
163.4626, 94.12101
163.9448, 98.00969
164.4269, 102.1688
164.9090, 106.4171
165.3911, 110.6466
165.8732, 115.4676
166.3553, 120.9058
166.8375, 127.1553
167.3196, 134.5410
167.8017, 141.8333
168.2838, 151.1349
168.7659, 163.7590
169.2480, 179.6465
169.7302, 199.6110
170.2123, 223.5566
170.6944, 252.0332
171.1765, 285.7719
171.6586, 329.5113
172.1407, 376.8031
172.6229, 425.8624
173.1050, 481.9686
173.5871, 523.6348
174.0692, 532.0966
174.5513, 510.8060
175.0334, 469.1604
175.5156, 396.3456
175.9977, 310.6062
176.4798, 239.3964
176.9619, 186.8435
177.4440, 147.4070
177.9261, 118.2196
178.4083, 98.16501
178.8904, 83.19093
179.3725, 72.34740
179.8546, 64.58453
180.3367, 58.25239
180.8188, 53.21072
181.3010, 49.19113
181.7831, 46.07671
182.2652, 43.83081
182.7473, 41.94923
183.2294, 40.07855
183.7115, 38.29665
184.1937, 36.91322
184.6758, 36.06834
185.1579, 35.52866
185.6400, 34.85878
186.1221, 34.07058
186.6042, 33.31059
187.0864, 32.72430
187.5685, 32.27637
188.0506, 31.84504
188.5327, 31.41546
189.0148, 30.97377
189.4969, 30.41493
189.9791, 29.73302
190.4612, 29.12537
190.9433, 28.82119
191.4254, 28.78236
191.9075, 28.64341
192.3896, 28.26155
192.8718, 27.75929
193.3539, 27.51115
193.8360, 27.53860
194.3181, 27.63074
194.8002, 27.57377
195.2823, 27.37207
195.7645, 27.25716
196.2466, 27.33058
196.7287, 27.52048
197.2108, 27.48844
197.6929, 27.18499
198.1750, 26.88389
198.6572, 26.92324
199.1393, 27.32750
199.6214, 27.53043
200.1035, 27.29579
200.5856, 26.73642
201.0677, 26.56077
201.5499, 26.83566
202.0320, 27.26686
202.5141, 27.58207
202.9962, 27.77171
203.4783, 27.91745
203.9604, 27.99947
204.4426, 28.04104
204.9247, 28.27983
205.4068, 28.78450
205.8889, 29.31160
206.3710, 29.58642
206.8531, 29.55235
207.3353, 29.55499
207.8174, 29.65423
208.2995, 29.85200
208.7816, 30.17670
209.2637, 30.62235
209.7458, 31.19760
210.2280, 31.91806
210.7101, 32.79689
211.1922, 33.77108
211.6743, 34.83361
212.1564, 35.97491
212.6385, 37.19383
213.1207, 38.45402
213.6028, 39.82668
214.0849, 41.33756
214.5670, 42.88087
215.0491, 44.81272
215.5313, 47.08956
216.0134, 49.73065
216.4955, 53.47852
216.9776, 58.74142
217.4597, 64.59043
217.9418, 70.25954
218.4240, 75.81260
218.9061, 80.86857
219.3882, 85.30226
219.8703, 89.07437
220.3524, 92.60915
220.8345, 95.70712
221.3167, 98.76485
221.7988, 102.2116
222.2809, 106.0603
222.7630, 110.1650
223.2451, 114.2374
223.7272, 118.2958
224.2094, 123.8126
224.6915, 131.3927
225.1736, 139.8555
225.6557, 147.6391
226.1378, 153.8694
226.6199, 161.5843
227.1021, 171.5036
227.5842, 183.7227
228.0663, 196.4219
228.5484, 209.8143
229.0305, 223.6297
229.5126, 237.6331
229.9948, 251.6331
230.4769, 266.0505
230.9590, 280.4295
231.4411, 294.7211
231.9232, 312.3341
232.4053, 332.0843
232.8875, 356.6678
233.3696, 388.6826
233.8517, 429.5331
234.3338, 475.6480
234.8159, 530.6960
235.2980, 594.6655
235.7802, 644.6115
236.2623, 689.6895
236.7444, 710.9370
237.2265, 689.6057
237.7086, 605.9114
238.1907, 517.3730
238.6729, 427.0027
239.1550, 335.8444
239.6371, 262.7058
240.1192, 211.6245
240.6013, 173.9425
241.0834, 144.1102
241.5656, 124.6149
242.0477, 108.6746
242.5298, 95.95363
243.0119, 86.30527
243.4940, 78.31152
243.9761, 72.29442
244.4583, 67.54972
244.9404, 63.62876
245.4225, 60.65233
245.9046, 58.25387
246.3867, 56.42017
246.8688, 55.13077
247.3510, 54.31564
247.8331, 54.33325
248.3152, 54.36623
248.7973, 53.83384
249.2794, 52.31590
249.7615, 51.11612
250.2437, 50.36767
250.7258, 50.01825
251.2079, 49.85131
251.6900, 49.87836
252.1721, 50.07141
252.6542, 50.41274
253.1364, 50.88047
253.6185, 51.55443
254.1006, 52.50920
254.5827, 53.66313
255.0648, 54.67730
255.5469, 55.35749
256.0291, 56.19222
256.5112, 57.44200
256.9933, 59.21245
257.4754, 61.13482
257.9575, 63.09240
258.4396, 65.23339
258.9218, 67.80632
259.4039, 70.53374
259.8860, 74.23970
260.3681, 79.35521
260.8502, 86.07366
261.3323, 93.76565
261.8145, 102.4983
262.2966, 112.1178
262.7787, 122.5647
263.2608, 134.2747
263.7429, 145.9701
264.2250, 158.5719
264.7072, 174.2869
265.1893, 181.2621
265.6714, 178.2109
266.1535, 167.3785
266.6356, 151.4899
267.1177, 127.8617
267.5999, 105.8635
268.0820, 88.98119
268.5641, 77.46123
269.0462, 68.34508
269.5283, 61.84321
270.0104, 57.36388
270.4926, 54.08865
270.9747, 52.20298
271.4568, 50.77631
271.9389, 49.56698
272.4210, 48.56741
272.9031, 47.72937
273.3853, 47.08278
273.8674, 46.54405
274.3495, 45.99920
274.8316, 45.41031
275.3137, 44.99456
275.7958, 44.81810
276.2780, 44.87334
276.7601, 45.09230
277.2422, 45.54295
277.7243, 45.98122
278.2064, 46.07026
278.6885, 45.74792
279.1707, 45.61837
279.6528, 45.83951
280.1349, 46.36670
280.6170, 46.98997
281.0991, 47.71982
281.5812, 48.50841
282.0634, 49.27814
282.5455, 50.03577
283.0276, 50.93758
283.5097, 52.08199
283.9918, 53.35200
284.4739, 54.32889
284.9561, 54.97452
285.4382, 55.61057
285.9203, 56.45395
286.4024, 57.49432
286.8845, 58.70094
287.3666, 60.06826
287.8488, 61.57813
288.3309, 63.11626
288.8130, 64.67580
289.2951, 66.51715
289.7772, 68.81083
290.2593, 71.52181
290.7415, 74.57979
291.2236, 77.93948
291.7057, 81.65236
292.1878, 85.72210
292.6699, 90.16187
293.1520, 95.15715
293.6342, 100.8376
294.1163, 107.1605
294.5984, 114.1095
295.0805, 121.9964
295.5626, 129.4101
296.0447, 134.5632
296.5269, 137.7171
297.0090, 140.1453
297.4911, 142.3831
297.9732, 144.3151
298.4553, 145.4315
298.9374, 145.6562
299.4196, 145.8307
299.9017, 146.5860
300.3838, 147.9376
300.8659, 149.9395
301.3480, 152.5036
301.8301, 155.7714
302.3123, 159.8927
302.7944, 164.9024
303.2765, 170.8136
303.7586, 177.3719
304.2407, 184.8931
304.7228, 194.0516
305.2050, 204.5083
305.6871, 217.2049
306.1692, 232.7564
306.6513, 251.2825
307.1334, 272.3156
307.6155, 295.6185
308.0977, 321.4618
308.5798, 350.3499
309.0619, 383.3240
309.5440, 418.3227
310.0261, 455.6115
310.5082, 494.0281
310.9904, 529.8873
311.4725, 568.4637
311.9546, 600.0712
312.4367, 616.7864
312.9188, 617.5236
313.4009, 602.8514
313.8831, 566.3863
314.3652, 515.1660
314.8473, 462.0400
315.3294, 405.5518
315.8115, 353.2898
316.2936, 309.6539
316.7758, 275.2782
317.2579, 248.1586
317.7400, 228.6961
318.2221, 215.4715
318.7042, 206.2050
319.1863, 201.2235
319.6685, 199.1447
320.1506, 199.4672
320.6327, 202.1614
321.1148, 207.3885
321.5969, 216.1756
322.0790, 226.9720
322.5612, 238.6862
323.0433, 252.1666
323.5254, 265.3028
324.0075, 279.6720
324.4896, 294.4435
324.9717, 303.0255
325.4539, 304.4233
325.9360, 299.4170
326.4181, 288.3638
326.9002, 265.6234
327.3823, 244.0260
327.8644, 223.3404
328.3466, 204.2030
328.8287, 188.5806
329.3108, 177.0890
329.7929, 168.5335
330.2750, 162.7763
330.7571, 160.2815
331.2393, 159.3128
331.7214, 159.8321
332.2035, 161.9039
332.6856, 165.6266
333.1677, 171.3899
333.6498, 178.2704
334.1320, 186.2243
334.6141, 195.1939
335.0962, 204.5838
335.5783, 214.7265
336.0604, 224.9426
336.5425, 234.5726
337.0247, 243.3023
337.5068, 252.2677
337.9889, 261.6260
338.4710, 271.4075
338.9531, 282.1010
339.4352, 293.7082
339.9174, 306.4108
340.3995, 320.1107
340.8816, 334.8592
341.3637, 350.9852
341.8458, 368.6593
342.3279, 387.7436
342.8101, 408.6626
343.2922, 431.1039
343.7743, 456.2897
344.2564, 484.2896
344.7385, 515.3904
345.2206, 549.7565
345.7028, 587.1155
346.1849, 629.4047
346.6670, 679.9777
347.1491, 738.6907
347.6312, 803.0780
348.1133, 873.5770
348.5955, 949.3106
349.0776, 1028.943
349.5597, 1113.432
350.0418, 1199.368
350.5239, 1288.137
351.0060, 1376.532
351.4882, 1451.518
351.9703, 1515.073
352.4524, 1558.134
352.9345, 1563.055
353.4166, 1531.481
353.8987, 1477.760
354.3809, 1400.602
354.8630, 1311.451
355.3451, 1227.757
355.8272, 1150.802
356.3093, 1085.185
356.7914, 1035.464
357.2736, 1000.186
357.7557, 976.7533
358.2378, 965.6774
358.7199, 964.8030
359.2020, 972.9407
359.6841, 990.2461
360.1663, 1014.719
360.6484, 1045.376
361.1305, 1082.449
361.6126, 1126.271
362.0947, 1173.510
362.5768, 1230.523
363.0590, 1300.032
363.5411, 1382.158
364.0232, 1476.974
364.5053, 1584.881
364.9874, 1705.284
365.4695, 1837.725
365.9517, 1984.164
366.4338, 2140.502
366.9159, 2312.919
367.3980, 2497.132
367.8801, 2676.836
368.3622, 2865.225
368.8444, 3034.540
369.3265, 3175.266
369.8086, 3304.800
370.2907, 3372.632
370.7728, 3375.219
371.2549, 3317.651
371.7371, 3205.638
372.2192, 3017.357
372.7013, 2803.011
373.1834, 2570.372
373.6655, 2314.862
374.1476, 2073.237
374.6298, 1846.902
375.1119, 1639.452
375.5940, 1455.989
376.0761, 1299.717
376.5582, 1162.973
377.0403, 1045.748
377.5225, 947.4830
378.0046, 861.4182
378.4867, 789.8168
378.9688, 727.7806
379.4509, 673.4327
379.9330, 627.2653
380.4152, 585.7712
380.8973, 549.2901
381.3794, 516.9364
381.8615, 489.0282
382.3436, 465.1349
382.8257, 442.2397
383.3079, 418.8047
383.7900, 395.0483
384.2721, 370.4857
384.7542, 345.1081
385.2363, 320.3825
385.7184, 297.0283
386.2006, 275.4667
386.6827, 255.4658
387.1648, 236.9267
387.6469, 220.3396
388.1290, 206.5362
388.6111, 195.3277
389.0933, 185.2954
389.5754, 175.0343
390.0575, 165.5556
390.5396, 158.1080
391.0217, 153.2815
391.5038, 149.1145
391.9860, 144.2892
392.4681, 139.1532
392.9502, 134.2655
393.4323, 129.9179
393.9144, 125.8866
394.3965, 122.1152
394.8787, 118.5808
395.3608, 115.2394
395.8429, 111.9961
396.3250, 108.9432
396.8071, 106.1495
397.2892, 103.8209
397.7714, 101.5366
398.2535, 99.23421
398.7356, 96.91455
399.2177, 94.63222
399.6998, 92.08146
400.1819, 89.82781
400.6641, 88.15091
401.1462, 87.40710
401.6283, 86.51273
402.1104, 85.45186
402.5925, 84.24979
403.0746, 82.88655
403.5568, 81.14705
404.0389, 79.64286
404.5210, 78.61361
405.0031, 78.05982
405.4852, 77.27888
405.9673, 76.21755
406.4495, 75.01979
406.9316, 73.76792
407.4137, 72.43489
407.8958, 71.20251
408.3779, 70.07218
408.8600, 69.08163
409.3422, 68.43494
409.8243, 68.16525
410.3064, 67.76232
410.7885, 66.72780
411.2706, 65.25252
411.7527, 64.35835
412.2349, 64.14257
412.7170, 64.12931
413.1991, 63.78258
413.6812, 63.17869
414.1633, 62.58219
414.6454, 62.11345
415.1276, 61.68502
415.6097, 61.16961
416.0918, 60.58254
416.5739, 60.00483
417.0560, 59.52113
417.5381, 59.06601
418.0203, 58.53209
418.5024, 57.83297
418.9845, 57.22780
419.4666, 57.00324
419.9487, 56.98363
420.4308, 56.84394
420.9130, 56.39964
421.3951, 55.85096
421.8772, 55.20017
422.3593, 54.43952
422.8414, 53.92505
423.3235, 54.01381
423.8057, 54.25336
424.2878, 54.28095
424.7699, 53.75359
425.2520, 53.35102
425.7341, 53.18842
426.2162, 53.21960
426.6984, 53.27370
427.1805, 53.33825
427.6626, 53.43901
428.1447, 53.58600
428.6268, 53.77874
429.1089, 54.02636
429.5911, 54.37924
430.0732, 54.73671
430.5553, 54.93767
431.0374, 54.90349
431.5195, 55.02844
432.0016, 55.44170
432.4838, 56.08092
432.9659, 56.62465
433.4480, 57.04078
433.9301, 57.55968
434.4122, 58.35538
434.8943, 59.40739
435.3765, 60.57783
435.8586, 61.85966
436.3407, 63.23616
436.8228, 64.78159
437.3049, 66.44127
437.7870, 67.94215
438.2692, 69.01995
438.7513, 69.94796
439.2334, 71.05819
439.7155, 72.35467
440.1976, 73.87888
440.6797, 75.76646
441.1619, 77.86008
441.6440, 79.95542
442.1261, 81.87410
442.6082, 83.98331
443.0903, 86.46238
443.5724, 89.28492
444.0546, 92.39371
444.5367, 95.97217
445.0188, 99.65634
445.5009, 103.0915
445.9830, 106.0775
446.4651, 110.0299
446.9473, 115.7740
447.4294, 122.3155
447.9115, 128.7479
448.3936, 134.8614
448.8757, 141.1174
449.3578, 147.6127
449.8400, 154.2166
450.3221, 161.1180
450.8042, 169.5293
451.2863, 176.3290
451.7684, 180.4509
452.2505, 181.8878
452.7327, 180.6709
453.2148, 176.7081
453.6969, 170.2558
454.1790, 161.2178
454.6611, 149.3784
455.1432, 137.4191
455.6254, 125.7214
456.1075, 114.5813
456.5896, 105.1800
457.0717, 97.42422
457.5538, 90.77119
458.0359, 84.90720
458.5181, 79.87070
459.0002, 75.75017
459.4823, 72.63656
459.9644, 70.11832
460.4465, 67.93283
460.9286, 66.06602
461.4108, 64.53997
461.8929, 63.54528
462.3750, 62.73245
462.8571, 61.78425
463.3392, 60.76142
463.8214, 59.98994
464.3035, 59.75500
464.7856, 59.72649
465.2677, 59.68390
465.7498, 59.57141
466.2319, 59.50908
466.7141, 59.41673
467.1962, 59.42498
467.6783, 59.70213
468.1604, 60.66417
468.6425, 61.45390
469.1246, 61.77526
469.6068, 61.69504
470.0889, 62.03327
470.5710, 62.94569
471.0531, 64.06261
471.5352, 65.17782
472.0173, 66.26053
472.4995, 67.47855
472.9816, 68.80561
473.4637, 70.31689
473.9458, 72.13182
474.4279, 74.26823
474.9100, 76.52087
475.3922, 78.71669
475.8743, 81.02927
476.3564, 84.14842
476.8385, 88.06662
477.3206, 92.05177
477.8027, 95.24849
478.2849, 98.12237
478.7670, 101.7247
479.2491, 106.3227
479.7312, 111.0876
480.2133, 114.9793
480.6954, 118.4950
481.1776, 122.5800
481.6597, 127.9696
482.1418, 133.7187
482.6239, 139.1139
483.1060, 144.2749
483.5881, 149.8782
484.0703, 155.8515
484.5524, 162.6376
485.0345, 170.5991
485.5166, 180.0190
485.9987, 189.9380
486.4808, 199.6098
486.9630, 209.8512
487.4451, 221.6959
487.9272, 235.5790
488.4093, 250.4966
488.8914, 266.5905
489.3735, 283.8905
489.8557, 301.2696
490.3378, 319.2301
490.8199, 336.7117
491.3020, 353.3267
491.7841, 369.3102
492.2662, 382.9085
492.7484, 394.3057
493.2305, 402.3980
493.7126, 405.3661
494.1947, 403.4194
494.6768, 397.4408
495.1589, 387.1506
495.6411, 373.5273
496.1232, 357.3146
496.6053, 338.7514
497.0874, 321.0401
497.5695, 304.9253
498.0516, 291.0438
498.5338, 279.8825
499.0159, 271.6154
499.4980, 265.8911
499.9801, 262.9030
500.4622, 262.1405
500.9443, 262.9550
501.4265, 265.6208
501.9086, 269.3312
502.3907, 273.8592
502.8728, 279.2509
503.3549, 285.7204
503.8370, 292.4583
504.3192, 301.1805
504.8013, 312.6151
505.2834, 327.1474
505.7655, 342.4875
506.2476, 357.3617
506.7297, 374.3899
507.2119, 396.3577
507.6940, 423.5005
508.1761, 454.1444
508.6582, 487.7701
509.1403, 525.0223
509.6224, 567.6473
510.1046, 615.6749
510.5867, 667.6810
511.0688, 722.9421
511.5509, 781.6188
512.0330, 845.0684
512.5151, 913.6365
512.9973, 983.4237
513.4794, 1056.288
513.9615, 1127.620
514.4436, 1191.479
514.9257, 1249.397
515.4078, 1292.604
515.8900, 1318.869
516.3721, 1324.811
516.8542, 1304.536
517.3363, 1246.748
517.8184, 1170.868
518.3005, 1078.770
518.7827, 971.3636
519.2648, 869.1788
519.7469, 772.4174
520.2290, 684.4078
520.7111, 606.3815
521.1932, 539.8975
521.6754, 481.6344
522.1575, 432.0632
522.6396, 389.8179
523.1217, 353.3839
523.6038, 323.3058
524.0859, 296.9888
524.5681, 274.2606
525.0502, 254.9356
525.5323, 238.3601
526.0144, 224.5420
526.4965, 212.3844
526.9786, 201.2600
527.4608, 191.0946
527.9429, 181.8351
528.4250, 173.3856
528.9071, 165.9536
529.3892, 160.0950
529.8713, 155.2518
530.3535, 150.6398
530.8356, 145.9255
531.3177, 141.4377
531.7998, 137.1882
532.2819, 133.3161
532.7640, 130.3394
533.2462, 129.1002
533.7283, 128.1049
534.2104, 126.6351
534.6925, 124.5917
535.1746, 122.9237
535.6567, 121.7960
536.1389, 121.0071
536.6210, 120.4857
537.1031, 120.3461
537.5852, 120.1755
538.0673, 119.8626
538.5494, 119.6141
539.0316, 119.9060
539.5137, 120.8712
539.9958, 121.4463
540.4779, 121.1062
540.9600, 120.2706
541.4421, 120.2101
541.9243, 120.9034
542.4064, 121.9212
542.8885, 123.1011
543.3706, 124.3667
543.8527, 125.4180
544.3348, 126.1767
544.8170, 127.3977
545.2991, 130.0166
545.7812, 133.3141
546.2633, 136.4150
546.7454, 138.6824
547.2275, 141.1740
547.7097, 144.3886
548.1918, 148.1620
548.6739, 152.0510
549.1560, 156.0036
549.6381, 160.0571
550.1202, 164.3390
550.6024, 168.8709
551.0845, 172.9370
551.5666, 176.7281
552.0487, 179.8083
552.5308, 182.0959
553.0129, 183.8654
553.4951, 183.3449
553.9772, 180.2465
554.4593, 175.3190
554.9414, 169.3090
555.4235, 162.2686
555.9056, 154.7404
556.3878, 146.8104
556.8699, 138.6537
557.3520, 130.4103
557.8341, 122.2108
558.3162, 114.7822
558.7983, 108.5723
559.2805, 103.3207
559.7626, 98.83264
560.2447, 95.11953
560.7268, 92.01569
561.2089, 89.65866
561.6910, 87.71897
562.1732, 85.93581
562.6553, 84.32687
563.1374, 82.80400
563.6195, 81.17080
564.1016, 79.67822
564.5837, 78.71608
565.0659, 78.49032
565.5480, 78.39182
566.0301, 78.23903
566.5122, 78.11189
566.9943, 78.49305
567.4764, 79.46660
567.9586, 80.52713
568.4407, 81.24876
568.9228, 81.74934
569.4049, 82.73308
569.8870, 84.21471
570.3691, 86.06084
570.8513, 88.28291
571.3334, 90.75414
571.8155, 93.12820
572.2976, 95.32607
572.7797, 97.51113
573.2618, 99.78807
573.7440, 102.1538
574.2261, 104.6560
574.7082, 108.0784
575.1903, 110.8698
575.6724, 112.4857
576.1545, 112.9331
576.6367, 112.3067
577.1188, 110.4187
577.6009, 107.6697
578.0830, 104.0541
578.5651, 99.41829
579.0472, 94.77135
579.5294, 89.94035
580.0115, 85.30727
580.4936, 81.12728
580.9757, 77.36440
581.4578, 74.15904
581.9399, 71.58601
582.4221, 69.44810
582.9042, 67.42605
583.3863, 65.56565
583.8684, 63.94428
584.3505, 62.74650
584.8326, 61.69107
585.3148, 60.35543
585.7969, 58.83941
586.2790, 57.66085
586.7611, 57.31928
587.2432, 57.22846
587.7253, 57.04496
588.2075, 56.72918
