##NAMES=Andradite
##RRUFFID=R050311
##IDEAL CHEMISTRY=Ca_3_Fe^3+^_2_(SiO_4_)_3_
##LOCALITY=Calaveras County, California, USA
##OWNER=RRUFF
##SOURCE=Eugene Schlepp
##DESCRIPTION=Deep red crystals
##STATUS=The identification of this mineral has been confirmed by X-ray diffraction and chemical analysis
##URL=rruff.info/R050311
##MEASURED CHEMISTRY=(Ca_2.88_Mn_0.07_Fe^2+^_0.05_)_Σ=3_(Fe^3+^_1.39_Al_0.59_Ti_0.02_)_Σ=2_((Si_0.99_Al_0.01_)_Σ=1_O_4_)_3_
96.69257, 4.627465
97.17468, 5.065020
97.65680, 5.167484
98.13892, 4.945804
98.62103, 4.971407
99.10315, 5.488975
99.58527, 6.403752
100.0674, 7.029784
100.5495, 7.305636
101.0316, 7.415287
101.5137, 7.576923
101.9958, 7.818671
102.4780, 8.010955
102.9601, 8.044692
103.4422, 7.845008
103.9243, 7.997403
104.4064, 8.605441
104.8885, 9.499318
105.3707, 10.41784
105.8528, 11.47216
106.3349, 12.38311
106.8170, 13.02220
107.2991, 13.22701
107.7813, 13.46857
108.2634, 13.79607
108.7455, 14.16876
109.2276, 14.43886
109.7097, 14.18361
110.1918, 14.13763
110.6740, 14.60599
111.1561, 16.28353
111.6382, 17.70395
112.1203, 18.59943
112.6024, 19.07380
113.0845, 19.70858
113.5667, 20.76955
114.0488, 21.92199
114.5309, 22.95232
115.0130, 23.76701
115.4951, 24.48728
115.9772, 25.08727
116.4594, 25.57936
116.9415, 26.16790
117.4236, 27.07328
117.9057, 28.06824
118.3878, 28.90606
118.8699, 29.25057
119.3521, 29.60599
119.8342, 30.27685
120.3163, 31.29777
120.7984, 32.45886
121.2805, 33.71669
121.7626, 35.02291
122.2448, 36.29489
122.7269, 37.80653
123.2090, 39.11410
123.6911, 39.60273
124.1732, 39.02277
124.6553, 38.39862
125.1375, 38.85788
125.6196, 40.10885
126.1017, 41.22827
126.5838, 41.36554
127.0659, 41.05192
127.5480, 41.30958
128.0302, 42.43520
128.5123, 43.85967
128.9944, 44.82609
129.4765, 45.36501
129.9586, 45.76235
130.4407, 46.18558
130.9229, 46.62851
131.4050, 47.08150
131.8871, 47.56577
132.3692, 48.02663
132.8513, 48.19956
133.3334, 47.96914
133.8156, 47.70304
134.2977, 48.03209
134.7798, 49.08847
135.2619, 50.05238
135.7440, 50.75093
136.2261, 51.21620
136.7083, 51.60212
137.1904, 51.87548
137.6725, 52.18237
138.1546, 52.81147
138.6367, 53.90470
139.1188, 54.55387
139.6010, 54.43034
140.0831, 53.53651
140.5652, 52.78376
141.0473, 52.12231
141.5294, 51.64491
142.0115, 51.51986
142.4937, 51.88302
142.9758, 52.26533
143.4579, 52.53921
143.9400, 52.68835
144.4221, 52.80495
144.9042, 52.92531
145.3864, 52.99215
145.8685, 52.86400
146.3506, 52.18189
146.8327, 51.78640
147.3148, 52.04128
147.7969, 53.49688
148.2791, 54.34352
148.7612, 54.15715
149.2433, 53.40789
149.7254, 53.17682
150.2075, 53.78872
150.6896, 54.63224
151.1718, 55.47593
151.6539, 56.13206
152.1360, 57.06004
152.6181, 58.55638
153.1002, 60.37518
153.5823, 61.77295
154.0645, 62.39246
154.5466, 62.82177
155.0287, 63.33339
155.5108, 64.09366
155.9929, 64.78166
156.4750, 65.11639
156.9572, 65.25992
157.4393, 65.87761
157.9214, 67.67269
158.4035, 69.64938
158.8856, 71.19197
159.3677, 71.52108
159.8499, 72.05466
160.3320, 73.41129
160.8141, 75.42828
161.2962, 77.13282
161.7783, 77.86935
162.2604, 78.28124
162.7426, 78.89931
163.2247, 80.05869
163.7068, 81.30068
164.1889, 82.35728
164.6710, 83.24306
165.1531, 84.32150
165.6353, 85.78902
166.1174, 87.53222
166.5995, 89.42901
167.0816, 91.60325
167.5637, 93.79140
168.0458, 95.77904
168.5280, 97.54720
169.0101, 99.39396
169.4922, 101.4658
169.9743, 103.7206
170.4564, 106.0894
170.9385, 108.6473
171.4207, 111.2447
171.9028, 113.7696
172.3849, 116.2060
172.8670, 118.5674
173.3491, 121.2397
173.8312, 123.8568
174.3134, 125.7221
174.7955, 126.2670
175.2776, 125.9907
175.7597, 125.5553
176.2418, 125.0373
176.7239, 123.9321
177.2061, 121.6546
177.6882, 118.3760
178.1703, 114.6183
178.6524, 110.3672
179.1345, 105.8196
179.6166, 101.2812
180.0988, 96.68044
180.5809, 92.31762
181.0630, 88.50259
181.5451, 85.17298
182.0272, 82.24529
182.5093, 79.60408
182.9915, 77.29699
183.4736, 75.57778
183.9557, 74.53419
184.4378, 73.75089
184.9199, 72.53127
185.4020, 70.98195
185.8842, 69.70446
186.3663, 69.31944
186.8484, 69.53650
187.3305, 69.27955
187.8126, 68.39376
188.2947, 67.20659
188.7769, 66.11704
189.2590, 65.13103
189.7411, 64.38400
190.2232, 63.98021
190.7053, 63.89485
191.1874, 63.99376
191.6696, 64.32534
192.1517, 64.72680
192.6338, 64.88484
193.1159, 64.79324
193.5980, 64.63787
194.0801, 64.48637
194.5623, 64.34499
195.0444, 64.31825
195.5265, 64.44255
196.0086, 64.64716
196.4907, 64.77190
196.9728, 64.80479
197.4550, 64.85465
197.9371, 64.94108
198.4192, 65.06096
198.9013, 65.42403
199.3834, 66.13639
199.8655, 67.00835
200.3477, 67.56819
200.8298, 67.76575
201.3119, 67.86879
201.7940, 67.99775
202.2761, 68.14278
202.7582, 68.45876
203.2404, 69.04456
203.7225, 69.74788
204.2046, 70.09824
204.6867, 70.00597
205.1688, 69.87169
205.6509, 69.89619
206.1331, 70.06267
206.6152, 70.51575
207.0973, 71.35020
207.5794, 72.43658
208.0615, 73.39794
208.5436, 74.24065
209.0258, 74.94540
209.5079, 75.44006
209.9900, 75.64856
210.4721, 75.98659
210.9542, 76.47298
211.4363, 77.11471
211.9185, 77.97099
212.4006, 79.12186
212.8827, 80.32137
213.3648, 81.35680
213.8469, 82.13979
214.3290, 83.13952
214.8112, 84.48281
215.2933, 86.04289
215.7754, 87.35392
216.2575, 88.20619
216.7396, 89.20906
217.2217, 90.76613
217.7038, 93.06721
218.1860, 95.34221
218.6681, 97.59533
219.1502, 99.76563
219.6323, 101.5384
220.1144, 102.6724
220.5965, 103.7981
221.0787, 105.2499
221.5608, 107.0646
222.0429, 109.1008
222.5250, 111.3762
223.0071, 113.8650
223.4892, 116.4235
223.9714, 119.2392
224.4535, 121.8694
224.9356, 124.0788
225.4177, 125.6881
225.8998, 127.2338
226.3819, 128.5066
226.8641, 129.7662
227.3462, 131.9629
227.8283, 135.6351
228.3104, 139.4138
228.7925, 142.5137
229.2746, 144.5826
229.7568, 146.8503
230.2389, 149.3899
230.7210, 152.1693
231.2031, 155.0277
231.6852, 158.0273
232.1673, 161.0060
232.6495, 163.7981
233.1316, 166.0753
233.6137, 168.9441
234.0958, 172.7251
234.5779, 177.0197
235.0600, 180.6897
235.5422, 183.8260
236.0243, 186.2651
236.5064, 188.0117
236.9885, 189.3876
237.4706, 189.3942
237.9527, 188.1871
238.4349, 185.5672
238.9170, 180.8457
239.3991, 172.9568
239.8812, 164.5587
240.3633, 156.7572
240.8454, 149.9037
241.3276, 142.7255
241.8097, 134.8470
242.2918, 126.8783
242.7739, 120.2757
243.2560, 115.5062
243.7381, 111.3794
244.2203, 107.4282
244.7024, 103.4706
245.1845, 100.2191
245.6666, 97.81261
246.1487, 96.05214
246.6308, 94.52715
247.1130, 93.26344
247.5951, 92.19071
248.0772, 91.32981
248.5593, 90.75163
249.0414, 90.09073
249.5235, 89.23734
250.0057, 88.37074
250.4878, 87.78632
250.9699, 87.59740
251.4520, 87.48400
251.9341, 87.30679
252.4162, 86.98648
252.8984, 87.01743
253.3805, 87.58784
253.8626, 88.36823
254.3447, 88.85913
254.8268, 88.97936
255.3089, 88.98457
255.7911, 88.86914
256.2732, 88.57626
256.7553, 88.65921
257.2374, 89.26524
257.7195, 90.10506
258.2017, 90.77200
258.6838, 91.04797
259.1659, 91.68049
259.6480, 93.01842
260.1301, 95.09488
260.6122, 96.66744
261.0944, 97.62666
261.5765, 98.22164
262.0586, 98.67324
262.5407, 98.89980
263.0228, 99.20847
263.5049, 99.67213
263.9871, 100.2900
264.4692, 100.9221
264.9513, 101.5641
265.4334, 102.2363
265.9155, 103.0519
266.3976, 104.1532
266.8798, 104.8594
267.3619, 104.9843
267.8440, 104.5858
268.3261, 104.1260
268.8082, 103.6328
269.2903, 103.0225
269.7725, 102.1451
270.2546, 100.8935
270.7367, 99.92993
271.2188, 99.42059
271.7009, 99.26315
272.1830, 99.03356
272.6652, 98.72955
273.1473, 98.36250
273.6294, 97.94534
274.1115, 97.48629
274.5936, 96.88911
275.0757, 96.05860
275.5579, 95.13675
276.0400, 94.58299
276.5221, 94.45557
277.0042, 94.45753
277.4863, 94.41827
277.9684, 94.32988
278.4506, 94.33576
278.9327, 94.51331
279.4148, 94.70503
279.8969, 94.56364
280.3790, 94.06409
280.8611, 93.41444
281.3433, 92.53642
281.8254, 91.43456
282.3075, 91.00691
282.7896, 91.39783
283.2717, 92.19626
283.7538, 92.78310
284.2360, 93.15229
284.7181, 93.48347
285.2002, 93.88199
285.6823, 94.32887
286.1644, 94.59090
286.6465, 94.60692
287.1287, 94.64838
287.6108, 95.13116
288.0929, 96.03036
288.5750, 96.89400
289.0571, 97.44534
289.5392, 97.82648
290.0214, 98.65234
290.5035, 99.95781
290.9856, 101.3807
291.4677, 102.4564
291.9498, 103.2693
292.4319, 104.3089
292.9141, 105.7895
293.3962, 107.5658
293.8783, 109.3182
294.3604, 111.0393
294.8425, 112.7887
295.3246, 114.6655
295.8068, 116.6410
296.2889, 118.5795
296.7710, 120.4752
297.2531, 122.3225
297.7352, 124.1053
298.2173, 125.8131
298.6995, 127.4266
299.1816, 128.8292
299.6637, 130.1246
300.1458, 131.5132
300.6279, 133.0815
301.1100, 134.6681
301.5922, 136.0521
302.0743, 137.2610
302.5564, 138.4070
303.0385, 139.3824
303.5206, 140.3938
304.0027, 141.8183
304.4849, 143.7557
304.9670, 145.8296
305.4491, 147.5832
305.9312, 149.1699
306.4133, 150.9583
306.8954, 153.0254
307.3776, 155.4467
307.8597, 158.3228
308.3418, 161.7076
308.8239, 165.3056
309.3060, 168.9145
309.7881, 172.6293
310.2703, 176.4793
310.7524, 180.5501
311.2345, 184.7614
311.7166, 189.2871
312.1987, 194.0888
312.6808, 198.2351
313.1630, 200.9544
313.6451, 202.8713
314.1272, 204.6856
314.6093, 207.2133
315.0914, 209.1087
315.5735, 209.6445
316.0557, 208.9238
316.5378, 207.5019
317.0199, 205.5025
317.5020, 202.9693
317.9841, 199.8576
318.4662, 195.9172
318.9484, 191.8513
319.4305, 187.5575
319.9126, 183.2814
320.3947, 179.6682
320.8768, 177.1432
321.3589, 175.1481
321.8411, 173.3604
322.3232, 171.5829
322.8053, 170.4477
323.2874, 170.2924
323.7695, 170.8133
324.2516, 171.5296
324.7338, 172.2187
325.2159, 173.2280
325.6980, 174.7358
326.1801, 176.8672
326.6622, 178.9829
327.1443, 181.1555
327.6265, 183.2563
328.1086, 185.1636
328.5907, 187.0381
329.0728, 188.5124
329.5549, 189.2871
330.0370, 189.3548
330.5192, 189.9994
331.0013, 191.7225
331.4834, 193.6023
331.9655, 194.9637
332.4476, 195.1047
332.9297, 195.9576
333.4119, 197.9084
333.8940, 200.7129
334.3761, 203.2024
334.8582, 204.8119
335.3403, 206.9048
335.8224, 210.2570
336.3046, 215.3157
336.7867, 220.2984
337.2688, 225.0491
337.7509, 229.8246
338.2330, 235.3041
338.7151, 241.5724
339.1973, 248.1642
339.6794, 255.0300
340.1615, 262.1242
340.6436, 269.1858
341.1257, 276.0500
341.6078, 283.0895
342.0899, 290.7419
342.5721, 298.8743
343.0542, 307.7012
343.5363, 317.3315
344.0184, 327.6054
344.5005, 337.9718
344.9826, 348.2780
345.4648, 359.1884
345.9469, 371.0700
346.4290, 384.0650
346.9111, 397.9351
347.3932, 412.7504
347.8753, 428.4051
348.3575, 444.2145
348.8396, 460.1664
349.3217, 477.1519
349.8038, 495.7515
350.2859, 515.6752
350.7680, 536.4670
351.2502, 558.2736
351.7323, 580.1182
352.2144, 600.7027
352.6965, 620.4641
353.1786, 640.1218
353.6607, 661.5291
354.1429, 682.3945
354.6250, 699.6234
355.1071, 713.0418
355.5892, 724.6994
356.0713, 736.3806
356.5534, 747.2976
357.0356, 756.2642
357.5177, 761.8149
357.9998, 766.1842
358.4819, 770.2505
358.9640, 774.1882
359.4461, 778.8932
359.9283, 784.7432
360.4104, 791.6024
360.8925, 799.1913
361.3746, 806.5403
361.8567, 816.1644
362.3388, 829.2744
362.8210, 845.3556
363.3031, 863.5305
363.7852, 882.9919
364.2673, 904.8809
364.7494, 930.1264
365.2315, 959.5661
365.7137, 989.7123
366.1958, 1020.716
366.6779, 1051.468
367.1600, 1080.946
367.6421, 1112.978
368.1242, 1139.637
368.6064, 1159.558
369.0885, 1172.652
369.5706, 1179.447
370.0527, 1182.003
370.5348, 1176.782
371.0169, 1161.236
371.4991, 1133.198
371.9812, 1098.763
372.4633, 1057.117
372.9454, 1009.203
373.4275, 959.0215
373.9096, 905.1397
374.3918, 850.4642
374.8739, 797.0146
375.3560, 743.8948
375.8381, 693.1266
376.3202, 644.9511
376.8023, 599.5336
377.2845, 557.2572
377.7666, 518.4717
378.2487, 482.7016
378.7308, 450.8506
379.2129, 422.2549
379.6950, 395.3411
380.1772, 369.7359
380.6593, 346.5565
381.1414, 326.9718
381.6235, 310.8858
382.1056, 295.7493
382.5877, 281.1325
383.0699, 267.3045
383.5520, 254.8583
384.0341, 243.6578
384.5162, 233.4707
384.9983, 223.9576
385.4804, 215.2726
385.9626, 207.7995
386.4447, 201.6870
386.9268, 196.1825
387.4089, 190.6747
387.8910, 185.1674
388.3731, 179.7976
388.8553, 174.4812
389.3374, 169.4001
389.8195, 164.9406
390.3016, 161.1180
390.7837, 157.2209
391.2658, 152.7785
391.7480, 148.1013
392.2301, 143.4888
392.7122, 138.8655
393.1943, 134.5477
393.6764, 130.8749
394.1585, 127.6674
394.6407, 124.4838
395.1228, 121.1200
395.6049, 117.7627
396.0870, 114.4232
396.5691, 111.0429
397.0512, 107.9547
397.5334, 105.1351
398.0155, 102.6579
398.4976, 100.6500
398.9797, 99.78569
399.4618, 98.65697
399.9439, 96.77744
400.4261, 94.15262
400.9082, 92.13249
401.3903, 91.09679
401.8724, 90.30237
402.3545, 89.27490
402.8366, 87.90386
403.3188, 86.55045
403.8009, 85.18141
404.2830, 83.86521
404.7651, 82.81302
405.2472, 82.13364
405.7293, 81.43593
406.2115, 80.50426
406.6936, 79.33390
407.1757, 78.42660
407.6578, 77.83931
408.1399, 77.35689
408.6220, 76.64318
409.1042, 75.70869
409.5863, 75.06060
410.0684, 74.95471
410.5505, 75.12563
411.0326, 74.87833
411.5147, 74.22483
411.9969, 73.58162
412.4790, 73.22753
412.9611, 73.10057
413.4432, 73.07985
413.9253, 73.16918
414.4074, 73.28420
414.8896, 73.35733
415.3717, 73.38754
415.8538, 73.37045
416.3359, 73.28201
416.8180, 73.15907
417.3001, 73.03288
417.7823, 72.90226
418.2644, 72.76418
418.7465, 72.54453
419.2286, 72.34536
419.7107, 72.27220
420.1928, 72.42936
420.6750, 72.60862
421.1571, 72.72524
421.6392, 72.80319
422.1213, 72.90237
422.6034, 73.03561
423.0855, 73.19534
423.5677, 73.38685
424.0498, 73.62195
424.5319, 73.84518
425.0140, 73.95068
425.4961, 74.09480
425.9782, 74.45200
426.4604, 75.34351
426.9425, 75.97557
427.4246, 76.15842
427.9067, 75.96227
428.3888, 75.84942
428.8709, 75.80232
429.3531, 75.86876
429.8352, 76.10097
430.3173, 76.53049
430.7994, 76.94559
431.2815, 77.33186
431.7636, 77.71278
432.2458, 78.14947
432.7279, 78.64993
433.2100, 79.05408
433.6921, 79.28877
434.1742, 79.38529
434.6563, 79.42461
435.1385, 79.40373
435.6206, 79.41375
436.1027, 79.53287
436.5848, 79.74412
437.0669, 80.01048
437.5490, 80.34147
438.0312, 80.68810
438.5133, 80.93639
438.9954, 81.15038
439.4775, 81.50671
439.9596, 82.45069
440.4417, 83.35522
440.9239, 83.47719
441.4060, 82.77452
441.8881, 82.24411
442.3702, 82.64738
442.8523, 83.41492
443.3344, 84.00322
443.8166, 84.19070
444.2987, 84.26765
444.7808, 84.27519
445.2629, 84.23238
445.7450, 84.19599
446.2271, 84.14700
446.7093, 84.13200
447.1914, 84.16675
447.6735, 84.25175
448.1556, 84.38998
448.6377, 84.63778
449.1198, 84.89906
449.6020, 85.03947
450.0841, 84.84371
450.5662, 85.01562
451.0483, 85.91245
451.5304, 87.25011
452.0125, 87.61280
452.4947, 86.70084
452.9768, 85.74837
453.4589, 85.50548
453.9410, 85.99218
454.4231, 86.28620
454.9052, 86.34595
455.3874, 86.28745
455.8695, 86.32022
456.3516, 86.40446
456.8337, 86.24978
457.3158, 85.70451
457.7979, 84.91185
458.2801, 84.09505
458.7622, 83.25755
459.2443, 82.38882
459.7264, 81.51439
460.2085, 80.60083
460.6906, 79.61610
461.1728, 78.55789
461.6549, 77.43343
462.1370, 76.16356
462.6191, 74.86565
463.1012, 73.74121
463.5833, 72.83688
464.0655, 72.14408
464.5476, 71.74611
465.0297, 71.61002
465.5118, 71.45967
465.9939, 70.95656
466.4760, 70.61573
466.9582, 70.73926
467.4403, 71.62571
467.9224, 72.48703
468.4045, 73.24540
468.8866, 73.98853
469.3687, 74.85723
469.8509, 75.86413
470.3330, 76.95161
470.8151, 78.12941
471.2972, 79.38731
471.7793, 80.59527
472.2614, 81.73569
472.7436, 82.90925
473.2257, 84.21579
473.7078, 85.66409
474.1899, 87.00716
474.6720, 88.17300
475.1541, 89.39823
475.6363, 91.08974
476.1184, 93.18999
476.6005, 95.33445
477.0826, 97.39575
477.5647, 99.39870
478.0468, 101.4999
478.5290, 103.6696
479.0111, 105.6372
479.4932, 106.8675
479.9753, 107.9367
480.4574, 109.6272
480.9395, 112.2861
481.4217, 114.8943
481.9038, 116.6314
482.3859, 117.9258
482.8680, 119.3829
483.3501, 121.2567
483.8322, 123.2722
484.3144, 125.5228
484.7965, 127.9389
485.2786, 129.9099
485.7607, 130.9438
486.2428, 131.7958
486.7249, 132.8172
487.2071, 133.9313
487.6892, 135.3768
488.1713, 137.3746
488.6534, 139.5484
489.1355, 141.3898
489.6176, 142.8605
490.0998, 144.1222
490.5819, 145.1453
491.0640, 146.0212
491.5461, 147.2390
492.0282, 148.8569
492.5103, 150.4523
492.9925, 151.8338
493.4746, 152.9761
493.9567, 153.5880
494.4388, 153.6087
494.9209, 153.3701
495.4030, 153.2982
495.8852, 153.2659
496.3673, 152.9485
496.8494, 152.1431
497.3315, 151.0738
497.8136, 149.9289
498.2957, 148.6908
498.7779, 147.3422
499.2600, 145.7323
499.7421, 144.0873
500.2242, 142.5245
500.7063, 141.0078
501.1884, 139.7411
501.6706, 138.8506
502.1527, 138.2203
502.6348, 137.7513
503.1169, 136.9910
503.5990, 136.9344
504.0811, 137.8400
504.5633, 139.5308
505.0454, 141.3586
505.5275, 143.0430
506.0096, 145.3066
506.4917, 148.6028
506.9738, 153.0825
507.4560, 156.9408
507.9381, 159.8874
508.4202, 162.9925
508.9023, 167.4186
509.3844, 173.1123
509.8665, 179.1560
510.3487, 185.3759
510.8308, 191.8785
511.3129, 198.8810
511.7950, 206.3425
512.2772, 214.0672
512.7593, 222.2212
513.2414, 230.4256
513.7235, 237.9541
514.2056, 244.8730
514.6877, 252.6966
515.1699, 262.5320
515.6520, 273.6416
516.1341, 285.4473
516.6162, 298.2783
517.0983, 310.9390
517.5804, 322.9771
518.0626, 334.6904
518.5447, 346.5700
519.0268, 358.8746
519.5089, 371.2090
519.9910, 383.8791
520.4731, 396.7968
520.9553, 407.8544
521.4374, 416.9720
521.9195, 424.1895
522.4016, 429.7896
522.8837, 434.1019
523.3658, 434.7918
523.8480, 431.6283
524.3301, 425.2915
524.8122, 416.6708
525.2943, 405.8106
525.7764, 392.3600
526.2585, 375.8310
526.7407, 357.1178
527.2228, 336.7243
527.7049, 314.8789
528.1870, 293.5851
528.6691, 273.4999
529.1512, 254.6233
529.6334, 236.8554
530.1155, 220.0228
530.5976, 204.5908
531.0797, 190.7696
531.5618, 178.2755
532.0439, 166.9826
532.5261, 156.6050
533.0082, 147.5885
533.4903, 140.1379
533.9724, 134.0187
534.4545, 128.5518
534.9366, 124.0259
535.4188, 119.8046
535.9009, 115.7274
536.3830, 111.8045
536.8651, 108.4473
537.3472, 105.7178
537.8293, 103.4434
538.3115, 101.6480
538.7936, 100.3794
539.2757, 98.94067
539.7578, 97.20378
540.2399, 95.59697
540.7220, 94.73252
541.2042, 94.53596
541.6863, 94.54509
542.1684, 94.77329
542.6505, 94.94798
543.1326, 94.48024
543.6147, 93.55886
544.0969, 92.89793
544.5790, 93.26120
545.0611, 93.84163
545.5432, 93.91716
546.0253, 93.40331
546.5074, 92.94134
546.9896, 92.67171
547.4717, 92.64328
547.9538, 92.89772
548.4359, 93.53677
548.9180, 94.34325
549.4001, 95.81889
549.8823, 97.30318
550.3644, 97.54980
550.8465, 95.67506
551.3286, 94.25098
551.8107, 94.07544
552.2928, 94.93698
552.7750, 95.22974
553.2571, 94.85540
553.7392, 94.41005
554.2213, 94.35130
554.7034, 94.58658
555.1855, 94.59400
555.6677, 94.34972
556.1498, 93.86562
556.6319, 93.10528
557.1140, 92.12379
557.5961, 91.01918
558.0782, 89.73914
558.5604, 88.47530
559.0425, 87.60730
559.5246, 86.88145
560.0067, 85.73264
560.4888, 83.31257
560.9709, 80.98891
561.4531, 79.57409
561.9352, 79.08153
562.4173, 78.26061
562.8994, 76.63985
563.3815, 74.89595
563.8636, 73.33227
564.3458, 71.97058
564.8279, 70.76222
565.3100, 69.69984
565.7921, 68.78422
566.2742, 68.04184
566.7563, 67.47720
567.2385, 67.02190
567.7206, 66.71626
568.2027, 66.44785
568.6848, 65.85942
569.1669, 65.01254
569.6490, 64.43278
570.1312, 64.57089
570.6133, 65.06165
571.0954, 65.40988
571.5775, 65.61242
572.0596, 65.74362
572.5417, 65.76962
573.0239, 65.79678
573.5060, 65.92097
573.9881, 66.18233
574.4702, 66.47957
574.9523, 66.71799
575.4344, 67.00382
575.9166, 67.46888
576.3987, 68.29943
576.8808, 69.07832
577.3629, 69.72285
577.8450, 70.29273
578.3271, 71.05767
578.8093, 72.16779
579.2914, 73.01812
579.7735, 73.30577
580.2556, 73.08788
580.7377, 72.78146
581.2198, 72.37782
581.7020, 71.98415
582.1841, 71.81252
582.6662, 71.70789
583.1483, 71.19460
583.6304, 70.13374
584.1125, 69.12928
584.5947, 68.72889
585.0768, 68.72694
585.5589, 68.82696
586.0410, 69.08483
586.5231, 69.25097
587.0052, 69.07174
587.4873, 68.71248
587.9694, 68.61710
588.4515, 69.04164
588.9337, 69.56966
589.4158, 70.11959
589.8979, 70.69252
590.3800, 71.18889
590.8621, 71.67336
591.3442, 71.96608
591.8264, 71.90639
