##NAMES=Andradite
##RRUFFID=R100138
##IDEAL CHEMISTRY=Ca_3_Fe^3+^_2_(SiO_4_)_3_
##LOCALITY=Madagascar
##OWNER=RRUFF
##SOURCE=William W. Pinch
##DESCRIPTION=Colorless cut gemstone
##STATUS=The identification of this mineral has been confirmed only by single crystal X-ray diffraction.
##URL=rruff.info/R100138
90.60547, 84.53813
91.08759, 88.90007
91.56970, 91.92556
92.05182, 91.24456
92.53394, 88.41272
93.01605, 84.84826
93.49817, 81.06326
93.98029, 77.24897
94.46240, 73.82469
94.94452, 70.85440
95.42664, 68.27922
95.90874, 66.15172
96.39086, 64.43368
96.87298, 62.91240
97.35509, 61.44865
97.83721, 60.21753
98.31933, 58.25480
98.80145, 54.80156
99.28356, 51.18537
99.76568, 48.28893
100.2478, 46.38951
100.7299, 45.19222
101.2120, 44.00842
101.6941, 42.40497
102.1763, 41.31149
102.6584, 41.21637
103.1405, 41.56243
103.6226, 41.53399
104.1047, 40.62436
104.5868, 38.99779
105.0690, 37.82988
105.5511, 37.46725
106.0332, 37.11837
106.5153, 36.37047
106.9974, 35.25612
107.4795, 34.10048
107.9617, 33.05652
108.4438, 32.16781
108.9259, 31.54689
109.4080, 31.47923
109.8901, 31.58945
110.3722, 31.28214
110.8544, 30.36872
111.3365, 29.48372
111.8186, 29.10462
112.3007, 29.05677
112.7828, 29.01237
113.2649, 28.69515
113.7471, 28.14201
114.2292, 27.87322
114.7113, 28.16241
115.1934, 28.50419
115.6755, 28.76262
116.1576, 28.90839
116.6397, 28.92828
117.1219, 28.78530
117.6040, 28.40808
118.0861, 28.07962
118.5682, 27.73164
119.0503, 27.46668
119.5324, 27.41960
120.0146, 27.58851
120.4967, 27.79601
120.9788, 27.74200
121.4609, 27.15298
121.9430, 26.68788
122.4251, 26.40008
122.9073, 26.21705
123.3894, 26.05154
123.8715, 25.86372
124.3536, 25.69449
124.8357, 25.68535
125.3178, 25.94510
125.8000, 26.10557
126.2821, 25.92766
126.7642, 25.50366
127.2463, 25.19037
127.7284, 25.19847
128.2105, 25.38720
128.6927, 25.48994
129.1748, 25.50376
129.6569, 25.42084
130.1390, 25.20111
130.6211, 24.82093
131.1032, 24.44668
131.5854, 24.07302
132.0675, 23.77011
132.5496, 23.66862
133.0317, 23.89902
133.5138, 24.24549
133.9959, 24.13477
134.4781, 23.12342
134.9602, 22.36402
135.4423, 22.27569
135.9244, 22.57284
136.4065, 22.88674
136.8886, 22.99237
137.3708, 22.90571
137.8529, 22.84272
138.3350, 22.81661
138.8171, 22.80230
139.2992, 22.82466
139.7813, 22.85760
140.2635, 22.85644
140.7456, 22.79040
141.2277, 22.66278
141.7098, 22.38928
142.1919, 21.78780
142.6740, 21.22166
143.1561, 20.89209
143.6383, 20.81030
144.1204, 20.84879
144.6025, 20.87683
145.0846, 20.88604
145.5667, 21.01433
146.0488, 21.51114
146.5310, 22.01934
147.0131, 22.10915
147.4952, 21.66303
147.9773, 21.01970
148.4594, 20.42973
148.9415, 19.89407
149.4237, 19.65246
149.9058, 19.97335
150.3879, 20.67083
150.8700, 21.23281
151.3521, 21.58059
151.8342, 21.75562
152.3164, 21.76814
152.7985, 21.64061
153.2806, 21.54591
153.7627, 21.66866
154.2448, 22.01593
154.7269, 22.22716
155.2091, 22.03081
155.6912, 21.85324
156.1733, 21.92900
156.6554, 22.26902
157.1375, 22.71454
157.6196, 23.05927
158.1018, 23.22327
158.5839, 23.52696
159.0660, 24.09062
159.5481, 24.70958
160.0302, 25.19726
160.5123, 25.53042
160.9945, 25.88784
161.4766, 26.58629
161.9587, 27.88234
162.4408, 29.18701
162.9229, 30.30374
163.4050, 31.50997
163.8871, 32.97615
164.3693, 34.77540
164.8514, 36.98319
165.3335, 39.81488
165.8156, 43.02576
166.2977, 47.18635
166.7798, 52.34478
167.2620, 58.51640
167.7441, 65.58525
168.2262, 73.39521
168.7083, 82.32873
169.1904, 93.34141
169.6725, 105.6531
170.1547, 120.4992
170.6368, 139.2113
171.1189, 161.0528
171.6010, 184.5688
172.0831, 212.6526
172.5652, 238.4798
173.0474, 251.9287
173.5295, 252.5529
174.0116, 241.9466
174.4937, 216.6746
174.9758, 176.7357
175.4579, 138.9276
175.9401, 109.8263
176.4222, 87.29082
176.9043, 69.67022
177.3864, 57.13155
177.8685, 48.20406
178.3506, 41.31726
178.8328, 36.75958
179.3149, 33.26424
179.7970, 30.76116
180.2791, 28.88267
180.7612, 27.46255
181.2433, 26.47356
181.7255, 25.74950
182.2076, 24.92873
182.6897, 23.93112
183.1718, 22.98346
183.6539, 22.02200
184.1360, 21.16343
184.6181, 20.56574
185.1003, 20.31482
185.5824, 20.31021
186.0645, 20.19762
186.5466, 19.86245
187.0287, 19.54984
187.5108, 19.30212
187.9930, 19.09388
188.4751, 18.88618
188.9572, 18.65666
189.4393, 18.41722
189.9214, 18.23921
190.4035, 18.20370
190.8857, 18.14013
191.3678, 17.99151
191.8499, 17.79583
192.3320, 17.62657
192.8141, 17.53381
193.2962, 17.50040
193.7784, 17.38725
194.2605, 17.13191
194.7426, 16.88409
195.2247, 16.66196
195.7068, 16.48207
196.1889, 16.39361
196.6711, 16.44870
197.1532, 16.61396
197.6353, 16.70557
198.1174, 16.67741
198.5995, 16.62681
199.0816, 16.62694
199.5638, 16.66450
200.0459, 16.64448
200.5280, 16.47800
201.0101, 16.22001
201.4922, 16.03692
201.9743, 15.90671
202.4565, 15.87968
202.9386, 16.08319
203.4207, 16.52737
203.9028, 16.85752
204.3849, 16.78692
204.8670, 16.50893
205.3492, 16.28441
205.8313, 16.13335
206.3134, 16.08634
206.7955, 16.23706
207.2776, 16.64230
207.7597, 16.98022
208.2419, 17.00654
208.7240, 16.92632
209.2061, 16.93953
209.6882, 17.12987
210.1703, 17.39935
210.6524, 17.57979
211.1346, 17.64410
211.6167, 17.68270
212.0988, 17.72184
212.5809, 17.75328
213.0630, 17.74167
213.5451, 17.65722
214.0273, 17.58643
214.5094, 17.75130
214.9915, 18.32919
215.4736, 18.82822
215.9557, 19.06739
216.4378, 19.22997
216.9200, 19.50388
217.4021, 19.97241
217.8842, 20.57591
218.3663, 21.14039
218.8484, 21.60076
219.3305, 22.11779
219.8127, 22.69544
220.2948, 23.34030
220.7769, 24.04547
221.2590, 24.80771
221.7411, 25.65336
222.2232, 26.66004
222.7054, 27.86250
223.1875, 29.21611
223.6696, 30.56591
224.1517, 32.11615
224.6338, 34.05134
225.1159, 36.45750
225.5980, 39.35171
226.0802, 42.81054
226.5623, 46.60086
227.0444, 51.27530
227.5265, 56.97782
228.0086, 63.56662
228.4907, 70.87752
228.9729, 78.85390
229.4550, 87.36154
229.9371, 95.92479
230.4192, 103.3856
230.9013, 112.6412
231.3834, 123.3682
231.8656, 136.3140
232.3477, 152.3568
232.8298, 171.7209
233.3119, 194.7316
233.7940, 223.8369
234.2761, 262.1951
234.7583, 297.4433
235.2404, 335.1478
235.7225, 366.4277
236.2046, 374.3936
236.6867, 351.2384
237.1688, 308.0750
237.6510, 259.1500
238.1331, 202.2666
238.6152, 152.6615
239.0973, 116.3150
239.5794, 90.75838
240.0615, 71.65979
240.5437, 58.75794
241.0258, 50.15040
241.5079, 43.78715
241.9900, 39.52296
242.4721, 36.06371
242.9542, 32.91199
243.4364, 30.17435
243.9185, 28.22004
244.4006, 27.34855
244.8827, 26.88293
245.3648, 26.13265
245.8469, 25.14048
246.3290, 24.22559
246.8112, 23.61486
247.2933, 23.21078
247.7754, 22.67922
248.2575, 21.89654
248.7396, 21.12644
249.2217, 20.51510
249.7039, 20.06173
250.1860, 19.79794
250.6681, 19.85691
251.1502, 20.13984
251.6323, 20.25815
252.1144, 20.08065
252.5966, 19.92585
253.0787, 19.97236
253.5608, 20.17695
254.0429, 20.44251
254.5250, 20.64235
255.0071, 20.85499
255.4893, 21.41778
255.9714, 22.48516
256.4535, 23.67825
256.9356, 24.72611
257.4177, 25.76916
257.8998, 27.01351
258.3820, 28.47134
258.8641, 30.25185
259.3462, 32.73440
259.8283, 35.94957
260.3104, 39.92920
260.7925, 44.45296
261.2747, 49.67332
261.7568, 55.82285
262.2389, 63.12197
262.7210, 71.29166
263.2031, 80.15238
263.6852, 92.59707
264.1674, 100.3426
264.6495, 101.8817
265.1316, 98.47353
265.6137, 90.47938
266.0958, 77.84425
266.5779, 62.80696
267.0601, 50.60682
267.5422, 41.94114
268.0243, 35.31734
268.5064, 30.72536
268.9885, 27.53166
269.4706, 25.41909
269.9528, 24.23983
270.4349, 23.66194
270.9170, 23.06939
271.3991, 22.40342
271.8812, 21.85533
272.3633, 21.45028
272.8455, 21.13708
273.3276, 20.89847
273.8097, 20.72130
274.2918, 20.57626
274.7739, 20.40907
275.2560, 20.15675
275.7382, 20.02557
276.2202, 20.06452
276.7024, 20.15976
277.1845, 20.24246
277.6666, 20.30237
278.1487, 20.37064
278.6308, 20.49006
279.1129, 20.68509
279.5951, 20.84502
280.0772, 20.98775
280.5593, 21.08865
281.0414, 21.07282
281.5235, 20.98098
282.0056, 20.95714
282.4878, 21.14883
282.9699, 21.59108
283.4520, 22.01183
283.9341, 22.37236
284.4162, 22.75360
284.8983, 23.21143
285.3805, 23.72163
285.8626, 24.21053
286.3447, 24.61415
286.8268, 24.93380
287.3089, 25.34870
287.7910, 25.85411
288.2732, 26.44786
288.7553, 27.16922
289.2374, 27.97605
289.7195, 28.74947
290.2016, 29.39724
290.6837, 29.99438
291.1659, 31.00622
291.6480, 32.85786
292.1301, 34.61639
292.6122, 35.97274
293.0943, 37.18547
293.5764, 38.69067
294.0586, 40.70823
294.5407, 42.97114
295.0228, 44.76375
295.5049, 46.04810
295.9870, 46.85575
296.4691, 47.03804
296.9513, 46.80701
297.4334, 46.29662
297.9155, 45.56660
298.3976, 44.76353
298.8797, 44.11995
299.3618, 43.57354
299.8440, 43.37494
300.3261, 43.39564
300.8082, 43.83134
301.2903, 44.78629
301.7724, 46.30210
302.2545, 48.44749
302.7367, 51.30627
303.2188, 54.91088
303.7009, 59.37489
304.1830, 64.35103
304.6651, 70.37150
305.1472, 77.56664
305.6294, 86.05669
306.1115, 96.12789
306.5936, 107.9881
307.0757, 121.7323
307.5578, 137.4059
308.0399, 154.6515
308.5221, 173.7607
309.0042, 195.7124
309.4863, 219.7289
309.9684, 244.6163
310.4505, 270.4034
310.9326, 295.7586
311.4148, 309.8680
311.8969, 314.3358
312.3790, 307.9735
312.8611, 285.4239
313.3432, 252.7041
313.8253, 217.5933
314.3075, 183.3049
314.7896, 151.5013
315.2717, 126.5301
315.7538, 110.9963
316.2359, 98.57633
316.7180, 89.41895
317.2001, 82.88130
317.6823, 78.48608
318.1644, 76.04357
318.6465, 75.24383
319.1286, 75.63927
319.6107, 77.40934
320.0928, 80.29963
320.5750, 84.11945
321.0571, 89.14975
321.5392, 95.93891
322.0213, 104.3609
322.5034, 113.7250
322.9855, 123.6677
323.4677, 134.7509
323.9498, 141.8430
324.4319, 145.9518
324.9140, 145.9141
325.3961, 139.8036
325.8782, 128.8179
326.3604, 115.9214
326.8425, 102.8017
327.3246, 89.69949
327.8067, 79.20256
328.2888, 71.85986
328.7709, 66.05026
329.2531, 61.74864
329.7352, 58.68074
330.2173, 56.54603
330.6994, 55.22242
331.1815, 54.57905
331.6636, 54.26778
332.1458, 54.42409
332.6279, 54.77910
333.1100, 55.35363
333.5921, 56.10698
334.0742, 56.98857
334.5563, 57.98325
335.0385, 59.15383
335.5206, 60.58686
336.0027, 62.36043
336.4848, 64.24958
336.9669, 66.07215
337.4490, 68.14960
337.9312, 70.63920
338.4133, 73.58627
338.8954, 76.95968
339.3775, 80.68928
339.8596, 84.73935
340.3417, 89.75111
340.8239, 95.74104
341.3060, 102.4963
341.7881, 109.7460
342.2702, 117.7298
342.7523, 126.6986
343.2344, 136.6832
343.7166, 147.9633
344.1987, 161.8401
344.6808, 178.7502
345.1629, 198.2084
345.6450, 219.4507
346.1271, 243.4247
346.6093, 271.0648
347.0914, 302.5424
347.5735, 338.0726
348.0556, 377.6592
348.5377, 423.6683
349.0198, 470.1299
349.5020, 520.6241
349.9841, 568.9471
350.4662, 614.4758
350.9483, 654.6920
351.4304, 682.7362
351.9125, 690.9000
352.3947, 678.2726
352.8768, 651.4108
353.3589, 598.4869
353.8410, 543.3434
354.3231, 490.0999
354.8052, 441.2675
355.2874, 399.2181
355.7695, 365.6914
356.2516, 340.5614
356.7337, 322.4941
357.2158, 313.5181
357.6979, 309.8258
358.1800, 311.5515
358.6621, 317.3706
359.1443, 325.8090
359.6264, 336.3398
360.1085, 349.5805
360.5906, 366.3871
361.0727, 385.8828
361.5548, 411.6962
362.0370, 442.9095
362.5191, 480.8550
363.0012, 525.7350
363.4833, 578.2951
363.9654, 639.5404
364.4475, 711.0067
364.9297, 792.8773
365.4118, 881.8876
365.8939, 977.8322
366.3760, 1082.232
366.8581, 1199.466
367.3402, 1324.687
367.8224, 1450.940
368.3045, 1579.489
368.7866, 1700.988
369.2687, 1789.519
369.7508, 1847.036
370.2329, 1863.546
370.7151, 1828.307
371.1972, 1758.109
371.6793, 1662.980
372.1614, 1544.857
372.6435, 1413.437
373.1256, 1275.746
373.6078, 1130.688
374.0899, 998.4949
374.5720, 884.3416
375.0541, 785.0554
375.5362, 698.2570
376.0183, 623.2460
376.5005, 558.6586
376.9826, 504.8890
377.4647, 460.7993
377.9468, 421.9962
378.4289, 388.5940
378.9110, 359.8741
379.3932, 336.0705
379.8753, 316.2841
380.3574, 299.5228
380.8395, 286.5458
381.3216, 275.4539
381.8037, 264.8595
382.2859, 254.7962
382.7680, 242.7142
383.2501, 226.6263
383.7322, 208.3186
384.2143, 190.4280
384.6964, 172.8512
385.1786, 156.5694
385.6607, 142.1728
386.1428, 129.6469
386.6249, 119.0308
387.1070, 110.5974
387.5891, 103.4665
388.0713, 96.66176
388.5534, 90.17008
389.0355, 84.63835
389.5176, 80.56312
389.9997, 77.28056
390.4818, 74.15168
390.9640, 71.13490
391.4461, 68.54919
391.9282, 66.74740
392.4103, 65.55294
392.8924, 63.94874
393.3745, 61.48775
393.8567, 59.13993
394.3388, 57.40322
394.8209, 56.03566
395.3030, 54.54678
395.7851, 52.71544
396.2672, 50.83294
396.7494, 49.42268
397.2315, 48.76205
397.7136, 47.93458
398.1957, 46.76068
398.6778, 45.49184
399.1599, 44.25991
399.6420, 43.11546
400.1241, 42.16036
400.6063, 41.51238
401.0884, 41.18105
401.5705, 40.75322
402.0526, 40.22033
402.5347, 39.61715
403.0168, 38.86926
403.4990, 38.07447
403.9811, 37.38830
404.4632, 36.88810
404.9453, 36.52574
405.4274, 36.20306
405.9095, 36.05982
406.3917, 35.71014
406.8738, 34.95601
407.3559, 34.15199
407.8380, 33.58217
408.3201, 33.25533
408.8022, 32.94859
409.2844, 32.41172
409.7665, 31.62424
410.2486, 30.96749
410.7307, 30.53387
411.2128, 30.14184
411.6949, 29.73366
412.1771, 29.33219
412.6592, 28.98448
413.1413, 28.72030
413.6234, 28.49972
414.1055, 28.24142
414.5876, 27.94188
415.0698, 27.61047
415.5519, 27.16055
416.0340, 26.74084
416.5161, 26.48801
416.9982, 26.40658
417.4803, 26.34087
417.9625, 26.13846
418.4446, 25.82492
418.9267, 25.57909
419.4088, 25.45307
419.8909, 25.32496
420.3730, 25.12013
420.8552, 24.85795
421.3373, 24.56738
421.8194, 24.20187
422.3015, 23.87032
422.7836, 23.74636
423.2657, 23.82718
423.7479, 23.86560
424.2300, 23.73499
424.7121, 23.53540
425.1942, 23.40003
425.6763, 23.31349
426.1584, 23.35817
426.6406, 23.71008
427.1227, 24.17691
427.6048, 24.41433
428.0869, 24.35822
428.5690, 24.19008
429.0511, 24.05398
429.5333, 23.95241
430.0154, 23.86956
430.4975, 23.80393
430.9796, 23.75823
431.4617, 23.72262
431.9438, 23.70764
432.4260, 23.75440
432.9081, 23.89120
433.3902, 24.06433
433.8723, 24.14455
434.3544, 24.06254
434.8365, 23.99769
435.3187, 23.88540
435.8008, 23.83873
436.2829, 23.97974
436.7650, 24.30293
437.2471, 24.68857
437.7292, 25.02238
438.2114, 25.30270
438.6935, 25.64959
439.1756, 26.02860
439.6577, 26.51711
440.1398, 27.15693
440.6219, 27.90959
441.1040, 28.72043
441.5862, 29.56330
442.0683, 30.45810
442.5504, 31.40008
443.0325, 32.31536
443.5146, 33.51921
443.9967, 35.19175
444.4789, 37.03128
444.9610, 38.78352
445.4431, 40.52674
445.9252, 42.61285
446.4073, 45.28463
446.8894, 48.48291
447.3716, 52.04208
447.8537, 56.10075
448.3358, 60.16765
448.8179, 63.91056
449.3000, 67.61810
449.7821, 71.84763
450.2643, 76.94062
450.7464, 81.47523
451.2285, 84.49828
451.7106, 85.99075
452.1927, 85.64136
452.6748, 83.17648
453.1570, 79.29772
453.6391, 74.12879
454.1212, 67.95571
454.6033, 61.99356
455.0854, 56.38548
455.5675, 51.23724
456.0497, 46.59274
456.5318, 42.47719
457.0139, 38.92021
457.4960, 35.95917
457.9781, 33.54450
458.4602, 31.58309
458.9424, 30.09505
459.4245, 28.90685
459.9066, 28.21094
460.3887, 27.68309
460.8708, 26.94448
461.3529, 25.96529
461.8351, 25.03644
462.3172, 24.43731
462.7993, 24.18283
463.2814, 23.90611
463.7635, 23.51907
464.2456, 23.21176
464.7278, 23.05889
465.2099, 23.00346
465.6920, 22.97110
466.1741, 22.93173
466.6562, 22.89520
467.1383, 22.87153
467.6205, 22.84637
468.1026, 22.87947
468.5847, 22.97717
469.0668, 23.13134
469.5489, 23.38675
470.0310, 23.70108
470.5132, 23.96593
470.9953, 24.10122
471.4774, 24.15637
471.9595, 24.26035
472.4416, 24.42711
472.9237, 24.59084
473.4059, 24.73465
473.8880, 24.85994
474.3701, 24.91830
474.8522, 24.89648
475.3343, 25.01114
475.8164, 25.38840
476.2986, 26.00677
476.7807, 26.90080
477.2628, 28.13330
477.7449, 29.29581
478.2270, 29.98625
478.7091, 30.34047
479.1913, 30.93792
479.6734, 31.83549
480.1555, 32.94811
480.6376, 34.29049
481.1197, 35.81074
481.6018, 37.39756
482.0839, 39.01246
482.5660, 40.70234
483.0482, 42.51291
483.5303, 44.37410
484.0124, 46.69450
484.4945, 49.49252
484.9766, 52.69081
485.4587, 56.08149
485.9409, 59.85729
486.4230, 64.45843
486.9051, 70.16291
487.3872, 76.78095
487.8693, 83.70776
488.3514, 91.00111
488.8336, 98.63901
489.3157, 106.6357
489.7978, 114.8887
490.2799, 123.7587
490.7620, 132.9405
491.2441, 141.3634
491.7263, 148.5432
492.2084, 154.2072
492.6905, 156.9858
493.1726, 156.6599
493.6547, 153.9509
494.1368, 148.1808
494.6190, 140.6525
495.1011, 132.2378
495.5832, 122.9655
496.0653, 113.8676
496.5474, 105.6296
497.0295, 98.23742
497.5117, 91.67940
497.9938, 85.91927
498.4759, 81.12516
498.9580, 77.54011
499.4401, 75.08919
499.9222, 73.15650
500.4044, 71.64915
500.8865, 70.70262
501.3686, 70.39026
501.8507, 70.68076
502.3328, 71.47584
502.8149, 72.73743
503.2971, 74.56908
503.7792, 77.05595
504.2613, 80.10495
504.7434, 84.44950
505.2255, 90.30495
505.7076, 97.07887
506.1898, 104.0572
506.6719, 111.7940
507.1540, 121.1628
507.6361, 132.5917
508.1182, 146.3094
508.6003, 162.6355
509.0825, 181.3358
509.5646, 203.3755
510.0467, 228.7317
510.5288, 257.4827
511.0109, 290.5761
511.4930, 327.4568
511.9752, 366.4226
512.4573, 407.3614
512.9394, 449.1278
513.4215, 490.8637
513.9036, 533.9472
514.3857, 569.5970
514.8679, 597.3322
515.3500, 613.0053
515.8321, 612.8846
516.3142, 596.3763
516.7963, 568.8104
517.2784, 527.1442
517.7606, 478.1230
518.2427, 429.3686
518.7248, 381.8855
519.2069, 337.6801
519.6890, 298.0102
520.1711, 262.6131
520.6533, 231.7971
521.1354, 205.4774
521.6175, 182.7496
522.0996, 164.3249
522.5817, 149.0142
523.0638, 136.1969
523.5460, 125.5722
524.0281, 116.4349
524.5102, 108.2304
524.9923, 100.9789
525.4744, 94.48377
525.9565, 89.01237
526.4387, 84.09645
526.9208, 79.69905
527.4029, 75.72086
527.8850, 72.07478
528.3671, 68.73804
528.8492, 65.77083
529.3314, 63.28269
529.8135, 61.25238
530.2956, 59.43649
530.7777, 57.84499
531.2598, 56.43480
531.7419, 55.30834
532.2241, 54.32158
532.7062, 53.19429
533.1883, 51.73790
533.6704, 50.42365
534.1525, 49.67533
534.6346, 49.29600
535.1168, 48.77635
535.5989, 47.98498
536.0810, 47.23526
536.5631, 46.88716
537.0452, 46.96361
537.5273, 46.82058
538.0095, 46.28767
538.4916, 45.74613
538.9737, 45.25645
539.4558, 44.87156
539.9379, 44.67113
540.4200, 44.67591
540.9022, 44.81144
541.3843, 44.97118
541.8664, 45.13802
542.3485, 45.42561
542.8306, 45.76963
543.3127, 46.31997
543.7948, 47.19641
544.2769, 48.28758
544.7590, 49.42657
545.2411, 50.55426
545.7233, 51.71577
546.2054, 52.77332
546.6875, 53.78170
547.1696, 55.58292
547.6517, 58.58421
548.1339, 61.85627
548.6160, 64.60964
549.0981, 67.00156
549.5802, 69.50117
550.0623, 72.29778
550.5444, 75.09706
551.0266, 78.02396
551.5087, 80.79356
551.9908, 82.88337
552.4729, 84.15328
552.9550, 84.36101
553.4371, 83.15466
553.9193, 80.37772
554.4014, 76.96384
554.8835, 72.67255
555.3656, 68.11549
555.8477, 63.17630
556.3298, 58.19389
556.8120, 53.63249
557.2941, 49.64458
557.7762, 46.22369
558.2583, 43.34638
558.7404, 41.03855
559.2225, 39.20411
559.7047, 38.18635
560.1868, 37.22525
560.6689, 35.90699
561.1510, 34.41220
561.6331, 33.00490
562.1152, 31.72197
562.5974, 30.67984
563.0795, 30.13821
563.5616, 29.94864
564.0437, 29.50144
564.5258, 28.60182
565.0079, 27.77471
565.4901, 27.54620
565.9722, 27.89789
566.4543, 28.10693
566.9364, 28.02951
567.4185, 27.97536
567.9006, 28.06463
568.3828, 28.24801
568.8649, 28.47481
569.3470, 28.72214
569.8291, 28.94078
570.3112, 29.02291
570.7933, 28.93845
571.2755, 29.28367
571.7576, 30.52516
572.2397, 31.62137
572.7218, 32.12009
573.2039, 32.45189
573.6860, 33.17159
574.1682, 34.40924
574.6503, 35.67736
575.1324, 36.74537
575.6145, 37.49852
576.0966, 37.29132
576.5787, 35.89413
577.0609, 34.28001
577.5430, 32.96909
578.0251, 31.88149
578.5072, 30.81949
578.9893, 29.80904
579.4714, 28.75733
579.9536, 27.57396
580.4357, 26.35983
580.9178, 25.15701
581.3999, 24.01273
581.8820, 23.09723
582.3641, 22.55096
582.8463, 22.33769
583.3284, 22.24721
583.8105, 22.48579
584.2926, 22.54368
584.7747, 22.23667
585.2568, 21.85578
585.7390, 21.62939
586.2211, 21.55615
586.7032, 21.48822
587.1853, 21.31811
587.6674, 21.07951
588.1495, 20.85198
588.6317, 20.62772
589.1138, 20.46368
589.5959, 20.39536
