##NAMES=Andradite
##RRUFFID=R050256
##IDEAL CHEMISTRY=Ca_3_Fe^3+^_2_(SiO_4_)_3_
##LOCALITY=Franklin, Sussex County, New Jersey, USA
##OWNER=RRUFF
##SOURCE=Marcus Origlieri
##DESCRIPTION=Reddish brown fragments
##STATUS=The identification of this mineral has been confirmed by X-ray diffraction and chemical analysis
##URL=rruff.info/R050256
##MEASURED CHEMISTRY=(Ca_2.27_Mn_0.73_)_Σ=3_(Fe^3+^_1.35_Al_0.65_)_Σ=2_(Si_1.00_O_4_)_3_
92.67285, 71.06892
93.15497, 71.24826
93.63708, 71.42018
94.11920, 72.55818
94.60132, 73.85874
95.08344, 75.09866
95.56555, 75.36517
96.04767, 75.15826
96.52979, 75.11559
97.01190, 74.99435
97.49402, 74.40816
97.97614, 73.29994
98.45825, 72.24449
98.94037, 71.36430
99.42249, 70.49876
99.90460, 69.46821
100.3867, 68.36872
100.8688, 67.39143
101.3510, 66.71675
101.8331, 66.38684
102.3152, 66.13494
102.7973, 65.72832
103.2794, 65.14594
103.7615, 64.68251
104.2437, 64.53371
104.7258, 64.52777
105.2079, 64.56416
105.6900, 64.63177
106.1721, 64.68531
106.6542, 64.61951
107.1364, 64.37486
107.6185, 64.05212
108.1006, 63.63424
108.5827, 63.17472
109.0648, 62.74021
109.5469, 62.37114
110.0291, 62.06465
110.5112, 61.79982
110.9933, 61.64382
111.4754, 61.45933
111.9575, 61.10007
112.4396, 60.64604
112.9218, 60.34085
113.4039, 60.45913
113.8860, 61.15081
114.3681, 61.49645
114.8502, 61.26403
115.3323, 60.87142
115.8144, 60.63083
116.2966, 60.60320
116.7787, 60.66091
117.2608, 60.62893
117.7429, 60.49928
118.2250, 60.42738
118.7071, 60.53473
119.1893, 60.72253
119.6714, 60.75432
120.1535, 60.49043
120.6356, 60.16914
121.1177, 60.04267
121.5998, 60.10908
122.0820, 60.26151
122.5641, 60.46248
123.0462, 60.71805
123.5283, 60.89899
124.0104, 60.81927
124.4925, 60.74598
124.9747, 60.89266
125.4568, 61.30342
125.9389, 61.76519
126.4210, 61.89095
126.9031, 61.38426
127.3852, 61.14981
127.8674, 61.46913
128.3495, 61.97398
128.8316, 62.34649
129.3137, 62.43992
129.7958, 62.32515
130.2780, 62.25365
130.7601, 62.29160
131.2422, 62.30385
131.7243, 62.24959
132.2064, 62.16293
132.6885, 62.09257
133.1707, 62.06536
133.6528, 62.08455
134.1349, 62.17159
134.6170, 62.35904
135.0991, 62.56720
135.5812, 62.81169
136.0633, 63.07016
136.5455, 63.22441
137.0276, 63.12477
137.5097, 62.82780
137.9918, 62.68211
138.4739, 62.82010
138.9560, 63.06106
139.4382, 63.20436
139.9203, 63.21989
140.4024, 63.23668
140.8845, 63.36987
141.3666, 63.57335
141.8487, 63.77192
142.3309, 63.96847
142.8130, 64.13945
143.2951, 64.18324
143.7772, 63.96617
144.2593, 63.80977
144.7414, 63.85685
145.2236, 64.07882
145.7057, 64.40363
146.1878, 64.84644
146.6699, 65.42869
147.1520, 65.76671
147.6341, 65.53472
148.1163, 65.31737
148.5984, 65.34814
149.0805, 65.60934
149.5626, 65.92836
150.0447, 66.09753
150.5268, 66.00300
151.0090, 66.11895
151.4911, 66.64141
151.9732, 67.18307
152.4553, 67.45454
152.9374, 67.42393
153.4195, 67.32259
153.9017, 67.49728
154.3838, 68.19072
154.8659, 68.69597
155.3480, 68.93288
155.8301, 69.01849
156.3122, 69.01951
156.7944, 68.94192
157.2765, 68.90215
157.7586, 69.16648
158.2407, 69.79941
158.7228, 70.39492
159.2049, 70.76758
159.6871, 71.02035
160.1692, 71.39932
160.6513, 72.02330
161.1334, 72.75786
161.6155, 73.39440
162.0976, 73.92421
162.5798, 74.42020
163.0619, 74.94640
163.5440, 75.49589
164.0261, 75.96172
164.5082, 76.21943
164.9903, 76.43652
165.4725, 76.79381
165.9546, 77.32982
166.4367, 77.86301
166.9188, 78.15666
167.4009, 78.15380
167.8830, 78.14754
168.3652, 78.25168
168.8473, 78.35497
169.3294, 78.37978
169.8115, 78.30103
170.2936, 78.14319
170.7757, 77.92404
171.2579, 77.49841
171.7400, 77.29799
172.2221, 77.49228
172.7042, 77.84216
173.1863, 78.15118
173.6684, 78.33205
174.1506, 78.39404
174.6327, 78.36337
175.1148, 78.03989
175.5969, 77.85056
176.0790, 77.89894
176.5611, 78.07976
177.0433, 78.27844
177.5254, 78.44077
178.0075, 78.55276
178.4896, 78.53462
178.9717, 78.35699
179.4538, 78.10328
179.9360, 77.72945
180.4181, 77.29121
180.9002, 76.91736
181.3823, 76.70659
181.8644, 76.60078
182.3465, 76.32523
182.8287, 75.66698
183.3108, 75.07252
183.7929, 74.78967
184.2750, 74.77507
184.7571, 74.81136
185.2392, 74.82835
185.7214, 74.77615
186.2035, 74.55900
186.6856, 74.05013
187.1677, 73.49557
187.6498, 73.08111
188.1319, 72.80634
188.6141, 72.64636
189.0962, 72.61855
189.5783, 72.69653
190.0604, 72.87775
190.5425, 73.27217
191.0246, 73.64824
191.5068, 73.58119
191.9889, 72.87656
192.4710, 72.38821
192.9531, 72.78602
193.4352, 73.49915
193.9173, 73.89219
194.3995, 73.62904
194.8816, 73.03297
195.3637, 72.87933
195.8458, 73.44827
196.3279, 73.96061
196.8100, 74.19601
197.2922, 74.25825
197.7743, 74.23544
198.2564, 74.15222
198.7385, 74.05491
199.2206, 74.12668
199.7027, 74.49487
200.1849, 74.88448
200.6670, 75.24535
201.1491, 75.59081
201.6312, 75.95796
202.1133, 76.37388
202.5954, 76.81052
203.0776, 77.09764
203.5597, 76.88665
204.0418, 76.89143
204.5239, 77.34904
205.0060, 78.08413
205.4881, 78.81102
205.9703, 79.35319
206.4524, 79.73763
206.9345, 80.17385
207.4166, 80.68364
207.8987, 81.21547
208.3808, 81.80946
208.8630, 82.41520
209.3451, 82.91439
209.8272, 83.21317
210.3093, 83.35134
210.7914, 83.64339
211.2735, 84.07874
211.7557, 84.63640
212.2378, 85.37716
212.7199, 86.24801
213.2020, 87.09423
213.6841, 87.81948
214.1662, 88.45033
214.6484, 89.12558
215.1305, 89.87318
215.6126, 90.63511
216.0947, 91.41026
216.5768, 92.18917
217.0589, 92.89420
217.5410, 93.45475
218.0232, 93.91938
218.5053, 94.41824
218.9874, 94.93551
219.4695, 95.51733
219.9516, 96.29133
220.4337, 97.25102
220.9159, 98.03381
221.3980, 98.28783
221.8801, 98.34184
222.3622, 98.67754
222.8443, 99.44344
223.3264, 100.3430
223.8086, 101.0281
224.2907, 101.4647
224.7728, 102.0189
225.2549, 103.0405
225.7370, 104.1573
226.2191, 105.0130
226.7013, 105.4888
227.1834, 105.8165
227.6655, 106.2691
228.1476, 106.8590
228.6297, 107.5222
229.1118, 108.3856
229.5940, 109.2295
230.0761, 109.8863
230.5582, 110.3002
231.0403, 110.5682
231.5224, 110.8675
232.0045, 111.3016
232.4867, 111.4431
232.9688, 111.0572
233.4509, 110.4744
233.9330, 109.9233
234.4151, 109.4683
234.8972, 109.0162
235.3794, 108.4297
235.8615, 107.7130
236.3436, 106.8252
236.8257, 105.6532
237.3078, 104.4117
237.7899, 103.2795
238.2721, 102.2867
238.7542, 101.3004
239.2363, 100.0942
239.7184, 98.52648
240.2005, 96.99895
240.6826, 95.37714
241.1648, 93.88431
241.6469, 92.74346
242.1290, 91.98341
242.6111, 91.41914
243.0932, 90.78686
243.5753, 90.06456
244.0575, 89.30291
244.5396, 88.39000
245.0217, 87.51924
245.5038, 86.84505
245.9859, 86.38651
246.4680, 86.04725
246.9502, 85.69810
247.4323, 85.33626
247.9144, 84.97179
248.3965, 84.62354
248.8786, 84.26010
249.3607, 83.83101
249.8429, 83.33993
250.3250, 82.86826
250.8071, 82.51991
251.2892, 82.35056
251.7713, 82.11497
252.2534, 81.71277
252.7356, 81.31881
253.2177, 81.08814
253.6998, 81.02797
254.1819, 80.99951
254.6640, 80.86147
255.1461, 80.59055
255.6283, 80.35448
256.1104, 80.17357
256.5925, 80.01403
257.0746, 79.84401
257.5567, 79.66360
258.0388, 79.50411
258.5210, 79.38583
259.0031, 79.31726
259.4852, 79.30702
259.9673, 79.44028
260.4494, 79.56895
260.9315, 79.55837
261.4137, 79.41331
261.8958, 79.27966
262.3779, 79.30362
262.8600, 79.42858
263.3421, 79.35001
263.8242, 78.77958
264.3064, 78.22456
264.7885, 78.10021
265.2706, 78.37585
265.7527, 78.72169
266.2348, 79.03392
266.7169, 79.23002
267.1991, 79.14490
267.6812, 78.56467
268.1633, 77.95582
268.6454, 77.67612
269.1275, 77.69914
269.6096, 77.74836
270.0918, 77.69352
270.5739, 77.59623
271.0560, 77.55931
271.5381, 77.57993
272.0202, 77.67338
272.5023, 77.93137
272.9845, 78.31931
273.4666, 78.55614
273.9487, 78.51139
274.4308, 78.28570
274.9129, 77.99211
275.3951, 77.60572
275.8772, 77.32130
276.3593, 77.31370
276.8414, 77.54603
277.3235, 77.80482
277.8056, 78.13707
278.2878, 78.35093
278.7699, 78.18288
279.2520, 77.64919
279.7341, 77.25018
280.2162, 77.40241
280.6983, 77.99343
281.1805, 78.46301
281.6626, 78.70655
282.1447, 78.84550
282.6268, 78.97231
283.1089, 79.08583
283.5910, 79.18088
284.0732, 79.22620
284.5553, 79.24548
285.0374, 79.32368
285.5195, 79.45634
286.0016, 79.66985
286.4837, 79.96059
286.9659, 80.33066
287.4480, 80.79725
287.9301, 81.42896
288.4122, 82.15030
288.8943, 82.75690
289.3764, 83.24678
289.8586, 83.62083
290.3407, 83.71719
290.8228, 83.75137
291.3049, 84.04326
291.7870, 84.78051
292.2691, 85.76197
292.7513, 86.62643
293.2334, 87.33646
293.7155, 88.01859
294.1976, 88.75023
294.6797, 89.46198
295.1618, 90.05882
295.6440, 90.48252
296.1261, 90.90090
296.6082, 91.58074
297.0903, 92.58437
297.5724, 93.59258
298.0545, 94.58421
298.5367, 95.52385
299.0188, 96.41335
299.5009, 97.25087
299.9830, 97.95409
300.4651, 98.33493
300.9472, 98.32047
301.4294, 98.57011
301.9115, 99.41124
302.3936, 100.3747
302.8757, 101.2586
303.3578, 102.0412
303.8399, 102.7518
304.3221, 103.4028
304.8042, 103.9918
305.2863, 104.5848
305.7684, 105.1510
306.2505, 105.7651
306.7326, 106.5294
307.2148, 107.3745
307.6969, 108.1129
308.1790, 108.5229
308.6611, 108.6956
309.1432, 109.2580
309.6253, 110.5492
310.1075, 111.7517
310.5896, 112.5731
311.0717, 113.1173
311.5538, 113.5097
312.0359, 113.7582
312.5180, 113.9684
313.0002, 114.5136
313.4823, 115.7612
313.9644, 116.5625
314.4465, 116.3599
314.9286, 115.7335
315.4107, 115.2204
315.8929, 115.0007
316.3750, 114.9621
316.8571, 114.9643
317.3392, 115.0597
317.8213, 115.0164
318.3034, 114.5751
318.7856, 114.1264
319.2677, 113.9581
319.7498, 114.1056
320.2319, 114.3544
320.7140, 114.4587
321.1961, 114.3931
321.6783, 114.3859
322.1604, 114.3436
322.6425, 114.4769
323.1246, 114.9688
323.6067, 115.7573
324.0888, 116.5929
324.5710, 117.2198
325.0531, 117.6634
325.5352, 118.4054
326.0173, 119.6995
326.4994, 120.9842
326.9815, 121.9373
327.4637, 122.7291
327.9458, 123.6752
328.4279, 124.9864
328.9100, 126.5473
329.3921, 127.9907
329.8742, 129.1983
330.3564, 130.5307
330.8385, 132.2226
331.3206, 134.0362
331.8027, 135.7039
332.2848, 137.1155
332.7669, 138.4415
333.2491, 140.0076
333.7312, 141.9433
334.2133, 143.6358
334.6954, 144.4221
335.1775, 145.2413
335.6596, 146.7693
336.1418, 149.1030
336.6239, 151.7384
337.1060, 154.1882
337.5881, 156.4316
338.0702, 158.8694
338.5523, 161.6835
339.0345, 164.5745
339.5165, 167.2510
339.9987, 169.8166
340.4808, 172.6178
340.9629, 176.0013
341.4450, 179.8638
341.9271, 183.4863
342.4092, 186.5935
342.8914, 189.9572
343.3735, 194.0058
343.8556, 198.5177
344.3377, 203.1340
344.8198, 207.6948
345.3019, 212.2997
345.7841, 217.1323
346.2662, 222.2069
346.7483, 227.4197
347.2304, 232.5084
347.7125, 237.8120
348.1946, 243.8159
348.6768, 250.7015
349.1589, 257.7602
349.6410, 264.1970
350.1231, 269.9951
350.6052, 276.1014
351.0873, 282.9606
351.5695, 289.9248
352.0516, 296.4114
352.5337, 302.4165
353.0158, 308.3964
353.4979, 314.7195
353.9800, 321.2329
354.4622, 327.3781
354.9443, 333.0490
355.4264, 338.5140
355.9085, 343.9125
356.3906, 349.2823
356.8727, 354.7512
357.3549, 360.4555
357.8370, 366.2296
358.3191, 371.7965
358.8012, 377.1250
359.2833, 382.5272
359.7654, 388.2238
360.2476, 394.0496
360.7297, 399.7079
361.2118, 405.1654
361.6939, 410.4101
362.1760, 415.3589
362.6581, 420.0476
363.1403, 424.6464
363.6224, 429.3212
364.1045, 433.7570
364.5866, 437.7722
365.0687, 441.4225
365.5508, 444.1671
366.0330, 445.8832
366.5151, 446.5114
366.9972, 446.1103
367.4793, 444.7900
367.9614, 441.8574
368.4435, 436.2508
368.9257, 428.2424
369.4078, 419.3553
369.8899, 409.9994
370.3720, 399.7266
370.8541, 388.1715
371.3362, 375.2849
371.8184, 361.2943
372.3005, 345.9268
372.7826, 329.6235
373.2647, 314.0298
373.7468, 298.9231
374.2289, 284.5592
374.7111, 271.0079
375.1932, 258.2346
375.6753, 245.9963
376.1574, 234.2592
376.6395, 223.1399
377.1216, 212.9223
377.6038, 203.7262
378.0859, 195.0191
378.5680, 186.7727
379.0501, 178.9736
379.5322, 171.6024
380.0143, 164.6769
380.4965, 158.3636
380.9786, 152.8784
381.4607, 148.2357
381.9428, 143.6958
382.4249, 139.0946
382.9070, 134.7396
383.3892, 130.7672
383.8713, 127.1413
384.3534, 123.8523
384.8355, 120.9196
385.3176, 118.2673
385.7997, 115.6866
386.2819, 113.2007
386.7640, 110.7776
387.2461, 108.4759
387.7282, 106.2246
388.2103, 103.9213
388.6924, 101.5598
389.1746, 99.23100
389.6567, 97.02327
390.1388, 94.90392
390.6209, 93.04440
391.1030, 91.47675
391.5851, 90.08879
392.0673, 88.97520
392.5494, 88.00283
393.0315, 86.87362
393.5136, 85.36349
393.9957, 83.54785
394.4778, 81.89555
394.9600, 80.41991
395.4421, 79.09490
395.9242, 77.94753
396.4063, 76.92455
396.8884, 75.96102
397.3705, 75.03789
397.8527, 74.18977
398.3348, 73.51712
398.8169, 73.11214
399.2990, 72.54672
399.7811, 71.50583
400.2632, 70.53873
400.7454, 70.00172
401.2275, 69.81144
401.7096, 69.59963
402.1917, 69.06332
402.6738, 68.26633
403.1559, 67.57169
403.6381, 66.98153
404.1202, 66.50517
404.6023, 66.16091
405.0844, 65.91006
405.5665, 65.72334
406.0486, 65.60859
406.5308, 65.49409
407.0129, 65.25501
407.4950, 64.87687
407.9771, 64.58329
408.4592, 64.56284
408.9413, 64.51842
409.4235, 64.11686
409.9056, 63.37724
410.3877, 62.75403
410.8698, 62.58242
411.3519, 62.71201
411.8340, 62.75250
412.3162, 62.65399
412.7983, 62.54200
413.2804, 62.55592
413.7625, 62.62038
414.2446, 62.55543
414.7267, 62.27008
415.2089, 61.91069
415.6910, 61.49873
416.1731, 61.07896
416.6552, 60.92577
417.1373, 61.22586
417.6194, 61.73875
418.1016, 62.02647
418.5837, 62.07884
419.0658, 62.04754
419.5479, 61.88491
420.0300, 61.70115
420.5121, 61.64488
420.9943, 61.73542
421.4764, 61.87531
421.9585, 61.98170
422.4406, 62.05291
422.9227, 62.13167
423.4048, 62.20840
423.8870, 62.30095
424.3691, 62.45109
424.8512, 62.61967
425.3333, 62.72131
425.8154, 62.71365
426.2975, 62.63894
426.7797, 62.59254
427.2618, 62.58543
427.7439, 62.59516
428.2260, 62.62693
428.7081, 62.67151
429.1902, 62.69422
429.6724, 62.71030
430.1545, 62.80645
430.6366, 63.09605
431.1187, 63.58735
431.6008, 63.85957
432.0829, 63.76055
432.5651, 63.58745
433.0472, 63.35443
433.5293, 63.09855
434.0114, 62.82884
434.4935, 62.54695
434.9756, 62.33502
435.4578, 62.40317
435.9399, 62.89609
436.4220, 63.19520
436.9041, 62.99957
437.3862, 62.76266
437.8683, 62.76617
438.3505, 62.98384
438.8326, 63.17556
439.3147, 63.09296
439.7968, 62.83139
440.2789, 62.83260
440.7610, 63.20821
441.2432, 63.59071
441.7253, 63.81441
442.2074, 63.93160
442.6895, 63.98621
443.1716, 63.97289
443.6537, 63.94146
444.1359, 63.96053
444.6180, 64.01347
445.1001, 63.98642
445.5822, 63.83202
446.0643, 63.61996
446.5464, 63.40132
447.0286, 63.17966
447.5107, 63.02676
447.9928, 63.00241
448.4749, 63.03154
448.9570, 63.04267
449.4391, 63.03213
449.9213, 63.01416
450.4034, 63.00567
450.8855, 62.99112
451.3676, 62.90883
451.8497, 62.71514
452.3318, 62.53329
452.8140, 62.38248
453.2961, 62.26525
453.7782, 62.19387
454.2603, 62.16912
454.7424, 62.16681
455.2245, 62.16271
455.7067, 62.16124
456.1888, 62.12807
456.6709, 61.98652
457.1530, 61.89690
457.6351, 62.01618
458.1172, 62.22203
458.5994, 62.27922
459.0815, 62.06131
459.5636, 61.66148
460.0457, 61.30914
460.5278, 61.01062
461.0099, 60.75180
461.4921, 60.53167
461.9742, 60.34210
462.4563, 60.17949
462.9384, 60.04251
463.4205, 59.93160
463.9026, 59.86382
464.3848, 59.82619
464.8669, 59.73120
465.3490, 59.56507
465.8311, 59.36562
466.3132, 59.01775
466.7953, 58.70029
467.2775, 58.64413
467.7596, 58.93014
468.2417, 59.36763
468.7238, 59.86025
469.2059, 60.38143
469.6880, 60.65493
470.1702, 60.48252
470.6523, 60.31993
471.1344, 60.70435
471.6165, 61.50158
472.0986, 62.16804
472.5807, 62.45166
473.0629, 62.63408
473.5450, 62.95604
474.0271, 63.41023
474.5092, 63.94205
474.9913, 64.54482
475.4734, 65.17950
475.9556, 65.74321
476.4377, 66.20292
476.9198, 66.69115
477.4019, 67.22258
477.8840, 67.79460
478.3661, 68.41939
478.8483, 69.09035
479.3304, 69.76238
479.8125, 70.41346
480.2946, 71.03653
480.7767, 71.57446
481.2589, 71.98513
481.7410, 72.35520
482.2231, 72.60934
482.7052, 72.87048
483.1873, 73.33443
483.6694, 74.03475
484.1516, 74.73158
484.6337, 75.05314
485.1158, 74.90002
485.5979, 74.97279
486.0800, 75.44868
486.5621, 75.97288
487.0443, 76.49575
487.5264, 76.95615
488.0085, 77.21986
488.4906, 77.16365
488.9727, 77.03450
489.4548, 77.26855
489.9370, 77.89315
490.4191, 78.42930
490.9012, 78.73933
491.3833, 78.91927
491.8654, 79.03312
492.3475, 79.09044
492.8297, 79.23092
493.3118, 79.69051
493.7939, 80.17065
494.2760, 80.20608
494.7581, 79.79853
495.2402, 79.39501
495.7224, 79.24756
496.2045, 79.27345
496.6866, 79.20955
497.1687, 78.95976
497.6508, 78.82542
498.1329, 78.94669
498.6151, 79.17927
499.0972, 79.39395
499.5793, 79.55871
500.0614, 79.65290
500.5435, 79.64291
501.0256, 79.53088
501.5078, 79.50778
501.9899, 79.60766
502.4720, 79.75669
502.9541, 79.89134
503.4362, 80.09124
503.9183, 80.45588
504.4004, 81.01223
504.8825, 81.68921
505.3647, 82.34792
505.8468, 82.94425
506.3289, 83.88448
506.8110, 85.38335
507.2931, 86.98703
507.7752, 88.52854
508.2574, 90.03260
508.7395, 91.50447
509.2216, 92.91537
509.7037, 94.38461
510.1858, 96.07070
510.6679, 97.96547
511.1501, 100.0003
511.6322, 102.1915
512.1143, 104.4630
512.5964, 106.6920
513.0786, 108.8921
513.5607, 111.2405
514.0428, 113.8592
514.5249, 116.5683
515.0070, 119.2441
515.4891, 121.8727
515.9713, 124.3428
516.4534, 126.5783
516.9355, 128.7238
517.4176, 131.0816
517.8997, 133.7438
518.3818, 136.4404
518.8640, 139.0786
519.3461, 141.8432
519.8282, 145.0073
520.3103, 148.4530
520.7924, 151.7854
521.2745, 154.7302
521.7567, 157.3529
522.2388, 159.8495
522.7209, 162.2713
523.2030, 164.4693
523.6851, 166.5096
524.1672, 168.2939
524.6494, 169.9079
525.1315, 171.2663
525.6136, 171.9566
526.0957, 171.7057
526.5778, 170.5388
527.0599, 168.4493
527.5421, 165.3350
528.0242, 161.6895
528.5063, 157.7345
528.9884, 153.3280
529.4705, 148.1852
529.9526, 142.1934
530.4348, 135.9823
530.9169, 129.7704
531.3990, 123.6147
531.8811, 117.5224
532.3632, 111.4752
532.8453, 105.8224
533.3275, 100.8585
533.8096, 96.53718
534.2917, 92.57439
534.7738, 88.97980
535.2559, 85.63179
535.7380, 82.42827
536.2202, 79.50792
536.7023, 77.05721
537.1844, 75.10927
537.6665, 73.50086
538.1486, 72.10242
538.6307, 70.91648
539.1129, 69.87700
539.5950, 69.08029
540.0771, 68.32020
540.5592, 67.56821
541.0413, 66.82201
541.5234, 66.05872
542.0056, 65.27672
542.4877, 64.55562
542.9698, 64.01272
543.4519, 63.62288
543.9340, 63.17572
544.4161, 62.58907
544.8983, 62.10828
545.3804, 61.95959
545.8625, 62.01941
546.3446, 62.07224
546.8267, 62.11042
547.3088, 62.09801
547.7910, 61.96058
548.2731, 61.76870
548.7552, 61.70357
549.2373, 61.80679
549.7194, 61.84761
550.2015, 61.55092
550.6837, 60.90185
551.1658, 60.57798
551.6479, 60.91598
552.1300, 61.12511
552.6121, 60.87526
553.0942, 60.42443
553.5764, 60.09013
554.0585, 59.96360
554.5406, 59.94806
555.0227, 59.95502
555.5048, 59.99224
555.9869, 59.91870
556.4691, 59.68965
556.9512, 59.40424
557.4333, 59.10919
557.9154, 58.78052
558.3975, 58.35718
558.8796, 57.80711
559.3618, 57.30148
559.8439, 57.07668
560.3260, 57.03833
560.8081, 56.81767
561.2902, 56.33788
561.7723, 55.79059
562.2545, 55.29271
562.7366, 54.84583
563.2187, 54.43064
563.7008, 54.11207
564.1829, 53.74370
564.6650, 53.22979
565.1472, 52.65166
565.6293, 52.06733
566.1114, 51.51001
566.5935, 51.10637
567.0756, 51.01854
567.5577, 51.24423
568.0399, 51.25349
568.5220, 50.92865
569.0041, 50.51133
569.4862, 49.83669
569.9683, 49.20055
570.4504, 48.96321
570.9326, 49.16349
571.4147, 49.45359
571.8968, 49.48058
572.3789, 49.29207
572.8610, 49.22802
573.3431, 49.36354
573.8253, 49.40275
574.3074, 49.05423
574.7895, 48.58796
575.2716, 48.40819
575.7537, 48.60445
576.2358, 48.82894
576.7180, 48.89979
577.2001, 48.90673
577.6822, 48.98741
578.1643, 49.14966
578.6464, 49.29962
579.1285, 49.37059
579.6107, 49.38065
580.0928, 49.40788
580.5749, 49.40484
581.0570, 49.48613
581.5391, 49.85097
582.0212, 50.15676
582.5034, 50.04403
582.9855, 49.58458
583.4676, 49.15881
583.9497, 49.03080
584.4318, 49.14920
584.9139, 49.41906
585.3961, 49.97832
585.8782, 50.20606
586.3602, 49.63948
586.8423, 48.92934
587.3245, 48.55830
587.8066, 48.52764
588.2887, 48.65581
588.7708, 48.99361
