##NAMES=Andradite
##RRUFFID=R070722
##IDEAL CHEMISTRY=Ca_3_Fe^3+^_2_(SiO_4_)_3_
##LOCALITY=Otjosondu, Namibia
##OWNER=RRUFF
##SOURCE=Royal Ontario Museum
##DESCRIPTION=Dark red-brown to orange semi-transparent druse of crystals associated with quartz.
##STATUS=The identification of this mineral is confirmed by single-crystal X-ray diffraction and chemical analysis.
##URL=rruff.info/R070722
##MEASURED CHEMISTRY=(Ca_1.77_Mn^2+^_1.27_Mg_0.02_)_Σ=3.06_(Fe^3+^_1.58_Al^3+^_0.38_Ti_0.01_)_Σ=1.97_(SiO_4_)_3_
80.11163, 0.0000000E+00
80.59375, 604.2974
81.07587, 604.1212
81.55798, 601.7978
82.04010, 597.4240
82.52222, 591.4656
83.00433, 580.4253
83.48645, 569.5983
83.96857, 563.0687
84.45068, 564.2719
84.93280, 568.1781
85.41492, 573.7720
85.89703, 581.4101
86.37915, 587.2829
86.86127, 589.1943
87.34338, 587.8706
87.82550, 584.6505
88.30762, 576.8702
88.78973, 568.8793
89.27185, 564.2338
89.75397, 561.6727
90.23608, 565.6905
90.71819, 588.5612
91.20031, 627.1160
91.68243, 658.2623
92.16454, 654.4136
92.64666, 628.3065
93.12878, 611.6052
93.61089, 625.2578
94.09301, 655.2827
94.57513, 667.9273
95.05724, 660.7200
95.53936, 645.7394
96.02148, 637.8836
96.50359, 636.9894
96.98571, 637.5822
97.46783, 632.7389
97.94994, 623.3218
98.43206, 628.2552
98.91418, 652.9588
99.39629, 691.3477
99.87841, 726.1279
100.3605, 757.5831
100.8426, 783.7297
101.3248, 798.4597
101.8069, 796.0645
102.2890, 804.6270
102.7711, 834.5875
103.2532, 889.6827
103.7353, 932.2321
104.2175, 955.7633
104.6996, 971.6847
105.1817, 999.8820
105.6638, 1041.265
106.1459, 1093.416
106.6280, 1154.691
107.1102, 1220.266
107.5923, 1302.950
108.0744, 1410.784
108.5565, 1540.554
109.0386, 1660.952
109.5207, 1766.808
110.0029, 1867.136
110.4850, 1967.404
110.9671, 2059.815
111.4492, 2161.382
111.9313, 2276.409
112.4134, 2407.523
112.8956, 2543.185
113.3777, 2674.136
113.8598, 2809.774
114.3419, 2964.602
114.8240, 3155.476
115.3061, 3356.122
115.7883, 3551.142
116.2704, 3735.980
116.7525, 3926.284
117.2346, 4136.277
117.7167, 4358.743
118.1988, 4568.787
118.6810, 4742.536
119.1631, 4906.974
119.6452, 5085.186
120.1273, 5302.812
120.6094, 5524.701
121.0915, 5726.910
121.5737, 5909.195
122.0558, 6090.503
122.5379, 6300.277
123.0200, 6517.598
123.5021, 6704.724
123.9842, 6833.684
124.4664, 6926.763
124.9485, 7002.711
125.4306, 7055.910
125.9127, 7115.338
126.3948, 7222.451
126.8769, 7368.729
127.3591, 7513.819
127.8412, 7623.404
128.3233, 7710.475
128.8054, 7804.277
129.2875, 7911.220
129.7696, 8019.243
130.2518, 8105.785
130.7339, 8178.701
131.2160, 8254.235
131.6981, 8329.882
132.1802, 8404.226
132.6623, 8470.932
133.1445, 8516.309
133.6266, 8547.170
134.1087, 8613.704
134.5908, 8723.785
135.0729, 8849.517
135.5550, 8946.866
136.0372, 9013.037
136.5193, 9067.852
137.0014, 9113.420
137.4835, 9146.192
137.9656, 9208.386
138.4477, 9315.727
138.9299, 9449.513
139.4120, 9548.707
139.8941, 9612.185
140.3762, 9645.725
140.8583, 9646.651
141.3404, 9598.962
141.8225, 9570.237
142.3047, 9576.373
142.7868, 9618.320
143.2689, 9658.277
143.7510, 9695.501
144.2331, 9731.536
144.7152, 9768.385
145.1974, 9808.512
145.6795, 9846.468
146.1616, 9881.613
146.6437, 9915.091
147.1258, 9941.884
147.6079, 9955.280
148.0901, 9962.145
148.5722, 9980.804
149.0543, 10029.51
149.5364, 10073.82
150.0185, 10098.15
150.5006, 10054.18
150.9828, 10046.95
151.4649, 10099.79
151.9470, 10205.85
152.4291, 10287.64
152.9112, 10322.12
153.3933, 10341.84
153.8755, 10370.14
154.3576, 10432.46
154.8397, 10480.21
155.3218, 10493.96
155.8039, 10465.47
156.2860, 10455.47
156.7682, 10483.98
157.2503, 10533.96
157.7324, 10584.69
158.2145, 10645.75
158.6966, 10695.12
159.1787, 10720.14
159.6609, 10706.43
160.1430, 10698.09
160.6251, 10710.44
161.1072, 10738.21
161.5893, 10769.46
162.0714, 10810.62
162.5536, 10847.98
163.0357, 10872.26
163.5178, 10877.68
163.9999, 10874.22
164.4820, 10866.94
164.9641, 10855.32
165.4463, 10835.30
165.9284, 10778.46
166.4105, 10720.62
166.8926, 10700.41
167.3747, 10768.39
167.8568, 10852.42
168.3390, 10904.08
168.8211, 10919.40
169.3032, 10926.53
169.7853, 10941.04
170.2674, 10959.64
170.7495, 10976.73
171.2317, 10988.96
171.7138, 10998.83
172.1959, 11007.94
172.6780, 11015.72
173.1601, 11025.85
173.6422, 11048.95
174.1244, 11079.44
174.6065, 11098.42
175.0886, 11082.18
175.5707, 11050.88
176.0528, 11032.59
176.5349, 11030.83
177.0171, 11047.33
177.4992, 11101.34
177.9813, 11186.62
178.4634, 11254.69
178.9455, 11246.62
179.4276, 11192.00
179.9098, 11159.54
180.3919, 11182.68
180.8740, 11233.49
181.3561, 11269.16
181.8382, 11289.11
182.3203, 11297.18
182.8025, 11290.60
183.2846, 11273.20
183.7667, 11259.88
184.2488, 11257.24
184.7309, 11263.98
185.2130, 11268.92
185.6951, 11266.51
186.1773, 11284.83
186.6594, 11403.50
187.1415, 11608.49
187.6236, 11750.76
188.1057, 11708.04
188.5878, 11520.90
189.0700, 11381.58
189.5521, 11312.88
190.0342, 11293.28
190.5163, 11292.04
190.9984, 11309.20
191.4805, 11332.73
191.9627, 11351.49
192.4448, 11366.35
192.9269, 11393.36
193.4090, 11440.74
193.8911, 11498.45
194.3732, 11533.20
194.8554, 11541.89
195.3375, 11547.53
195.8196, 11581.63
196.3017, 11645.69
196.7838, 11680.36
197.2659, 11656.98
197.7481, 11588.36
198.2302, 11563.05
198.7123, 11590.02
199.1944, 11635.65
199.6765, 11660.13
200.1586, 11661.54
200.6408, 11659.70
201.1229, 11658.66
201.6050, 11658.27
202.0871, 11668.65
202.5692, 11692.68
203.0513, 11722.57
203.5335, 11743.86
204.0156, 11753.62
204.4977, 11765.86
204.9798, 11784.07
205.4619, 11806.38
205.9440, 11848.73
206.4262, 11921.57
206.9083, 12006.93
207.3904, 12054.81
207.8725, 12052.90
208.3546, 12046.49
208.8367, 12067.08
209.3189, 12126.31
209.8010, 12161.19
210.2831, 12157.04
210.7652, 12125.89
211.2473, 12122.80
211.7294, 12156.76
212.2116, 12201.80
212.6937, 12237.09
213.1758, 12258.19
213.6579, 12287.14
214.1400, 12330.83
214.6221, 12388.36
215.1043, 12439.05
215.5864, 12484.75
216.0685, 12522.80
216.5506, 12544.86
217.0327, 12536.95
217.5148, 12549.80
217.9970, 12596.58
218.4791, 12677.97
218.9612, 12774.04
219.4433, 12894.17
219.9254, 13017.51
220.4075, 13117.13
220.8897, 13188.91
221.3718, 13242.17
221.8539, 13274.18
222.3360, 13278.94
222.8181, 13290.78
223.3002, 13307.94
223.7824, 13332.97
224.2645, 13373.75
224.7466, 13447.01
225.2287, 13508.12
225.7108, 13536.25
226.1929, 13513.74
226.6750, 13509.63
227.1572, 13535.83
227.6393, 13577.26
228.1214, 13593.95
228.6035, 13575.42
229.0856, 13547.77
229.5677, 13524.24
230.0499, 13512.02
230.5320, 13487.17
231.0141, 13442.07
231.4962, 13383.35
231.9783, 13339.51
232.4604, 13324.43
232.9426, 13306.66
233.4247, 13265.11
233.9068, 13186.25
234.3889, 13112.63
234.8710, 13048.10
235.3531, 12991.88
235.8353, 12942.36
236.3174, 12903.99
236.7995, 12867.66
237.2816, 12826.81
237.7637, 12780.83
238.2458, 12731.94
238.7280, 12680.73
239.2101, 12627.22
239.6922, 12567.48
240.1743, 12488.02
240.6564, 12415.55
241.1385, 12378.03
241.6207, 12398.89
242.1028, 12411.66
242.5849, 12399.51
243.0670, 12359.22
243.5491, 12333.99
244.0313, 12327.72
244.5134, 12333.21
244.9955, 12345.55
245.4776, 12380.72
245.9597, 12394.33
246.4418, 12366.89
246.9240, 12285.88
247.4061, 12238.81
247.8882, 12242.27
248.3703, 12268.23
248.8524, 12274.76
249.3345, 12246.55
249.8167, 12225.63
250.2988, 12229.26
250.7809, 12269.88
251.2630, 12283.50
251.7451, 12256.53
252.2272, 12210.26
252.7094, 12183.90
253.1915, 12187.53
253.6736, 12193.45
254.1557, 12191.64
254.6378, 12179.59
255.1199, 12166.79
255.6021, 12150.15
256.0842, 12134.36
256.5663, 12133.09
257.0484, 12160.20
257.5305, 12177.86
258.0126, 12162.96
258.4948, 12090.32
258.9769, 12058.81
259.4590, 12084.83
259.9411, 12147.14
260.4232, 12188.79
260.9053, 12205.00
261.3875, 12209.72
261.8696, 12205.45
262.3517, 12182.64
262.8338, 12184.90
263.3159, 12229.15
263.7980, 12296.40
264.2802, 12316.18
264.7623, 12269.58
265.2444, 12213.20
265.7265, 12175.53
266.2086, 12154.55
266.6907, 12163.45
267.1729, 12213.00
267.6550, 12290.84
268.1371, 12353.86
268.6192, 12402.25
269.1013, 12433.38
269.5834, 12440.21
270.0656, 12416.29
270.5477, 12397.93
271.0298, 12391.50
271.5119, 12393.76
271.9940, 12389.77
272.4761, 12377.37
272.9583, 12364.84
273.4404, 12360.11
273.9225, 12365.75
274.4046, 12364.25
274.8867, 12346.20
275.3688, 12320.04
275.8510, 12329.47
276.3331, 12384.10
276.8152, 12445.71
277.2973, 12479.89
277.7794, 12483.35
278.2615, 12491.89
278.7437, 12515.39
279.2258, 12548.81
279.7079, 12567.27
280.1900, 12567.91
280.6721, 12564.97
281.1542, 12571.99
281.6364, 12589.55
282.1185, 12605.89
282.6006, 12618.06
283.0827, 12627.41
283.5648, 12638.42
284.0469, 12650.85
284.5291, 12666.56
285.0112, 12684.93
285.4933, 12706.17
285.9754, 12739.36
286.4575, 12790.94
286.9396, 12854.56
287.4217, 12908.29
287.9038, 12951.40
288.3860, 12987.98
288.8681, 13015.57
289.3502, 13035.89
289.8323, 13069.22
290.3144, 13123.24
290.7965, 13193.00
291.2787, 13272.15
291.7608, 13362.87
292.2429, 13441.09
292.7250, 13472.74
293.2071, 13467.81
293.6892, 13475.61
294.1714, 13515.04
294.6535, 13576.29
295.1356, 13640.78
295.6177, 13709.19
296.0998, 13778.95
296.5819, 13846.98
297.0641, 13915.35
297.5462, 13988.93
298.0283, 14069.24
298.5104, 14155.82
298.9925, 14260.18
299.4746, 14383.01
299.9568, 14485.08
300.4389, 14509.30
300.9210, 14486.04
301.4031, 14486.99
301.8852, 14549.49
302.3673, 14642.11
302.8495, 14731.31
303.3316, 14815.97
303.8137, 14892.13
304.2958, 14952.89
304.7779, 15002.36
305.2600, 15046.84
305.7422, 15090.96
306.2243, 15129.64
306.7064, 15151.03
307.1885, 15156.55
307.6706, 15170.61
308.1527, 15233.92
308.6349, 15311.71
309.1170, 15354.61
309.5991, 15308.50
310.0812, 15248.08
310.5633, 15234.56
311.0454, 15265.14
311.5276, 15290.68
312.0097, 15281.03
312.4918, 15250.84
312.9739, 15216.18
313.4560, 15183.60
313.9381, 15147.49
314.4203, 15097.02
314.9024, 15033.90
315.3845, 14988.23
315.8666, 14988.92
316.3487, 15007.20
316.8308, 15015.88
317.3130, 14993.42
317.7951, 14972.00
318.2772, 14962.24
318.7593, 14963.98
319.2414, 14975.40
319.7235, 15007.21
320.2057, 15042.72
320.6878, 15068.76
321.1699, 15074.65
321.6520, 15078.90
322.1341, 15075.02
322.6162, 15066.63
323.0984, 15089.18
323.5805, 15181.06
324.0626, 15287.98
324.5447, 15373.34
325.0268, 15409.91
325.5089, 15449.69
325.9911, 15502.41
326.4732, 15566.19
326.9553, 15625.56
327.4374, 15664.35
327.9195, 15708.03
328.4016, 15771.85
328.8838, 15888.42
329.3659, 15983.06
329.8480, 16042.08
330.3301, 16071.11
330.8122, 16108.18
331.2943, 16154.45
331.7765, 16207.43
332.2586, 16267.82
332.7407, 16350.70
333.2228, 16412.65
333.7049, 16440.07
334.1870, 16444.74
334.6692, 16477.30
335.1513, 16552.85
335.6334, 16633.36
336.1155, 16694.15
336.5976, 16723.72
337.0797, 16773.34
337.5619, 16851.79
338.0440, 16949.18
338.5261, 17037.64
339.0082, 17118.90
339.4903, 17184.85
339.9724, 17219.47
340.4546, 17215.70
340.9367, 17244.24
341.4188, 17311.76
341.9009, 17410.20
342.3830, 17528.19
342.8651, 17666.95
343.3473, 17811.71
343.8294, 17952.52
344.3115, 18091.69
344.7936, 18236.39
345.2757, 18387.55
345.7578, 18547.87
346.2400, 18722.88
346.7221, 18911.07
347.2042, 19118.52
347.6863, 19356.25
348.1684, 19617.08
348.6505, 19876.65
349.1327, 20133.14
349.6148, 20400.88
350.0969, 20698.83
350.5790, 21023.51
351.0611, 21363.01
351.5432, 21712.87
352.0254, 22070.97
352.5075, 22439.96
352.9896, 22818.02
353.4717, 23205.84
353.9538, 23587.38
354.4359, 23978.39
354.9181, 24399.13
355.4002, 24887.42
355.8823, 25392.96
356.3644, 25861.75
356.8465, 26293.04
357.3286, 26734.74
357.8108, 27215.93
358.2929, 27730.08
358.7750, 28277.88
359.2571, 28881.88
359.7392, 29500.84
360.2213, 30121.50
360.7035, 30742.25
361.1856, 31344.78
361.6677, 31943.41
362.1498, 32507.71
362.6319, 33018.23
363.1140, 33477.39
363.5962, 33872.98
364.0783, 34228.54
364.5604, 34531.62
365.0425, 34696.55
365.5246, 34651.60
366.0067, 34494.81
366.4889, 34287.92
366.9710, 34122.29
367.4531, 33809.25
367.9352, 33284.28
368.4173, 32584.25
368.8994, 31867.65
369.3815, 31161.17
369.8636, 30423.54
370.3458, 29643.12
370.8279, 28775.42
371.3100, 27928.13
371.7921, 27088.45
372.2742, 26267.11
372.7563, 25488.64
373.2385, 24767.47
373.7206, 24075.58
374.2027, 23407.83
374.6848, 22766.29
375.1669, 22150.74
375.6490, 21560.37
376.1312, 20987.67
376.6133, 20449.59
377.0954, 19913.81
377.5775, 19409.38
378.0596, 18929.13
378.5417, 18481.96
379.0239, 18101.25
379.5060, 17798.32
379.9881, 17537.99
380.4702, 17286.77
380.9523, 17042.71
381.4344, 16812.28
381.9166, 16593.50
382.3987, 16390.18
382.8808, 16201.45
383.3629, 16028.94
383.8450, 15867.07
384.3271, 15719.16
384.8093, 15579.48
385.2914, 15433.00
385.7735, 15265.71
386.2556, 15100.02
386.7377, 14980.95
387.2198, 14903.00
387.7020, 14819.52
388.1841, 14680.59
388.6662, 14523.01
389.1483, 14395.60
389.6304, 14320.76
390.1125, 14264.46
390.5947, 14202.76
391.0768, 14138.34
391.5589, 14080.79
392.0410, 14040.03
392.5231, 14005.27
393.0052, 13967.46
393.4874, 13922.25
393.9695, 13881.42
394.4516, 13857.29
394.9337, 13839.32
395.4158, 13808.28
395.8979, 13745.65
396.3801, 13679.50
396.8622, 13620.54
397.3443, 13570.10
397.8264, 13523.81
398.3085, 13467.92
398.7906, 13420.35
399.2728, 13403.93
399.7549, 13462.50
400.2370, 13503.63
400.7191, 13509.57
401.2012, 13479.00
401.6833, 13433.01
402.1655, 13353.97
402.6476, 13278.04
403.1297, 13239.38
403.6118, 13254.74
404.0939, 13267.88
404.5760, 13272.64
405.0582, 13268.87
405.5403, 13250.18
406.0224, 13208.88
406.5045, 13175.27
406.9866, 13178.20
407.4688, 13220.60
407.9509, 13243.60
408.4330, 13236.98
408.9151, 13213.51
409.3972, 13196.02
409.8793, 13184.55
410.3615, 13182.49
410.8436, 13200.13
411.3257, 13229.70
411.8078, 13243.06
412.2899, 13236.80
412.7720, 13222.57
413.2542, 13209.53
413.7363, 13199.27
414.2184, 13196.19
414.7005, 13214.04
415.1826, 13234.41
415.6647, 13232.53
416.1469, 13207.42
416.6290, 13179.15
417.1111, 13159.74
417.5932, 13146.21
418.0753, 13135.33
418.5574, 13122.02
419.0396, 13113.77
419.5217, 13113.56
420.0038, 13121.27
420.4859, 13136.57
420.9680, 13173.02
421.4501, 13208.90
421.9323, 13228.56
422.4144, 13222.68
422.8965, 13211.05
423.3786, 13195.96
423.8607, 13178.11
424.3428, 13158.84
424.8250, 13121.16
425.3071, 13098.31
425.7892, 13106.00
426.2713, 13163.73
426.7534, 13199.34
427.2355, 13197.17
427.7177, 13182.42
428.1998, 13195.89
428.6819, 13257.30
429.1640, 13300.62
429.6461, 13300.81
430.1282, 13258.64
430.6104, 13233.31
431.0925, 13225.78
431.5746, 13231.11
432.0567, 13250.10
432.5388, 13283.18
433.0209, 13305.38
433.5031, 13307.88
433.9852, 13299.23
434.4673, 13298.09
434.9494, 13304.66
435.4315, 13320.43
435.9136, 13359.85
436.3958, 13409.64
436.8779, 13433.09
437.3600, 13420.61
437.8421, 13394.12
438.3242, 13368.74
438.8063, 13347.65
439.2885, 13339.55
439.7706, 13359.29
440.2527, 13387.83
440.7348, 13407.17
441.2169, 13415.04
441.6990, 13422.48
442.1812, 13433.50
442.6633, 13448.01
443.1454, 13466.11
443.6275, 13502.98
444.1096, 13528.22
444.5917, 13517.77
445.0739, 13475.57
445.5560, 13459.27
446.0381, 13502.71
446.5202, 13560.13
447.0023, 13604.73
447.4844, 13633.99
447.9666, 13651.43
448.4487, 13651.68
448.9308, 13640.91
449.4129, 13635.48
449.8950, 13637.43
450.3771, 13641.90
450.8592, 13646.53
451.3413, 13650.35
451.8235, 13660.18
452.3056, 13676.17
452.7877, 13698.18
453.2698, 13736.77
453.7519, 13795.95
454.2340, 13819.71
454.7162, 13772.77
455.1983, 13682.05
455.6804, 13647.05
456.1625, 13670.06
456.6446, 13706.95
457.1267, 13736.69
457.6089, 13751.54
458.0910, 13724.01
458.5731, 13628.50
459.0552, 13525.54
459.5373, 13499.79
460.0194, 13531.13
460.5016, 13552.45
460.9837, 13506.09
461.4658, 13443.93
461.9479, 13415.09
462.4300, 13430.41
462.9121, 13449.42
463.3943, 13452.55
463.8764, 13447.07
464.3585, 13442.28
464.8406, 13434.25
465.3227, 13433.87
465.8048, 13444.58
466.2870, 13466.46
466.7691, 13496.65
467.2512, 13549.67
467.7333, 13600.81
468.2154, 13632.81
468.6975, 13607.25
469.1797, 13628.65
469.6618, 13734.64
470.1439, 13880.92
470.6260, 13939.42
471.1081, 13869.56
471.5902, 13809.74
472.0724, 13829.01
472.5545, 13934.40
473.0366, 13995.45
473.5187, 14001.39
474.0008, 13991.67
474.4829, 14018.51
474.9651, 14078.46
475.4472, 14128.44
475.9293, 14148.46
476.4114, 14155.52
476.8935, 14185.07
477.3756, 14235.87
477.8578, 14293.07
478.3399, 14347.17
478.8220, 14400.64
479.3041, 14454.49
479.7862, 14503.81
480.2683, 14567.03
480.7505, 14681.86
481.2326, 14820.44
481.7147, 14924.74
482.1968, 14926.48
482.6789, 14924.65
483.1610, 14958.78
483.6432, 15029.29
484.1253, 15160.30
484.6074, 15470.43
485.0895, 15784.33
485.5716, 15952.01
486.0537, 15786.88
486.5359, 15680.14
487.0180, 15678.76
487.5001, 15763.18
487.9822, 15847.33
488.4643, 15941.51
488.9464, 16017.52
489.4286, 16049.69
489.9107, 16019.66
490.3928, 16053.58
490.8749, 16176.04
491.3570, 16321.12
491.8391, 16388.59
492.3213, 16378.60
492.8034, 16361.04
493.2855, 16358.87
493.7676, 16367.31
494.2497, 16377.14
494.7318, 16388.35
495.2140, 16394.43
495.6961, 16396.97
496.1782, 16389.26
496.6603, 16351.75
497.1424, 16257.49
497.6245, 16181.66
498.1067, 16221.84
498.5888, 16326.13
499.0709, 16374.41
499.5530, 16238.62
500.0351, 16093.13
500.5172, 16036.36
500.9994, 16087.68
501.4815, 16145.33
501.9636, 16196.71
502.4457, 16238.72
502.9278, 16268.49
503.4099, 16260.07
503.8921, 16272.85
504.3742, 16318.52
504.8563, 16390.45
505.3384, 16460.81
505.8205, 16530.22
506.3026, 16598.89
506.7848, 16657.80
507.2669, 16699.96
507.7490, 16799.64
508.2311, 16971.15
508.7132, 17169.37
509.1953, 17330.69
509.6775, 17459.01
510.1596, 17607.66
510.6417, 17791.37
511.1238, 18005.80
511.6059, 18247.74
512.0880, 18516.59
512.5701, 18796.66
513.0522, 19069.40
513.5344, 19351.77
514.0165, 19668.88
514.4986, 20032.72
514.9807, 20407.54
515.4628, 20772.46
515.9449, 21134.76
516.4271, 21501.29
516.9092, 21867.60
517.3913, 22249.64
517.8734, 22660.41
518.3555, 23101.88
518.8376, 23536.98
519.3198, 23987.59
519.8019, 24412.37
520.2840, 24788.98
520.7661, 25091.16
521.2482, 25400.53
521.7303, 25775.12
522.2125, 26128.59
522.6946, 26249.26
523.1767, 26104.48
523.6588, 25869.58
524.1409, 25606.79
524.6230, 25315.73
525.1052, 24952.16
525.5873, 24512.45
526.0694, 24027.37
526.5515, 23523.26
527.0336, 23000.80
527.5157, 22459.07
527.9979, 21895.90
528.4800, 21339.49
528.9621, 20822.84
529.4442, 20343.91
529.9263, 19879.97
530.4084, 19411.42
530.8906, 18964.16
531.3727, 18562.40
531.8548, 18205.62
532.3369, 17881.36
532.8190, 17596.08
533.3011, 17334.51
533.7833, 17087.21
534.2654, 16831.02
534.7475, 16613.23
535.2296, 16447.38
535.7117, 16321.76
536.1938, 16196.81
536.6760, 16067.77
537.1581, 15945.13
537.6402, 15832.97
538.1223, 15732.62
538.6044, 15630.17
539.0865, 15519.31
539.5687, 15422.39
540.0508, 15370.56
540.5329, 15358.99
541.0150, 15359.23
541.4971, 15371.75
541.9792, 15382.87
542.4614, 15377.30
542.9435, 15353.43
543.4256, 15303.30
543.9077, 15189.57
544.3898, 15065.98
544.8719, 14992.48
545.3541, 14982.37
545.8362, 14966.46
546.3183, 14891.18
546.8004, 14800.36
547.2825, 14741.18
547.7646, 14742.78
548.2468, 14757.14
548.7289, 14792.63
549.2110, 14838.00
549.6931, 14843.46
550.1752, 14775.17
550.6573, 14713.18
551.1395, 14695.16
551.6216, 14732.71
552.1037, 14743.28
552.5858, 14719.29
553.0679, 14685.48
553.5500, 14671.06
554.0322, 14675.49
554.5143, 14680.02
554.9964, 14679.89
555.4785, 14678.28
555.9606, 14689.49
556.4427, 14708.60
556.9249, 14707.87
557.4070, 14653.32
557.8891, 14578.58
558.3712, 14521.16
558.8533, 14485.99
559.3354, 14455.12
559.8176, 14422.06
560.2997, 14386.03
560.7818, 14346.05
561.2639, 14277.19
561.7460, 14232.17
562.2281, 14242.38
562.7103, 14288.71
563.1924, 14298.46
563.6745, 14244.76
564.1566, 14189.37
564.6387, 14155.25
565.1208, 14144.93
565.6030, 14130.41
566.0851, 14110.99
566.5672, 14090.20
567.0493, 14070.05
567.5314, 14051.26
568.0135, 14039.27
568.4957, 14038.30
568.9778, 14039.63
569.4599, 14026.38
569.9420, 14001.87
570.4241, 13980.54
570.9063, 13966.84
571.3884, 13961.85
571.8705, 13963.10
572.3526, 13970.59
572.8347, 13996.60
573.3168, 14073.51
573.7990, 14157.43
