##NAMES=Andradite
##RRUFFID=R060350
##IDEAL CHEMISTRY=Ca_3_Fe^3+^_2_(SiO_4_)_3_
##LOCALITY=south of the Gem mine, southern San Benito County, California, USA
##OWNER=RRUFF
##SOURCE=Michael Scott
##DESCRIPTION=Cluster of black vitreous crystals showing well-developed faces
##STATUS=The identification of this mineral has been confirmed by X-ray diffraction and chemical analysis
##URL=rruff.info/R060350
##MEASURED CHEMISTRY=(Ca_2.93_Mg_0.07_)_Σ=3_(Fe^3+^_1.18_Ti_0.77_Al_0.05_)_Σ=2_((Si_0.74_Fe^3+^_0.26_)_Σ=1_O_4_)_3_ ; trace amounts of Mn
92.10938, 7.340460
92.59149, 6.941313
93.07361, 7.093155
93.55573, 7.752437
94.03784, 8.376595
94.51996, 8.391502
95.00208, 7.959806
95.48419, 7.669265
95.96631, 7.839632
96.44843, 8.253347
96.93054, 8.211951
97.41266, 7.651616
97.89478, 6.980819
98.37689, 6.718572
98.85901, 6.874002
99.34113, 7.049018
99.82324, 7.080750
100.3054, 6.969034
100.7875, 6.906628
101.2696, 6.915620
101.7517, 6.945292
102.2338, 6.901477
102.7159, 6.774296
103.1981, 6.601552
103.6802, 6.357582
104.1623, 5.946683
104.6444, 5.788702
105.1265, 6.009212
105.6086, 6.484182
106.0908, 6.724626
106.5729, 6.502833
107.0550, 6.311472
107.5371, 6.445475
108.0192, 7.190773
108.5013, 7.835764
108.9835, 8.304533
109.4656, 8.599958
109.9477, 8.902531
110.4298, 9.095654
110.9119, 9.361422
111.3940, 9.830507
111.8762, 10.77103
112.3583, 11.64147
112.8404, 12.29433
113.3225, 12.68786
113.8046, 13.23682
114.2867, 13.90526
114.7689, 14.79971
115.2510, 16.02516
115.7331, 18.10703
116.2152, 20.11490
116.6973, 21.57841
117.1794, 22.29239
117.6616, 23.17919
118.1437, 24.81129
118.6258, 26.82585
119.1079, 28.56609
119.5900, 29.59158
120.0721, 30.38384
120.5543, 31.24631
121.0364, 32.23068
121.5185, 33.27827
122.0006, 34.33248
122.4827, 35.42082
122.9648, 36.63857
123.4470, 38.18440
123.9291, 39.82570
124.4112, 41.27163
124.8933, 42.36019
125.3754, 43.37881
125.8575, 44.52001
126.3397, 45.80270
126.8218, 47.35015
127.3039, 49.28292
127.7860, 51.53364
128.2681, 53.99702
128.7502, 56.89485
129.2324, 59.81587
129.7145, 61.84900
130.1966, 63.00232
130.6787, 64.06829
131.1608, 65.98240
131.6429, 68.53352
132.1251, 70.77087
132.6072, 72.34068
133.0893, 73.34782
133.5714, 74.05796
134.0535, 74.38746
134.5356, 74.80441
135.0178, 76.02792
135.4999, 78.07262
135.9820, 80.05913
136.4641, 81.60775
136.9462, 82.73999
137.4283, 83.98998
137.9105, 85.34106
138.3926, 86.85904
138.8747, 88.81297
139.3568, 91.43273
139.8389, 93.61492
140.3210, 94.65508
140.8032, 94.21970
141.2853, 94.49387
141.7674, 95.72256
142.2495, 97.52853
142.7316, 98.83179
143.2137, 98.93768
143.6959, 98.74082
144.1780, 99.37923
144.6601, 101.4438
145.1422, 102.8144
145.6243, 103.0729
146.1064, 102.6181
146.5886, 103.0354
147.0707, 105.0276
147.5528, 107.0783
148.0349, 108.3065
148.5170, 107.9212
148.9991, 108.0037
149.4813, 108.9852
149.9634, 110.7210
150.4455, 111.7884
150.9276, 111.2984
151.4097, 110.7550
151.8918, 111.0780
152.3740, 113.3940
152.8561, 115.2781
153.3382, 116.2537
153.8203, 116.3463
154.3024, 116.8526
154.7845, 118.3453
155.2667, 120.0165
155.7488, 121.2833
156.2309, 121.6345
156.7130, 121.9858
157.1951, 122.5214
157.6772, 123.2485
158.1594, 124.0643
158.6415, 124.9114
159.1236, 125.8444
159.6057, 126.9215
160.0878, 128.1189
160.5699, 129.4726
161.0521, 131.0582
161.5342, 132.8974
162.0163, 134.7249
162.4984, 136.4988
162.9805, 138.1970
163.4626, 139.7908
163.9448, 141.4210
164.4269, 142.8339
164.9090, 143.8780
165.3911, 144.5050
165.8732, 144.9778
166.3553, 145.2459
166.8375, 145.4655
167.3196, 145.8950
167.8017, 147.2625
168.2838, 148.5012
168.7659, 148.6265
169.2480, 147.2217
169.7302, 145.9093
170.2123, 146.2772
170.6944, 147.5894
171.1765, 148.1912
171.6586, 146.4429
172.1407, 143.9539
172.6229, 142.3938
173.1050, 142.2445
173.5871, 142.3316
174.0692, 141.5602
174.5513, 140.1699
175.0334, 138.8792
175.5156, 138.1351
175.9977, 137.7353
176.4798, 137.4772
176.9619, 137.4344
177.4440, 137.2733
177.9261, 136.4228
178.4083, 135.0441
178.8904, 133.8455
179.3725, 133.4335
179.8546, 133.5161
180.3367, 133.5550
180.8188, 133.4440
181.3010, 133.2667
181.7831, 133.1600
182.2652, 133.1098
182.7473, 132.9965
183.2294, 132.6538
183.7115, 132.1711
184.1937, 131.8257
184.6758, 131.7239
185.1579, 131.7154
185.6400, 131.5439
186.1221, 131.2142
186.6042, 130.7983
187.0864, 130.3127
187.5685, 129.7762
188.0506, 129.2671
188.5327, 128.7171
189.0148, 128.2738
189.4969, 128.4093
189.9791, 129.1540
190.4612, 129.8195
190.9433, 129.7468
191.4254, 129.0174
191.9075, 128.2814
192.3896, 127.6154
192.8718, 127.0845
193.3539, 126.9513
193.8360, 127.2601
194.3181, 127.6053
194.8002, 127.5547
195.2823, 127.1190
195.7645, 126.8296
196.2466, 126.8994
196.7287, 127.1860
197.2108, 127.0150
197.6929, 126.2815
198.1750, 125.5581
198.6572, 125.4721
199.1393, 126.0562
199.6214, 126.5416
200.1035, 126.7446
200.5856, 126.6965
201.0677, 126.5313
201.5499, 126.1933
202.0320, 125.9145
202.5141, 125.9908
202.9962, 126.4800
203.4783, 126.8759
203.9604, 127.0631
204.4426, 127.0591
204.9247, 127.0203
205.4068, 126.9937
205.8889, 126.8296
206.3710, 126.1506
206.8531, 124.7079
207.3353, 124.0665
207.8174, 124.8101
208.2995, 126.8142
208.7816, 128.3887
209.2637, 129.4328
209.7458, 130.2161
210.2280, 131.0238
210.7101, 131.9149
211.1922, 132.5883
211.6743, 132.8546
212.1564, 132.7370
212.6385, 133.0903
213.1207, 134.0619
213.6028, 135.2558
214.0849, 136.3112
214.5670, 137.2533
215.0491, 137.9256
215.5313, 138.1459
216.0134, 137.9226
216.4955, 138.2651
216.9776, 139.3978
217.4597, 140.7905
217.9418, 141.9651
218.4239, 142.9543
218.9061, 143.5895
219.3882, 143.6787
219.8703, 143.2141
220.3524, 143.2227
220.8345, 143.8249
221.3166, 144.7483
221.7988, 145.8301
222.2809, 147.3288
222.7630, 148.3339
223.2451, 148.4418
223.7272, 147.6339
224.2093, 147.4926
224.6915, 148.2800
225.1736, 149.4411
225.6557, 150.4593
226.1378, 151.4675
226.6199, 152.0714
227.1020, 152.0676
227.5842, 151.4524
228.0663, 151.0936
228.5484, 150.9927
229.0305, 151.1418
229.5126, 151.6134
229.9947, 152.7604
230.4769, 153.5033
230.9590, 153.5986
231.4411, 153.0446
231.9232, 152.3389
232.4053, 151.1678
232.8874, 150.1696
233.3696, 150.0350
233.8517, 151.5415
234.3338, 152.3564
234.8159, 151.8392
235.2980, 150.0240
235.7801, 148.9174
236.2623, 148.8603
236.7444, 149.1434
237.2265, 149.2020
237.7086, 148.9904
238.1907, 148.6284
238.6728, 147.9956
239.1550, 147.1324
239.6371, 146.7785
240.1192, 147.2220
240.6013, 147.8493
241.0834, 148.1765
241.5655, 148.0750
242.0477, 147.9078
242.5298, 147.6450
243.0119, 147.3150
243.4940, 147.2481
243.9761, 147.6069
244.4582, 148.0333
244.9404, 148.2590
245.4225, 148.1474
245.9046, 148.1159
246.3867, 148.2617
246.8688, 148.5425
247.3509, 148.6377
247.8331, 148.3790
248.3152, 148.1514
248.7973, 148.2207
249.2794, 148.7465
249.7615, 149.2446
250.2436, 149.7118
250.7258, 150.1280
251.2079, 150.3405
251.6900, 150.1424
252.1721, 150.0365
252.6542, 150.4085
253.1363, 151.7022
253.6185, 152.3815
254.1006, 152.0835
254.5827, 151.1328
255.0648, 150.7129
255.5469, 151.0458
256.0291, 151.5592
256.5112, 151.9576
256.9933, 152.1653
257.4754, 152.4770
257.9575, 153.0076
258.4396, 153.6184
258.9218, 153.8735
259.4039, 153.6328
259.8860, 153.2997
260.3681, 153.0287
260.8502, 152.7736
261.3323, 152.7534
261.8145, 153.1224
262.2966, 153.6341
262.7787, 153.7077
263.2608, 153.1335
263.7429, 152.5537
264.2250, 152.1668
264.7072, 151.9093
265.1893, 152.1919
265.6714, 153.3419
266.1535, 154.7417
266.6356, 155.1771
267.1177, 154.2741
267.5999, 153.4045
268.0820, 153.1656
268.5641, 153.6939
269.0462, 153.8197
269.5283, 153.5054
270.0104, 152.8408
270.4926, 151.7940
270.9747, 150.1172
271.4568, 148.9289
271.9389, 148.7633
272.4210, 149.6615
272.9031, 150.0863
273.3853, 149.9086
273.8674, 149.4959
274.3495, 149.2991
274.8316, 149.3443
275.3137, 149.4521
275.7958, 149.5473
276.2780, 149.6427
276.7601, 149.9966
277.2422, 150.7054
277.7243, 151.4180
278.2064, 151.7307
278.6885, 151.5982
279.1707, 151.4254
279.6528, 151.2142
280.1349, 151.0382
280.6170, 151.4316
281.0991, 152.5525
281.5812, 153.6162
282.0634, 153.7048
282.5455, 152.7863
283.0276, 152.3721
283.5097, 152.8427
283.9918, 153.9526
284.4739, 154.9634
284.9561, 155.8657
285.4382, 156.7432
285.9203, 157.6611
286.4024, 158.6086
286.8845, 159.5513
287.3666, 160.4683
287.8488, 161.3774
288.3309, 162.3465
288.8130, 163.3772
289.2951, 164.3214
289.7772, 164.9754
290.2593, 165.4087
290.7415, 166.0957
291.2236, 167.1147
291.7057, 168.3044
292.1878, 169.4334
292.6699, 170.5050
293.1520, 171.5476
293.6342, 172.5037
294.1163, 173.4368
294.5984, 174.4938
295.0805, 175.6793
295.5626, 177.0525
296.0447, 178.8065
296.5269, 180.8736
297.0090, 182.9317
297.4911, 184.8846
297.9732, 186.7055
298.4553, 188.2321
298.9374, 189.4365
299.4196, 190.5706
299.9017, 191.8618
300.3838, 193.2703
300.8659, 194.6780
301.3480, 195.8696
301.8301, 197.1044
302.3123, 198.8063
302.7944, 200.9782
303.2765, 203.3092
303.7586, 205.5872
304.2407, 207.8554
304.7228, 210.2854
305.2050, 213.2105
305.6871, 216.0217
306.1692, 217.6612
306.6513, 218.3648
307.1334, 219.3439
307.6155, 221.7774
308.0977, 224.8516
308.5798, 227.5295
309.0619, 229.5152
309.5440, 231.2038
310.0261, 232.7616
310.5082, 234.2576
310.9904, 235.8944
311.4725, 237.8164
311.9546, 239.9265
312.4367, 242.2679
312.9188, 245.0293
313.4009, 247.4134
313.8831, 248.6684
314.3652, 249.1895
314.8473, 249.7489
315.3294, 250.3692
315.8115, 251.3572
316.2936, 253.1374
316.7758, 255.9167
317.2579, 258.3162
317.7400, 259.3703
318.2221, 259.8197
318.7042, 260.6296
319.1863, 262.6088
319.6685, 264.5593
320.1506, 265.7990
320.6327, 266.2887
321.1148, 267.2245
321.5969, 269.4229
322.0790, 271.9736
322.5612, 274.1644
323.0433, 275.3615
323.5254, 276.6590
324.0075, 278.2109
324.4896, 280.0414
324.9717, 282.2353
325.4539, 285.0683
325.9360, 288.1146
326.4181, 291.1068
326.9002, 293.9995
327.3823, 296.8964
327.8644, 299.7269
328.3466, 302.5556
328.8287, 305.5790
329.3108, 309.2128
329.7929, 312.7077
330.2750, 315.6293
330.7571, 317.3776
331.2393, 320.0220
331.7214, 324.2466
332.2035, 329.1278
332.6856, 333.0948
333.1677, 335.6353
333.6498, 338.0374
334.1320, 340.6353
334.6141, 343.3993
335.0962, 346.2066
335.5783, 349.0592
336.0604, 351.9535
336.5425, 354.9720
337.0247, 358.2785
337.5068, 361.3523
337.9889, 364.2795
338.4710, 366.9638
338.9531, 368.4240
339.4352, 368.1142
339.9173, 367.8530
340.3994, 369.3122
340.8816, 372.8882
341.3637, 375.7098
341.8458, 377.3203
342.3279, 378.0880
342.8100, 378.9368
343.2921, 379.8243
343.7743, 381.0308
344.2564, 382.9937
344.7385, 385.6573
345.2206, 387.4703
345.7027, 388.1961
346.1848, 388.4922
346.6670, 389.3222
347.1491, 390.6646
347.6312, 392.2044
348.1133, 393.7992
348.5954, 395.4868
349.0775, 397.3709
349.5597, 399.4545
350.0418, 401.8549
350.5239, 405.0788
351.0060, 408.7907
351.4881, 411.7659
351.9702, 413.2941
352.4524, 414.1584
352.9345, 415.5397
353.4166, 417.3771
353.8987, 419.1164
354.3808, 420.0240
354.8629, 420.6494
355.3451, 422.0323
355.8272, 425.0327
356.3093, 427.4850
356.7914, 426.7184
357.2735, 423.7235
357.7556, 421.2098
358.2378, 421.3592
358.7199, 422.2063
359.2020, 422.1447
359.6841, 420.9291
360.1662, 419.1465
360.6483, 416.8223
361.1305, 414.2044
361.6126, 411.6421
362.0947, 409.5062
362.5768, 407.2476
363.0589, 404.7380
363.5410, 401.9633
364.0232, 398.5434
364.5053, 393.9402
364.9874, 388.8714
365.4695, 383.8944
365.9516, 379.0082
366.4337, 374.3528
366.9159, 369.9551
367.3980, 365.7900
367.8801, 361.7404
368.3622, 358.5498
368.8443, 354.9095
369.3264, 350.1750
369.8086, 343.3869
370.2907, 337.1327
370.7728, 331.4323
371.2549, 326.2604
371.7370, 321.6502
372.2191, 317.9337
372.7013, 314.3173
373.1834, 310.7714
373.6655, 307.3586
374.1476, 303.1295
374.6297, 297.6872
375.1118, 292.0486
375.5940, 287.2456
376.0761, 283.5697
376.5582, 279.9662
377.0403, 276.2926
377.5224, 272.5763
378.0045, 268.6391
378.4867, 264.4171
378.9688, 260.4854
379.4509, 257.4548
379.9330, 255.3754
380.4151, 252.7250
380.8972, 249.3194
381.3794, 245.4857
381.8615, 241.7939
382.3436, 238.1946
382.8257, 234.7008
383.3078, 231.2966
383.7899, 227.9655
384.2721, 224.3602
384.7542, 220.4407
385.2363, 216.8879
385.7184, 214.7852
386.2005, 213.6244
386.6826, 211.8304
387.1648, 208.5956
387.6469, 204.8810
388.1290, 201.8396
388.6111, 199.4034
389.0932, 197.1072
389.5753, 194.7885
390.0575, 192.3661
390.5396, 189.6389
391.0217, 186.4222
391.5038, 183.2872
391.9859, 180.6877
392.4680, 178.4497
392.9502, 176.2164
393.4323, 173.6319
393.9144, 171.1795
394.3965, 169.2199
394.8786, 167.7790
395.3607, 166.4264
395.8429, 164.9835
396.3250, 163.5561
396.8071, 162.2331
397.2892, 161.3173
397.7713, 160.1962
398.2534, 158.5454
398.7356, 156.5100
399.2177, 154.8276
399.6998, 153.8016
400.1819, 152.9608
400.6640, 152.1308
401.1461, 151.4333
401.6283, 150.4834
402.1104, 149.0428
402.5925, 147.4617
403.0746, 146.2756
403.5567, 145.7163
404.0388, 145.1310
404.5210, 144.3462
405.0031, 143.3610
405.4852, 142.3362
405.9673, 141.1419
406.4494, 140.1471
406.9315, 139.8398
407.4137, 140.3678
407.8958, 140.3572
408.3779, 139.4332
408.8600, 138.0392
409.3421, 137.2858
409.8242, 137.2049
410.3064, 137.3476
410.7885, 137.5085
411.2706, 137.6924
411.7527, 137.9668
412.2348, 138.3657
412.7169, 138.6760
413.1991, 138.5641
413.6812, 138.1360
414.1633, 137.7474
414.6454, 137.5451
415.1275, 137.4360
415.6096, 137.3702
416.0918, 137.3250
416.5739, 137.1360
417.0560, 136.3347
417.5381, 135.4717
418.0202, 135.2965
418.5023, 136.2346
418.9845, 137.1490
419.4666, 137.2141
419.9487, 136.7543
420.4308, 136.3772
420.9129, 136.2668
421.3951, 136.3421
421.8772, 136.6256
422.3593, 137.1299
422.8414, 137.5831
423.3235, 138.0900
423.8056, 138.4189
424.2878, 138.3773
424.7699, 137.2245
425.2520, 136.5288
425.7341, 136.7448
426.2162, 137.6113
426.6983, 138.1965
427.1805, 138.3466
427.6626, 138.3846
428.1447, 138.4207
428.6268, 138.4501
429.1089, 138.4755
429.5910, 138.4192
430.0732, 138.4401
430.5553, 138.7601
431.0374, 139.4376
431.5195, 140.2002
432.0016, 141.0956
432.4837, 142.0172
432.9659, 142.3735
433.4480, 142.0759
433.9301, 141.7640
434.4122, 141.9315
434.8943, 142.5165
435.3764, 143.0990
435.8586, 143.6566
436.3407, 144.1448
436.8228, 144.5331
437.3049, 144.8100
437.7870, 144.9190
438.2691, 144.6531
438.7513, 144.2914
439.2334, 144.3189
439.7155, 144.7107
440.1976, 145.0234
440.6797, 144.8845
441.1618, 144.5042
441.6440, 144.1492
442.1261, 143.9723
442.6082, 143.6771
443.0903, 142.9813
443.5724, 142.0410
444.0545, 141.1940
444.5367, 140.6535
445.0188, 140.1596
445.5009, 139.6435
445.9830, 139.1286
446.4651, 138.3535
446.9472, 136.9868
447.4294, 135.4803
447.9115, 134.2298
448.3936, 133.5132
448.8757, 132.7206
449.3578, 131.7250
449.8399, 130.6291
450.3221, 129.7514
450.8042, 129.3080
451.2863, 128.7367
451.7684, 127.7432
452.2505, 126.2243
452.7326, 124.9382
453.2148, 123.8968
453.6969, 123.0887
454.1790, 122.6378
454.6611, 122.5721
455.1432, 122.2629
455.6253, 121.4108
456.1075, 120.3452
456.5896, 120.0898
457.0717, 120.6227
457.5538, 121.1474
458.0359, 121.0055
458.5180, 120.4797
459.0002, 120.2492
459.4823, 120.4012
459.9644, 120.6496
460.4465, 120.7881
460.9286, 120.8135
461.4107, 120.7133
461.8929, 120.3149
462.3750, 119.9372
462.8571, 119.7728
463.3392, 119.8210
463.8213, 120.0828
464.3034, 120.8136
464.7856, 121.5908
465.2677, 122.0783
465.7498, 122.0512
466.2319, 122.2325
466.7140, 122.8580
467.1961, 123.7668
467.6783, 124.7626
468.1604, 126.0913
468.6425, 127.1950
469.1246, 127.8854
469.6067, 128.2039
470.0888, 128.6557
470.5710, 129.2583
471.0531, 129.9672
471.5352, 130.7709
472.0173, 131.7083
472.4994, 132.6124
472.9815, 133.4418
473.4637, 134.2975
473.9458, 135.4249
474.4279, 136.8645
474.9100, 138.0008
475.3921, 138.4587
475.8742, 138.5526
476.3564, 139.2477
476.8385, 140.5410
477.3206, 142.0995
477.8027, 144.0619
478.2848, 146.0405
478.7669, 147.0231
479.2491, 146.6786
479.7312, 146.1998
480.2133, 146.7863
480.6954, 148.0432
481.1775, 149.2406
481.6596, 149.7774
482.1418, 150.3816
482.6239, 151.7199
483.1060, 153.6605
483.5881, 155.2242
484.0702, 155.6123
484.5523, 155.8100
485.0345, 156.4546
485.5166, 157.8836
485.9987, 159.1913
486.4808, 160.3476
486.9629, 161.2764
487.4450, 161.8648
487.9272, 161.8165
488.4093, 161.8473
488.8914, 162.0654
489.3735, 162.4721
489.8556, 163.1024
490.3377, 164.1697
490.8199, 165.0107
491.3020, 165.0607
491.7841, 164.2243
492.2662, 163.9377
492.7483, 164.3746
493.2304, 165.0298
493.7126, 165.1768
494.1947, 164.8770
494.6768, 164.5391
495.1589, 164.0858
495.6410, 163.8598
496.1231, 164.6801
496.6053, 166.4212
497.0874, 168.1718
497.5695, 169.2211
498.0516, 170.0439
498.5337, 171.2484
499.0158, 172.9505
499.4980, 174.6868
499.9801, 176.1118
500.4622, 177.4417
500.9443, 178.9658
501.4264, 180.3765
501.9085, 182.3705
502.3907, 185.7140
502.8728, 189.9706
503.3549, 193.3739
503.8370, 194.8981
504.3191, 196.3010
504.8012, 198.2734
505.2834, 201.0226
505.7655, 203.4412
506.2476, 205.5221
506.7297, 207.2766
507.2118, 208.7750
507.6939, 210.0771
508.1761, 210.7501
508.6582, 210.4997
509.1403, 209.8094
509.6224, 209.9697
510.1045, 211.0038
510.5866, 211.9246
511.0688, 212.4370
511.5509, 212.4471
512.0330, 211.4812
512.5151, 209.5153
512.9973, 207.3511
513.4794, 205.5411
513.9615, 203.9996
514.4436, 202.6716
514.9257, 201.7506
515.4078, 200.5663
515.8900, 198.4026
516.3721, 195.6550
516.8542, 193.0770
517.3363, 190.8927
517.8184, 188.9643
518.3005, 187.3167
518.7827, 185.9390
519.2648, 184.5264
519.7469, 183.0646
520.2290, 181.5260
520.7111, 179.8654
521.1932, 177.9160
521.6754, 176.2208
522.1575, 174.8113
522.6396, 173.6133
523.1217, 172.5283
523.6038, 171.5556
524.0859, 170.6918
524.5681, 169.9563
525.0502, 169.3277
525.5323, 168.7835
526.0144, 168.3329
526.4965, 167.7425
526.9786, 166.7300
527.4608, 165.4542
527.9429, 164.3963
528.4250, 163.5796
528.9071, 162.9272
529.3892, 162.7136
529.8713, 162.5387
530.3535, 161.6855
530.8356, 159.3962
531.3177, 157.1673
531.7998, 156.0610
532.2819, 155.7682
532.7640, 155.5925
533.2462, 155.3083
533.7283, 155.0593
534.2104, 155.0253
534.6925, 155.2686
535.1746, 155.0443
535.6567, 153.6339
536.1389, 152.2545
536.6210, 151.7243
537.1031, 152.6877
537.5852, 152.9866
538.0673, 152.3364
538.5494, 151.2357
539.0316, 150.4912
539.5137, 150.1370
539.9958, 149.8968
540.4779, 149.8105
540.9600, 149.7164
541.4421, 148.9858
541.9243, 147.6508
542.4064, 146.3505
542.8885, 145.4710
543.3706, 144.9458
543.8527, 144.7682
544.3348, 144.9714
544.8170, 145.0851
545.2991, 144.7595
545.7812, 144.1213
546.2633, 143.3089
546.7454, 142.2338
547.2275, 141.1749
547.7097, 140.4507
548.1918, 139.8225
548.6739, 138.7510
549.1560, 136.4020
549.6381, 134.3116
550.1202, 133.1663
550.6024, 133.0114
551.0845, 132.2793
551.5666, 130.7285
552.0487, 128.9185
552.5308, 127.1832
553.0129, 125.5018
553.4951, 123.9820
553.9772, 122.6748
554.4593, 121.4263
554.9414, 120.0682
555.4235, 118.5947
555.9056, 116.8955
556.3878, 114.8190
556.8699, 112.6601
557.3520, 111.0446
557.8341, 109.8520
558.3162, 108.5910
558.7983, 106.8924
559.2805, 105.0408
559.7626, 103.1847
560.2447, 101.3421
560.7268, 99.87586
561.2089, 99.31552
561.6910, 98.97861
562.1732, 98.31346
562.6553, 97.02151
563.1374, 95.72328
563.6195, 94.30699
564.1016, 92.98599
564.5837, 92.09371
565.0659, 91.81864
565.5480, 91.61086
566.0301, 91.34876
566.5122, 91.06405
566.9943, 90.99975
567.4764, 91.24032
567.9586, 91.29713
568.4407, 90.57549
568.9228, 89.32284
569.4049, 89.09987
569.8870, 90.00937
570.3691, 91.11776
570.8513, 91.47890
571.3334, 91.39030
571.8155, 91.41050
572.2976, 91.67638
572.7797, 92.05741
573.2618, 92.42380
573.7440, 92.84091
574.2261, 93.43578
574.7082, 94.61059
575.1903, 95.62081
575.6724, 96.06279
576.1545, 96.00117
576.6367, 96.04090
577.1188, 96.34045
577.6009, 96.64458
578.0830, 96.81747
578.5651, 96.78407
579.0472, 97.05785
579.5294, 97.79363
580.0115, 98.56907
580.4936, 98.93775
580.9757, 98.89341
581.4578, 98.96494
581.9399, 99.29883
582.4221, 99.61001
582.9042, 99.29121
583.3863, 98.51511
583.8684, 97.96791
584.3505, 98.01492
584.8326, 98.37901
585.3148, 98.89189
