##NAMES=Andradite
##RRUFFID=R060423
##IDEAL CHEMISTRY=Ca_3_Fe^3+^_2_(SiO_4_)_3_
##LOCALITY=Mali
##OWNER=RRUFF
##SOURCE=Greg Schmidt
##DESCRIPTION=Black dodecahedron
##STATUS=The identification of this mineral has been confirmed by X-ray diffraction and chemical analysis
##URL=rruff.info/R060423
##MEASURED CHEMISTRY=(Ca_2.93_Mg_0.04_Mn_0.03_)_Σ=3_(Fe^3+^_0.99_Al_0.95_Ti_0.06_)_Σ=2_((Si_0.98_Fe^3+^_0.02_)_Σ=1_O_4_)_3_
92.20605, 67.31788
92.68817, 67.77515
93.17029, 68.43767
93.65240, 68.56056
94.13452, 68.44819
94.61664, 67.92466
95.09875, 66.96091
95.58087, 65.78638
96.06299, 64.88277
96.54510, 64.65702
97.02722, 64.09203
97.50933, 62.92237
97.99145, 61.40604
98.47356, 59.85814
98.95568, 58.43711
99.43780, 57.04181
99.91991, 55.93476
100.4020, 55.24771
100.8841, 54.64545
101.3663, 54.02774
101.8484, 53.37114
102.3305, 52.67354
102.8126, 51.91164
103.2947, 51.04114
103.7768, 50.33276
104.2590, 49.89325
104.7411, 49.55426
105.2232, 49.15133
105.7053, 48.64543
106.1874, 48.07387
106.6695, 47.40239
107.1517, 46.62616
107.6338, 46.00575
108.1159, 45.74552
108.5980, 45.77391
109.0801, 45.73334
109.5622, 45.57249
110.0444, 45.26095
110.5265, 44.74598
111.0086, 44.01611
111.4907, 43.23888
111.9728, 42.57825
112.4549, 42.03273
112.9371, 41.62929
113.4192, 41.47310
113.9013, 41.38826
114.3834, 41.23463
114.8655, 40.95941
115.3476, 40.63337
115.8298, 40.45121
116.3119, 40.54840
116.7940, 40.63652
117.2761, 40.71881
117.7582, 40.76804
118.2403, 40.74549
118.7225, 40.62351
119.2046, 40.41224
119.6867, 40.23352
120.1688, 39.96221
120.6509, 39.83233
121.1330, 40.05581
121.6152, 40.54096
122.0973, 40.94796
122.5794, 40.99007
123.0615, 40.65741
123.5436, 40.40788
124.0257, 40.28968
124.5079, 40.22593
124.9900, 40.15632
125.4721, 40.07708
125.9542, 39.98359
126.4363, 39.82335
126.9184, 39.63496
127.4006, 39.53234
127.8827, 39.64655
128.3648, 39.89051
128.8469, 39.98841
129.3290, 39.85661
129.8111, 39.65217
130.2932, 39.44834
130.7754, 39.25487
131.2575, 39.09957
131.7396, 39.04920
132.2217, 39.13078
132.7038, 39.07315
133.1859, 38.59255
133.6681, 38.17814
134.1502, 38.04367
134.6323, 38.21088
135.1144, 38.56903
135.5965, 39.01089
136.0786, 39.70603
136.5608, 40.12008
137.0429, 40.17874
137.5250, 40.05990
138.0071, 39.85965
138.4892, 39.61696
138.9713, 39.35404
139.4535, 39.11730
139.9356, 38.76834
140.4177, 38.65030
140.8998, 39.01011
141.3819, 39.56036
141.8640, 39.89540
142.3462, 39.82060
142.8283, 39.46955
143.3104, 39.20594
143.7925, 38.99857
144.2746, 38.89495
144.7567, 38.94413
145.2388, 39.12522
145.7210, 39.36581
146.2031, 39.70446
146.6852, 40.02899
147.1673, 40.13350
147.6494, 39.88978
148.1315, 39.60189
148.6137, 39.57763
149.0958, 39.85258
149.5779, 40.14005
150.0600, 40.35530
150.5421, 40.49411
151.0242, 40.53030
151.5064, 40.43821
151.9885, 40.26134
152.4706, 40.04185
152.9527, 39.60957
153.4348, 39.48455
153.9169, 39.95857
154.3991, 40.73203
154.8812, 41.45795
155.3633, 41.94393
155.8454, 42.21777
156.3275, 42.43846
156.8096, 42.53194
157.2918, 42.64475
157.7739, 42.82718
158.2560, 43.04950
158.7381, 43.25523
159.2202, 43.40049
159.7023, 43.48316
160.1845, 43.58248
160.6666, 43.64619
161.1487, 43.77139
161.6308, 44.06067
162.1129, 44.46500
162.5950, 44.81327
163.0772, 44.92699
163.5593, 44.76030
164.0414, 44.82843
164.5235, 45.36070
165.0056, 45.93528
165.4877, 46.20620
165.9698, 46.15533
166.4520, 46.09599
166.9341, 46.34282
167.4162, 46.90344
167.8983, 47.54070
168.3804, 48.43964
168.8625, 49.32352
169.3447, 49.69977
169.8268, 49.35982
170.3089, 49.08608
170.7910, 49.88669
171.2731, 51.48295
171.7552, 52.93827
172.2374, 53.62224
172.7195, 53.86746
173.2016, 54.69388
173.6837, 56.57246
174.1658, 58.50306
174.6479, 59.96944
175.1301, 60.95890
175.6122, 61.41272
176.0943, 61.14202
176.5764, 60.17374
177.0585, 59.14813
177.5406, 58.07442
178.0228, 56.96472
178.5049, 55.83643
178.9870, 54.68231
179.4691, 53.49431
179.9512, 52.23863
180.4333, 50.88545
180.9155, 49.59398
181.3976, 48.16954
181.8797, 46.95821
182.3618, 46.14972
182.8439, 45.74660
183.3260, 45.63994
183.8082, 45.76262
184.2903, 46.38244
184.7724, 46.49357
185.2545, 45.77368
185.7366, 44.89394
186.2187, 44.25645
186.7009, 43.94519
187.1830, 43.80615
187.6651, 43.61675
188.1472, 43.27811
188.6293, 43.11763
189.1114, 43.23602
189.5936, 43.46819
190.0757, 43.76371
190.5578, 44.09720
191.0399, 44.28221
191.5220, 43.92469
192.0041, 42.64542
192.4863, 41.89466
192.9684, 42.18242
193.4505, 42.96767
193.9326, 43.61162
194.4147, 43.94403
194.8968, 44.03371
195.3790, 43.88662
195.8611, 43.46593
196.3432, 43.17090
196.8253, 43.22470
197.3074, 43.48595
197.7895, 43.62561
198.2717, 43.50245
198.7538, 43.32833
199.2359, 43.37775
199.7180, 43.64755
200.2001, 43.96912
200.6822, 44.30885
201.1644, 44.64553
201.6465, 44.86210
202.1286, 44.86946
202.6107, 44.81276
203.0928, 44.80861
203.5749, 44.85967
204.0571, 44.97003
204.5392, 45.22735
205.0213, 45.62771
205.5034, 45.80363
205.9855, 45.53807
206.4676, 45.14114
206.9497, 44.68348
207.4319, 44.21025
207.9140, 43.93716
208.3961, 44.19981
208.8782, 45.12093
209.3603, 45.80033
209.8424, 45.90011
210.3246, 45.91771
210.8067, 46.08434
211.2888, 46.42324
211.7709, 46.81432
212.2530, 47.07860
212.7351, 47.10094
213.2173, 47.36552
213.6994, 48.12162
214.1815, 48.91210
214.6636, 49.45546
215.1457, 49.73260
215.6278, 49.94986
216.1100, 50.38245
216.5921, 51.14431
217.0742, 51.84947
217.5563, 52.42638
218.0384, 53.01205
218.5205, 53.72971
219.0027, 54.57918
219.4848, 55.44747
219.9669, 56.17600
220.4490, 56.70353
220.9311, 57.22481
221.4132, 57.56107
221.8954, 58.00938
222.3775, 58.90989
222.8596, 60.27631
223.3417, 61.69538
223.8238, 62.60278
224.3059, 62.65655
224.7881, 63.15095
225.2702, 64.58638
225.7523, 66.15829
226.2344, 67.08807
226.7165, 67.25063
227.1986, 67.19405
227.6807, 67.56524
228.1629, 68.45018
228.6450, 69.40940
229.1271, 70.53526
229.6092, 71.66487
230.0913, 72.56454
230.5734, 73.18422
231.0556, 73.78831
231.5377, 74.74326
232.0198, 76.04397
232.5019, 77.10649
232.9840, 77.65141
233.4661, 77.98614
233.9483, 78.51573
234.4304, 79.32227
234.9125, 80.13525
235.3946, 80.51786
235.8767, 80.61037
236.3588, 81.10607
236.8410, 82.38074
237.3231, 84.09248
237.8052, 85.89857
238.2873, 87.92538
238.7694, 89.53289
239.2515, 90.08427
239.7337, 89.84181
240.2158, 89.21729
240.6979, 88.54736
241.1800, 87.53410
241.6621, 85.46486
242.1442, 81.98196
242.6264, 78.35777
243.1085, 75.34167
243.5906, 72.73300
244.0727, 70.25190
244.5548, 67.73852
245.0369, 65.31209
245.5191, 63.24038
246.0012, 61.58582
246.4833, 60.16380
246.9654, 58.92730
247.4475, 57.83678
247.9296, 56.83385
248.4117, 55.84184
248.8939, 54.97520
249.3760, 54.54271
249.8581, 54.78870
250.3402, 54.95839
250.8223, 54.69439
251.3044, 54.25151
251.7866, 53.89181
252.2687, 53.71658
252.7508, 53.70559
253.2329, 53.84487
253.7150, 54.25370
254.1971, 54.56498
254.6793, 54.64967
255.1614, 54.62884
255.6435, 54.62166
256.1256, 54.67712
256.6077, 54.74849
257.0898, 54.71792
257.5720, 54.47297
258.0541, 54.35417
258.5362, 54.43555
259.0183, 54.62634
259.5004, 54.88587
259.9825, 55.19447
260.4647, 55.49162
260.9468, 55.61406
261.4289, 55.26754
261.9110, 55.35476
262.3931, 56.19255
262.8752, 57.24865
263.3574, 58.10151
263.8395, 58.64748
264.3216, 59.07684
264.8037, 59.70270
265.2858, 60.64152
265.7679, 61.55574
266.2501, 62.48468
266.7322, 63.36111
267.2143, 64.16795
267.6964, 64.88506
268.1785, 65.45516
268.6606, 65.75020
269.1428, 65.50487
269.6249, 65.70213
270.1070, 66.97846
270.5891, 68.11835
271.0712, 68.30511
271.5533, 67.52006
272.0355, 66.33059
272.5176, 65.33804
272.9997, 64.58710
273.4818, 63.88160
273.9639, 63.24770
274.4460, 62.62759
274.9282, 61.99480
275.4103, 61.34841
275.8924, 60.69539
276.3745, 60.02771
276.8566, 59.32499
277.3387, 58.81606
277.8208, 58.61683
278.3029, 58.44999
278.7851, 58.13855
279.2672, 57.74278
279.7493, 57.48281
280.2314, 57.55114
280.7135, 57.92959
281.1956, 58.03619
281.6778, 57.84587
282.1599, 57.47645
282.6420, 56.79697
283.1241, 55.96507
283.6062, 55.30759
284.0883, 55.02860
284.5705, 55.06828
285.0526, 55.09747
285.5347, 55.23242
286.0168, 55.22809
286.4989, 54.92900
286.9810, 54.46483
287.4632, 53.99462
287.9453, 53.56386
288.4274, 53.28025
288.9095, 53.49324
289.3916, 54.66862
289.8737, 55.61024
290.3559, 56.06820
290.8380, 56.20401
291.3201, 56.17395
291.8022, 56.02214
292.2843, 55.84987
292.7664, 55.85144
293.2486, 56.11383
293.7307, 56.34174
294.2128, 56.51458
294.6949, 56.63601
295.1770, 56.64334
295.6591, 56.52572
296.1413, 56.48704
296.6234, 56.82468
297.1055, 57.67729
297.5876, 58.36256
298.0697, 58.73780
298.5518, 59.01241
299.0340, 59.34555
299.5161, 59.75969
299.9982, 60.22904
300.4803, 60.73419
300.9624, 61.27966
301.4445, 61.84307
301.9267, 62.62038
302.4088, 63.25433
302.8909, 63.34681
303.3730, 62.98644
303.8551, 62.77803
304.3372, 63.18926
304.8194, 64.15042
305.3015, 64.90858
305.7836, 65.30045
306.2657, 65.67750
306.7478, 66.19154
307.2299, 66.82467
307.7121, 67.53770
308.1942, 68.34531
308.6763, 69.17920
309.1584, 69.77174
309.6405, 69.88042
310.1227, 70.15884
310.6048, 70.88342
311.0869, 71.91263
311.5690, 72.99590
312.0511, 74.04724
312.5332, 75.07583
313.0154, 76.09732
313.4975, 77.15432
313.9796, 78.09913
314.4617, 78.65856
314.9438, 79.17915
315.4259, 80.14970
315.9081, 81.69492
316.3902, 83.53809
316.8723, 85.45069
317.3544, 87.50573
317.8365, 89.10966
318.3186, 90.25029
318.8007, 90.89851
319.2828, 90.84546
319.7650, 90.11836
320.2471, 89.29601
320.7292, 88.93208
321.2113, 89.02352
321.6934, 88.67757
322.1755, 87.70126
322.6577, 86.47166
323.1398, 85.14706
323.6219, 83.75703
324.1040, 82.32083
324.5861, 80.82536
325.0682, 79.31194
325.5504, 78.03807
326.0325, 76.80645
326.5146, 75.97334
326.9967, 75.90585
327.4788, 76.31435
327.9609, 76.55359
328.4431, 76.30781
328.9252, 75.86491
329.4073, 75.94868
329.8894, 76.84102
330.3715, 77.56023
330.8536, 77.83022
331.3358, 77.86363
331.8179, 77.89548
332.3000, 77.98647
332.7821, 78.14663
333.2642, 78.41644
333.7463, 78.86150
334.2285, 79.15519
334.7106, 78.98274
335.1927, 78.85925
335.6748, 79.31918
336.1569, 80.35238
336.6390, 81.41515
337.1212, 82.01321
337.6033, 82.12180
338.0854, 82.35971
338.5675, 82.65690
339.0496, 83.13248
339.5317, 83.87788
340.0139, 84.85683
340.4960, 85.94298
340.9781, 87.04815
341.4602, 88.21412
341.9423, 89.66679
342.4244, 91.86230
342.9066, 93.75069
343.3887, 94.69250
343.8708, 95.31247
344.3529, 96.49306
344.8350, 98.56712
345.3171, 101.2938
345.7993, 104.2397
346.2814, 107.6767
346.7635, 110.8671
347.2456, 113.3667
347.7277, 115.8634
348.2098, 118.9644
348.6920, 122.7366
349.1741, 126.8630
349.6562, 130.8866
350.1383, 134.6484
350.6204, 139.3268
351.1025, 145.4874
351.5847, 151.8773
352.0668, 157.7593
352.5489, 163.2573
353.0310, 168.9789
353.5131, 175.3713
353.9952, 182.3303
354.4774, 188.9187
354.9595, 194.8329
355.4416, 200.7119
355.9237, 206.6279
356.4058, 212.5815
356.8879, 218.7169
357.3701, 225.0903
357.8522, 231.3769
358.3343, 236.8987
358.8164, 241.4865
359.2985, 245.4503
359.7806, 248.6719
360.2627, 251.4255
360.7448, 253.7182
361.2270, 255.6631
361.7091, 257.6070
362.1912, 259.9437
362.6733, 262.6658
363.1554, 265.8528
363.6375, 269.7974
364.1197, 273.8830
364.6018, 277.5817
365.0839, 281.2092
365.5660, 285.4779
366.0481, 290.9620
366.5302, 297.5256
367.0124, 304.1609
367.4945, 311.4253
367.9766, 317.9773
368.4587, 324.0898
368.9408, 329.1691
369.4229, 332.6009
369.9051, 334.1209
370.3872, 333.8453
370.8693, 332.0272
371.3514, 328.8768
371.8335, 323.4781
372.3156, 315.0600
372.7978, 305.0382
373.2799, 293.9828
373.7620, 282.0932
374.2441, 269.2841
374.7262, 254.9529
375.2083, 238.9904
375.6905, 224.6317
376.1726, 212.4529
376.6547, 201.3869
377.1368, 191.2409
377.6189, 181.7471
378.1010, 172.4752
378.5832, 162.9203
379.0653, 153.5602
379.5474, 145.7252
380.0295, 139.8048
380.5116, 134.4140
380.9937, 128.9547
381.4759, 123.7867
381.9580, 119.3889
382.4401, 115.9455
382.9222, 112.8401
383.4043, 109.3534
383.8864, 105.4851
384.3686, 102.0171
384.8507, 99.17833
385.3328, 96.77032
385.8149, 94.58959
386.2970, 92.63860
386.7791, 90.83991
387.2613, 89.23213
387.7434, 87.75619
388.2255, 86.26008
388.7076, 84.73117
389.1897, 83.20957
389.6718, 81.68139
390.1540, 80.17964
390.6361, 78.76988
391.1182, 77.36152
391.6003, 76.15906
392.0824, 75.43643
392.5645, 75.14564
393.0467, 74.90940
393.5288, 74.64521
394.0109, 74.27166
394.4930, 73.63409
394.9751, 72.68445
395.4572, 71.69998
395.9394, 70.51136
396.4215, 69.43127
396.9036, 69.21362
397.3857, 70.09673
397.8678, 71.01564
398.3499, 70.77059
398.8321, 69.27034
399.3142, 68.01179
399.7963, 67.14437
400.2784, 66.45440
400.7605, 65.97114
401.2426, 65.58115
401.7247, 64.83762
402.2068, 63.39787
402.6890, 61.47208
403.1711, 60.03905
403.6532, 59.62595
404.1353, 58.96650
404.6174, 57.60903
405.0995, 55.97509
405.5817, 54.58535
406.0638, 53.59738
406.5459, 52.82611
407.0280, 52.02467
407.5101, 51.19364
407.9922, 50.34260
408.4744, 49.32179
408.9565, 48.41887
409.4386, 47.91082
409.9207, 47.67682
410.4028, 47.30880
410.8849, 46.46672
411.3671, 45.26387
411.8492, 44.55532
412.3313, 44.88649
412.8134, 45.05815
413.2955, 44.78209
413.7776, 44.32926
414.2598, 44.01135
414.7419, 43.92559
415.2240, 43.90879
415.7061, 43.69939
416.1882, 43.22634
416.6703, 42.80458
417.1525, 42.33871
417.6346, 42.02795
418.1167, 42.12441
418.5988, 42.49099
419.0809, 42.69934
419.5630, 42.37314
420.0452, 41.66615
420.5273, 41.22530
421.0094, 41.10993
421.4915, 41.15067
421.9736, 41.41116
422.4557, 41.72652
422.9379, 41.90853
423.4200, 41.89690
423.9021, 41.80524
424.3842, 41.75597
424.8663, 41.74559
425.3484, 41.67965
425.8306, 41.49699
426.3127, 41.30606
426.7948, 41.14287
427.2769, 41.02567
427.7590, 41.09464
428.2411, 41.61788
428.7233, 42.27702
429.2054, 42.56593
429.6875, 42.45117
430.1696, 42.18001
430.6517, 41.78522
431.1339, 41.38107
431.6160, 41.28127
432.0981, 41.69614
432.5802, 42.08362
433.0623, 42.05889
433.5444, 41.82385
434.0266, 41.83004
434.5087, 42.22921
434.9908, 42.78356
435.4729, 43.20014
435.9550, 43.47023
436.4371, 43.58687
436.9193, 43.47757
437.4014, 43.27328
437.8835, 42.99603
438.3656, 42.69152
438.8477, 42.48027
439.3298, 42.44495
439.8120, 42.56278
440.2941, 42.71385
440.7762, 43.08617
441.2583, 43.25486
441.7404, 42.95801
442.2225, 42.54910
442.7046, 42.41158
443.1867, 42.62853
443.6689, 42.97658
444.1510, 43.16819
444.6331, 43.16272
445.1152, 43.20669
445.5973, 43.45448
446.0794, 43.59708
446.5616, 43.45176
447.0437, 43.12886
447.5258, 42.83122
448.0079, 42.66901
448.4900, 42.61457
448.9721, 42.62636
449.4543, 42.76140
449.9364, 42.79774
450.4185, 42.47741
450.9006, 42.17952
451.3827, 42.23827
451.8648, 42.66499
452.3470, 43.09594
452.8291, 43.25169
453.3112, 43.17326
453.7933, 43.00772
454.2754, 42.71354
454.7575, 42.45426
455.2397, 42.33776
455.7218, 42.33015
456.2039, 42.40179
456.6860, 42.60699
457.1681, 42.80213
457.6502, 42.83379
458.1324, 42.74003
458.6145, 42.72561
459.0966, 42.91160
459.5787, 43.09459
460.0608, 42.89434
460.5429, 42.27323
461.0251, 41.81349
461.5072, 41.69632
461.9893, 41.73134
462.4714, 41.76278
462.9535, 41.78181
463.4356, 41.85486
463.9178, 42.05463
464.3999, 42.32695
464.8820, 42.37164
465.3641, 42.05829
465.8462, 41.70166
466.3283, 41.25153
466.8105, 40.82288
467.2926, 40.56600
467.7747, 40.50050
468.2568, 40.50008
468.7389, 40.42554
469.2210, 40.27697
469.7032, 40.04549
470.1853, 39.37587
470.6674, 38.99786
471.1495, 39.33726
471.6316, 40.07445
472.1137, 40.70924
472.5959, 41.01071
473.0780, 41.07273
473.5601, 41.03819
474.0422, 40.87607
474.5243, 40.74911
475.0064, 40.61868
475.4886, 40.59511
475.9707, 40.78850
476.4528, 41.17008
476.9349, 41.58193
477.4170, 41.94566
477.8991, 42.26683
478.3813, 42.52190
478.8634, 42.67915
479.3455, 42.96736
479.8276, 43.64449
480.3097, 44.46038
480.7918, 44.94267
481.2740, 44.94910
481.7561, 44.97156
482.2382, 45.28370
482.7203, 45.77462
483.2024, 46.30368
483.6845, 46.85329
484.1666, 47.22704
484.6487, 47.16436
485.1309, 46.64826
485.6130, 46.44624
486.0951, 46.72296
486.5772, 47.11570
487.0593, 47.55108
487.5414, 47.98110
488.0236, 48.35866
488.5057, 48.66602
488.9878, 48.85260
489.4699, 48.79473
489.9520, 48.26243
490.4341, 48.05878
490.9163, 48.46034
491.3984, 48.87580
491.8805, 48.99754
492.3626, 48.88058
492.8447, 48.74131
493.3268, 48.73281
493.8090, 48.75675
494.2911, 48.45643
494.7732, 47.61134
495.2553, 47.04560
495.7374, 47.19581
496.2195, 47.52899
496.7017, 47.74445
497.1838, 47.79744
497.6659, 47.69198
498.1480, 47.36633
498.6301, 46.88846
499.1122, 46.43934
499.5944, 46.02391
500.0765, 45.63462
500.5586, 45.21153
501.0407, 44.83235
501.5228, 44.66213
502.0049, 44.79724
502.4871, 44.94637
502.9692, 44.95840
503.4513, 44.88792
503.9334, 44.84658
504.4155, 44.85960
504.8976, 44.83687
505.3798, 44.66647
505.8619, 44.33350
506.3440, 44.15043
506.8261, 44.21884
507.3082, 44.30677
507.7903, 44.22166
508.2725, 44.13168
508.7546, 44.34320
509.2367, 44.96143
509.7188, 45.75675
510.2009, 46.36125
510.6830, 46.71894
511.1652, 47.07794
511.6473, 47.16955
512.1294, 47.52924
512.6115, 48.51092
513.0936, 49.90661
513.5757, 51.31364
514.0579, 52.54729
514.5400, 53.64048
515.0221, 54.57631
515.5042, 55.30448
515.9863, 56.31329
516.4684, 58.02743
516.9506, 59.75164
517.4327, 60.76379
517.9148, 61.17023
518.3969, 61.79049
518.8790, 63.18650
519.3611, 64.86388
519.8433, 66.14513
520.3254, 67.05025
520.8075, 68.02870
521.2896, 69.29011
521.7717, 70.76250
522.2538, 72.23107
522.7360, 73.55919
523.2181, 75.25764
523.7002, 77.76830
524.1823, 80.43029
524.6644, 82.55661
525.1465, 84.18722
525.6287, 85.89835
526.1108, 88.11095
526.5929, 90.72197
527.0750, 93.24128
527.5571, 95.33635
528.0392, 97.80870
528.5214, 101.2925
529.0035, 104.7857
529.4856, 107.3903
529.9677, 109.0620
530.4498, 110.4755
530.9319, 112.4883
531.4141, 114.8022
531.8962, 115.4867
532.3783, 114.0742
532.8604, 112.0992
533.3425, 110.3485
533.8246, 108.2995
534.3068, 105.2994
534.7889, 101.1992
535.2710, 96.53559
535.7531, 91.30189
536.2352, 85.81327
536.7173, 80.62570
537.1995, 75.79899
537.6816, 71.43053
538.1637, 67.65424
538.6458, 64.43069
539.1279, 61.47560
539.6100, 58.80290
540.0922, 56.34236
540.5743, 53.96341
541.0564, 51.82500
541.5385, 50.12714
542.0206, 48.90679
542.5027, 48.07113
542.9849, 47.58434
543.4670, 47.45855
543.9491, 47.13918
544.4312, 46.44110
544.9133, 45.76426
545.3954, 45.05070
545.8775, 44.46567
546.3596, 44.28673
546.8417, 44.55660
547.3239, 44.85862
547.8060, 44.61855
548.2881, 43.90906
548.7702, 43.66462
549.2523, 44.17138
549.7344, 44.62218
550.2166, 44.33258
550.6987, 43.71266
551.1808, 43.40978
551.6629, 43.64423
552.1450, 43.94100
552.6271, 44.01367
553.1093, 43.93452
553.5914, 43.85195
554.0735, 43.79601
554.5556, 43.71696
555.0377, 43.55642
555.5198, 43.31641
556.0020, 43.15445
556.4841, 43.23506
556.9662, 43.18402
557.4483, 42.77848
557.9304, 42.24437
558.4125, 41.85590
558.8947, 41.67754
559.3768, 41.60443
559.8589, 41.56466
560.3410, 41.56555
560.8231, 41.26840
561.3052, 40.38106
561.7874, 39.62314
562.2695, 39.29943
562.7516, 39.17467
563.2337, 38.99157
563.7158, 38.68953
564.1979, 38.31279
564.6801, 37.86060
565.1622, 37.36245
565.6443, 36.90851
566.1264, 36.50189
566.6085, 36.17116
567.0906, 36.00052
567.5728, 35.91368
568.0549, 35.62803
568.5370, 35.02095
569.0191, 34.41053
569.5012, 33.91874
569.9833, 33.47614
570.4655, 32.96275
570.9476, 32.37948
571.4297, 31.85224
571.9118, 31.50122
572.3939, 31.31601
572.8760, 31.18464
573.3582, 31.22408
573.8403, 31.15276
574.3224, 30.92434
574.8045, 30.57999
575.2866, 30.04165
575.7687, 29.36206
576.2509, 28.87459
576.7330, 29.00182
577.2151, 29.54902
577.6972, 29.72963
578.1793, 29.46391
578.6614, 29.17732
579.1436, 29.07210
579.6257, 29.03984
580.1078, 28.89281
580.5899, 28.59194
581.0720, 28.39444
581.5541, 28.47455
582.0363, 28.65991
582.5184, 28.74797
583.0005, 28.74167
583.4826, 28.77646
583.9647, 28.94553
584.4468, 29.18019
584.9290, 29.27229
585.4111, 28.97396
585.8932, 28.92863
586.3753, 29.40981
586.8574, 29.88971
587.3395, 29.93151
587.8217, 29.67443
588.3038, 29.58553
