##NAMES=Andradite
##RRUFFID=R060326
##IDEAL CHEMISTRY=Ca_3_Fe^3+^_2_(SiO_4_)_3_
##LOCALITY=Ultevis, Sweden
##OWNER=RRUFF
##SOURCE=Marcus Origlieri
##DESCRIPTION=Reddish-brown colored druse of crystals associated with white svabite R050180
##STATUS=The identification of this mineral has been confirmed by X-ray diffraction and chemical analysis
##URL=rruff.info/R060326
##MEASURED CHEMISTRY=(Ca_2.98_Mn_0.02_)_Σ=3_(Fe^3+^_1.75_Al_0.21_Ti_0.04_)_Σ=2_(Si_1.00_O_4_)_3_
92.10938, 3.853196
92.59149, 3.762275
93.07361, 3.793828
93.55573, 3.938611
94.03784, 4.081999
94.51996, 4.108838
95.00208, 4.048957
95.48419, 4.012751
95.96631, 4.079334
96.44843, 4.185439
96.93054, 4.101441
97.41266, 3.794688
97.89478, 3.477033
98.37689, 3.451937
98.85901, 3.723819
99.34113, 3.960791
99.82324, 4.000619
100.3054, 3.843098
100.7875, 3.773160
101.2696, 3.806124
101.7517, 3.907165
102.2338, 4.033596
102.7159, 4.211841
103.1981, 4.336873
103.6802, 4.327610
104.1623, 4.102104
104.6444, 4.011370
105.1265, 4.095888
105.6086, 4.320300
106.0908, 4.560796
106.5729, 4.831629
107.0550, 5.099554
107.5371, 5.332827
108.0192, 5.398074
108.5013, 5.633631
108.9835, 6.144850
109.4656, 6.919279
109.9477, 7.589394
110.4298, 8.045756
110.9119, 8.459168
111.3940, 8.958203
111.8762, 9.500408
112.3583, 10.16768
112.8404, 10.95812
113.3225, 11.86230
113.8046, 12.96656
114.2867, 14.39824
114.7689, 16.01335
115.2510, 17.64048
115.7331, 19.31853
116.2152, 20.95416
116.6973, 22.49462
117.1794, 23.92507
117.6616, 25.30657
118.1437, 26.67422
118.6258, 28.01734
119.1079, 29.27157
119.5900, 30.32544
120.0721, 31.35092
120.5543, 32.50331
121.0364, 33.90585
121.5185, 35.18502
122.0006, 35.88888
122.4827, 36.24150
122.9648, 36.89511
123.4470, 38.40776
123.9291, 40.34786
124.4112, 42.22049
124.8933, 43.85969
125.3754, 45.48021
125.8575, 47.33850
126.3397, 49.39997
126.8218, 51.46059
127.3039, 53.18443
127.7860, 54.78998
128.2681, 56.75867
128.7502, 59.54993
129.2324, 62.54966
129.7145, 64.54350
130.1966, 65.54018
130.6787, 66.32611
131.1608, 67.72880
131.6429, 69.60009
132.1251, 71.27537
132.6072, 72.50729
133.0893, 73.36868
133.5714, 74.07738
134.0535, 74.59444
134.5356, 75.13795
135.0178, 76.05079
135.4999, 77.33871
135.9820, 78.56467
136.4641, 79.52218
136.9462, 80.22533
137.4283, 81.04550
137.9105, 82.00020
138.3926, 83.05400
138.8747, 84.15501
139.3568, 85.33182
139.8389, 86.48158
140.3210, 87.50536
140.8032, 88.34014
141.2853, 89.43328
141.7674, 90.85461
142.2495, 92.48997
142.7316, 93.96802
143.2137, 94.94044
143.6959, 95.33982
144.1780, 95.66809
144.6601, 95.82607
145.1422, 96.19195
145.6243, 96.86835
146.1064, 97.75703
146.5886, 98.50255
147.0707, 98.98257
147.5528, 99.46088
148.0349, 100.0766
148.5170, 100.9898
148.9991, 101.7908
149.4813, 102.4045
149.9634, 102.8589
150.4455, 103.3613
150.9276, 104.0300
151.4097, 104.6659
151.8918, 105.1317
152.3740, 104.9658
152.8561, 105.1539
153.3382, 105.8973
153.8203, 107.1754
154.3024, 108.4205
154.7845, 109.5749
155.2667, 110.6786
155.7488, 111.7798
156.2309, 113.0517
156.7130, 114.1319
157.1951, 114.8261
157.6772, 115.1061
158.1594, 115.5689
158.6415, 116.5527
159.1236, 117.6881
159.6057, 118.6183
160.0878, 118.9106
160.5699, 119.2782
161.0521, 120.0505
161.5342, 121.2981
162.0163, 122.4561
162.4984, 123.1325
162.9805, 123.6566
163.4626, 124.4450
163.9448, 126.0974
164.4269, 127.7079
164.9090, 128.6834
165.3911, 128.8322
165.8732, 129.1390
166.3553, 129.9891
166.8375, 131.3282
167.3196, 133.0685
167.8017, 135.2783
168.2838, 137.8017
168.7659, 140.5280
169.2480, 143.4142
169.7302, 146.6077
170.2123, 150.2532
170.6944, 154.2972
171.1765, 158.5503
171.6586, 163.6384
172.1407, 168.5766
172.6229, 172.5287
173.1050, 175.4203
173.5871, 177.1839
174.0692, 177.9326
174.5513, 177.5500
175.0334, 175.6389
175.5156, 171.5602
175.9977, 165.8902
176.4798, 159.3980
176.9619, 151.8282
177.4440, 144.1165
177.9261, 137.1153
178.4083, 130.8247
178.8904, 125.3924
179.3725, 121.2850
179.8546, 118.0815
180.3367, 115.0582
180.8188, 112.0304
181.3010, 109.2285
181.7831, 107.0159
182.2652, 105.3769
182.7473, 104.0374
183.2294, 102.9118
183.7115, 101.9486
184.1937, 101.0293
184.6758, 100.0789
185.1579, 99.20865
185.6400, 98.66379
186.1221, 98.43458
186.6042, 98.17053
187.0864, 97.50826
187.5685, 96.54459
188.0506, 95.73833
188.5327, 95.19688
189.0148, 94.85242
189.4969, 94.55528
189.9791, 94.30913
190.4612, 94.07701
190.9433, 93.88627
191.4254, 93.71757
191.9075, 93.34286
192.3896, 92.57574
192.8718, 91.64494
193.3539, 91.26659
193.8360, 91.48964
194.3181, 91.84760
194.8002, 91.87730
195.2823, 91.58870
195.7645, 91.44531
196.2466, 91.63038
196.7287, 92.02320
197.2108, 92.11731
197.6929, 91.87487
198.1750, 91.49941
198.6572, 91.08202
199.1393, 90.60612
199.6214, 90.43616
200.1035, 90.78995
200.5856, 91.53667
201.0677, 91.84370
201.5499, 91.61789
202.0320, 91.26619
202.5141, 91.19081
202.9962, 91.42136
203.4783, 91.71050
203.9604, 92.05954
204.4426, 92.44016
204.9247, 92.56953
205.4068, 92.39300
205.8889, 92.10751
206.3710, 91.88379
206.8531, 91.71753
207.3353, 91.64190
207.8174, 91.67071
208.2995, 91.80104
208.7816, 91.98511
209.2637, 92.20625
209.7458, 92.50784
210.2280, 92.98776
210.7101, 93.73609
211.1922, 94.31174
211.6743, 94.51535
212.1564, 94.36766
212.6385, 94.61266
213.1207, 95.35411
213.6028, 96.31212
214.0849, 97.21972
214.5670, 98.06653
215.0491, 98.86357
215.5313, 99.59361
216.0134, 100.2606
216.4955, 100.9389
216.9776, 101.5289
217.4597, 102.2733
217.9418, 103.5130
218.4239, 105.4813
218.9061, 107.2979
219.3882, 108.7250
219.8703, 109.7469
220.3524, 110.9682
220.8345, 112.5853
221.3166, 114.1413
221.7988, 115.0923
222.2809, 115.0183
222.7630, 115.2988
223.2451, 116.2366
223.7272, 117.8470
224.2093, 119.6658
224.6915, 121.8560
225.1736, 124.1042
225.6557, 125.9947
226.1378, 127.2812
226.6199, 128.8104
227.1020, 130.7781
227.5842, 133.2038
228.0663, 135.6439
228.5484, 138.1558
229.0305, 140.6525
229.5126, 143.0227
229.9947, 145.0764
230.4769, 147.3677
230.9590, 149.9603
231.4411, 152.8441
231.9232, 156.2336
232.4053, 160.2764
232.8874, 164.7125
233.3696, 169.3331
233.8517, 174.1171
234.3338, 179.1882
234.8159, 184.9916
235.2980, 191.5270
235.7801, 196.2504
236.2623, 199.1838
236.7444, 200.2936
237.2265, 199.6461
237.7086, 197.7107
238.1907, 193.0011
238.6728, 184.4014
239.1550, 172.1963
239.6371, 161.2810
240.1192, 151.9099
240.6013, 143.5359
241.0834, 135.7553
241.5655, 128.2986
242.0477, 122.1434
242.5298, 117.6315
243.0119, 114.6464
243.4940, 112.0112
243.9761, 109.6950
244.4582, 107.7631
244.9404, 106.3154
245.4225, 105.6303
245.9046, 104.8537
246.3867, 103.8096
246.8688, 102.5669
247.3509, 101.6183
247.8331, 101.1017
248.3152, 100.7029
248.7973, 100.1623
249.2794, 99.14668
249.7615, 98.73941
250.2436, 99.30840
250.7258, 100.5823
251.2079, 101.2282
251.6900, 100.9010
252.1721, 100.4386
252.6542, 100.3296
253.1363, 100.7168
253.6185, 101.1266
254.1006, 101.5361
254.5827, 101.9470
255.0648, 102.3718
255.5469, 102.8494
256.0291, 103.2726
256.5112, 103.5564
256.9933, 103.5847
257.4754, 103.7624
257.9575, 104.0608
258.4396, 104.5319
258.9218, 105.3491
259.4039, 106.6795
259.8860, 108.0642
260.3681, 109.3018
260.8502, 110.3516
261.3323, 111.3501
261.8145, 112.1528
262.2966, 112.9858
262.7787, 114.4580
263.2608, 116.9304
263.7429, 119.2788
264.2250, 121.0641
264.7072, 122.1911
265.1893, 123.0978
265.6714, 123.9119
266.1535, 124.3775
266.6356, 123.9339
267.1177, 122.2835
267.5999, 120.4945
268.0820, 118.9980
268.5641, 117.8542
269.0462, 116.4045
269.5283, 114.4457
270.0104, 112.4162
270.4926, 110.9280
270.9747, 110.0451
271.4568, 109.4460
271.9389, 109.0585
272.4210, 108.8841
272.9031, 108.8671
273.3853, 109.0817
273.8674, 109.3248
274.3495, 109.3328
274.8316, 109.0783
275.3137, 108.7251
275.7958, 108.2505
276.2780, 107.6786
276.7601, 107.3579
277.2422, 107.3502
277.7243, 107.4290
278.2064, 107.3140
278.6885, 106.9651
279.1707, 106.7703
279.6528, 106.8486
280.1349, 107.1539
280.6170, 107.4576
281.0991, 107.7620
281.5812, 108.0629
282.0634, 108.3482
282.5455, 108.6222
283.0276, 108.8972
283.5097, 109.1463
283.9918, 109.4175
284.4739, 109.9264
284.9561, 110.7120
285.4382, 111.4504
285.9203, 111.7879
286.4024, 111.7572
286.8845, 111.9681
287.3666, 112.5005
287.8488, 113.3185
288.3309, 114.4889
288.8130, 116.0224
289.2951, 117.4139
289.7772, 118.1576
290.2593, 118.3912
290.7415, 118.9882
291.2236, 120.0649
291.7057, 121.4345
292.1878, 122.8447
292.6699, 124.2946
293.1520, 125.7706
293.6342, 127.1944
294.1163, 128.6310
294.5984, 130.3099
295.0805, 132.3151
295.5626, 134.3171
296.0447, 135.9419
296.5269, 137.2268
297.0090, 138.3549
297.4911, 139.2719
297.9732, 140.1080
298.4553, 141.2724
298.9374, 142.8120
299.4196, 144.1327
299.9017, 144.3443
300.3838, 143.8015
300.8659, 143.4634
301.3480, 143.6203
301.8301, 144.2430
302.3123, 145.4624
302.7944, 147.2674
303.2765, 149.0777
303.7586, 150.1341
304.2407, 150.9096
304.7228, 152.3012
305.2050, 154.7208
305.6871, 157.7395
306.1692, 160.9268
306.6513, 164.3074
307.1334, 167.7612
307.6155, 171.2106
308.0977, 174.7284
308.5798, 178.4428
309.0619, 182.5443
309.5440, 186.6409
310.0261, 190.4527
310.5082, 194.0143
310.9904, 197.4166
311.4725, 201.0930
311.9546, 204.4621
312.4367, 207.1592
312.9188, 209.3000
313.4009, 210.1959
313.8831, 209.2854
314.3652, 206.8231
314.8473, 203.2949
315.3294, 198.0062
315.8115, 192.3304
316.2936, 187.0029
316.7758, 182.0836
317.2579, 177.6299
317.7400, 173.4788
318.2221, 169.8392
318.7042, 166.8833
319.1863, 164.6128
319.6685, 163.0894
320.1506, 162.5254
320.6327, 162.9337
321.1148, 163.4992
321.5969, 163.8904
322.0790, 164.3773
322.5612, 165.1955
323.0433, 166.6884
323.5254, 168.2025
324.0075, 169.5188
324.4896, 170.6875
324.9717, 172.0552
325.4539, 174.0670
325.9360, 176.0451
326.4181, 177.5977
326.9002, 178.8766
327.3823, 179.5162
327.8644, 179.0977
328.3466, 177.9676
328.8287, 177.1844
329.3108, 176.5556
329.7929, 176.4718
330.2750, 177.1150
330.7571, 178.7797
331.2393, 180.4859
331.7214, 181.8119
332.2035, 183.3447
332.6856, 186.0300
333.1677, 190.4053
333.6498, 195.1775
334.1320, 200.0946
334.6141, 205.0745
335.0962, 210.0916
335.5783, 214.9316
336.0604, 220.0317
336.5425, 226.0161
337.0247, 233.3103
337.5068, 240.4411
337.9889, 247.0774
338.4710, 253.3012
338.9531, 260.0477
339.4352, 267.4454
339.9173, 275.1973
340.3994, 282.8958
340.8816, 290.5040
341.3637, 298.7425
341.8458, 307.8809
342.3279, 317.6163
342.8100, 327.4116
343.2921, 337.0050
343.7743, 347.8602
344.2564, 360.9445
344.7385, 376.2794
345.2206, 391.9647
345.7027, 408.0160
346.1848, 424.5258
346.6670, 441.2710
347.1491, 458.3491
347.6312, 477.1970
348.1133, 499.3244
348.5954, 523.8578
349.0775, 548.2641
349.5597, 572.7640
350.0418, 597.1315
350.5239, 621.8506
351.0060, 646.4296
351.4881, 668.3302
351.9702, 687.2768
352.4524, 702.7390
352.9345, 713.4708
353.4166, 719.5645
353.8987, 721.8091
354.3808, 720.6533
354.8629, 716.0591
355.3451, 707.4467
355.8272, 693.4601
356.3093, 678.0765
356.7914, 663.9948
357.2735, 651.1862
357.7556, 639.9202
358.2378, 629.6871
358.7199, 621.5334
359.2020, 616.1396
359.6841, 613.4445
360.1662, 614.3170
360.6483, 619.3314
361.1305, 628.1893
361.6126, 640.4747
362.0947, 656.6036
362.5768, 675.6286
363.0589, 697.2712
363.5410, 721.5184
364.0232, 748.4584
364.5053, 779.0928
364.9874, 811.9151
365.4695, 845.7560
365.9516, 881.3105
366.4337, 916.8664
366.9159, 954.1768
367.3980, 991.9600
367.8801, 1025.250
368.3622, 1056.319
368.8443, 1080.076
369.3264, 1094.358
369.8086, 1098.963
370.2907, 1093.963
370.7728, 1079.123
371.2549, 1054.842
371.7370, 1021.450
372.2191, 975.1349
372.7013, 924.6397
373.1834, 871.8163
373.6655, 816.0711
374.1476, 760.9013
374.6297, 706.4064
375.1118, 653.9481
375.5940, 604.9503
376.0761, 559.8048
376.5582, 518.3439
377.0403, 480.4095
377.5224, 446.3245
378.0045, 415.9601
378.4867, 390.0443
378.9688, 367.1925
379.4509, 346.9331
379.9330, 329.4497
380.4151, 313.4072
380.8972, 298.8386
381.3794, 285.6991
381.8615, 274.4705
382.3436, 264.9919
382.8257, 256.4420
383.3078, 248.3708
383.7899, 240.8324
384.2721, 233.7706
384.7542, 227.2306
385.2363, 221.0678
385.7184, 215.2514
386.2005, 209.7210
386.6826, 203.9447
387.1648, 197.6549
387.6469, 191.2649
388.1290, 185.1754
388.6111, 179.3955
389.0932, 173.8376
389.5753, 168.2298
390.0575, 162.8606
390.5396, 157.9957
391.0217, 153.6787
391.5038, 149.7326
391.9859, 146.0493
392.4680, 142.6494
392.9502, 139.5170
393.4323, 136.6518
393.9144, 134.0733
394.3965, 131.8977
394.8786, 130.1314
395.3607, 128.4170
395.8429, 126.5518
396.3250, 124.6982
396.8071, 122.9940
397.2892, 121.4734
397.7713, 120.0951
398.2534, 118.9000
398.7356, 117.8609
399.2177, 116.8728
399.6998, 115.9487
400.1819, 115.0569
400.6640, 114.1909
401.1461, 113.3978
401.6283, 112.5173
402.1104, 111.2753
402.5925, 110.0739
403.0746, 109.6103
403.5567, 110.5534
404.0388, 111.0028
404.5210, 110.2824
405.0031, 108.3895
405.4852, 107.0623
405.9673, 106.4288
406.4494, 106.1167
406.9315, 105.8684
407.4137, 105.7047
407.8958, 105.4159
408.3779, 104.9170
408.8600, 104.3319
409.3421, 103.9865
409.8242, 103.8948
410.3064, 103.8623
410.7885, 103.9061
411.2706, 103.9498
411.7527, 103.4834
412.2348, 102.3909
412.7169, 101.3415
413.1991, 101.2444
413.6812, 101.8711
414.1633, 102.4862
414.6454, 102.9442
415.1275, 103.1536
415.6096, 102.7982
416.0918, 101.9645
416.5739, 101.2640
417.0560, 101.1676
417.5381, 101.4163
418.0202, 101.7637
418.5023, 102.2717
418.9845, 102.5797
419.4666, 102.2386
419.9487, 101.5499
420.4308, 101.0880
420.9129, 101.2567
421.3951, 101.5535
421.8772, 101.7380
422.3593, 101.7820
422.8414, 101.8382
423.3235, 102.0516
423.8056, 102.2377
424.2878, 102.2460
424.7699, 101.6491
425.2520, 101.3450
425.7341, 101.8059
426.2162, 102.7118
426.6983, 102.8773
427.1805, 101.5582
427.6626, 100.3535
428.1447, 99.91976
428.6268, 100.5247
429.1089, 100.9205
429.5910, 100.9994
430.0732, 100.9859
430.5553, 101.1522
431.0374, 101.5113
431.5195, 102.0283
432.0016, 102.8460
432.4837, 103.7998
432.9659, 103.9929
433.4480, 103.3078
433.9301, 102.5967
434.4122, 102.5298
434.8943, 103.0182
435.3764, 103.4436
435.8586, 103.7562
436.3407, 103.9584
436.8228, 103.9198
437.3049, 103.7286
437.7870, 103.7583
438.2691, 104.3153
438.7513, 105.1295
439.2334, 105.9195
439.7155, 106.6732
440.1976, 107.1949
440.6797, 107.1984
441.1618, 106.9446
441.6440, 106.7449
442.1261, 106.6977
442.6082, 106.6828
443.0903, 106.4840
443.5724, 106.2667
444.0545, 106.3881
444.5367, 107.2787
445.0188, 108.2873
445.5009, 109.1333
445.9830, 109.7732
446.4651, 110.3386
446.9472, 110.7366
447.4294, 111.1302
447.9115, 111.6513
448.3936, 112.4158
448.8757, 113.1787
449.3578, 113.9403
449.8399, 114.6837
450.3221, 115.3951
450.8042, 116.0516
451.2863, 116.7202
451.7684, 117.4769
452.2505, 118.3769
452.7326, 119.0454
453.2148, 119.5013
453.6969, 119.6865
454.1790, 119.4479
454.6611, 118.7624
455.1432, 118.1066
455.6253, 117.7110
456.1075, 117.3245
456.5896, 116.2037
457.0717, 114.3522
457.5538, 112.3637
458.0359, 110.5063
458.5180, 108.8172
459.0002, 107.3456
459.4823, 106.1048
459.9644, 105.1082
460.4465, 104.5247
460.9286, 104.1926
461.4107, 103.8153
461.8929, 103.1404
462.3750, 102.4971
462.8571, 102.1577
463.3392, 102.0752
463.8213, 102.0454
464.3034, 101.9408
464.7856, 101.8766
465.2677, 101.9331
465.7498, 102.1409
466.2319, 102.4191
466.7140, 102.6854
467.1961, 103.0293
467.6783, 103.5708
468.1604, 104.6232
468.6425, 105.5360
469.1246, 106.1090
469.6067, 106.3833
470.0888, 106.8671
470.5710, 107.6413
471.0531, 108.5124
471.5352, 109.3705
472.0173, 110.1989
472.4994, 111.0864
472.9815, 111.9955
473.4637, 113.0252
473.9458, 114.3705
474.4279, 116.0584
474.9100, 117.7333
475.3921, 119.3049
475.8742, 120.7751
476.3564, 122.0746
476.8385, 123.2068
477.3206, 124.4335
477.8027, 125.9782
478.2848, 127.7464
478.7669, 129.5293
479.2491, 131.2924
479.7312, 133.0929
480.2133, 135.0129
480.6954, 137.0049
481.1775, 138.9902
481.6596, 140.8130
482.1418, 142.6914
482.6239, 144.8446
483.1060, 147.2283
483.5881, 149.4584
484.0702, 151.3012
484.5523, 153.0237
485.0345, 154.7440
485.5166, 156.2768
485.9987, 158.2315
486.4808, 160.8840
486.9629, 163.9303
487.4450, 166.9320
487.9272, 169.6732
488.4093, 172.7035
488.8914, 176.3515
489.3735, 180.5168
489.8556, 183.9577
490.3377, 186.5658
490.8199, 188.8201
491.3020, 191.0068
491.7841, 193.1648
492.2662, 194.8963
492.7483, 196.1338
493.2304, 197.0578
493.7126, 198.0291
494.1947, 198.9758
494.6768, 199.2358
495.1589, 198.4938
495.6410, 197.0273
496.1231, 195.1639
496.6053, 192.9289
497.0874, 190.6924
497.5695, 188.7874
498.0516, 186.9186
498.5337, 184.5350
499.0158, 181.4496
499.4980, 178.7633
499.9801, 176.9698
500.4622, 175.9988
500.9443, 175.7373
501.4264, 176.2981
501.9085, 177.4247
502.3907, 179.2237
502.8728, 181.5816
503.3549, 184.0404
503.8370, 186.0733
504.3191, 188.6727
504.8012, 192.2449
505.2834, 196.9624
505.7655, 201.8983
506.2476, 207.0207
506.7297, 212.3761
507.2118, 218.0466
507.6939, 223.9678
508.1761, 230.3014
508.6582, 236.9256
509.1403, 244.1133
509.6224, 252.5264
510.1045, 262.1695
510.5866, 272.7673
511.0688, 284.1099
511.5509, 296.2992
512.0330, 309.8806
512.5151, 324.9348
512.9973, 340.3818
513.4794, 355.4654
513.9615, 370.4615
514.4436, 385.8924
514.9257, 402.0579
515.4078, 418.1743
515.8900, 434.7091
516.3721, 450.5499
516.8542, 463.6600
517.3363, 473.9538
517.8184, 480.9028
518.3005, 484.8268
518.7827, 485.6628
519.2648, 481.3036
519.7469, 469.8733
520.2290, 454.2201
520.7111, 435.7125
521.1932, 413.4266
521.6754, 390.4302
522.1575, 365.8936
522.6396, 341.1413
523.1217, 317.8781
523.6038, 295.9776
524.0859, 275.9603
524.5681, 258.1164
525.0502, 242.3876
525.5323, 228.3608
526.0144, 215.9996
526.4965, 205.1926
526.9786, 195.9395
527.4608, 188.0513
527.9429, 181.2936
528.4250, 175.6398
528.9071, 170.5358
529.3892, 165.3801
529.8713, 160.4029
530.3535, 156.1043
530.8356, 152.7536
531.3177, 149.8586
531.7998, 147.2097
532.2819, 144.7725
532.7640, 142.5838
533.2462, 140.6981
533.7283, 138.9686
534.2104, 137.2723
534.6925, 135.5971
535.1746, 134.2086
535.6567, 133.2736
536.1389, 132.5219
536.6210, 131.8109
537.1031, 131.0694
537.5852, 130.5294
538.0673, 130.2986
538.5494, 130.1650
539.0316, 129.6753
539.5137, 128.7234
539.9958, 128.1635
540.4779, 128.4677
540.9600, 129.2234
541.4421, 128.9855
541.9243, 127.8038
542.4064, 126.7814
542.8885, 126.8114
543.3706, 127.4814
543.8527, 128.0921
544.3348, 128.5894
544.8170, 128.9682
545.2991, 129.1051
545.7812, 129.1622
546.2633, 129.3567
546.7454, 129.9507
547.2275, 130.4233
547.7097, 130.4315
548.1918, 130.1605
548.6739, 130.0426
549.1560, 130.2144
549.6381, 130.5022
550.1202, 130.8263
550.6024, 131.1783
551.0845, 131.8282
551.5666, 133.2288
552.0487, 134.3218
552.5308, 134.2999
553.0129, 132.9277
553.4951, 131.7232
553.9772, 130.7483
554.4593, 129.9455
554.9414, 129.4008
555.4235, 129.0636
555.9056, 128.2929
556.3878, 126.7376
556.8699, 124.8478
557.3520, 123.3551
557.8341, 122.2037
558.3162, 121.1851
558.7983, 120.3428
559.2805, 119.4729
559.7626, 118.2268
560.2447, 116.5788
560.7268, 115.2822
561.2089, 115.0853
561.6910, 115.1460
562.1732, 114.7643
562.6553, 113.2993
563.1374, 112.2039
563.6195, 111.7921
564.1016, 111.8125
564.5837, 111.9119
565.0659, 112.1372
565.5480, 112.3537
566.0301, 112.5116
566.5122, 112.6375
566.9943, 112.8865
567.4764, 113.2864
567.9586, 113.6665
568.4407, 113.7648
568.9228, 113.7006
569.4049, 114.2953
569.8870, 115.6101
570.3691, 116.9965
570.8513, 117.7234
571.3334, 118.0785
571.8155, 118.6007
572.2976, 119.4654
572.7797, 120.4166
573.2618, 121.2558
573.7440, 122.0512
574.2261, 122.9455
574.7082, 124.1159
575.1903, 125.2671
575.6724, 126.3107
576.1545, 127.2372
576.6367, 127.9882
577.1188, 128.7423
577.6009, 129.1288
578.0830, 128.9691
578.5651, 128.1899
579.0472, 127.2364
579.5294, 126.0547
580.0115, 124.7750
580.4936, 123.4643
580.9757, 122.1087
581.4578, 120.8867
581.9399, 119.8273
582.4221, 118.9035
582.9042, 118.0960
583.3863, 117.3926
583.8684, 116.6979
584.3505, 115.8719
584.8326, 115.1110
585.3148, 114.7038
585.7969, 114.5754
586.2789, 114.4017
586.7610, 113.9595
587.2432, 113.4512
