##NAMES=Andradite
##RRUFFID=R100138
##IDEAL CHEMISTRY=Ca_3_Fe^3+^_2_(SiO_4_)_3_
##LOCALITY=Madagascar
##OWNER=RRUFF
##SOURCE=William W. Pinch
##DESCRIPTION=Colorless cut gemstone
##STATUS=The identification of this mineral has been confirmed only by single crystal X-ray diffraction.
##URL=rruff.info/R100138
91.03516, 7.265402
91.51727, 7.411585
91.99939, 7.321813
92.48151, 7.053213
92.96362, 6.767024
93.44574, 6.516149
93.92786, 6.308917
94.40997, 6.166899
94.89210, 6.098477
95.37421, 6.074506
95.85633, 6.052577
96.33845, 6.033455
96.82056, 6.037667
97.30268, 6.106405
97.78480, 6.228534
98.26691, 6.282180
98.74903, 6.228461
99.23115, 6.114955
99.71326, 6.074359
100.1954, 6.112371
100.6775, 6.202476
101.1596, 6.366623
101.6417, 6.646520
102.1239, 6.780268
102.6060, 6.677470
103.0881, 6.355746
103.5702, 6.149406
104.0523, 6.129638
104.5344, 6.136350
105.0166, 5.976649
105.4987, 5.506256
105.9808, 5.129977
106.4629, 4.964835
106.9450, 5.067513
107.4271, 5.114426
107.9093, 5.035644
108.3914, 4.925940
108.8735, 4.930557
109.3556, 5.316981
109.8377, 5.568329
110.3198, 5.514701
110.8020, 4.930793
111.2841, 4.478531
111.7662, 4.194473
112.2483, 4.055384
112.7304, 4.005124
113.2125, 4.110473
113.6947, 4.250418
114.1768, 4.374522
114.6589, 4.558344
115.1410, 4.619508
115.6231, 4.382104
116.1052, 3.945972
116.5874, 3.686120
117.0695, 4.007620
117.5516, 4.422239
118.0337, 4.553389
118.5158, 3.939799
118.9980, 3.340569
119.4801, 3.132098
119.9622, 3.288088
120.4443, 3.479614
120.9264, 3.484077
121.4085, 3.429057
121.8907, 3.471992
122.3728, 3.858358
122.8549, 4.253165
123.3370, 4.317896
123.8191, 4.030493
124.3012, 3.742176
124.7834, 3.810527
125.2655, 4.091876
125.7476, 4.278918
126.2297, 4.119155
126.7118, 3.809242
127.1939, 3.645302
127.6761, 3.663424
128.1582, 3.737341
128.6403, 3.749004
129.1224, 3.699814
129.6045, 3.596575
130.0867, 3.378993
130.5688, 3.099525
131.0509, 2.939007
131.5330, 2.921000
132.0151, 3.005084
132.4972, 3.188477
132.9794, 3.471526
133.4615, 3.662967
133.9436, 3.557527
134.4257, 3.182384
134.9078, 2.912288
135.3899, 2.779413
135.8721, 2.793804
136.3542, 3.038847
136.8363, 3.563385
137.3184, 4.103456
137.8005, 4.448370
138.2826, 4.586119
138.7648, 4.634155
139.2469, 4.594949
139.7290, 4.478765
140.2111, 4.335011
140.6932, 4.103261
141.1753, 3.953572
141.6575, 4.106042
142.1396, 4.730760
142.6217, 5.190544
143.1038, 5.294505
143.5859, 5.018126
144.0681, 4.898665
144.5502, 4.901450
145.0323, 5.089980
145.5144, 5.605505
145.9965, 6.879227
146.4786, 7.802210
146.9608, 7.995992
147.4429, 7.238511
147.9250, 6.710444
148.4071, 6.363875
148.8892, 6.263342
149.3713, 6.518757
149.8535, 7.634431
150.3356, 8.611967
150.8177, 9.163080
151.2998, 9.080649
151.7819, 9.015504
152.2640, 8.883386
152.7462, 8.776282
153.2283, 8.862420
153.7104, 9.210867
154.1925, 9.705404
154.6746, 10.32813
155.1567, 11.19617
155.6389, 11.96767
156.1210, 12.62195
156.6031, 13.15518
157.0852, 13.56735
157.5673, 13.71747
158.0495, 13.84429
158.5316, 14.06892
159.0137, 14.45841
159.4958, 14.87959
159.9779, 15.29675
160.4600, 15.71953
160.9422, 16.17952
161.4243, 16.70252
161.9064, 17.25756
162.3885, 17.80998
162.8706, 18.18137
163.3527, 18.75772
163.8349, 19.74746
164.3170, 21.10260
164.7991, 22.59357
165.2812, 23.77687
165.7633, 25.19200
166.2454, 27.31766
166.7276, 30.13602
167.2097, 33.85723
167.6918, 38.28194
168.1739, 43.49714
168.6560, 50.53003
169.1381, 59.87121
169.6203, 71.36787
170.1024, 84.26554
170.5845, 98.77817
171.0666, 114.9447
171.5487, 133.8637
172.0309, 155.1763
172.5130, 174.7272
172.9951, 194.8634
173.4772, 210.7572
173.9593, 214.7055
174.4414, 198.5651
174.9236, 172.1163
175.4057, 143.3498
175.8878, 112.0031
176.3699, 84.02487
176.8520, 64.28231
177.3341, 51.20927
177.8163, 41.48913
178.2984, 34.83598
178.7805, 30.30425
179.2626, 26.73423
179.7447, 24.18217
180.2268, 22.26007
180.7090, 20.80489
181.1911, 19.73338
181.6732, 18.81700
182.1553, 17.95252
182.6374, 17.17099
183.1195, 16.57694
183.6017, 16.17495
184.0838, 15.89534
184.5659, 15.67625
185.0480, 15.51097
185.5301, 15.35588
186.0123, 15.15299
186.4944, 14.94005
186.9765, 14.86772
187.4586, 14.96336
187.9407, 15.11047
188.4228, 15.19781
188.9050, 15.21971
189.3871, 15.10013
189.8692, 14.69384
190.3513, 14.07909
190.8334, 13.63792
191.3155, 13.39489
191.7977, 13.31511
192.2798, 13.40472
192.7619, 13.66324
193.2440, 13.89448
193.7261, 14.02268
194.2082, 14.04644
194.6904, 13.92082
195.1725, 13.60238
195.6546, 13.21488
196.1367, 13.02252
196.6188, 13.03874
197.1009, 13.05137
197.5831, 12.87743
198.0652, 12.51672
198.5473, 12.43515
199.0294, 12.74426
199.5115, 13.22081
199.9937, 13.38265
200.4758, 13.18710
200.9579, 12.94484
201.4400, 12.79495
201.9221, 12.73451
202.4042, 12.82174
202.8864, 13.11557
203.3685, 13.50222
203.8506, 13.73432
204.3327, 13.81212
204.8148, 13.73154
205.2969, 13.38616
205.7791, 12.69488
206.2612, 12.35530
206.7433, 12.49950
207.2254, 12.94607
207.7075, 13.23584
208.1896, 13.33472
208.6718, 13.37898
209.1539, 13.45009
209.6360, 13.56496
210.1181, 13.61255
210.6002, 13.56416
211.0823, 13.45799
211.5645, 13.40396
212.0466, 13.41814
212.5287, 13.44672
213.0108, 13.42496
213.4929, 13.28506
213.9750, 13.38805
214.4572, 13.88290
214.9393, 14.58039
215.4214, 14.88892
215.9035, 14.63310
216.3856, 14.34652
216.8678, 14.34237
217.3499, 14.73208
217.8320, 15.02807
218.3141, 15.16339
218.7962, 15.20142
219.2783, 15.31867
219.7605, 15.46801
220.2426, 15.77889
220.7247, 16.36088
221.2068, 17.34997
221.6889, 18.19696
222.1710, 18.77258
222.6532, 19.21412
223.1353, 19.91693
223.6174, 20.89174
224.0995, 22.12254
224.5816, 23.61893
225.0637, 25.47654
225.5459, 27.35816
226.0280, 29.04432
226.5101, 30.79861
226.9922, 33.43265
227.4743, 37.39874
227.9564, 41.56371
228.4386, 45.43815
228.9207, 48.79791
229.4028, 52.19390
229.8849, 55.41011
230.3670, 58.72492
230.8492, 62.90821
231.3313, 67.41396
231.8134, 73.53275
232.2955, 81.93831
232.7776, 92.58529
233.2597, 105.4327
233.7419, 121.2616
234.2240, 139.1080
234.7061, 156.7501
235.1882, 177.4218
235.6703, 193.0014
236.1524, 200.4626
236.6346, 200.0058
237.1167, 190.1137
237.5988, 166.8223
238.0809, 135.5993
238.5630, 108.3282
239.0451, 84.90321
239.5273, 65.89598
240.0094, 51.90428
240.4915, 44.34863
240.9736, 38.10250
241.4557, 33.27683
241.9378, 29.66125
242.4200, 26.90313
242.9021, 25.29778
243.3842, 24.04611
243.8663, 22.86485
244.3484, 21.73313
244.8306, 20.72518
245.3127, 19.82403
245.7948, 19.06318
246.2769, 18.53586
246.7590, 18.37535
247.2411, 18.23161
247.7233, 17.98547
248.2054, 17.61104
248.6875, 17.21781
249.1696, 16.74752
249.6517, 16.30091
250.1338, 16.04915
250.6160, 16.04039
251.0981, 16.14241
251.5802, 16.34226
252.0623, 16.67652
252.5444, 16.92533
253.0265, 17.06982
253.5087, 17.14288
253.9908, 17.18037
254.4729, 17.15865
254.9550, 17.14511
255.4371, 17.11431
255.9192, 17.03062
256.4014, 17.23921
256.8835, 17.86816
257.3656, 18.66286
257.8477, 19.28493
258.3298, 19.53541
258.8120, 20.06140
259.2941, 21.01809
259.7762, 22.41910
260.2583, 24.09267
260.7404, 25.94517
261.2225, 28.20457
261.7047, 31.25399
262.1868, 35.38482
262.6689, 39.62111
263.1510, 44.10833
263.6331, 48.76571
264.1152, 52.04077
264.5974, 54.06888
265.0795, 54.45574
265.5616, 52.53725
266.0437, 47.66636
266.5258, 42.48512
267.0079, 37.21044
267.4901, 31.91612
267.9722, 27.68089
268.4543, 24.51961
268.9364, 22.29789
269.4185, 21.09236
269.9006, 21.16660
270.3828, 21.10074
270.8649, 20.62800
271.3470, 19.85588
271.8291, 19.28392
272.3112, 18.93506
272.7933, 18.70893
273.2755, 18.56404
273.7576, 18.51767
274.2397, 18.42150
274.7218, 18.23669
275.2039, 18.00371
275.6860, 17.82950
276.1682, 17.70090
276.6503, 17.67443
277.1324, 17.83980
277.6145, 18.21870
278.0966, 18.47270
278.5787, 18.54775
279.0609, 18.51860
279.5430, 18.54056
280.0251, 18.61697
280.5072, 18.72732
280.9893, 18.86607
281.4715, 19.03219
281.9536, 19.21174
282.4357, 19.40329
282.9178, 19.60971
283.3999, 19.85420
283.8820, 20.14068
284.3642, 20.38949
284.8463, 20.49565
285.3284, 20.48662
285.8105, 20.70662
286.2926, 21.19756
286.7747, 21.78878
287.2569, 22.21865
287.7390, 22.49547
288.2211, 22.85024
288.7032, 23.40842
289.1853, 24.12567
289.6674, 24.80791
290.1496, 25.45151
290.6317, 26.10526
291.1138, 26.70523
291.5959, 27.30602
292.0780, 28.26612
292.5602, 29.83936
293.0423, 31.80719
293.5244, 33.64464
294.0065, 35.34076
294.4886, 36.96617
294.9707, 38.80257
295.4529, 40.68848
295.9350, 42.00829
296.4171, 42.59590
296.8992, 42.55808
297.3813, 41.91859
297.8634, 40.71861
298.3456, 39.36799
298.8277, 38.13015
299.3098, 36.98375
299.7919, 35.85057
300.2740, 34.63106
300.7561, 33.58517
301.2383, 33.06532
301.7204, 33.03346
302.2025, 33.36160
302.6846, 33.89683
303.1667, 34.75787
303.6488, 36.13729
304.1310, 38.05777
304.6131, 40.48270
305.0952, 43.09492
305.5773, 46.12242
306.0594, 50.16330
306.5415, 55.49805
307.0237, 62.04131
307.5058, 69.76796
307.9879, 78.62487
308.4700, 88.74536
308.9521, 100.9775
309.4343, 114.5082
309.9164, 128.1582
310.3985, 144.3427
310.8806, 158.5921
311.3627, 168.1844
311.8448, 173.0891
312.3270, 172.4175
312.8091, 163.4626
313.2912, 149.3539
313.7733, 133.7881
314.2554, 115.3843
314.7375, 98.17546
315.2197, 84.18265
315.7018, 73.19421
316.1839, 64.37413
316.6660, 57.81834
317.1481, 52.97541
317.6302, 49.47986
318.1124, 47.49735
318.5945, 46.46375
319.0766, 46.24803
319.5587, 46.83973
320.0408, 48.18064
320.5229, 50.38246
321.0051, 53.23587
321.4872, 56.68686
321.9693, 60.92854
322.4514, 65.31306
322.9335, 70.33984
323.4156, 75.37449
323.8978, 79.19398
324.3799, 82.28294
324.8620, 83.52309
325.3441, 82.31701
325.8262, 78.10863
326.3083, 73.11222
326.7905, 66.47649
327.2726, 59.44578
327.7547, 53.63756
328.2368, 49.43144
328.7189, 46.05627
329.2010, 43.44589
329.6832, 41.64561
330.1653, 40.33614
330.6474, 39.69194
331.1295, 39.41412
331.6116, 39.24895
332.0938, 39.07374
332.5759, 39.21844
333.0580, 39.83450
333.5401, 40.85320
334.0222, 41.67573
334.5043, 42.04345
334.9865, 42.57976
335.4686, 43.69989
335.9507, 45.62042
336.4328, 47.53721
336.9149, 49.35235
337.3970, 51.19342
337.8792, 53.31300
338.3613, 55.75344
338.8434, 58.43014
339.3255, 61.27626
339.8076, 64.26431
340.2898, 67.71345
340.7719, 71.62676
341.2540, 76.04337
341.7361, 80.91673
342.2182, 86.06270
342.7003, 92.59047
343.1825, 100.8501
343.6646, 110.8287
344.1467, 121.5756
344.6288, 132.9546
345.1109, 146.2455
345.5930, 162.3970
346.0752, 181.3748
346.5573, 204.5831
347.0394, 232.3610
347.5215, 264.7263
348.0036, 302.9002
348.4857, 346.7094
348.9679, 394.4834
349.4500, 449.9970
349.9321, 509.3248
350.4142, 562.4226
350.8963, 610.0647
351.3784, 645.9791
351.8606, 661.5839
352.3427, 657.9169
352.8248, 638.6558
353.3069, 599.1403
353.7890, 547.9235
354.2711, 493.4383
354.7533, 435.7565
355.2354, 381.9329
355.7175, 337.6610
356.1996, 301.9985
356.6817, 273.3073
357.1638, 252.2710
357.6460, 236.9840
358.1281, 226.5532
358.6102, 220.8180
359.0923, 217.8768
359.5744, 216.7613
360.0565, 217.9457
360.5387, 221.8672
361.0208, 228.4099
361.5029, 238.0433
361.9850, 250.1772
362.4671, 265.3636
362.9492, 285.2473
363.4314, 309.0225
363.9135, 338.6368
364.3956, 375.0583
364.8777, 418.4800
365.3598, 469.0621
365.8419, 527.7753
366.3241, 593.3764
366.8062, 663.7024
367.2883, 744.3127
367.7704, 823.9727
368.2526, 903.4074
368.7347, 985.9219
369.2168, 1049.302
369.6989, 1096.589
370.1810, 1123.225
370.6631, 1125.641
371.1453, 1098.581
371.6274, 1054.505
372.1095, 990.1497
372.5916, 907.8925
373.0737, 825.2537
373.5558, 738.1376
374.0380, 655.6641
374.5201, 581.5958
375.0022, 516.8928
375.4843, 459.8577
375.9664, 410.8806
376.4485, 369.2135
376.9307, 332.5691
377.4128, 301.4634
377.8949, 274.5040
378.3770, 251.7345
378.8591, 233.1489
379.3412, 217.2440
379.8234, 204.3193
380.3055, 193.4886
380.7876, 184.4327
381.2697, 177.0030
381.7518, 170.0591
382.2339, 163.7616
382.7161, 157.4265
383.1982, 149.0254
383.6803, 138.6837
384.1624, 127.8976
384.6445, 117.3938
385.1266, 107.3908
385.6088, 98.47188
386.0909, 90.81852
386.5730, 84.02759
387.0551, 77.72026
387.5372, 72.00571
388.0193, 67.08894
388.5015, 63.37941
388.9836, 60.42334
389.4657, 57.82434
389.9478, 55.56548
390.4299, 53.49545
390.9120, 51.53429
391.3942, 49.68819
391.8763, 47.99590
392.3584, 46.60769
392.8405, 45.24166
393.3226, 43.59867
393.8047, 41.79566
394.2869, 40.36795
394.7690, 39.93867
395.2511, 39.66676
395.7332, 38.98013
396.2154, 37.44933
396.6975, 36.21993
397.1796, 35.82551
397.6617, 35.82749
398.1438, 35.47688
398.6259, 34.18344
399.1081, 33.00236
399.5902, 32.28611
400.0723, 32.12288
400.5544, 31.81589
401.0365, 31.28615
401.5186, 30.66823
402.0008, 30.06448
402.4829, 29.40589
402.9650, 28.88849
403.4471, 28.57407
403.9292, 28.41555
404.4113, 28.22731
404.8935, 28.00704
405.3756, 27.76054
405.8577, 27.47643
406.3398, 27.14651
406.8219, 26.88694
407.3040, 26.74708
407.7862, 26.58581
408.2683, 26.13762
408.7504, 25.39222
409.2325, 24.70903
409.7146, 24.16723
410.1967, 23.79308
410.6789, 23.74070
411.1610, 24.02449
411.6431, 24.26252
412.1252, 24.02460
412.6073, 23.47115
413.0894, 23.06071
413.5716, 22.90630
414.0537, 22.88834
414.5358, 22.96256
415.0179, 23.07632
415.5000, 23.06005
415.9821, 22.72565
416.4643, 22.26569
416.9464, 21.85463
417.4285, 21.50600
417.9106, 21.23393
418.3927, 21.12430
418.8748, 21.06981
419.3570, 20.94531
419.8391, 20.55096
420.3212, 20.22928
420.8033, 20.24013
421.2854, 20.48879
421.7675, 20.53054
422.2497, 19.87219
422.7318, 19.23828
423.2139, 19.07285
423.6960, 19.76163
424.1781, 20.18027
424.6602, 20.01952
425.1424, 19.56983
425.6245, 19.25463
426.1066, 19.16294
426.5887, 19.09976
427.0709, 18.98845
427.5530, 18.82904
428.0351, 18.90540
428.5172, 19.39377
428.9993, 19.87743
429.4814, 20.04268
429.9636, 19.81422
430.4457, 19.53126
430.9278, 19.15678
431.4099, 18.80612
431.8920, 18.79304
432.3741, 19.16518
432.8563, 19.50340
433.3384, 19.58735
433.8205, 19.45914
434.3026, 19.38761
434.7847, 19.36988
435.2668, 19.42514
435.7490, 19.65199
436.2311, 19.98551
436.7132, 20.17198
437.1953, 20.08455
437.6774, 19.90569
438.1595, 19.85258
438.6417, 19.91567
439.1238, 20.05557
439.6059, 20.26134
440.0880, 20.52530
440.5701, 20.82725
441.0522, 21.15897
441.5344, 21.58525
442.0165, 22.20279
442.4986, 22.91976
442.9807, 23.62083
443.4628, 24.21730
443.9449, 24.84036
444.4271, 25.52123
444.9092, 26.26482
445.3913, 27.10122
445.8734, 27.91316
446.3555, 28.89563
446.8376, 30.13381
447.3198, 31.60678
447.8019, 33.40981
448.2840, 35.74375
448.7661, 38.30277
449.2482, 40.65263
449.7303, 42.62873
450.2125, 44.68001
450.6946, 47.21055
451.1767, 50.10600
451.6588, 51.50940
452.1409, 51.20007
452.6230, 49.94584
453.1052, 48.18260
453.5873, 45.87202
454.0694, 43.29704
454.5515, 40.40123
455.0337, 37.42228
455.5158, 34.81469
455.9979, 32.54284
456.4800, 30.41859
456.9621, 28.22754
457.4442, 26.14531
457.9264, 24.61572
458.4085, 23.63170
458.8906, 22.87558
459.3727, 22.07918
459.8548, 21.35326
460.3369, 20.93671
460.8191, 20.99364
461.3012, 21.08695
461.7833, 20.79115
462.2654, 20.27349
462.7475, 19.88287
463.2296, 19.89527
463.7118, 19.96947
464.1939, 19.92204
464.6760, 19.73995
465.1581, 19.52240
465.6402, 19.14892
466.1223, 18.84333
466.6045, 18.76932
467.0866, 19.26754
467.5687, 19.60191
468.0508, 19.63861
468.5329, 19.49576
469.0150, 19.43555
469.4972, 19.50727
469.9793, 19.58600
470.4614, 19.61613
470.9435, 19.59029
471.4256, 19.68738
471.9077, 19.96514
472.3899, 20.25127
472.8720, 20.34836
473.3541, 20.23049
473.8362, 20.25968
474.3183, 20.50308
474.8004, 20.89002
475.2826, 21.29276
475.7647, 21.71289
476.2468, 22.17373
476.7289, 22.74698
477.2110, 23.35959
477.6931, 23.79449
478.1753, 24.05301
478.6574, 24.34966
479.1395, 24.84981
479.6216, 25.50389
480.1037, 26.23601
480.5858, 27.01389
481.0680, 27.89689
481.5501, 28.95083
482.0322, 30.13964
482.5143, 31.38028
482.9964, 32.55158
483.4786, 33.84425
483.9607, 35.30674
484.4428, 36.92159
484.9249, 38.87695
485.4070, 41.20563
485.8892, 43.86926
486.3713, 46.84013
486.8534, 49.59876
487.3355, 53.36286
487.8176, 58.30660
488.2997, 64.21199
488.7819, 70.83212
489.2640, 78.50475
489.7461, 86.21622
490.2282, 93.73759
490.7103, 101.1059
491.1924, 108.0976
491.6746, 114.9806
492.1567, 120.5725
492.6388, 124.0207
493.1209, 125.3248
493.6030, 124.0335
494.0851, 119.8044
494.5673, 113.7768
495.0494, 107.1883
495.5315, 100.1068
496.0136, 93.02868
496.4957, 85.58462
496.9778, 78.57182
497.4600, 72.63042
497.9421, 67.77209
498.4242, 63.77446
498.9063, 60.64288
499.3884, 58.19831
499.8705, 56.25379
500.3527, 54.81665
500.8348, 53.82160
501.3169, 53.28541
501.7990, 53.18739
502.2811, 53.50358
502.7632, 54.30067
503.2454, 55.43627
503.7275, 56.82180
504.2096, 58.47495
504.6917, 60.72578
505.1738, 63.54974
505.6559, 66.95735
506.1381, 70.82143
506.6202, 74.93328
507.1023, 80.28403
507.5844, 86.73362
508.0665, 94.64389
508.5486, 104.1849
509.0308, 115.3946
509.5129, 128.8992
509.9950, 144.7002
510.4771, 163.1021
510.9592, 185.3805
511.4413, 211.3312
511.9235, 239.7265
512.4056, 270.9390
512.8877, 303.5962
513.3698, 337.8632
513.8519, 374.1340
514.3340, 405.5733
514.8162, 430.1357
515.2983, 445.9195
515.7804, 450.5108
516.2625, 440.5125
516.7446, 422.5844
517.2267, 396.9654
517.7089, 365.4107
518.1910, 332.4134
518.6731, 295.2932
519.1552, 260.1747
519.6373, 229.4845
520.1194, 203.0770
520.6016, 179.6850
521.0837, 159.7203
521.5658, 142.5872
522.0479, 128.0922
522.5300, 116.7598
523.0121, 106.6343
523.4943, 97.59981
523.9764, 89.70101
524.4585, 83.14047
524.9406, 78.04051
525.4227, 73.55943
525.9048, 69.52315
526.3870, 65.86855
526.8691, 62.26255
527.3513, 58.71434
527.8334, 55.58287
528.3155, 53.20721
528.7976, 51.33924
529.2797, 49.64115
529.7618, 48.07264
530.2440, 46.58841
530.7261, 45.17147
531.2082, 43.82313
531.6903, 42.57153
532.1724, 41.22739
532.6545, 40.17412
533.1367, 39.67611
533.6188, 39.58700
534.1009, 39.36388
534.5830, 38.88739
535.0651, 38.30193
535.5472, 37.60014
536.0294, 36.72435
536.5115, 36.12149
536.9936, 35.88184
537.4757, 35.78901
537.9578, 35.70348
538.4399, 35.64734
538.9221, 35.42768
539.4042, 34.96818
539.8863, 34.43127
540.3684, 34.07969
540.8505, 33.90875
541.3326, 33.87185
541.8148, 34.04778
542.2969, 34.28683
542.7790, 34.22796
543.2611, 33.92228
543.7432, 33.77230
544.2253, 34.19738
544.7075, 34.83854
545.1896, 35.28544
545.6717, 35.42827
546.1538, 35.68707
546.6359, 36.20387
547.1180, 36.97129
547.6002, 37.97626
548.0823, 39.51733
548.5644, 40.95018
549.0465, 42.03163
549.5286, 42.92281
550.0107, 44.11604
550.4929, 45.96063
550.9750, 47.58861
551.4571, 48.76678
551.9392, 49.49660
552.4213, 49.77061
552.9034, 49.58992
553.3856, 48.96391
553.8677, 47.80660
554.3498, 46.15090
554.8319, 44.37303
555.3140, 42.49528
555.7961, 40.55025
556.2783, 38.54538
556.7604, 36.51805
557.2425, 34.58855
557.7246, 32.70957
558.2067, 31.03781
558.6888, 29.77695
559.1710, 28.87071
559.6531, 28.14840
560.1352, 27.60016
560.6173, 27.16109
561.0994, 26.82824
561.5815, 26.61224
562.0637, 26.37518
562.5458, 26.09362
563.0279, 25.77897
563.5100, 25.42135
563.9921, 24.81682
564.4742, 24.55901
564.9564, 24.85189
565.4385, 25.34645
565.9206, 25.36122
566.4027, 24.74622
566.8848, 24.41352
567.3669, 24.68682
567.8491, 25.39544
568.3312, 25.94174
568.8133, 26.33562
569.2954, 26.92895
569.7775, 28.01269
570.2596, 29.42844
570.7418, 30.90496
571.2239, 32.44157
571.7060, 33.95573
572.1881, 35.32724
572.6702, 36.66627
573.1523, 38.14234
573.6345, 39.96412
574.1166, 41.59589
574.5987, 42.92114
575.0808, 43.89510
575.5629, 44.46033
576.0450, 44.73368
576.5272, 44.41396
577.0093, 43.38623
577.4914, 41.70967
577.9735, 39.63449
578.4556, 36.94628
578.9377, 34.33590
579.4199, 32.08577
579.9020, 30.22651
580.3841, 28.62957
580.8662, 27.30968
581.3483, 26.19391
581.8304, 25.29646
582.3126, 24.56710
582.7947, 23.80577
583.2768, 22.93352
583.7589, 22.14844
584.2410, 21.71347
584.7231, 21.51618
585.2053, 21.33426
585.6874, 21.00953
586.1696, 20.73417
586.6517, 20.65987
587.1338, 20.73865
587.6159, 20.75591
588.0980, 20.59724
588.5801, 20.41711
589.0623, 20.31749
589.5444, 20.34267
590.0265, 20.14350
