##NAMES=Andradite
##RRUFFID=R060358
##IDEAL CHEMISTRY=Ca_3_Fe^3+^_2_(SiO_4_)_3_
##LOCALITY=Soghan, near Jiroft, Kerman, Iran
##OWNER=RRUFF
##SOURCE=Herb Obodda
##DESCRIPTION=Green dodecahedron
##STATUS=The identification of this mineral has been confirmed by X-ray diffraction and chemical analysis
##URL=rruff.info/R060358
##MEASURED CHEMISTRY=Ca_3.00_(Fe^3+^_1.89_Cr_0.11_)_Î£=2_(Si_1.00_O_4_)_3_
91.72394, 0.0000000E+00
92.20605, 32.69254
92.68817, 33.22264
93.17029, 33.68230
93.65240, 33.46347
94.13452, 33.05257
94.61664, 32.67679
95.09875, 32.47825
95.58087, 32.35501
96.06299, 31.92756
96.54510, 30.91396
97.02721, 30.01188
97.50933, 29.43378
97.99145, 29.04010
98.47356, 28.63247
98.95568, 28.05097
99.43780, 27.24980
99.91991, 26.57383
100.4020, 26.11164
100.8841, 25.65791
101.3663, 25.03818
101.8484, 24.29964
102.3305, 23.69339
102.8126, 23.49491
103.2947, 23.83041
103.7768, 24.06757
104.2590, 24.18844
104.7411, 24.22116
105.2232, 24.17988
105.7053, 24.05882
106.1874, 23.89817
106.6695, 23.76564
107.1517, 23.66298
107.6338, 23.48023
108.1159, 23.14564
108.5980, 22.67897
109.0801, 22.16059
109.5622, 21.45803
110.0444, 20.85888
110.5265, 20.66073
111.0086, 20.89565
111.4907, 21.19315
111.9728, 21.11033
112.4549, 20.53077
112.9371, 19.96564
113.4192, 19.44284
113.9013, 19.00270
114.3834, 18.70251
114.8655, 18.56516
115.3476, 18.53025
115.8298, 18.43918
116.3119, 18.21959
116.7940, 18.02809
117.2761, 17.85431
117.7582, 17.72156
118.2403, 17.68421
118.7225, 17.78788
119.2046, 18.00489
119.6867, 17.99753
120.1688, 17.48535
120.6509, 17.07430
121.1330, 17.05210
121.6152, 17.34963
122.0973, 17.67401
122.5794, 17.79803
123.0615, 17.71640
123.5436, 17.68160
124.0257, 17.79986
124.5079, 17.90482
124.9900, 17.77731
125.4721, 17.35882
125.9542, 16.97067
126.4363, 17.00341
126.9184, 17.30886
127.4006, 17.56143
127.8827, 17.58835
128.3648, 17.46250
128.8469, 17.41643
129.3290, 17.53661
129.8111, 17.64108
130.2932, 17.61422
130.7754, 17.47824
131.2575, 17.31483
131.7396, 17.20647
132.2217, 17.16808
132.7038, 17.04996
133.1859, 16.59283
133.6681, 16.24931
134.1502, 16.32340
134.6323, 16.79306
135.1144, 17.34366
135.5965, 17.54263
136.0786, 17.15333
136.5608, 16.87245
137.0429, 16.72360
137.5250, 16.64582
138.0071, 16.61222
138.4892, 16.60966
138.9713, 16.61787
139.4535, 16.59366
139.9356, 16.46980
140.4177, 16.40767
140.8998, 16.49786
141.3819, 16.63635
141.8640, 16.66259
142.3462, 16.49045
142.8283, 16.20569
143.3104, 16.05328
143.7925, 16.05327
144.2746, 16.10847
144.7567, 16.24169
145.2388, 16.42051
145.7210, 16.48310
146.2031, 16.23340
146.6852, 15.89911
147.1673, 15.91269
147.6494, 16.43913
148.1315, 17.09634
148.6137, 17.47481
149.0958, 17.51800
149.5779, 17.68869
150.0600, 18.27074
150.5421, 19.08439
151.0242, 20.02787
151.5064, 21.12472
151.9885, 22.25110
152.4706, 23.13905
152.9527, 23.73524
153.4348, 24.17809
153.9169, 24.56385
154.3991, 24.84752
154.8812, 24.95603
155.3633, 24.82295
155.8454, 24.49550
156.3275, 24.25880
156.8096, 24.06401
157.2918, 24.03772
157.7739, 24.25110
158.2560, 24.64841
158.7381, 25.12785
159.2202, 25.60764
159.7023, 26.08289
160.1845, 26.75410
160.6666, 27.97790
161.1487, 29.03370
161.6308, 29.49297
162.1129, 29.48652
162.5950, 29.49788
163.0772, 29.94372
163.5593, 30.88939
164.0414, 31.93714
164.5235, 33.04276
165.0056, 34.26534
165.4877, 35.65271
165.9698, 37.20864
166.4520, 38.84208
166.9341, 40.27640
167.4162, 41.53987
167.8983, 43.80595
168.3804, 46.92134
168.8625, 51.23170
169.3447, 57.14018
169.8268, 64.69913
170.3089, 73.84261
170.7910, 85.54737
171.2731, 99.07524
171.7552, 111.8457
172.2374, 125.6205
172.7195, 138.0483
173.2016, 142.0139
173.6837, 134.5469
174.1658, 120.9783
174.6479, 103.6501
175.1301, 83.71299
175.6122, 65.45541
176.0943, 52.05158
176.5764, 43.34025
177.0585, 36.32441
177.5406, 31.63296
178.0228, 28.09592
178.5049, 25.36640
178.9870, 23.32601
179.4691, 21.80094
179.9512, 20.69529
180.4333, 20.09188
180.9155, 19.53055
181.3976, 19.00554
181.8797, 18.52491
182.3618, 18.11252
182.8439, 17.75982
183.3260, 17.43152
183.8082, 17.06959
184.2903, 16.60336
184.7724, 16.30429
185.2545, 16.25264
185.7366, 16.27104
186.2187, 16.28716
186.7009, 16.27034
187.1830, 16.18530
187.6651, 15.97083
188.1472, 15.50124
188.6293, 15.16811
189.1114, 15.02392
189.5936, 14.98149
190.0757, 14.99451
190.5578, 15.04723
191.0399, 15.09673
191.5220, 15.06518
192.0041, 14.90746
192.4863, 14.79480
192.9684, 14.76128
193.4505, 14.77755
193.9326, 14.81992
194.4147, 14.88918
194.8968, 14.95127
195.3790, 14.94125
195.8611, 14.86090
196.3432, 14.75975
196.8253, 14.61871
197.3074, 14.46824
197.7895, 14.37317
198.2717, 14.35184
198.7538, 14.39378
199.2359, 14.51041
199.7180, 14.70694
200.2001, 14.85417
200.6822, 14.82882
201.1644, 14.67555
201.6465, 14.62377
202.1286, 14.79713
202.6107, 15.00797
203.0928, 15.06155
203.5749, 14.95975
204.0571, 14.86815
204.5392, 14.93614
205.0213, 15.16116
205.5034, 15.34924
205.9855, 15.42333
206.4676, 15.48778
206.9497, 15.60418
207.4319, 15.77529
207.9140, 15.97093
208.3961, 16.16695
208.8782, 16.36576
209.3603, 16.54958
209.8424, 16.70112
210.3246, 16.84849
210.8067, 16.96276
211.2888, 17.06150
211.7709, 17.23176
212.2530, 17.57764
212.7351, 18.11675
213.2173, 18.78125
213.6994, 19.58872
214.1815, 20.48900
214.6636, 21.53289
215.1457, 22.68537
215.6278, 23.81283
216.1100, 24.75335
216.5921, 25.52630
217.0742, 26.02221
217.5563, 26.10130
218.0384, 26.07086
218.5205, 26.09138
219.0027, 26.20412
219.4848, 26.38214
219.9669, 26.57461
220.4490, 26.69160
220.9311, 27.09429
221.4132, 27.96183
221.8954, 28.96064
222.3775, 29.85572
222.8596, 30.60293
223.3417, 31.29757
223.8238, 32.04780
224.3059, 32.83391
224.7881, 33.77939
225.2702, 34.82042
225.7523, 36.05413
226.2344, 37.60147
226.7165, 39.47978
227.1986, 41.53053
227.6807, 43.58581
228.1629, 45.63913
228.6450, 47.69893
229.1271, 49.47852
229.6092, 51.40649
230.0913, 53.77069
230.5734, 56.60431
231.0556, 60.12683
231.5377, 64.35287
232.0198, 69.25774
232.5019, 76.16549
232.9840, 86.58965
233.4661, 98.57468
233.9483, 110.8417
234.4304, 123.7320
234.9125, 133.7678
235.3946, 137.1292
235.8767, 134.7114
236.3588, 128.0239
236.8410, 114.8955
237.3231, 98.55830
237.8052, 83.22475
238.2873, 68.85236
238.7694, 56.48423
239.2515, 47.40033
239.7337, 40.86631
240.2158, 35.75602
240.6979, 32.11229
241.1800, 29.55386
241.6621, 27.45522
242.1442, 25.84321
242.6264, 24.59322
243.1085, 23.69146
243.5906, 23.06211
244.0727, 22.64062
244.5548, 22.52176
245.0369, 22.54492
245.5191, 22.32290
246.0012, 21.71402
246.4833, 21.20021
246.9654, 21.09603
247.4475, 21.19922
247.9296, 21.25270
248.4117, 21.14915
248.8939, 20.92928
249.3760, 20.65194
249.8581, 20.23632
250.3402, 19.94579
250.8223, 19.93440
251.3044, 20.05815
251.7866, 20.15768
252.2687, 20.15749
252.7508, 20.11774
253.2329, 20.17068
253.7150, 20.32310
254.1971, 20.56525
254.6793, 20.96182
255.1614, 21.39988
255.6435, 21.75862
256.1256, 21.98404
256.6077, 22.15436
257.0898, 22.43270
257.5720, 22.83734
258.0541, 23.32649
258.5362, 23.66490
259.0183, 24.18145
259.5004, 25.16512
259.9825, 26.71246
260.4647, 28.70543
260.9468, 30.93231
261.4289, 33.39393
261.9110, 36.12810
262.3931, 39.67891
262.8752, 43.14396
263.3574, 46.11057
263.8395, 48.37890
264.3216, 49.55023
264.8037, 48.90742
265.2858, 45.69291
265.7679, 42.00953
266.2501, 37.22437
266.7322, 32.53661
267.2143, 28.67486
267.6964, 25.82126
268.1785, 23.81875
268.6606, 22.52595
269.1428, 22.19114
269.6249, 21.99393
270.1070, 22.05210
270.5891, 22.12786
271.0712, 22.05069
271.5533, 21.82278
272.0355, 21.58399
272.5176, 21.49275
272.9997, 21.58949
273.4818, 21.66813
273.9639, 21.75548
274.4460, 21.80639
274.9282, 21.75805
275.4103, 21.63724
275.8924, 21.53886
276.3745, 21.54474
276.8566, 21.65754
277.3387, 21.86629
277.8208, 22.23367
278.3029, 22.61316
278.7851, 22.95890
279.2672, 23.26591
279.7493, 23.52820
280.2314, 23.73010
280.7135, 23.87627
281.1956, 24.13547
281.6778, 24.63781
282.1599, 25.09399
282.6420, 25.32697
283.1241, 25.43625
283.6062, 25.65438
284.0883, 26.12946
284.5705, 26.81362
285.0526, 27.40951
285.5347, 27.88191
286.0168, 28.32609
286.4989, 28.59595
286.9810, 28.87505
287.4632, 29.53064
287.9453, 30.77097
288.4274, 32.35411
288.9095, 33.59241
289.3916, 33.98788
289.8737, 34.78828
290.3559, 36.32586
290.8380, 38.33395
291.3201, 40.44992
291.8022, 42.54806
292.2843, 44.72354
292.7664, 47.26775
293.2486, 50.62089
293.7307, 53.24131
294.2128, 54.66076
294.6949, 55.42120
295.1770, 56.12346
295.6591, 56.91070
296.1413, 57.48616
296.6234, 57.44350
297.1055, 56.62087
297.5876, 55.71250
298.0697, 54.71523
298.5518, 53.65694
299.0340, 52.45673
299.5161, 51.14006
299.9982, 49.98200
300.4803, 49.22558
300.9624, 48.92476
301.4445, 48.91404
301.9267, 49.11241
302.4088, 49.65336
302.8909, 50.71345
303.3730, 52.24717
303.8551, 53.96059
304.3372, 55.61658
304.8194, 57.28621
305.3015, 59.46240
305.7836, 61.97191
306.2657, 65.09602
306.7478, 69.03748
307.2299, 73.71572
307.7121, 78.89135
308.1942, 84.43362
308.6763, 90.40244
309.1584, 97.01023
309.6405, 105.0747
310.1227, 112.4477
310.6048, 119.2139
311.0869, 124.7357
311.5690, 127.7040
312.0511, 127.6036
312.5332, 124.8176
313.0154, 119.5666
313.4975, 111.2751
313.9796, 102.8080
314.4617, 94.03903
314.9438, 85.65926
315.4259, 78.44003
315.9081, 72.58880
316.3902, 67.96037
316.8723, 64.48201
317.3544, 62.25291
317.8365, 60.73299
318.3186, 59.95667
318.8007, 59.82975
319.2828, 60.26766
319.7650, 61.26357
320.2471, 62.87323
320.7292, 65.22492
321.2113, 68.35844
321.6934, 71.63139
322.1755, 75.32644
322.6577, 78.92860
323.1398, 82.38671
323.6219, 85.55294
324.1040, 87.99854
324.5861, 89.50572
325.0682, 90.00420
325.5504, 89.27431
326.0325, 86.08875
326.5146, 83.23636
326.9967, 81.50723
327.4788, 80.81837
327.9609, 80.97613
328.4431, 81.90161
328.9252, 83.63915
329.4073, 86.37949
329.8894, 90.02968
330.3715, 94.63583
330.8536, 100.5835
331.3358, 107.3459
331.8179, 114.3989
332.3000, 121.6096
332.7821, 128.7924
333.2642, 135.8606
333.7463, 143.0108
334.2285, 148.9941
334.7106, 152.9834
335.1927, 156.2879
335.6748, 159.7023
336.1569, 163.3816
336.6390, 167.5404
337.1212, 172.3181
337.6033, 177.7744
338.0854, 183.8878
338.5675, 190.5625
339.0496, 197.9476
339.5317, 206.1121
340.0139, 215.0717
340.4960, 224.7831
340.9781, 235.2359
341.4602, 246.3929
341.9423, 258.0564
342.4244, 269.0252
342.9066, 281.7875
343.3887, 296.3041
343.8708, 313.0882
344.3529, 332.6256
344.8350, 355.0018
345.3171, 380.5095
345.7993, 409.5491
346.2814, 441.4972
346.7635, 479.2411
347.2456, 524.0907
347.7277, 573.7080
348.2098, 627.6494
348.6920, 684.8417
349.1741, 743.3626
349.6562, 801.4890
350.1383, 861.9092
350.6204, 907.0647
351.1025, 942.7047
351.5847, 960.8937
352.0668, 954.9247
352.5489, 927.4051
353.0310, 884.3054
353.5131, 828.5461
353.9952, 761.7610
354.4774, 699.6034
354.9595, 639.4997
355.4416, 587.0875
355.9237, 543.6058
356.4058, 508.5571
356.8879, 481.5020
357.3701, 462.3607
357.8522, 450.0253
358.3343, 441.8042
358.8164, 438.2130
359.2985, 438.6569
359.7806, 443.5980
360.2627, 451.8336
360.7448, 462.1333
361.2270, 474.4716
361.7091, 489.8263
362.1912, 509.1806
362.6733, 532.1074
363.1554, 561.3959
363.6375, 597.6743
364.1197, 639.0880
364.6018, 684.5739
365.0839, 734.8088
365.5660, 791.0466
366.0481, 854.9743
366.5302, 925.5350
367.0124, 995.0798
367.4945, 1071.056
367.9766, 1135.220
368.4587, 1189.207
368.9408, 1228.035
369.4229, 1246.418
369.9051, 1242.119
370.3872, 1216.716
370.8693, 1170.942
371.3514, 1099.387
371.8335, 1020.570
372.3156, 928.6246
372.7978, 836.4845
373.2799, 749.1085
373.7620, 668.6716
374.2441, 596.1409
374.7262, 533.3933
375.2083, 480.6603
375.6905, 434.4564
376.1726, 396.1831
376.6547, 363.6371
377.1368, 336.1140
377.6189, 313.0923
378.1010, 294.0440
378.5832, 278.8671
379.0653, 267.1535
379.5474, 258.0296
380.0295, 252.1147
380.5116, 247.2119
380.9937, 243.8534
381.4759, 240.4319
381.9580, 235.6285
382.4401, 229.2361
382.9222, 220.6784
383.4043, 208.8418
383.8864, 193.7323
384.3686, 178.0446
384.8507, 161.3853
385.3328, 145.3972
385.8149, 130.9248
386.2970, 118.0898
386.7791, 106.9973
387.2613, 98.24001
387.7434, 91.32678
388.2255, 85.06824
388.7076, 79.39005
389.1897, 74.44726
389.6718, 70.61421
390.1540, 67.58023
390.6361, 64.81348
391.1182, 62.27869
391.6003, 59.90484
392.0824, 57.56375
392.5645, 55.27700
393.0467, 53.35824
393.5288, 52.07046
394.0109, 51.09636
394.4930, 49.81819
394.9751, 48.15093
395.4572, 46.54416
395.9394, 45.23463
396.4215, 44.08494
396.9036, 42.84150
397.3857, 41.42390
397.8678, 40.07781
398.3499, 39.08187
398.8321, 38.46449
399.3142, 37.80805
399.7963, 37.01641
400.2784, 36.23695
400.7605, 35.54894
401.2426, 34.95897
401.7247, 34.47237
402.2068, 34.10249
402.6890, 33.82838
403.1711, 33.56820
403.6532, 33.48267
404.1353, 33.21048
404.6174, 32.55718
405.0995, 31.73375
405.5817, 30.98417
406.0638, 30.38608
406.5459, 29.88957
407.0280, 29.42030
407.5101, 28.94569
407.9922, 28.63182
408.4744, 28.68577
408.9565, 28.69709
409.4386, 28.42537
409.9207, 27.90588
410.4028, 27.29194
410.8849, 26.66878
411.3671, 26.05749
411.8492, 25.60173
412.3313, 25.43450
412.8134, 25.26950
413.2955, 25.01807
413.7776, 24.77266
414.2598, 24.67785
414.7419, 24.76946
415.2240, 24.87907
415.7061, 24.72552
416.1882, 24.21230
416.6703, 23.76956
417.1525, 23.44938
417.6346, 23.17881
418.1167, 22.92200
418.5988, 22.68565
419.0809, 22.50546
419.5630, 22.41343
420.0452, 22.39487
420.5273, 22.39309
421.0094, 22.42897
421.4915, 22.43699
421.9736, 22.43496
422.4557, 22.37643
422.9379, 22.18324
423.4200, 21.81823
423.9021, 21.41353
424.3842, 21.09299
424.8663, 20.85653
425.3484, 20.68030
425.8306, 20.54092
426.3127, 20.49216
426.7948, 20.62080
427.2769, 20.89634
427.7590, 21.11990
428.2411, 21.13188
428.7233, 21.07328
429.2054, 21.21258
429.6875, 21.57914
430.1696, 21.84758
430.6517, 21.76605
431.1339, 21.44898
431.6160, 21.26213
432.0981, 21.19632
432.5802, 21.27727
433.0623, 21.63846
433.5444, 22.14272
434.0266, 22.48234
434.5087, 22.55062
434.9908, 22.52620
435.4729, 22.65451
435.9550, 22.98435
436.4371, 23.25307
436.9193, 23.42170
437.4014, 23.55151
437.8835, 23.64433
438.3656, 23.72720
438.8477, 23.87955
439.3298, 24.15859
439.8120, 24.54318
440.2941, 24.91413
440.7762, 25.25414
441.2583, 25.60295
441.7404, 25.99562
442.2225, 26.38181
442.7046, 26.65338
443.1867, 26.80692
443.6689, 27.01393
444.1510, 27.49216
444.6331, 28.27436
445.1152, 29.17274
445.5973, 30.23982
446.0794, 31.37098
446.5616, 32.47467
447.0437, 33.61623
447.5258, 34.98091
448.0079, 36.70940
448.4900, 38.58658
448.9721, 40.06653
449.4543, 41.04907
449.9364, 41.91713
450.4185, 42.92338
450.9006, 43.73824
451.3827, 44.19490
451.8648, 44.25136
452.3470, 43.79082
452.8291, 42.65282
453.3112, 40.90458
453.7933, 38.76577
454.2754, 36.06242
454.7575, 33.44444
455.2397, 31.30103
455.7218, 29.54333
456.2039, 28.10729
456.6860, 27.12408
457.1681, 26.26227
457.6502, 25.17159
458.1324, 23.93731
458.6145, 22.93579
459.0966, 22.30762
459.5787, 21.92590
460.0608, 21.63772
460.5429, 21.43971
461.0251, 21.29833
461.5072, 21.23735
461.9893, 21.21140
462.4714, 21.18386
462.9535, 21.15237
463.4356, 21.12678
463.9178, 21.11346
464.3999, 21.11146
464.8820, 21.11550
465.3641, 21.07106
465.8462, 21.10081
466.3283, 21.21330
466.8105, 21.41299
467.2926, 21.75123
467.7747, 22.21884
468.2568, 22.67341
468.7389, 22.91739
469.2210, 22.88753
469.7032, 23.08262
470.1853, 23.55820
470.6674, 24.20958
471.1495, 25.08057
471.6316, 26.09409
472.1137, 27.13611
472.5959, 28.15505
473.0780, 29.16897
473.5601, 30.20995
474.0422, 31.27671
474.5243, 32.37110
475.0064, 33.56009
475.4886, 34.71609
475.9707, 35.71850
476.4528, 36.59110
476.9349, 37.51054
477.4170, 38.64420
477.8991, 39.88123
478.3813, 40.96416
478.8634, 41.86301
479.3455, 42.75283
479.8276, 43.66585
480.3097, 44.65899
480.7918, 45.78247
481.2740, 46.98942
481.7561, 48.46025
482.2382, 50.36794
482.7203, 52.58378
483.2024, 54.85168
483.6845, 57.11584
484.1666, 59.53408
484.6487, 62.23544
485.1309, 65.23819
485.6130, 68.66423
486.0951, 72.41115
486.5772, 76.64526
487.0593, 81.48916
487.5414, 86.88470
488.0236, 92.79513
488.5057, 99.22202
488.9878, 105.9285
489.4699, 112.4876
489.9520, 119.1336
490.4341, 125.1323
490.9163, 130.9605
491.3984, 135.8116
491.8805, 139.7295
492.3626, 142.3131
492.8447, 142.6176
493.3268, 139.8443
493.8090, 134.8259
494.2911, 129.9026
494.7732, 125.1148
495.2553, 120.3488
495.7374, 115.1042
496.2195, 110.2451
496.7017, 106.3448
497.1838, 103.4683
497.6659, 101.4266
498.1480, 100.3360
498.6301, 99.98253
499.1122, 99.79770
499.5944, 99.75108
500.0765, 99.93188
500.5586, 100.4708
501.0407, 101.2612
501.5228, 102.0079
502.0049, 102.4852
502.4871, 103.3818
502.9692, 105.1244
503.4513, 107.5012
503.9334, 110.0224
504.4155, 112.5676
504.8976, 115.7717
505.3798, 120.2915
505.8619, 126.2430
506.3440, 132.5618
506.8261, 138.6528
507.3082, 145.7059
507.7903, 153.7825
508.2725, 163.2192
508.7546, 174.2601
509.2367, 187.0290
509.7188, 201.8882
510.2009, 219.4073
510.6830, 239.9619
511.1652, 261.9836
511.6473, 286.3205
512.1294, 311.2401
512.6115, 337.8781
513.0936, 364.4789
513.5757, 388.4374
514.0579, 409.0206
514.5400, 424.6609
515.0221, 432.9710
515.5042, 434.0890
515.9863, 426.8481
516.4684, 408.7128
516.9506, 383.6556
517.4327, 353.9482
517.9148, 320.2931
518.3969, 287.3467
518.8790, 255.8366
519.3611, 226.6421
519.8433, 200.8142
520.3254, 178.3385
520.8075, 158.8041
521.2896, 142.2402
521.7717, 128.2170
522.2538, 116.3227
522.7360, 106.5998
523.2181, 98.13754
523.7002, 91.14146
524.1823, 85.13603
524.6644, 79.91640
525.1465, 75.38383
525.6287, 71.28164
526.1108, 67.45132
526.5929, 63.91870
527.0750, 60.73291
527.5571, 57.95913
528.0392, 55.51978
528.5214, 53.35393
529.0035, 51.51958
529.4856, 50.22493
529.9677, 49.39508
530.4498, 48.57069
530.9319, 47.24400
531.4141, 45.55549
531.8962, 44.39343
532.3783, 43.94677
532.8604, 43.59835
533.3425, 43.05779
533.8246, 42.49513
534.3068, 42.10680
534.7889, 41.94432
535.2710, 41.79496
535.7531, 41.53757
536.2352, 41.19030
536.7173, 40.76727
537.1995, 40.26427
537.6816, 39.76796
538.1637, 39.34827
538.6458, 38.99277
539.1279, 38.62640
539.6100, 38.03616
540.0922, 37.69319
540.5743, 37.96449
541.0564, 38.44604
541.5385, 38.58136
542.0206, 38.28629
542.5027, 37.95207
542.9849, 38.01042
543.4670, 38.47473
543.9491, 38.73155
544.4312, 38.37693
544.9133, 38.30204
545.3954, 38.78881
545.8775, 39.58897
546.3596, 40.47441
546.8417, 41.37120
547.3239, 42.22021
547.8060, 42.87030
548.2881, 43.35742
548.7702, 44.10533
549.2523, 45.23750
549.7344, 46.40331
550.2166, 47.44895
550.6987, 48.37336
551.1808, 49.20850
551.6629, 50.08635
552.1450, 50.57302
552.6271, 50.29808
553.1093, 49.45716
553.5914, 48.42897
554.0735, 47.28809
554.5556, 45.99350
555.0377, 44.49495
555.5198, 42.78860
556.0020, 41.03869
556.4841, 38.97649
556.9662, 37.19874
557.4483, 36.05261
557.9304, 35.17661
558.4125, 34.09042
558.8947, 32.70225
559.3768, 31.38338
559.8589, 30.57269
560.3410, 30.28604
560.8231, 29.95271
561.3052, 29.55745
561.7874, 29.13800
562.2695, 28.60170
562.7516, 28.09884
563.2337, 27.83369
563.7158, 27.86728
564.1979, 27.95998
564.6801, 27.85522
565.1622, 27.64113
565.6443, 27.63435
566.1264, 27.89731
566.6085, 28.21087
567.0906, 28.41819
567.5728, 28.55989
568.0549, 28.78692
568.5370, 29.08790
569.0191, 29.48959
569.5012, 29.97068
569.9833, 30.57199
570.4655, 31.42735
570.9476, 32.51063
571.4297, 33.55496
571.9118, 34.28436
572.3939, 34.74102
572.8760, 35.43611
573.3582, 36.61818
573.8403, 37.70923
574.3224, 38.79843
574.8045, 39.66393
575.2866, 40.15571
575.7687, 40.23560
576.2509, 39.88381
576.7330, 39.04557
577.2151, 37.76343
577.6972, 36.10158
578.1793, 33.94499
578.6614, 31.91103
579.1436, 30.27448
579.6257, 28.94193
580.1078, 27.78983
580.5899, 26.84888
581.0720, 25.89307
581.5541, 24.66770
582.0363, 23.48934
582.5184, 22.81261
583.0005, 22.58244
583.4826, 22.27058
583.9647, 21.53224
584.4468, 20.57377
584.9290, 20.00262
585.4111, 20.15753
585.8932, 20.18080
586.3753, 19.97975
586.8574, 19.73659
587.3395, 19.54625
587.8217, 19.41451
588.3038, 19.31800
