##NAMES=Andradite
##RRUFFID=R060449
##IDEAL CHEMISTRY=Ca_3_Fe^3+^_2_(SiO_4_)_3_
##LOCALITY=Namibia
##OWNER=RRUFF
##SOURCE=Gemological Institute of America
##DESCRIPTION=Blue fragment, variety demantoid
##STATUS=The identification of this mineral has been confirmed by X-ray diffraction and chemical analysis
##URL=rruff.info/R060449
##MEASURED CHEMISTRY=Ca_3.00_(Fe^3+^_1.93_Al_0.07_)_Î£=2_(Si_1.00_O_4_)_3__
92.20605, 58.65210
92.68817, 61.02365
93.17029, 62.48439
93.65240, 61.61430
94.13452, 59.68541
94.61664, 57.15652
95.09875, 54.18244
95.58087, 51.07575
96.06299, 48.56633
96.54510, 46.94957
97.02722, 45.49744
97.50933, 44.03630
97.99145, 42.65551
98.47356, 41.51208
98.95568, 40.71012
99.43780, 40.19122
99.91991, 39.49528
100.4020, 38.55633
100.8841, 37.56279
101.3663, 36.45294
101.8484, 35.29119
102.3305, 34.32714
102.8126, 33.85536
103.2947, 34.03905
103.7768, 33.99262
104.2590, 33.51705
104.7411, 32.90164
105.2232, 32.46448
105.7053, 32.28957
106.1874, 32.20757
106.6695, 31.97517
107.1517, 31.60129
107.6338, 31.26684
108.1159, 31.06473
108.5980, 30.97410
109.0801, 30.88857
109.5622, 30.77113
110.0444, 30.66111
110.5265, 30.62822
111.0086, 30.68066
111.4907, 30.68193
111.9728, 30.41407
112.4549, 29.74436
112.9371, 29.27311
113.4192, 29.25155
113.9013, 29.36948
114.3834, 29.40981
114.8655, 29.28906
115.3476, 29.07352
115.8298, 28.94051
116.3119, 28.94999
116.7940, 28.97845
117.2761, 29.12360
117.7582, 29.25641
118.2403, 29.17792
118.7225, 28.74897
119.2046, 28.01800
119.6867, 27.57176
120.1688, 27.46875
120.6509, 27.51772
121.1330, 27.77932
121.6152, 28.17804
122.0973, 28.47615
122.5794, 28.48426
123.0615, 28.17728
123.5436, 27.81004
124.0257, 27.21639
124.5079, 26.65476
124.9900, 26.42093
125.4721, 26.57545
125.9542, 26.81032
126.4363, 26.83899
126.9184, 26.73052
127.4006, 26.63025
127.8827, 26.61311
128.3648, 26.64842
128.8469, 26.63346
129.3290, 26.50843
129.8111, 26.40674
130.2932, 26.47536
130.7754, 26.65628
131.2575, 26.74868
131.7396, 26.51622
132.2217, 25.90359
132.7038, 25.46999
133.1859, 25.38984
133.6681, 25.37857
134.1502, 25.34263
134.6323, 25.26104
135.1144, 25.14999
135.5965, 25.02777
136.0786, 24.88486
136.5608, 24.74854
137.0429, 24.58743
137.5250, 24.44903
138.0071, 24.37597
138.4892, 24.37899
138.9713, 24.43154
139.4535, 24.48115
139.9356, 24.57212
140.4177, 24.59488
140.8998, 24.44589
141.3819, 24.24689
141.8640, 24.19492
142.3462, 24.40164
142.8283, 24.74094
143.3104, 24.84477
143.7925, 24.64277
144.2746, 24.39522
144.7567, 24.13397
145.2388, 23.88870
145.7210, 23.78822
146.2031, 23.92709
146.6852, 24.24827
147.1673, 24.60126
147.6494, 24.99048
148.1315, 25.39593
148.6137, 25.77160
149.0958, 26.10143
149.5779, 26.52087
150.0600, 26.97491
150.5421, 27.60360
151.0242, 28.63121
151.5064, 30.22502
151.9885, 32.12449
152.4706, 33.83974
152.9527, 35.51676
153.4348, 36.69644
153.9169, 37.11732
154.3991, 37.10564
154.8812, 37.04561
155.3633, 37.14413
155.8454, 37.37433
156.3275, 37.57033
156.8096, 37.59499
157.2918, 37.73529
157.7739, 38.06616
158.2560, 38.55309
158.7381, 39.11930
159.2202, 39.70006
159.7023, 40.29028
160.1845, 41.09956
160.6666, 42.28593
161.1487, 43.50559
161.6308, 44.57183
162.1129, 45.53478
162.5950, 46.58129
163.0772, 47.84557
163.5593, 49.35451
164.0414, 51.19342
164.5235, 53.27245
165.0056, 55.69653
165.4877, 58.31325
165.9698, 61.15924
166.4520, 64.75607
166.9341, 69.60928
167.4162, 75.77735
167.8983, 83.22570
168.3804, 90.25285
168.8625, 99.28203
169.3447, 112.9643
169.8268, 131.5083
170.3089, 155.2395
170.7910, 187.3010
171.2731, 225.5115
171.7552, 262.9914
172.2374, 306.5718
172.7195, 348.0029
173.2016, 362.2507
173.6837, 338.6396
174.1658, 296.9940
174.6479, 247.1509
175.1301, 192.0541
175.6122, 142.6845
176.0943, 107.6499
176.5764, 86.45407
177.0585, 69.46866
177.5406, 57.93821
178.0228, 49.45628
178.5049, 43.57814
178.9870, 39.88732
179.4691, 37.41187
179.9512, 35.35211
180.4333, 33.77059
180.9155, 32.31778
181.3976, 30.95086
181.8797, 29.74035
182.3618, 28.74753
182.8439, 27.96481
183.3260, 27.34662
183.8082, 26.85665
184.2903, 26.57856
184.7724, 26.21007
185.2545, 25.64771
185.7366, 25.08838
186.2187, 24.65117
186.7009, 24.36099
187.1830, 24.17758
187.6651, 24.05604
188.1472, 24.08140
188.6293, 23.97742
189.1114, 23.70183
189.5936, 23.32885
190.0757, 22.85762
190.5578, 22.29745
191.0399, 21.78695
191.5220, 21.57308
192.0041, 21.77387
192.4863, 21.94995
192.9684, 22.09410
193.4505, 22.17697
193.9326, 22.11782
194.4147, 21.86547
194.8968, 21.58140
195.3790, 21.59039
195.8611, 21.92171
196.3432, 22.17015
196.8253, 22.14428
197.3074, 21.95097
197.7895, 21.82701
198.2717, 21.85172
198.7538, 21.93670
199.2359, 21.95723
199.7180, 21.91076
200.2001, 21.89066
200.6822, 21.98045
201.1644, 22.15170
201.6465, 22.25327
202.1286, 22.18361
202.6107, 22.11308
203.0928, 22.22311
203.5749, 22.51136
204.0571, 22.78501
204.5392, 22.87972
205.0213, 22.79845
205.5034, 22.72066
205.9855, 22.62513
206.4676, 22.59007
206.9497, 22.68519
207.4319, 22.90508
207.9140, 23.16129
208.3961, 23.32128
208.8782, 23.33886
209.3603, 23.55487
209.8424, 24.27385
210.3246, 25.00366
210.8067, 25.46502
211.2888, 25.65061
211.7709, 25.77746
212.2530, 26.05269
212.7351, 26.40780
213.2173, 27.14905
213.6994, 28.38556
214.1815, 29.88064
214.6636, 31.63540
215.1457, 33.58226
215.6278, 35.54920
216.1100, 37.36371
216.5921, 39.22433
217.0742, 40.35207
217.5563, 40.41314
218.0384, 40.15883
218.5205, 39.94999
219.0027, 39.89867
219.4848, 40.01408
219.9669, 40.30468
220.4490, 40.76354
220.9311, 41.47644
221.4132, 42.45909
221.8954, 43.65249
222.3775, 45.03161
222.8596, 46.58555
223.3417, 48.28831
223.8238, 50.09165
224.3059, 51.94204
224.7881, 54.14556
225.2702, 56.62151
225.7523, 59.48930
226.2344, 62.78794
226.7165, 66.53983
227.1986, 70.84361
227.6807, 75.93867
228.1629, 81.99903
228.6450, 87.99010
229.1271, 93.46111
229.6092, 99.02517
230.0913, 104.5592
230.5734, 109.9523
231.0556, 117.1492
231.5377, 127.8606
232.0198, 141.9975
232.5019, 161.4288
232.9840, 187.7444
233.4661, 218.9702
233.9483, 256.5161
234.4304, 302.5226
234.9125, 342.7757
235.3946, 365.2121
235.8767, 371.2592
236.3588, 358.1050
236.8410, 312.7297
237.3231, 251.7996
237.8052, 198.0652
238.2873, 152.5244
238.7694, 115.7635
239.2515, 90.83230
239.7337, 74.80945
240.2158, 62.85624
240.6979, 54.63078
241.1800, 49.14532
241.6621, 44.82966
242.1442, 41.85760
242.6264, 39.51697
243.1085, 37.34699
243.5906, 35.45073
244.0727, 34.09901
244.5548, 33.60116
245.0369, 33.63694
245.5191, 33.54523
246.0012, 33.30138
246.4833, 32.98240
246.9654, 32.56458
247.4475, 32.11657
247.9296, 31.72976
248.4117, 31.44211
248.8939, 31.23995
249.3760, 31.09473
249.8581, 31.02373
250.3402, 30.97766
250.8223, 30.90538
251.3044, 30.85549
251.7866, 30.88553
252.2687, 31.02279
252.7508, 31.24591
253.2329, 31.51351
253.7150, 31.83525
254.1971, 32.18294
254.6793, 32.51159
255.1614, 32.87342
255.6435, 33.31340
256.1256, 33.84636
256.6077, 34.48038
257.0898, 35.21642
257.5720, 35.95531
258.0541, 37.02415
258.5362, 38.09797
259.0183, 39.63765
259.5004, 41.96497
259.9825, 45.19771
260.4647, 49.39233
260.9468, 54.67196
261.4289, 61.16981
261.9110, 68.65174
262.3931, 78.42410
262.8752, 88.22529
263.3574, 97.39143
263.8395, 105.3896
264.3216, 110.3334
264.8037, 108.8526
265.2858, 97.64221
265.7679, 86.15640
266.2501, 72.82832
266.7322, 60.49860
267.2143, 51.28384
267.6964, 45.49022
268.1785, 41.88343
268.6606, 38.93123
269.1428, 36.70168
269.6249, 35.08461
270.1070, 34.26783
270.5891, 33.78188
271.0712, 33.41601
271.5533, 33.11411
272.0355, 32.88427
272.5176, 32.74468
272.9997, 32.72709
273.4818, 32.66705
273.9639, 32.36533
274.4460, 32.19767
274.9282, 32.43301
275.4103, 33.01783
275.8924, 33.68448
276.3745, 34.19473
276.8566, 34.53191
277.3387, 34.87085
277.8208, 35.22377
278.3029, 35.56789
278.7851, 35.82446
279.2672, 36.05281
279.7493, 36.43516
280.2314, 37.14006
280.7135, 38.14763
281.1956, 38.85853
281.6778, 38.95031
282.1599, 39.14914
282.6420, 39.78910
283.1241, 40.72924
283.6062, 41.61675
284.0883, 42.22087
284.5705, 42.62976
285.0526, 43.34439
285.5347, 44.45995
286.0168, 45.71654
286.4989, 47.04240
286.9810, 48.47143
287.4632, 50.04657
287.9453, 51.78350
288.4274, 53.70497
288.9095, 55.92223
289.3916, 58.34933
289.8737, 61.14714
290.3559, 64.17493
290.8380, 67.62917
291.3201, 71.87504
291.8022, 77.06686
292.2843, 82.75357
292.7664, 88.22636
293.2486, 93.38754
293.7307, 98.50631
294.2128, 104.5054
294.6949, 110.0585
295.1770, 113.8552
295.6591, 115.5965
296.1413, 115.4525
296.6234, 113.4272
297.1055, 109.0219
297.5876, 104.3789
298.0697, 99.11321
298.5518, 93.92061
299.0340, 89.19593
299.5161, 85.05767
299.9982, 81.76833
300.4803, 79.62327
300.9624, 78.77475
301.4445, 78.50034
301.9267, 78.67171
302.4088, 79.49766
302.8909, 81.04449
303.3730, 83.34708
303.8551, 86.51463
304.3372, 90.61002
304.8194, 95.72536
305.3015, 101.9939
305.7836, 108.7699
306.2657, 117.1934
306.7478, 127.3826
307.2299, 139.5876
307.7121, 154.6627
308.1942, 173.2618
308.6763, 194.8445
309.1584, 217.5217
309.6405, 243.3662
310.1227, 267.0827
310.6048, 290.9654
311.0869, 311.1415
311.5690, 319.5528
312.0511, 312.8014
312.5332, 294.3418
313.0154, 268.5846
313.4975, 232.3773
313.9796, 199.5186
314.4617, 172.2196
314.9438, 149.9596
315.4259, 132.2120
315.9081, 118.9739
316.3902, 109.3555
316.8723, 102.6854
317.3544, 99.29712
317.8365, 97.12997
318.3186, 95.90434
318.8007, 95.91692
319.2828, 97.45771
319.7650, 100.5538
320.2471, 104.9962
320.7292, 110.6521
321.2113, 117.6410
321.6934, 125.7788
322.1755, 136.4942
322.6577, 147.1243
323.1398, 157.1836
323.6219, 166.0629
324.1040, 171.8432
324.5861, 173.2882
325.0682, 170.5255
325.5504, 164.8143
326.0325, 153.2064
326.5146, 142.3889
326.9967, 134.1261
327.4788, 128.3498
327.9609, 124.8680
328.4431, 123.6405
328.9252, 124.5909
329.4073, 127.8366
329.8894, 133.6956
330.3715, 140.6606
330.8536, 148.5375
331.3358, 157.3334
331.8179, 167.4068
332.3000, 178.8680
332.7821, 190.6251
333.2642, 201.4161
333.7463, 211.1716
334.2285, 219.7278
334.7106, 225.9986
335.1927, 231.7424
335.6748, 238.2796
336.1569, 245.7260
336.6390, 253.6488
337.1212, 261.4293
337.6033, 269.1032
338.0854, 278.8876
338.5675, 290.9966
339.0496, 304.8018
339.5317, 319.8224
340.0139, 336.2958
340.4960, 354.7542
340.9781, 375.5152
341.4602, 398.4784
341.9423, 423.2149
342.4244, 446.8899
342.9066, 475.2753
343.3887, 508.3301
343.8708, 547.1824
344.3529, 592.3585
344.8350, 643.7733
345.3171, 703.5571
345.7993, 775.3107
346.2814, 857.6888
346.7635, 958.1416
347.2456, 1078.222
347.7277, 1214.831
348.2098, 1370.386
348.6920, 1542.104
349.1741, 1722.001
349.6562, 1903.362
350.1383, 2096.189
350.6204, 2235.222
351.1025, 2339.183
351.5847, 2383.029
352.0668, 2341.825
352.5489, 2227.095
353.0310, 2064.851
353.5131, 1868.785
353.9952, 1644.583
354.4774, 1447.762
354.9595, 1279.019
355.4416, 1136.959
355.9237, 1025.605
356.4058, 940.0498
356.8879, 875.0039
357.3701, 828.3943
357.8522, 797.9456
358.3343, 778.3134
358.8164, 774.2512
359.2985, 775.0120
359.7806, 778.2871
360.2627, 787.1184
360.7448, 802.9241
361.2270, 826.4768
361.7091, 858.5898
362.1912, 899.8035
362.6733, 948.9055
363.1554, 1013.603
363.6375, 1093.505
364.1197, 1187.823
364.6018, 1294.952
365.0839, 1416.821
365.5660, 1556.401
366.0481, 1717.313
366.5302, 1897.560
367.0124, 2082.864
367.4945, 2290.091
367.9766, 2479.149
368.4587, 2661.441
368.9408, 2814.551
369.4229, 2916.345
369.9051, 2957.464
370.3872, 2938.563
370.8693, 2854.511
371.3514, 2688.045
371.8335, 2497.968
372.3156, 2269.089
372.7978, 2036.730
373.2799, 1814.255
373.7620, 1607.621
374.2441, 1420.319
374.7262, 1257.606
375.2083, 1119.982
375.6905, 1000.804
376.1726, 904.1924
376.6547, 823.5954
377.1368, 757.1053
377.6189, 703.0911
378.1010, 659.6500
378.5832, 626.3877
379.0653, 602.0952
379.5474, 584.0198
380.0295, 573.4510
380.5116, 565.8513
380.9937, 564.8983
381.4759, 563.4587
381.9580, 555.0506
382.4401, 538.2435
382.9222, 513.3084
383.4043, 477.9483
383.8864, 432.2060
384.3686, 387.7747
384.8507, 345.5271
385.3328, 307.4562
385.8149, 274.0556
386.2970, 245.4986
386.7791, 221.2947
387.2613, 202.4302
387.7434, 187.8567
388.2255, 175.2280
388.7076, 164.6402
389.1897, 155.3285
389.6718, 146.9129
390.1540, 139.3721
390.6361, 132.8541
391.1182, 127.8453
391.6003, 123.3953
392.0824, 118.4974
392.5645, 113.2484
393.0467, 108.7291
393.5288, 105.5703
394.0109, 103.2280
394.4930, 100.6700
394.9751, 97.84611
395.4572, 95.03008
395.9394, 92.31444
396.4215, 89.68330
396.9036, 87.12519
397.3857, 84.60883
397.8678, 82.21648
398.3499, 80.00459
398.8321, 77.98943
399.3142, 76.17508
399.7963, 74.69852
400.2784, 73.29174
400.7605, 71.66106
401.2426, 69.89159
401.7247, 68.40222
402.2068, 67.50189
402.6890, 67.01684
403.1711, 66.18381
403.6532, 64.54604
404.1353, 63.18346
404.6174, 62.49195
405.0995, 62.09528
405.5817, 61.49269
406.0638, 60.54960
406.5459, 59.56887
407.0280, 59.02274
407.5101, 59.20713
407.9922, 58.87521
408.4744, 57.79381
408.9565, 56.48006
409.4386, 54.98853
409.9207, 53.48606
410.4028, 52.33805
410.8849, 51.84373
411.3671, 51.89138
411.8492, 51.59709
412.3313, 50.60759
412.8134, 49.69804
413.2955, 48.96423
413.7776, 48.36338
414.2598, 47.89688
414.7419, 47.55152
415.2240, 47.19047
415.7061, 46.56518
416.1882, 45.55083
416.6703, 44.69876
417.1525, 44.14016
417.6346, 43.66411
418.1167, 43.21494
418.5988, 42.77098
419.0809, 42.30564
419.5630, 41.76026
420.0452, 41.18491
420.5273, 40.80131
421.0094, 40.69616
421.4915, 40.60749
421.9736, 40.47586
422.4557, 40.29049
422.9379, 40.01506
423.4200, 39.62547
423.9021, 39.23062
424.3842, 38.94242
424.8663, 38.75920
425.3484, 38.63825
425.8306, 38.64365
426.3127, 38.61317
426.7948, 38.32948
427.2769, 37.84374
427.7590, 37.49719
428.2411, 37.50718
428.7233, 37.71130
429.2054, 37.89285
429.6875, 38.04625
430.1696, 38.11930
430.6517, 38.00519
431.1339, 37.81009
431.6160, 37.84255
432.0981, 38.23896
432.5802, 38.64863
433.0623, 38.87959
433.5444, 38.99895
434.0266, 39.14510
434.5087, 39.35802
434.9908, 39.60823
435.4729, 39.86226
435.9550, 40.12436
436.4371, 40.36596
436.9193, 40.58612
437.4014, 40.78577
437.8835, 40.85430
438.3656, 40.87422
438.8477, 41.15213
439.3298, 41.92085
439.8120, 43.07232
440.2941, 44.00747
440.7762, 44.62673
441.2583, 45.14874
441.7404, 45.38423
442.2225, 45.63825
442.7046, 46.22737
443.1867, 47.22105
443.6689, 48.45556
444.1510, 49.70089
444.6331, 50.90597
445.1152, 52.39775
445.5973, 54.17070
446.0794, 56.24023
446.5616, 58.57710
447.0437, 61.21101
447.5258, 64.25311
448.0079, 67.76809
448.4900, 71.64907
448.9721, 75.77215
449.4543, 80.44621
449.9364, 84.45677
450.4185, 87.74506
450.9006, 90.12243
451.3827, 91.60038
451.8648, 92.11382
452.3470, 91.10969
452.8291, 87.67732
453.3112, 82.25243
453.7933, 76.67355
454.2754, 70.84136
454.7575, 65.40565
455.2397, 60.87167
455.7218, 57.02079
456.2039, 53.58884
456.6860, 50.57104
457.1681, 47.90820
457.6502, 45.50425
458.1324, 43.39685
458.6145, 41.73189
459.0966, 40.59282
459.5787, 39.84705
460.0608, 39.39122
460.5429, 39.24012
461.0251, 39.07445
461.5072, 38.84790
461.9893, 38.57804
462.4714, 38.25609
462.9535, 37.89555
463.4356, 37.54767
463.9178, 37.22972
464.3999, 36.96173
464.8820, 36.85133
465.3641, 36.99164
465.8462, 37.15776
466.3283, 37.24335
466.8105, 37.37899
467.2926, 37.74549
467.7747, 38.36576
468.2568, 39.05362
468.7389, 39.55226
469.2210, 39.78490
469.7032, 40.37117
470.1853, 41.70541
470.6674, 42.98924
471.1495, 43.90198
471.6316, 44.62226
472.1137, 45.42359
472.5959, 46.42701
473.0780, 47.63013
473.5601, 49.06516
474.0422, 50.78259
474.5243, 52.50619
475.0064, 54.17036
475.4886, 55.83611
475.9707, 57.56927
476.4528, 59.34246
476.9349, 61.06709
477.4170, 62.64473
477.8991, 64.13311
478.3813, 65.60179
478.8634, 66.98871
479.3455, 68.69936
479.8276, 71.02029
480.3097, 73.78783
480.7918, 76.61131
481.2740, 79.35963
481.7561, 82.47849
482.2382, 86.34487
482.7203, 90.70087
483.2024, 94.92356
483.6845, 98.85995
484.1666, 103.2407
484.6487, 108.6416
485.1309, 115.1390
485.6130, 123.1806
486.0951, 132.9074
486.5772, 143.8837
487.0593, 155.6009
487.5414, 168.5618
488.0236, 183.9388
488.5057, 202.2373
488.9878, 222.1845
489.4699, 241.4675
489.9520, 260.3015
490.4341, 278.2186
490.9163, 298.9038
491.3984, 315.4241
491.8805, 324.3773
492.3626, 326.1567
492.8447, 322.2043
493.3268, 313.0703
493.8090, 299.5813
494.2911, 283.5361
494.7732, 263.5876
495.2553, 244.8667
495.7374, 228.1411
496.2195, 213.5247
496.7017, 201.2957
497.1838, 191.4603
497.6659, 183.6178
498.1480, 177.9356
498.6301, 174.0712
499.1122, 171.2316
499.5944, 169.4608
500.0765, 168.3705
500.5586, 167.7105
501.0407, 167.6374
501.5228, 168.3744
502.0049, 169.9805
502.4871, 172.2912
502.9692, 175.0218
503.4513, 178.4598
503.9334, 183.0907
504.4155, 189.0065
504.8976, 196.2666
505.3798, 204.8791
505.8619, 214.9644
506.3440, 226.6017
506.8261, 238.3866
507.3082, 253.0362
507.7903, 270.8513
508.2725, 292.3901
508.7546, 318.1763
509.2367, 348.4295
509.7188, 383.2470
510.2009, 422.3268
510.6830, 467.8932
511.1652, 514.3703
511.6473, 574.0583
512.1294, 636.6882
512.6115, 703.9266
513.0936, 771.6848
513.5757, 834.2184
514.0579, 890.1077
514.5400, 935.1758
515.0221, 963.7420
515.5042, 976.7062
515.9863, 966.4496
516.4684, 923.8243
516.9506, 862.9400
517.4327, 793.1307
517.9148, 715.8685
518.3969, 640.3672
518.8790, 567.5632
519.3611, 499.9355
519.8433, 440.5715
520.3254, 389.4072
520.8075, 344.8675
521.2896, 306.6021
521.7717, 273.9926
522.2538, 247.0707
522.7360, 226.3338
523.2181, 208.0094
523.7002, 192.1118
524.1823, 178.0149
524.6644, 165.3100
525.1465, 154.0045
525.6287, 144.2623
526.1108, 136.3360
526.5929, 130.0345
527.0750, 124.1941
527.5571, 119.0063
528.0392, 114.1215
528.5214, 109.2810
529.0035, 104.8393
529.4856, 101.2033
529.9677, 98.34898
530.4498, 95.82940
530.9319, 93.20585
531.4141, 90.57059
531.8962, 88.53350
532.3783, 87.35854
532.8604, 86.18369
533.3425, 84.45385
533.8246, 82.62743
534.3068, 81.15662
534.7889, 80.12457
535.2710, 79.34705
535.7531, 78.83617
536.2352, 78.46487
536.7173, 77.94597
537.1995, 77.23687
537.6816, 76.46380
538.1637, 75.70309
538.6458, 74.95916
539.1279, 74.26488
539.6100, 73.48137
540.0922, 72.90852
540.5743, 72.72750
541.0564, 72.75624
541.5385, 72.76240
542.0206, 72.70243
542.5027, 72.69486
542.9849, 72.87105
543.4670, 73.23519
543.9491, 73.59179
544.4312, 73.72377
544.9133, 74.12020
545.3954, 74.97024
545.8775, 76.08453
546.3596, 77.21712
546.8417, 78.31221
547.3239, 79.56847
547.8060, 81.11838
548.2881, 82.98109
548.7702, 85.40565
549.2523, 88.67854
549.7344, 91.91128
550.2166, 94.61739
550.6987, 96.91162
551.1808, 99.05740
551.6629, 101.4431
552.1450, 102.8610
552.6271, 102.4126
553.1093, 100.4855
553.5914, 97.70602
554.0735, 94.18539
554.5556, 90.33959
555.0377, 86.51894
555.5198, 82.70979
556.0020, 78.87273
556.4841, 74.55067
556.9662, 70.75072
557.4483, 67.87212
557.9304, 65.57299
558.4125, 63.55357
558.8947, 61.69080
559.3768, 59.90776
559.8589, 58.01904
560.3410, 56.01669
560.8231, 54.71525
561.3052, 54.60378
561.7874, 54.52013
562.2695, 54.02840
562.7516, 53.38871
563.2337, 52.89057
563.7158, 52.60712
564.1979, 52.43981
564.6801, 52.19322
565.1622, 51.98893
565.6443, 52.35041
566.1264, 53.45038
566.6085, 54.48063
567.0906, 54.72236
567.5728, 54.47489
568.0549, 54.87650
568.5370, 56.15420
569.0191, 57.71219
569.5012, 59.33189
569.9833, 61.12815
570.4655, 63.32140
570.9476, 65.89689
571.4297, 68.61485
571.9118, 71.23009
572.3939, 73.76782
572.8760, 76.44274
573.3582, 79.91324
573.8403, 82.59315
574.3224, 84.36003
574.8045, 85.23997
575.2866, 85.34469
575.7687, 84.64747
576.2509, 82.88944
576.7330, 79.47729
577.2151, 74.82813
577.6972, 70.51749
578.1793, 66.58678
578.6614, 62.82880
579.1436, 59.12902
579.6257, 55.62640
580.1078, 52.47336
580.5899, 49.66575
581.0720, 47.24877
581.5541, 45.32519
582.0363, 43.74984
582.5184, 42.32050
583.0005, 41.05443
583.4826, 40.15925
583.9647, 39.81060
584.4468, 39.79735
584.9290, 39.49170
585.4111, 38.52338
585.8932, 37.84069
586.3753, 37.62137
586.8574, 37.51061
587.3395, 37.28746
587.8217, 36.97460
588.3038, 36.71822
588.7859, 36.62477
