##NAMES=Andradite
##RRUFFID=R040001
##IDEAL CHEMISTRY=Ca_3_Fe^3+^_2_(SiO_4_)_3_
##LOCALITY=Stanley Butte, Graham County, Arizona, USA
##OWNER=RRUFF
##SOURCE=University of Arizona Mineral Museum
##DESCRIPTION=Brownish-orange dodecahedra
##STATUS=The identification of this mineral has been confirmed by X-ray diffraction and chemical analysis
##URL=rruff.info/R040001
##MEASURED CHEMISTRY=Ca_3.00_(Fe_1.96_Al_0.04_)_Î£=2_(SiO_4_)_3_ ; trace amounts of Mn
122.4867, 588.0137
122.9688, 625.4272
123.4509, 647.3790
123.9330, 661.6961
124.4151, 676.4457
124.8972, 691.9037
125.3794, 709.9902
125.8615, 736.0328
126.3436, 767.9772
126.8257, 796.8147
127.3078, 814.7916
127.7899, 825.0388
128.2721, 834.4868
128.7542, 844.1426
129.2363, 854.3486
129.7184, 868.3367
130.2005, 886.4828
130.6826, 900.5282
131.1648, 900.0143
131.6469, 886.7747
132.1290, 873.8414
132.6111, 864.9871
133.0932, 860.0124
133.5753, 858.2629
134.0575, 859.7046
134.5396, 864.4937
135.0217, 873.3170
135.5038, 886.3707
135.9859, 901.4408
136.4680, 916.9275
136.9501, 932.7390
137.4323, 953.1818
137.9144, 981.1358
138.3965, 1011.617
138.8786, 1029.674
139.3607, 1032.243
139.8428, 1031.064
140.3250, 1032.602
140.8071, 1036.439
141.2892, 1044.994
141.7713, 1060.743
142.2534, 1082.600
142.7355, 1097.526
143.2177, 1102.345
143.6998, 1104.007
144.1819, 1108.547
144.6640, 1116.468
145.1461, 1126.539
145.6283, 1140.758
146.1104, 1161.197
146.5925, 1171.458
147.0746, 1165.236
147.5567, 1151.480
148.0388, 1142.759
148.5210, 1140.842
149.0031, 1142.018
149.4852, 1144.905
149.9673, 1147.162
150.4494, 1155.840
150.9315, 1177.593
151.4137, 1206.114
151.8958, 1225.936
152.3779, 1223.250
152.8600, 1222.097
153.3421, 1232.261
153.8242, 1271.238
154.3064, 1302.164
154.7885, 1316.803
155.2706, 1318.211
155.7527, 1325.443
156.2348, 1337.131
156.7169, 1358.141
157.1990, 1391.641
157.6812, 1440.158
158.1633, 1499.443
158.6454, 1567.777
159.1275, 1644.192
159.6096, 1733.993
160.0917, 1836.029
160.5739, 1952.485
161.0560, 2085.656
161.5381, 2238.465
162.0202, 2406.204
162.5023, 2588.082
162.9844, 2782.621
163.4666, 2988.502
163.9487, 3207.741
164.4308, 3437.268
164.9129, 3672.093
165.3950, 3895.946
165.8771, 4132.850
166.3593, 4399.609
166.8414, 4702.411
167.3235, 5028.415
167.8056, 5369.529
168.2877, 5729.633
168.7698, 6119.126
169.2520, 6577.072
169.7341, 7053.876
170.2162, 7515.556
170.6983, 8014.990
171.1804, 8405.752
171.6625, 8599.705
172.1447, 8595.459
172.6268, 8383.485
173.1089, 7856.369
173.5910, 7136.672
174.0731, 6394.589
174.5552, 5632.596
175.0374, 4903.793
175.5195, 4285.356
176.0016, 3770.040
176.4837, 3337.577
176.9658, 2988.421
177.4479, 2712.844
177.9300, 2493.492
178.4122, 2343.165
178.8943, 2239.278
179.3764, 2146.608
179.8585, 2065.099
180.3406, 1994.229
180.8227, 1935.944
181.3049, 1889.283
181.7870, 1848.124
182.2691, 1810.325
182.7512, 1776.095
183.2333, 1746.190
183.7154, 1720.768
184.1976, 1699.978
184.6797, 1686.511
185.1618, 1679.419
185.6439, 1671.484
186.1260, 1657.134
186.6081, 1637.950
187.0903, 1619.959
187.5724, 1603.443
188.0545, 1588.816
188.5366, 1576.060
189.0187, 1565.290
189.5008, 1556.539
189.9830, 1551.081
190.4651, 1548.435
190.9472, 1544.551
191.4293, 1538.362
191.9114, 1530.818
192.3935, 1523.750
192.8757, 1517.135
193.3578, 1511.598
193.8399, 1509.915
194.3220, 1511.902
194.8041, 1507.830
195.2862, 1493.074
195.7684, 1470.535
196.2505, 1454.120
196.7326, 1444.876
197.2147, 1437.862
197.6968, 1426.646
198.1789, 1410.740
198.6610, 1398.511
199.1432, 1393.141
199.6253, 1394.273
200.1074, 1397.564
200.5895, 1404.292
201.0716, 1410.303
201.5537, 1408.456
202.0359, 1397.112
202.5180, 1387.455
203.0001, 1383.854
203.4822, 1386.600
203.9643, 1389.784
204.4464, 1393.494
204.9286, 1397.357
205.4107, 1400.182
205.8928, 1401.168
206.3749, 1403.925
206.8570, 1410.094
207.3391, 1419.965
207.8213, 1432.097
208.3034, 1447.527
208.7855, 1464.285
209.2676, 1476.938
209.7497, 1483.542
210.2318, 1491.423
210.7140, 1504.416
211.1961, 1523.094
211.6782, 1544.378
212.1603, 1568.216
212.6424, 1594.423
213.1245, 1621.876
213.6067, 1649.524
214.0888, 1680.004
214.5709, 1714.153
215.0530, 1750.899
215.5351, 1795.234
216.0172, 1849.292
216.4994, 1911.246
216.9815, 1974.760
217.4636, 2037.697
217.9457, 2104.318
218.4278, 2175.910
218.9099, 2247.161
219.3920, 2335.632
219.8742, 2447.807
220.3563, 2579.778
220.8384, 2712.405
221.3205, 2836.479
221.8026, 2972.200
222.2847, 3133.324
222.7669, 3321.150
223.2490, 3534.691
223.7311, 3773.394
224.2132, 4040.552
224.6953, 4324.228
225.1774, 4635.247
225.6596, 4956.032
226.1417, 5274.632
226.6238, 5585.653
227.1059, 5900.065
227.5880, 6224.973
228.0701, 6559.947
228.5523, 6887.604
229.0344, 7200.780
229.5165, 7511.547
229.9986, 7834.862
230.4807, 8157.119
230.9628, 8512.355
231.4450, 8914.678
231.9271, 9374.400
232.4092, 9824.172
232.8913, 10312.12
233.3734, 10761.41
233.8555, 11083.25
234.3377, 11313.58
234.8198, 11360.03
235.3019, 11185.93
235.7840, 10770.76
236.2661, 10232.38
236.7482, 9530.197
237.2304, 8739.233
237.7125, 7968.520
238.1946, 7192.315
238.6767, 6480.886
239.1588, 5851.016
239.6409, 5314.586
240.1230, 4829.994
240.6052, 4401.796
241.0873, 4026.824
241.5694, 3705.965
242.0515, 3453.606
242.5336, 3232.619
243.0157, 3030.202
243.4979, 2843.102
243.9800, 2685.018
244.4621, 2561.862
244.9442, 2465.559
245.4263, 2378.050
245.9084, 2301.178
246.3906, 2230.109
246.8727, 2161.825
247.3548, 2091.559
247.8369, 2037.262
248.3190, 2003.874
248.8011, 1984.839
249.2833, 1964.182
249.7654, 1938.820
250.2475, 1917.305
250.7296, 1902.145
251.2117, 1889.931
251.6938, 1892.888
252.1760, 1914.814
252.6581, 1950.735
253.1402, 1989.259
253.6223, 2029.138
254.1044, 2074.041
254.5865, 2126.140
255.0687, 2189.519
255.5508, 2249.633
256.0329, 2301.596
256.5150, 2351.559
256.9971, 2418.430
257.4792, 2510.751
257.9614, 2606.101
258.4435, 2691.941
258.9256, 2758.680
259.4077, 2843.334
259.8898, 2952.285
260.3719, 3079.030
260.8541, 3206.572
261.3362, 3339.665
261.8183, 3466.392
262.3004, 3588.445
262.7825, 3718.505
263.2646, 3800.462
263.7468, 3832.652
264.2289, 3814.001
264.7110, 3736.223
265.1931, 3587.890
265.6752, 3405.982
266.1573, 3198.331
266.6395, 2951.373
267.1216, 2738.339
267.6037, 2569.722
268.0858, 2437.484
268.5679, 2313.909
269.0500, 2198.348
269.5321, 2098.635
270.0143, 2020.167
270.4964, 1966.024
270.9785, 1921.170
271.4606, 1885.546
271.9427, 1857.600
272.4248, 1832.693
272.9070, 1811.110
273.3891, 1791.680
273.8712, 1772.655
274.3533, 1753.230
274.8354, 1740.534
275.3175, 1735.726
275.7997, 1737.706
276.2818, 1745.093
276.7639, 1759.312
277.2460, 1773.015
277.7281, 1780.574
278.2102, 1781.326
278.6924, 1784.636
279.1745, 1790.725
279.6566, 1800.317
280.1387, 1816.051
280.6208, 1838.566
281.1029, 1863.227
281.5851, 1887.105
282.0672, 1910.190
282.5493, 1934.663
283.0314, 1960.406
283.5135, 1988.050
283.9956, 2017.645
284.4778, 2048.791
284.9599, 2086.664
285.4420, 2138.242
285.9241, 2202.116
286.4062, 2257.703
286.8883, 2299.252
287.3705, 2337.358
287.8526, 2392.756
288.3347, 2465.525
288.8168, 2542.813
289.2989, 2618.766
289.7810, 2692.982
290.2632, 2760.133
290.7453, 2816.652
291.2274, 2870.972
291.7095, 2937.919
292.1916, 3016.681
292.6737, 3096.662
293.1559, 3173.616
293.6380, 3246.334
294.1201, 3312.010
294.6022, 3370.444
295.0843, 3422.274
295.5664, 3467.822
296.0486, 3507.918
296.5307, 3545.863
297.0128, 3574.948
297.4949, 3604.448
297.9770, 3653.581
298.4591, 3723.330
298.9413, 3816.922
299.4234, 3935.480
299.9055, 4080.540
300.3876, 4253.534
300.8697, 4454.906
301.3518, 4683.974
301.8340, 4944.807
302.3161, 5240.882
302.7982, 5557.071
303.2803, 5889.835
303.7624, 6233.142
304.2445, 6581.729
304.7267, 6908.538
305.2088, 7244.018
305.6909, 7632.388
306.1730, 8074.391
306.6551, 8559.869
307.1372, 9079.380
307.6194, 9634.328
308.1015, 10216.95
308.5836, 10855.05
309.0657, 11501.48
309.5478, 12150.86
310.0299, 12809.08
310.5120, 13351.93
310.9941, 13769.24
311.4763, 13999.16
311.9584, 13954.34
312.4405, 13507.88
312.9226, 12836.87
313.4047, 11997.95
313.8868, 10979.92
314.3690, 9994.839
314.8511, 9109.533
315.3332, 8328.106
315.8153, 7658.040
316.2974, 7098.848
316.7795, 6643.141
317.2617, 6304.500
317.7438, 6079.294
318.2259, 5918.399
318.7080, 5812.276
319.1901, 5758.583
319.6722, 5755.238
320.1544, 5814.241
320.6365, 5911.473
321.1186, 6047.886
321.6007, 6221.600
322.0828, 6405.111
322.5649, 6618.292
323.0471, 6823.876
323.5292, 6995.858
324.0113, 7182.084
324.4934, 7277.905
324.9755, 7244.064
325.4576, 7092.881
325.9398, 6909.099
326.4219, 6673.808
326.9040, 6425.599
327.3861, 6185.089
327.8682, 5913.292
328.3503, 5697.237
328.8325, 5549.397
329.3146, 5462.959
329.7967, 5401.197
330.2788, 5362.294
330.7609, 5349.958
331.2430, 5366.229
331.7252, 5413.488
332.2073, 5485.231
332.6894, 5586.166
333.1715, 5711.916
333.6536, 5845.218
334.1357, 5980.687
334.6179, 6135.005
335.1000, 6313.300
335.5821, 6508.796
336.0642, 6743.381
336.5463, 7015.094
337.0284, 7328.666
337.5106, 7697.864
337.9927, 8128.148
338.4748, 8590.859
338.9569, 9068.905
339.4390, 9553.561
339.9211, 10117.60
340.4033, 10769.05
340.8854, 11479.72
341.3675, 12186.26
341.8496, 12894.67
342.3317, 13627.42
342.8138, 14392.41
343.2960, 15187.37
343.7781, 16047.35
344.2602, 16964.60
344.7423, 17952.46
345.2244, 19017.83
345.7065, 20159.69
346.1887, 21360.76
346.6708, 22621.82
347.1529, 23939.63
347.6350, 25295.01
348.1171, 26683.91
348.5992, 28046.23
349.0814, 29417.95
349.5635, 30708.27
350.0456, 31705.99
350.5277, 32346.93
351.0098, 32658.27
351.4919, 32655.74
351.9740, 32345.52
352.4561, 31793.53
352.9383, 30880.94
353.4204, 29796.27
353.9025, 28820.54
354.3846, 27982.00
354.8667, 27325.98
355.3488, 26874.55
355.8310, 26637.58
356.3131, 26639.97
356.7952, 26925.04
357.2773, 27444.85
357.7594, 28161.88
358.2415, 29074.39
358.7237, 30170.52
359.2058, 31479.03
359.6879, 32963.35
360.1700, 34557.67
360.6521, 36256.45
361.1342, 38039.45
361.6164, 39904.88
362.0985, 41847.73
362.5806, 43897.40
363.0627, 46140.24
363.5448, 48469.24
364.0269, 50759.82
364.5091, 52996.89
364.9912, 55184.94
365.4733, 57361.64
365.9554, 59547.52
366.4375, 61475.85
366.9196, 63298.30
367.4018, 64743.29
367.8839, 65622.80
368.3660, 66012.38
368.8481, 65725.70
369.3302, 64708.74
369.8123, 62974.62
370.2945, 60730.34
370.7766, 57792.13
371.2587, 54504.10
371.7408, 51005.20
372.2229, 47150.46
372.7050, 43426.15
373.1872, 39780.33
373.6693, 36317.62
374.1514, 33132.69
374.6335, 30215.87
375.1156, 27587.19
375.5977, 25245.25
376.0799, 23199.78
376.5620, 21373.87
377.0441, 19764.15
377.5262, 18352.10
378.0083, 17111.59
378.4904, 16038.16
378.9726, 15095.95
379.4547, 14274.18
379.9368, 13573.88
380.4189, 12955.26
380.9010, 12434.69
381.3831, 11944.19
381.8653, 11431.27
382.3474, 10891.06
382.8295, 10335.78
383.3116, 9742.984
383.7937, 9148.109
384.2758, 8612.780
384.7580, 8136.646
385.2401, 7698.697
385.7222, 7262.260
386.2043, 6845.227
386.6864, 6485.101
387.1685, 6198.586
387.6507, 5951.419
388.1328, 5710.450
388.6149, 5474.911
389.0970, 5256.207
389.5791, 5058.566
390.0612, 4878.701
390.5434, 4718.141
391.0255, 4580.342
391.5076, 4451.705
391.9897, 4318.809
392.4718, 4189.335
392.9539, 4075.352
393.4360, 3993.229
393.9182, 3920.234
394.4003, 3846.170
394.8824, 3770.694
395.3645, 3693.318
395.8466, 3604.500
396.3287, 3517.604
396.8109, 3445.608
397.2930, 3407.229
397.7751, 3367.583
398.2572, 3317.003
398.7393, 3255.911
399.2214, 3202.167
399.7036, 3162.934
400.1857, 3126.040
400.6678, 3084.061
401.1499, 3027.065
401.6320, 2981.613
402.1141, 2954.378
402.5963, 2938.538
403.0784, 2911.957
403.5605, 2867.572
404.0426, 2825.562
404.5247, 2796.902
405.0068, 2785.820
405.4890, 2766.529
405.9711, 2737.065
406.4532, 2702.061
406.9353, 2665.959
407.4174, 2627.987
407.8995, 2595.768
408.3817, 2574.470
408.8638, 2561.625
409.3459, 2542.794
409.8280, 2517.353
410.3101, 2490.043
410.7922, 2468.285
411.2744, 2449.703
411.7565, 2423.135
412.2386, 2381.304
412.7207, 2334.977
413.2028, 2300.646
413.6849, 2277.212
414.1671, 2259.602
414.6492, 2246.612
415.1313, 2236.372
415.6134, 2227.131
416.0955, 2220.035
416.5776, 2209.193
417.0598, 2185.032
417.5419, 2153.858
418.0240, 2127.931
418.5061, 2116.088
418.9882, 2109.142
419.4703, 2102.785
419.9525, 2096.831
420.4346, 2088.906
420.9167, 2077.593
421.3988, 2064.143
421.8809, 2049.485
422.3630, 2029.354
422.8452, 2012.973
423.3273, 2004.331
423.8094, 2002.658
424.2915, 1999.859
424.7736, 1994.361
425.2557, 1988.286
425.7379, 1982.477
426.2200, 1974.441
426.7021, 1970.737
427.1842, 1972.113
427.6663, 1977.517
428.1484, 1984.775
428.6306, 1994.246
429.1127, 2005.061
429.5948, 2018.149
430.0769, 2033.906
430.5590, 2043.020
431.0411, 2042.461
431.5233, 2041.547
432.0054, 2051.778
432.4875, 2073.507
432.9696, 2096.877
433.4517, 2118.782
433.9338, 2141.002
434.4159, 2169.445
434.8980, 2204.143
435.3802, 2240.251
435.8623, 2271.342
436.3444, 2301.185
436.8265, 2339.912
437.3086, 2390.814
437.7907, 2446.407
438.2729, 2496.586
438.7550, 2544.438
439.2371, 2598.466
439.7192, 2661.627
440.2013, 2733.730
440.6834, 2817.788
441.1656, 2913.814
441.6477, 3009.838
442.1298, 3092.943
442.6119, 3174.674
443.0940, 3267.481
443.5761, 3381.252
444.0583, 3500.993
444.5404, 3621.195
445.0225, 3741.967
445.5046, 3867.419
445.9867, 4005.314
446.4688, 4143.399
446.9510, 4274.357
447.4331, 4398.663
447.9152, 4516.941
448.3973, 4641.067
448.8794, 4754.190
449.3615, 4834.398
449.8437, 4885.490
450.3258, 4896.987
450.8079, 4867.555
451.2900, 4797.352
451.7721, 4671.137
452.2542, 4474.916
452.7364, 4255.044
453.2185, 4058.340
453.7006, 3887.090
454.1827, 3704.473
454.6648, 3498.264
455.1469, 3285.714
455.6291, 3109.148
456.1112, 2967.302
456.5933, 2850.591
457.0754, 2762.715
457.5575, 2695.974
458.0396, 2636.432
458.5218, 2582.510
459.0039, 2535.683
459.4860, 2497.042
459.9681, 2466.210
460.4502, 2443.256
460.9323, 2432.763
461.4145, 2426.629
461.8966, 2418.014
462.3787, 2407.603
462.8608, 2400.881
463.3429, 2402.171
463.8250, 2407.153
464.3072, 2412.487
464.7893, 2416.782
465.2714, 2422.664
465.7535, 2431.907
466.2356, 2443.085
466.7177, 2453.160
467.1999, 2453.880
467.6820, 2461.293
468.1641, 2482.063
468.6462, 2519.040
469.1283, 2549.905
469.6104, 2572.388
470.0926, 2591.263
470.5747, 2609.347
471.0568, 2623.354
471.5389, 2646.976
472.0210, 2684.290
472.5031, 2731.512
472.9853, 2776.353
473.4674, 2818.779
473.9495, 2860.771
474.4316, 2897.498
474.9137, 2932.586
475.3958, 2989.514
475.8779, 3071.700
476.3600, 3166.550
476.8422, 3260.123
477.3243, 3353.992
477.8064, 3451.443
478.2885, 3545.610
478.7706, 3649.518
479.2527, 3779.687
479.7349, 3933.958
480.2170, 4099.746
480.6991, 4268.446
481.1812, 4443.823
481.6633, 4626.189
482.1454, 4809.527
482.6276, 5015.942
483.1097, 5263.231
483.5918, 5535.865
484.0739, 5809.139
484.5560, 6052.968
485.0381, 6317.502
485.5203, 6621.016
486.0024, 6968.200
486.4845, 7307.655
486.9666, 7623.590
487.4487, 7945.522
487.9308, 8300.183
488.4130, 8716.344
488.8951, 9103.229
489.3772, 9464.095
489.8593, 9794.987
490.3414, 10091.50
490.8235, 10364.14
491.3057, 10558.37
491.7878, 10652.45
492.2699, 10648.24
492.7520, 10541.10
493.2341, 10327.12
493.7162, 10049.55
494.1984, 9734.014
494.6805, 9387.975
495.1626, 9042.000
495.6447, 8690.502
496.1268, 8356.194
496.6089, 8045.275
497.0911, 7764.291
497.5732, 7523.501
498.0553, 7320.082
498.5374, 7167.849
499.0195, 7084.256
499.5016, 7073.723
499.9838, 7106.475
500.4659, 7162.412
500.9480, 7258.778
501.4301, 7413.424
501.9122, 7641.738
502.3943, 7914.614
502.8765, 8224.438
503.3586, 8574.351
503.8407, 8973.003
504.3228, 9415.064
504.8049, 9912.008
505.2870, 10465.56
505.7692, 11069.05
506.2513, 11750.37
506.7334, 12509.67
507.2155, 13339.83
507.6976, 14223.66
508.1797, 15157.70
508.6619, 16193.27
509.1440, 17345.30
509.6261, 18604.48
510.1082, 19959.08
510.5903, 21407.60
511.0724, 22919.56
511.5546, 24552.46
512.0367, 26211.35
512.5188, 27819.15
513.0009, 29414.34
513.4830, 30711.84
513.9651, 31557.21
514.4473, 31936.19
514.9294, 31827.60
515.4115, 31149.53
515.8936, 30047.07
516.3757, 28435.01
516.8578, 26407.17
517.3400, 24344.71
517.8221, 22214.89
518.3042, 20186.91
518.7863, 18338.83
519.2684, 16690.77
519.7505, 15195.68
520.2327, 13879.98
520.7148, 12709.86
521.1969, 11673.59
521.6790, 10783.63
522.1611, 9982.018
522.6432, 9261.779
523.1254, 8618.977
523.6075, 8055.183
524.0896, 7575.724
524.5717, 7152.714
525.0538, 6778.003
525.5359, 6450.479
526.0181, 6146.105
526.5002, 5861.839
526.9823, 5606.398
527.4644, 5390.473
527.9465, 5207.819
528.4286, 5042.224
528.9108, 4890.611
529.3929, 4748.722
529.8750, 4612.787
530.3571, 4483.357
530.8392, 4367.937
531.3214, 4269.946
531.8035, 4186.071
532.2856, 4113.010
532.7677, 4050.844
533.2498, 3997.461
533.7319, 3953.175
534.2141, 3916.904
534.6962, 3886.964
535.1783, 3866.697
535.6604, 3847.981
536.1425, 3828.821
536.6246, 3810.563
537.1067, 3796.509
537.5888, 3785.089
538.0709, 3782.547
538.5530, 3793.810
539.0352, 3818.545
539.5173, 3843.847
539.9994, 3869.092
540.4815, 3895.913
540.9636, 3925.065
541.4457, 3957.073
541.9279, 3992.360
542.4100, 4028.985
542.8921, 4072.429
543.3742, 4132.661
543.8563, 4205.049
544.3384, 4275.382
544.8206, 4328.961
545.3027, 4383.198
545.7848, 4450.615
546.2669, 4532.622
546.7490, 4618.123
547.2311, 4703.457
547.7133, 4790.175
548.1954, 4881.334
548.6775, 4980.938
549.1596, 5080.060
549.6417, 5187.696
550.1238, 5292.182
550.6060, 5371.507
551.0881, 5430.241
551.5702, 5453.830
552.0523, 5436.391
552.5344, 5379.257
553.0165, 5297.861
553.4987, 5193.234
553.9808, 5058.938
554.4629, 4876.186
554.9450, 4655.450
555.4271, 4442.927
555.9092, 4244.991
556.3914, 4061.764
556.8735, 3899.224
557.3556, 3753.704
557.8377, 3618.690
558.3198, 3490.773
558.8019, 3372.385
559.2841, 3268.120
559.7662, 3177.073
560.2483, 3091.535
560.7304, 3003.091
561.2125, 2923.484
561.6946, 2860.122
562.1768, 2819.212
562.6589, 2781.903
563.1410, 2745.319
563.6231, 2712.989
564.1052, 2687.993
564.5873, 2669.695
565.0695, 2660.693
565.5516, 2663.642
566.0337, 2675.034
566.5158, 2681.747
566.9979, 2682.491
567.4800, 2689.797
567.9622, 2711.850
568.4443, 2746.079
568.9264, 2782.517
569.4085, 2821.406
569.8906, 2861.645
570.3727, 2898.993
570.8549, 2938.106
571.3370, 2988.689
571.8191, 3055.624
572.3012, 3127.854
572.7833, 3206.530
573.2654, 3284.186
573.7476, 3345.308
574.2297, 3382.463
574.7118, 3405.656
575.1939, 3422.925
575.6760, 3434.278
576.1581, 3414.128
576.6403, 3350.262
577.1224, 3267.770
577.6045, 3178.086
578.0866, 3078.472
578.5687, 2976.398
579.0508, 2870.155
579.5330, 2766.776
580.0151, 2675.249
580.4972, 2595.839
580.9793, 2520.414
581.4614, 2445.742
581.9435, 2374.975
582.4257, 2318.470
582.9078, 2274.024
583.3899, 2232.460
583.8720, 2185.495
584.3541, 2140.672
584.8362, 2106.287
585.3184, 2083.244
585.8005, 2062.175
586.2826, 2035.468
586.7647, 2010.381
587.2468, 1992.866
587.7289, 1989.607
588.2111, 1985.683
588.6932, 1981.951
589.1753, 1975.842
589.6574, 1962.164
590.1395, 1934.650
590.6216, 1912.174
591.1038, 1901.083
591.5859, 1898.597
592.0680, 1887.856
592.5501, 1867.489
593.0322, 1847.754
593.5143, 1838.839
593.9965, 1836.637
594.4786, 1821.500
594.9607, 1790.854
595.4428, 1762.165
595.9249, 1753.677
596.4070, 1757.658
596.8892, 1762.440
597.3713, 1769.216
597.8534, 1768.648
598.3355, 1747.312
598.8176, 1715.115
599.2997, 1693.025
599.7819, 1697.528
600.2640, 1702.940
600.7461, 1700.908
601.2282, 1691.215
601.7103, 1681.303
602.1924, 1671.725
602.6746, 1661.168
603.1567, 1647.299
603.6388, 1628.035
604.1209, 1620.012
604.6030, 1626.889
605.0851, 1635.664
605.5673, 1627.582
606.0494, 1605.305
606.5315, 1585.918
607.0136, 1573.816
607.4957, 1566.075
607.9778, 1562.075
608.4600, 1559.695
608.9421, 1552.518
609.4242, 1535.163
609.9063, 1513.616
610.3884, 1488.724
610.8705, 1460.730
611.3527, 1440.454
611.8348, 1435.206
612.3169, 1435.238
612.7990, 1435.173
613.2811, 1436.447
613.7632, 1433.600
614.2454, 1424.078
614.7275, 1413.162
615.2096, 1409.353
615.6917, 1414.631
616.1738, 1412.867
616.6559, 1398.488
617.1381, 1378.103
617.6202, 1365.094
