##NAMES=Andradite
##RRUFFID=R060449
##IDEAL CHEMISTRY=Ca_3_Fe^3+^_2_(SiO_4_)_3_
##LOCALITY=Namibia
##OWNER=RRUFF
##SOURCE=Gemological Institute of America
##DESCRIPTION=Blue fragment, variety demantoid
##STATUS=The identification of this mineral has been confirmed by X-ray diffraction and chemical analysis
##URL=rruff.info/R060449
##MEASURED CHEMISTRY=Ca_3.00_(Fe^3+^_1.93_Al_0.07_)_Î£=2_(Si_1.00_O_4_)_3__
92.10938, 4.425258
92.59149, 4.404459
93.07361, 4.352921
93.55573, 4.281257
94.03784, 4.331622
94.51996, 4.924075
95.00208, 5.816091
95.48419, 6.134146
95.96631, 5.262990
96.44843, 3.693263
96.93054, 2.844905
97.41266, 2.785036
97.89478, 3.127393
98.37689, 3.555364
98.85901, 4.065174
99.34113, 4.393214
99.82324, 4.375114
100.3054, 4.011333
100.7875, 3.653416
101.2696, 3.239213
101.7517, 2.911785
102.2338, 3.027583
102.7159, 3.775314
103.1981, 4.424021
103.6802, 4.571496
104.1623, 4.008840
104.6444, 3.617995
105.1265, 3.416133
105.6086, 3.404413
106.0908, 3.633423
106.5729, 4.407030
107.0550, 5.061789
107.5371, 5.161351
108.0192, 3.910712
108.5013, 3.305348
108.9835, 3.829436
109.4656, 5.434222
109.9477, 6.476671
110.4298, 6.612590
110.9119, 6.375468
111.3940, 6.133889
111.8762, 5.586043
112.3583, 5.348938
112.8404, 5.688839
113.3225, 6.689003
113.8046, 7.414551
114.2867, 7.486654
114.7689, 7.302299
115.2510, 7.294752
115.7331, 7.523570
116.2152, 7.975027
116.6973, 8.826896
117.1794, 10.29678
117.6616, 11.26415
118.1437, 10.81696
118.6258, 9.644642
119.1079, 8.904170
119.5900, 9.519869
120.0721, 10.43210
120.5543, 10.85251
121.0364, 10.39817
121.5185, 10.08540
122.0006, 10.75579
122.4827, 12.11828
122.9648, 13.34926
123.4470, 14.05250
123.9291, 14.33503
124.4112, 14.21541
124.8933, 13.37960
125.3754, 12.62056
125.8575, 12.86985
126.3397, 14.00639
126.8218, 15.29103
127.3039, 16.17615
127.7860, 16.80918
128.2681, 17.49020
128.7502, 18.37886
129.2324, 19.30877
129.7145, 19.94821
130.1966, 20.30006
130.6787, 20.58044
131.1608, 20.94393
131.6429, 21.39214
132.1251, 21.97353
132.6072, 22.96589
133.0893, 24.09102
133.5714, 24.16382
134.0535, 22.97891
134.5356, 21.68520
135.0178, 21.93546
135.4999, 23.76810
135.9820, 25.43388
136.4641, 26.19185
136.9462, 26.07041
137.4283, 26.05989
137.9105, 26.17191
138.3926, 26.37388
138.8747, 26.65927
139.3568, 27.08064
139.8389, 27.37893
140.3210, 27.35968
140.8032, 26.90844
141.2853, 26.75226
141.7674, 26.94665
142.2495, 27.41025
142.7316, 27.87745
143.2137, 28.09052
143.6959, 28.47443
144.1780, 29.51610
144.6601, 31.78495
145.1422, 33.30648
145.6243, 33.94183
146.1064, 33.83067
146.5886, 33.41110
147.0707, 32.26373
147.5528, 31.28333
148.0349, 30.97783
148.5170, 31.73878
148.9991, 32.51729
149.4813, 33.17774
149.9634, 33.76054
150.4455, 34.59918
150.9276, 35.97734
151.4097, 37.41958
151.8918, 38.60159
152.3740, 38.36687
152.8561, 39.18287
153.3382, 41.32725
153.8203, 44.76220
154.3024, 48.99797
154.7845, 54.85469
155.2667, 60.99208
155.7488, 66.49713
156.2309, 71.55017
156.7130, 75.55867
157.1951, 78.02983
157.6772, 78.88893
158.1594, 79.93235
158.6415, 81.26820
159.1236, 83.05007
159.6057, 85.43872
160.0878, 88.87305
160.5699, 92.50880
161.0521, 96.03410
161.5342, 99.36977
162.0163, 102.9635
162.4984, 106.7978
162.9805, 111.0176
163.4626, 115.8074
163.9448, 121.3556
164.4269, 127.3851
164.9090, 133.5989
165.3911, 139.8020
165.8732, 147.1111
166.3553, 156.1451
166.8375, 166.6345
167.3196, 178.1393
167.8017, 187.7958
168.2838, 200.0092
168.7659, 217.2809
169.2480, 239.2432
169.7302, 268.7586
170.2123, 306.9340
170.6944, 354.1860
171.1765, 410.6333
171.6586, 477.7188
172.1407, 553.6146
172.6229, 646.6630
173.1050, 771.6158
173.5871, 874.1623
174.0692, 911.0223
174.5513, 887.6793
175.0334, 818.3395
175.5156, 673.5129
175.9977, 497.3938
176.4798, 356.0430
176.9619, 260.6078
177.4440, 195.0260
177.9261, 149.3027
178.4083, 121.0984
178.8904, 101.5874
179.3725, 88.15080
179.8546, 79.07182
180.3367, 71.50075
180.8188, 65.04787
181.3010, 59.66390
181.7831, 55.51875
182.2652, 52.57174
182.7473, 50.22030
183.2294, 48.24595
183.7115, 46.56098
184.1937, 44.97108
184.6758, 43.36512
185.1579, 41.89835
185.6400, 40.86087
186.1221, 40.24644
186.6042, 39.69378
187.0864, 38.90924
187.5685, 37.93980
188.0506, 37.00433
188.5327, 36.06755
189.0148, 35.25353
189.4969, 34.94739
189.9791, 35.17748
190.4612, 35.33154
190.9433, 34.63230
191.4254, 33.23043
191.9075, 32.43382
192.3896, 32.82619
192.8718, 33.87414
193.3539, 33.91146
193.8360, 32.83334
194.3181, 31.57950
194.8002, 30.98165
195.2823, 31.02253
195.7645, 31.22231
196.2466, 31.51114
196.7287, 31.86652
197.2108, 32.25435
197.6929, 32.71286
198.1750, 33.02660
198.6572, 32.92518
199.1393, 32.38918
199.6214, 31.85697
200.1035, 31.40874
200.5856, 31.04638
201.0677, 30.77998
201.5499, 30.59381
202.0320, 30.54500
202.5141, 30.70590
202.9962, 31.09004
203.4783, 31.60469
203.9604, 32.36954
204.4426, 33.29682
204.9247, 33.52977
205.4068, 32.87901
205.8889, 32.00620
206.3710, 31.55638
206.8531, 31.58399
207.3353, 31.74856
207.8174, 31.94912
208.2995, 32.20106
208.7816, 32.75785
209.2637, 33.69682
209.7458, 34.77648
210.2280, 35.75267
210.7101, 36.60205
211.1922, 37.43077
211.6743, 38.25105
212.1564, 39.05770
212.6385, 39.90804
213.1207, 40.76096
213.6028, 41.70685
214.0849, 42.77091
214.5670, 43.81290
215.0491, 45.36321
215.5313, 47.54560
216.0134, 50.37154
216.4955, 53.60475
216.9776, 57.17827
217.4597, 61.28402
217.9418, 66.37045
218.4239, 72.90379
218.9061, 79.08501
219.3882, 84.61847
219.8703, 89.45978
220.3524, 93.49769
220.8345, 96.23363
221.3166, 98.72706
221.7988, 102.0879
222.2809, 106.5173
222.7630, 111.2600
223.2451, 115.9899
223.7272, 120.7360
224.2093, 126.3788
224.6915, 132.8275
225.1736, 140.3860
225.6557, 149.0784
226.1378, 158.7914
226.6199, 170.1957
227.1020, 183.4811
227.5842, 198.7684
228.0663, 215.2256
228.5484, 233.7934
229.0305, 252.7356
229.5126, 270.3988
229.9947, 285.9775
230.4769, 301.6626
230.9590, 316.6877
231.4411, 331.0112
231.9232, 351.2712
232.4053, 375.9589
232.8874, 408.4866
233.3696, 451.7821
233.8517, 505.9200
234.3338, 571.4888
234.8159, 654.5736
235.2980, 755.1859
235.7801, 841.1215
236.2623, 933.8581
236.7444, 988.8168
237.2265, 963.1300
237.7086, 816.4229
238.1907, 666.3888
238.6728, 521.7841
239.1550, 383.9694
239.6371, 278.1812
240.1192, 212.7698
240.6013, 169.8621
241.0834, 137.5011
241.5655, 119.6276
242.0477, 105.1599
242.5298, 93.12887
243.0119, 83.49055
243.4940, 75.93491
243.9761, 71.14117
244.4582, 67.62608
244.9404, 64.31221
245.4225, 60.79758
245.9046, 58.31545
246.3867, 57.19358
246.8688, 57.26931
247.3509, 57.46924
247.8331, 57.95267
248.3152, 58.35679
248.7973, 58.44683
249.2794, 58.14574
249.7615, 57.66172
250.2436, 56.84211
250.7258, 55.83365
251.2079, 55.38098
251.6900, 55.72277
252.1721, 56.28106
252.6542, 56.69642
253.1363, 56.76868
253.6185, 57.16830
254.1006, 57.98841
254.5827, 59.15430
255.0648, 60.40151
255.5469, 61.70943
256.0291, 63.10950
256.5112, 64.56829
256.9933, 65.92869
257.4754, 67.77051
257.9575, 70.11996
258.4396, 72.96767
258.9218, 76.05542
259.4039, 78.89343
259.8860, 82.91454
260.3681, 88.73494
260.8502, 96.33930
261.3323, 105.9724
261.8145, 117.8248
262.2966, 131.5392
262.7787, 146.7587
263.2608, 164.1549
263.7429, 181.7624
264.2250, 201.1052
264.7072, 225.7815
265.1893, 236.3801
265.6714, 230.3587
266.1535, 212.2236
266.6356, 188.0760
267.1177, 154.0910
267.5999, 123.6215
268.0820, 101.9441
268.5641, 89.72143
269.0462, 80.30219
269.5283, 74.11986
270.0104, 70.07889
270.4926, 66.50554
270.9747, 63.31322
271.4568, 60.79182
271.9389, 59.13311
272.4210, 58.34343
272.9031, 57.66553
273.3853, 57.00488
273.8674, 56.62465
274.3495, 57.02397
274.8316, 58.39261
275.3137, 59.54632
275.7958, 60.12503
276.2780, 60.16642
276.7601, 60.14629
277.2422, 59.94762
277.7243, 59.98274
278.2064, 60.72380
278.6885, 62.22020
279.1707, 64.02596
279.6528, 66.22240
280.1349, 68.64487
280.6170, 70.28545
281.0991, 70.96927
281.5812, 71.58478
282.0634, 73.01388
282.5455, 75.30010
283.0276, 77.35368
283.5097, 78.89082
283.9918, 80.10876
284.4739, 81.64818
284.9561, 83.54347
285.4382, 85.50935
285.9203, 87.16365
286.4024, 88.54230
286.8845, 90.52038
287.3666, 93.22673
287.8488, 96.55051
288.3309, 100.3063
288.8130, 104.4966
289.2951, 108.9676
289.7772, 113.5396
290.2593, 118.2427
290.7415, 123.3105
291.2236, 128.4364
291.7057, 134.5758
292.1878, 143.6303
292.6699, 155.4355
293.1520, 168.0301
293.6342, 180.4857
294.1163, 192.8794
294.5984, 205.3592
295.0805, 218.3092
295.5626, 230.1981
296.0447, 240.2717
296.5269, 248.1653
297.0090, 252.0984
297.4911, 250.0407
297.9732, 243.5615
298.4553, 235.4043
298.9374, 225.5017
299.4196, 215.5777
299.9017, 206.7221
300.3838, 199.2321
300.8659, 194.0542
301.3480, 192.0033
301.8301, 192.3137
302.3123, 193.7814
302.7944, 196.4388
303.2765, 200.8754
303.7586, 207.4714
304.2407, 216.1945
304.7228, 227.0617
305.2050, 239.2202
305.6871, 254.3516
306.1692, 273.5590
306.6513, 297.0496
307.1334, 324.6244
307.6155, 356.3141
308.0977, 392.2676
308.5798, 432.5619
309.0619, 477.3835
309.5440, 527.0963
310.0261, 586.0098
310.5082, 650.9982
310.9904, 712.3053
311.4725, 780.5995
311.9546, 834.9348
312.4367, 856.9305
312.9188, 842.1823
313.4009, 800.0124
313.8831, 719.1129
314.3652, 615.9562
314.8473, 520.5033
315.3294, 439.6560
315.8115, 373.6689
316.2936, 324.1745
316.7758, 292.4542
317.2579, 269.2120
317.7400, 251.7432
318.2221, 239.9066
318.7042, 233.0865
319.1863, 233.1424
319.6685, 236.3605
320.1506, 241.0996
320.6327, 247.2655
321.1148, 256.5531
321.5969, 270.6774
322.0790, 287.4425
322.5612, 305.3414
323.0433, 324.8719
323.5254, 344.4767
324.0075, 367.2511
324.4896, 391.7580
324.9717, 406.5733
325.4539, 409.9559
325.9360, 403.2786
326.4181, 387.1418
326.9002, 351.1470
327.3823, 318.9498
327.8644, 290.8293
328.3466, 267.3539
328.8287, 250.3045
329.3108, 242.3918
329.7929, 238.4995
330.2750, 236.9411
330.7571, 237.2847
331.2393, 240.8239
331.7214, 247.7885
332.2035, 257.9109
332.6856, 270.5692
333.1677, 285.5607
333.6498, 303.5042
334.1320, 325.2009
334.6141, 350.6650
335.0962, 376.7220
335.5783, 404.0361
336.0604, 431.2487
336.5425, 457.1477
337.0247, 481.1930
337.5068, 505.3388
337.9889, 529.6553
338.4710, 554.3385
338.9531, 581.7175
339.4352, 611.8937
339.9173, 645.0097
340.3994, 680.5433
340.8816, 718.5907
341.3637, 760.1486
341.8458, 805.3414
342.3279, 854.4025
342.8100, 909.8216
343.2921, 970.7441
343.7743, 1040.596
344.2564, 1118.917
344.7385, 1206.662
345.2206, 1307.773
345.7027, 1422.448
346.1848, 1553.351
346.6670, 1702.170
347.1491, 1869.437
347.6312, 2062.571
348.1133, 2292.092
348.5954, 2551.441
349.0775, 2824.775
349.5597, 3115.483
350.0418, 3410.816
350.5239, 3720.540
351.0060, 4028.876
351.4881, 4276.540
351.9702, 4470.124
352.4524, 4572.600
352.9345, 4505.813
353.4166, 4278.845
353.8987, 3971.225
354.3808, 3590.750
354.8629, 3181.993
355.3451, 2817.770
355.8272, 2510.894
356.3093, 2256.954
356.7914, 2058.902
357.2735, 1910.539
357.7556, 1800.258
358.2378, 1733.169
358.7199, 1695.341
359.2020, 1677.099
359.6841, 1677.917
360.1662, 1694.563
360.6483, 1725.442
361.1305, 1770.932
361.6126, 1831.569
362.0947, 1903.534
362.5768, 1994.187
363.0589, 2105.205
363.5410, 2236.828
364.0232, 2395.381
364.5053, 2580.805
364.9874, 2795.133
365.4695, 3039.951
365.9516, 3320.993
366.4337, 3626.840
366.9159, 3968.893
367.3980, 4338.887
367.8801, 4705.469
368.3622, 5093.576
368.8443, 5450.384
369.3264, 5758.691
369.8086, 6059.353
370.2907, 6234.993
370.7728, 6282.365
371.2549, 6206.597
371.7370, 6010.269
372.2191, 5644.429
372.7013, 5221.885
373.1834, 4759.029
373.6655, 4245.464
374.1476, 3768.742
374.6297, 3334.295
375.1118, 2943.180
375.5940, 2600.431
376.0761, 2312.749
376.5582, 2062.709
377.0403, 1849.499
377.5224, 1672.491
378.0045, 1521.728
378.4867, 1401.935
378.9688, 1300.896
379.4509, 1212.984
379.9330, 1138.971
380.4151, 1074.818
380.8972, 1021.612
381.3794, 976.5441
381.8615, 939.2928
382.3436, 909.1113
382.8257, 875.9919
383.3078, 834.6329
383.7899, 786.4423
384.2721, 732.8316
384.7542, 673.5131
385.2363, 614.8484
385.7184, 561.1544
386.2005, 513.0643
386.6826, 469.1187
387.1648, 428.7290
387.6469, 393.2984
388.1290, 365.1945
388.6111, 343.9086
389.0932, 325.8095
389.5753, 309.1559
390.0575, 293.9639
390.5396, 279.9403
391.0217, 266.8423
391.5038, 255.0798
391.9859, 245.0915
392.4680, 236.6256
392.9502, 229.0835
393.4323, 223.0402
393.9144, 217.2631
394.3965, 210.9846
394.8786, 204.0891
395.3607, 197.5854
395.8429, 192.0305
396.3250, 186.8733
396.8071, 181.5992
397.2892, 175.4317
397.7713, 169.8328
398.2534, 165.4082
398.7356, 161.9325
399.2177, 158.4043
399.6998, 154.5616
400.1819, 150.7828
400.6640, 147.1904
401.1461, 143.6242
401.6283, 140.5829
402.1104, 138.1603
402.5925, 136.2249
403.0746, 134.6068
403.5567, 133.6505
404.0388, 132.3743
404.5210, 130.4142
405.0031, 127.7681
405.4852, 125.3970
405.9673, 123.2880
406.4494, 121.4645
406.9315, 120.1538
407.4137, 119.5028
407.8958, 118.0452
408.3779, 115.2135
408.8600, 111.8106
409.3421, 110.1556
409.8242, 110.3816
410.3064, 110.3751
410.7885, 108.5125
411.2706, 105.2793
411.7527, 103.1314
412.2348, 102.2341
412.7169, 101.9220
413.1991, 101.7453
413.6812, 101.5753
414.1633, 100.9762
414.6454, 99.55141
415.1275, 97.79771
415.6096, 96.40352
416.0918, 95.32991
416.5739, 94.20488
417.0560, 92.54171
417.5381, 90.78268
418.0202, 89.51427
418.5023, 89.05647
418.9845, 88.57570
419.4666, 87.28448
419.9487, 85.62108
420.4308, 84.43951
420.9129, 84.66412
421.3951, 84.94447
421.8772, 84.53627
422.3593, 83.34719
422.8414, 82.21767
423.3235, 81.25082
423.8056, 80.50688
424.2878, 80.04613
424.7699, 80.22742
425.2520, 80.28563
425.7341, 80.12040
426.2162, 79.76559
426.6983, 79.30752
427.1805, 78.44330
427.6626, 77.83430
428.1447, 77.84672
428.6268, 78.81275
429.1089, 79.13002
429.5910, 78.48066
430.0732, 77.51797
430.5553, 77.07837
431.0374, 77.29502
431.5195, 77.48528
432.0016, 77.40480
432.4837, 77.18587
432.9659, 77.57859
433.4480, 78.68623
433.9301, 79.75545
434.4122, 79.84770
434.8943, 79.22242
435.3764, 79.97672
435.8586, 82.59987
436.3407, 85.74226
436.8228, 87.46278
437.3049, 88.03899
437.7870, 88.62257
438.2691, 89.80669
438.7513, 91.27871
439.2334, 92.54266
439.7155, 93.61876
440.1976, 94.84711
440.6797, 96.50233
441.1618, 98.44077
441.6440, 100.4955
442.1261, 102.5835
442.6082, 104.8165
443.0903, 107.0613
443.5724, 109.4960
444.0545, 112.5052
444.5367, 116.2123
445.0188, 120.5437
445.5009, 125.4794
445.9830, 130.9547
446.4651, 137.1880
446.9472, 144.6973
447.4294, 152.7524
447.9115, 160.6454
448.3936, 167.7206
448.8757, 175.4871
449.3578, 184.4892
449.8399, 194.1986
450.3221, 203.5471
450.8042, 213.2534
451.2863, 221.5027
451.7684, 228.1422
452.2505, 233.6688
452.7326, 234.3086
453.2148, 229.6043
453.6969, 220.8088
454.1790, 208.8128
454.6611, 193.3453
455.1432, 177.6587
455.6253, 162.1654
456.1075, 147.3230
456.5896, 134.7640
457.0717, 124.3712
457.5538, 115.7406
458.0359, 108.9237
458.5180, 103.6250
459.0002, 99.08232
459.4823, 95.26501
459.9644, 92.25680
460.4465, 90.70505
460.9286, 90.00781
461.4107, 89.04764
461.8929, 86.96991
462.3750, 84.83270
462.8571, 83.43223
463.3392, 82.66176
463.8213, 82.08971
464.3034, 81.60186
464.7856, 81.17119
465.2677, 80.79215
465.7498, 80.49754
466.2319, 80.16066
466.7140, 79.35649
467.1961, 78.61993
467.6783, 78.63078
468.1604, 80.17286
468.6425, 81.70000
469.1246, 82.85580
469.6067, 83.69456
470.0888, 84.89870
470.5710, 86.68069
471.0531, 88.53638
471.5352, 90.14372
472.0173, 91.36943
472.4994, 92.86378
472.9815, 94.59904
473.4637, 96.66891
473.9458, 99.16485
474.4279, 102.0928
474.9100, 105.5023
475.3921, 109.4652
475.8742, 113.8984
476.3564, 118.5460
476.8385, 123.4097
477.3206, 128.5964
477.8027, 134.3564
478.2848, 140.4322
478.7669, 146.0371
479.2491, 150.8613
479.7312, 156.1212
480.2133, 163.0687
480.6954, 171.2699
481.1775, 179.9537
481.6596, 188.9465
482.1418, 198.0702
482.6239, 206.7800
483.1060, 215.3168
483.5881, 224.9996
484.0702, 235.7357
484.5523, 248.2889
485.0345, 263.2496
485.5166, 280.9245
485.9987, 300.2181
486.4808, 319.9207
486.9629, 341.3989
487.4450, 366.3889
487.9272, 396.5513
488.4093, 427.9066
488.8914, 459.7622
489.3735, 492.5760
489.8556, 527.6913
490.3377, 566.5743
490.8199, 605.5806
491.3020, 644.3453
491.7841, 683.9325
492.2662, 712.8573
492.7483, 730.8242
493.2304, 737.2860
493.7126, 729.7592
494.1947, 709.0291
494.6768, 680.0616
495.1589, 641.8987
495.6410, 598.9484
496.1231, 558.3284
496.6053, 519.7040
497.0874, 484.7607
497.5695, 452.5381
498.0516, 424.7344
498.5337, 402.9012
499.0158, 387.5333
499.4980, 377.2520
499.9801, 372.6918
500.4622, 372.1241
500.9443, 373.4330
501.4264, 375.4548
501.9085, 379.7948
502.3907, 387.5941
502.8728, 398.3013
503.3549, 409.6557
503.8370, 418.9452
504.3191, 431.2551
504.8012, 448.3647
505.2834, 470.6488
505.7655, 495.9443
506.2476, 523.4063
506.7297, 554.6800
507.2118, 591.4308
507.6939, 633.1570
508.1761, 681.5457
508.6582, 736.2264
509.1403, 798.2933
509.6224, 870.7352
510.1045, 953.6055
510.5866, 1044.378
511.0688, 1141.287
511.5509, 1248.346
512.0330, 1359.636
512.5151, 1485.499
512.9973, 1615.771
513.4794, 1755.211
513.9615, 1893.832
514.4436, 2018.949
514.9257, 2134.396
515.4078, 2219.578
515.8900, 2264.791
516.3721, 2267.196
516.8542, 2222.481
517.3363, 2109.473
517.8184, 1967.338
518.3005, 1802.214
518.7827, 1615.672
519.2648, 1439.195
519.7469, 1273.401
520.2290, 1122.896
520.7111, 989.0328
521.1932, 873.2263
521.6754, 773.8067
522.1575, 692.7988
522.6396, 625.6486
523.1217, 566.4518
523.6038, 515.5420
524.0859, 471.3966
524.5681, 434.8058
525.0502, 404.7015
525.5323, 376.7455
526.0144, 350.7758
526.4965, 328.2758
526.9786, 310.9935
527.4608, 297.6453
527.9429, 284.7735
528.4250, 272.0293
528.9071, 260.1801
529.3892, 250.0992
529.8713, 241.2828
530.3535, 233.1567
530.8356, 225.6552
531.3177, 218.4829
531.7998, 210.9760
532.2819, 203.6197
532.7640, 197.9055
533.2462, 195.3294
533.7283, 193.4545
534.2104, 191.3932
534.6925, 189.1115
535.1746, 186.5418
535.6567, 182.9429
536.1389, 179.6426
536.6210, 177.5699
537.1031, 177.3724
537.5852, 176.8266
538.0673, 175.6413
538.5494, 174.3169
539.0316, 173.8459
539.5137, 174.4120
539.9958, 174.4906
540.4779, 173.3303
540.9600, 171.5293
541.4421, 170.9852
541.9243, 171.6571
542.4064, 172.6227
542.8885, 173.2179
543.3706, 173.6852
543.8527, 174.3519
544.3348, 175.2156
544.8170, 176.6508
545.2991, 179.3764
545.7812, 182.6841
546.2633, 185.6759
546.7454, 187.2451
547.2275, 189.5479
547.7097, 194.0665
548.1918, 199.9896
548.6739, 205.3448
549.1560, 208.6415
549.6381, 212.4518
550.1202, 217.8217
550.6024, 224.8106
551.0845, 231.3288
551.5666, 238.0591
552.0487, 243.4196
552.5308, 246.3413
553.0129, 246.7142
553.4951, 245.4447
553.9772, 242.6735
554.4593, 238.0393
554.9414, 230.5415
555.4235, 220.3645
555.9056, 209.5412
556.3878, 198.4573
556.8699, 187.4276
557.3520, 176.7341
557.8341, 166.5646
558.3162, 157.9591
558.7983, 151.9822
559.2805, 147.5727
559.7626, 143.9101
560.2447, 140.9568
560.7268, 138.3645
561.2089, 135.5028
561.6910, 133.1790
562.1732, 132.1139
562.6553, 133.6566
563.1374, 134.5664
563.6195, 133.5863
564.1016, 132.0167
564.5837, 131.7783
565.0659, 133.2691
565.5480, 135.3923
566.0301, 138.1009
566.5122, 141.2534
566.9943, 143.8624
567.4764, 145.6411
567.9586, 148.1533
568.4407, 152.5984
568.9228, 158.6305
569.4049, 164.3767
569.8870, 169.7043
570.3691, 175.3187
570.8513, 181.7303
571.3334, 188.9329
571.8155, 196.6974
572.2976, 205.2233
572.7797, 213.9992
573.2618, 223.2029
573.7440, 232.3598
574.2261, 240.8265
574.7082, 249.3294
575.1903, 256.0723
575.6724, 261.2708
576.1545, 264.5621
576.6367, 262.6173
577.1188, 252.7236
577.6009, 240.0250
578.0830, 225.9325
578.5651, 210.1357
579.0472, 194.8612
579.5294, 179.6527
580.0115, 165.4561
580.4936, 152.8875
580.9757, 141.8423
581.4578, 132.5768
581.9399, 125.3097
582.4221, 119.4016
582.9042, 113.7816
583.3863, 108.6244
583.8684, 104.3284
584.3505, 101.3061
584.8326, 99.05378
585.3148, 97.12547
585.7969, 95.50710
586.2789, 94.22042
586.7610, 93.48623
587.2432, 92.92135
587.7253, 92.36458
588.2074, 91.84246
588.6895, 91.01314
