##NAMES=Andradite
##RRUFFID=R040001
##IDEAL CHEMISTRY=Ca_3_Fe^3+^_2_(SiO_4_)_3_
##LOCALITY=Stanley Butte, Graham County, Arizona, USA
##OWNER=RRUFF
##SOURCE=University of Arizona Mineral Museum
##DESCRIPTION=Brownish-orange dodecahedra
##STATUS=The identification of this mineral has been confirmed by X-ray diffraction and chemical analysis
##URL=rruff.info/R040001
##MEASURED CHEMISTRY=Ca_3.00_(Fe_1.96_Al_0.04_)_Î£=2_(SiO_4_)_3_ ; trace amounts of Mn
108.0289, 354.1462
108.5110, 357.4103
108.9931, 360.7698
109.4752, 366.2829
109.9573, 373.3091
110.4395, 382.7999
110.9216, 395.1538
111.4037, 410.3094
111.8858, 429.7085
112.3679, 455.9623
112.8500, 488.5701
113.3322, 527.4026
113.8143, 578.2698
114.2964, 634.9142
114.7785, 687.4534
115.2606, 735.1166
115.7427, 772.5403
116.2249, 789.3907
116.7070, 782.4837
117.1891, 770.5375
117.6712, 764.1129
118.1533, 760.4935
118.6354, 747.7928
119.1175, 717.8533
119.5997, 678.7697
120.0818, 644.2157
120.5639, 610.9563
121.0460, 588.9274
121.5281, 586.0223
122.0102, 602.0590
122.4924, 630.6270
122.9745, 668.6674
123.4566, 719.3042
123.9387, 786.2785
124.4208, 872.5449
124.9029, 971.6439
125.3851, 1079.321
125.8672, 1197.895
126.3493, 1314.503
126.8314, 1412.555
127.3135, 1509.336
127.7956, 1623.645
128.2778, 1758.627
128.7599, 1916.496
129.2420, 2105.167
129.7241, 2336.998
130.2062, 2570.089
130.6884, 2823.059
131.1705, 3059.740
131.6526, 3237.051
132.1347, 3344.675
132.6168, 3373.071
133.0989, 3278.871
133.5811, 2987.252
134.0632, 2675.946
134.5453, 2378.298
135.0274, 2108.529
135.5095, 1885.953
135.9916, 1728.427
136.4738, 1629.036
136.9559, 1540.487
137.4380, 1459.795
137.9201, 1396.547
138.4022, 1354.518
138.8843, 1331.258
139.3665, 1321.872
139.8486, 1322.789
140.3307, 1334.004
140.8128, 1358.759
141.2949, 1401.257
141.7770, 1455.255
142.2592, 1518.928
142.7413, 1592.687
143.2234, 1677.793
143.7055, 1772.965
144.1876, 1875.728
144.6697, 2009.518
145.1519, 2202.065
145.6340, 2398.478
146.1161, 2585.136
146.5982, 2757.759
147.0803, 2916.978
147.5624, 3072.271
148.0446, 3244.338
148.5267, 3306.995
149.0088, 3209.276
149.4909, 3068.301
149.9730, 2928.854
150.4551, 2800.253
150.9372, 2676.197
151.4194, 2547.716
151.9015, 2410.117
152.3836, 2287.409
152.8657, 2172.323
153.3478, 2073.987
153.8299, 2000.146
154.3121, 1950.948
154.7942, 1919.786
155.2763, 1899.961
155.7584, 1895.566
156.2405, 1893.174
156.7226, 1886.529
157.2048, 1885.561
157.6869, 1894.764
158.1690, 1915.863
158.6511, 1952.410
159.1332, 2008.963
159.6153, 2091.529
160.0975, 2185.734
160.5796, 2302.220
161.0617, 2424.326
161.5438, 2536.410
162.0259, 2634.643
162.5080, 2728.825
162.9902, 2831.255
163.4723, 2940.110
163.9544, 3065.450
164.4365, 3203.066
164.9186, 3359.209
165.4007, 3536.693
165.8829, 3736.614
166.3650, 3963.698
166.8471, 4226.118
167.3292, 4528.499
167.8113, 4855.078
168.2934, 5211.408
168.7756, 5588.250
169.2577, 5983.217
169.7398, 6398.143
170.2219, 6807.381
170.7040, 7187.945
171.1861, 7587.430
171.6683, 7815.357
172.1504, 7829.817
172.6325, 7659.243
173.1146, 7309.828
173.5967, 6768.646
174.0788, 6127.492
174.5610, 5501.357
175.0431, 4873.677
175.5252, 4311.399
176.0073, 3821.562
176.4894, 3405.734
176.9715, 3069.832
177.4537, 2820.659
177.9358, 2632.072
178.4179, 2474.679
178.9000, 2348.362
179.3821, 2237.316
179.8642, 2136.727
180.3464, 2049.342
180.8285, 1981.032
181.3106, 1934.971
181.7927, 1903.208
182.2748, 1876.338
182.7569, 1854.267
183.2391, 1833.457
183.7212, 1813.278
184.2033, 1793.682
184.6854, 1774.388
185.1675, 1755.081
185.6496, 1736.833
186.1318, 1722.206
186.6139, 1711.492
187.0960, 1700.152
187.5781, 1687.095
188.0602, 1672.540
188.5423, 1655.694
189.0245, 1635.486
189.5066, 1615.770
189.9887, 1603.054
190.4708, 1597.292
190.9529, 1591.853
191.4350, 1584.381
191.9172, 1575.993
192.3993, 1567.925
192.8814, 1559.745
193.3635, 1554.065
193.8456, 1557.874
194.3277, 1571.587
194.8099, 1578.169
195.2920, 1568.915
195.7741, 1549.688
196.2562, 1529.985
196.7383, 1511.037
197.2204, 1493.631
197.7026, 1478.255
198.1847, 1464.564
198.6668, 1454.805
199.1489, 1451.546
199.6310, 1452.216
200.1131, 1452.322
200.5953, 1450.834
201.0774, 1449.444
201.5595, 1452.958
202.0416, 1460.893
202.5237, 1461.176
203.0058, 1444.569
203.4880, 1419.818
203.9701, 1400.140
204.4522, 1387.621
204.9343, 1379.615
205.4164, 1374.337
205.8985, 1371.455
206.3807, 1370.511
206.8628, 1371.244
207.3449, 1373.896
207.8270, 1380.214
208.3091, 1391.302
208.7912, 1401.145
209.2734, 1401.625
209.7555, 1394.347
210.2376, 1390.498
210.7197, 1391.060
211.2018, 1396.862
211.6839, 1410.401
212.1661, 1432.489
212.6482, 1456.874
213.1303, 1476.730
213.6124, 1493.395
214.0945, 1515.156
214.5766, 1548.475
215.0588, 1584.762
215.5409, 1612.474
216.0230, 1630.379
216.5051, 1650.162
216.9872, 1680.139
217.4693, 1720.104
217.9515, 1766.617
218.4336, 1820.350
218.9157, 1879.825
219.3978, 1943.699
219.8799, 2011.949
220.3620, 2085.100
220.8442, 2163.417
221.3263, 2247.965
221.8084, 2340.089
222.2905, 2431.740
222.7726, 2537.017
223.2547, 2666.857
223.7369, 2821.125
224.2190, 2994.395
224.7011, 3184.731
225.1832, 3393.922
225.6653, 3621.911
226.1474, 3873.418
226.6296, 4139.037
227.1117, 4411.305
227.5938, 4691.100
228.0759, 4987.256
228.5580, 5305.662
229.0401, 5642.563
229.5223, 5975.949
230.0044, 6276.868
230.4865, 6609.061
230.9686, 7012.417
231.4507, 7470.161
231.9328, 7949.345
232.4150, 8447.114
232.8971, 8937.688
233.3792, 9359.637
233.8613, 9782.634
234.3434, 10054.33
234.8255, 10117.21
235.3077, 9994.728
235.7898, 9720.962
236.2719, 9299.682
236.7540, 8759.141
237.2361, 8126.860
237.7182, 7343.668
238.2004, 6611.735
238.6825, 5974.903
239.1646, 5412.130
239.6467, 4902.268
240.1288, 4436.384
240.6109, 4018.563
241.0931, 3654.524
241.5752, 3352.922
242.0573, 3090.366
242.5394, 2871.784
243.0215, 2687.294
243.5036, 2530.175
243.9858, 2398.251
244.4679, 2285.299
244.9500, 2184.045
245.4321, 2095.581
245.9142, 2018.861
246.3963, 1957.547
246.8785, 1905.385
247.3606, 1859.133
247.8427, 1818.084
248.3248, 1780.856
248.8069, 1746.272
249.2890, 1714.350
249.7712, 1686.924
250.2533, 1661.524
250.7354, 1641.975
251.2175, 1628.219
251.6996, 1621.790
252.1817, 1627.067
252.6639, 1648.484
253.1460, 1686.404
253.6281, 1727.069
254.1102, 1767.743
254.5923, 1813.253
255.0744, 1865.850
255.5566, 1924.784
256.0387, 1986.979
256.5208, 2049.352
257.0029, 2113.931
257.4850, 2195.133
257.9671, 2306.739
258.4492, 2421.066
258.9314, 2530.499
259.4135, 2640.683
259.8956, 2761.489
260.3777, 2898.255
260.8598, 3045.303
261.3419, 3190.661
261.8241, 3347.291
262.3062, 3479.308
262.7883, 3599.580
263.2704, 3687.459
263.7525, 3726.810
264.2346, 3711.103
264.7168, 3642.508
265.1989, 3519.280
265.6810, 3318.602
266.1631, 3112.316
266.6452, 2890.446
267.1273, 2674.939
267.6095, 2475.699
268.0916, 2296.331
268.5737, 2141.028
269.0558, 2017.865
269.5379, 1930.460
270.0201, 1853.929
270.5022, 1790.347
270.9843, 1735.730
271.4664, 1690.735
271.9485, 1654.211
272.4306, 1622.540
272.9128, 1592.726
273.3949, 1564.802
273.8770, 1542.428
274.3591, 1528.511
274.8412, 1516.751
275.3233, 1501.073
275.8055, 1484.970
276.2876, 1476.368
276.7697, 1481.963
277.2518, 1497.432
277.7339, 1510.962
278.2160, 1522.238
278.6982, 1532.105
279.1803, 1539.020
279.6624, 1545.314
280.1445, 1554.468
280.6266, 1568.438
281.1087, 1584.537
281.5909, 1598.107
282.0730, 1608.502
282.5551, 1622.953
283.0372, 1647.365
283.5193, 1676.340
284.0014, 1702.426
284.4836, 1723.811
284.9657, 1745.613
285.4478, 1769.667
285.9299, 1796.779
286.4120, 1830.253
286.8941, 1870.668
287.3763, 1918.907
287.8584, 1978.422
288.3405, 2051.538
288.8226, 2118.597
289.3047, 2164.347
289.7868, 2199.911
290.2690, 2246.083
290.7511, 2307.590
291.2332, 2376.845
291.7153, 2447.130
292.1974, 2518.745
292.6795, 2586.380
293.1617, 2646.977
293.6438, 2704.810
294.1259, 2766.518
294.6080, 2831.421
295.0901, 2888.855
295.5722, 2929.472
296.0544, 2952.569
296.5365, 2973.237
297.0186, 2985.636
297.5007, 3001.223
297.9828, 3020.117
298.4649, 3046.195
298.9471, 3086.687
299.4292, 3145.222
299.9113, 3223.078
300.3934, 3327.889
300.8755, 3451.989
301.3576, 3611.918
301.8398, 3812.639
302.3219, 4049.593
302.8040, 4319.231
303.2861, 4619.992
303.7682, 4947.515
304.2503, 5295.354
304.7325, 5653.544
305.2146, 6052.250
305.6967, 6496.345
306.1788, 6970.165
306.6609, 7472.638
307.1430, 7999.380
307.6252, 8543.607
308.1073, 9098.586
308.5894, 9670.636
309.0715, 10225.84
309.5536, 10825.78
310.0357, 11354.30
310.5179, 11828.84
311.0000, 12201.49
311.4821, 12380.74
311.9642, 12304.08
312.4463, 11985.00
312.9284, 11475.35
313.4106, 10690.79
313.8927, 9853.932
314.3748, 8967.858
314.8569, 8100.857
315.3390, 7339.861
315.8211, 6714.729
316.3033, 6209.787
316.7854, 5805.674
317.2675, 5506.500
317.7496, 5280.806
318.2317, 5136.229
318.7138, 5057.942
319.1960, 5038.199
319.6781, 5079.246
320.1602, 5150.979
320.6423, 5233.078
321.1244, 5328.565
321.6065, 5452.521
322.0887, 5615.852
322.5708, 5791.820
323.0529, 5967.741
323.5350, 6141.953
324.0171, 6270.001
324.4992, 6356.044
324.9814, 6380.526
325.4635, 6306.180
325.9456, 6130.030
326.4277, 5910.807
326.9098, 5677.600
327.3919, 5435.479
327.8741, 5223.003
328.3562, 5033.703
328.8383, 4879.057
329.3204, 4773.224
329.8025, 4706.859
330.2846, 4656.584
330.7668, 4610.930
331.2489, 4576.042
331.7310, 4570.775
332.2131, 4603.886
332.6952, 4655.515
333.1773, 4729.855
333.6595, 4819.525
334.1416, 4912.594
334.6237, 5008.139
335.1058, 5119.256
335.5879, 5263.806
336.0700, 5448.463
336.5522, 5647.234
337.0343, 5835.118
337.5164, 6057.118
337.9985, 6335.150
338.4806, 6665.864
338.9627, 7035.515
339.4449, 7430.184
339.9270, 7853.821
340.4091, 8334.516
340.8912, 8871.460
341.3733, 9475.111
341.8554, 10144.93
342.3376, 10873.92
342.8197, 11653.72
343.3018, 12476.43
343.7839, 13352.95
344.2660, 14299.53
344.7481, 15318.67
345.2303, 16393.08
345.7124, 17543.50
346.1945, 18723.39
346.6766, 19910.40
347.1587, 21097.83
347.6408, 22280.19
348.1230, 23494.70
348.6051, 24705.57
349.0872, 25844.20
349.5693, 26944.71
350.0514, 27861.46
350.5335, 28481.62
351.0157, 28818.83
351.4978, 28837.12
351.9799, 28454.66
352.4620, 27806.40
352.9441, 26914.93
353.4262, 25818.93
353.9084, 24716.18
354.3905, 23675.58
354.8726, 22726.12
355.3547, 22020.47
355.8368, 21527.17
356.3189, 21252.63
356.8011, 21212.92
357.2832, 21384.83
357.7653, 21734.36
358.2474, 22252.18
358.7295, 22963.68
359.2116, 23914.34
359.6938, 25133.62
360.1759, 26525.58
360.6580, 28058.79
361.1401, 29757.21
361.6222, 31637.82
362.1043, 33691.78
362.5865, 35896.07
363.0686, 38258.47
363.5507, 40765.05
364.0328, 43299.44
364.5149, 45916.52
364.9970, 48485.96
365.4792, 51089.00
365.9613, 53600.29
366.4434, 55914.10
366.9255, 58018.89
367.4076, 59790.28
367.8897, 61137.56
368.3719, 62078.35
368.8540, 62374.42
369.3361, 61945.31
369.8182, 60809.86
370.3003, 58990.56
370.7824, 56512.85
371.2646, 53642.12
371.7467, 50352.05
372.2288, 46810.97
372.7109, 43292.44
373.1930, 39803.62
373.6751, 36455.53
374.1573, 33306.90
374.6394, 30394.56
375.1215, 27780.16
375.6036, 25518.50
376.0857, 23504.67
376.5678, 21716.93
377.0500, 20140.29
377.5321, 18759.88
378.0142, 17569.13
378.4963, 16546.65
378.9784, 15657.00
379.4605, 14946.22
379.9427, 14298.87
380.4248, 13752.97
380.9069, 13241.22
381.3890, 12722.84
381.8711, 12186.87
382.3532, 11619.25
382.8354, 10999.83
383.3175, 10329.68
383.7996, 9669.208
384.2817, 8975.297
384.7638, 8339.525
385.2459, 7791.222
385.7281, 7310.052
386.2102, 6869.790
386.6923, 6457.770
387.1744, 6079.516
387.6565, 5743.730
388.1386, 5452.033
388.6208, 5193.857
389.1029, 4982.272
389.5850, 4794.820
390.0671, 4616.975
390.5492, 4448.961
391.0313, 4294.951
391.5135, 4163.512
391.9956, 4047.340
392.4777, 3930.300
392.9598, 3809.892
393.4419, 3696.169
393.9240, 3595.394
394.4062, 3507.025
394.8883, 3428.967
395.3704, 3369.162
395.8525, 3310.957
396.3346, 3243.874
396.8167, 3172.081
397.2989, 3105.750
397.7810, 3048.711
398.2631, 2996.693
398.7452, 2942.667
399.2273, 2884.797
399.7094, 2829.397
400.1916, 2773.094
400.6737, 2722.139
401.1558, 2682.945
401.6379, 2653.286
402.1200, 2625.140
402.6021, 2592.249
403.0843, 2555.227
403.5664, 2518.930
404.0485, 2484.128
404.5306, 2448.803
405.0127, 2409.129
405.4948, 2370.331
405.9770, 2339.678
406.4591, 2319.313
406.9412, 2300.186
407.4233, 2268.062
407.9054, 2223.233
408.3875, 2193.938
408.8697, 2194.999
409.3518, 2196.616
409.8339, 2172.013
410.3160, 2127.454
410.7981, 2087.693
411.2802, 2063.922
411.7624, 2047.008
412.2445, 2026.909
412.7266, 2004.057
413.2087, 1983.725
413.6908, 1970.179
414.1729, 1959.530
414.6551, 1939.560
415.1372, 1902.617
415.6193, 1872.616
416.1014, 1858.980
416.5835, 1851.997
417.0656, 1841.977
417.5478, 1827.247
418.0299, 1811.594
418.5120, 1798.977
418.9941, 1789.924
419.4762, 1777.156
419.9583, 1756.039
420.4405, 1736.219
420.9226, 1718.190
421.4047, 1703.434
421.8868, 1695.240
422.3689, 1695.503
422.8510, 1697.593
423.3332, 1689.286
423.8153, 1668.488
424.2974, 1651.301
424.7795, 1641.370
425.2616, 1635.199
425.7437, 1631.134
426.2259, 1628.751
426.7080, 1625.901
427.1901, 1618.973
427.6722, 1612.148
428.1543, 1612.975
428.6364, 1621.638
429.1186, 1630.322
429.6007, 1634.918
430.0828, 1636.348
430.5649, 1637.274
431.0470, 1634.298
431.5291, 1636.448
432.0113, 1650.489
432.4934, 1668.917
432.9755, 1681.969
433.4576, 1688.081
433.9397, 1693.368
434.4218, 1704.351
434.9040, 1721.527
435.3861, 1739.784
435.8682, 1758.730
436.3503, 1779.309
436.8324, 1799.313
437.3145, 1821.908
437.7967, 1851.715
438.2788, 1890.974
438.7609, 1936.499
439.2430, 1983.245
439.7251, 2030.257
440.2072, 2084.631
440.6894, 2148.727
441.1715, 2220.140
441.6536, 2296.288
442.1357, 2377.345
442.6178, 2465.151
443.0999, 2564.527
443.5821, 2668.743
444.0642, 2766.816
444.5463, 2859.774
445.0284, 2959.807
445.5105, 3074.014
445.9926, 3198.495
446.4748, 3324.021
446.9569, 3456.772
447.4390, 3579.003
447.9211, 3687.712
448.4032, 3784.624
448.8853, 3878.500
449.3675, 3965.967
449.8496, 4030.703
450.3317, 4058.750
450.8138, 4050.062
451.2959, 3999.558
451.7780, 3895.921
452.2602, 3761.455
452.7423, 3582.552
453.2244, 3386.428
453.7065, 3200.943
454.1886, 3034.505
454.6707, 2879.537
455.1529, 2725.255
455.6350, 2573.366
456.1171, 2444.606
456.5992, 2344.699
457.0813, 2262.085
457.5634, 2189.054
458.0455, 2125.569
458.5276, 2074.719
459.0098, 2044.625
459.4919, 2020.222
459.9740, 1989.356
460.4561, 1955.526
460.9382, 1929.241
461.4203, 1914.542
461.9025, 1907.075
462.3846, 1900.025
462.8667, 1893.477
463.3488, 1887.223
463.8309, 1877.929
464.3130, 1871.980
464.7952, 1872.317
465.2773, 1878.939
465.7594, 1892.313
466.2415, 1913.903
466.7236, 1938.727
467.2057, 1953.040
467.6879, 1953.804
468.1700, 1953.712
468.6521, 1952.628
469.1342, 1953.771
469.6163, 1962.381
470.0984, 1977.474
470.5806, 1987.560
471.0627, 1980.277
471.5448, 1966.405
472.0269, 1960.960
472.5090, 1964.609
472.9911, 1982.617
473.4733, 2023.617
473.9554, 2077.679
474.4375, 2112.909
474.9196, 2117.686
475.4017, 2128.301
475.8839, 2150.154
476.3660, 2181.424
476.8481, 2221.236
477.3302, 2269.079
477.8123, 2323.099
478.2944, 2381.392
478.7766, 2444.618
479.2587, 2516.094
479.7408, 2596.031
480.2229, 2685.106
480.7050, 2778.036
481.1871, 2882.048
481.6693, 3003.350
482.1514, 3143.604
482.6335, 3299.323
483.1156, 3467.294
483.5977, 3647.847
484.0798, 3840.168
484.5620, 4043.579
485.0441, 4263.707
485.5262, 4508.349
486.0083, 4775.375
486.4904, 5040.962
486.9725, 5293.430
487.4547, 5558.252
487.9368, 5856.449
488.4189, 6169.240
488.9010, 6470.495
489.3831, 6752.654
489.8652, 7014.524
490.3474, 7260.305
490.8295, 7493.115
491.3116, 7655.868
491.7937, 7748.283
492.2758, 7761.918
492.7579, 7677.750
493.2401, 7520.233
493.7222, 7309.780
494.2043, 7052.504
494.6864, 6773.317
495.1685, 6490.131
495.6506, 6206.083
496.1328, 5940.194
496.6149, 5688.928
497.0970, 5464.625
497.5791, 5278.102
498.0612, 5126.693
498.5433, 5004.371
499.0255, 4904.554
499.5076, 4839.350
499.9897, 4814.250
500.4718, 4827.850
500.9539, 4877.448
501.4360, 4962.084
501.9182, 5082.552
502.4003, 5234.820
502.8824, 5410.951
503.3645, 5669.821
503.8466, 6041.747
504.3287, 6466.494
504.8109, 6908.750
505.2930, 7399.401
505.7751, 7989.964
506.2572, 8696.559
506.7393, 9490.123
507.2214, 10329.71
507.7036, 11219.74
508.1857, 12167.86
508.6678, 13169.63
509.1499, 14239.19
509.6320, 15399.88
510.1141, 16642.59
510.5963, 17929.64
511.0784, 19305.64
511.5605, 20671.95
512.0426, 22059.22
512.5247, 23388.88
513.0068, 24582.19
513.4890, 25605.99
513.9711, 26363.90
514.4532, 26752.24
514.9353, 26780.26
515.4174, 26359.26
515.8995, 25265.45
516.3817, 23937.05
516.8638, 22388.27
517.3459, 20715.13
517.8280, 19029.96
518.3101, 17350.59
518.7922, 15754.68
519.2744, 14299.38
519.7565, 12987.68
520.2386, 11807.21
520.7207, 10765.82
521.2028, 9840.035
521.6849, 9024.921
522.1671, 8326.269
522.6492, 7708.015
523.1313, 7191.808
523.6134, 6733.411
524.0955, 6333.186
524.5776, 5976.313
525.0598, 5643.154
525.5419, 5329.552
526.0240, 5041.530
526.5061, 4782.351
526.9882, 4551.775
527.4703, 4360.335
527.9525, 4228.910
528.4346, 4102.828
528.9167, 3961.951
529.3988, 3820.023
529.8809, 3692.125
530.3630, 3582.077
530.8452, 3479.920
531.3273, 3374.033
531.8094, 3272.724
532.2915, 3196.440
532.7736, 3147.366
533.2557, 3104.033
533.7379, 3051.050
534.2200, 2993.445
534.7021, 2952.842
535.1842, 2937.447
535.6663, 2925.808
536.1484, 2914.618
536.6306, 2907.078
537.1127, 2910.944
537.5948, 2922.754
538.0769, 2926.183
538.5590, 2904.432
539.0411, 2868.690
539.5233, 2861.075
540.0054, 2888.470
540.4875, 2919.148
540.9696, 2944.753
541.4517, 2969.221
541.9338, 2992.130
542.4160, 3013.669
542.8981, 3049.940
543.3802, 3116.603
543.8623, 3193.527
544.3444, 3256.831
544.8265, 3311.323
545.3087, 3381.352
545.7908, 3480.195
546.2729, 3591.481
546.7550, 3681.130
547.2371, 3730.863
547.7192, 3803.469
548.2014, 3911.442
548.6835, 4028.389
549.1656, 4152.433
549.6477, 4274.658
550.1298, 4382.052
550.6119, 4471.024
551.0941, 4535.673
551.5762, 4570.901
552.0583, 4575.935
552.5404, 4541.998
553.0225, 4465.265
553.5046, 4356.341
553.9868, 4220.968
554.4689, 4058.804
554.9510, 3887.930
555.4331, 3697.446
555.9152, 3511.508
556.3973, 3337.627
556.8795, 3174.631
557.3616, 3019.106
557.8437, 2871.070
558.3258, 2736.458
558.8079, 2621.623
559.2900, 2526.433
559.7722, 2438.398
560.2543, 2357.309
560.7364, 2283.845
561.2185, 2219.920
561.7006, 2162.894
562.1827, 2111.982
562.6649, 2067.275
563.1470, 2024.273
563.6291, 1979.203
564.1112, 1935.068
564.5933, 1894.377
565.0754, 1857.640
565.5576, 1826.908
566.0397, 1803.367
566.5218, 1786.336
567.0039, 1774.356
567.4860, 1768.688
567.9681, 1766.114
568.4503, 1761.339
568.9324, 1764.205
569.4145, 1783.648
569.8966, 1814.770
570.3787, 1846.111
570.8608, 1872.753
571.3430, 1896.448
571.8251, 1917.008
572.3072, 1935.547
572.7893, 1960.602
573.2714, 1995.771
573.7535, 2030.613
574.2357, 2055.956
574.7178, 2071.556
575.1999, 2079.855
575.6820, 2087.764
576.1641, 2080.621
576.6462, 2048.412
577.1284, 2001.820
577.6105, 1948.115
578.0926, 1891.400
578.5747, 1840.831
579.0568, 1807.340
579.5389, 1787.116
580.0211, 1758.326
580.5032, 1718.512
580.9853, 1678.840
581.4674, 1640.572
581.9495, 1606.574
582.4316, 1581.755
582.9138, 1567.576
583.3959, 1549.672
583.8780, 1516.689
584.3601, 1484.451
584.8422, 1466.735
585.3243, 1460.970
585.8065, 1459.271
586.2886, 1458.228
586.7707, 1455.586
587.2528, 1447.051
587.7349, 1431.343
588.2170, 1414.651
588.6992, 1392.594
589.1813, 1375.287
589.6634, 1368.525
590.1455, 1368.678
590.6276, 1370.977
591.1097, 1376.193
591.5919, 1376.974
592.0740, 1364.951
592.5561, 1346.309
593.0382, 1331.527
593.5203, 1321.909
594.0024, 1314.174
594.4846, 1306.027
594.9667, 1297.900
595.4488, 1291.378
595.9309, 1286.394
596.4130, 1283.305
596.8951, 1285.683
597.3773, 1286.685
597.8594, 1281.498
598.3415, 1271.061
598.8236, 1259.175
599.3057, 1246.883
599.7878, 1235.276
600.2700, 1224.638
600.7521, 1215.591
601.2342, 1212.722
601.7163, 1218.240
602.1984, 1223.037
602.6805, 1216.834
603.1627, 1199.540
