##NAMES=Andradite
##RRUFFID=R050377
##IDEAL CHEMISTRY=Ca_3_Fe^3+^_2_(SiO_4_)_3_
##LOCALITY=Zlatoust District, South Urals, Russia
##OWNER=RRUFF
##SOURCE=University of Arizona Mineral Museum
##DESCRIPTION=Dark red cubes
##STATUS=The identification of this mineral has been confirmed by X-ray diffraction and chemical analysis
##URL=rruff.info/R050377
##MEASURED CHEMISTRY=Ca_3.00_(Fe^3+^_1.48_Ti_0.31_Mg_0.14_Zr_0.07_)_Σ=2_(Si_2.73_Al_0.24_Ti_0.03_)_Σ=3_O_12_
92.52344, 121.2767
93.00555, 120.3190
93.48767, 120.5045
93.96979, 124.4946
94.45190, 128.5586
94.93402, 132.2969
95.41614, 133.9264
95.89825, 133.9781
96.38037, 133.5162
96.86249, 132.6683
97.34460, 131.9096
97.82672, 131.6514
98.30884, 131.2457
98.79095, 130.5724
99.27307, 129.5287
99.75519, 128.1396
100.2373, 126.7389
100.7194, 125.5277
101.2015, 124.8547
101.6837, 125.0326
102.1658, 125.3819
102.6479, 125.3218
103.1300, 124.7932
103.6121, 124.3443
104.0942, 124.5001
104.5764, 124.9904
105.0585, 125.4423
105.5406, 125.6544
106.0227, 125.7181
106.5048, 125.9314
106.9869, 126.3955
107.4691, 126.7909
107.9512, 126.9682
108.4333, 126.9637
108.9154, 126.8722
109.3975, 126.7179
109.8796, 126.4548
110.3618, 126.4034
110.8439, 126.6660
111.3260, 127.0392
111.8081, 127.5387
112.2902, 128.1109
112.7723, 128.5994
113.2544, 128.7412
113.7366, 128.0495
114.2187, 127.9579
114.7008, 128.8888
115.1829, 130.1501
115.6650, 131.1161
116.1471, 131.5651
116.6293, 131.7018
117.1114, 131.9813
117.5935, 132.3770
118.0756, 132.9175
118.5577, 133.6156
119.0398, 134.4631
119.5220, 135.4766
120.0041, 136.7209
120.4862, 138.0851
120.9683, 139.3100
121.4504, 140.3587
121.9325, 141.3315
122.4147, 142.3468
122.8968, 143.4216
123.3789, 144.3202
123.8610, 144.7465
124.3431, 144.9841
124.8252, 145.2648
125.3074, 145.6265
125.7895, 146.1093
126.2716, 146.8438
126.7537, 148.0293
127.2358, 149.1011
127.7179, 149.8247
128.2001, 150.3612
128.6822, 150.9332
129.1643, 151.6814
129.6464, 152.5914
130.1285, 153.4339
130.6107, 154.2262
131.0928, 154.9332
131.5749, 155.5520
132.0570, 156.0752
132.5391, 156.4789
133.0212, 156.7181
133.5034, 156.7462
133.9855, 156.9609
134.4676, 157.4742
134.9497, 158.0431
135.4318, 158.4761
135.9139, 158.7772
136.3960, 159.1698
136.8782, 159.9754
137.3603, 161.3297
137.8424, 162.3217
138.3245, 162.7729
138.8066, 162.8831
139.2887, 162.8074
139.7709, 162.5325
140.2530, 162.2507
140.7351, 162.1855
141.2172, 162.3070
141.6993, 162.5911
142.1814, 163.1961
142.6636, 163.9968
143.1457, 164.5048
143.6278, 164.4315
144.1099, 164.2269
144.5920, 164.3034
145.0741, 164.6623
145.5563, 165.0522
146.0384, 165.1929
146.5205, 165.0323
147.0026, 165.0686
147.4847, 165.6041
147.9668, 166.2289
148.4490, 166.7494
148.9311, 167.1170
149.4132, 167.3799
149.8953, 167.5945
150.3774, 167.7185
150.8595, 167.8831
151.3417, 167.9823
151.8238, 168.1747
152.3059, 168.6475
152.7880, 169.4557
153.2701, 170.4427
153.7522, 171.2033
154.2344, 171.5631
154.7165, 171.8534
155.1986, 172.0172
155.6807, 172.1357
156.1628, 172.2883
156.6449, 172.5071
157.1271, 172.8108
157.6092, 173.2955
158.0913, 174.0548
158.5734, 174.8529
159.0555, 175.6400
159.5376, 176.4175
160.0198, 177.1720
160.5019, 177.8562
160.9840, 178.5442
161.4661, 179.4470
161.9482, 180.6223
162.4303, 181.9355
162.9125, 183.3761
163.3946, 184.9350
163.8767, 186.3728
164.3588, 187.3229
164.8409, 188.1246
165.3230, 189.3628
165.8052, 191.2320
166.2873, 193.4852
166.7694, 195.8916
167.2515, 198.5836
167.7336, 200.9941
168.2157, 202.8608
168.6979, 204.3142
169.1800, 205.4884
169.6621, 206.4919
170.1442, 207.2127
170.6263, 207.3563
171.1084, 206.9219
171.5906, 205.7950
172.0727, 203.7614
172.5548, 201.1722
173.0369, 198.4570
173.5190, 195.8194
174.0011, 193.2906
174.4833, 191.1455
174.9654, 189.9479
175.4475, 188.5826
175.9296, 186.6394
176.4117, 184.3607
176.8938, 182.1920
177.3760, 180.4747
177.8581, 179.2204
178.3402, 177.9872
178.8223, 176.5560
179.3044, 175.3521
179.7865, 174.6560
180.2687, 174.3560
180.7508, 174.1039
181.2329, 173.5887
181.7150, 172.7706
182.1971, 172.2360
182.6792, 172.2754
183.1614, 172.3164
183.6435, 171.9200
184.1256, 171.1150
184.6077, 170.3848
185.0898, 170.2119
185.5719, 170.6424
186.0541, 170.8481
186.5362, 170.5720
187.0183, 170.2018
187.5004, 170.1223
187.9825, 170.3838
188.4646, 170.7235
188.9468, 170.9411
189.4289, 171.0467
189.9110, 171.0581
190.3931, 170.7438
190.8752, 170.4075
191.3573, 170.5927
191.8395, 171.4842
192.3216, 172.4914
192.8037, 173.2482
193.2858, 173.7838
193.7679, 174.1130
194.2500, 174.0620
194.7322, 173.7897
195.2143, 173.8489
195.6964, 174.4750
196.1785, 175.0903
196.6606, 175.3485
197.1427, 175.3595
197.6249, 175.3541
198.1070, 175.4238
198.5891, 175.5813
199.0712, 175.9761
199.5533, 176.8436
200.0354, 177.7026
200.5176, 178.3740
200.9997, 178.8880
201.4818, 179.3188
201.9639, 179.6677
202.4460, 179.9243
202.9281, 180.4772
203.4103, 181.7502
203.8924, 182.9457
204.3745, 183.7934
204.8566, 184.3544
205.3387, 184.8110
205.8208, 185.3049
206.3030, 185.8282
206.7851, 186.4989
207.2672, 187.3152
207.7493, 188.2611
208.2314, 189.4222
208.7135, 190.7300
209.1957, 191.9858
209.6778, 192.9846
210.1599, 193.6585
210.6420, 194.6092
211.1241, 196.0420
211.6062, 197.5082
212.0884, 198.7353
212.5705, 199.7442
213.0526, 200.7772
213.5347, 202.0714
214.0168, 203.6673
214.4989, 205.1341
214.9811, 206.4036
215.4632, 207.6134
215.9453, 208.8427
216.4274, 210.1013
216.9095, 211.3662
217.3916, 212.6134
217.8737, 213.8512
218.3559, 215.1124
218.8380, 216.4147
219.3201, 217.7436
219.8022, 219.1219
220.2843, 220.5516
220.7664, 221.9324
221.2486, 223.1354
221.7307, 224.2175
222.2128, 225.3737
222.6949, 226.7363
223.1770, 228.1344
223.6591, 229.3227
224.1413, 230.2604
224.6234, 231.2287
225.1055, 232.3807
225.5876, 233.7064
226.0697, 235.2421
226.5518, 237.2393
227.0340, 239.3194
227.5161, 240.8381
227.9982, 241.6372
228.4803, 242.4206
228.9624, 243.7587
229.4445, 245.2911
229.9267, 246.5444
230.4088, 247.2623
230.8909, 247.6643
231.3730, 248.2320
231.8551, 249.1786
232.3372, 249.7278
232.8194, 249.5644
233.3015, 248.8720
233.7836, 247.7961
234.2657, 246.3549
234.7478, 244.6320
235.2299, 242.7987
235.7121, 240.8047
236.1942, 238.7785
236.6763, 236.7932
237.1584, 234.7899
237.6405, 232.5940
238.1227, 230.0607
238.6048, 227.5168
239.0869, 225.8585
239.5690, 225.6249
240.0511, 225.3718
240.5332, 224.7980
241.0154, 224.0802
241.4975, 223.3391
241.9796, 222.6215
242.4617, 222.0224
242.9438, 221.8174
243.4259, 222.3384
243.9081, 222.7497
244.3902, 222.7785
244.8723, 222.7486
245.3544, 223.0237
245.8365, 223.7386
246.3186, 224.6617
246.8008, 225.2518
247.2829, 225.0609
247.7650, 225.1829
248.2471, 225.8425
248.7292, 226.7198
249.2113, 227.5142
249.6935, 228.1245
250.1756, 228.6679
250.6577, 229.3694
251.1398, 230.1866
251.6219, 231.2594
252.1040, 232.7744
252.5862, 234.4230
253.0683, 235.9223
253.5504, 237.1870
254.0325, 238.3533
254.5146, 239.6447
254.9967, 241.1716
255.4789, 242.6143
255.9610, 243.7769
256.4431, 244.9610
256.9252, 246.4663
257.4073, 248.3580
257.8894, 250.4440
258.3716, 252.4983
258.8537, 254.5790
259.3358, 256.4094
259.8179, 257.8933
260.3000, 259.1938
260.7821, 260.5151
261.2643, 261.8806
261.7464, 263.0562
262.2285, 263.8139
262.7106, 264.0957
263.1927, 263.9406
263.6748, 262.9507
264.1570, 261.7733
264.6391, 261.0835
265.1212, 260.9195
265.6033, 260.6127
266.0854, 259.4643
266.5675, 257.4197
267.0497, 255.6534
267.5318, 254.1911
268.0139, 253.0214
268.4960, 252.3312
268.9781, 252.0884
269.4602, 251.6761
269.9424, 250.5270
270.4245, 248.7513
270.9066, 247.3069
271.3887, 246.2512
271.8708, 245.5047
272.3529, 245.1635
272.8351, 245.1849
273.3172, 245.0908
273.7993, 244.4482
274.2814, 243.5173
274.7635, 243.1036
275.2456, 243.5002
275.7278, 244.1095
276.2099, 244.5878
276.6920, 244.9381
277.1741, 245.1711
277.6562, 245.2406
278.1383, 245.2202
278.6205, 245.2023
279.1026, 245.0210
279.5847, 245.1965
280.0668, 246.3835
280.5489, 248.3829
281.0310, 249.9454
281.5132, 250.4454
281.9953, 250.4769
282.4774, 250.8802
282.9595, 251.6766
283.4416, 252.6871
283.9237, 253.8539
284.4059, 255.1564
284.8880, 256.5432
285.3701, 258.0542
285.8522, 259.5643
286.3343, 260.7649
286.8164, 261.6799
287.2986, 263.0547
287.7807, 265.6468
288.2628, 269.0620
288.7449, 271.9554
289.2270, 273.9948
289.7091, 275.7622
290.1913, 277.7656
290.6734, 279.9328
291.1555, 282.0580
291.6376, 284.0182
292.1197, 285.8564
292.6018, 287.6891
293.0840, 289.4863
293.5661, 291.3376
294.0482, 293.4112
294.5303, 295.5665
295.0124, 297.5613
295.4945, 299.2205
295.9767, 300.6899
296.4588, 302.2366
296.9409, 303.8965
297.4230, 305.5156
297.9051, 306.9628
298.3872, 308.3529
298.8694, 309.8084
299.3515, 311.3329
299.8336, 312.9927
300.3157, 314.9916
300.7978, 317.4326
301.2799, 319.6576
301.7621, 321.3391
302.2442, 322.7204
302.7263, 323.8975
303.2084, 324.8301
303.6905, 325.9087
304.1726, 327.7717
304.6548, 330.4689
305.1369, 332.6281
305.6190, 333.5824
306.1011, 334.1314
306.5832, 334.8100
307.0653, 335.6637
307.5475, 336.6552
308.0296, 337.9911
308.5117, 339.5958
308.9938, 340.5133
309.4759, 340.2195
309.9580, 339.6478
310.4402, 339.6106
310.9223, 339.9209
311.4044, 339.8333
311.8865, 338.6646
312.3686, 336.6605
312.8507, 334.8671
313.3329, 333.3342
313.8150, 331.9638
314.2971, 330.7236
314.7792, 329.5720
315.2613, 328.4225
315.7434, 327.1948
316.2256, 325.9638
316.7077, 324.8423
317.1898, 323.7421
317.6719, 322.9820
318.1540, 323.1333
318.6361, 323.5226
319.1183, 323.3610
319.6004, 322.3099
320.0825, 320.9297
320.5646, 319.8741
321.0467, 319.1276
321.5288, 318.8085
322.0110, 319.1621
322.4931, 319.8643
322.9752, 320.7385
323.4573, 321.7591
323.9394, 322.8229
324.4215, 323.7933
324.9037, 324.6694
325.3858, 325.6781
325.8679, 326.6328
326.3500, 328.0114
326.8321, 330.2044
327.3142, 333.1357
327.7964, 336.2920
328.2785, 339.4562
328.7606, 342.5934
329.2427, 345.4518
329.7248, 347.6004
330.2069, 350.2138
330.6891, 354.2250
331.1712, 359.1577
331.6533, 364.0292
332.1354, 368.1816
332.6175, 372.1057
333.0996, 376.8350
333.5818, 382.5541
334.0639, 388.5659
334.5460, 394.4279
335.0281, 400.4057
335.5102, 406.7965
335.9923, 413.7080
336.4745, 421.0734
336.9566, 429.0172
337.4387, 437.5409
337.9208, 446.0599
338.4029, 454.1914
338.8850, 462.4049
339.3671, 471.0326
339.8492, 480.1353
340.3314, 489.6953
340.8135, 499.8686
341.2956, 510.6246
341.7777, 521.2313
342.2598, 531.4931
342.7419, 541.6771
343.2241, 552.1198
343.7062, 562.7722
344.1883, 573.1585
344.6704, 583.3068
345.1525, 593.0007
345.6346, 601.7133
346.1168, 609.2994
346.5989, 616.2529
347.0810, 622.8943
347.5631, 629.1098
348.0452, 634.6377
348.5273, 639.5596
349.0095, 643.6307
349.4916, 646.0900
349.9737, 646.8834
350.4558, 648.2219
350.9379, 651.5284
351.4200, 655.7590
351.9022, 659.1137
352.3843, 661.2072
352.8664, 663.2481
353.3485, 665.7831
353.8306, 668.8595
354.3127, 672.6882
354.7949, 677.4238
355.2770, 682.8279
355.7591, 688.6348
356.2412, 694.7941
356.7233, 701.4314
357.2054, 709.0469
357.6876, 717.0237
358.1697, 724.3298
358.6518, 730.7784
359.1339, 736.9955
359.6160, 743.8211
360.0981, 750.9697
360.5803, 756.6823
361.0624, 760.4376
361.5445, 762.8920
362.0266, 764.5009
362.5087, 765.2706
362.9908, 765.1875
363.4730, 764.5187
363.9551, 762.7178
364.4372, 758.4501
364.9193, 751.3557
365.4014, 742.7531
365.8835, 732.9904
366.3657, 722.1576
366.8478, 710.3304
367.3299, 697.5536
367.8120, 683.8865
368.2941, 669.1580
368.7762, 653.2267
369.2584, 637.0429
369.7405, 620.4910
370.2226, 603.9500
370.7047, 587.9477
371.1868, 572.4238
371.6689, 556.9566
372.1511, 540.9594
372.6332, 524.3845
373.1153, 508.6846
373.5974, 494.0221
374.0795, 479.8441
374.5616, 465.7349
375.0438, 451.8553
375.5259, 438.4264
376.0080, 425.6286
376.4901, 413.4561
376.9722, 402.0091
377.4543, 391.5137
377.9365, 381.4570
378.4186, 371.8725
378.9007, 362.6518
379.3828, 353.6407
379.8649, 344.8178
380.3470, 336.4916
380.8292, 329.1743
381.3113, 323.2887
381.7934, 317.1073
382.2755, 310.3120
382.7576, 303.5295
383.2397, 297.1617
383.7219, 291.1470
384.2040, 285.2362
384.6861, 279.2199
385.1682, 273.1281
385.6503, 267.6158
386.1324, 263.4626
386.6146, 259.0682
387.0967, 254.0447
387.5788, 248.7031
388.0609, 243.3389
388.5430, 238.1001
389.0251, 233.1026
389.5073, 228.5579
389.9894, 224.5348
390.4715, 220.8469
390.9536, 217.7252
391.4357, 214.6939
391.9178, 211.3355
392.4000, 207.6874
392.8821, 204.1549
393.3642, 201.1304
393.8463, 198.6184
394.3284, 196.3044
394.8105, 194.2491
395.2927, 192.3184
395.7748, 190.4990
396.2569, 188.7640
396.7390, 187.0543
397.2211, 185.3339
397.7032, 183.6393
398.1854, 182.0634
398.6675, 180.6094
399.1496, 179.2526
399.6317, 177.9061
400.1138, 176.6964
400.5959, 175.8183
401.0781, 175.2965
401.5602, 174.7830
402.0423, 173.9885
402.5244, 172.9262
403.0065, 171.6619
403.4886, 169.9568
403.9708, 168.4277
404.4529, 167.5861
404.9350, 167.2493
405.4171, 166.9069
405.8992, 166.3189
406.3813, 165.6146
406.8635, 164.9997
407.3456, 164.4839
407.8277, 163.9503
408.3098, 163.2724
408.7919, 162.5720
409.2740, 162.0610
409.7562, 161.8036
410.2383, 161.5937
410.7204, 161.3401
411.2025, 161.0363
411.6846, 160.6067
412.1667, 159.9622
412.6489, 159.3859
413.1310, 159.3311
413.6131, 159.7794
414.0952, 160.0720
414.5773, 159.9228
415.0594, 159.6871
415.5416, 159.7238
416.0237, 160.0235
416.5058, 160.3080
416.9879, 160.3680
417.4700, 160.2713
417.9521, 160.3922
418.4343, 161.0760
418.9164, 161.5280
419.3985, 161.3748
419.8806, 160.9043
420.3627, 160.5025
420.8448, 160.2939
421.3270, 160.2525
421.8091, 160.3725
422.2912, 160.8056
422.7733, 160.9352
423.2554, 160.5220
423.7375, 160.0390
424.2197, 159.7401
424.7018, 159.6245
425.1839, 159.5836
425.6660, 159.5403
426.1481, 159.5037
426.6302, 159.5379
427.1124, 159.7387
427.5945, 159.8954
428.0766, 160.0048
428.5587, 160.0488
429.0408, 159.9678
429.5229, 159.7588
430.0051, 159.5532
430.4872, 159.5975
430.9693, 160.0205
431.4514, 160.1571
431.9335, 159.4377
432.4156, 158.9248
432.8978, 159.1859
433.3799, 160.0157
433.8620, 160.8486
434.3441, 161.3414
434.8262, 161.5862
435.3083, 161.8508
435.7905, 162.1731
436.2726, 162.4060
436.7547, 162.4232
437.2368, 162.3660
437.7189, 162.2890
438.2010, 162.1861
438.6832, 162.2902
439.1653, 162.9399
439.6474, 164.0188
440.1295, 164.8983
440.6116, 165.4380
441.0938, 165.8437
441.5759, 166.2132
442.0580, 166.5771
442.5401, 167.0540
443.0222, 167.8374
443.5043, 168.6353
443.9865, 169.0106
444.4686, 169.0337
444.9507, 169.4284
445.4328, 170.7314
445.9149, 172.4102
446.3970, 173.2007
446.8792, 172.8930
447.3613, 172.5097
447.8434, 172.3216
448.3255, 172.2102
448.8076, 172.0742
449.2897, 171.8850
449.7719, 171.5645
450.2540, 171.0404
450.7361, 170.3042
451.2182, 169.4107
451.7003, 168.3577
452.1824, 167.1795
452.6646, 165.7361
453.1467, 164.2027
453.6288, 162.9189
454.1109, 162.0307
454.5930, 161.3135
455.0751, 160.2762
455.5573, 158.5478
456.0394, 157.2369
456.5215, 156.7112
457.0036, 156.2190
457.4857, 155.1481
457.9678, 153.6600
458.4500, 152.4416
458.9321, 152.1172
459.4142, 152.4700
459.8963, 152.1518
460.3784, 150.6253
460.8605, 149.3868
461.3427, 148.9475
461.8248, 148.8755
462.3069, 148.8145
462.7890, 148.6744
463.2711, 148.4118
463.7532, 147.8347
464.2354, 146.9874
464.7175, 146.5900
465.1996, 146.9313
465.6817, 147.4101
466.1638, 147.5582
466.6459, 147.5029
467.1281, 147.5732
467.6102, 148.0016
468.0923, 148.4880
468.5744, 148.5544
469.0565, 148.2711
469.5386, 148.3842
470.0208, 149.2883
470.5029, 150.6100
470.9850, 151.7244
471.4671, 152.6438
471.9492, 153.4107
472.4313, 153.9373
472.9135, 154.3780
473.3956, 154.8948
473.8777, 155.5011
474.3598, 156.1263
474.8419, 156.6962
475.3240, 157.2352
475.8062, 157.9707
476.2883, 159.0412
476.7704, 160.1148
477.2525, 161.2630
477.7346, 162.3180
478.2167, 163.0022
478.6989, 163.2755
479.1810, 163.4368
479.6631, 163.8741
480.1452, 164.6321
480.6273, 165.4264
481.1094, 166.3432
481.5916, 167.2022
482.0737, 167.8815
482.5558, 168.4721
483.0379, 169.1236
483.5200, 169.9071
484.0021, 170.8045
484.4843, 171.8140
484.9664, 172.9790
485.4485, 174.0766
485.9306, 175.1242
486.4127, 176.0302
486.8948, 176.6214
487.3770, 176.9697
487.8591, 177.4464
488.3412, 178.3798
488.8233, 179.5456
489.3054, 180.5076
489.7875, 181.2448
490.2697, 181.9027
490.7518, 182.5123
491.2339, 183.1042
491.7160, 183.7707
492.1981, 184.5752
492.6802, 185.2584
493.1624, 185.4938
493.6445, 185.6147
494.1266, 186.2005
494.6087, 187.3403
495.0908, 188.5223
495.5729, 189.2369
496.0551, 189.4966
496.5372, 190.2964
497.0193, 192.0786
497.5014, 193.7959
497.9835, 194.9018
498.4656, 195.8333
498.9478, 197.2405
499.4299, 199.3279
499.9120, 201.7871
500.3941, 204.1562
500.8762, 206.3887
501.3583, 208.7818
501.8405, 211.1877
502.3226, 213.8986
502.8047, 216.9270
503.2868, 220.3586
503.7689, 224.3014
504.2510, 228.8599
504.7331, 233.8446
505.2152, 238.9724
505.6974, 244.2833
506.1795, 249.5340
506.6616, 254.1807
507.1437, 259.2411
507.6258, 265.5482
508.1079, 272.9940
508.5901, 280.6441
509.0722, 288.0262
509.5543, 295.3680
510.0364, 303.0362
510.5185, 311.0182
511.0006, 319.3683
511.4828, 328.3989
511.9649, 337.5110
512.4470, 345.3548
512.9291, 351.7677
513.4113, 357.8190
513.8934, 364.2497
514.3755, 370.1156
514.8576, 374.6332
515.3397, 377.6378
515.8218, 378.8857
516.3040, 378.1725
516.7861, 375.5671
517.2682, 371.5970
517.7503, 365.8633
518.2324, 359.1930
518.7145, 351.2739
519.1967, 342.6191
519.6788, 333.5640
520.1609, 324.2307
520.6430, 314.6938
521.1251, 304.9481
521.6072, 294.9587
522.0894, 285.4393
522.5715, 276.3575
523.0536, 267.7971
523.5357, 259.7325
524.0178, 252.1424
524.4999, 244.9827
524.9821, 238.2215
525.4642, 231.9958
525.9463, 226.4416
526.4284, 221.5315
526.9105, 217.0408
527.3926, 213.0675
527.8748, 209.2191
528.3569, 205.0187
528.8390, 200.6824
529.3211, 196.9076
529.8032, 194.0783
530.2853, 191.4843
530.7675, 188.7354
531.2496, 185.9624
531.7317, 183.4359
532.2138, 181.2248
532.6959, 179.2030
533.1780, 177.2032
533.6602, 175.1698
534.1423, 173.5091
534.6244, 172.5281
535.1065, 171.5105
535.5886, 170.0366
536.0707, 168.3978
536.5529, 167.0790
537.0350, 166.2763
537.5171, 165.7401
537.9992, 165.1183
538.4813, 164.4115
538.9634, 163.6134
539.4456, 162.5192
539.9277, 161.5713
540.4098, 161.0073
540.8919, 160.7329
541.3740, 160.5736
541.8561, 160.5140
542.3383, 160.4310
542.8204, 160.1725
543.3025, 159.7485
543.7846, 159.2287
544.2667, 158.5675
544.7488, 157.9384
545.2310, 157.5350
545.7131, 157.3380
546.1952, 157.2502
546.6773, 157.4173
547.1594, 157.5423
547.6415, 157.4579
548.1237, 157.1755
548.6058, 156.6428
549.0879, 155.8226
549.5700, 155.0514
550.0521, 154.9621
550.5342, 156.0226
551.0164, 156.3161
551.4985, 155.5241
551.9806, 154.4199
552.4627, 153.2030
552.9448, 151.9436
553.4269, 150.7000
553.9091, 149.5026
554.3912, 148.3022
554.8733, 147.0552
555.3554, 145.7844
555.8375, 144.2486
556.3196, 142.1889
556.8018, 140.1136
557.2839, 138.4037
557.7660, 136.9301
558.2481, 135.3302
558.7302, 133.3255
559.2123, 131.3278
559.6945, 129.8199
560.1766, 128.7102
560.6587, 127.5896
561.1408, 126.3142
561.6229, 125.0510
562.1050, 123.9902
562.5872, 123.1603
563.0693, 122.4479
563.5514, 121.8902
564.0335, 121.4151
564.5156, 121.0260
564.9977, 120.6879
565.4799, 120.3157
565.9620, 119.8801
566.4441, 119.4883
566.9262, 119.3623
567.4083, 119.6417
567.8904, 119.6145
568.3726, 118.7930
568.8547, 118.1667
569.3368, 118.2309
569.8189, 118.6761
570.3010, 118.9638
570.7831, 118.8736
571.2653, 118.7000
571.7474, 118.8102
572.2295, 119.1680
572.7116, 119.4770
573.1937, 119.6742
573.6758, 119.8516
574.1580, 120.0365
574.6401, 120.2592
575.1222, 120.6450
575.6043, 121.4617
576.0864, 122.1534
576.5685, 122.2321
577.0507, 122.0627
577.5328, 122.3223
578.0149, 123.1598
578.4970, 124.1161
578.9791, 124.7094
579.4612, 124.9296
579.9434, 125.0478
580.4255, 124.8586
580.9076, 124.8111
581.3897, 125.1103
581.8718, 125.5294
582.3539, 125.8307
582.8361, 125.9587
583.3182, 125.9966
583.8003, 125.9622
584.2824, 125.8853
584.7645, 126.0313
585.2466, 126.5111
585.7288, 126.8986
586.2108, 126.9342
586.6929, 126.7707
587.1750, 126.5923
587.6572, 126.3796
