##NAMES=Andradite
##RRUFFID=R060423
##IDEAL CHEMISTRY=Ca_3_Fe^3+^_2_(SiO_4_)_3_
##LOCALITY=Mali
##OWNER=RRUFF
##SOURCE=Greg Schmidt
##DESCRIPTION=Black dodecahedron
##STATUS=The identification of this mineral has been confirmed by X-ray diffraction and chemical analysis
##URL=rruff.info/R060423
##MEASURED CHEMISTRY=(Ca_2.93_Mg_0.04_Mn_0.03_)_Σ=3_(Fe^3+^_0.99_Al_0.95_Ti_0.06_)_Σ=2_((Si_0.98_Fe^3+^_0.02_)_Σ=1_O_4_)_3_
92.10938, 3.058458
92.59149, 2.953478
93.07361, 2.993269
93.55573, 3.166420
94.03784, 3.330796
94.51996, 3.353382
95.00208, 3.263857
95.48419, 3.169139
95.96631, 3.113450
96.44843, 3.073644
96.93054, 2.967818
97.41266, 2.786040
97.89478, 2.596828
98.37689, 2.469805
98.85901, 2.407002
99.34113, 2.408075
99.82324, 2.513193
100.3054, 2.721402
100.7875, 2.831793
101.2696, 2.825625
101.7517, 2.745599
102.2338, 2.667197
102.7159, 2.593984
103.1981, 2.513362
103.6802, 2.407647
104.1623, 2.247701
104.6444, 2.153794
105.1265, 2.131447
105.6086, 2.177099
106.0908, 2.293763
106.5729, 2.576762
107.0550, 2.817498
107.5371, 2.877018
108.0192, 2.487785
108.5013, 2.322590
108.9835, 2.565698
109.4656, 3.197667
109.9477, 3.574446
110.4298, 3.413116
110.9119, 3.152846
111.3940, 3.091713
111.8762, 3.441955
112.3583, 3.784457
112.8404, 4.025461
113.3225, 4.143992
113.8046, 4.345001
114.2867, 4.692581
114.7689, 5.129510
115.2510, 5.589272
115.7331, 6.129079
116.2152, 6.633528
116.6973, 7.052269
117.1794, 7.371869
117.6616, 7.644579
118.1437, 7.787451
118.6258, 7.906281
119.1079, 8.170691
119.5900, 8.839908
120.0721, 9.561159
120.5543, 10.09476
121.0364, 10.36401
121.5185, 10.53706
122.0006, 10.62044
122.4827, 10.67128
122.9648, 10.85363
123.4470, 11.35310
123.9291, 11.99957
124.4112, 12.59925
124.8933, 13.09036
125.3754, 13.54891
125.8575, 14.05672
126.3397, 14.60540
126.8218, 15.14565
127.3039, 15.54645
127.7860, 15.91140
128.2681, 16.46412
128.7502, 17.37164
129.2324, 18.42812
129.7145, 19.23486
130.1966, 19.79503
130.6787, 20.34279
131.1608, 21.22320
131.6429, 22.33220
132.1251, 23.18781
132.6072, 23.49749
133.0893, 23.43317
133.5714, 23.59946
134.0535, 24.01919
134.5356, 24.56474
135.0178, 25.16306
135.4999, 25.81592
135.9820, 26.28369
136.4641, 26.29895
136.9462, 25.88857
137.4283, 26.07877
137.9105, 27.01582
138.3926, 28.29731
138.8747, 29.25966
139.3568, 29.86638
139.8389, 30.34068
140.3210, 30.75704
140.8032, 31.10675
141.2853, 31.45432
141.7674, 31.78736
142.2495, 32.12468
142.7316, 32.45371
143.2137, 32.58896
143.6959, 32.69570
144.1780, 33.08321
144.6601, 33.93647
145.1422, 34.60818
145.6243, 35.04933
146.1064, 35.30614
146.5886, 35.55907
147.0707, 35.82960
147.5528, 36.07323
148.0349, 36.25898
148.5170, 36.34288
148.9991, 36.44085
149.4813, 36.54099
149.9634, 36.64964
150.4455, 36.82704
150.9276, 37.17038
151.4097, 37.51541
151.8918, 37.75396
152.3740, 37.57078
152.8561, 37.63795
153.3382, 38.17436
153.8203, 39.16018
154.3024, 39.87580
154.7845, 40.07761
155.2667, 40.09105
155.7488, 40.16241
156.2309, 40.29157
156.7130, 40.50904
157.1951, 40.84853
157.6772, 41.31314
158.1594, 41.77431
158.6415, 42.23874
159.1236, 42.67167
159.6057, 43.04066
160.0878, 43.22837
160.5699, 43.44291
161.0521, 43.78353
161.5342, 44.27147
162.0163, 44.73092
162.4984, 45.03623
162.9805, 45.29451
163.4626, 45.64129
163.9448, 46.21129
164.4269, 46.81530
164.9090, 47.32576
165.3911, 47.69784
165.8732, 48.16508
166.3553, 49.03967
166.8375, 50.06757
167.3196, 50.82824
167.8017, 50.83433
168.2838, 50.69252
168.7659, 50.80611
169.2480, 51.21089
169.7302, 51.91476
170.2123, 53.02238
170.6944, 54.44396
171.1765, 55.95606
171.6586, 57.50204
172.1407, 59.06396
172.6229, 60.63522
173.1050, 62.20075
173.5871, 63.81803
174.0692, 65.49229
174.5513, 67.24016
175.0334, 69.09359
175.5156, 71.57261
175.9977, 74.04504
176.4798, 75.54534
176.9619, 75.87209
177.4440, 75.39148
177.9261, 74.43028
178.4083, 72.99281
178.8904, 71.08205
179.3725, 68.38283
179.8546, 65.25178
180.3367, 62.42165
180.8188, 60.06351
181.3010, 57.99884
181.7831, 55.92433
182.2652, 53.89326
182.7473, 52.18280
183.2294, 51.13363
183.7115, 50.58363
184.1937, 50.14533
184.6758, 49.79845
185.1579, 49.44698
185.6400, 48.82373
186.1221, 47.94744
186.6042, 47.14501
187.0864, 46.69093
187.5685, 46.53881
188.0506, 46.52600
188.5327, 46.67557
189.0148, 46.89233
189.4969, 46.97346
189.9791, 46.91616
190.4612, 46.78313
190.9433, 46.56062
191.4254, 46.27275
191.9075, 46.11747
192.3896, 46.17888
192.8718, 46.38383
193.3539, 46.53917
193.8360, 46.64738
194.3181, 46.69895
194.8002, 46.63159
195.2823, 46.44958
195.7645, 46.38857
196.2466, 46.54177
196.7287, 46.84750
197.2108, 47.07579
197.6929, 47.22915
198.1750, 47.28976
198.6572, 47.16308
199.1393, 46.83147
199.6214, 46.68933
200.1035, 46.93867
200.5856, 47.46693
201.0677, 47.55182
201.5499, 47.10345
202.0320, 46.51202
202.5141, 46.12704
202.9962, 45.95459
203.4783, 45.95391
203.9604, 46.18152
204.4426, 46.59643
204.9247, 46.83364
205.4068, 46.85603
205.8889, 46.79264
206.3710, 46.74074
206.8531, 46.68294
207.3353, 46.72979
207.8174, 46.91789
208.2995, 47.24049
208.7816, 47.63984
209.2637, 48.17280
209.7458, 48.66453
210.2280, 48.88291
210.7101, 48.72454
211.1922, 48.67029
211.6743, 48.83130
212.1564, 49.20098
212.6385, 49.70089
213.1207, 50.44508
213.6028, 51.12657
214.0849, 51.33393
214.5670, 50.83106
215.0491, 50.57991
215.5313, 50.86166
216.0134, 51.67363
216.4955, 52.31646
216.9776, 52.69898
217.4597, 53.04526
217.9418, 53.59532
218.4239, 54.38562
218.9061, 55.26935
219.3882, 56.22497
219.8703, 57.24401
220.3524, 58.33788
220.8345, 59.52583
221.3166, 60.74892
221.7988, 61.97146
222.2809, 63.19807
222.7630, 64.37778
223.2451, 65.41450
223.7272, 66.31127
224.2093, 67.56868
224.6915, 69.35646
225.1736, 71.33804
225.6557, 73.11007
226.1378, 74.53777
226.6199, 76.12302
227.1020, 78.05990
227.5842, 80.36830
228.0663, 82.22092
228.5484, 83.27335
229.0305, 84.26823
229.5126, 85.96201
229.9947, 88.76766
230.4769, 91.42902
230.9590, 93.79851
231.4411, 95.86419
231.9232, 97.53210
232.4053, 98.57285
232.8874, 99.48162
233.3696, 100.7357
233.8517, 102.6179
234.3338, 104.2906
234.8159, 105.5956
235.2980, 106.5493
235.7801, 107.3508
236.2623, 107.6572
236.7444, 108.1847
237.2265, 109.5702
237.7086, 112.1985
238.1907, 114.9585
238.6728, 117.8316
239.1550, 120.7864
239.6371, 123.3052
240.1192, 125.5736
240.6013, 127.2012
241.0834, 127.8819
241.5655, 127.6482
242.0477, 126.3960
242.5298, 124.1017
243.0119, 120.7702
243.4940, 116.3567
243.9761, 110.2834
244.4582, 103.8091
244.9404, 97.76608
245.4225, 92.05089
245.9046, 86.96038
246.3867, 82.52975
246.8688, 78.73299
247.3509, 75.38988
247.8331, 72.48512
248.3152, 70.05357
248.7973, 68.15823
249.2794, 66.99376
249.7615, 65.95115
250.2436, 65.01334
250.7258, 64.16214
251.2079, 63.29501
251.6900, 62.23656
252.1721, 61.41094
252.6542, 61.11294
253.1363, 61.60740
253.6185, 62.01329
254.1006, 62.26155
254.5827, 62.38621
255.0648, 62.46814
255.5469, 62.37386
256.0291, 62.44954
256.5112, 62.97388
256.9933, 64.35056
257.4754, 65.11669
257.9575, 64.98410
258.4396, 64.28741
258.9218, 63.99915
259.4039, 64.30240
259.8860, 64.67459
260.3681, 64.83869
260.8502, 64.63476
261.3323, 64.69405
261.8145, 65.04178
262.2966, 65.64163
262.7787, 66.47334
263.2608, 67.67536
263.7429, 68.81364
264.2250, 69.61153
264.7072, 69.83084
265.1893, 70.70462
265.6714, 72.49241
266.1535, 74.70383
266.6356, 76.39705
267.1177, 77.35144
267.5999, 78.41677
268.0820, 79.98894
268.5641, 82.19509
269.0462, 84.03728
269.5283, 85.46223
270.0104, 86.61842
270.4926, 87.82558
270.9747, 89.23422
271.4568, 90.21920
271.9389, 90.60188
272.4210, 90.38498
272.9031, 89.57682
273.3853, 88.04187
273.8674, 86.16220
274.3495, 84.39471
274.8316, 82.70860
275.3137, 81.23813
275.7958, 79.98092
276.2780, 78.95028
276.7601, 78.32111
277.2422, 78.19823
277.7243, 78.20387
278.2064, 77.96612
278.6885, 77.47208
279.1707, 76.82619
279.6528, 75.98550
280.1349, 75.01254
280.6170, 74.24203
281.0991, 73.69709
281.5812, 73.26264
282.0634, 72.87160
282.5455, 72.52125
283.0276, 72.14866
283.5097, 71.73042
283.9918, 71.28977
284.4739, 70.93044
284.9561, 70.67121
285.4382, 70.35567
285.9203, 69.85133
286.4024, 69.16972
286.8845, 68.36697
287.3666, 67.32641
287.8488, 66.34270
288.3309, 66.28018
288.8130, 67.16355
289.2951, 67.91592
289.7772, 67.64710
290.2593, 66.55264
290.7415, 65.74736
291.2236, 65.34367
291.7057, 65.26743
292.1878, 65.54546
292.6699, 66.14573
293.1520, 66.67162
293.6342, 66.81461
294.1163, 66.69726
294.5984, 66.73141
295.0805, 66.95776
295.5626, 67.25690
296.0447, 67.47305
296.5269, 67.62749
297.0090, 67.82410
297.4911, 68.12975
297.9732, 68.50856
298.4553, 68.84716
298.9374, 69.13189
299.4196, 69.49155
299.9017, 70.16432
300.3838, 71.02778
300.8659, 71.74023
301.3480, 72.04852
301.8301, 72.18090
302.3123, 72.40426
302.7944, 72.72387
303.2765, 73.24039
303.7586, 74.22778
304.2407, 75.44785
304.7228, 76.48137
305.2050, 77.07776
305.6871, 77.54499
306.1692, 78.21452
306.6513, 79.06082
307.1334, 79.88103
307.6155, 80.50655
308.0977, 81.04804
308.5798, 81.63052
309.0619, 82.24278
309.5440, 82.98792
310.0261, 83.97396
310.5082, 85.16740
310.9904, 86.46159
311.4725, 87.98099
311.9546, 89.49082
312.4367, 90.70204
312.9188, 91.41010
313.4009, 92.31382
313.8831, 93.94093
314.3652, 96.04465
314.8473, 98.18060
315.3294, 100.1707
315.8115, 102.1501
316.2936, 104.1686
316.7758, 106.2117
317.2579, 108.4273
317.7400, 111.4104
318.2221, 114.4645
318.7042, 116.7677
319.1863, 117.3567
319.6685, 117.7704
320.1506, 118.8629
320.6327, 120.6837
321.1148, 121.7916
321.5969, 121.5147
322.0790, 120.4676
322.5612, 119.1571
323.0433, 117.5294
323.5254, 115.8198
324.0075, 114.0790
324.4896, 112.2945
324.9717, 110.4424
325.4539, 108.3999
325.9360, 106.3462
326.4181, 104.3972
326.9002, 102.2732
327.3823, 100.5994
327.8644, 99.46774
328.3466, 98.82092
328.8287, 98.48628
329.3108, 98.69347
329.7929, 99.00758
330.2750, 99.27775
330.7571, 99.48532
331.2393, 99.69238
331.7214, 99.80367
332.2035, 99.95044
332.6856, 100.3686
333.1677, 101.3677
333.6498, 102.1867
334.1320, 102.5330
334.6141, 102.2984
335.0962, 102.4213
335.5783, 103.1059
336.0604, 103.9359
336.5425, 104.4794
337.0247, 104.6478
337.5068, 104.7507
337.9889, 104.8206
338.4710, 104.8682
338.9531, 104.9923
339.4352, 105.2177
339.9173, 105.4673
340.3994, 105.5753
340.8816, 105.4440
341.3637, 105.8450
341.8458, 107.0052
342.3279, 108.6471
342.8100, 110.0353
343.2921, 111.0857
343.7743, 112.3690
344.2564, 114.2958
344.7385, 116.8480
345.2206, 119.3146
345.7027, 121.6560
346.1848, 123.9754
346.6670, 126.3632
347.1491, 128.8324
347.6312, 131.5789
348.1133, 134.7827
348.5954, 138.3497
349.0775, 141.8526
349.5597, 145.2708
350.0418, 149.1804
350.5239, 154.3081
351.0060, 160.4435
351.4881, 166.7298
351.9702, 172.8962
352.4524, 179.0777
352.9345, 185.0423
353.4166, 190.8954
353.8987, 197.6143
354.3808, 206.3071
354.8629, 216.1841
355.3451, 225.9169
355.8272, 235.2677
356.3093, 244.3345
356.7914, 252.9577
357.2735, 261.3723
357.7556, 270.0208
358.2378, 279.4157
358.7199, 288.9012
359.2020, 297.9236
359.6841, 306.4095
360.1662, 314.4791
360.6483, 321.8614
361.1305, 328.9444
361.6126, 336.2736
362.0947, 344.2156
362.5768, 352.3018
363.0589, 360.3265
363.5410, 368.2897
364.0232, 376.5314
364.5053, 384.1887
364.9874, 392.6997
365.4695, 403.1822
365.9516, 416.8049
366.4337, 431.3965
366.9159, 447.1196
367.3980, 463.6944
367.8801, 480.0804
368.3622, 496.5211
368.8443, 512.2590
369.3264, 527.0772
369.8086, 542.0049
370.2907, 554.1822
370.7728, 564.3348
371.2549, 571.5131
371.7370, 574.0586
372.2191, 571.3383
372.7013, 564.8185
373.1834, 555.0370
373.6655, 542.0641
374.1476, 524.4270
374.6297, 500.9006
375.1118, 474.7843
375.5940, 448.9775
376.0761, 423.5739
376.5582, 398.9601
377.0403, 375.0121
377.5224, 352.0313
378.0045, 330.1229
378.4867, 309.5782
378.9688, 290.5209
379.4509, 273.1181
379.9330, 257.5155
380.4151, 243.2760
380.8972, 230.5259
381.3794, 219.0663
381.8615, 209.0484
382.3436, 200.3314
382.8257, 192.3345
383.3078, 184.5650
383.7899, 177.2051
384.2721, 170.6943
384.7542, 165.0987
385.2363, 160.0038
385.7184, 154.8838
386.2005, 149.9375
386.6826, 145.4435
387.1648, 141.7091
387.6469, 138.3235
388.1290, 134.6905
388.6111, 130.8825
389.0932, 127.2312
389.5753, 123.8025
390.0575, 120.6872
390.5396, 117.9932
391.0217, 115.8154
391.5038, 113.7420
391.9859, 111.3836
392.4680, 108.9370
392.9502, 106.7259
393.4323, 104.9168
393.9144, 103.3821
394.3965, 102.1879
394.8786, 101.3481
395.3607, 100.3498
395.8429, 98.80130
396.3250, 97.09995
396.8071, 95.59536
397.2892, 94.49501
397.7713, 93.45229
398.2534, 92.49198
398.7356, 91.56590
399.2177, 90.46088
399.6998, 88.83461
400.1819, 87.28963
400.6640, 86.13634
401.1461, 85.80826
401.6283, 84.96285
402.1104, 83.20550
402.5925, 81.11489
403.0746, 79.59262
403.5567, 79.05466
404.0388, 78.32841
404.5210, 77.07022
405.0031, 75.27900
405.4852, 73.51950
405.9673, 71.73775
406.4494, 70.07743
406.9315, 68.69458
407.4137, 67.61613
407.8958, 66.55415
408.3779, 65.47395
408.8600, 64.38255
409.3421, 63.23900
409.8242, 62.03598
410.3064, 60.99683
410.7885, 60.34993
411.2706, 59.99445
411.7527, 59.43782
412.2348, 58.63514
412.7169, 57.76271
413.1991, 56.96297
413.6812, 56.25271
414.1633, 55.72460
414.6454, 55.54517
415.1275, 55.46284
415.6096, 55.10328
416.0918, 54.50475
416.5739, 53.92576
417.0560, 53.44997
417.5381, 53.13055
418.0202, 53.09106
418.5023, 53.50188
418.9845, 53.81147
419.4666, 53.51054
419.9487, 52.87248
420.4308, 52.41815
420.9129, 52.45481
421.3951, 52.63472
421.8772, 52.84693
422.3593, 53.08910
422.8414, 53.19450
423.3235, 52.99257
423.8056, 52.70166
424.2878, 52.49862
424.7699, 52.41889
425.2520, 52.41595
425.7341, 52.57454
426.2162, 52.82389
426.6983, 52.89862
427.1805, 52.53648
427.6626, 52.30269
428.1447, 52.47813
428.6268, 53.26508
429.1089, 53.68991
429.5910, 53.58837
430.0732, 53.30114
430.5553, 53.23283
431.0374, 53.39656
431.5195, 53.75368
432.0016, 54.42503
432.4837, 55.26935
432.9659, 55.52514
433.4480, 55.09851
433.9301, 54.66999
434.4122, 54.80562
434.8943, 55.41829
435.3764, 55.85551
435.8586, 56.01361
436.3407, 56.10939
436.8228, 56.48960
437.3049, 57.08971
437.7870, 57.62211
438.2691, 57.92632
438.7513, 58.10741
439.2334, 58.30493
439.7155, 58.51833
440.1976, 58.72385
440.6797, 58.92845
441.1618, 59.10693
441.6440, 59.20570
442.1261, 59.11460
442.6082, 59.12317
443.0903, 59.60553
443.5724, 60.30932
444.0545, 60.68995
444.5367, 60.09771
445.0188, 59.50771
445.5009, 59.44660
445.9830, 60.03151
446.4651, 60.50496
446.9472, 60.73869
447.4294, 60.79424
447.9115, 60.72033
448.3936, 60.32900
448.8757, 60.04458
449.3578, 59.91014
449.8399, 59.90408
450.3221, 59.96411
450.8042, 60.18666
451.2863, 60.32116
451.7684, 60.23000
452.2505, 59.85635
452.7326, 59.61415
453.2148, 59.49619
453.6969, 59.52986
454.1790, 59.89192
454.6611, 60.62830
455.1432, 60.92767
455.6253, 60.45340
456.1075, 59.53607
456.5896, 59.03904
457.0717, 58.95202
457.5538, 59.03504
458.0359, 59.22515
458.5180, 59.45497
459.0002, 59.56788
459.4823, 59.54375
459.9644, 59.43945
460.4465, 59.25378
460.9286, 59.03276
461.4107, 58.86810
461.8929, 58.81747
462.3750, 58.81760
462.8571, 58.87426
463.3392, 58.96174
463.8213, 58.95517
464.3034, 58.76624
464.7856, 58.48409
465.2677, 58.14719
465.7498, 57.71529
466.2319, 57.36123
466.7140, 57.15081
467.1961, 57.03434
467.6783, 56.94576
468.1604, 56.97056
468.6425, 56.91938
469.1246, 56.74273
469.6067, 56.44936
470.0888, 56.13786
470.5710, 55.74270
471.0531, 55.41766
471.5352, 55.25128
472.0173, 55.26935
472.4994, 55.35308
472.9815, 55.51194
473.4637, 55.72108
473.9458, 55.97399
474.4279, 56.28148
474.9100, 56.46894
475.3921, 56.37051
475.8742, 56.16034
476.3564, 56.39192
476.8385, 57.06267
477.3206, 57.92241
477.8027, 58.87873
478.2848, 59.86663
478.7669, 60.73589
479.2491, 61.45638
479.7312, 62.09911
480.2133, 62.61841
480.6954, 63.11788
481.1775, 63.79417
481.6596, 64.93044
482.1418, 66.09252
482.6239, 66.99919
483.1060, 67.67733
483.5881, 68.31116
484.0702, 68.97841
484.5523, 69.62807
485.0345, 70.20879
485.5166, 70.60694
485.9987, 71.16566
486.4808, 72.17770
486.9629, 73.29021
487.4450, 74.00727
487.9272, 73.91167
488.4093, 74.02760
488.8914, 74.71107
489.3735, 75.84847
489.8556, 76.30688
490.3377, 75.82836
490.8199, 75.27230
491.3020, 75.21809
491.7841, 75.72407
492.2662, 75.92776
492.7483, 75.73220
493.2304, 75.41415
493.7126, 75.47270
494.1947, 75.82970
494.6768, 75.83546
495.1589, 75.05608
495.6410, 74.00999
496.1231, 73.69111
496.6053, 74.00623
497.0874, 74.36726
497.5695, 74.61538
498.0516, 74.59744
498.5337, 74.00844
499.0158, 72.71806
499.4980, 71.50279
499.9801, 71.02068
500.4622, 70.80796
500.9443, 70.30363
501.4264, 68.83715
501.9085, 67.59670
502.3907, 67.10482
502.8728, 67.17400
503.3549, 67.00448
503.8370, 66.27784
504.3191, 65.48698
504.8012, 64.79842
505.2834, 64.22362
505.7655, 63.70855
506.2476, 63.28310
506.7297, 62.88563
507.2118, 62.42127
507.6939, 61.83594
508.1761, 61.41949
508.6582, 61.22789
509.1403, 61.21372
509.6224, 61.25506
510.1045, 61.34951
510.5866, 61.57719
511.0688, 62.02805
511.5509, 62.64164
512.0330, 63.28717
512.5151, 63.96956
512.9973, 64.54253
513.4794, 64.62727
513.9615, 64.59386
514.4436, 65.03794
514.9257, 66.14960
515.4078, 67.63059
515.8900, 69.54002
516.3721, 71.63350
516.8542, 73.45030
517.3363, 74.43919
517.8184, 75.48679
518.3005, 76.95621
518.7827, 78.85814
519.2648, 80.96228
519.7469, 83.36713
520.2290, 85.86206
520.7111, 88.32108
521.1932, 90.54112
521.6754, 93.11317
522.1575, 96.16164
522.6396, 99.47688
523.1217, 102.7148
523.6038, 105.7644
524.0859, 109.1749
524.5681, 113.1260
525.0502, 117.4720
525.5323, 121.7090
526.0144, 125.8322
526.4965, 130.2421
526.9786, 135.3908
527.4608, 141.0813
527.9429, 146.6220
528.4250, 152.0132
528.9071, 157.3864
529.3892, 163.1103
529.8713, 168.8857
530.3535, 174.1191
530.8356, 178.7364
531.3177, 182.7202
531.7998, 186.1540
532.2819, 188.9494
532.7640, 190.7500
533.2462, 191.8735
533.7283, 191.6448
534.2104, 189.8025
534.6925, 186.3302
535.1746, 181.3376
535.6567, 174.3394
536.1389, 166.2023
536.6210, 157.5325
537.1031, 147.8973
537.5852, 138.3571
538.0673, 128.5931
538.5494, 119.1536
539.0316, 110.9152
539.5137, 103.8728
539.9958, 97.59262
540.4779, 91.98470
540.9600, 87.01530
541.4421, 82.55694
541.9243, 78.62897
542.4064, 75.32356
542.8885, 73.04819
543.3706, 71.38857
543.8527, 69.51425
544.3348, 67.31991
544.8170, 65.36851
545.2991, 64.27785
545.7812, 63.63243
546.2633, 62.88653
546.7454, 61.60402
547.2275, 60.57385
547.7097, 60.33660
548.1918, 60.58944
548.6739, 60.63054
549.1560, 59.99084
549.6381, 59.44435
550.1202, 59.22977
550.6024, 59.35160
551.0845, 59.64117
551.5666, 60.32148
552.0487, 60.87119
552.5308, 60.84212
553.0129, 60.05284
553.4951, 59.72358
553.9772, 60.00627
554.4593, 60.53152
554.9414, 60.84001
555.4235, 60.93578
555.9056, 60.85603
556.3878, 60.57328
556.8699, 60.16669
557.3520, 59.67660
557.8341, 59.14936
558.3162, 58.79790
558.7983, 58.96748
559.2805, 59.23470
559.7626, 59.18603
560.2447, 58.78816
560.7268, 58.29699
561.2089, 57.69619
561.6910, 57.13031
562.1732, 56.72898
562.6553, 56.75446
563.1374, 56.57719
563.6195, 55.95979
564.1016, 55.14324
564.5837, 54.50544
565.0659, 54.26568
565.5480, 53.77774
566.0301, 52.82474
566.5122, 51.51881
566.9943, 50.42015
567.4764, 49.54842
567.9586, 48.83149
568.4407, 48.30401
568.9228, 47.92591
569.4049, 47.44020
569.8870, 46.83837
570.3691, 46.21748
570.8513, 45.73268
571.3334, 45.28927
571.8155, 44.69463
572.2976, 43.81347
572.7797, 42.96941
573.2618, 42.51048
573.7440, 42.23914
574.2261, 41.78905
574.7082, 40.68836
575.1903, 39.71655
575.6724, 39.27541
576.1545, 39.30644
576.6367, 39.24700
577.1188, 38.86760
577.6009, 38.57423
578.0830, 38.58918
578.5651, 39.03599
579.0472, 39.11053
579.5294, 38.67678
580.0115, 38.11415
580.4936, 37.79604
580.9757, 37.72540
581.4578, 37.61481
581.9399, 37.40160
582.4221, 37.18436
582.9042, 37.15245
583.3863, 37.26082
583.8684, 37.32156
584.3505, 37.14948
584.8326, 36.97069
585.3148, 37.06670
585.7969, 37.38720
586.2789, 37.69855
586.7610, 37.74913
587.2432, 37.84734
587.7253, 38.23573
588.2074, 38.99293
