##NAMES=Andradite
##RRUFFID=R060350
##IDEAL CHEMISTRY=Ca_3_Fe^3+^_2_(SiO_4_)_3_
##LOCALITY=south of the Gem mine, southern San Benito County, California, USA
##OWNER=RRUFF
##SOURCE=Michael Scott
##DESCRIPTION=Cluster of black vitreous crystals showing well-developed faces
##STATUS=The identification of this mineral has been confirmed by X-ray diffraction and chemical analysis
##URL=rruff.info/R060350
##MEASURED CHEMISTRY=(Ca_2.93_Mg_0.07_)_Σ=3_(Fe^3+^_1.18_Ti_0.77_Al_0.05_)_Σ=2_((Si_0.74_Fe^3+^_0.26_)_Σ=1_O_4_)_3_ ; trace amounts of Mn
91.72394, 0.0000000E+00
92.20605, 132.2451
92.68817, 131.9650
93.17029, 132.7389
93.65240, 133.6790
94.13452, 134.6162
94.61664, 134.7164
95.09875, 133.7868
95.58087, 132.2111
96.06299, 130.6806
96.54510, 129.5206
97.02721, 127.9094
97.50933, 125.3671
97.99145, 122.4859
98.47356, 120.0727
98.95568, 118.6428
99.43780, 118.0159
99.91991, 117.1047
100.4020, 115.6935
100.8841, 114.3086
101.3663, 113.1095
101.8484, 112.0988
102.3305, 111.2325
102.8126, 110.4874
103.2947, 109.8953
103.7768, 109.2466
104.2590, 108.4849
104.7411, 107.6772
105.2232, 106.8475
105.7053, 105.9604
106.1874, 105.1825
106.6695, 104.8208
107.1517, 104.8401
107.6338, 104.7473
108.1159, 104.1099
108.5980, 103.0798
109.0801, 102.5098
109.5622, 103.1232
110.0444, 103.7912
110.5265, 103.4348
111.0086, 101.9402
111.4907, 100.3084
111.9728, 99.78206
112.4549, 100.7598
112.9371, 101.4824
113.4192, 101.5225
113.9013, 101.2729
114.3834, 100.9215
114.8655, 100.5432
115.3476, 100.2203
115.8298, 100.1936
116.3119, 100.9132
116.7940, 101.3821
117.2761, 101.4008
117.7582, 101.1422
118.2403, 100.7873
118.7225, 100.4214
119.2046, 100.0717
119.6867, 100.0982
120.1688, 100.7823
120.6509, 101.4737
121.1330, 102.0345
121.6152, 102.4279
122.0973, 102.5648
122.5794, 102.2870
123.0615, 101.6101
123.5436, 101.2272
124.0257, 101.3667
124.5079, 101.6679
124.9900, 101.8577
125.4721, 101.9300
125.9542, 101.7964
126.4363, 101.0018
126.9184, 99.86226
127.4006, 99.23399
127.8827, 99.81983
128.3648, 101.2121
128.8469, 102.1632
129.3290, 102.5016
129.8111, 102.4501
130.2932, 102.0662
130.7754, 101.4342
131.2575, 100.8310
131.7396, 100.4643
132.2217, 100.3448
132.7038, 100.3716
133.1859, 100.7994
133.6681, 101.1808
134.1502, 101.2321
134.6323, 100.9712
135.1144, 100.6825
135.5965, 100.7979
136.0786, 101.7494
136.5608, 102.2113
137.0429, 101.8282
137.5250, 101.2636
138.0071, 101.0356
138.4892, 101.2940
138.9713, 101.8062
139.4535, 102.0871
139.9356, 101.8730
140.4177, 101.7856
140.8998, 101.9253
141.3819, 102.1948
141.8640, 102.4899
142.3462, 102.7827
142.8283, 103.0285
143.3104, 103.0479
143.7925, 102.5521
144.2746, 102.3443
144.7567, 102.9419
145.2388, 104.1773
145.7210, 105.3623
146.2031, 106.2436
146.6852, 106.7925
147.1673, 107.0319
147.6494, 106.7813
148.1315, 106.4848
148.6137, 106.6090
149.0958, 107.2159
149.5779, 107.8067
150.0600, 108.1608
150.5421, 108.3692
151.0242, 108.4831
151.5064, 108.4918
151.9885, 108.4506
152.4706, 108.4333
152.9527, 108.3116
153.4348, 108.4906
153.9169, 109.1908
154.3991, 110.1730
154.8812, 111.1737
155.3633, 112.0553
155.8454, 112.8217
156.3275, 113.4847
156.8096, 114.0039
157.2918, 114.4398
157.7739, 114.7517
158.2560, 114.9918
158.7381, 115.2521
159.2202, 115.6137
159.7023, 116.0839
160.1845, 116.3689
160.6666, 116.1408
161.1487, 116.0638
161.6308, 116.4902
162.1129, 117.3272
162.5950, 118.2217
163.0772, 118.8793
163.5593, 119.2764
164.0414, 119.4817
164.5235, 119.3422
165.0056, 119.1448
165.4877, 119.0491
165.9698, 119.0779
166.4520, 119.2309
166.9341, 119.5727
167.4162, 120.1018
167.8983, 120.4831
168.3804, 120.8792
168.8625, 121.0324
169.3447, 120.3969
169.8268, 118.6937
170.3089, 117.0344
170.7910, 116.8296
171.2731, 117.7048
171.7552, 118.3870
172.2374, 118.2660
172.7195, 117.5684
173.2016, 116.9012
173.6837, 116.2490
174.1658, 115.7744
174.6479, 115.6751
175.1301, 115.8556
175.6122, 115.9475
176.0943, 115.6099
176.5764, 114.8657
177.0585, 114.2899
177.5406, 113.9661
178.0228, 113.7951
178.5049, 113.8185
178.9870, 113.9830
179.4691, 114.1164
179.9512, 114.0166
180.4333, 113.6094
180.9155, 113.3119
181.3976, 113.3317
181.8797, 113.2936
182.3618, 112.9179
182.8439, 112.2434
183.3260, 111.5910
183.8082, 111.4117
184.2903, 112.0641
184.7724, 112.2362
185.2545, 111.6801
185.7366, 110.9348
186.2187, 110.2334
186.7009, 109.6668
187.1830, 109.3191
187.6651, 109.3462
188.1472, 110.1131
188.6293, 110.4792
189.1114, 110.2251
189.5936, 109.7110
190.0757, 109.1875
190.5578, 108.7303
191.0399, 108.3631
191.5220, 108.1321
192.0041, 108.0525
192.4863, 108.0767
192.9684, 108.2623
193.4505, 108.5299
193.9326, 108.8048
194.4147, 109.0785
194.8968, 109.2993
195.3790, 109.3284
195.8611, 109.1440
196.3432, 109.0235
196.8253, 109.1653
197.3074, 109.4263
197.7895, 109.4580
198.2717, 109.0803
198.7538, 108.5977
199.2359, 108.3803
199.7180, 108.4164
200.2001, 108.5855
200.6822, 108.8846
201.1644, 109.2850
201.6465, 109.6512
202.1286, 109.9831
202.6107, 110.2295
203.0928, 110.3066
203.5749, 110.2201
204.0571, 110.1784
204.5392, 110.3708
205.0213, 110.7946
205.5034, 111.2147
205.9855, 111.7895
206.4676, 112.1627
206.9497, 111.8744
207.4319, 110.9909
207.9140, 110.2801
208.3961, 110.7544
208.8782, 112.7021
209.3603, 114.0070
209.8424, 113.7709
210.3246, 113.3410
210.8067, 113.3374
211.2888, 113.8276
211.7709, 114.5083
212.2530, 114.9978
212.7351, 115.1682
213.2173, 115.5483
213.6994, 116.4548
214.1815, 117.3178
214.6636, 117.8076
215.1457, 117.8906
215.6278, 117.7690
216.1100, 117.6861
216.5921, 117.6290
217.0742, 117.6549
217.5563, 117.8795
218.0384, 118.0864
218.5205, 118.0987
219.0027, 117.9095
219.4848, 117.6759
219.9669, 117.6041
220.4490, 117.7370
220.9311, 117.9609
221.4132, 118.2340
221.8954, 118.6134
222.3775, 119.3037
222.8596, 120.2800
223.3417, 121.1022
223.8238, 121.1230
224.3059, 119.7503
224.7881, 119.2747
225.2702, 120.6705
225.7523, 122.3680
226.2344, 122.9151
226.7165, 122.0659
227.1986, 120.7212
227.6807, 119.9112
228.1629, 119.7355
228.6450, 119.7358
229.1271, 120.0778
229.6092, 120.4896
230.0913, 120.7065
230.5734, 120.6814
231.0556, 120.4826
231.5377, 120.1226
232.0198, 119.6039
232.5019, 119.1518
232.9840, 118.8026
233.4661, 118.5392
233.9483, 118.3359
234.4304, 118.1858
234.9125, 118.1173
235.3946, 118.2216
235.8767, 118.4552
236.3588, 118.6343
236.8410, 118.6477
237.3231, 118.6015
237.8052, 118.7296
238.2873, 119.1423
238.7694, 119.3966
239.2515, 118.8419
239.7337, 117.8319
240.2158, 117.1636
240.6979, 117.3483
241.1800, 117.9900
241.6621, 118.3898
242.1442, 118.5389
242.6264, 118.4385
243.1085, 117.7199
243.5906, 116.7975
244.0727, 116.4211
244.5548, 117.2433
245.0369, 118.6527
245.5191, 119.2599
246.0012, 118.7201
246.4833, 118.1849
246.9654, 118.4072
247.4475, 118.9273
247.9296, 119.1115
248.4117, 118.6074
248.8939, 117.6904
249.3760, 116.8965
249.8581, 116.0819
250.3402, 115.7472
250.8223, 116.5084
251.3044, 117.6207
251.7866, 118.2171
252.2687, 117.8653
252.7508, 116.9651
253.2329, 116.4529
253.7150, 116.6217
254.1971, 116.5818
254.6793, 115.7513
255.1614, 114.8022
255.6435, 114.4999
256.1256, 115.1862
256.6077, 116.2988
257.0898, 116.6042
257.5720, 115.5978
258.0541, 114.7458
258.5362, 114.2487
259.0183, 113.9872
259.5004, 113.9611
259.9825, 114.1561
260.4647, 114.3514
260.9468, 114.0555
261.4289, 112.7506
261.9110, 111.9937
262.3931, 112.1661
262.8752, 112.6514
263.3574, 113.0710
263.8395, 113.2914
264.3216, 113.2843
264.8037, 112.9295
265.2858, 111.7803
265.7679, 111.2123
266.2501, 111.7692
266.7322, 112.4371
267.2143, 112.4971
267.6964, 111.8411
268.1785, 110.8559
268.6606, 110.0013
269.1428, 109.1410
269.6249, 108.8432
270.1070, 109.6692
270.5891, 110.5072
271.0712, 110.5516
271.5533, 109.8154
272.0355, 108.9796
272.5176, 108.8473
272.9997, 109.7105
273.4818, 110.0049
273.9639, 109.1779
274.4460, 108.3787
274.9282, 108.2763
275.4103, 108.8107
275.8924, 109.4825
276.3745, 109.8308
276.8566, 109.8009
277.3387, 109.9836
277.8208, 110.5798
278.3029, 111.1457
278.7851, 111.4080
279.2672, 111.4589
279.7493, 111.6001
280.2314, 112.0645
280.7135, 112.8394
281.1956, 113.5805
281.6778, 114.5066
282.1599, 115.1873
282.6420, 115.2924
283.1241, 115.0349
283.6062, 114.8267
284.0883, 114.8765
284.5705, 115.2169
285.0526, 116.0716
285.5347, 118.3243
286.0168, 119.9989
286.4989, 120.1572
286.9810, 119.4921
287.4632, 119.1845
287.9453, 119.7983
288.4274, 121.0504
288.9095, 122.1732
289.3916, 123.2153
289.8737, 124.0681
290.3559, 124.4702
290.8380, 124.7380
291.3201, 125.3536
291.8022, 126.4987
292.2843, 127.8618
292.7664, 128.8728
293.2486, 129.2844
293.7307, 129.9306
294.2128, 131.0870
294.6949, 132.4272
295.1770, 133.6453
295.6591, 134.6721
296.1413, 135.4918
296.6234, 136.0043
297.1055, 136.0383
297.5876, 136.5414
298.0697, 137.9030
298.5518, 139.5236
299.0340, 140.8787
299.5161, 141.9085
299.9982, 142.9139
300.4803, 144.2046
300.9624, 145.8153
301.4445, 147.1866
301.9267, 148.3706
302.4088, 149.2721
302.8909, 149.5478
303.3730, 149.3407
303.8551, 149.4860
304.3372, 150.6426
304.8194, 152.7134
305.3015, 154.5794
305.7836, 156.3789
306.2657, 157.8760
306.7478, 158.7382
307.2299, 159.1681
307.7121, 159.7607
308.1942, 160.8248
308.6763, 162.2674
309.1584, 163.7827
309.6405, 165.6454
310.1227, 167.1715
310.6048, 167.8545
311.0869, 168.0794
311.5690, 168.5830
312.0511, 169.6627
312.5332, 171.0459
313.0154, 172.1944
313.4975, 173.0529
313.9796, 173.9103
314.4617, 174.7843
314.9438, 175.7011
315.4259, 176.6580
315.9081, 177.6446
316.3902, 178.8062
316.8723, 180.4370
317.3544, 182.6725
317.8365, 184.4981
318.3186, 185.4986
318.8007, 186.2647
319.2828, 187.3861
319.7650, 188.9091
320.2471, 190.3801
320.7292, 191.3775
321.2113, 191.8821
321.6934, 192.5409
322.1755, 193.3793
322.6577, 194.3455
323.1398, 195.4524
323.6219, 196.6716
324.1040, 197.8918
324.5861, 198.9881
325.0682, 200.0555
325.5504, 201.5068
326.0325, 203.6004
326.5146, 205.7263
326.9967, 207.6672
327.4788, 209.4877
327.9609, 211.4125
328.4431, 213.5974
328.9252, 215.7713
329.4073, 217.2314
329.8894, 217.6651
330.3715, 218.1892
330.8536, 218.9749
331.3358, 219.9706
331.8179, 221.0983
332.3000, 222.3365
332.7821, 223.7535
333.2642, 225.4885
333.7463, 227.6619
334.2285, 229.7278
334.7106, 231.5612
335.1927, 233.3421
335.6748, 235.2540
336.1569, 237.2879
336.6390, 239.3147
337.1212, 241.2442
337.6033, 243.0752
338.0854, 244.5555
338.5675, 245.4559
339.0496, 246.2868
339.5317, 247.3474
340.0139, 248.5608
340.4960, 249.6058
340.9781, 250.2351
341.4602, 250.6103
341.9423, 251.5695
342.4244, 253.5501
342.9066, 255.4886
343.3887, 257.1744
343.8708, 258.6889
344.3529, 260.1917
344.8350, 261.7432
345.3171, 263.1782
345.7993, 264.1695
346.2814, 264.4484
346.7635, 264.6917
347.2456, 264.7278
347.7277, 264.8339
348.2098, 265.3129
348.6920, 266.1799
349.1741, 267.1636
349.6562, 267.9537
350.1383, 268.5110
350.6204, 269.0689
351.1025, 269.4848
351.5847, 270.0289
352.0668, 271.0604
352.5489, 272.3668
353.0310, 273.3853
353.5131, 273.7085
353.9952, 273.3743
354.4774, 272.7460
354.9595, 271.2462
355.4416, 270.1222
355.9237, 270.1685
356.4058, 270.5727
356.8879, 270.1391
357.3701, 268.3269
357.8522, 265.7137
358.3343, 263.6529
358.8164, 263.0383
359.2985, 261.5646
359.7806, 258.5113
360.2627, 255.1029
360.7448, 252.3526
361.2270, 250.3922
361.7091, 248.6544
362.1912, 246.4528
362.6733, 243.6819
363.1554, 240.9002
363.6375, 237.9197
364.1197, 235.1125
364.6018, 232.8802
365.0839, 230.9576
365.5660, 228.7522
366.0481, 225.7949
366.5302, 222.1888
367.0124, 218.7265
367.4945, 215.4169
367.9766, 212.2665
368.4587, 209.2227
368.9408, 206.3605
369.4229, 203.8881
369.9051, 201.9102
370.3872, 200.0191
370.8693, 197.3121
371.3514, 193.2642
371.8335, 189.7747
372.3156, 187.2468
372.7978, 185.1618
373.2799, 183.4108
373.7620, 181.8778
374.2441, 180.1404
374.7262, 177.6682
375.2083, 174.4251
375.6905, 171.3860
376.1726, 168.5449
376.6547, 165.9414
377.1368, 163.6051
377.6189, 161.4953
378.1010, 159.5974
378.5832, 158.0285
379.0653, 156.5518
379.5474, 154.4048
380.0295, 151.2256
380.5116, 148.3355
380.9937, 146.3736
381.4759, 144.8628
381.9580, 143.4079
382.4401, 141.9199
382.9222, 140.4290
383.4043, 139.1437
383.8864, 138.0557
384.3686, 136.3089
384.8507, 133.0546
385.3328, 129.7969
385.8149, 127.8770
386.2970, 127.1923
386.7791, 126.6312
387.2613, 125.5322
387.7434, 124.1380
388.2255, 123.1311
388.7076, 122.7348
389.1897, 122.1160
389.6718, 120.3216
390.1540, 117.8958
390.6361, 115.9353
391.1182, 114.9016
391.6003, 114.1520
392.0824, 113.1172
392.5645, 111.8273
393.0467, 110.5745
393.5288, 109.4641
394.0109, 108.4777
394.4930, 107.5571
394.9751, 106.6825
395.4572, 105.9268
395.9394, 105.4014
396.4215, 104.9933
396.9036, 104.5023
397.3857, 103.8741
397.8678, 103.2565
398.3499, 102.8821
398.8321, 102.7697
399.3142, 102.2443
399.7963, 100.8463
400.2784, 99.37070
400.7605, 98.34386
401.2426, 97.73901
401.7247, 97.32126
402.2068, 96.97153
402.6890, 96.68066
403.1711, 96.41959
403.6532, 96.33537
404.1353, 96.09388
404.6174, 95.45534
405.0995, 94.69830
405.5817, 94.16982
406.0638, 93.97251
406.5459, 93.97851
407.0280, 94.03191
407.5101, 94.19402
407.9922, 94.19556
408.4744, 93.90718
408.9565, 93.59645
409.4386, 93.41631
409.9207, 93.34670
410.4028, 93.28040
410.8849, 93.13734
411.3671, 92.93159
411.8492, 92.77050
412.3313, 92.81093
412.8134, 92.69264
413.2955, 92.02366
413.7776, 91.33381
414.2598, 91.34929
414.7419, 92.26450
415.2240, 93.37792
415.7061, 93.53342
416.1882, 92.36677
416.6703, 91.51493
417.1525, 91.08096
417.6346, 90.96534
418.1167, 91.36771
418.5988, 92.10349
419.0809, 92.65011
419.5630, 92.56540
420.0452, 92.01820
420.5273, 91.71898
421.0094, 91.71726
421.4915, 91.87362
421.9736, 92.31382
422.4557, 92.79514
422.9379, 92.98457
423.4200, 92.74242
423.9021, 92.49120
424.3842, 92.80510
424.8663, 93.65087
425.3484, 94.19301
425.8306, 94.15170
426.3127, 93.88035
426.7948, 93.66335
427.2769, 93.50086
427.7590, 93.40179
428.2411, 93.38701
428.7233, 93.43019
429.2054, 93.45591
429.6875, 93.45147
430.1696, 93.60913
430.6517, 94.20274
431.1339, 94.99580
431.6160, 95.31489
432.0981, 95.01862
432.5802, 94.46948
433.0623, 93.56387
433.5444, 92.56669
434.0266, 92.06113
434.5087, 92.24392
434.9908, 92.82977
435.4729, 93.55356
435.9550, 94.55289
436.4371, 94.94941
436.9193, 94.22469
437.4014, 93.28444
437.8835, 92.77596
438.3656, 92.64507
438.8477, 92.46159
439.3298, 91.92361
439.8120, 91.12669
440.2941, 90.59944
440.7762, 90.88731
441.2583, 90.76280
441.7404, 89.68217
442.2225, 88.34750
442.7046, 87.55586
443.1867, 87.46944
443.6689, 87.54990
444.1510, 87.06233
444.6331, 85.81362
445.1152, 84.96098
445.5973, 85.05567
446.0794, 85.00351
446.5616, 84.33074
447.0437, 83.24349
447.5258, 82.12804
448.0079, 81.17993
448.4900, 80.41289
448.9721, 79.87261
449.4543, 79.59202
449.9364, 79.44770
450.4185, 79.61297
450.9006, 79.76733
451.3827, 79.66885
451.8648, 79.29859
452.3470, 78.83198
452.8291, 78.39848
453.3112, 77.98199
453.7933, 77.47960
454.2754, 76.79036
454.7575, 76.25182
455.2397, 76.30295
455.7218, 76.62839
456.2039, 76.67339
456.6860, 76.15997
457.1681, 75.55901
457.6502, 75.17867
458.1324, 75.02666
458.6145, 75.18535
459.0966, 75.77652
459.5787, 76.50381
460.0608, 76.89971
460.5429, 76.94507
461.0251, 77.02898
461.5072, 77.33955
461.9893, 77.63449
462.4714, 77.63345
462.9535, 77.36998
463.4356, 77.11523
463.9178, 77.01982
464.3999, 77.10061
464.8820, 77.46220
465.3641, 78.65357
465.8462, 79.40709
466.3283, 79.07353
466.8105, 78.46049
467.2926, 78.54959
467.7747, 79.50915
468.2568, 80.63525
468.7389, 81.05196
469.2210, 80.60457
469.7032, 80.49419
470.1853, 80.88795
470.6674, 81.45528
471.1495, 82.19112
471.6316, 83.01897
472.1137, 83.82240
472.5959, 84.54260
473.0780, 85.24585
473.5601, 86.14348
474.0422, 87.37516
474.5243, 88.19319
475.0064, 88.01924
475.4886, 87.74322
475.9707, 87.99935
476.4528, 88.70592
476.9349, 89.27507
477.4170, 89.26826
477.8991, 88.88699
478.3813, 88.48486
478.8634, 88.00334
479.3455, 87.89108
479.8276, 88.64431
480.3097, 89.79940
480.7918, 90.50330
481.2740, 90.59021
481.7561, 90.59849
482.2382, 90.61423
482.7203, 90.77846
483.2024, 91.54098
483.6845, 93.02570
484.1666, 94.37821
484.6487, 94.69894
485.1309, 93.93987
485.6130, 93.60469
486.0951, 93.79713
486.5772, 94.27036
487.0593, 95.08213
487.5414, 96.07355
488.0236, 97.04001
488.5057, 97.90202
488.9878, 98.54149
489.4699, 98.69643
489.9520, 98.00687
490.4341, 97.72282
490.9163, 97.94872
491.3984, 98.40872
491.8805, 99.20155
492.3626, 100.1122
492.8447, 100.6727
493.3268, 100.5355
493.8090, 99.96246
494.2911, 99.62843
494.7732, 99.37119
495.2553, 99.80064
495.7374, 102.2169
496.2195, 104.5618
496.7017, 104.9890
497.1838, 103.5379
497.6659, 102.3105
498.1480, 103.1978
498.6301, 105.4032
499.1122, 106.6298
499.5944, 106.6131
500.0765, 106.5001
500.5586, 106.9253
501.0407, 107.7072
501.5228, 108.4467
502.0049, 109.0966
502.4871, 109.7646
502.9692, 110.4785
503.4513, 111.2568
503.9334, 112.2415
504.4155, 113.4671
504.8976, 114.5470
505.3798, 115.0818
505.8619, 115.0397
506.3440, 114.9320
506.8261, 114.6836
507.3082, 114.4621
507.7903, 114.3161
508.2725, 114.2414
508.7546, 114.2480
509.2367, 114.3361
509.7188, 114.4515
510.2009, 114.5619
510.6830, 114.8180
511.1652, 114.5578
511.6473, 113.2420
512.1294, 111.9433
512.6115, 111.1619
513.0936, 110.6975
513.5757, 110.0824
514.0579, 109.0443
514.5400, 107.8341
515.0221, 106.9172
515.5042, 106.3233
515.9863, 105.7756
516.4684, 105.2596
516.9506, 104.7170
517.4327, 104.0980
517.9148, 103.4089
518.3969, 102.7032
518.8790, 102.0836
519.3611, 101.4100
519.8433, 100.3438
520.3254, 98.93174
520.8075, 97.86340
521.2896, 97.54750
521.7717, 97.68294
522.2538, 97.59880
522.7360, 97.26611
523.2181, 96.85445
523.7002, 96.38957
524.1823, 95.86040
524.6644, 95.09170
525.1465, 94.19466
525.6287, 93.66541
526.1108, 93.92194
526.5929, 94.77673
527.0750, 95.24492
527.5571, 95.09760
528.0392, 94.85615
528.5214, 94.58233
529.0035, 94.23022
529.4856, 93.69411
529.9677, 93.00537
530.4498, 92.37261
530.9319, 91.99960
531.4141, 91.84600
531.8962, 91.65059
532.3783, 91.36317
532.8604, 91.15145
533.3425, 91.27237
533.8246, 91.41660
534.3068, 91.23115
534.7889, 90.63345
535.2710, 89.92662
535.7531, 89.19309
536.2352, 88.51225
536.7173, 88.09676
537.1995, 87.99065
537.6816, 87.92928
538.1637, 87.75522
538.6458, 87.45598
539.1279, 87.00300
539.6100, 86.25322
540.0922, 85.53931
540.5743, 85.00713
541.0564, 84.53533
541.5385, 83.89483
542.0206, 83.07706
542.5027, 82.39799
542.9849, 82.25325
543.4670, 82.66495
543.9491, 82.62295
544.4312, 81.63928
544.9133, 80.76915
545.3954, 80.33500
545.8775, 80.06230
546.3596, 79.70292
546.8417, 79.17664
547.3239, 78.41396
547.8060, 77.16002
548.2881, 75.48579
548.7702, 74.36622
549.2523, 74.13169
549.7344, 73.84321
550.2166, 72.71351
550.6987, 71.21017
551.1808, 70.04595
551.6629, 69.41650
552.1450, 68.96256
552.6271, 68.62136
553.1093, 68.26303
553.5914, 67.53481
554.0735, 66.35786
554.5556, 65.15913
555.0377, 64.34136
555.5198, 63.89613
556.0020, 63.36637
556.4841, 62.79913
556.9662, 62.10590
557.4483, 61.08345
557.9304, 60.00134
558.4125, 59.17491
558.8947, 58.68232
559.3768, 58.44500
559.8589, 58.47026
560.3410, 58.77494
560.8231, 58.56391
561.3052, 57.49405
561.7874, 56.39082
562.2695, 55.29071
562.7516, 54.40777
563.2337, 54.04637
563.7158, 54.30141
564.1979, 54.75417
564.6801, 55.12474
565.1622, 55.40746
565.6443, 55.58804
566.1264, 55.66936
566.6085, 55.61732
567.0906, 55.31506
567.5728, 54.86990
568.0549, 54.69382
568.5370, 55.05183
569.0191, 55.26121
569.5012, 54.83410
569.9833, 54.25724
570.4655, 54.20497
570.9476, 54.73614
571.4297, 55.36154
571.9118, 55.64577
572.3939, 55.61372
572.8760, 55.56848
573.3582, 55.39288
573.8403, 55.37215
574.3224, 55.73890
574.8045, 56.14291
575.2866, 56.16322
575.7687, 55.81109
576.2509, 55.59425
576.7330, 56.06612
577.2151, 57.02141
577.6972, 57.67088
578.1793, 57.98075
578.6614, 58.12547
579.1436, 58.12302
579.6257, 58.02411
580.1078, 57.91990
580.5899, 57.82317
581.0720, 57.65400
581.5541, 57.25216
582.0363, 56.84304
582.5184, 56.75260
583.0005, 56.94103
583.4826, 57.03032
583.9647, 56.76844
584.4468, 56.32068
