##NAMES=Andradite
##RRUFFID=R100049
##IDEAL CHEMISTRY=Ca_3_Fe^3+^_2_(SiO_4_)_3_
##LOCALITY=Langban, Filipstad, Varmland, Sweden
##OWNER=RRUFF
##SOURCE=William W Pinch
##DESCRIPTION=Yellowish orange transparent crystals associated with phenakite
##STATUS=The identification of this mineral has been confirmed only by single crystal X-ray diffraction.
##URL=rruff.info/R100049
90.01007, 0.0000000E+00
90.49219, 8.675754
90.97430, 8.676200
91.45642, 8.676649
91.93854, 8.583064
92.42065, 8.517894
92.90277, 8.746597
93.38489, 9.356715
93.86700, 9.947036
94.34912, 9.958787
94.83124, 9.470138
95.31335, 8.925482
95.79547, 8.535818
96.27759, 8.300328
96.75970, 8.220480
97.24182, 8.338096
97.72394, 8.563130
98.20605, 8.721045
98.68817, 8.812014
99.17029, 8.835468
99.65240, 8.745136
100.1345, 8.526835
100.6166, 8.416059
101.0988, 8.511705
101.5809, 8.772664
102.0630, 8.836866
102.5451, 8.649206
103.0272, 8.364058
103.5093, 8.141850
103.9915, 7.995825
104.4736, 7.883780
104.9557, 7.797053
105.4378, 7.735646
105.9199, 7.705815
106.4020, 7.745926
106.8842, 7.798841
107.3663, 7.762313
107.8484, 7.584078
108.3305, 7.377009
108.8126, 7.180102
109.2947, 7.009700
109.7769, 6.821434
110.2590, 6.508365
110.7411, 6.158031
111.2232, 6.050643
111.7053, 6.422656
112.1874, 6.875342
112.6696, 7.227320
113.1517, 7.350356
113.6338, 7.491648
114.1159, 7.781774
114.5980, 8.173417
115.0801, 8.333017
115.5623, 8.010372
116.0444, 7.506075
116.5265, 7.054451
117.0086, 6.751998
117.4907, 6.475800
117.9728, 6.088409
118.4550, 5.578197
118.9371, 5.322924
119.4192, 5.681137
119.9013, 6.349376
120.3834, 6.935720
120.8655, 7.411964
121.3477, 7.667408
121.8298, 7.509845
122.3119, 6.842801
122.7940, 6.232705
123.2761, 6.088701
123.7582, 6.303367
124.2404, 6.637426
124.7225, 7.099254
125.2046, 7.564151
125.6867, 7.863338
126.1688, 7.950202
126.6509, 7.929403
127.1331, 7.762171
127.6152, 7.515080
128.0973, 7.518888
128.5794, 8.317844
129.0615, 9.545164
129.5436, 10.27547
130.0258, 10.12088
130.5079, 9.583131
130.9900, 9.529306
131.4721, 9.959554
131.9542, 10.60774
132.4363, 11.25147
132.9185, 11.90872
133.4006, 12.71090
133.8827, 13.74576
134.3648, 14.93702
134.8469, 16.00762
135.3290, 16.89553
135.8112, 17.94105
136.2933, 19.62194
136.7754, 21.98732
137.2575, 24.32245
137.7396, 26.36797
138.2217, 28.10060
138.7039, 29.98391
139.1860, 32.05099
139.6681, 34.22217
140.1502, 36.46558
140.6323, 38.81651
141.1144, 41.04955
141.5966, 43.08866
142.0787, 44.91665
142.5608, 46.56630
143.0429, 48.00437
143.5250, 49.28053
144.0071, 50.45631
144.4893, 51.37373
144.9714, 52.43145
145.4535, 53.72944
145.9356, 54.99360
146.4177, 57.12986
146.8998, 60.64371
147.3820, 65.10509
147.8641, 68.85024
148.3462, 71.18800
148.8283, 73.41267
149.3104, 76.23683
149.7925, 79.92628
150.2747, 83.85880
150.7568, 88.04053
151.2389, 92.44719
151.7210, 96.79281
152.2031, 101.1576
152.6852, 105.3696
153.1674, 109.3703
153.6495, 113.0034
154.1316, 116.5461
154.6137, 120.1105
155.0958, 123.7027
155.5779, 126.9665
156.0601, 129.5371
156.5422, 131.9141
157.0243, 134.4945
157.5064, 137.5366
157.9885, 140.6165
158.4706, 143.5209
158.9528, 146.1847
159.4349, 149.1847
159.9170, 152.8137
160.3991, 156.8144
160.8812, 160.8894
161.3633, 164.7484
161.8455, 168.8277
162.3276, 173.2627
162.8097, 177.9571
163.2918, 183.2621
163.7739, 189.5488
164.2560, 196.2560
164.7382, 201.5684
165.2203, 206.6760
165.7024, 211.4736
166.1845, 215.6299
166.6666, 219.0872
167.1487, 222.0758
167.6309, 224.2529
168.1130, 226.0825
168.5951, 228.5063
169.0772, 232.8240
169.5593, 237.4809
170.0414, 241.0733
170.5236, 243.0748
171.0057, 244.7056
171.4878, 246.9144
171.9699, 249.5214
172.4520, 251.9334
172.9341, 253.4144
173.4163, 254.6837
173.8984, 256.6889
174.3805, 260.0465
174.8626, 263.5088
175.3447, 266.1521
175.8268, 268.0050
176.3090, 269.1720
176.7911, 269.9615
177.2732, 270.0775
177.7553, 268.9578
178.2374, 266.1484
178.7195, 262.3985
179.2017, 258.7995
179.6838, 255.2442
180.1659, 250.9979
180.6480, 244.6938
181.1301, 237.2390
181.6122, 230.6460
182.0944, 225.7989
182.5765, 221.8984
183.0586, 217.4452
183.5407, 212.5218
184.0228, 207.6161
184.5049, 203.1876
184.9871, 199.1652
185.4692, 195.4721
185.9513, 192.0067
186.4334, 188.8499
186.9155, 186.1532
187.3976, 183.9444
187.8798, 182.0047
188.3619, 180.1606
188.8440, 178.3955
189.3261, 176.7162
189.8082, 175.0273
190.2903, 173.4139
190.7725, 172.1581
191.2546, 171.2505
191.7367, 170.6595
192.2188, 170.6293
192.7009, 171.1053
193.1830, 171.0047
193.6652, 169.3446
194.1473, 166.5512
194.6294, 165.6165
195.1115, 166.8186
195.5936, 168.9272
196.0757, 170.4437
196.5579, 171.3568
197.0400, 172.0637
197.5221, 172.5944
198.0042, 172.9749
198.4863, 173.7162
198.9684, 174.9036
199.4506, 176.2606
199.9327, 177.3968
200.4148, 178.3148
200.8969, 179.0513
201.3790, 179.4199
201.8611, 179.3819
202.3433, 180.1230
202.8254, 181.7908
203.3075, 183.9996
203.7896, 186.1523
204.2717, 188.2820
204.7538, 190.2352
205.2360, 191.8471
205.7181, 193.0489
206.2002, 194.5820
206.6823, 196.5961
207.1644, 198.7590
207.6465, 200.3045
208.1287, 200.9436
208.6108, 201.9262
209.0929, 203.9408
209.5750, 207.2444
210.0571, 210.2399
210.5392, 212.8665
211.0214, 215.2678
211.5035, 217.6721
211.9856, 219.9507
212.4677, 222.5291
212.9498, 225.6625
213.4319, 229.4438
213.9140, 233.3103
214.3962, 237.3920
214.8783, 241.4846
215.3604, 244.8781
215.8425, 247.1184
216.3246, 249.7360
216.8067, 253.6279
217.2889, 259.2576
217.7710, 264.3928
218.2531, 268.8617
218.7352, 272.8717
219.2173, 276.9979
219.6994, 281.2266
220.1816, 285.6215
220.6637, 290.2154
221.1458, 294.8613
221.6279, 300.2096
222.1100, 306.5316
222.5921, 313.4760
223.0743, 320.2955
223.5564, 326.7451
224.0385, 333.4453
224.5206, 340.5274
225.0027, 348.1183
225.4848, 355.9791
225.9670, 363.8781
226.4491, 372.0458
226.9312, 381.4059
227.4133, 392.5951
227.8954, 403.8648
228.3775, 414.0047
228.8597, 422.2707
229.3418, 431.7164
229.8239, 442.9620
230.3060, 455.2654
230.7881, 466.2184
231.2702, 475.5190
231.7524, 484.1118
232.2345, 492.6064
232.7166, 502.5103
233.1987, 509.0907
233.6808, 511.9827
234.1629, 511.6467
234.6451, 509.4221
235.1272, 506.2527
235.6093, 499.8365
236.0914, 488.8202
236.5735, 471.2431
237.0556, 453.5438
237.5378, 435.5403
238.0199, 417.4878
238.5020, 400.0751
238.9841, 383.1534
239.4662, 366.7991
239.9483, 350.8456
240.4305, 334.9808
240.9126, 320.5755
241.3947, 307.5861
241.8768, 296.0493
242.3589, 286.1788
242.8410, 278.5796
243.3232, 271.7101
243.8053, 264.8967
244.2874, 257.5459
244.7695, 251.6919
245.2516, 247.6817
245.7337, 244.9873
246.2159, 242.5000
246.6980, 240.3665
247.1801, 238.2054
247.6622, 235.7654
248.1443, 232.7071
248.6264, 230.3553
249.1086, 228.9795
249.5907, 228.1635
250.0728, 226.9796
250.5549, 224.9728
251.0370, 223.3664
251.5191, 222.7584
252.0013, 223.6110
252.4834, 223.8828
252.9655, 223.2691
253.4476, 222.2506
253.9297, 221.7830
254.4118, 222.2589
254.8940, 222.5522
255.3761, 222.2081
255.8582, 221.0291
256.3403, 219.9824
256.8224, 219.0737
257.3046, 218.2940
257.7867, 217.6365
258.2688, 217.0666
258.7509, 216.6997
259.2330, 216.7217
259.7151, 217.3184
260.1973, 217.2164
260.6794, 216.3060
261.1615, 214.8159
261.6436, 212.9969
262.1257, 210.6042
262.6078, 208.4538
263.0900, 206.9256
263.5721, 206.1099
264.0542, 204.8639
264.5363, 203.0470
265.0184, 200.9488
265.5005, 198.8864
265.9827, 196.9387
266.4648, 194.8175
266.9469, 192.2939
267.4290, 189.3513
267.9111, 187.1544
268.3932, 185.8928
268.8754, 185.1082
269.3575, 184.3357
269.8396, 183.5842
270.3217, 182.7852
270.8038, 181.9071
271.2859, 180.9501
271.7681, 180.0529
272.2502, 179.2260
272.7323, 178.4395
273.2144, 177.6712
273.6965, 176.9039
274.1786, 176.2366
274.6608, 175.7182
275.1429, 175.3232
275.6250, 174.7669
276.1071, 173.9322
276.5892, 173.2736
277.0714, 173.3313
277.5535, 174.1944
278.0356, 174.9288
278.5177, 175.2905
278.9998, 175.4121
279.4819, 175.8053
279.9641, 176.4741
280.4462, 177.4224
280.9283, 178.8020
281.4104, 180.6236
281.8925, 182.1717
282.3746, 183.2248
282.8568, 184.0211
283.3389, 185.2484
283.8210, 186.9375
284.3031, 188.8102
284.7852, 190.7111
285.2673, 192.6224
285.7495, 194.5180
286.2316, 196.3255
286.7137, 198.2044
287.1958, 200.5358
287.6779, 203.3269
288.1600, 206.2601
288.6422, 209.0160
289.1243, 211.7010
289.6064, 214.8663
290.0885, 218.6179
290.5706, 222.7995
291.0527, 227.2752
291.5349, 232.0289
292.0170, 236.8245
292.4991, 241.2504
292.9812, 245.5712
293.4633, 250.6978
293.9454, 256.8277
294.4276, 263.2753
294.9097, 268.9686
295.3918, 274.0749
295.8739, 279.3663
296.3560, 285.4083
296.8381, 291.8680
297.3203, 297.7539
297.8024, 302.9763
298.2845, 308.0343
298.7666, 313.4042
299.2487, 318.9864
299.7308, 324.6448
300.2130, 330.5755
300.6951, 336.4518
301.1772, 341.4918
301.6593, 345.6794
302.1414, 350.2097
302.6235, 355.9193
303.1057, 362.7165
303.5878, 370.2708
304.0699, 378.6132
304.5520, 387.6590
305.0341, 397.3957
305.5162, 407.7662
305.9984, 418.7370
306.4805, 429.9685
306.9626, 441.7924
307.4447, 454.6320
307.9268, 469.8203
308.4089, 484.6563
308.8911, 496.9973
309.3732, 507.0342
309.8553, 515.5661
310.3374, 523.5108
310.8195, 529.9938
311.3016, 534.0726
311.7838, 535.5658
312.2659, 534.6248
312.7480, 531.3344
313.2301, 525.6837
313.7122, 517.6075
314.1943, 505.6261
314.6765, 492.0613
315.1586, 478.3134
315.6407, 464.4753
316.1228, 450.9969
316.6049, 437.7109
317.0870, 425.0321
317.5692, 413.8311
318.0513, 404.5594
318.5334, 396.5712
319.0155, 389.3393
319.4976, 382.5730
319.9797, 377.8430
320.4619, 376.2749
320.9440, 376.7806
321.4261, 378.1486
321.9082, 379.9832
322.3903, 382.7220
322.8724, 386.8011
323.3546, 392.2470
323.8367, 397.6201
324.3188, 402.5800
324.8009, 407.4344
325.2830, 412.3628
325.7651, 418.9691
326.2473, 423.9719
326.7294, 426.7734
327.2115, 427.4950
327.6936, 427.0810
328.1757, 425.1001
328.6578, 422.3548
329.1400, 419.2123
329.6221, 415.0710
330.1042, 411.3774
330.5863, 407.8239
331.0684, 404.6985
331.5505, 402.8925
332.0327, 402.5313
332.5148, 403.3026
332.9969, 405.2005
333.4790, 408.4833
333.9611, 412.0419
334.4432, 415.8166
334.9254, 419.9140
335.4075, 424.3527
335.8896, 428.8028
336.3717, 434.3672
336.8538, 441.6674
337.3359, 451.0124
337.8180, 459.3014
338.3001, 465.9165
338.7823, 472.4120
339.2644, 480.5458
339.7465, 490.6992
340.2286, 501.0493
340.7107, 511.0910
341.1928, 521.0024
341.6750, 530.6399
342.1571, 539.7731
342.6392, 549.9381
343.1213, 563.1959
343.6034, 579.4836
344.0855, 594.9619
344.5677, 608.4476
345.0498, 621.1573
345.5319, 635.4821
346.0140, 651.4205
346.4961, 668.9089
346.9782, 687.9105
347.4604, 708.5339
347.9425, 730.4322
348.4246, 753.8702
348.9067, 778.4090
349.3888, 803.6044
349.8709, 829.4825
350.3531, 856.1479
350.8352, 883.5724
351.3173, 912.2466
351.7994, 941.2510
352.2815, 972.0878
352.7636, 1003.424
353.2458, 1035.424
353.7279, 1067.335
354.2100, 1097.474
354.6921, 1123.206
355.1742, 1148.091
355.6563, 1176.777
356.1385, 1208.816
356.6206, 1240.820
357.1027, 1268.966
357.5848, 1296.233
358.0669, 1326.469
358.5490, 1360.695
359.0312, 1397.884
359.5133, 1436.709
359.9954, 1477.977
360.4775, 1524.627
360.9596, 1579.529
361.4417, 1639.256
361.9239, 1701.269
362.4060, 1763.391
362.8881, 1832.920
363.3702, 1914.008
363.8523, 2003.921
364.3344, 2098.481
364.8166, 2198.142
365.2987, 2301.628
365.7808, 2407.941
366.2629, 2518.743
366.7450, 2626.235
367.2271, 2736.262
367.7093, 2839.063
368.1914, 2926.062
368.6735, 3005.740
369.1556, 3059.732
369.6377, 3086.195
370.1198, 3085.588
370.6020, 3054.425
371.0841, 2988.003
371.5662, 2895.031
372.0483, 2779.906
372.5304, 2633.149
373.0125, 2479.547
373.4947, 2316.743
373.9768, 2149.910
374.4589, 1987.857
374.9410, 1827.555
375.4231, 1677.553
375.9052, 1539.878
376.3874, 1414.273
376.8695, 1299.600
377.3516, 1194.626
377.8337, 1100.714
378.3158, 1017.231
378.7979, 944.3104
379.2801, 878.9757
379.7622, 820.2123
380.2443, 768.1473
380.7264, 721.1080
381.2085, 679.4421
381.6906, 642.0613
382.1728, 608.9185
382.6549, 579.4197
383.1370, 551.8162
383.6191, 525.4831
384.1012, 500.9693
384.5833, 478.5728
385.0655, 458.3067
385.5476, 440.3162
386.0297, 424.9785
386.5118, 411.6177
386.9939, 398.6959
387.4760, 386.1493
387.9582, 374.2243
388.4403, 362.6939
388.9224, 351.8403
389.4045, 342.3110
389.8866, 335.2091
390.3687, 328.8354
390.8509, 321.6551
391.3330, 313.7989
391.8151, 306.4731
392.2972, 300.9115
392.7793, 296.0649
393.2614, 290.8523
393.7436, 284.4523
394.2257, 278.5220
394.7078, 273.9658
395.1899, 270.4757
395.6720, 267.2434
396.1541, 264.0908
396.6363, 261.0794
397.1184, 258.2903
397.6005, 255.8493
398.0826, 253.2634
398.5647, 250.2160
399.0468, 247.0683
399.5290, 244.2578
400.0111, 241.9601
400.4932, 239.8486
400.9753, 237.8887
401.4574, 236.0721
401.9395, 234.3648
402.4217, 232.6638
402.9038, 231.1597
403.3859, 230.0130
403.8680, 229.3976
404.3501, 228.7119
404.8322, 227.8819
405.3144, 226.9737
405.7965, 226.2658
406.2786, 225.8954
406.7607, 225.2536
407.2428, 223.8578
407.7249, 221.6601
408.2071, 220.2393
408.6892, 219.7360
409.1713, 219.5642
409.6534, 218.9198
410.1355, 217.8401
410.6176, 217.0507
411.0998, 216.9527
411.5819, 217.1560
412.0640, 216.6172
412.5461, 215.3672
413.0282, 214.0678
413.5103, 213.2392
413.9925, 212.7383
414.4746, 212.2942
414.9567, 211.9019
415.4388, 211.4373
415.9209, 210.5920
416.4030, 209.5561
416.8852, 208.7792
417.3673, 208.9143
417.8494, 209.1333
418.3315, 208.6019
418.8136, 207.2673
419.2957, 206.0481
419.7779, 205.4201
420.2600, 205.1868
420.7421, 205.1633
421.2242, 205.9167
421.7063, 206.2212
422.1884, 205.4062
422.6706, 203.7604
423.1527, 202.3411
423.6348, 201.6443
424.1169, 201.0432
424.5990, 200.1566
425.0811, 198.5097
425.5633, 197.6430
426.0454, 198.2807
426.5275, 199.4359
427.0096, 199.8293
427.4917, 198.7623
427.9738, 197.9954
428.4560, 197.9809
428.9381, 198.6787
429.4202, 199.1769
429.9023, 199.4252
430.3844, 199.5540
430.8665, 199.5866
431.3487, 199.4649
431.8308, 199.5792
432.3129, 199.9344
432.7950, 200.5730
433.2771, 201.7431
433.7592, 203.4613
434.2414, 204.9975
434.7235, 205.9175
435.2056, 206.3636
435.6877, 206.8574
436.1698, 207.3869
436.6519, 208.0610
437.1341, 209.0688
437.6162, 210.3001
438.0983, 211.4854
438.5804, 212.5081
439.0625, 213.5172
439.5446, 214.8213
440.0268, 216.3012
440.5089, 217.5181
440.9910, 217.8021
441.4731, 217.9546
441.9552, 218.7658
442.4373, 220.4223
442.9195, 222.1633
443.4016, 223.2363
443.8837, 224.2939
444.3658, 226.1297
444.8479, 229.9905
445.3300, 233.6468
445.8122, 236.2494
446.2943, 237.8978
446.7764, 239.7995
447.2585, 241.5871
447.7406, 244.0818
448.2227, 247.7988
448.7049, 253.4287
449.1870, 258.8773
449.6691, 264.1106
450.1512, 269.1562
450.6333, 273.9982
451.1154, 278.8532
451.5976, 283.1494
452.0797, 286.8364
452.5618, 289.8901
453.0439, 291.7656
453.5260, 292.5527
454.0081, 291.8000
454.4903, 288.9933
454.9724, 284.1706
455.4545, 277.9930
455.9366, 270.3799
456.4187, 261.8901
456.9008, 253.1536
457.3830, 244.2053
457.8651, 236.2651
458.3472, 229.9633
458.8293, 224.8969
459.3114, 220.2855
459.7935, 216.1581
460.2757, 212.4207
460.7578, 208.8925
461.2399, 205.7883
461.7220, 203.4346
462.2041, 202.0093
462.6862, 201.1433
463.1684, 200.8467
463.6505, 200.9271
464.1326, 200.9484
464.6147, 200.3920
465.0968, 200.0115
465.5789, 200.3161
466.0611, 201.4446
466.5432, 202.3981
467.0253, 202.6783
467.5074, 202.8538
467.9895, 203.3969
468.4716, 204.3489
468.9538, 205.6725
469.4359, 207.4639
469.9180, 209.6090
470.4001, 211.8038
470.8822, 214.1745
471.3643, 216.3399
471.8465, 217.9713
472.3286, 218.9429
472.8107, 220.8377
473.2928, 223.8346
473.7749, 227.2586
474.2570, 230.2041
474.7392, 232.6799
475.2213, 235.6888
475.7034, 239.6098
476.1855, 243.9931
476.6676, 247.8389
477.1497, 251.2270
477.6319, 254.7318
478.1140, 258.7063
478.5961, 263.0512
479.0782, 267.7261
479.5603, 272.7566
480.0424, 277.6727
480.5246, 281.7617
481.0067, 285.5886
481.4888, 289.9616
481.9709, 295.3464
482.4530, 301.1429
482.9352, 307.1506
483.4173, 313.3387
483.8994, 319.6120
484.3815, 325.6876
484.8636, 332.0676
485.3457, 338.9095
485.8279, 346.1822
486.3100, 354.2134
486.7921, 363.6588
487.2742, 373.5194
487.7563, 382.9632
488.2384, 391.2638
488.7206, 400.5222
489.2027, 411.3180
489.6848, 423.1805
490.1669, 434.3131
490.6490, 444.4731
491.1311, 454.3805
491.6133, 464.5652
492.0954, 475.0479
492.5775, 484.1881
493.0596, 492.1202
493.5417, 497.9138
494.0238, 500.3925
494.5060, 499.8137
494.9881, 497.2003
495.4702, 492.7594
495.9523, 486.5002
496.4344, 477.7523
496.9165, 467.0335
497.3987, 456.3369
497.8808, 445.9962
498.3629, 436.5511
498.8450, 428.1548
499.3271, 420.6929
499.8092, 415.5415
500.2914, 413.6206
500.7735, 414.2081
501.2556, 416.5676
501.7377, 420.8022
502.2198, 426.4291
502.7019, 433.2370
503.1841, 441.3747
503.6662, 451.2700
504.1483, 463.9510
504.6304, 477.5297
505.1125, 491.1680
505.5946, 504.7126
506.0768, 520.1964
506.5589, 537.5132
507.0410, 556.7945
507.5231, 578.1635
508.0052, 601.5446
508.4873, 626.9323
508.9695, 653.7147
509.4516, 682.7189
509.9337, 715.3055
510.4158, 751.4408
510.8979, 790.3298
511.3800, 831.9724
511.8622, 876.3544
512.3443, 924.0536
512.8264, 974.6547
513.3085, 1028.056
513.7906, 1084.811
514.2728, 1143.931
514.7549, 1204.970
515.2370, 1269.298
515.7191, 1331.030
516.2012, 1389.115
516.6833, 1441.467
517.1655, 1485.895
517.6476, 1528.621
518.1297, 1556.373
518.6118, 1565.111
519.0939, 1554.881
519.5760, 1527.364
520.0582, 1478.431
520.5403, 1415.547
521.0224, 1340.652
521.5045, 1247.968
521.9866, 1158.523
522.4688, 1071.064
522.9509, 988.1754
523.4330, 911.5442
523.9151, 841.0774
524.3972, 777.1813
524.8793, 720.5859
525.3615, 670.8802
525.8436, 626.6886
526.3257, 587.8402
526.8078, 553.5466
527.2899, 523.7891
527.7720, 497.7177
528.2542, 473.9565
528.7363, 452.5374
529.2184, 433.0491
529.7005, 415.3937
530.1826, 399.6464
530.6647, 386.0844
531.1469, 375.5633
531.6290, 366.1662
532.1111, 357.0577
532.5932, 348.3867
533.0753, 340.4906
533.5574, 333.6218
534.0396, 327.3104
534.5217, 321.2612
535.0038, 315.5034
535.4859, 310.4539
535.9680, 306.3877
536.4501, 302.8005
536.9323, 299.4250
537.4144, 296.1927
537.8965, 293.2856
538.3786, 290.7589
538.8607, 288.4930
539.3428, 286.2494
539.8250, 283.9672
540.3071, 282.3739
540.7892, 281.9808
541.2713, 282.1837
541.7534, 281.3228
542.2355, 279.5130
542.7177, 277.9635
543.1998, 277.4966
543.6819, 277.7479
544.1640, 278.1813
544.6461, 278.7515
545.1282, 279.5332
545.6104, 280.9825
546.0925, 282.4988
546.5746, 283.3596
547.0567, 282.5963
547.5388, 282.2241
548.0209, 282.9777
548.5031, 284.5946
548.9852, 286.5084
549.4673, 288.8855
549.9494, 291.2939
550.4315, 293.6303
550.9136, 295.8952
551.3958, 298.1738
551.8779, 300.5166
552.3600, 302.7958
552.8421, 305.1903
553.3242, 307.8492
553.8063, 309.1856
554.2885, 309.0717
554.7706, 307.8054
555.2527, 305.5832
555.7348, 302.4806
556.2169, 298.9656
556.6990, 295.2787
557.1812, 291.1782
557.6633, 286.1684
558.1454, 280.4125
558.6275, 274.5009
559.1096, 268.7760
559.5917, 263.0782
560.0739, 257.1548
560.5560, 250.9496
561.0381, 245.4194
561.5202, 241.1437
562.0023, 237.6355
562.4844, 234.5868
562.9666, 232.4769
563.4487, 230.0004
563.9308, 226.7003
564.4129, 223.1644
564.8950, 220.2586
565.3771, 218.0047
565.8593, 216.4146
566.3414, 215.6299
566.8235, 215.4984
567.3056, 215.3421
567.7877, 215.1604
568.2698, 214.9535
568.7520, 214.6670
569.2341, 214.3487
569.7162, 214.1028
570.1983, 213.9209
570.6804, 214.0423
571.1625, 214.8543
571.6447, 216.0806
572.1268, 217.2300
572.6089, 218.0372
573.0910, 219.0917
573.5731, 221.3287
574.0552, 223.9920
574.5374, 225.8074
575.0195, 225.2242
575.5016, 224.8599
575.9837, 225.9153
576.4658, 228.2378
576.9479, 229.7372
577.4301, 230.2665
577.9122, 230.0861
578.3943, 229.2857
578.8764, 227.8575
579.3585, 225.7455
579.8406, 222.7176
580.3228, 219.5195
580.8049, 216.9949
581.2870, 215.1088
581.7691, 213.0318
582.2512, 210.5580
582.7333, 208.0235
583.2155, 205.7675
583.6975, 203.8600
584.1796, 202.4224
584.6617, 201.8094
585.1439, 201.4973
585.6260, 201.0749
586.1081, 200.5509
586.5902, 199.9817
587.0723, 199.3311
