##NAMES=Andradite
##RRUFFID=R070722
##IDEAL CHEMISTRY=Ca_3_Fe^3+^_2_(SiO_4_)_3_
##LOCALITY=Otjosondu, Namibia
##OWNER=RRUFF
##SOURCE=Royal Ontario Museum
##DESCRIPTION=Dark red-brown to orange semi-transparent druse of crystals associated with quartz.
##STATUS=The identification of this mineral is confirmed by single-crystal X-ray diffraction and chemical analysis.
##URL=rruff.info/R070722
##MEASURED CHEMISTRY=(Ca_1.77_Mn^2+^_1.27_Mg_0.02_)_Σ=3.06_(Fe^3+^_1.58_Al^3+^_0.38_Ti_0.01_)_Σ=1.97_(SiO_4_)_3_
89.15009, 17573.11
89.63220, 17714.13
90.11432, 17758.42
90.59644, 17912.10
91.07855, 18262.66
91.56067, 18636.23
92.04279, 18955.57
92.52490, 19192.38
93.00702, 19340.30
93.48914, 19379.99
93.97125, 19184.33
94.45337, 19018.30
94.93549, 18791.50
95.41760, 18524.43
95.89972, 18237.10
96.38184, 17868.54
96.86395, 17456.63
97.34607, 17111.88
97.82819, 16835.84
98.31030, 16601.82
98.79242, 16400.93
99.27454, 16230.48
99.75665, 16074.18
100.2388, 15922.20
100.7209, 15775.95
101.2030, 15641.75
101.6851, 15526.53
102.1672, 15421.78
102.6494, 15304.25
103.1315, 15145.09
103.6136, 15020.49
104.0957, 14971.77
104.5778, 14981.17
105.0599, 15006.90
105.5421, 15016.84
106.0242, 15007.83
106.5063, 15008.93
106.9884, 15065.97
107.4705, 15097.51
107.9526, 15054.71
108.4348, 14936.42
108.9169, 14784.82
109.3990, 14661.38
109.8811, 14576.72
110.3632, 14505.62
110.8453, 14448.60
111.3275, 14401.99
111.8096, 14365.90
112.2917, 14340.66
112.7738, 14320.86
113.2559, 14287.01
113.7380, 14219.99
114.2202, 14161.21
114.7023, 14126.70
115.1844, 14107.80
115.6665, 14084.77
116.1486, 14047.08
116.6307, 13992.40
117.1129, 13922.49
117.5950, 13801.57
118.0771, 13690.72
118.5592, 13647.49
119.0413, 13677.87
119.5234, 13720.19
120.0056, 13729.93
120.4877, 13711.63
120.9698, 13668.60
121.4519, 13575.94
121.9340, 13459.62
122.4161, 13381.99
122.8982, 13359.05
123.3804, 13363.65
123.8625, 13384.13
124.3446, 13415.69
124.8267, 13434.32
125.3088, 13411.08
125.7909, 13341.40
126.2731, 13293.90
126.7552, 13296.91
127.2373, 13311.74
127.7194, 13328.92
128.2015, 13344.27
128.6837, 13347.65
129.1658, 13319.15
129.6479, 13230.83
130.1300, 13165.34
130.6121, 13134.51
131.0942, 13122.35
131.5764, 13116.51
132.0585, 13111.58
132.5406, 13108.53
133.0227, 13111.07
133.5048, 13131.67
133.9869, 13144.42
134.4691, 13143.05
134.9512, 13131.98
135.4333, 13118.11
135.9154, 13105.37
136.3975, 13093.95
136.8796, 13085.42
137.3618, 13079.96
137.8439, 13076.67
138.3260, 13071.41
138.8081, 13065.76
139.2902, 13070.67
139.7723, 13101.69
140.2545, 13158.00
140.7366, 13193.07
141.2187, 13197.52
141.7008, 13182.66
142.1829, 13154.74
142.6650, 13110.48
143.1472, 13070.39
143.6293, 13056.85
144.1114, 13065.10
144.5935, 13081.79
145.0756, 13111.83
145.5577, 13147.90
146.0399, 13165.00
146.5220, 13153.54
147.0041, 13126.12
147.4862, 13088.19
147.9683, 13041.10
148.4504, 13002.03
148.9326, 12987.13
149.4147, 12997.93
149.8968, 13015.09
150.3789, 13044.50
150.8610, 13073.74
151.3431, 13092.71
151.8252, 13099.63
152.3074, 13106.03
152.7895, 13133.24
153.2716, 13200.04
153.7537, 13246.56
154.2358, 13256.45
154.7179, 13251.90
155.2001, 13252.52
155.6822, 13266.80
156.1643, 13288.37
156.6464, 13297.15
157.1285, 13265.80
157.6106, 13253.22
158.0928, 13279.14
158.5749, 13324.51
159.0570, 13362.71
159.5391, 13377.16
160.0212, 13370.71
160.5033, 13374.39
160.9855, 13382.20
161.4676, 13404.14
161.9497, 13460.59
162.4318, 13537.71
162.9139, 13596.90
163.3960, 13605.13
163.8782, 13559.86
164.3603, 13534.87
164.8424, 13537.17
165.3245, 13551.55
165.8066, 13576.55
166.2887, 13610.37
166.7709, 13633.89
167.2530, 13622.06
167.7351, 13575.59
168.2172, 13547.00
168.6993, 13548.32
169.1814, 13567.85
169.6636, 13594.86
170.1457, 13630.20
170.6278, 13663.87
171.1099, 13687.59
171.5920, 13702.65
172.0741, 13705.82
172.5563, 13683.00
173.0384, 13646.08
173.5205, 13630.24
174.0026, 13646.25
174.4847, 13679.03
174.9668, 13717.58
175.4490, 13761.24
175.9311, 13799.97
176.4132, 13830.70
176.8953, 13853.27
177.3774, 13857.25
177.8595, 13827.56
178.3417, 13787.58
178.8238, 13744.60
179.3059, 13700.60
179.7880, 13669.55
180.2701, 13665.56
180.7522, 13689.09
181.2344, 13739.36
181.7165, 13876.78
182.1986, 14001.87
182.6807, 14040.89
183.1628, 13975.56
183.6449, 13859.67
184.1271, 13782.30
184.6092, 13760.86
185.0913, 13746.87
185.5734, 13739.43
186.0555, 13733.37
186.5376, 13719.06
187.0198, 13692.81
187.5019, 13667.27
187.9840, 13677.34
188.4661, 13780.91
188.9482, 13847.33
189.4303, 13844.33
189.9125, 13806.86
190.3946, 13775.03
190.8767, 13769.18
191.3588, 13783.84
191.8409, 13793.33
192.3230, 13796.32
192.8052, 13795.62
193.2873, 13777.07
193.7694, 13755.96
194.2515, 13763.93
194.7336, 13825.38
195.2157, 13930.49
195.6979, 13980.92
196.1800, 13929.84
196.6621, 13885.57
197.1442, 13884.13
197.6263, 13921.72
198.1084, 13985.90
198.5906, 14078.61
199.0727, 14192.58
199.5548, 14254.80
200.0369, 14218.94
200.5190, 14175.90
201.0011, 14177.42
201.4833, 14222.99
201.9654, 14285.21
202.4475, 14350.69
202.9296, 14416.88
203.4117, 14469.95
203.8938, 14498.80
204.3760, 14521.17
204.8581, 14555.73
205.3402, 14604.49
205.8223, 14647.57
206.3044, 14653.48
206.7865, 14637.80
207.2687, 14658.75
207.7508, 14758.25
208.2329, 14888.54
208.7150, 14980.76
209.1971, 15021.92
209.6792, 15060.30
210.1614, 15147.60
210.6435, 15263.25
211.1256, 15358.17
211.6077, 15386.18
212.0898, 15384.27
212.5719, 15443.41
213.0541, 15599.15
213.5362, 15751.71
214.0183, 15818.88
214.5004, 15828.29
214.9825, 15847.49
215.4646, 15913.40
215.9468, 16018.46
216.4289, 16131.38
216.9110, 16257.05
217.3931, 16383.72
217.8752, 16508.40
218.3573, 16630.01
218.8395, 16744.52
219.3216, 16845.43
219.8037, 16934.03
220.2858, 17027.85
220.7679, 17117.82
221.2500, 17225.73
221.7322, 17374.52
222.2143, 17552.20
222.6964, 17722.74
223.1785, 17859.03
223.6606, 17960.49
224.1427, 18041.52
224.6249, 18086.97
225.1070, 18123.04
225.5891, 18158.10
226.0712, 18192.34
226.5533, 18223.04
227.0354, 18251.52
227.5176, 18280.85
227.9997, 18284.22
228.4818, 18251.89
228.9639, 18200.36
229.4460, 18135.14
229.9281, 18056.30
230.4103, 17960.00
230.8924, 17841.01
231.3745, 17694.36
231.8566, 17544.33
232.3387, 17374.25
232.8208, 17213.93
233.3030, 17078.79
233.7851, 16968.01
234.2672, 16874.04
234.7493, 16799.35
235.2314, 16775.47
235.7135, 16649.28
236.1957, 16344.11
236.6778, 16017.42
237.1599, 15745.15
237.6420, 15537.02
238.1241, 15367.34
238.6062, 15209.03
239.0884, 15061.56
239.5705, 14928.94
240.0526, 14807.11
240.5347, 14700.54
241.0168, 14618.66
241.4989, 14558.71
241.9811, 14507.42
242.4632, 14452.77
242.9453, 14406.90
243.4274, 14310.74
243.9095, 14127.18
244.3916, 13929.29
244.8738, 13752.38
245.3559, 13606.00
245.8380, 13488.76
246.3201, 13402.12
246.8022, 13359.85
247.2843, 13306.46
247.7665, 13243.15
248.2486, 13168.97
248.7307, 13073.88
249.2128, 12960.47
249.6949, 12853.35
250.1770, 12782.63
250.6592, 12763.87
251.1413, 12730.42
251.6234, 12660.48
252.1055, 12591.45
252.5876, 12560.58
253.0697, 12569.30
253.5519, 12578.04
254.0340, 12541.30
254.5161, 12442.88
254.9982, 12359.16
255.4803, 12291.12
255.9624, 12236.95
256.4445, 12197.91
256.9267, 12173.53
257.4088, 12158.43
257.8909, 12150.99
258.3730, 12155.74
258.8551, 12135.47
259.3372, 12056.80
259.8194, 11974.68
260.3015, 11939.96
260.7836, 11956.69
261.2657, 11984.93
261.7478, 11988.50
262.2299, 11963.17
262.7121, 11926.63
263.1942, 11860.59
263.6763, 11795.58
264.1584, 11758.37
264.6405, 11750.98
265.1227, 11755.58
265.6048, 11757.57
266.0869, 11756.73
266.5690, 11758.17
267.0511, 11761.86
267.5332, 11767.97
268.0154, 11782.76
268.4975, 11805.38
268.9796, 11816.10
269.4617, 11793.03
269.9438, 11736.26
270.4259, 11697.58
270.9081, 11689.14
271.3902, 11691.51
271.8723, 11691.27
272.3544, 11687.53
272.8365, 11682.18
273.3186, 11673.78
273.8008, 11664.37
274.2829, 11667.59
274.7650, 11702.67
275.2471, 11736.35
275.7292, 11734.12
276.2113, 11698.90
276.6935, 11674.59
277.1756, 11694.70
277.6577, 11754.40
278.1398, 11802.46
278.6219, 11835.33
279.1040, 11859.78
279.5862, 11877.21
280.0683, 11888.72
280.5504, 11900.90
281.0325, 11916.22
281.5146, 11936.18
281.9967, 11963.24
282.4789, 11995.57
282.9610, 12036.36
283.4431, 12089.32
283.9252, 12153.40
284.4073, 12222.21
284.8894, 12293.50
285.3716, 12367.02
285.8537, 12442.40
286.3358, 12523.36
286.8179, 12601.24
287.3000, 12669.59
287.7821, 12730.27
288.2643, 12788.38
288.7464, 12844.39
289.2285, 12901.96
289.7106, 12968.33
290.1927, 13041.36
290.6748, 13125.06
291.1570, 13223.51
291.6391, 13334.76
292.1212, 13452.25
292.6033, 13574.04
293.0854, 13700.45
293.5675, 13833.11
294.0497, 13977.40
294.5318, 14116.23
295.0139, 14235.63
295.4960, 14344.81
295.9781, 14464.08
296.4602, 14599.29
296.9424, 14748.73
297.4245, 14915.29
297.9066, 15107.84
298.3887, 15278.00
298.8708, 15402.56
299.3529, 15496.28
299.8351, 15579.23
300.3172, 15652.67
300.7993, 15730.63
301.2814, 15834.46
301.7635, 15961.78
302.2456, 16107.64
302.7278, 16295.42
303.2099, 16491.76
303.6920, 16649.96
304.1741, 16760.08
304.6562, 16840.35
305.1383, 16904.71
305.6205, 16951.87
306.1026, 17003.81
306.5847, 17066.94
307.0668, 17134.35
307.5489, 17200.89
308.0310, 17266.12
308.5132, 17327.39
308.9953, 17387.38
309.4774, 17444.84
309.9595, 17470.07
310.4416, 17445.09
310.9237, 17399.40
311.4059, 17354.32
311.8880, 17311.15
312.3701, 17263.12
312.8522, 17206.21
313.3343, 17139.16
313.8164, 17058.06
314.2986, 16950.95
314.7807, 16841.51
315.2628, 16739.21
315.7449, 16645.60
316.2270, 16559.88
316.7091, 16477.52
317.1913, 16405.21
317.6734, 16377.02
318.1555, 16447.43
318.6376, 16496.82
319.1197, 16452.07
319.6018, 16351.08
320.0840, 16285.54
320.5661, 16304.03
321.0482, 16380.78
321.5303, 16431.19
322.0124, 16427.20
322.4945, 16439.33
322.9767, 16491.67
323.4588, 16566.92
323.9409, 16638.25
324.4230, 16695.22
324.9051, 16748.10
325.3872, 16818.01
325.8694, 16906.17
326.3515, 17009.70
326.8336, 17144.67
327.3157, 17286.53
327.7978, 17409.92
328.2799, 17508.24
328.7621, 17593.67
329.2442, 17684.51
329.7263, 17786.63
330.2084, 17876.73
330.6905, 17930.76
331.1726, 17990.06
331.6548, 18097.80
332.1369, 18251.35
332.6190, 18402.17
333.1011, 18497.48
333.5832, 18522.97
334.0653, 18572.27
334.5475, 18654.24
335.0296, 18746.77
335.5117, 18840.93
335.9938, 18936.15
336.4759, 19036.78
336.9580, 19147.23
337.4402, 19267.22
337.9223, 19377.59
338.4044, 19456.38
338.8865, 19549.05
339.3686, 19668.47
339.8507, 19810.39
340.3329, 19967.00
340.8150, 20135.59
341.2971, 20313.27
341.7792, 20488.48
342.2613, 20650.72
342.7434, 20824.45
343.2256, 21009.23
343.7077, 21207.07
344.1898, 21415.85
344.6719, 21635.07
345.1540, 21873.99
345.6361, 22154.11
346.1183, 22484.04
346.6004, 22842.10
347.0825, 23225.25
347.5646, 23628.29
348.0467, 24048.41
348.5288, 24482.92
349.0110, 24939.08
349.4931, 25425.16
349.9752, 25949.24
350.4573, 26477.54
350.9394, 26993.20
351.4215, 27532.97
351.9037, 28122.77
352.3858, 28757.26
352.8679, 29407.07
353.3500, 30034.81
353.8321, 30641.49
354.3142, 31312.30
354.7964, 32089.32
355.2785, 32879.73
355.7606, 33640.62
356.2427, 34388.20
356.7248, 35163.09
357.2069, 35995.27
357.6891, 36861.46
358.1712, 37680.11
358.6533, 38419.77
359.1354, 39193.77
359.6175, 40086.14
360.0996, 41018.98
360.5818, 41900.43
361.0639, 42693.92
361.5460, 43446.56
362.0281, 44235.39
362.5102, 45076.84
362.9923, 45836.00
363.4745, 46474.95
363.9566, 46999.66
364.4387, 47418.02
364.9208, 47733.12
365.4029, 47922.56
365.8850, 47973.06
366.3672, 47885.31
366.8493, 47668.32
367.3314, 47343.49
367.8135, 46849.64
368.2956, 46116.66
368.7777, 45163.45
369.2599, 44101.43
369.7420, 42956.87
370.2241, 41744.63
370.7062, 40483.23
371.1883, 39166.67
371.6704, 37837.52
372.1526, 36518.76
372.6347, 35204.98
373.1168, 33876.82
373.5989, 32467.80
374.0810, 31085.96
374.5631, 29814.14
375.0453, 28646.57
375.5274, 27538.26
376.0095, 26455.46
376.4916, 25410.63
376.9737, 24436.24
377.4558, 23543.15
377.9380, 22692.45
378.4201, 21865.49
378.9022, 21069.46
379.3843, 20328.12
379.8664, 19652.68
380.3485, 19027.48
380.8307, 18433.45
381.3128, 17865.34
381.7949, 17335.86
382.2770, 16851.14
382.7591, 16401.34
383.2412, 15985.29
383.7234, 15600.27
384.2055, 15241.47
384.6876, 14906.28
385.1697, 14596.35
385.6518, 14303.16
386.1339, 14031.87
386.6161, 13768.96
387.0982, 13494.85
387.5803, 13220.82
388.0624, 12982.16
388.5445, 12806.23
389.0266, 12687.21
389.5088, 12565.59
389.9909, 12464.73
390.4730, 12332.06
390.9551, 12118.87
391.4372, 11882.86
391.9193, 11699.62
392.4015, 11602.83
392.8836, 11556.50
393.3657, 11487.75
393.8478, 11388.20
394.3299, 11287.33
394.8120, 11183.44
395.2942, 11083.52
395.7763, 10993.07
396.2584, 10912.50
396.7405, 10837.61
397.2226, 10764.13
397.7047, 10692.34
398.1869, 10623.33
398.6690, 10558.78
399.1511, 10495.31
399.6332, 10428.43
400.1153, 10360.92
400.5974, 10300.27
401.0796, 10252.29
401.5617, 10213.44
402.0438, 10178.19
402.5259, 10149.22
403.0080, 10113.28
403.4901, 10050.71
403.9723, 9980.068
404.4544, 9931.291
404.9365, 9916.485
405.4186, 9912.693
405.9007, 9907.738
406.3828, 9899.865
406.8650, 9876.291
407.3471, 9825.173
407.8292, 9765.894
408.3113, 9731.459
408.7934, 9725.342
409.2755, 9720.116
409.7577, 9710.927
410.2398, 9696.417
410.7219, 9670.193
411.2040, 9631.157
411.6861, 9596.497
412.1682, 9587.226
412.6504, 9608.357
413.1325, 9606.868
413.6146, 9553.600
414.0967, 9505.205
414.5788, 9501.687
415.0609, 9531.471
415.5431, 9555.187
416.0252, 9548.014
416.5073, 9517.113
416.9894, 9495.906
417.4715, 9503.766
417.9536, 9497.969
418.4358, 9461.319
418.9179, 9415.194
419.4000, 9381.196
419.8821, 9366.188
420.3642, 9363.921
420.8463, 9368.003
421.3285, 9386.798
421.8106, 9388.422
422.2927, 9346.175
422.7748, 9311.060
423.2569, 9314.863
423.7390, 9350.484
424.2212, 9387.381
424.7033, 9404.462
425.1854, 9402.969
425.6675, 9387.457
426.1496, 9342.896
426.6317, 9310.434
427.1139, 9317.507
427.5960, 9340.049
428.0781, 9344.315
428.5602, 9313.112
429.0423, 9276.342
429.5244, 9279.137
430.0066, 9322.763
430.4887, 9347.842
430.9708, 9326.429
431.4529, 9289.713
431.9350, 9273.542
432.4171, 9278.826
432.8993, 9287.476
433.3814, 9293.385
433.8635, 9296.351
434.3456, 9293.306
434.8277, 9282.618
435.3098, 9276.717
435.7920, 9290.476
436.2741, 9321.595
436.7562, 9338.237
437.2383, 9324.824
437.7204, 9310.012
438.2025, 9311.585
438.6847, 9325.742
439.1668, 9341.027
439.6489, 9352.469
440.1310, 9359.705
440.6131, 9361.335
441.0952, 9339.590
441.5774, 9337.697
442.0595, 9373.888
442.5416, 9421.268
443.0237, 9455.476
443.5058, 9472.439
443.9879, 9482.506
444.4701, 9495.797
444.9522, 9511.348
445.4343, 9536.753
445.9164, 9591.751
446.3985, 9636.551
446.8806, 9651.632
447.3628, 9647.777
447.8449, 9644.513
448.3270, 9651.497
448.8091, 9667.788
449.2912, 9692.049
449.7733, 9726.028
450.2555, 9762.985
450.7376, 9805.650
451.2197, 9847.826
451.7018, 9889.271
452.1839, 9929.409
452.6660, 9954.879
453.1482, 9941.886
453.6303, 9901.443
454.1124, 9891.615
454.5945, 9935.797
455.0766, 9974.112
455.5587, 9942.528
456.0409, 9862.453
456.5230, 9794.278
457.0051, 9768.054
457.4872, 9745.965
457.9693, 9686.969
458.4514, 9597.860
458.9336, 9521.505
459.4156, 9481.881
459.8978, 9463.473
460.3799, 9423.842
460.8620, 9349.775
461.3441, 9283.357
461.8262, 9240.174
462.3083, 9203.627
462.7905, 9152.477
463.2726, 9084.581
463.7547, 9019.055
464.2368, 8975.388
464.7189, 8955.165
465.2010, 8943.696
465.6832, 8939.738
466.1653, 8945.196
466.6474, 8968.479
467.1295, 9000.081
467.6116, 9023.971
468.0938, 9031.166
468.5759, 9031.169
469.0580, 9044.888
469.5401, 9074.914
470.0222, 9111.582
470.5043, 9162.542
470.9865, 9212.748
471.4686, 9249.126
471.9507, 9272.282
472.4328, 9299.238
472.9149, 9347.090
473.3970, 9409.342
473.8792, 9460.520
474.3613, 9495.178
474.8434, 9531.703
475.3255, 9583.312
475.8076, 9645.382
476.2897, 9710.033
476.7719, 9780.284
477.2540, 9847.545
477.7361, 9895.656
478.2182, 9934.842
478.7003, 10001.08
479.1824, 10110.93
479.6646, 10236.08
480.1467, 10330.36
480.6288, 10381.65
481.1109, 10441.22
481.5930, 10512.73
482.0751, 10591.99
482.5573, 10679.80
483.0394, 10773.77
483.5215, 10866.86
484.0036, 10954.27
484.4857, 11036.31
484.9678, 11114.38
485.4500, 11169.55
485.9321, 11246.97
486.4142, 11369.10
486.8963, 11505.65
487.3784, 11630.82
487.8605, 11736.68
488.3427, 11827.20
488.8248, 11897.44
489.3069, 11945.43
489.7890, 12026.80
490.2711, 12182.89
490.7532, 12320.41
491.2354, 12371.16
491.7175, 12367.50
492.1996, 12388.41
492.6817, 12487.73
493.1638, 12600.38
493.6459, 12644.35
494.1281, 12623.91
494.6102, 12597.34
495.0923, 12584.56
495.5744, 12579.29
496.0565, 12572.34
496.5386, 12565.66
497.0208, 12550.30
497.5029, 12519.22
497.9850, 12481.36
498.4671, 12445.78
498.9492, 12413.09
499.4313, 12377.52
499.9135, 12332.78
500.3956, 12280.72
500.8777, 12244.96
501.3598, 12252.48
501.8419, 12244.02
502.3240, 12173.82
502.8062, 12099.65
503.2883, 12096.58
503.7704, 12183.21
504.2525, 12298.34
504.7346, 12352.76
505.2167, 12330.38
505.6989, 12363.90
506.1810, 12485.43
506.6631, 12633.32
507.1452, 12777.67
507.6273, 12924.20
508.1094, 13087.81
508.5916, 13275.85
509.0737, 13482.54
509.5558, 13692.25
510.0379, 13905.28
510.5200, 14157.13
511.0021, 14466.26
511.4843, 14812.97
511.9664, 15171.98
512.4485, 15544.11
512.9306, 15917.59
513.4127, 16279.15
513.8948, 16645.45
514.3770, 17035.03
514.8591, 17447.74
515.3412, 17863.07
515.8233, 18261.22
516.3054, 18654.00
516.7875, 19106.32
517.2697, 19677.63
517.7518, 20239.82
518.2339, 20795.54
518.7160, 21330.74
519.1981, 21828.15
519.6802, 22288.73
520.1624, 22731.17
520.6445, 23196.30
521.1266, 23687.48
521.6087, 24065.74
522.0908, 24308.28
522.5729, 24460.79
523.0551, 24570.21
523.5372, 24607.97
524.0193, 24527.19
524.5014, 24310.54
524.9835, 23980.22
525.4656, 23535.12
525.9478, 22988.70
526.4299, 22399.86
526.9120, 21786.29
527.3941, 21134.57
527.8762, 20409.38
528.3583, 19607.30
528.8405, 18846.78
529.3226, 18155.77
529.8047, 17491.83
530.2868, 16806.14
530.7689, 16120.58
531.2510, 15494.72
531.7332, 14959.95
532.2153, 14495.30
532.6974, 14049.35
533.1795, 13610.24
533.6616, 13215.02
534.1437, 12881.57
534.6259, 12570.79
535.1080, 12256.34
535.5901, 11941.09
536.0722, 11649.96
536.5543, 11400.71
537.0364, 11189.23
537.5186, 11009.96
538.0007, 10867.35
538.4828, 10738.24
538.9649, 10617.11
539.4470, 10504.56
539.9291, 10402.52
540.4113, 10311.90
540.8934, 10227.19
541.3755, 10142.33
541.8576, 10063.25
542.3397, 10002.28
542.8218, 9960.338
543.3040, 9924.945
543.7861, 9887.944
544.2682, 9849.380
544.7503, 9809.709
545.2324, 9765.172
545.7145, 9724.222
546.1967, 9680.473
546.6788, 9645.595
547.1609, 9640.055
547.6430, 9664.291
548.1251, 9689.305
548.6072, 9677.143
549.0894, 9625.591
549.5715, 9609.196
550.0536, 9661.772
550.5357, 9701.240
551.0178, 9684.766
551.4999, 9643.336
551.9821, 9620.185
552.4642, 9630.344
552.9463, 9649.594
553.4284, 9659.582
553.9105, 9660.556
554.3926, 9649.811
554.8748, 9622.835
555.3569, 9599.690
555.8390, 9605.795
556.3211, 9639.754
556.8032, 9646.407
557.2853, 9620.042
557.7675, 9571.017
558.2496, 9489.492
558.7317, 9392.080
559.2138, 9308.121
559.6959, 9248.202
560.1780, 9198.006
560.6602, 9138.013
561.1423, 9069.494
561.6244, 8987.276
562.1065, 8875.023
562.5886, 8765.635
563.0707, 8666.020
563.5529, 8578.097
564.0350, 8505.033
564.5171, 8452.043
564.9992, 8404.122
565.4813, 8336.358
565.9634, 8250.734
566.4456, 8180.719
566.9277, 8137.139
567.4098, 8104.672
567.8919, 8067.686
568.3740, 8026.923
568.8561, 7989.789
569.3383, 7958.036
569.8204, 7929.353
570.3025, 7903.269
570.7846, 7878.764
571.2667, 7850.649
571.7488, 7816.416
572.2310, 7787.143
572.7131, 7785.573
573.1952, 7827.627
573.6773, 7854.439
574.1594, 7848.727
574.6415, 7845.781
575.1237, 7861.071
575.6058, 7890.858
576.0879, 7927.032
576.5700, 7968.769
577.0521, 8006.697
577.5342, 8025.259
578.0164, 8024.323
578.4985, 8017.059
578.9806, 8005.034
579.4627, 7989.860
579.9448, 7972.105
580.4269, 7952.118
580.9091, 7932.713
581.3912, 7919.991
581.8733, 7902.987
582.3554, 7867.735
582.8375, 7822.119
583.3196, 7785.328
