##NAMES=Anglesite
##RRUFFID=R050052
##IDEAL CHEMISTRY=Pb^2+^S^6+^O_4_
##LOCALITY=Touissite, Oujela, Morocco
##OWNER=RRUFF
##SOURCE=Eugene Schlepp
##DESCRIPTION=Yellow prismatic single crystal
##STATUS=The identification of this mineral has been confirmed by X-ray diffraction and chemical analysis
##URL=rruff.info/R050052
##MEASURED CHEMISTRY=Pb_1.00_S_1.00_O_4_
90.64606, 19.93261
91.12817, 18.12406
91.61029, 15.71548
92.09241, 14.23945
92.57452, 15.09496
93.05664, 18.31682
93.53876, 20.53513
94.02087, 20.78789
94.50299, 20.84658
94.98511, 21.21387
95.46722, 21.86140
95.94934, 22.53767
96.43146, 23.07933
96.91357, 23.65289
97.39569, 23.22875
97.87781, 20.53576
98.35992, 18.05824
98.84204, 17.30952
99.32416, 18.34070
99.80627, 20.03606
100.2884, 21.02326
100.7705, 20.94184
101.2526, 20.99043
101.7347, 21.22504
102.2169, 21.54696
102.6990, 21.96281
103.1811, 22.46056
103.6632, 22.84519
104.1453, 22.70520
104.6274, 21.59355
105.1096, 21.10942
105.5917, 21.52117
106.0738, 22.62392
106.5559, 24.46217
107.0380, 27.27230
107.5201, 30.07803
108.0023, 30.53122
108.4844, 27.96612
108.9665, 26.17294
109.4486, 27.05291
109.9307, 29.76100
110.4128, 32.03335
110.8950, 32.96956
111.3771, 33.21692
111.8592, 33.78564
112.3413, 34.53688
112.8234, 35.92886
113.3055, 38.77047
113.7877, 42.85908
114.2698, 46.08606
114.7519, 46.16221
115.2340, 46.07285
115.7161, 49.73582
116.1982, 58.50917
116.6804, 68.24438
117.1625, 74.46848
117.6446, 76.72478
118.1267, 79.34398
118.6088, 83.75025
119.0909, 89.42700
119.5731, 96.29488
120.0552, 104.4820
120.5373, 113.3839
121.0194, 121.5064
121.5015, 127.5259
121.9836, 136.7058
122.4658, 151.0035
122.9479, 168.8005
123.4300, 189.3752
123.9121, 212.9853
124.3942, 237.9645
124.8763, 259.6738
125.3585, 275.1846
125.8406, 292.8191
126.3227, 314.2955
126.8048, 338.6231
127.2869, 364.9684
127.7690, 392.7597
128.2512, 422.1539
128.7333, 452.8035
129.2154, 485.0049
129.6975, 518.3020
130.1796, 552.4290
130.6617, 587.5068
131.1439, 623.8655
131.6260, 662.0043
132.1081, 701.3659
132.5902, 737.5332
133.0723, 769.8694
133.5544, 799.3600
134.0366, 824.9035
134.5187, 847.6431
135.0008, 869.5899
135.4829, 892.1052
135.9650, 915.0464
136.4471, 934.9816
136.9293, 953.8896
137.4114, 968.1602
137.8935, 974.3427
138.3756, 974.7286
138.8577, 974.1160
139.3398, 975.5200
139.8220, 978.9611
140.3041, 987.8314
140.7862, 998.3029
141.2683, 1016.173
141.7504, 1049.011
142.2325, 1093.026
142.7147, 1134.712
143.1968, 1162.560
143.6789, 1176.191
144.1610, 1201.245
144.6431, 1245.074
145.1252, 1292.524
145.6074, 1334.613
146.0895, 1371.654
146.5716, 1409.709
147.0537, 1453.999
147.5358, 1504.727
148.0179, 1553.280
148.5001, 1600.599
148.9822, 1645.096
149.4643, 1684.028
149.9464, 1717.853
150.4285, 1753.137
150.9106, 1801.419
151.3928, 1858.525
151.8749, 1890.250
152.3570, 1879.621
152.8391, 1851.809
153.3212, 1829.732
153.8033, 1815.252
154.2855, 1797.243
154.7676, 1763.838
155.2497, 1718.416
155.7318, 1676.145
156.2139, 1645.376
156.6960, 1615.907
157.1782, 1572.595
157.6603, 1512.437
158.1424, 1454.516
158.6245, 1415.471
159.1066, 1390.401
159.5887, 1369.449
160.0709, 1348.724
160.5530, 1331.366
161.0351, 1324.112
161.5172, 1329.595
161.9993, 1335.963
162.4814, 1331.898
162.9636, 1322.658
163.4457, 1318.097
163.9278, 1326.061
164.4099, 1339.580
164.8920, 1345.425
165.3741, 1341.450
165.8563, 1335.702
166.3384, 1331.973
166.8205, 1330.024
167.3026, 1329.811
167.7847, 1332.056
168.2668, 1335.792
168.7490, 1339.685
169.2311, 1345.329
169.7132, 1347.269
170.1953, 1339.144
170.6774, 1326.234
171.1595, 1316.791
171.6417, 1314.968
172.1238, 1318.866
172.6059, 1324.449
173.0880, 1333.390
173.5701, 1340.550
174.0522, 1343.613
174.5344, 1343.767
175.0165, 1342.251
175.4986, 1338.733
175.9807, 1334.504
176.4628, 1333.117
176.9449, 1335.197
177.4271, 1339.263
177.9092, 1348.582
178.3913, 1358.360
178.8734, 1361.070
179.3555, 1350.763
179.8376, 1333.144
180.3197, 1326.256
180.8019, 1338.725
181.2840, 1346.666
181.7661, 1338.349
182.2482, 1323.142
182.7303, 1313.177
183.2124, 1315.333
183.6946, 1324.818
184.1767, 1327.680
184.6588, 1320.280
185.1409, 1312.206
185.6230, 1307.715
186.1051, 1303.605
186.5873, 1294.919
187.0694, 1278.319
187.5515, 1258.797
188.0336, 1250.806
188.5157, 1265.244
188.9978, 1272.396
189.4800, 1262.766
189.9621, 1245.183
190.4442, 1228.238
190.9263, 1215.752
191.4084, 1206.195
191.8905, 1195.865
192.3727, 1183.879
192.8548, 1172.654
193.3369, 1161.870
193.8190, 1152.176
194.3011, 1144.421
194.7832, 1138.963
195.2654, 1134.915
195.7475, 1130.677
196.2296, 1127.207
196.7117, 1121.456
197.1938, 1111.193
197.6759, 1099.886
198.1581, 1091.134
198.6402, 1086.040
199.1223, 1082.066
199.6044, 1073.474
200.0865, 1053.964
200.5686, 1042.927
201.0508, 1050.010
201.5329, 1059.701
202.0150, 1059.511
202.4971, 1046.199
202.9792, 1026.283
203.4613, 1009.359
203.9435, 994.3403
204.4256, 985.4455
204.9077, 988.6202
205.3898, 992.9539
205.8719, 990.6683
206.3540, 980.4294
206.8362, 966.7292
207.3183, 954.7784
207.8004, 943.2161
208.2825, 937.6204
208.7646, 944.7762
209.2467, 951.9401
209.7289, 949.8530
210.2110, 938.5873
210.6931, 926.3833
211.1752, 923.9022
211.6573, 935.4425
212.1395, 940.8677
212.6216, 936.2493
213.1037, 929.3563
213.5858, 923.3626
214.0679, 918.6053
214.5500, 914.0053
215.0322, 908.5344
215.5143, 902.1304
215.9964, 895.3250
216.4785, 885.9578
216.9606, 878.1530
217.4427, 873.8719
217.9249, 872.6295
218.4070, 872.6227
218.8891, 872.3093
219.3712, 871.6412
219.8533, 872.4448
220.3354, 877.4095
220.8176, 881.2709
221.2997, 882.5344
221.7818, 881.5723
222.2639, 879.4192
222.7460, 876.8574
223.2281, 873.7536
223.7103, 868.9099
224.1924, 860.5549
224.6745, 852.2253
225.1566, 841.4111
225.6387, 831.6683
226.1208, 829.6159
226.6030, 840.2437
227.0851, 858.7435
227.5672, 864.4152
228.0493, 845.5487
228.5314, 828.8729
229.0135, 818.5461
229.4957, 812.8634
229.9778, 810.5306
230.4599, 811.1081
230.9420, 812.8835
231.4241, 811.2867
231.9062, 803.0879
232.3884, 797.0800
232.8705, 794.9282
233.3526, 794.7958
233.8347, 795.5650
234.3168, 796.7859
234.7989, 797.7280
235.2811, 797.2626
235.7632, 795.5681
236.2453, 791.8515
236.7274, 781.5660
237.2095, 772.5176
237.6916, 771.3504
238.1738, 778.6909
238.6559, 788.3472
239.1380, 792.8008
239.6201, 791.0110
240.1022, 787.7377
240.5843, 781.4606
241.0665, 775.1125
241.5486, 769.8312
242.0307, 765.7779
242.5128, 762.7212
242.9949, 760.4052
243.4770, 758.8023
243.9592, 758.3362
244.4413, 761.9615
244.9234, 763.8486
245.4055, 760.3011
245.8876, 753.0237
246.3697, 746.6194
246.8519, 744.7842
247.3340, 746.8981
247.8161, 747.2643
248.2982, 743.3895
248.7803, 741.1755
249.2624, 744.8623
249.7446, 751.0500
250.2267, 754.0215
250.7088, 750.0977
251.1909, 741.6734
251.6730, 735.5892
252.1551, 732.5218
252.6373, 730.5157
253.1194, 729.7938
253.6015, 729.3302
254.0836, 727.7794
254.5657, 724.4376
255.0478, 720.6893
255.5300, 718.6599
256.0121, 718.5291
256.4942, 719.4920
256.9763, 722.6613
257.4584, 726.0870
257.9406, 728.7687
258.4227, 730.5285
258.9048, 730.5706
259.3869, 726.8326
259.8690, 719.0368
260.3511, 713.8940
260.8333, 714.1141
261.3154, 716.2402
261.7975, 717.9869
262.2796, 719.2342
262.7617, 720.3862
263.2438, 722.2605
263.7260, 724.5066
264.2081, 724.8094
264.6902, 721.7864
265.1723, 718.5333
265.6544, 717.7478
266.1365, 718.7034
266.6187, 718.9948
267.1008, 715.8619
267.5829, 711.5889
268.0650, 712.1491
268.5471, 719.5380
269.0292, 725.6782
269.5114, 722.6536
269.9935, 714.7234
270.4756, 708.9164
270.9577, 707.6301
271.4398, 708.7191
271.9219, 710.0161
272.4041, 711.5176
272.8862, 713.6301
273.3683, 717.6763
273.8504, 721.8582
274.3325, 722.9500
274.8146, 720.0396
275.2968, 715.4003
275.7789, 707.6533
276.2610, 698.5900
276.7431, 696.7263
277.2252, 707.9307
277.7073, 723.8488
278.1895, 730.5491
278.6716, 727.2679
279.1537, 721.4174
279.6358, 713.2542
280.1179, 704.7637
280.6000, 699.7299
281.0822, 699.1995
281.5643, 700.7249
282.0464, 701.6158
282.5285, 701.7828
283.0106, 702.4095
283.4927, 705.6041
283.9749, 708.0592
284.4570, 705.1533
284.9391, 697.1008
285.4212, 690.5587
285.9033, 691.8112
286.3854, 700.6549
286.8676, 704.4165
287.3497, 699.5222
287.8318, 693.5288
288.3139, 688.5612
288.7960, 685.3082
289.2781, 685.5912
289.7603, 690.9219
290.2424, 699.7039
290.7245, 705.0784
291.2066, 706.7292
291.6887, 705.6890
292.1708, 699.1239
292.6530, 690.9892
293.1351, 686.3851
293.6172, 687.0736
294.0993, 690.8846
294.5814, 694.2442
295.0635, 698.8337
295.5457, 699.3417
296.0278, 691.9211
296.5099, 683.5128
296.9920, 678.3747
297.4741, 677.2891
297.9562, 679.6519
298.4384, 685.8747
298.9205, 697.5495
299.4026, 701.7640
299.8847, 689.5131
300.3668, 679.0230
300.8489, 677.4854
301.3311, 682.6376
301.8131, 689.0387
302.2953, 693.4981
302.7774, 695.9026
303.2595, 695.2220
303.7416, 686.9298
304.2237, 682.3948
304.7058, 688.0879
305.1880, 696.5217
305.6701, 698.7411
306.1522, 691.2582
306.6343, 680.1406
307.1164, 675.4954
307.5985, 678.9206
308.0807, 682.9508
308.5628, 687.2016
309.0449, 691.0432
309.5270, 694.6849
310.0091, 697.9064
310.4912, 698.9933
310.9734, 693.9144
311.4555, 683.7079
311.9376, 681.0056
312.4197, 692.3325
312.9018, 703.1072
313.3839, 702.5475
313.8661, 694.2902
314.3482, 687.8041
314.8303, 689.1521
315.3124, 694.0839
315.7945, 694.1778
316.2766, 688.3043
316.7588, 684.3666
317.2409, 689.6437
317.7230, 698.5529
318.2051, 701.3903
318.6872, 694.1155
319.1693, 685.7257
319.6515, 683.2097
320.1336, 685.4434
320.6157, 687.4623
321.0978, 687.7885
321.5799, 686.8737
322.0620, 684.7888
322.5442, 681.0034
323.0263, 679.1687
323.5084, 681.7958
323.9905, 686.3159
324.4726, 688.9249
324.9547, 689.0104
325.4369, 689.7332
325.9190, 694.9842
326.4011, 705.3932
326.8832, 710.4598
327.3653, 706.7899
327.8474, 701.1576
328.3296, 695.7682
328.8117, 691.4120
329.2938, 689.8438
329.7759, 692.4072
330.2580, 697.9730
330.7401, 701.3380
331.2223, 701.2123
331.7044, 700.4738
332.1865, 698.3001
332.6686, 696.1615
333.1507, 695.9839
333.6328, 698.2347
334.1150, 701.3134
334.5971, 702.8514
335.0792, 702.3626
335.5613, 701.5626
336.0434, 697.8292
336.5255, 696.0936
337.0077, 701.3568
337.4898, 711.4281
337.9719, 719.1981
338.4540, 718.3940
338.9361, 710.1257
339.4182, 704.2942
339.9004, 701.3539
340.3825, 700.5074
340.8646, 702.7279
341.3467, 706.1791
341.8288, 708.4825
342.3109, 708.6481
342.7931, 707.8917
343.2752, 708.0108
343.7573, 709.1303
344.2394, 710.2395
344.7215, 710.9825
345.2036, 711.7382
345.6858, 713.6721
346.1679, 716.7006
346.6500, 717.4965
347.1321, 711.5948
347.6142, 701.8939
348.0963, 696.6841
348.5785, 697.5187
349.0606, 700.5485
349.5427, 703.8461
350.0248, 707.0663
350.5069, 709.0018
350.9890, 709.7369
351.4712, 708.8791
351.9533, 704.2391
352.4354, 696.9401
352.9175, 693.1671
353.3996, 696.6168
353.8817, 704.4808
354.3639, 709.5458
354.8460, 711.5844
355.3281, 712.1209
355.8102, 710.0135
356.2923, 707.2327
356.7744, 706.6958
357.2566, 708.8591
357.7387, 710.9041
358.2208, 709.1862
358.7029, 702.2117
359.1850, 700.1142
359.6671, 707.0774
360.1493, 713.9994
360.6314, 717.7971
361.1135, 718.3168
361.5956, 715.0845
362.0777, 707.2303
362.5598, 697.4016
363.0420, 695.8569
363.5241, 711.0198
364.0062, 720.9636
364.4883, 718.4558
364.9704, 713.1592
365.4525, 714.7350
365.9347, 724.5543
366.4168, 734.2416
366.8989, 732.3436
367.3810, 717.7886
367.8631, 709.5776
368.3452, 712.2315
368.8274, 717.0464
369.3095, 720.3870
369.7916, 722.2944
370.2737, 722.9911
370.7558, 721.9303
371.2379, 720.2566
371.7201, 720.4642
372.2022, 722.8994
372.6843, 723.6412
373.1664, 718.6434
373.6485, 712.5560
374.1306, 712.7662
374.6128, 721.1735
375.0949, 729.8118
375.5770, 735.2271
376.0591, 737.8130
376.5412, 737.6118
377.0233, 734.3245
377.5055, 730.6160
377.9876, 729.2296
378.4697, 730.4654
378.9518, 731.5750
379.4339, 733.3317
379.9160, 734.2321
380.3982, 731.6392
380.8803, 727.2758
381.3624, 726.4955
381.8445, 732.6573
382.3266, 742.7287
382.8087, 747.5690
383.2909, 743.1228
383.7730, 738.2476
384.2551, 729.1434
384.7372, 722.2787
385.2193, 725.2615
385.7014, 737.8581
386.1836, 751.2891
386.6657, 755.7301
387.1478, 750.5357
387.6299, 748.4972
388.1120, 752.0658
388.5941, 756.1454
389.0763, 759.0168
389.5584, 761.2949
390.0405, 764.1748
390.5226, 768.4279
391.0047, 772.8141
391.4868, 774.7435
391.9690, 773.7533
392.4511, 774.7761
392.9332, 780.4994
393.4153, 787.5322
393.8974, 793.3458
394.3795, 797.8685
394.8617, 799.7886
395.3438, 794.3850
395.8259, 787.3540
396.3080, 789.5144
396.7901, 802.2165
397.2722, 816.5932
397.7544, 827.3254
398.2365, 834.4630
398.7186, 839.8295
399.2007, 841.8687
399.6828, 843.8724
400.1649, 847.5286
400.6471, 851.8812
401.1292, 854.9518
401.6113, 856.0961
402.0934, 857.1193
402.5755, 860.7714
403.0576, 867.9171
403.5398, 875.1992
404.0219, 883.7544
404.5040, 891.4535
404.9861, 897.9902
405.4682, 902.7903
405.9503, 904.1076
406.4325, 900.1893
406.9146, 893.4655
407.3967, 892.9347
407.8788, 901.4550
408.3609, 910.4384
408.8430, 917.4968
409.3252, 924.8315
409.8073, 935.1257
410.2894, 948.4870
410.7715, 960.9433
411.2536, 968.7217
411.7357, 972.5469
412.2179, 975.2857
412.7000, 975.9581
413.1821, 978.3111
413.6642, 985.4863
414.1463, 996.1874
414.6284, 1008.299
415.1106, 1023.023
415.5927, 1037.196
416.0748, 1047.865
416.5569, 1056.033
417.0390, 1064.074
417.5211, 1072.217
418.0033, 1082.637
418.4854, 1099.326
418.9675, 1124.984
419.4496, 1147.715
419.9317, 1162.384
420.4138, 1177.763
420.8960, 1199.303
421.3781, 1226.918
421.8602, 1258.572
422.3423, 1293.311
422.8244, 1330.772
423.3065, 1368.892
423.7887, 1403.733
424.2708, 1446.117
424.7529, 1496.545
425.2350, 1554.554
425.7171, 1621.311
426.1992, 1696.290
426.6814, 1774.363
427.1635, 1850.206
427.6456, 1924.800
428.1277, 2001.245
428.6098, 2074.413
429.0919, 2159.460
429.5741, 2269.486
430.0562, 2395.030
430.5383, 2521.126
431.0204, 2639.293
431.5025, 2768.231
431.9846, 2912.408
432.4668, 3078.326
432.9489, 3293.526
433.4310, 3570.014
433.9131, 3880.411
434.3952, 4191.304
434.8773, 4498.631
435.3595, 4845.197
435.8416, 5264.974
436.3237, 5694.918
436.8058, 6125.282
437.2879, 6535.062
437.7701, 6894.788
438.2522, 7191.638
438.7343, 7410.945
439.2164, 7509.512
439.6985, 7428.218
440.1806, 7324.466
440.6628, 7159.694
441.1449, 7010.333
441.6270, 6911.682
442.1091, 6872.481
442.5912, 6894.242
443.0733, 6972.674
443.5555, 7115.453
444.0376, 7354.804
444.5197, 7699.685
445.0018, 8116.993
445.4839, 8629.285
445.9660, 9196.761
446.4482, 9794.227
446.9303, 10420.20
447.4124, 11044.49
447.8945, 11709.36
448.3766, 12347.90
448.8587, 12836.64
449.3409, 13164.97
449.8230, 13296.35
450.3051, 13210.48
450.7872, 12891.84
451.2693, 12327.54
451.7514, 11378.82
452.2336, 10368.20
452.7157, 9342.619
453.1978, 8341.397
453.6799, 7413.785
454.1620, 6575.770
454.6441, 5830.300
455.1263, 5182.799
455.6084, 4637.549
456.0905, 4170.219
456.5726, 3814.807
457.0547, 3511.881
457.5368, 3256.538
458.0190, 3040.306
458.5011, 2853.679
458.9832, 2693.306
459.4653, 2557.007
459.9474, 2444.285
460.4295, 2355.807
460.9117, 2274.626
461.3938, 2200.255
461.8759, 2128.879
462.3580, 2053.458
462.8401, 1976.126
463.3222, 1909.020
463.8044, 1861.259
464.2865, 1820.140
464.7686, 1775.781
465.2507, 1728.587
465.7328, 1680.485
466.2149, 1631.834
466.6971, 1584.503
467.1792, 1542.772
467.6613, 1507.306
468.1434, 1476.794
468.6255, 1459.970
469.1076, 1440.426
469.5898, 1402.861
470.0719, 1353.248
470.5540, 1310.738
471.0361, 1287.979
471.5182, 1278.295
472.0003, 1260.868
472.4825, 1231.330
472.9646, 1206.287
473.4467, 1194.036
473.9288, 1184.152
474.4109, 1168.878
474.8930, 1148.599
475.3752, 1130.924
475.8573, 1122.530
476.3394, 1118.611
476.8215, 1111.185
477.3036, 1100.063
477.7857, 1086.647
478.2679, 1069.945
478.7500, 1052.802
479.2321, 1042.866
479.7142, 1043.600
480.1963, 1041.829
480.6784, 1033.624
481.1606, 1022.812
481.6427, 1011.730
482.1248, 1001.224
482.6069, 992.7906
483.0890, 987.7228
483.5711, 985.3771
484.0533, 982.5283
484.5354, 983.3067
485.0175, 976.2545
485.4996, 952.1489
485.9817, 925.9376
486.4638, 909.2910
486.9460, 903.4073
487.4281, 902.6588
487.9102, 905.9601
488.3923, 910.8609
488.8744, 909.9150
489.3565, 902.8018
489.8387, 890.7689
490.3208, 869.3250
490.8029, 846.1179
491.2850, 837.5106
491.7671, 849.2667
492.2492, 858.6145
492.7314, 853.1425
493.2135, 843.8994
493.6956, 847.0902
494.1777, 861.9792
494.6598, 870.8265
495.1419, 858.7338
495.6241, 829.9253
496.1062, 811.5737
496.5883, 810.9503
497.0704, 811.3078
497.5525, 811.4952
498.0346, 811.5791
498.5168, 811.7900
498.9989, 812.0747
499.4810, 812.0365
499.9631, 811.8308
500.4452, 811.0225
500.9273, 807.0732
501.4095, 798.7290
501.8916, 792.6518
502.3737, 793.2488
502.8558, 796.9573
503.3379, 797.5901
503.8200, 793.8906
504.3022, 792.0125
504.7843, 798.8325
505.2664, 806.0644
505.7485, 801.5771
506.2306, 786.1723
506.7127, 772.3763
507.1949, 768.9755
507.6770, 773.1628
508.1591, 772.5052
508.6412, 758.8798
509.1233, 752.4741
509.6054, 760.7622
510.0876, 771.3456
510.5697, 775.3024
511.0518, 772.4506
511.5339, 767.6881
512.0161, 764.1305
512.4982, 761.4471
512.9803, 758.6990
513.4624, 755.8537
513.9445, 753.2914
514.4266, 751.5023
514.9088, 749.7468
515.3909, 745.4485
515.8730, 737.8740
516.3551, 736.6611
516.8372, 752.1745
517.3193, 769.8103
517.8015, 775.7422
518.2836, 771.0790
518.7657, 763.6904
519.2478, 757.5324
519.7299, 752.1398
520.2120, 746.2648
520.6942, 738.2693
521.1763, 732.9919
521.6584, 729.7072
522.1405, 729.4298
522.6226, 735.7906
523.1047, 745.5964
523.5869, 750.9556
524.0690, 746.8460
524.5511, 738.2910
525.0332, 733.2410
525.5153, 731.6764
525.9974, 730.5604
526.4796, 729.5918
526.9617, 728.1576
527.4438, 723.0864
527.9259, 715.2850
528.4080, 715.6837
528.8901, 736.3530
529.3723, 755.2261
529.8544, 757.4189
530.3365, 748.7554
530.8186, 740.5635
531.3007, 736.7505
531.7828, 734.7469
532.2650, 730.5256
532.7471, 722.9492
533.2292, 720.2361
533.7113, 726.9973
534.1934, 733.4927
534.6755, 738.1327
535.1577, 740.2350
535.6398, 738.1481
536.1219, 730.9514
536.6040, 723.7673
537.0861, 722.7789
537.5682, 725.6948
538.0504, 723.7634
538.5325, 715.0773
539.0146, 708.5731
539.4967, 711.2488
539.9788, 721.3682
540.4609, 729.9688
540.9431, 739.3292
541.4252, 744.4077
541.9073, 740.8026
542.3894, 734.6553
542.8715, 731.6855
543.3536, 732.4185
543.8358, 734.3503
544.3179, 735.7166
544.8000, 736.4425
545.2821, 736.0965
545.7642, 734.3574
546.2463, 732.3948
546.7285, 728.7234
547.2106, 726.3457
547.6927, 728.9222
548.1748, 735.9479
548.6569, 741.0903
549.1390, 740.9926
549.6211, 738.0297
550.1032, 733.3445
550.5853, 727.7420
551.0674, 724.5067
551.5496, 725.0534
552.0317, 727.9582
552.5138, 731.2990
552.9959, 736.2938
553.4780, 737.4598
553.9601, 731.1931
554.4423, 725.5275
554.9244, 722.8672
555.4065, 723.1859
555.8886, 727.3879
556.3707, 735.9942
556.8528, 743.4734
557.3350, 740.9445
557.8171, 730.0732
558.2992, 724.6810
558.7813, 726.7424
559.2634, 732.3049
559.7455, 742.1456
560.2277, 752.9920
560.7098, 754.7641
561.1919, 741.1257
561.6740, 729.4182
562.1561, 723.8928
562.6382, 723.6796
563.1204, 731.3812
563.6025, 744.6921
564.0846, 753.4304
564.5667, 749.3475
565.0488, 736.4838
565.5309, 731.0742
566.0131, 736.0964
566.4952, 741.0446
566.9773, 743.4738
567.4594, 745.8677
567.9415, 750.4495
568.4236, 756.6161
568.9058, 761.4227
569.3879, 765.1481
569.8700, 765.6262
570.3521, 756.6596
570.8342, 742.1224
571.3163, 736.3533
571.7985, 744.2656
572.2806, 756.7614
572.7627, 762.9089
573.2448, 761.9093
573.7269, 762.2658
574.2090, 766.5383
574.6912, 769.0487
575.1733, 765.9796
575.6554, 761.6697
576.1375, 761.5695
576.6196, 766.6090
577.1017, 772.3010
577.5839, 773.9959
578.0660, 773.0956
578.5481, 774.6100
579.0302, 778.8849
579.5123, 783.0948
579.9944, 785.9389
580.4766, 787.9750
580.9587, 790.0945
581.4408, 792.1145
581.9229, 794.8863
582.4050, 798.5511
582.8871, 802.9568
583.3693, 809.1500
583.8514, 815.8430
584.3335, 820.0516
584.8156, 820.3477
585.2977, 819.4693
585.7798, 820.9069
586.2620, 824.4251
586.7441, 833.7200
587.2262, 852.4814
587.7083, 871.4117
588.1904, 885.4260
