##NAMES=Anglesite
##RRUFFID=R050408
##IDEAL CHEMISTRY=Pb^2+^S^6+^O_4_
##LOCALITY=Tsumeb mine, Tsumeb, Otavi District, Oshikoto, Namibia
##OWNER=RRUFF
##SOURCE=California Institute of Technology
##DESCRIPTION=Pale yellow fragment
##STATUS=The identification of this mineral has been confirmed by X-ray diffraction and chemical analysis
##URL=rruff.info/R050408
##MEASURED CHEMISTRY=Pb_1.00_S_1.00_O_4_
92.52344, 762.8357
93.00555, 744.3494
93.48767, 746.5793
93.96979, 794.5150
94.45190, 842.5565
94.93402, 887.5148
95.41614, 916.5951
95.89825, 933.0823
96.38037, 944.0756
96.86249, 950.1910
97.34460, 953.3441
97.82672, 954.9473
98.30884, 954.7592
98.79095, 954.2588
99.27307, 951.1110
99.75519, 942.0515
100.2373, 927.5735
100.7194, 909.3136
101.2015, 892.7215
101.6837, 877.9697
102.1658, 864.0094
102.6479, 849.9562
103.1300, 835.6334
103.6121, 821.7687
104.0942, 808.7153
104.5764, 796.2950
105.0585, 784.8213
105.5406, 774.8268
106.0227, 765.7408
106.5048, 755.8331
106.9869, 743.8752
107.4691, 732.3547
107.9512, 722.2064
108.4333, 713.2744
108.9154, 705.2168
109.3975, 697.7511
109.8796, 690.8372
110.3618, 684.5855
110.8439, 679.6149
111.3260, 674.7209
111.8081, 669.0755
112.2902, 662.7679
112.7723, 656.6580
113.2544, 652.0093
113.7366, 649.7055
114.2187, 647.4156
114.7008, 644.6196
115.1829, 642.0613
115.6650, 640.2949
116.1471, 639.5004
116.6293, 639.7301
117.1114, 641.2333
117.5935, 643.5802
118.0756, 647.5621
118.5577, 653.8879
119.0398, 662.0339
119.5220, 670.7913
120.0041, 679.4090
120.4862, 688.5834
120.9683, 699.3874
121.4504, 712.1780
121.9325, 725.8761
122.4147, 739.6432
122.8968, 753.4561
123.3789, 767.5685
123.8610, 781.9865
124.3431, 796.8333
124.8252, 812.5211
125.3074, 829.6548
125.7895, 847.1099
126.2716, 862.6201
126.7537, 875.8265
127.2358, 887.2158
127.7179, 896.8656
128.2001, 905.2229
128.6822, 913.0012
129.1643, 920.6222
129.6464, 928.0533
130.1285, 934.4373
130.6107, 938.6458
131.0928, 942.8551
131.5749, 948.1820
132.0570, 953.9940
132.5391, 958.9277
133.0212, 961.7845
133.5034, 962.4220
133.9855, 961.4403
134.4676, 959.5342
134.9497, 955.9055
135.4318, 950.5431
135.9139, 943.3019
136.3960, 933.3351
136.8782, 919.4062
137.3603, 900.7360
137.8424, 880.8478
138.3245, 860.0321
138.8066, 838.0901
139.2887, 814.8002
139.7709, 790.1111
140.2530, 764.4648
140.7351, 737.7971
141.2172, 710.3505
141.6993, 683.6481
142.1814, 658.5950
142.6636, 635.0473
143.1457, 612.1869
143.6278, 589.7757
144.1099, 568.4799
144.5920, 548.3593
145.0741, 529.5082
145.5563, 511.7664
146.0384, 494.9063
146.5205, 478.8963
147.0026, 464.3134
147.4847, 451.6919
147.9668, 440.3061
148.4490, 429.8443
148.9311, 420.2847
149.4132, 411.7180
149.8953, 404.3907
150.3774, 398.6141
150.8595, 393.5281
151.3417, 389.3061
151.8238, 385.4675
152.3059, 381.3232
152.7880, 376.6973
153.2701, 372.2898
153.7522, 369.9727
154.2344, 374.3251
154.7165, 375.5380
155.1986, 370.8427
155.6807, 363.4712
156.1628, 357.3965
156.6449, 354.6307
157.1271, 354.4948
157.6092, 354.3770
158.0913, 353.9481
158.5734, 353.8809
159.0555, 354.2690
159.5376, 355.1509
160.0198, 356.7057
160.5019, 359.2108
160.9840, 362.3975
161.4661, 365.1463
161.9482, 367.3195
162.4303, 369.2369
162.9125, 371.1885
163.3946, 373.1589
163.8767, 374.7543
164.3588, 375.8664
164.8409, 376.3406
165.3230, 375.9171
165.8052, 374.2833
166.2873, 371.9689
166.7694, 369.7567
167.2515, 367.8130
167.7336, 365.3472
168.2157, 361.7899
168.6979, 357.5699
169.1800, 353.0086
169.6621, 348.0194
170.1442, 342.9374
170.6263, 338.7414
171.1084, 335.9675
171.5906, 333.3015
172.0727, 329.8023
172.5548, 326.2014
173.0369, 323.5924
173.5190, 322.7899
174.0011, 323.5424
174.4833, 323.7287
174.9654, 322.5206
175.4475, 321.5314
175.9296, 320.8195
176.4117, 320.5827
176.8938, 321.2176
177.3760, 323.1759
177.8581, 326.5259
178.3402, 328.4800
178.8223, 327.9624
179.3044, 327.2805
179.7865, 327.0783
180.2687, 327.3905
180.7508, 328.0820
181.2329, 329.1096
181.7150, 330.5324
182.1971, 331.4371
182.6792, 331.8359
183.1614, 331.8075
183.6435, 331.3485
184.1256, 330.4765
184.6077, 329.2621
185.0898, 327.6862
185.5719, 325.7199
186.0541, 323.8999
186.5362, 322.9581
187.0183, 321.7476
187.5004, 319.0541
187.9825, 314.6965
188.4646, 309.7724
188.9468, 305.1927
189.4289, 300.8622
189.9110, 296.2577
190.3931, 291.1370
190.8752, 285.7190
191.3573, 280.3011
191.8395, 274.9283
192.3216, 269.4777
192.8037, 263.8456
193.2858, 258.0946
193.7679, 252.3072
194.2500, 246.4415
194.7322, 240.5757
195.2143, 234.9023
195.6964, 229.6160
196.1785, 224.2528
196.6606, 218.2750
197.1427, 212.0019
197.6249, 206.2066
198.1070, 201.5467
198.5891, 197.9010
199.0712, 194.0249
199.5533, 189.5235
200.0354, 185.2278
200.5176, 181.5588
200.9997, 178.3645
201.4818, 175.2905
201.9639, 172.0663
202.4460, 168.6829
202.9281, 165.4706
203.4103, 162.3974
203.8924, 159.5683
204.3745, 157.2635
204.8566, 155.2718
205.3387, 153.1358
205.8208, 150.3923
206.3030, 146.9100
206.7851, 143.9655
207.2672, 141.8851
207.7493, 139.9653
208.2314, 137.9166
208.7135, 135.7833
209.1957, 133.8129
209.6778, 132.2524
210.1599, 131.1757
210.6420, 129.9780
211.1241, 128.5961
211.6062, 127.1783
212.0884, 125.8004
212.5705, 124.4654
213.0526, 123.1205
213.5347, 121.7090
214.0168, 120.2210
214.4989, 118.7611
214.9811, 117.3462
215.4632, 115.9401
215.9453, 114.5171
216.4274, 113.0743
216.9095, 111.6247
217.3916, 110.1456
217.8737, 108.6463
218.3559, 107.3516
218.8380, 106.4152
219.3201, 105.5776
219.8022, 104.5735
220.2843, 103.3837
220.7664, 102.2617
221.2486, 101.4866
221.7307, 100.9650
222.2128, 100.3202
222.6949, 99.56755
223.1770, 98.62932
223.6591, 97.37573
224.1413, 95.77417
224.6234, 94.05551
225.1055, 92.03409
225.5876, 90.04073
226.0697, 88.80223
226.5518, 89.09997
227.0340, 89.95558
227.5161, 89.87125
227.9982, 88.63544
228.4803, 87.18221
228.9624, 85.89428
229.4445, 84.76624
229.9267, 83.82530
230.4088, 83.17860
230.8909, 82.65697
231.3730, 81.91746
231.8551, 80.85798
232.3372, 79.84303
232.8194, 78.96302
233.3015, 78.21841
233.7836, 77.66187
234.2657, 77.38717
234.7478, 77.19873
235.2299, 76.60139
235.7121, 75.31609
236.1942, 74.17642
236.6763, 73.46125
237.1584, 72.97778
237.6405, 72.51857
238.1227, 71.98678
238.6048, 71.45191
239.0869, 71.13560
239.5690, 71.32653
240.0511, 71.20802
240.5332, 70.52256
241.0154, 69.55415
241.4975, 68.52898
241.9796, 67.54005
242.4617, 66.64628
242.9438, 66.02612
243.4259, 65.88933
243.9081, 65.70942
244.3902, 65.44259
244.8723, 65.10439
245.3544, 64.67432
245.8365, 64.14748
246.3186, 63.60651
246.8008, 63.25505
247.2829, 63.43933
247.7650, 63.29572
248.2471, 62.54230
248.7292, 61.59388
249.2113, 60.82731
249.6935, 60.37162
250.1756, 60.09821
250.6577, 59.75302
251.1398, 59.19799
251.6219, 58.78031
252.1040, 58.62700
252.5862, 58.53928
253.0683, 58.34120
253.5504, 57.98319
254.0325, 57.53156
254.5146, 57.08876
254.9967, 56.62959
255.4789, 56.24250
255.9610, 56.02809
256.4431, 55.83017
256.9252, 55.47210
257.4073, 54.92222
257.8894, 54.34701
258.3716, 53.97917
258.8537, 53.94202
259.3358, 53.80181
259.8179, 53.43572
260.3000, 53.03968
260.7821, 52.84850
261.2643, 52.88681
261.7464, 52.88310
262.2285, 52.50222
262.7106, 51.62038
263.1927, 50.94435
263.6748, 50.49864
264.1570, 50.25476
264.6391, 50.33696
265.1212, 50.72390
265.6033, 50.98471
266.0854, 50.63196
266.5675, 49.63269
267.0497, 48.96542
267.5318, 48.92466
268.0139, 49.03551
268.4960, 48.91693
268.9781, 48.55358
269.4602, 48.15749
269.9424, 47.87073
270.4245, 47.69548
270.9066, 47.56179
271.3887, 47.56795
271.8708, 47.53983
272.3529, 47.30341
272.8351, 46.87470
273.3172, 46.46309
273.7993, 46.19686
274.2814, 46.04585
274.7635, 45.88440
275.2456, 45.75135
275.7278, 45.56331
276.2099, 45.19271
276.6920, 44.67060
277.1741, 44.25482
277.6562, 44.08545
278.1383, 44.10057
278.6205, 44.16750
279.1026, 44.38464
279.5847, 44.44308
280.0668, 43.96468
280.5489, 43.06216
281.0310, 42.45487
281.5132, 42.56311
281.9953, 42.91649
282.4774, 42.81435
282.9595, 42.18832
283.4416, 41.52512
283.9237, 41.07536
284.4059, 40.82018
284.8880, 40.70407
285.3701, 40.80086
285.8522, 40.91624
286.3343, 40.81984
286.8164, 40.52343
287.2986, 40.25088
287.7807, 40.15726
288.2628, 40.18559
288.7449, 40.13947
289.2270, 39.95106
289.7091, 39.75994
290.1913, 39.69897
290.6734, 39.73579
291.1555, 39.75462
291.6376, 39.72401
292.1197, 39.63604
292.6018, 39.43529
293.0840, 39.04800
293.5661, 38.72231
294.0482, 38.74127
294.5303, 38.92756
295.0124, 38.94286
295.4945, 38.54259
295.9767, 37.95592
296.4588, 37.61230
296.9409, 37.57545
297.4230, 37.56359
297.9051, 37.41649
298.3872, 37.21280
298.8694, 37.05049
299.3515, 36.98315
299.8336, 36.92258
300.3157, 36.74752
300.7978, 36.44371
301.2799, 36.10099
301.7621, 35.61140
302.2442, 35.17524
302.7263, 35.01650
303.2084, 35.20775
303.6905, 35.48413
304.1726, 35.59528
304.6548, 35.53693
305.1369, 35.39216
305.6190, 35.02366
306.1011, 34.70695
306.5832, 34.72099
307.0653, 35.06995
307.5475, 35.39935
308.0296, 35.40542
308.5117, 35.11276
308.9938, 34.79861
309.4759, 34.41267
309.9580, 34.12198
310.4402, 34.09936
310.9223, 34.27721
311.4044, 34.39831
311.8865, 34.22248
312.3686, 33.83736
312.8507, 33.63941
313.3329, 33.72035
313.8150, 33.84544
314.2971, 33.87653
314.7792, 33.85782
315.2613, 33.87569
315.7434, 33.99904
316.2256, 34.16368
316.7077, 34.22174
317.1898, 34.13894
317.6719, 34.04457
318.1540, 33.92860
318.6361, 33.85653
319.1183, 33.94680
319.6004, 34.28960
320.0825, 34.65138
320.5646, 34.66927
321.0467, 34.28075
321.5288, 33.94758
322.0110, 33.85698
322.4931, 33.85765
322.9752, 33.86979
323.4573, 33.88360
323.9394, 33.83028
324.4215, 33.56169
324.9037, 33.08709
325.3858, 32.82813
325.8679, 33.00801
326.3500, 33.28357
326.8321, 33.42753
327.3142, 33.44367
327.7964, 33.40238
328.2785, 33.33155
328.7606, 33.23722
329.2427, 33.14013
329.7248, 33.01475
330.2069, 32.93636
330.6891, 32.99861
331.1712, 33.13562
331.6533, 33.20251
332.1354, 33.08259
332.6175, 32.87789
333.0996, 32.81456
333.5818, 32.94104
334.0639, 33.05124
334.5460, 32.91656
335.0281, 32.75033
335.5102, 32.85622
335.9923, 33.42688
336.4745, 34.02547
336.9566, 34.06269
337.4387, 33.49966
337.9208, 33.03788
338.4029, 32.98009
338.8850, 33.07530
339.3671, 33.05886
339.8492, 32.89992
340.3314, 32.78299
340.8135, 32.94632
341.2956, 33.31966
341.7777, 33.41161
342.2598, 32.94726
342.7419, 32.45359
343.2241, 32.45817
343.7062, 32.86341
344.1883, 33.18259
344.6704, 33.08280
345.1525, 32.75243
345.6346, 32.62548
346.1168, 32.78202
346.5989, 32.95445
347.0810, 32.86267
347.5631, 32.65877
348.0452, 32.62955
348.5273, 32.98054
349.0095, 33.41739
349.4916, 33.56510
349.9737, 33.41568
350.4558, 33.33599
350.9379, 33.61338
351.4200, 33.98527
351.9022, 33.99482
352.3843, 33.48359
352.8664, 32.99527
353.3485, 32.90711
353.8306, 33.14736
354.3127, 33.46846
354.7949, 33.88254
355.2770, 34.22029
355.7591, 34.20774
356.2412, 33.85470
356.7233, 33.56189
357.2054, 33.53609
357.6876, 33.63913
358.1697, 33.63252
358.6518, 33.46987
359.1339, 33.31427
359.6160, 33.32229
360.0981, 33.46770
360.5803, 33.60332
361.0624, 33.68087
361.5445, 33.76580
362.0266, 33.92120
362.5087, 34.14035
362.9908, 34.37032
363.4730, 34.60537
363.9551, 34.81359
364.4372, 34.90423
364.9193, 34.78746
365.4014, 34.71154
365.8835, 34.81636
366.3657, 35.03002
366.8478, 35.23577
367.3299, 35.41178
367.8120, 35.49316
368.2941, 35.31317
368.7762, 34.76746
369.2584, 34.43695
369.7405, 34.48078
370.2226, 34.72914
370.7047, 35.07747
371.1868, 35.49703
371.6689, 35.88034
372.1511, 36.12793
372.6332, 36.23153
373.1153, 36.34040
373.5974, 36.49195
374.0795, 36.61345
374.5616, 36.63352
375.0438, 36.59334
375.5259, 36.60253
376.0080, 36.72546
376.4901, 36.92857
376.9722, 37.09348
377.4543, 37.12748
377.9365, 37.24194
378.4186, 37.52960
378.9007, 37.87622
379.3828, 38.14130
379.8649, 38.29021
380.3470, 38.41304
380.8292, 38.64596
381.3113, 39.07035
381.7934, 39.35632
382.2755, 39.43547
382.7576, 39.45622
383.2397, 39.44857
383.7219, 39.44981
384.2040, 39.53184
384.6861, 39.75456
385.1682, 40.11158
385.6503, 40.49615
386.1324, 40.93504
386.6146, 41.37260
387.0967, 41.71212
387.5788, 42.07133
388.0609, 42.67025
388.5430, 43.59727
389.0251, 44.60915
389.5073, 45.19456
389.9894, 45.12148
390.4715, 45.09320
390.9536, 44.95128
391.4357, 45.00575
391.9178, 45.51884
392.4000, 46.47048
392.8821, 47.61260
393.3642, 48.79817
393.8463, 50.04165
394.3284, 50.84814
394.8105, 50.73043
395.2927, 50.73256
395.7748, 51.25552
396.2569, 52.12328
396.7390, 53.05141
397.2211, 53.92395
397.7032, 54.72066
398.1854, 55.34054
398.6675, 55.67550
399.1496, 56.17155
399.6317, 57.01188
400.1138, 58.03178
400.5959, 59.14597
401.0781, 60.33474
401.5602, 61.55850
402.0423, 62.78597
402.5244, 64.01340
403.0065, 65.24317
403.4886, 66.54092
403.9708, 67.72944
404.4529, 68.54301
404.9350, 69.14035
405.4171, 69.99306
405.8992, 71.51086
406.3813, 73.28837
406.8635, 74.64803
407.3456, 75.54283
407.8277, 76.46243
408.3098, 77.61162
408.7919, 78.97487
409.2740, 80.53051
409.7562, 82.37634
410.2383, 84.16595
410.7204, 85.54803
411.2025, 86.70777
411.6846, 88.20676
412.1667, 90.21648
412.6489, 92.53649
413.1310, 94.99060
413.6131, 97.58376
414.0952, 100.1948
414.5773, 102.4248
415.0594, 104.9215
415.5416, 108.3875
416.0237, 112.7811
416.5058, 117.4238
416.9879, 121.8393
417.4700, 126.1521
417.9521, 131.0528
418.4343, 136.2385
418.9164, 142.2369
419.3985, 149.1805
419.8806, 157.0413
420.3627, 165.7843
420.8448, 175.4180
421.3270, 185.8120
421.8091, 196.8916
422.2912, 209.0627
422.7733, 220.5959
423.2554, 231.0406
423.7375, 241.2547
424.2197, 251.0791
424.7018, 260.9534
425.1839, 271.8494
425.6660, 284.4330
426.1481, 298.6105
426.6302, 314.2449
427.1124, 330.4544
427.5945, 349.3932
428.0766, 371.6596
428.5587, 396.4616
429.0408, 422.7592
429.5229, 450.3202
430.0051, 480.7823
430.4872, 516.4324
430.9693, 557.2912
431.4514, 602.4714
431.9335, 651.4664
432.4156, 706.0394
432.8978, 766.7518
433.3799, 833.8798
433.8620, 908.5532
434.3441, 991.0287
434.8262, 1081.275
435.3083, 1179.632
435.7905, 1287.277
436.2726, 1398.960
436.7547, 1519.379
437.2368, 1640.223
437.7189, 1758.193
438.2010, 1873.850
438.6832, 1970.700
439.1653, 2037.777
439.6474, 2074.859
440.1295, 2078.952
440.6116, 2044.363
441.0938, 1985.801
441.5759, 1903.457
442.0580, 1805.942
442.5401, 1720.140
443.0222, 1647.538
443.5043, 1594.505
443.9865, 1566.570
444.4686, 1563.665
444.9507, 1584.418
445.4328, 1629.337
445.9149, 1697.197
446.3970, 1786.385
446.8792, 1899.624
447.3613, 2020.019
447.8434, 2151.724
448.3255, 2284.157
448.8076, 2411.057
449.2897, 2530.187
449.7719, 2626.965
450.2540, 2690.942
450.7361, 2722.052
451.2182, 2697.007
451.7003, 2608.568
452.1824, 2481.982
452.6646, 2311.415
453.1467, 2111.692
453.6288, 1901.256
454.1109, 1687.576
454.5930, 1479.886
455.0751, 1294.176
455.5573, 1131.132
456.0394, 991.5471
456.5215, 877.1334
457.0036, 780.5035
457.4857, 699.4000
457.9678, 632.1524
458.4500, 575.4432
458.9321, 527.4880
459.4142, 487.8241
459.8963, 453.3114
460.3784, 424.9386
460.8605, 400.4632
461.3427, 379.6725
461.8248, 361.4618
462.3069, 344.9279
462.7890, 329.8415
463.2711, 315.8267
463.7532, 302.7415
464.2354, 290.4848
464.7175, 278.7437
465.1996, 267.5880
465.6817, 256.8028
466.1638, 246.1437
466.6459, 235.6908
467.1281, 225.6636
467.6102, 216.1904
468.0923, 207.1653
468.5744, 198.5870
469.0565, 190.3857
469.5386, 182.5017
470.0208, 174.7977
470.5029, 167.5382
470.9850, 161.3673
471.4671, 156.3426
471.9492, 151.5524
472.4313, 146.5371
472.9135, 141.7519
473.3956, 137.8096
473.8777, 134.7034
474.3598, 131.7965
474.8419, 128.6406
475.3240, 125.2592
475.8062, 121.9512
476.2883, 118.5391
476.7704, 115.3905
477.2525, 112.6486
477.7346, 110.1875
478.2167, 107.9589
478.6989, 105.9052
479.1810, 103.8444
479.6631, 101.4676
480.1452, 98.66896
480.6273, 96.17281
481.1094, 94.38033
481.5916, 92.49040
482.0737, 90.07677
482.5558, 87.41476
483.0379, 85.01301
483.5200, 83.12441
484.0021, 81.50691
484.4843, 79.64805
484.9664, 77.43201
485.4485, 75.47569
485.9306, 74.03669
486.4127, 72.78896
486.8948, 71.61684
487.3770, 70.47083
487.8591, 69.19001
488.3412, 67.56242
488.8233, 65.78011
489.3054, 64.23183
489.7875, 62.94646
490.2697, 61.72510
490.7518, 60.49854
491.2339, 59.26859
491.7160, 58.00166
492.1981, 56.64958
492.6802, 55.42131
493.1624, 54.46532
493.6445, 53.67577
494.1266, 52.90304
494.6087, 52.11800
495.0908, 51.36998
495.5729, 50.72374
496.0551, 50.17621
496.5372, 49.45135
497.0193, 48.43003
497.5014, 47.40159
497.9835, 46.37200
498.4656, 45.41388
498.9478, 44.60725
499.4299, 43.98073
499.9120, 43.53744
500.3941, 43.35109
500.8762, 43.59975
501.3583, 43.38323
501.8405, 42.20952
502.3226, 41.07093
502.8047, 40.32106
503.2868, 39.86311
503.7689, 39.50363
504.2510, 39.15424
504.7331, 38.81555
505.2152, 38.50670
505.6974, 38.24457
506.1795, 37.89146
506.6616, 37.24297
507.1437, 36.67170
507.6258, 36.54706
508.1079, 36.78379
508.5901, 36.90473
509.0722, 36.57756
509.5543, 36.05167
510.0364, 35.68837
510.5185, 35.48888
511.0006, 35.31127
511.4828, 35.09790
511.9649, 34.86037
512.4470, 34.62705
512.9291, 34.40571
513.4113, 34.16221
513.8934, 33.84600
514.3755, 33.53012
514.8576, 33.31916
515.3397, 33.20453
515.8218, 33.07974
516.3040, 32.87450
516.7861, 32.58398
517.2682, 32.17770
517.7503, 31.48142
518.2324, 30.88766
518.7145, 30.36080
519.1967, 29.99010
519.6788, 29.94625
520.1609, 30.20240
520.6430, 30.46805
521.1251, 30.44818
521.6072, 30.14956
522.0894, 29.81638
522.5715, 29.35295
523.0536, 29.01208
523.5357, 28.99871
524.0178, 29.08385
524.4999, 28.96604
524.9821, 28.55018
525.4642, 28.13220
525.9463, 28.05277
526.4284, 28.22055
526.9105, 28.20537
527.3926, 27.91678
527.8748, 27.53758
528.3569, 27.15678
528.8390, 26.79677
529.3211, 26.53088
529.8032, 26.42218
530.2853, 26.34719
530.7675, 26.30793
531.2496, 26.24405
531.7317, 25.97072
532.2138, 25.42896
532.6959, 24.90864
533.1780, 24.80722
533.6602, 25.24218
534.1423, 25.35597
534.6244, 24.94164
535.1065, 24.48696
535.5886, 24.12296
536.0707, 23.85415
536.5529, 23.68251
537.0350, 23.60731
537.5171, 23.57773
537.9992, 23.48923
538.4813, 23.29939
538.9634, 23.27604
539.4456, 23.60483
539.9277, 23.91201
540.4098, 24.07998
540.8919, 24.09514
541.3740, 23.91121
541.8561, 23.42819
542.3383, 22.91460
542.8204, 22.74249
543.3025, 22.87495
543.7846, 22.94855
544.2667, 22.84990
544.7488, 22.71509
545.2310, 22.70678
545.7131, 22.80930
546.1952, 22.88660
546.6773, 22.93411
547.1594, 22.93585
547.6415, 22.83959
548.1237, 22.69013
548.6058, 22.59227
549.0879, 22.58837
549.5700, 22.65317
550.0521, 22.75069
550.5342, 22.89709
551.0164, 23.02616
551.4985, 23.09437
551.9806, 23.19105
552.4627, 23.46786
552.9448, 23.78275
553.4269, 23.81506
553.9091, 23.38989
554.3912, 22.85354
554.8733, 22.90606
555.3554, 23.67738
555.8375, 24.12500
556.3196, 23.84720
556.8018, 23.52505
557.2839, 23.67295
557.7660, 24.12865
558.2481, 24.41789
558.7302, 24.23017
559.2123, 23.97590
559.6945, 24.13703
560.1766, 24.61631
560.6587, 24.98383
561.1408, 25.11197
561.6229, 25.07270
562.1050, 24.90585
562.5872, 24.57369
563.0693, 24.43051
563.5514, 24.68285
564.0335, 24.92168
564.5156, 24.89596
564.9977, 24.71706
565.4799, 24.61231
565.9620, 24.67096
566.4441, 24.78535
566.9262, 24.75172
567.4083, 24.47263
567.8904, 24.44418
568.3726, 25.07824
568.8547, 25.53739
569.3368, 25.32351
569.8189, 24.79710
570.3010, 24.58460
570.7831, 24.95054
571.2653, 25.50233
571.7474, 25.80629
572.2295, 25.88323
572.7116, 25.89433
573.1937, 25.83376
573.6758, 25.78765
574.1580, 25.81686
574.6401, 25.92023
575.1222, 26.09631
575.6043, 26.44849
576.0864, 26.75589
576.5685, 26.84748
577.0507, 26.83839
577.5328, 26.94975
578.0149, 27.22846
578.4970, 27.49496
578.9791, 27.53642
579.4612, 27.33779
579.9434, 27.29551
580.4255, 27.52226
580.9076, 27.77859
581.3897, 28.13680
581.8718, 28.44434
582.3539, 28.46063
582.8361, 28.16700
583.3182, 27.89927
583.8003, 28.07482
584.2824, 28.61357
584.7645, 28.87142
585.2466, 28.71576
585.7288, 28.65734
586.2108, 29.05147
586.6929, 29.64671
587.1750, 30.02757
587.6572, 30.07232
588.1393, 30.31308
588.6214, 31.13925
589.1035, 32.22591
