##NAMES=Anglesite
##RRUFFID=R040004
##IDEAL CHEMISTRY=Pb^2+^S^6+^O_4_
##LOCALITY=Erupcion mine, Los Lamentos, Chihuahua, Mexico
##OWNER=RRUFF
##SOURCE=University of Arizona Mineral Museum
##DESCRIPTION=Tan colored tabular crystal
##STATUS=The identification of this mineral has been confirmed by X-ray diffraction and chemical analysis
##URL=rruff.info/R040004
##MEASURED CHEMISTRY=Pb_1.00_S_1.00_O_4_
113.1730, 2696.072
113.6551, 2777.235
114.1373, 2854.527
114.6194, 2928.008
115.1015, 2998.628
115.5836, 3064.688
116.0657, 3129.129
116.5478, 3191.394
117.0300, 3252.184
117.5121, 3313.256
117.9942, 3373.414
118.4763, 3434.702
118.9584, 3499.477
119.4405, 3566.826
119.9227, 3640.236
120.4048, 3721.788
120.8869, 3812.851
121.3690, 3908.923
121.8511, 4006.964
122.3332, 4107.994
122.8154, 4214.165
123.2975, 4327.671
123.7796, 4445.893
124.2617, 4567.971
124.7438, 4691.326
125.2259, 4818.873
125.7081, 4953.711
126.1902, 5092.580
126.6723, 5208.233
127.1544, 5307.479
127.6365, 5407.265
128.1186, 5505.569
128.6008, 5601.063
129.0829, 5694.648
129.5650, 5789.175
130.0471, 5884.386
130.5292, 5973.505
131.0113, 6052.024
131.4935, 6120.302
131.9756, 6179.756
132.4577, 6232.670
132.9398, 6276.345
133.4219, 6300.444
133.9040, 6304.746
134.3862, 6294.798
134.8683, 6278.839
135.3504, 6256.817
135.8325, 6216.404
136.3146, 6151.375
136.7967, 6063.484
137.2789, 5966.703
137.7610, 5859.751
138.2431, 5745.277
138.7252, 5623.398
139.2073, 5492.116
139.6894, 5361.040
140.1716, 5232.306
140.6537, 5104.855
141.1358, 4979.214
141.6179, 4851.077
142.1000, 4725.986
142.5821, 4616.435
143.0643, 4523.179
143.5464, 4441.207
144.0285, 4367.806
144.5106, 4304.213
144.9927, 4246.915
145.4748, 4196.283
145.9570, 4152.157
146.4391, 4116.833
146.9212, 4092.855
147.4033, 4074.003
147.8854, 4057.121
148.3675, 4041.083
148.8497, 4028.941
149.3318, 4023.648
149.8139, 4023.272
150.2960, 4018.338
150.7781, 4013.685
151.2602, 4000.964
151.7424, 3975.715
152.2245, 3934.247
152.7066, 3884.825
153.1887, 3829.334
153.6708, 3767.780
154.1529, 3694.498
154.6351, 3601.390
155.1172, 3500.316
155.5993, 3399.433
156.0814, 3297.282
156.5635, 3196.477
157.0456, 3095.217
157.5278, 2994.420
158.0099, 2901.004
158.4920, 2815.547
158.9741, 2737.601
159.4562, 2666.388
159.9383, 2602.149
160.4205, 2544.177
160.9026, 2493.462
161.3847, 2450.290
161.8668, 2409.347
162.3489, 2368.975
162.8310, 2329.787
163.3132, 2292.490
163.7953, 2255.742
164.2774, 2222.101
164.7595, 2194.125
165.2416, 2172.688
165.7237, 2150.825
166.2059, 2125.176
166.6880, 2096.683
167.1701, 2066.787
167.6522, 2031.595
168.1343, 1998.035
168.6164, 1971.765
169.0985, 1954.307
169.5807, 1939.345
170.0628, 1923.892
170.5449, 1907.871
171.0270, 1891.252
171.5091, 1873.374
171.9912, 1855.245
172.4734, 1837.753
172.9555, 1820.917
173.4376, 1804.897
173.9197, 1789.330
174.4018, 1774.527
174.8839, 1761.495
175.3661, 1752.472
175.8482, 1745.113
176.3303, 1736.239
176.8124, 1724.823
177.2945, 1712.975
177.7766, 1703.418
178.2588, 1695.502
178.7409, 1687.000
179.2230, 1676.843
179.7051, 1664.948
180.1872, 1650.997
180.6693, 1634.108
181.1515, 1616.414
181.6336, 1601.264
182.1157, 1588.358
182.5978, 1575.629
183.0799, 1561.212
183.5620, 1545.689
184.0442, 1531.260
184.5263, 1519.065
185.0084, 1506.973
185.4905, 1489.775
185.9726, 1467.763
186.4547, 1446.486
186.9369, 1431.195
187.4190, 1420.484
187.9011, 1409.359
188.3832, 1397.177
188.8653, 1383.481
189.3474, 1366.146
189.8296, 1344.885
190.3117, 1323.909
190.7938, 1306.665
191.2759, 1292.869
191.7580, 1280.554
192.2401, 1269.833
192.7223, 1259.882
193.2044, 1247.710
193.6865, 1232.909
194.1686, 1218.084
194.6507, 1206.007
195.1328, 1196.531
195.6150, 1186.981
196.0971, 1177.147
196.5792, 1166.732
197.0613, 1153.716
197.5434, 1137.454
198.0255, 1121.743
198.5077, 1111.406
198.9898, 1106.615
199.4719, 1101.204
199.9540, 1093.530
200.4361, 1084.075
200.9182, 1075.368
201.4004, 1067.754
201.8825, 1060.024
202.3646, 1050.521
202.8467, 1039.025
203.3288, 1028.404
203.8109, 1019.363
204.2931, 1011.821
204.7752, 1005.238
205.2573, 999.8544
205.7394, 994.8617
206.2215, 989.5443
206.7036, 984.0119
207.1858, 977.8361
207.6679, 970.8151
208.1500, 962.9938
208.6321, 954.7982
209.1142, 945.6992
209.5963, 937.2075
210.0785, 931.5244
210.5606, 929.7925
211.0427, 926.6818
211.5248, 920.5494
212.0069, 911.4803
212.4890, 902.9271
212.9712, 894.7214
213.4533, 887.2695
213.9354, 881.1895
214.4175, 876.6677
214.8996, 872.8431
215.3817, 869.7661
215.8639, 867.4650
216.3460, 864.2892
216.8281, 860.1626
217.3102, 855.2284
217.7923, 849.7410
218.2744, 843.7809
218.7565, 836.8210
219.2387, 828.3065
219.7208, 818.0732
220.2029, 810.2860
220.6850, 806.4879
221.1671, 803.3768
221.6492, 797.0128
222.1314, 785.4374
222.6135, 775.0336
223.0956, 768.0760
223.5777, 764.7040
224.0598, 758.6423
224.5419, 748.0944
225.0241, 736.7902
225.5062, 728.9899
225.9883, 727.2432
226.4704, 723.6202
226.9525, 715.6464
227.4346, 702.9205
227.9168, 693.3363
228.3989, 688.2189
228.8810, 684.8230
229.3631, 680.3727
229.8452, 674.1186
230.3273, 668.2250
230.8095, 663.3337
231.2916, 659.5087
231.7737, 654.8300
232.2558, 648.6579
232.7379, 642.2977
233.2200, 637.2584
233.7022, 634.4396
234.1843, 631.1783
234.6664, 626.7516
235.1485, 621.1745
235.6306, 616.2264
236.1127, 611.8790
236.5949, 608.1239
237.0770, 605.0970
237.5591, 603.5924
238.0412, 601.2836
238.5233, 597.7117
239.0054, 592.8578
239.4876, 587.3426
239.9697, 580.0422
240.4518, 573.2457
240.9339, 569.1613
241.4160, 569.2474
241.8981, 569.2108
242.3803, 568.5034
242.8624, 567.1165
243.3445, 565.0007
243.8266, 561.8771
244.3087, 558.3214
244.7908, 554.8102
245.2730, 551.4769
245.7551, 547.8649
246.2372, 543.6024
246.7193, 538.8022
247.2014, 535.0983
247.6835, 532.7886
248.1657, 531.2417
248.6478, 530.2515
249.1299, 530.7400
249.6120, 529.6988
250.0941, 526.2286
250.5762, 520.7014
251.0584, 516.0581
251.5405, 512.4794
252.0226, 509.6064
252.5047, 507.3720
252.9868, 506.2321
253.4689, 504.6802
253.9511, 502.6918
254.4332, 500.1951
254.9153, 496.5439
255.3974, 490.5963
255.8795, 485.2809
256.3616, 482.6562
256.8438, 483.7035
257.3259, 484.9167
257.8080, 486.4464
258.2901, 487.9200
258.7722, 487.7735
259.2543, 485.2988
259.7365, 482.3712
260.2186, 479.9566
260.7007, 478.2315
261.1828, 476.5258
261.6649, 474.7560
262.1470, 472.9890
262.6292, 471.4766
263.1113, 470.5057
263.5934, 469.1996
264.0755, 467.0074
264.5576, 463.5805
265.0397, 460.3871
265.5219, 457.3008
266.0040, 454.5534
266.4861, 452.7502
266.9682, 452.2780
267.4503, 451.8360
267.9324, 451.0342
268.4146, 450.0364
268.8967, 447.5920
269.3788, 442.8032
269.8609, 437.4860
270.3430, 435.6430
270.8251, 438.4228
271.3073, 440.8571
271.7894, 440.7648
272.2715, 437.9221
272.7536, 434.9262
273.2357, 431.5006
273.7178, 428.3574
274.2000, 426.7310
274.6821, 426.9300
275.1642, 427.3110
275.6463, 427.4682
276.1284, 427.3998
276.6105, 426.4707
277.0927, 424.4018
277.5748, 422.0763
278.0569, 420.6602
278.5390, 420.2527
279.0211, 420.0479
279.5032, 420.2449
279.9854, 420.6214
280.4675, 418.6609
280.9496, 413.7897
281.4317, 408.5163
281.9138, 405.8323
282.3959, 405.8493
282.8781, 405.4098
283.3602, 403.2887
283.8423, 400.1387
284.3244, 399.1908
284.8065, 400.7561
285.2886, 402.5110
285.7708, 402.2651
286.2529, 400.1077
286.7350, 397.6338
287.2171, 394.7775
287.6992, 392.0786
288.1813, 391.6127
288.6635, 393.5028
289.1456, 395.2087
289.6277, 394.3196
290.1098, 391.2439
290.5919, 388.9559
291.0740, 388.3076
291.5562, 388.0558
292.0383, 385.1750
292.5204, 379.7923
293.0025, 375.1203
293.4846, 373.5937
293.9667, 374.5106
294.4489, 375.6116
294.9310, 376.8104
295.4131, 377.6431
295.8952, 377.5458
296.3773, 376.5162
296.8594, 374.5508
297.3416, 370.7458
297.8237, 366.0675
298.3058, 362.6937
298.7879, 360.7594
299.2700, 360.0849
299.7521, 361.6042
300.2343, 364.4974
300.7164, 366.0584
301.1985, 363.7533
301.6806, 359.7257
302.1627, 357.3655
302.6448, 356.8137
303.1270, 357.0428
303.6091, 357.3742
304.0912, 357.7711
304.5733, 358.1750
305.0554, 358.8478
305.5375, 359.3535
306.0197, 359.0595
306.5018, 358.0049
306.9839, 356.8407
307.4660, 356.2872
307.9481, 355.8791
308.4302, 354.9092
308.9124, 352.3813
309.3945, 349.9744
309.8766, 349.2857
310.3587, 350.0511
310.8408, 350.9128
311.3229, 350.6759
311.8051, 350.2984
312.2872, 350.9445
312.7693, 353.8869
313.2514, 356.2165
313.7335, 355.9206
314.2156, 353.5974
314.6978, 351.0104
315.1799, 347.8799
315.6620, 345.4606
316.1441, 344.9814
316.6262, 347.3667
317.1083, 349.6553
317.5905, 350.4655
318.0726, 350.3414
318.5547, 350.2416
319.0368, 351.0451
319.5189, 351.5123
320.0010, 350.5198
320.4832, 347.3919
320.9653, 345.8409
321.4474, 348.8650
321.9295, 353.3743
322.4116, 355.7536
322.8937, 353.1855
323.3759, 350.3532
323.8580, 348.1954
324.3401, 346.7574
324.8222, 346.7816
325.3043, 350.7213
325.7864, 354.9049
326.2686, 356.5013
326.7507, 351.8470
327.2328, 348.3508
327.7149, 347.4384
328.1970, 348.8806
328.6791, 349.9648
329.1613, 350.7467
329.6434, 351.0804
330.1255, 350.8245
330.6076, 348.4186
331.0897, 347.7381
331.5718, 350.1990
332.0540, 354.3899
332.5361, 356.1588
333.0182, 353.6194
333.5003, 351.1605
333.9824, 350.7027
334.4645, 353.2037
334.9467, 354.7637
335.4288, 355.1751
335.9109, 354.7839
336.3930, 353.9423
336.8751, 352.0939
337.3572, 351.1193
337.8394, 351.9414
338.3215, 354.6789
338.8036, 356.1489
339.2857, 355.8930
339.7678, 355.1682
340.2499, 355.7122
340.7320, 357.9635
341.2141, 358.6647
341.6963, 356.3961
342.1784, 352.0753
342.6605, 350.2634
343.1426, 351.3260
343.6247, 353.2385
344.1068, 354.7463
344.5890, 355.8152
345.0711, 355.7468
345.5532, 353.9327
346.0353, 351.6341
346.5174, 351.8567
346.9995, 354.5657
347.4817, 357.3847
347.9638, 358.9772
348.4459, 359.5204
348.9280, 359.4885
349.4101, 358.7973
349.8922, 358.0491
350.3744, 358.1961
350.8565, 359.0138
351.3386, 359.6289
351.8207, 359.3804
352.3028, 358.7516
352.7849, 358.5325
353.2671, 358.7358
353.7492, 359.1194
354.2313, 360.1844
354.7134, 361.1949
355.1955, 360.7391
355.6776, 356.7997
356.1598, 352.6835
356.6419, 351.8339
357.1240, 353.7562
357.6061, 355.7930
358.0882, 356.7086
358.5703, 356.7767
359.0525, 356.0661
359.5346, 354.0092
360.0167, 352.3660
360.4988, 352.1159
360.9809, 353.0331
361.4630, 354.6418
361.9452, 357.3299
362.4273, 360.2063
362.9094, 363.0140
363.3915, 365.9394
363.8736, 367.7338
364.3557, 366.8642
364.8379, 364.9971
365.3200, 364.0844
365.8021, 365.5167
366.2842, 367.0185
366.7663, 368.1398
367.2484, 368.8708
367.7306, 368.8696
368.2127, 367.3650
368.6948, 365.5811
369.1769, 364.3166
369.6590, 363.2149
370.1411, 363.1366
370.6233, 364.6470
371.1054, 367.2968
371.5875, 369.4081
372.0696, 370.9356
372.5517, 371.9457
373.0338, 372.2366
373.5160, 371.0146
373.9981, 371.4855
374.4802, 374.4552
374.9623, 378.4787
375.4444, 381.1449
375.9265, 382.0382
376.4087, 382.7799
376.8908, 383.7676
377.3729, 385.0032
377.8550, 386.4863
378.3371, 388.1907
378.8192, 390.1780
379.3014, 392.5397
379.7835, 395.3105
380.2656, 398.1880
380.7477, 401.2552
381.2298, 404.2557
381.7119, 406.3628
382.1941, 407.5341
382.6762, 408.8689
383.1583, 411.1440
383.6404, 414.1989
384.1225, 417.2640
384.6046, 420.1852
385.0868, 423.3810
385.5689, 428.0540
386.0510, 433.6684
386.5331, 438.2799
387.0152, 439.6526
387.4973, 440.0714
387.9795, 443.0505
388.4616, 448.6328
388.9437, 454.8697
389.4258, 460.5192
389.9079, 465.8277
390.3900, 471.0164
390.8722, 475.8420
391.3543, 480.9613
391.8364, 487.0421
392.3185, 493.8120
392.8006, 500.4676
393.2827, 506.1186
393.7649, 511.8324
394.2470, 518.2592
394.7291, 525.5181
395.2112, 533.4435
395.6933, 542.0519
396.1754, 551.2615
396.6576, 560.9537
397.1397, 571.5033
397.6218, 582.1346
398.1039, 592.4875
398.5860, 602.4857
399.0681, 612.9313
399.5503, 625.4814
400.0324, 637.5924
400.5145, 647.2275
400.9966, 651.4083
401.4787, 657.3783
401.9608, 665.8734
402.4430, 676.5385
402.9251, 688.3583
403.4072, 703.2868
403.8893, 716.4324
404.3714, 724.4080
404.8535, 724.7374
405.3357, 730.7618
405.8178, 743.8799
406.2999, 760.7025
406.7820, 776.7543
407.2641, 792.0522
407.7462, 806.3276
408.2284, 818.8322
408.7105, 830.1271
409.1926, 844.8589
409.6747, 863.4585
410.1568, 882.3333
410.6389, 897.4445
411.1211, 909.6291
411.6032, 924.5728
412.0853, 943.7059
412.5674, 965.1463
413.0495, 985.8651
413.5316, 1006.639
414.0138, 1030.690
414.4959, 1060.771
414.9780, 1095.243
415.4601, 1129.845
415.9422, 1164.319
416.4243, 1204.671
416.9065, 1254.425
417.3886, 1313.731
417.8707, 1381.728
418.3528, 1458.724
418.8349, 1544.389
419.3170, 1642.010
419.7992, 1750.708
420.2813, 1860.652
420.7634, 1972.283
421.2455, 2083.006
421.7276, 2190.959
422.2097, 2296.601
422.6919, 2399.981
423.1740, 2498.920
423.6561, 2596.457
424.1382, 2699.781
424.6203, 2803.175
425.1024, 2916.547
425.5846, 3041.337
426.0667, 3176.700
426.5488, 3329.879
427.0309, 3499.047
427.5130, 3689.463
427.9951, 3904.032
428.4773, 4137.845
428.9594, 4406.262
429.4415, 4710.433
429.9236, 5048.167
430.4057, 5421.215
430.8878, 5828.919
431.3700, 6268.348
431.8521, 6741.531
432.3342, 7248.509
432.8163, 7774.443
433.2984, 8322.116
433.7805, 8879.552
434.2627, 9432.382
434.7448, 9981.779
435.2269, 10538.16
435.7090, 11115.85
436.1911, 11700.49
436.6732, 12283.12
437.1554, 12858.62
437.6375, 13363.11
438.1196, 13785.86
438.6017, 14100.64
439.0838, 14248.62
439.5659, 14209.45
440.0480, 14078.29
440.5302, 13858.04
441.0123, 13612.01
441.4944, 13446.55
441.9765, 13366.29
442.4586, 13412.29
442.9407, 13610.21
443.4229, 13957.32
443.9050, 14441.74
444.3871, 15096.98
444.8692, 15857.22
445.3513, 16684.60
445.8334, 17605.16
446.3156, 18537.92
446.7977, 19515.84
447.2798, 20484.29
447.7619, 21343.11
448.2440, 22215.00
448.7261, 22829.38
449.2083, 23160.27
449.6904, 23218.79
450.1725, 22822.26
450.6546, 21895.15
451.1367, 20616.56
451.6188, 19068.27
452.1010, 17135.53
452.5831, 15274.58
453.0652, 13464.50
453.5473, 11770.69
454.0294, 10302.98
454.5115, 9062.920
454.9937, 8001.745
455.4758, 7101.977
455.9579, 6358.749
456.4400, 5734.131
456.9221, 5226.485
457.4042, 4802.810
457.8864, 4434.757
458.3685, 4121.640
458.8506, 3852.317
459.3327, 3632.792
459.8148, 3446.069
460.2969, 3278.819
460.7791, 3128.063
461.2612, 2989.331
461.7433, 2863.361
462.2254, 2745.661
462.7075, 2635.056
463.1896, 2530.609
463.6718, 2430.170
464.1539, 2334.888
464.6360, 2242.619
465.1181, 2152.852
465.6002, 2064.307
466.0823, 1979.386
466.5645, 1899.118
467.0466, 1823.433
467.5287, 1752.058
468.0108, 1683.805
468.4929, 1620.991
468.9750, 1564.858
469.4572, 1516.740
469.9393, 1470.862
470.4214, 1427.516
470.9035, 1386.494
471.3856, 1347.659
471.8677, 1311.019
472.3499, 1276.359
472.8320, 1243.195
473.3141, 1211.616
473.7962, 1181.333
474.2783, 1152.294
474.7604, 1125.009
475.2426, 1100.258
475.7247, 1077.618
476.2068, 1055.155
476.6889, 1032.597
477.1710, 1010.791
477.6531, 991.4240
478.1353, 973.6255
478.6174, 954.8732
479.0995, 933.3838
479.5816, 911.5851
480.0637, 892.2199
480.5458, 874.9742
481.0280, 859.0418
481.5101, 845.3693
481.9922, 831.8483
482.4743, 816.7040
482.9564, 799.3200
483.4385, 782.1219
483.9207, 766.2040
484.4028, 751.0771
484.8849, 736.2440
485.3670, 721.0873
485.8491, 707.0225
486.3312, 694.6447
486.8134, 683.7377
487.2955, 672.9742
487.7776, 663.2363
488.2597, 652.9010
488.7418, 640.7374
489.2239, 625.7912
489.7061, 614.5231
490.1882, 608.2745
490.6703, 603.7089
491.1524, 597.2042
491.6345, 588.5659
492.1166, 578.5763
492.5988, 566.2989
493.0809, 553.5490
493.5630, 546.0355
494.0451, 543.5270
494.5272, 540.9285
495.0093, 534.1049
495.4915, 525.1263
495.9736, 519.2352
496.4557, 516.8608
496.9378, 514.3678
497.4199, 507.7794
497.9020, 499.2034
498.3842, 492.0390
498.8663, 487.8433
499.3484, 484.4213
499.8305, 481.0666
500.3126, 477.4457
500.7947, 472.7248
501.2769, 464.4749
501.7590, 456.8233
502.2411, 451.9894
502.7232, 450.4752
503.2053, 448.8753
503.6874, 446.8650
504.1696, 444.5368
504.6517, 442.0060
505.1338, 439.5229
505.6159, 436.3220
506.0980, 431.8397
506.5801, 426.8569
507.0623, 423.3458
507.5444, 421.7183
508.0265, 420.1104
508.5086, 417.8405
508.9907, 414.9727
509.4728, 412.0753
509.9550, 409.1934
510.4371, 406.0380
510.9192, 402.2164
511.4013, 397.8943
511.8834, 393.6448
512.3655, 389.3656
512.8477, 385.7151
513.3298, 383.7584
513.8119, 383.0442
514.2940, 382.4932
514.7761, 382.3725
515.2582, 381.6506
515.7404, 378.9274
516.2225, 374.5313
516.7046, 370.8874
517.1867, 369.8587
517.6688, 369.3954
518.1509, 368.1440
518.6331, 365.5724
519.1152, 363.0314
519.5973, 360.7387
520.0794, 358.5865
520.5615, 356.4680
521.0436, 354.2805
521.5258, 352.2248
522.0079, 350.1564
522.4900, 348.2204
522.9721, 347.3791
523.4542, 348.1459
523.9363, 348.5403
524.4185, 347.2690
524.9006, 344.3408
525.3827, 342.2452
525.8648, 341.1492
526.3469, 340.0197
526.8290, 337.1687
527.3112, 333.2107
527.7933, 330.5855
528.2754, 330.3027
528.7575, 330.7610
529.2396, 330.1477
529.7217, 328.6965
530.2039, 327.1094
530.6860, 325.4646
531.1681, 324.0145
531.6502, 323.0540
532.1323, 322.5721
532.6144, 321.8777
533.0966, 320.4160
533.5787, 318.8107
534.0608, 317.4395
534.5429, 315.9883
535.0250, 315.4103
535.5071, 316.8263
535.9893, 318.7668
536.4714, 318.9275
536.9535, 315.9771
537.4356, 313.8759
537.9177, 313.8437
538.3998, 315.4391
538.8820, 315.8602
539.3641, 314.9257
539.8462, 313.6605
540.3283, 312.5450
540.8104, 311.6081
541.2925, 311.0566
541.7747, 310.9203
542.2568, 311.0573
542.7389, 311.2139
543.2210, 311.5293
543.7031, 312.4471
544.1852, 314.5936
544.6674, 316.5662
545.1495, 316.6238
545.6316, 315.4578
546.1137, 314.7927
546.5958, 316.2130
547.0779, 317.6575
547.5601, 317.6840
548.0422, 316.1728
548.5243, 315.5688
549.0064, 317.3660
549.4885, 319.5345
549.9706, 320.7722
550.4528, 320.2174
550.9349, 320.3156
551.4170, 321.1873
551.8991, 322.6098
552.3812, 324.4303
552.8633, 326.8822
553.3455, 328.8038
553.8276, 330.0206
554.3097, 330.4594
554.7918, 329.3555
555.2739, 326.7306
555.7560, 324.6640
556.2382, 324.3813
556.7203, 325.5780
557.2024, 328.1624
557.6845, 332.1880
558.1666, 335.5753
558.6487, 335.8774
559.1309, 334.7645
559.6130, 334.4121
560.0951, 335.7768
560.5772, 337.1553
561.0593, 337.3419
561.5414, 337.0524
562.0236, 337.5447
562.5057, 340.1689
562.9878, 342.5183
563.4699, 343.6664
563.9520, 343.7571
564.4341, 344.5760
564.9163, 346.8977
565.3984, 348.8507
565.8805, 349.3829
566.3626, 348.1913
566.8447, 347.4386
567.3268, 347.2008
567.8090, 347.1545
568.2911, 346.3289
568.7732, 345.0044
569.2553, 346.0832
569.7374, 350.9337
570.2195, 356.8504
570.7017, 360.2830
571.1838, 361.7251
571.6659, 362.6866
572.1480, 362.7688
572.6301, 363.5508
573.1122, 366.9402
573.5944, 372.6572
574.0765, 377.9326
574.5586, 382.0692
575.0407, 384.9933
575.5228, 386.3162
576.0049, 384.8587
576.4871, 384.9901
576.9692, 388.0657
577.4513, 392.2283
577.9334, 395.7873
578.4155, 398.1744
578.8976, 401.1054
579.3798, 404.5562
579.8619, 408.8407
580.3440, 414.9267
580.8261, 422.9167
581.3082, 431.0522
581.7903, 438.0948
582.2725, 444.8602
582.7546, 453.7835
583.2367, 464.7434
583.7188, 476.3561
584.2009, 485.5281
584.6830, 495.5049
585.1652, 510.8687
585.6473, 532.6755
586.1294, 557.1179
586.6115, 582.0925
587.0936, 608.7244
587.5757, 637.8899
588.0578, 671.4401
588.5399, 705.6296
589.0220, 740.7524
589.5042, 775.9779
589.9863, 809.4050
590.4684, 839.4242
590.9505, 869.6516
591.4326, 901.0373
591.9147, 933.4326
592.3969, 964.9974
592.8790, 995.0690
593.3611, 1027.140
593.8432, 1063.104
594.3253, 1102.541
594.8074, 1147.227
595.2896, 1197.440
595.7717, 1250.731
596.2538, 1302.590
596.7359, 1356.253
597.2180, 1417.861
597.7001, 1487.535
598.1823, 1565.625
598.6644, 1653.315
599.1465, 1749.174
599.6286, 1851.164
600.1107, 1961.270
600.5928, 2073.274
601.0750, 2186.454
601.5571, 2300.059
602.0392, 2412.947
602.5213, 2532.216
603.0034, 2642.985
603.4855, 2742.148
603.9677, 2831.956
604.4498, 2889.433
604.9319, 2915.373
605.4140, 2907.776
605.8961, 2862.124
606.3782, 2779.927
606.8604, 2670.604
607.3425, 2531.057
607.8246, 2379.769
608.3067, 2233.692
608.7888, 2093.464
609.2709, 1963.514
609.7531, 1843.742
