##NAMES=Anglesite
##RRUFFID=R050052
##IDEAL CHEMISTRY=Pb^2+^S^6+^O_4_
##LOCALITY=Touissite, Oujela, Morocco
##OWNER=RRUFF
##SOURCE=Eugene Schlepp
##DESCRIPTION=Yellow prismatic single crystal
##STATUS=The identification of this mineral has been confirmed by X-ray diffraction and chemical analysis
##URL=rruff.info/R050052
##MEASURED CHEMISTRY=Pb_1.00_S_1.00_O_4_
123.1454, 81.79632
123.6275, 86.29571
124.1096, 96.88536
124.5917, 112.4265
125.0739, 128.2660
125.5560, 139.2289
126.0381, 148.4470
126.5202, 162.9754
127.0023, 186.8068
127.4844, 213.8961
127.9666, 233.5338
128.4487, 245.8072
128.9308, 257.7840
129.4129, 276.5728
129.8950, 301.0318
130.3772, 324.2856
130.8593, 344.0264
131.3414, 361.1525
131.8235, 378.3323
132.3056, 395.1358
132.7877, 413.1404
133.2699, 435.4921
133.7520, 462.5473
134.2341, 487.9296
134.7162, 508.5982
135.1983, 524.6476
135.6804, 541.0364
136.1626, 558.5688
136.6447, 575.0880
137.1268, 586.4760
137.6089, 592.3777
138.0910, 594.0431
138.5731, 591.3768
139.0553, 583.5700
139.5374, 575.0771
140.0195, 565.8879
140.5016, 556.2399
140.9837, 547.5831
141.4658, 540.4960
141.9480, 533.3569
142.4301, 525.0607
142.9122, 515.0708
143.3943, 505.0291
143.8764, 494.4864
144.3585, 483.5838
144.8407, 474.9710
145.3228, 468.9972
145.8049, 465.1172
146.2870, 462.9424
146.7691, 462.9742
147.2512, 464.0698
147.7334, 465.9466
148.2155, 468.4876
148.6976, 472.4482
149.1797, 478.0673
149.6618, 485.0612
150.1439, 492.9837
150.6261, 506.0048
151.1082, 516.1196
151.5903, 520.7397
152.0724, 517.3644
152.5545, 513.9905
153.0366, 511.9842
153.5188, 510.3282
154.0009, 507.0381
154.4830, 501.2408
154.9651, 494.1572
155.4472, 486.3628
155.9293, 478.8743
156.4115, 469.3273
156.8936, 455.5419
157.3757, 438.8649
157.8578, 423.7646
158.3399, 411.9551
158.8221, 401.9151
159.3042, 392.5250
159.7863, 382.6798
160.2684, 374.2825
160.7505, 368.5890
161.2326, 365.2510
161.7148, 362.0000
162.1969, 358.5571
162.6790, 354.4548
163.1611, 349.2959
163.6432, 339.9357
164.1253, 331.8272
164.6075, 328.9765
165.0896, 331.5667
165.5717, 333.6035
166.0538, 331.2578
166.5359, 326.3292
167.0180, 321.4091
167.5002, 316.9170
167.9823, 313.2026
168.4644, 310.7511
168.9465, 309.7325
169.4286, 309.0399
169.9107, 307.7378
170.3929, 306.1653
170.8750, 305.0034
171.3571, 304.8166
171.8392, 305.1369
172.3213, 305.6176
172.8034, 306.3621
173.2856, 306.7672
173.7677, 306.2712
174.2498, 304.9561
174.7319, 303.1232
175.2140, 301.0827
175.6961, 298.6172
176.1783, 294.8531
176.6604, 288.4526
177.1425, 282.9139
177.6246, 284.0315
178.1067, 290.8605
178.5888, 297.3466
179.0710, 298.3773
179.5531, 295.7794
180.0352, 293.5110
180.5173, 292.6789
180.9994, 292.4669
181.4815, 291.4604
181.9637, 289.6781
182.4458, 287.9878
182.9279, 287.8741
183.4100, 288.6672
183.8921, 287.6854
184.3742, 282.9278
184.8564, 276.4423
185.3385, 273.7702
185.8206, 275.1689
186.3027, 276.9767
186.7848, 275.4539
187.2669, 270.9018
187.7491, 265.5417
188.2312, 259.0428
188.7133, 252.3076
189.1954, 249.3667
189.6775, 250.8977
190.1596, 253.2795
190.6418, 251.5922
191.1239, 245.9471
191.6060, 240.7400
192.0881, 238.0363
192.5702, 237.5325
193.0524, 236.8337
193.5345, 236.1685
194.0166, 234.7326
194.4987, 230.7051
194.9808, 223.8900
195.4629, 217.4197
195.9451, 213.0245
196.4272, 210.6050
196.9093, 208.0942
197.3914, 205.4523
197.8735, 202.6792
198.3556, 199.4954
198.8378, 195.7336
199.3199, 192.6728
199.8020, 191.0419
200.2841, 190.8952
200.7662, 191.8731
201.2483, 194.6649
201.7305, 197.9236
202.2126, 198.1452
202.6947, 194.8616
203.1768, 190.2865
203.6589, 185.1204
204.1410, 179.0678
204.6232, 174.9868
205.1053, 173.6068
205.5874, 174.1542
206.0695, 174.0653
206.5516, 173.1540
207.0337, 172.0950
207.5159, 171.2928
207.9980, 170.7597
208.4801, 170.5441
208.9622, 170.8535
209.4443, 171.4821
209.9264, 171.4218
210.4086, 170.6004
210.8907, 169.2274
211.3728, 167.2558
211.8549, 164.2744
212.3370, 162.0389
212.8191, 160.7905
213.3013, 160.5017
213.7834, 161.1228
214.2655, 163.3650
214.7476, 165.3759
215.2297, 165.2599
215.7118, 162.0015
216.1940, 159.4967
216.6761, 158.8563
217.1582, 159.9343
217.6403, 159.3256
218.1224, 156.2416
218.6045, 152.5368
219.0867, 150.0233
219.5688, 149.1795
220.0509, 148.4270
220.5330, 147.3311
221.0151, 145.8527
221.4972, 145.4201
221.9794, 147.0442
222.4615, 148.5834
222.9436, 147.4859
223.4257, 142.2223
223.9078, 137.4385
224.3899, 134.3903
224.8721, 133.2007
225.3542, 131.3982
225.8363, 127.9254
226.3184, 124.8227
226.8005, 124.8567
227.2827, 130.1301
227.7648, 134.5569
228.2469, 136.7505
228.7290, 136.6325
229.2111, 134.7264
229.6932, 130.0253
230.1754, 124.3760
230.6575, 120.0174
231.1396, 116.9145
231.6217, 115.2758
232.1038, 115.5940
232.5859, 118.4627
233.0681, 120.0860
233.5502, 120.1917
234.0323, 119.2514
234.5144, 117.7606
234.9965, 114.9954
235.4786, 112.9403
235.9608, 112.4142
236.4429, 113.8975
236.9250, 114.6837
237.4071, 114.5402
237.8892, 113.8355
238.3713, 113.1783
238.8535, 112.8089
239.3356, 112.0743
239.8177, 110.6123
240.2998, 108.0495
240.7819, 106.1687
241.2640, 104.9447
241.7462, 104.3861
242.2283, 104.6013
242.7104, 106.1310
243.1925, 107.5460
243.6746, 108.3677
244.1567, 108.4602
244.6389, 108.5142
245.1210, 109.0479
245.6031, 109.2435
246.0852, 107.2873
246.5673, 101.2858
247.0494, 96.37305
247.5316, 94.69331
248.0137, 97.53330
248.4958, 99.29377
248.9779, 99.87890
249.4600, 99.42313
249.9421, 97.86076
250.4243, 93.92699
250.9064, 91.14386
251.3885, 91.27059
251.8706, 95.80502
252.3527, 98.15400
252.8348, 97.55892
253.3170, 95.25738
253.7991, 93.62921
254.2812, 93.20325
254.7633, 92.45631
255.2454, 90.43160
255.7275, 86.21322
256.2097, 84.40143
256.6918, 86.14425
257.1739, 89.52394
257.6560, 90.79179
258.1381, 88.78325
258.6202, 87.07954
259.1024, 87.43437
259.5845, 90.83898
260.0666, 91.90100
260.5487, 89.31955
261.0308, 85.38223
261.5129, 84.53076
261.9951, 88.09371
262.4772, 91.58529
262.9593, 93.07466
263.4414, 92.03333
263.9235, 91.75477
264.4056, 92.94848
264.8878, 94.23503
265.3699, 92.59608
265.8520, 86.52578
266.3341, 81.80582
266.8162, 81.32938
267.2983, 86.08970
267.7805, 88.56010
268.2626, 87.97047
268.7447, 85.91621
269.2268, 85.31476
269.7089, 86.69101
270.1910, 87.62908
270.6732, 86.86382
271.1553, 84.11012
271.6374, 82.58085
272.1195, 82.56849
272.6016, 83.35104
273.0837, 83.76180
273.5659, 83.71190
274.0480, 83.76659
274.5301, 84.44520
275.0122, 85.80633
275.4943, 85.53658
275.9764, 82.94823
276.4586, 80.02297
276.9407, 80.60116
277.4228, 85.28192
277.9049, 88.20592
278.3870, 85.93349
278.8691, 78.80664
279.3513, 74.95888
279.8334, 74.93456
280.3155, 76.79039
280.7976, 78.09098
281.2798, 78.79810
281.7619, 79.59922
282.2440, 81.02546
282.7261, 82.88834
283.2082, 83.65805
283.6903, 83.20708
284.1725, 82.13178
284.6546, 81.08669
285.1367, 80.07578
285.6188, 78.93437
286.1009, 77.22894
286.5830, 75.31071
287.0652, 74.91863
287.5473, 76.22392
288.0294, 78.05148
288.5115, 79.60780
288.9936, 80.78339
289.4757, 80.59342
289.9579, 77.82279
290.4400, 73.67207
290.9221, 71.52042
291.4042, 71.46587
291.8863, 72.18785
292.3684, 72.29156
292.8506, 72.00771
293.3327, 72.38235
293.8148, 74.23101
294.2969, 76.66299
294.7790, 78.08427
295.2611, 78.49501
295.7433, 78.09026
296.2254, 76.32612
296.7075, 73.79135
297.1896, 72.26060
297.6717, 72.74911
298.1538, 74.02176
298.6360, 74.19759
299.1181, 73.34853
299.6002, 72.30765
300.0823, 71.37245
300.5644, 70.72937
301.0465, 70.86874
301.5287, 72.63403
302.0108, 74.33424
302.4929, 73.54060
302.9750, 70.65776
303.4571, 68.05135
303.9392, 67.41190
304.4214, 67.96488
304.9035, 68.69621
305.3856, 69.42211
305.8677, 70.15143
306.3498, 71.27568
306.8319, 72.51678
307.3141, 72.90231
307.7962, 70.90238
308.2783, 68.20744
308.7604, 66.47118
309.2425, 66.25288
309.7246, 66.61722
310.2068, 67.31799
310.6889, 68.18076
311.1710, 68.76260
311.6531, 68.63361
312.1352, 68.27472
312.6173, 67.97519
313.0995, 67.69875
313.5816, 67.73630
314.0637, 68.46459
314.5458, 69.58932
315.0279, 70.56071
315.5100, 71.09165
315.9922, 71.47157
316.4743, 71.93172
316.9564, 72.61644
317.4385, 72.89089
317.9206, 72.04958
318.4027, 70.78486
318.8849, 70.06430
319.3670, 70.30515
319.8491, 70.99536
320.3312, 72.17005
320.8133, 74.00014
321.2954, 75.27801
321.7776, 75.72682
322.2597, 75.53934
322.7418, 74.92104
323.2239, 73.18958
323.7060, 71.74010
324.1881, 71.21276
324.6703, 71.76287
325.1524, 71.42351
325.6345, 68.68734
326.1166, 65.74213
326.5987, 64.33050
327.0808, 65.79381
327.5630, 67.22961
328.0451, 68.46929
328.5272, 69.49706
329.0093, 69.93031
329.4914, 69.21436
329.9735, 68.39882
330.4557, 68.12615
330.9378, 68.32049
331.4199, 69.27571
331.9020, 71.65380
332.3841, 74.92097
332.8662, 76.30354
333.3484, 74.76131
333.8305, 72.89147
334.3126, 72.31498
334.7947, 73.88023
335.2768, 74.00523
335.7589, 71.89465
336.2411, 68.58876
336.7232, 66.48337
337.2053, 65.52425
337.6874, 65.98036
338.1695, 68.84325
338.6516, 74.66866
339.1338, 77.60810
339.6159, 76.96316
340.0980, 74.32011
340.5801, 71.96291
341.0622, 69.80158
341.5443, 68.55322
342.0265, 68.73209
342.5086, 70.19522
342.9907, 71.81199
343.4728, 73.69351
343.9549, 75.23746
344.4370, 75.34708
344.9192, 74.18586
345.4013, 73.31300
345.8834, 73.33327
346.3655, 74.02499
346.8476, 74.91354
347.3297, 76.00168
347.8119, 77.09857
348.2940, 78.58654
348.7761, 80.00716
349.2582, 79.72822
349.7403, 75.85836
350.2225, 71.54409
350.7046, 72.23364
351.1867, 77.30550
351.6688, 81.91586
352.1509, 81.68782
352.6331, 79.00368
353.1152, 77.52640
353.5973, 78.53431
354.0794, 80.06036
354.5615, 79.95465
355.0436, 78.83776
355.5258, 78.59815
356.0079, 81.97575
356.4900, 85.74080
356.9721, 86.80788
357.4542, 84.05049
357.9363, 80.81067
358.4185, 78.41379
358.9006, 76.85938
359.3827, 76.14648
359.8648, 76.44392
360.3469, 77.44897
360.8290, 79.56864
361.3112, 83.18665
361.7933, 85.29560
362.2754, 83.16606
362.7575, 79.72049
363.2396, 78.12877
363.7217, 81.84789
364.2039, 84.76913
364.6860, 84.82639
365.1681, 81.94929
365.6502, 79.69533
366.1323, 78.60938
366.6144, 78.16876
367.0966, 78.01719
367.5787, 78.04131
368.0608, 78.47874
368.5429, 79.38634
369.0250, 80.73910
369.5071, 82.43086
369.9893, 85.00848
370.4714, 87.28395
370.9535, 88.79028
371.4356, 89.85934
371.9177, 89.20715
372.3998, 85.89265
372.8820, 81.30728
373.3641, 78.64062
373.8462, 78.39950
374.3283, 78.76160
374.8104, 78.88726
375.2925, 78.66078
375.7747, 79.81911
376.2568, 82.81974
376.7389, 86.31740
377.2210, 88.40638
377.7031, 89.00063
378.1852, 89.43947
378.6674, 90.27046
379.1495, 91.27023
379.6316, 91.22587
380.1137, 90.00663
380.5958, 88.93124
381.0779, 89.64407
381.5601, 91.73399
382.0422, 93.06913
382.5243, 92.99220
383.0064, 92.20224
383.4885, 91.62367
383.9706, 91.28161
384.4528, 91.39822
384.9349, 93.03232
385.4170, 94.99490
385.8991, 94.91494
386.3812, 91.76073
386.8633, 88.76268
387.3455, 88.99271
387.8276, 91.67730
388.3097, 95.07373
388.7918, 99.80727
389.2739, 103.9088
389.7560, 105.2486
390.2382, 103.4197
390.7203, 101.8040
391.2024, 102.5953
391.6845, 104.4756
392.1666, 105.9386
392.6487, 105.6850
393.1309, 105.6686
393.6130, 106.4925
394.0951, 108.1729
394.5772, 110.7064
395.0593, 115.9562
395.5414, 120.8846
396.0236, 123.5320
396.5057, 120.1728
396.9878, 118.6320
397.4699, 120.5127
397.9520, 124.8559
398.4341, 128.6405
398.9163, 132.1222
399.3984, 134.7703
399.8805, 136.2713
400.3626, 136.1857
400.8447, 136.2048
401.3268, 136.0843
401.8090, 136.2503
402.2911, 137.2979
402.7732, 139.2642
403.2553, 142.0736
403.7374, 146.2882
404.2195, 151.7189
404.7017, 154.4996
405.1838, 153.8565
405.6659, 152.6666
406.1480, 153.3660
406.6301, 155.9618
407.1122, 159.9719
407.5944, 166.1157
408.0765, 172.8073
408.5586, 175.5751
409.0407, 174.5058
409.5228, 173.2865
410.0049, 174.6636
410.4871, 177.7800
410.9692, 179.9958
411.4513, 180.7580
411.9334, 181.8124
412.4155, 185.9703
412.8976, 192.2243
413.3798, 197.5022
413.8619, 199.4641
414.3440, 200.3889
414.8261, 202.8633
415.3082, 206.9495
415.7903, 210.9112
416.2725, 212.9020
416.7546, 214.4326
417.2367, 217.2864
417.7188, 222.8829
418.2009, 228.8914
418.6830, 233.6078
419.1652, 237.6831
419.6473, 243.3238
420.1294, 250.7615
420.6115, 260.3674
421.0937, 272.9662
421.5758, 290.5689
422.0579, 306.5246
422.5400, 318.7393
423.0221, 329.0808
423.5042, 340.8231
423.9864, 351.8551
424.4685, 366.6522
424.9506, 387.4742
425.4327, 414.6015
425.9148, 440.4465
426.3969, 463.2399
426.8791, 486.7488
427.3612, 513.8924
427.8433, 544.9095
428.3254, 578.3792
428.8075, 613.4226
429.2896, 651.0153
429.7718, 693.7023
430.2539, 741.6968
430.7360, 793.7418
431.2181, 844.9052
431.7002, 896.3655
432.1823, 967.7327
432.6645, 1062.712
433.1466, 1168.896
433.6287, 1264.269
434.1108, 1352.762
434.5929, 1455.408
435.0750, 1582.558
435.5572, 1727.657
436.0393, 1885.358
436.5214, 2054.893
437.0035, 2220.621
437.4856, 2382.321
437.9677, 2527.602
438.4499, 2636.148
438.9320, 2693.080
439.4141, 2728.666
439.8962, 2749.771
440.3783, 2764.744
440.8604, 2795.749
441.3426, 2846.211
441.8247, 2919.877
442.3068, 3019.232
442.7889, 3145.211
443.2710, 3293.674
443.7531, 3459.875
444.2353, 3649.087
444.7174, 3870.085
445.1995, 4122.936
445.6816, 4406.011
446.1637, 4729.979
446.6458, 5088.312
447.1280, 5449.220
447.6101, 5846.497
448.0922, 6210.305
448.5743, 6514.846
449.0564, 6811.139
449.5385, 6914.184
450.0207, 6798.250
450.5028, 6507.975
450.9849, 6101.582
451.4670, 5565.237
451.9491, 4999.862
452.4312, 4418.021
452.9134, 3832.873
453.3955, 3326.686
453.8776, 2902.915
454.3597, 2543.431
454.8418, 2249.731
455.3239, 2012.120
455.8061, 1803.076
456.2882, 1614.656
456.7703, 1450.245
457.2524, 1316.026
457.7345, 1210.273
458.2166, 1123.202
458.6988, 1058.790
459.1809, 1006.169
459.6630, 954.9702
460.1451, 903.3313
460.6272, 855.0342
461.1093, 812.3951
461.5915, 774.6644
462.0736, 741.8228
462.5557, 719.7758
463.0378, 696.7413
463.5199, 667.0765
464.0020, 631.9545
464.4842, 599.3890
464.9663, 570.6472
465.4484, 545.5129
465.9305, 524.1574
466.4126, 510.5858
466.8947, 493.0838
467.3769, 468.3894
467.8590, 441.2769
468.3411, 419.4564
468.8232, 405.3662
469.3053, 391.9243
469.7874, 376.8620
470.2696, 360.3808
470.7517, 346.1851
471.2338, 334.4304
471.7159, 324.5698
472.1980, 317.2295
472.6801, 312.2819
473.1623, 305.3669
473.6444, 295.2747
474.1265, 284.0254
474.6086, 274.7351
475.0907, 267.3111
475.5728, 261.1537
476.0550, 256.7136
476.5371, 253.0534
477.0192, 248.6726
477.5013, 243.4942
477.9834, 238.2312
478.4655, 233.5232
478.9477, 229.0130
479.4298, 224.2607
479.9119, 218.5752
480.3940, 213.2435
480.8761, 209.6065
481.3582, 206.9693
481.8404, 203.3729
482.3225, 197.7052
482.8046, 191.3259
483.2867, 184.1086
483.7688, 174.7495
484.2509, 169.0792
484.7331, 170.9884
485.2152, 175.0746
485.6973, 176.2977
486.1794, 172.8880
486.6615, 169.6219
487.1436, 167.2019
487.6258, 165.4232
488.1079, 163.3197
488.5900, 160.8620
489.0721, 158.1895
489.5542, 155.6233
490.0363, 153.1665
490.5185, 149.1950
491.0006, 143.3525
491.4827, 137.1568
491.9648, 132.3627
492.4470, 128.9185
492.9291, 126.7446
493.4112, 126.3294
493.8933, 126.7766
494.3754, 126.8461
494.8575, 126.5760
495.3397, 126.2022
495.8218, 126.0355
496.3039, 125.7652
496.7860, 125.0213
497.2681, 123.6616
497.7502, 122.1437
498.2324, 120.4254
498.7145, 118.7681
499.1966, 117.4944
499.6787, 116.9666
500.1608, 116.5853
500.6429, 116.7389
501.1251, 117.2817
501.6072, 116.0717
502.0893, 110.5323
502.5714, 105.3474
503.0535, 102.8887
503.5356, 104.8202
504.0178, 105.4295
504.4999, 104.0887
504.9820, 101.9894
505.4641, 100.9399
505.9462, 101.1018
506.4283, 101.5105
506.9105, 102.0432
507.3926, 102.5780
507.8747, 102.5459
508.3568, 101.9215
508.8389, 101.1813
509.3210, 100.4308
509.8032, 99.83065
510.2853, 100.2769
510.7674, 102.3355
511.2495, 103.4852
511.7316, 99.48793
512.2137, 92.73898
512.6959, 88.16689
513.1780, 89.86597
513.6601, 92.67722
514.1422, 93.36189
514.6243, 92.12436
515.1064, 90.64689
515.5886, 89.32080
516.0707, 88.13990
516.5528, 87.03091
517.0349, 85.54314
517.5170, 85.03028
517.9991, 86.94724
518.4813, 89.39616
518.9634, 89.87685
519.4455, 87.10154
519.9276, 84.53539
520.4097, 82.70935
520.8918, 81.64995
521.3740, 81.63279
521.8561, 83.08244
522.3382, 84.16800
522.8203, 83.11938
523.3024, 80.14933
523.7845, 79.22270
524.2667, 81.03250
524.7488, 83.05183
525.2309, 81.54048
525.7130, 77.50122
526.1951, 74.47251
526.6772, 74.06398
527.1594, 74.86109
527.6415, 75.41888
528.1236, 75.79097
528.6057, 76.22766
529.0878, 76.89152
529.5699, 77.65709
530.0521, 78.84847
530.5342, 81.03784
531.0163, 81.26600
531.4984, 75.20292
531.9805, 68.14832
532.4626, 65.70299
532.9448, 75.55833
533.4269, 81.64318
533.9090, 79.99007
534.3911, 73.02785
534.8732, 70.58693
535.3553, 75.07530
535.8375, 79.54228
536.3196, 80.65300
536.8017, 78.21082
537.2838, 77.03527
537.7659, 77.35769
538.2480, 78.15018
538.7302, 78.14980
539.2123, 77.53141
539.6944, 77.74182
540.1765, 79.69704
540.6586, 81.50893
541.1407, 79.58080
541.6229, 74.99527
542.1050, 71.61454
542.5871, 73.22779
543.0692, 75.84818
543.5513, 75.47531
544.0334, 71.93073
544.5156, 68.84004
544.9977, 67.59050
545.4798, 67.67185
545.9619, 68.79031
546.4440, 72.11594
546.9261, 74.64867
547.4083, 75.70284
547.8904, 75.75833
548.3725, 75.65208
548.8546, 75.30824
549.3367, 74.88924
549.8188, 74.17184
550.3010, 73.27893
550.7831, 73.91634
551.2652, 76.52350
551.7473, 79.20230
552.2294, 81.00733
552.7115, 81.86731
553.1937, 80.29920
553.6758, 75.61881
554.1579, 70.86723
554.6400, 70.26959
555.1221, 72.70951
555.6042, 75.00603
556.0864, 76.04487
556.5685, 76.45457
557.0506, 76.70962
557.5327, 76.81207
558.0148, 76.76192
558.4969, 76.64417
558.9791, 76.30771
559.4612, 75.25960
559.9433, 73.00233
560.4254, 72.40714
560.9075, 76.65882
561.3896, 81.28160
561.8718, 82.21758
562.3539, 75.67271
562.8360, 72.02227
563.3181, 73.18622
563.8002, 77.17229
564.2823, 78.97878
564.7645, 77.98900
565.2466, 77.55302
565.7287, 79.32719
566.2108, 82.76051
566.6929, 85.58287
567.1750, 87.82047
567.6572, 88.32954
568.1393, 83.51318
568.6214, 76.69447
569.1035, 75.64565
569.5856, 82.91114
570.0677, 90.45937
570.5499, 91.05778
571.0320, 87.70442
571.5141, 85.16360
571.9962, 85.80392
572.4783, 86.96417
572.9604, 87.33343
573.4426, 87.20144
573.9247, 88.15998
574.4068, 93.30496
574.8889, 96.91444
575.3710, 95.91780
575.8531, 88.68900
576.3353, 85.90031
576.8174, 89.83370
577.2995, 94.86272
577.7816, 95.05138
578.2637, 89.80083
578.7458, 86.09014
579.2280, 85.03030
579.7101, 85.74821
580.1922, 86.84580
580.6743, 88.36934
581.1564, 90.57957
581.6385, 93.88855
582.1207, 97.80081
582.6028, 102.3779
583.0849, 107.3148
583.5670, 110.5552
584.0491, 109.1864
584.5313, 106.7090
585.0134, 105.6610
585.4955, 106.3828
585.9776, 108.6812
586.4597, 113.8971
586.9418, 120.0970
587.4240, 125.0127
587.9061, 127.6964
588.3882, 130.5140
588.8703, 133.6871
589.3524, 137.1635
589.8345, 140.4203
590.3167, 142.9083
590.7988, 147.4121
591.2809, 155.9558
591.7630, 167.5855
592.2451, 176.4404
592.7272, 182.3791
593.2094, 188.9974
593.6915, 200.8525
594.1736, 215.1981
594.6557, 225.9738
595.1378, 230.8309
595.6199, 237.1098
596.1021, 252.0062
596.5842, 271.3034
597.0663, 289.0589
597.5485, 300.2288
598.0306, 312.5255
598.5127, 326.5148
598.9948, 343.1364
599.4769, 366.5768
599.9590, 401.7495
600.4412, 438.2750
600.9233, 472.8819
601.4054, 505.6842
601.8875, 537.6023
602.3696, 568.8344
602.8517, 598.1556
603.3339, 626.9233
603.8160, 654.4825
604.2981, 666.5641
604.7802, 659.8965
605.2623, 643.0511
605.7444, 625.9571
606.2266, 607.3664
606.7087, 584.7760
607.1908, 554.8090
607.6729, 522.5520
608.1550, 490.8653
608.6371, 459.9616
609.1193, 429.4329
609.6014, 397.4417
610.0835, 367.4518
610.5656, 342.0031
611.0477, 321.6495
611.5298, 302.2669
612.0120, 281.6752
612.4941, 264.1388
612.9762, 253.4913
613.4583, 252.2753
613.9404, 248.4640
614.4225, 240.4987
614.9047, 231.8080
615.3868, 226.8166
615.8689, 225.4174
616.3510, 227.2994
616.8331, 234.5839
617.3152, 242.1895
617.7974, 242.7764
618.2795, 236.9540
618.7616, 227.2543
619.2437, 212.8802
619.7258, 196.8466
620.2079, 180.1665
620.6901, 163.0573
