##NAMES=Anglesite
##RRUFFID=R050408
##IDEAL CHEMISTRY=Pb^2+^S^6+^O_4_
##LOCALITY=Tsumeb mine, Tsumeb, Otavi District, Oshikoto, Namibia
##OWNER=RRUFF
##SOURCE=California Institute of Technology
##DESCRIPTION=Pale yellow fragment
##STATUS=The identification of this mineral has been confirmed by X-ray diffraction and chemical analysis
##URL=rruff.info/R050408
##MEASURED CHEMISTRY=Pb_1.00_S_1.00_O_4_
92.35352, 48.87151
92.83563, 43.35015
93.31775, 40.99868
93.79987, 43.34049
94.28198, 49.05468
94.76410, 54.21915
95.24622, 57.56533
95.72833, 60.45371
96.21045, 65.60340
96.69257, 73.07915
97.17468, 82.04851
97.65680, 91.89532
98.13892, 102.6503
98.62103, 113.8829
99.10315, 124.7399
99.58527, 135.7095
100.0674, 149.7048
100.5495, 166.7962
101.0316, 186.5059
101.5137, 208.0295
101.9958, 231.5471
102.4780, 256.6994
102.9601, 282.8188
103.4422, 309.4540
103.9243, 340.2384
104.4064, 377.0822
104.8885, 417.0193
105.3707, 455.4235
105.8528, 490.1491
106.3349, 525.8878
106.8170, 564.1480
107.2991, 605.8747
107.7813, 648.4666
108.2634, 694.0958
108.7455, 741.1163
109.2276, 782.3807
109.7097, 811.3036
110.1918, 839.6102
110.6740, 872.2056
111.1561, 916.7227
111.6382, 957.0980
112.1203, 986.6844
112.6024, 1008.618
113.0845, 1040.368
113.5667, 1091.101
114.0488, 1148.832
114.5309, 1206.094
115.0130, 1256.597
115.4951, 1310.330
115.9772, 1370.877
116.4594, 1438.695
116.9415, 1509.084
117.4236, 1578.534
117.9057, 1650.308
118.3878, 1727.561
118.8699, 1817.680
119.3521, 1909.840
119.8342, 1998.961
120.3163, 2084.509
120.7984, 2169.143
121.2805, 2257.289
121.7626, 2345.445
122.2448, 2427.620
122.7269, 2501.326
123.2090, 2567.541
123.6911, 2626.118
124.1732, 2676.097
124.6553, 2722.394
125.1375, 2770.527
125.6196, 2819.019
126.1017, 2863.194
126.5838, 2898.079
127.0659, 2927.123
127.5480, 2956.220
128.0302, 2985.833
128.5123, 3017.006
128.9944, 3051.272
129.4765, 3088.530
129.9586, 3127.846
130.4407, 3168.295
130.9229, 3210.162
131.4050, 3255.528
131.8871, 3305.402
132.3692, 3357.249
132.8513, 3404.390
133.3334, 3441.264
133.8156, 3459.815
134.2977, 3470.387
134.7798, 3484.646
135.2619, 3483.030
135.7440, 3459.428
136.2261, 3417.550
136.7083, 3370.980
137.1904, 3319.984
137.6725, 3263.850
138.1546, 3201.008
138.6367, 3131.027
139.1188, 3056.251
139.6010, 2976.337
140.0831, 2891.645
140.5652, 2801.785
141.0473, 2702.519
141.5294, 2602.350
142.0115, 2513.983
142.4937, 2439.356
142.9758, 2369.246
143.4579, 2299.230
143.9400, 2227.685
144.4221, 2165.121
144.9042, 2112.739
145.3864, 2068.107
145.8685, 2028.486
146.3506, 1994.187
146.8327, 1963.704
147.3148, 1935.895
147.7969, 1909.343
148.2791, 1888.987
148.7612, 1877.450
149.2433, 1871.821
149.7254, 1865.288
150.2075, 1856.379
150.6896, 1847.941
151.1718, 1841.126
151.6539, 1837.172
152.1360, 1833.034
152.6181, 1828.938
153.1002, 1824.676
153.5823, 1819.633
154.0645, 1814.010
154.5466, 1807.366
155.0287, 1799.552
155.5108, 1791.801
155.9929, 1781.199
156.4750, 1765.844
156.9572, 1746.812
157.4393, 1728.841
157.9214, 1710.905
158.4035, 1695.327
158.8856, 1683.486
159.3677, 1679.319
159.8499, 1675.218
160.3320, 1667.824
160.8141, 1658.023
161.2962, 1651.212
161.7783, 1653.723
162.2604, 1658.051
162.7426, 1658.008
163.2247, 1648.477
163.7068, 1637.116
164.1889, 1627.303
164.6710, 1618.995
165.1531, 1609.915
165.6353, 1599.545
166.1174, 1587.631
166.5995, 1573.901
167.0816, 1554.232
167.5637, 1535.658
168.0458, 1524.411
168.5280, 1520.601
169.0101, 1515.377
169.4922, 1499.970
169.9743, 1480.311
170.4564, 1464.782
170.9385, 1460.515
171.4207, 1459.611
171.9028, 1454.167
172.3849, 1443.663
172.8670, 1434.596
173.3491, 1434.347
173.8312, 1438.991
174.3134, 1441.011
174.7955, 1434.656
175.2776, 1424.877
175.7597, 1416.759
176.2418, 1410.350
176.7239, 1406.830
177.2061, 1408.554
177.6882, 1414.154
178.1703, 1419.847
178.6524, 1425.929
179.1345, 1430.478
179.6166, 1429.387
180.0988, 1421.791
180.5809, 1411.965
181.0630, 1404.611
181.5451, 1399.128
182.0272, 1393.427
182.5093, 1387.085
182.9915, 1379.624
183.4736, 1369.888
183.9557, 1357.534
184.4378, 1343.549
184.9199, 1327.943
185.4020, 1311.291
185.8842, 1295.666
186.3663, 1284.612
186.8484, 1276.025
187.3305, 1262.211
187.8126, 1241.680
188.2947, 1217.841
188.7769, 1195.419
189.2590, 1174.381
189.7411, 1154.075
190.2232, 1133.645
190.7053, 1113.373
191.1874, 1095.034
191.6696, 1079.323
192.1517, 1064.156
192.6338, 1044.733
193.1159, 1020.883
193.5980, 997.4254
194.0801, 977.9875
194.5623, 962.2811
195.0444, 944.6569
195.5265, 924.1659
196.0086, 902.3556
196.4907, 882.3750
196.9728, 864.3027
197.4550, 847.3220
197.9371, 830.7321
198.4192, 814.5076
198.9013, 800.3734
199.3834, 789.2767
199.8655, 779.5806
200.3477, 766.2811
200.8298, 748.4072
201.3119, 731.4667
201.7940, 719.1697
202.2761, 711.9642
202.7582, 704.2762
203.2404, 695.3615
203.7225, 685.8669
204.2046, 677.9581
204.6867, 672.2447
205.1688, 666.0135
205.6509, 657.0953
206.1331, 644.7920
206.6152, 634.2362
207.0973, 626.3106
207.5794, 620.1729
208.0615, 613.1731
208.5436, 605.0012
209.0258, 596.7467
209.5079, 589.0564
209.9900, 581.9460
210.4721, 575.4645
210.9542, 569.7283
211.4363, 564.5787
211.9185, 559.6159
212.4006, 555.0825
212.8827, 550.1506
213.3648, 544.2748
213.8469, 537.0302
214.3290, 530.0586
214.8112, 523.0707
215.2933, 516.5474
215.7754, 512.4178
216.2575, 512.0499
216.7396, 511.4744
217.2217, 507.9620
217.7039, 500.0852
218.1860, 493.8275
218.6681, 490.4128
219.1502, 488.8110
219.6323, 485.1579
220.1144, 478.6671
220.5966, 471.5399
221.0787, 464.9289
221.5608, 458.6882
222.0429, 453.4865
222.5250, 449.8306
223.0071, 447.2117
223.4893, 443.9511
223.9714, 440.0388
224.4535, 435.4755
224.9356, 429.8577
225.4177, 421.8985
225.8998, 416.2021
226.3820, 413.7501
226.8641, 413.6046
227.3462, 412.8625
227.8283, 412.2560
228.3104, 409.9491
228.7925, 404.6297
229.2747, 394.1268
229.7568, 385.2593
230.2389, 377.9859
230.7210, 372.4523
231.2031, 369.7318
231.6852, 371.8227
232.1674, 373.7637
232.6495, 372.9610
233.1316, 367.8598
233.6137, 363.5554
234.0958, 360.7635
234.5779, 358.7603
235.0601, 355.3456
235.5422, 349.0523
236.0243, 343.4202
236.5064, 340.2788
236.9885, 341.4677
237.4706, 340.9896
237.9528, 338.0466
238.4349, 333.6516
238.9170, 330.3751
239.3991, 328.7281
239.8812, 327.4366
240.3633, 326.1111
240.8455, 325.1776
241.3276, 323.0615
241.8097, 319.0951
242.2918, 314.2226
242.7739, 310.5911
243.2560, 308.8012
243.7382, 307.3313
244.2203, 305.7301
244.7024, 304.2410
245.1845, 301.8159
245.6666, 297.6222
246.1487, 292.8986
246.6309, 290.0473
247.1130, 289.9720
247.5951, 290.3058
248.0772, 290.4471
248.5593, 290.7272
249.0414, 289.4741
249.5236, 285.7447
250.0057, 281.0770
250.4878, 278.0594
250.9699, 277.6463
251.4520, 277.1762
251.9341, 275.7761
252.4163, 273.2297
252.8984, 270.7054
253.3805, 267.8101
253.8626, 265.2271
254.3447, 264.2344
254.8268, 265.8547
255.3090, 266.9563
255.7911, 266.6500
256.2732, 264.8442
256.7553, 262.2517
257.2374, 258.0356
257.7195, 253.8520
258.2017, 252.0414
258.6838, 253.9905
259.1659, 255.0959
259.6480, 253.9930
260.1301, 250.5954
260.6122, 247.6490
261.0944, 245.2544
261.5765, 243.1767
262.0586, 241.0904
262.5407, 238.8016
263.0228, 237.1055
263.5049, 236.4999
263.9871, 236.8997
264.4692, 236.0732
264.9513, 233.3816
265.4334, 230.4772
265.9155, 229.0477
266.3976, 229.7305
266.8798, 229.7988
267.3619, 228.6388
267.8440, 226.3992
268.3261, 224.4468
268.8082, 223.0148
269.2903, 221.3887
269.7725, 218.4489
270.2546, 213.4375
270.7367, 211.0405
271.2188, 213.1363
271.7009, 218.1430
272.1830, 218.6494
272.6652, 213.0000
273.1473, 207.3739
273.6294, 206.8637
274.1115, 212.7574
274.5936, 215.5768
275.0757, 213.5105
275.5579, 208.4160
276.0400, 205.8573
276.5221, 206.3777
277.0042, 207.2315
277.4863, 206.7963
277.9684, 204.9848
278.4506, 202.9798
278.9327, 200.6712
279.4148, 198.4477
279.8969, 197.3878
280.3790, 197.6879
280.8611, 197.7815
281.3433, 196.6795
281.8254, 194.3885
282.3075, 192.4192
282.7896, 190.7921
283.2717, 189.5259
283.7538, 188.7718
284.2360, 188.5500
284.7181, 188.3381
285.2002, 187.7112
285.6823, 186.7790
286.1644, 186.8649
286.6465, 188.2821
287.1287, 189.5765
287.6108, 188.3550
288.0929, 184.7774
288.5750, 181.8126
289.0571, 180.8621
289.5392, 181.4081
290.0214, 181.3163
290.5035, 180.5004
290.9856, 179.7628
291.4677, 180.3530
291.9498, 181.9809
292.4319, 182.8271
292.9141, 182.2351
293.3962, 180.5788
293.8783, 178.3615
294.3604, 175.5806
294.8425, 173.1904
295.3246, 172.2712
295.8068, 172.4472
296.2889, 172.4121
296.7710, 171.6126
297.2531, 170.7394
297.7352, 171.5328
298.2173, 173.7342
298.6995, 175.1324
299.1816, 173.4406
299.6637, 169.8281
300.1458, 166.6201
300.6279, 163.9793
301.1100, 162.3615
301.5922, 162.9884
302.0743, 165.3815
302.5564, 167.6032
303.0385, 168.6747
303.5206, 168.8231
304.0027, 168.1940
304.4849, 166.6302
304.9670, 165.0253
305.4491, 164.5145
305.9312, 164.6604
306.4133, 164.4142
306.8954, 162.7122
307.3776, 160.6551
307.8597, 159.5878
308.3418, 159.6878
308.8239, 159.5958
309.3060, 157.7459
309.7881, 155.1184
310.2703, 153.3179
310.7524, 153.8104
311.2345, 154.7393
311.7166, 154.3978
312.1987, 152.8377
312.6808, 152.1149
313.1630, 154.5772
313.6451, 158.0365
314.1272, 160.1534
314.6093, 159.1465
315.0914, 157.5556
315.5735, 156.7212
316.0557, 156.4357
316.5378, 155.6024
317.0199, 151.9453
317.5020, 148.6165
317.9841, 148.1958
318.4662, 154.2371
318.9484, 158.7945
319.4305, 157.7479
319.9126, 153.0876
320.3947, 150.0422
320.8768, 151.3765
321.3589, 153.7601
321.8411, 155.6954
322.3232, 157.1053
322.8053, 157.7244
323.2874, 157.3631
323.7695, 156.2045
324.2516, 154.5386
324.7338, 150.5171
325.2159, 147.7343
325.6980, 147.9379
326.1801, 152.2272
326.6622, 154.8459
327.1443, 154.5036
327.6265, 152.7235
328.1086, 151.0125
328.5907, 148.3617
329.0728, 146.9813
329.5549, 147.6667
330.0370, 150.4492
330.5192, 152.7274
331.0013, 155.3830
331.4834, 156.8154
331.9655, 155.6007
332.4476, 148.3929
332.9297, 144.3921
333.4119, 145.6990
333.8940, 150.9533
334.3761, 154.2335
334.8582, 155.0259
335.3403, 154.5682
335.8224, 153.2010
336.3046, 150.2822
336.7867, 148.3826
337.2688, 147.7208
337.7509, 147.9563
338.2330, 148.2973
338.7151, 148.5168
339.1973, 149.5881
339.6794, 152.5606
340.1615, 157.6084
340.6436, 159.9477
341.1257, 158.9424
341.6078, 156.5841
342.0900, 155.5950
342.5721, 156.1580
343.0542, 155.7438
343.5363, 152.7968
344.0184, 148.3526
344.5005, 147.6421
344.9827, 151.1576
345.4648, 154.8498
345.9469, 154.1617
346.4290, 149.7770
346.9111, 147.2728
347.3932, 148.1247
347.8754, 150.8055
348.3575, 152.5671
348.8396, 153.4577
349.3217, 154.1277
349.8038, 155.1646
350.2859, 156.2857
350.7681, 156.7778
351.2502, 156.5094
351.7323, 155.7839
352.2144, 154.4881
352.6965, 152.9249
353.1786, 152.0495
353.6608, 152.7150
354.1429, 154.1588
354.6250, 155.5060
355.1071, 156.7194
355.5892, 157.8855
356.0714, 159.4500
356.5535, 160.9344
357.0356, 161.6189
357.5177, 160.5428
357.9998, 159.1656
358.4819, 158.7826
358.9641, 159.1669
359.4462, 159.0538
359.9283, 156.7518
360.4104, 154.2175
360.8925, 153.2122
361.3746, 155.0531
361.8568, 156.8613
362.3389, 157.0302
362.8210, 156.2908
363.3031, 156.3082
363.7852, 158.6411
364.2673, 161.0139
364.7495, 162.3408
365.2316, 162.3069
365.7137, 161.9655
366.1958, 160.7225
366.6779, 159.5580
367.1600, 159.6142
367.6422, 162.3787
368.1243, 164.9663
368.6064, 167.0818
369.0885, 168.7418
369.5706, 169.0623
370.0527, 166.8593
370.5349, 164.2397
371.0170, 162.4570
371.4991, 161.0806
371.9812, 161.4191
372.4633, 164.6971
372.9454, 169.7261
373.4276, 172.0622
373.9097, 170.3328
374.3918, 168.3415
374.8739, 167.8603
375.3560, 169.1992
375.8381, 170.7132
376.3203, 172.6433
376.8024, 174.4142
377.2845, 174.8305
377.7666, 173.5378
378.2487, 172.7855
378.7308, 173.2440
379.2130, 174.8614
379.6951, 177.6672
380.1772, 181.9600
380.6593, 186.0173
381.1414, 188.0726
381.6235, 188.2998
382.1057, 188.3271
382.5878, 188.1172
383.0699, 188.3801
383.5520, 190.9322
384.0341, 195.5877
384.5162, 200.2109
384.9984, 203.3871
385.4805, 205.5982
385.9626, 207.9561
386.4447, 210.6228
386.9268, 213.1523
387.4089, 214.7303
387.8911, 215.8183
388.3732, 217.4194
388.8553, 219.6886
389.3374, 222.8607
389.8195, 228.1516
390.3016, 235.2715
390.7838, 240.8380
391.2659, 240.5989
391.7480, 238.5446
392.2301, 238.9426
392.7122, 244.6309
393.1943, 250.6655
393.6765, 254.2045
394.1586, 256.1793
394.6407, 259.1572
395.1228, 264.8522
395.6049, 271.1295
396.0870, 277.0568
396.5692, 282.4686
397.0513, 287.5962
397.5334, 292.7669
398.0155, 297.6071
398.4976, 301.5842
398.9797, 301.9746
399.4619, 304.4034
399.9440, 311.0929
400.4261, 322.0053
400.9082, 330.2984
401.3903, 333.9988
401.8724, 336.9438
402.3546, 341.7114
402.8367, 349.5608
403.3188, 356.3332
403.8009, 361.4815
404.2830, 365.5545
404.7651, 369.5939
405.2473, 372.9372
405.7294, 378.0499
406.2115, 386.7238
406.6936, 399.0367
407.1757, 409.3022
407.6578, 417.1347
408.1400, 424.0369
408.6221, 431.5442
409.1042, 439.6637
409.5863, 448.6493
410.0684, 458.4820
410.5505, 469.2782
411.0327, 482.0421
411.5148, 496.7975
411.9969, 512.3274
412.4790, 527.1346
412.9611, 542.3105
413.4432, 560.1202
413.9254, 581.0673
414.4075, 604.6207
414.8896, 629.9528
415.3717, 657.4750
415.8538, 688.0775
416.3359, 719.5128
416.8181, 755.7349
417.3002, 799.1082
417.7823, 850.3271
418.2644, 909.2972
418.7465, 974.4775
419.2286, 1049.383
419.7108, 1136.427
420.1929, 1237.070
420.6750, 1350.335
421.1571, 1475.422
421.6392, 1613.374
422.1213, 1763.828
422.6035, 1941.183
423.0856, 2117.989
423.5677, 2284.960
424.0498, 2439.058
424.5319, 2587.248
425.0140, 2723.541
425.4962, 2858.586
425.9783, 3003.188
426.4604, 3156.896
426.9425, 3320.807
427.4246, 3493.445
427.9067, 3676.872
428.3889, 3872.662
428.8710, 4075.261
429.3531, 4299.034
429.8352, 4555.128
430.3173, 4840.854
430.7994, 5152.894
431.2816, 5485.991
431.7637, 5852.438
432.2458, 6265.605
432.7279, 6725.703
433.2100, 7227.588
433.6921, 7770.748
434.1743, 8356.358
434.6564, 8978.271
435.1385, 9644.693
435.6206, 10332.20
436.1027, 11060.36
436.5848, 11796.90
437.0670, 12470.38
437.5491, 13095.59
438.0312, 13586.03
438.5133, 13892.83
438.9954, 13998.67
439.4775, 13854.38
439.9597, 13343.92
440.4418, 12630.58
440.9239, 11799.70
441.4060, 10856.42
441.8881, 9970.256
442.3702, 9194.118
442.8524, 8552.281
443.3345, 8062.849
443.8166, 7764.575
444.2987, 7580.221
444.7808, 7507.395
445.2629, 7533.112
445.7451, 7620.269
446.2272, 7783.556
446.7093, 7985.687
447.1914, 8224.275
447.6735, 8523.053
448.1556, 8781.784
448.6378, 9033.466
449.1199, 9220.760
449.6020, 9289.716
450.0841, 9253.836
450.5662, 9067.918
451.0483, 8706.788
451.5305, 8188.882
452.0126, 7592.683
452.4947, 6889.070
452.9768, 6181.737
453.4589, 5507.110
453.9410, 4859.441
454.4232, 4289.819
454.9053, 3793.216
455.3874, 3366.775
455.8695, 3007.561
456.3516, 2711.284
456.8337, 2458.759
457.3159, 2245.971
457.7980, 2067.559
458.2801, 1916.702
458.7622, 1792.551
459.2443, 1684.338
459.7264, 1589.072
460.2086, 1504.872
460.6907, 1432.033
461.1728, 1371.986
461.6549, 1317.129
462.1370, 1264.469
462.6191, 1213.935
463.1013, 1166.651
463.5834, 1124.154
464.0655, 1083.807
464.5476, 1045.318
465.0297, 1008.666
465.5118, 972.2498
465.9940, 935.2461
466.4761, 899.3972
466.9582, 865.8607
467.4403, 834.6393
467.9224, 805.2910
468.4045, 778.4399
468.8867, 753.2665
469.3688, 727.9616
469.8509, 701.4979
470.3330, 677.5695
470.8151, 657.1472
471.2972, 640.0867
471.7794, 625.5048
472.2615, 614.2834
472.7436, 602.7606
473.2257, 587.1959
473.7078, 567.4066
474.1899, 552.1391
474.6721, 542.9733
475.1542, 535.6359
475.6363, 522.8302
476.1184, 505.5598
476.6005, 490.2979
477.0826, 480.3102
477.5648, 473.5006
478.0469, 466.8296
478.5290, 460.2259
479.0111, 453.0407
479.4932, 444.8342
479.9753, 435.7831
480.4575, 425.7071
480.9396, 413.9705
481.4217, 403.1713
481.9038, 396.6889
482.3859, 391.9271
482.8680, 385.1452
483.3502, 371.7800
483.8323, 359.4200
484.3144, 351.7540
484.7965, 348.5037
485.2786, 343.6462
485.7607, 334.7663
486.2429, 325.3307
486.7250, 317.0187
487.2071, 310.3146
487.6892, 303.8942
488.1713, 297.7336
488.6534, 291.8883
489.1356, 286.4294
489.6177, 281.5347
490.0998, 276.3592
490.5819, 270.2827
491.0640, 263.7106
491.5461, 259.2319
492.0283, 257.1177
492.5104, 254.9311
492.9925, 250.6246
493.4746, 244.6448
493.9567, 239.6531
494.4388, 235.8194
494.9210, 232.6836
495.4031, 230.0629
495.8852, 227.7064
496.3673, 224.8960
496.8494, 221.1359
497.3315, 217.0488
497.8137, 213.0321
498.2958, 209.1183
498.7779, 205.6179
499.2600, 202.5044
499.7421, 199.9422
500.2242, 198.4199
500.7064, 198.4552
501.1885, 197.3274
501.6706, 193.0465
502.1527, 187.7381
502.6348, 183.6160
503.1169, 181.6977
503.5991, 180.1203
504.0812, 178.8463
504.5633, 177.7958
505.0454, 176.6260
505.5275, 175.2709
506.0096, 173.9394
506.4918, 172.6514
506.9739, 171.3626
507.4560, 170.6765
507.9381, 170.8496
508.4202, 170.9325
508.9023, 169.8961
509.3845, 167.7871
509.8666, 165.3021
510.3487, 162.3552
510.8308, 159.4873
511.3129, 157.8375
511.7950, 157.1707
512.2772, 156.3862
512.7593, 154.6482
513.2414, 152.6123
513.7235, 150.9890
514.2056, 149.7941
514.6877, 148.9146
515.1699, 148.7206
515.6520, 148.5774
516.1341, 147.7929
516.6162, 145.6252
517.0983, 143.9644
517.5804, 144.0439
518.0626, 144.8915
518.5447, 144.9133
519.0268, 143.2895
519.5089, 141.4035
519.9910, 139.5548
520.4731, 137.7276
520.9553, 135.6772
521.4374, 133.0039
521.9195, 130.7365
522.4016, 129.5025
522.8837, 129.4599
523.3658, 129.7682
523.8480, 130.5701
524.3301, 131.4086
524.8122, 131.8387
525.2943, 131.8429
525.7764, 130.9094
526.2585, 128.3438
526.7407, 125.4062
527.2228, 124.8489
527.7049, 126.2514
528.1870, 127.1687
528.6691, 125.4880
529.1512, 122.8424
529.6334, 121.3251
530.1155, 121.1111
530.5976, 120.6039
531.0797, 117.8571
531.5618, 114.7962
532.0439, 113.4238
532.5261, 115.6375
533.0082, 117.5330
533.4903, 118.1651
533.9724, 117.8144
534.4545, 117.0882
534.9366, 115.6915
535.4188, 114.3164
535.9009, 113.0224
536.3830, 111.8199
536.8651, 111.2272
537.3472, 111.5928
537.8293, 111.8896
538.3115, 111.2661
538.7936, 109.6210
539.2757, 108.4891
539.7578, 107.9019
540.2399, 107.9774
540.7220, 109.5954
541.2042, 112.3119
541.6863, 113.5941
542.1684, 112.0010
542.6505, 109.3861
543.1326, 108.3417
543.6147, 108.5824
544.0969, 109.0094
544.5790, 108.9016
545.0611, 108.7611
545.5432, 109.1860
546.0253, 110.2661
546.5074, 110.9088
546.9896, 110.2056
547.4717, 109.1183
547.9538, 108.4241
548.4359, 108.4959
548.9180, 108.6382
549.4001, 108.8263
549.8823, 109.0427
550.3644, 109.2449
550.8465, 109.3615
551.3286, 109.6072
551.8107, 110.0531
552.2928, 110.6813
552.7750, 111.4692
553.2571, 112.5410
553.7392, 113.1945
554.2213, 112.4303
554.7034, 110.6603
555.1855, 110.5497
555.6677, 112.4109
556.1498, 114.5348
556.6319, 115.0021
557.1140, 114.3967
557.5961, 113.9261
558.0782, 114.0715
558.5604, 114.2249
559.0425, 113.4916
559.5246, 112.3919
560.0067, 112.0969
560.4888, 114.4408
560.9709, 116.4687
561.4531, 116.2640
561.9352, 113.7900
562.4173, 112.6203
562.8994, 114.7762
563.3815, 117.1005
563.8636, 117.8518
564.3458, 115.8717
564.8279, 115.5456
565.3100, 117.4871
565.7921, 120.3042
566.2742, 122.2522
566.7563, 123.2876
567.2385, 123.9431
567.7206, 124.1605
568.2027, 124.2686
568.6848, 125.3958
569.1669, 127.3299
569.6490, 128.3503
570.1312, 126.4547
570.6133, 123.5922
571.0954, 122.2833
571.5775, 122.5832
572.0596, 124.5228
572.5417, 130.0819
573.0239, 136.1484
573.5060, 139.7740
573.9881, 139.6994
574.4702, 139.3391
574.9523, 139.7919
575.4344, 140.4918
575.9166, 140.6923
576.3987, 138.5384
576.8808, 138.3760
577.3629, 141.7744
577.8450, 147.3815
578.3271, 150.5360
578.8093, 150.3556
579.2914, 150.3185
579.7735, 151.8774
580.2556, 154.8309
580.7377, 158.0780
581.2198, 161.6664
581.7020, 164.8208
582.1841, 165.9609
582.6662, 166.2517
583.1483, 168.9221
583.6304, 174.7233
584.1125, 180.8850
584.5947, 184.2394
585.0768, 186.5628
585.5589, 190.4634
586.0410, 197.5425
586.5231, 205.5690
587.0052, 213.6055
587.4874, 221.8850
587.9695, 230.8654
588.4516, 239.5933
588.9337, 250.2552
