##NAMES=Anhydrite
##RRUFFID=R061102
##IDEAL CHEMISTRY=CaS^6+^O_4_
##LOCALITY=Taft, Kern County, California
##OWNER=RRUFF
##SOURCE=Michael Scott
##DESCRIPTION=White massive with crystalline gypsum
##STATUS=The identification of this mineral has been confirmed by X-ray diffraction and chemical analysis
##URL=rruff.info/R061102
##MEASURED CHEMISTRY=(Ca_0.98_Fe^2+^_0.02_)_Î£=1_S_1.00_O_4_
158.3777, 13836.78
158.8598, 13882.61
159.3419, 13935.47
159.8240, 13996.52
160.3061, 14073.48
160.7882, 14157.89
161.2704, 14237.77
161.7525, 14305.64
162.2346, 14370.14
162.7167, 14434.85
163.1988, 14500.04
163.6809, 14568.53
164.1631, 14648.69
164.6452, 14734.33
165.1273, 14811.34
165.6094, 14849.21
166.0915, 14887.12
166.5736, 14960.75
167.0558, 15101.57
167.5379, 15242.93
168.0200, 15341.02
168.5021, 15401.34
168.9842, 15444.21
169.4663, 15477.72
169.9485, 15501.80
170.4306, 15516.16
170.9127, 15517.00
171.3948, 15511.09
171.8769, 15495.33
172.3590, 15471.65
172.8412, 15464.60
173.3233, 15508.52
173.8054, 15580.42
174.2875, 15640.63
174.7696, 15661.07
175.2517, 15666.87
175.7339, 15692.56
176.2160, 15739.91
176.6981, 15786.82
177.1802, 15807.67
177.6623, 15811.15
178.1444, 15821.12
178.6266, 15856.45
179.1087, 15904.26
179.5908, 15938.19
180.0729, 15954.21
180.5550, 15968.64
181.0371, 16001.04
181.5193, 16049.31
182.0014, 16101.20
182.4835, 16146.89
182.9656, 16190.95
183.4477, 16252.95
183.9298, 16343.19
184.4120, 16433.02
184.8941, 16469.09
185.3762, 16455.14
185.8583, 16439.42
186.3404, 16456.92
186.8225, 16501.09
187.3047, 16542.10
187.7868, 16572.98
188.2689, 16600.26
188.7510, 16643.89
189.2331, 16704.69
189.7152, 16757.20
190.1974, 16769.86
190.6795, 16747.65
191.1616, 16741.38
191.6437, 16765.72
192.1258, 16812.66
192.6080, 16857.77
193.0901, 16902.37
193.5722, 16941.28
194.0543, 16967.17
194.5364, 16980.00
195.0185, 16992.34
195.5007, 17003.65
195.9828, 17016.45
196.4649, 17048.60
196.9470, 17104.33
197.4291, 17167.51
197.9112, 17224.11
198.3934, 17275.20
198.8755, 17307.69
199.3576, 17306.55
199.8397, 17273.69
200.3218, 17272.88
200.8039, 17310.40
201.2861, 17367.92
201.7682, 17426.04
202.2503, 17488.84
202.7324, 17531.13
203.2145, 17532.58
203.6966, 17486.83
204.1788, 17468.93
204.6609, 17482.45
205.1430, 17519.69
205.6251, 17572.13
206.1072, 17646.18
206.5893, 17713.75
207.0715, 17764.67
207.5536, 17799.52
208.0357, 17808.05
208.5178, 17777.23
208.9999, 17728.68
209.4820, 17717.40
209.9642, 17754.77
210.4463, 17800.85
210.9284, 17835.33
211.4105, 17855.63
211.8926, 17871.40
212.3747, 17876.80
212.8569, 17879.80
213.3390, 17911.28
213.8211, 17982.76
214.3032, 18058.94
214.7853, 18118.37
215.2674, 18156.29
215.7496, 18190.63
216.2317, 18223.83
216.7138, 18254.75
217.1959, 18277.08
217.6780, 18286.98
218.1601, 18294.86
218.6423, 18307.34
219.1244, 18324.29
219.6065, 18346.70
220.0886, 18376.12
220.5707, 18412.18
221.0528, 18448.25
221.5350, 18488.07
222.0171, 18523.71
222.4992, 18546.60
222.9813, 18546.06
223.4634, 18557.29
223.9455, 18591.56
224.4277, 18648.72
224.9098, 18686.23
225.3919, 18694.79
225.8740, 18695.19
226.3561, 18705.58
226.8382, 18724.54
227.3204, 18757.07
227.8025, 18810.41
228.2846, 18886.25
228.7667, 18942.20
229.2488, 18971.04
229.7310, 18985.70
230.2131, 18999.13
230.6952, 19010.71
231.1773, 19021.65
231.6594, 19029.54
232.1415, 19032.38
232.6237, 19051.65
233.1058, 19098.28
233.5879, 19152.38
234.0700, 19189.46
234.5521, 19204.10
235.0342, 19210.79
235.5164, 19208.45
235.9985, 19192.17
236.4806, 19198.63
236.9627, 19244.82
237.4448, 19301.06
237.9269, 19322.92
238.4091, 19281.23
238.8912, 19254.02
239.3733, 19270.98
239.8554, 19349.19
240.3375, 19392.16
240.8196, 19382.56
241.3018, 19348.69
241.7839, 19331.43
242.2660, 19328.82
242.7481, 19346.58
243.2302, 19393.68
243.7123, 19485.85
244.1945, 19546.81
244.6766, 19562.74
245.1587, 19555.21
245.6408, 19562.27
246.1229, 19593.83
246.6050, 19623.31
247.0872, 19638.88
247.5693, 19631.23
248.0514, 19641.69
248.5335, 19679.94
249.0156, 19731.62
249.4977, 19767.53
249.9799, 19779.36
250.4620, 19789.71
250.9441, 19806.10
251.4262, 19829.04
251.9083, 19857.38
252.3904, 19894.62
252.8726, 19935.37
253.3547, 19967.29
253.8368, 19986.94
254.3189, 20004.39
254.8010, 20024.59
255.2831, 20051.02
255.7653, 20069.19
256.2474, 20075.74
256.7295, 20075.64
257.2116, 20078.62
257.6937, 20083.22
258.1758, 20093.67
258.6580, 20112.85
259.1401, 20144.32
259.6222, 20172.88
260.1043, 20195.70
260.5864, 20217.05
261.0685, 20248.64
261.5507, 20299.03
262.0328, 20341.10
262.5149, 20357.84
262.9970, 20334.65
263.4791, 20339.65
263.9612, 20385.38
264.4434, 20451.81
264.9255, 20493.94
265.4076, 20505.69
265.8897, 20508.16
266.3718, 20507.12
266.8539, 20498.20
267.3361, 20505.30
267.8182, 20530.73
268.3003, 20570.70
268.7824, 20622.54
269.2645, 20693.84
269.7466, 20754.51
270.2288, 20792.05
270.7109, 20804.80
271.1930, 20796.51
271.6751, 20752.48
272.1572, 20701.50
272.6393, 20714.58
273.1215, 20809.16
273.6036, 20901.73
274.0857, 20947.74
274.5678, 20941.70
275.0499, 20942.53
275.5320, 20952.87
276.0142, 20969.58
276.4963, 20987.99
276.9784, 21008.99
277.4605, 21027.20
277.9426, 21040.92
278.4247, 21050.17
278.9069, 21048.99
279.3890, 21029.83
279.8711, 21011.66
280.3532, 21035.47
280.8354, 21105.58
281.3175, 21178.67
281.7996, 21234.90
282.2817, 21274.91
282.7638, 21306.10
283.2459, 21328.83
283.7281, 21342.51
284.2102, 21341.38
284.6923, 21324.87
285.1744, 21312.41
285.6565, 21314.28
286.1386, 21329.20
286.6208, 21349.48
287.1029, 21376.72
287.5850, 21404.40
288.0671, 21419.58
288.5492, 21423.22
289.0313, 21433.13
289.5135, 21459.88
289.9956, 21500.52
290.4777, 21546.33
290.9598, 21600.03
291.4419, 21647.68
291.9240, 21666.98
292.4062, 21661.06
292.8883, 21652.31
293.3704, 21641.16
293.8525, 21635.18
294.3346, 21664.58
294.8167, 21735.69
295.2989, 21806.09
295.7810, 21817.35
296.2631, 21782.74
296.7452, 21754.76
297.2273, 21766.61
297.7094, 21798.74
298.1916, 21808.94
298.6737, 21793.63
299.1558, 21786.62
299.6379, 21837.36
300.1200, 21924.68
300.6021, 21994.81
301.0843, 22013.65
301.5664, 22006.02
302.0485, 22000.57
302.5306, 21997.45
303.0127, 22003.15
303.4948, 22032.79
303.9770, 22074.49
304.4591, 22106.65
304.9412, 22106.22
305.4233, 22100.07
305.9054, 22119.51
306.3875, 22163.73
306.8697, 22206.30
307.3518, 22217.63
307.8339, 22217.56
308.3160, 22233.54
308.7981, 22297.18
309.2802, 22364.53
309.7624, 22399.32
310.2445, 22404.26
310.7266, 22404.20
311.2087, 22405.56
311.6908, 22412.41
312.1729, 22429.29
312.6551, 22473.62
313.1372, 22513.68
313.6193, 22524.85
314.1014, 22512.66
314.5835, 22508.59
315.0656, 22531.39
315.5478, 22565.94
316.0299, 22600.33
316.5120, 22638.56
316.9941, 22668.11
317.4762, 22673.13
317.9583, 22662.02
318.4405, 22667.69
318.9226, 22716.42
319.4047, 22775.57
319.8868, 22825.21
320.3689, 22860.72
320.8510, 22887.76
321.3332, 22905.86
321.8153, 22916.06
322.2974, 22922.04
322.7795, 22916.04
323.2616, 22912.35
323.7437, 22917.95
324.2259, 22939.05
324.7080, 22960.04
325.1901, 22980.06
325.6722, 22998.96
326.1543, 23016.54
326.6364, 23029.26
327.1186, 23043.94
327.6007, 23062.88
328.0828, 23087.26
328.5649, 23113.39
329.0470, 23144.09
329.5291, 23175.75
330.0113, 23203.04
330.4934, 23229.71
330.9755, 23247.06
331.4576, 23246.00
331.9397, 23215.28
332.4218, 23220.05
332.9040, 23282.73
333.3861, 23364.21
333.8682, 23412.61
334.3503, 23412.92
334.8324, 23412.85
335.3145, 23426.64
335.7967, 23455.35
336.2788, 23467.91
336.7609, 23455.68
337.2430, 23440.90
337.7251, 23449.66
338.2072, 23487.66
338.6894, 23523.46
339.1715, 23546.22
339.6536, 23560.23
340.1357, 23600.50
340.6178, 23675.09
341.0999, 23750.08
341.5821, 23796.00
342.0642, 23811.58
342.5463, 23819.78
343.0284, 23821.76
343.5105, 23821.08
343.9926, 23828.86
344.4748, 23845.46
344.9569, 23863.68
345.4390, 23877.86
345.9211, 23888.77
346.4032, 23900.93
346.8853, 23915.67
347.3675, 23930.68
347.8496, 23941.30
348.3317, 23947.93
348.8138, 23954.19
349.2959, 23954.29
349.7780, 23956.40
350.2602, 23983.39
350.7423, 24043.51
351.2244, 24107.47
351.7065, 24151.25
352.1887, 24173.93
352.6708, 24171.42
353.1529, 24095.05
353.6350, 24014.06
354.1171, 24027.90
354.5992, 24153.56
355.0814, 24277.65
355.5635, 24298.98
356.0456, 24260.79
356.5277, 24234.46
357.0098, 24263.65
357.4919, 24305.13
357.9741, 24330.16
358.4562, 24337.91
358.9383, 24342.40
359.4204, 24345.61
359.9025, 24351.27
360.3846, 24363.24
360.8668, 24393.15
361.3489, 24419.78
361.8310, 24424.73
362.3131, 24413.20
362.7952, 24423.10
363.2773, 24492.08
363.7595, 24570.10
364.2416, 24624.74
364.7237, 24630.52
365.2058, 24636.86
365.6879, 24650.76
366.1700, 24670.77
366.6522, 24692.01
367.1343, 24719.18
367.6164, 24743.25
368.0985, 24760.00
368.5806, 24761.73
369.0627, 24770.15
369.5449, 24781.17
370.0270, 24799.90
370.5091, 24839.48
370.9912, 24929.69
371.4733, 24997.80
371.9554, 25011.32
372.4376, 24954.52
372.9197, 24937.54
373.4018, 24979.80
373.8839, 25040.87
374.3660, 25069.49
374.8481, 25054.29
375.3303, 25043.82
375.8124, 25052.30
376.2945, 25077.20
376.7766, 25092.88
377.2587, 25097.30
377.7408, 25098.49
378.2230, 25097.33
378.7051, 25093.48
379.1872, 25114.68
379.6693, 25174.35
380.1514, 25255.00
380.6335, 25316.66
381.1157, 25359.93
381.5978, 25379.17
382.0799, 25345.79
382.5620, 25281.29
383.0441, 25267.89
383.5262, 25326.67
384.0084, 25409.34
384.4905, 25455.80
384.9726, 25471.47
385.4547, 25480.00
385.9368, 25494.64
386.4189, 25509.71
386.9011, 25510.44
387.3832, 25492.65
387.8653, 25489.18
388.3474, 25544.00
388.8295, 25629.75
389.3116, 25699.40
389.7938, 25718.29
390.2759, 25724.98
390.7580, 25749.77
391.2401, 25791.65
391.7222, 25820.57
392.2043, 25797.94
392.6865, 25766.83
393.1686, 25765.40
393.6507, 25833.04
394.1328, 25901.07
394.6149, 25951.84
395.0970, 25986.88
395.5792, 26012.41
396.0613, 26025.11
396.5434, 26032.20
397.0255, 26035.94
397.5076, 26026.67
397.9897, 26031.14
398.4719, 26060.90
398.9540, 26103.97
399.4361, 26138.03
399.9182, 26148.65
400.4003, 26167.75
400.8824, 26209.64
401.3646, 26282.74
401.8467, 26329.83
402.3288, 26334.21
402.8109, 26330.17
403.2930, 26357.28
403.7751, 26425.62
404.2573, 26494.30
404.7394, 26553.48
405.2215, 26605.77
405.7036, 26673.14
406.1857, 26763.22
406.6678, 26838.81
407.1500, 26850.78
407.6321, 26801.13
408.1142, 26803.38
408.5963, 26881.09
409.0784, 27004.10
409.5605, 27133.62
410.0427, 27266.73
410.5248, 27366.44
411.0069, 27384.78
411.4890, 27356.59
411.9711, 27367.77
412.4532, 27425.65
412.9354, 27510.27
413.4175, 27599.28
413.8996, 27697.77
414.3817, 27816.33
414.8638, 27983.36
415.3459, 28156.83
415.8281, 28311.46
416.3102, 28444.97
416.7923, 28519.11
417.2744, 28501.48
417.7565, 28414.59
418.2386, 28278.51
418.7208, 28071.04
419.2029, 27849.97
419.6850, 27605.38
420.1671, 27360.25
420.6492, 27177.88
421.1313, 27093.54
421.6135, 27067.47
422.0956, 27088.50
422.5777, 27185.42
423.0598, 27257.65
423.5420, 27283.11
424.0241, 27280.19
424.5062, 27275.87
424.9883, 27266.70
425.4704, 27260.43
425.9525, 27256.13
426.4347, 27253.32
426.9168, 27266.11
427.3989, 27300.91
427.8810, 27343.50
428.3631, 27384.84
428.8452, 27428.19
429.3274, 27457.68
429.8095, 27468.59
430.2916, 27465.21
430.7737, 27455.66
431.2558, 27437.58
431.7379, 27428.43
432.2201, 27444.07
432.7022, 27481.39
433.1843, 27510.19
433.6664, 27527.70
434.1485, 27540.26
434.6306, 27556.80
435.1128, 27575.89
435.5949, 27590.82
436.0770, 27582.69
436.5591, 27575.68
437.0412, 27625.29
437.5233, 27728.00
438.0055, 27814.53
438.4876, 27810.57
438.9697, 27765.19
439.4518, 27746.39
439.9339, 27785.98
440.4160, 27834.26
440.8982, 27854.78
441.3803, 27858.05
441.8624, 27873.65
442.3445, 27930.04
442.8266, 27989.97
443.3087, 28031.65
443.7909, 28047.76
444.2730, 28063.01
444.7551, 28083.37
445.2372, 28105.83
445.7193, 28127.03
446.2014, 28153.16
446.6836, 28170.56
447.1657, 28169.03
447.6478, 28149.91
448.1299, 28155.71
448.6120, 28204.36
449.0941, 28257.08
449.5763, 28287.70
450.0584, 28288.24
450.5405, 28290.85
451.0226, 28296.99
451.5047, 28306.60
451.9868, 28316.93
452.4690, 28325.76
452.9511, 28348.74
453.4332, 28400.85
453.9153, 28477.38
454.3974, 28535.90
454.8795, 28576.30
455.3617, 28602.30
455.8438, 28606.48
456.3259, 28597.13
456.8080, 28609.40
457.2901, 28669.72
457.7722, 28737.38
458.2544, 28741.44
458.7365, 28695.07
459.2186, 28665.01
459.7007, 28717.93
460.1828, 28796.90
460.6649, 28835.14
461.1471, 28810.59
461.6292, 28791.61
462.1113, 28834.96
462.5934, 28904.70
463.0755, 28946.23
463.5576, 28907.23
464.0398, 28869.44
464.5219, 28863.23
465.0040, 28889.90
465.4861, 28927.03
465.9682, 28984.10
466.4503, 29041.62
466.9325, 29087.70
467.4146, 29111.73
467.8967, 29139.79
468.3788, 29179.76
468.8609, 29222.30
469.3430, 29242.02
469.8252, 29226.83
470.3073, 29214.53
470.7894, 29217.45
471.2715, 29235.63
471.7536, 29272.27
472.2357, 29334.47
472.7179, 29394.83
473.2000, 29415.89
473.6821, 29400.34
474.1642, 29399.94
474.6463, 29430.49
475.1284, 29477.83
475.6106, 29514.73
476.0927, 29542.57
476.5748, 29571.65
477.0569, 29619.02
477.5390, 29668.53
478.0211, 29689.39
478.5033, 29673.69
478.9854, 29661.25
479.4675, 29685.54
479.9496, 29732.96
480.4317, 29783.56
480.9138, 29844.80
481.3960, 29893.05
481.8781, 29897.11
482.3602, 29866.55
482.8423, 29875.44
483.3244, 29986.25
483.8065, 30113.23
484.2887, 30205.84
484.7708, 30223.06
485.2529, 30267.20
485.7350, 30367.49
486.2171, 30487.31
486.6992, 30564.07
487.1814, 30556.96
487.6635, 30578.94
488.1456, 30672.12
488.6277, 30831.56
489.1098, 30944.76
489.5919, 30998.86
490.0741, 31044.19
490.5562, 31122.33
491.0383, 31233.61
491.5204, 31353.37
492.0026, 31488.60
492.4847, 31613.47
492.9668, 31664.38
493.4489, 31655.54
493.9310, 31671.40
494.4131, 31777.47
494.8953, 31925.40
495.3774, 32040.31
495.8595, 32122.29
496.3416, 32191.47
496.8237, 32271.57
497.3058, 32345.43
497.7880, 32394.81
498.2701, 32415.42
498.7522, 32408.57
499.2343, 32366.34
499.7164, 32296.92
500.1985, 32218.16
500.6807, 32136.73
501.1628, 32047.50
501.6449, 31945.43
502.1270, 31827.29
502.6091, 31713.11
503.0912, 31601.04
503.5734, 31493.70
504.0555, 31391.18
504.5376, 31289.29
505.0197, 31203.75
505.5018, 31133.87
505.9839, 31083.30
506.4661, 31072.91
506.9482, 31113.40
507.4303, 31142.33
507.9124, 31112.02
508.3945, 31032.79
508.8766, 31006.55
509.3588, 31038.01
509.8409, 31087.56
510.3230, 31122.08
510.8051, 31142.66
511.2872, 31151.47
511.7693, 31149.80
512.2515, 31135.62
512.7336, 31089.82
513.2157, 31025.88
513.6978, 30987.87
514.1799, 31009.50
514.6620, 31058.35
515.1442, 31121.35
515.6263, 31202.60
516.1084, 31259.29
516.5905, 31257.34
517.0726, 31234.15
517.5547, 31225.04
518.0369, 31261.72
518.5190, 31280.25
519.0011, 31260.36
519.4832, 31216.60
519.9653, 31198.83
520.4474, 31211.62
520.9296, 31243.41
521.4117, 31294.79
521.8938, 31368.43
522.3759, 31435.57
522.8580, 31502.65
523.3401, 31546.96
523.8223, 31520.62
524.3044, 31431.63
524.7865, 31395.25
525.2686, 31453.67
525.7507, 31552.13
526.2328, 31599.67
526.7150, 31603.61
527.1971, 31602.40
527.6792, 31623.64
528.1613, 31648.69
528.6434, 31648.41
529.1255, 31619.09
529.6077, 31606.28
530.0898, 31655.62
530.5719, 31727.04
531.0540, 31780.77
531.5361, 31796.23
532.0182, 31803.88
532.5004, 31800.79
532.9825, 31794.56
533.4646, 31807.06
533.9467, 31867.19
534.4288, 31916.87
534.9109, 31934.63
535.3931, 31914.92
535.8752, 31915.51
536.3573, 31944.85
536.8394, 31980.46
537.3215, 32003.03
537.8036, 32011.27
538.2858, 32016.89
538.7679, 32019.27
539.2500, 32023.51
539.7321, 32040.27
540.2142, 32068.58
540.6964, 32100.05
541.1785, 32139.77
541.6606, 32176.70
542.1427, 32184.81
542.6248, 32165.64
543.1069, 32150.56
543.5891, 32161.25
544.0712, 32187.71
544.5533, 32221.27
545.0354, 32265.35
545.5175, 32304.79
545.9996, 32330.03
546.4818, 32347.37
546.9639, 32366.63
547.4460, 32372.86
547.9281, 32399.54
548.4102, 32475.20
548.8923, 32594.46
549.3745, 32652.16
549.8566, 32611.01
550.3387, 32561.67
550.8208, 32558.90
551.3029, 32613.38
551.7850, 32657.54
552.2672, 32688.24
552.7493, 32711.95
553.2314, 32740.23
553.7135, 32771.81
554.1956, 32790.21
554.6777, 32779.20
555.1599, 32762.99
555.6420, 32795.49
556.1241, 32866.98
556.6062, 32924.62
557.0883, 32915.00
557.5704, 32886.03
558.0526, 32884.60
558.5347, 32917.90
559.0168, 32961.95
559.4989, 33012.32
559.9810, 33063.41
560.4631, 33109.41
560.9453, 33169.50
561.4274, 33200.83
561.9095, 33170.45
562.3916, 33105.99
562.8737, 33081.07
563.3558, 33108.95
563.8380, 33156.36
564.3201, 33225.45
564.8022, 33315.94
565.2843, 33343.88
565.7664, 33293.25
566.2485, 33232.85
566.7307, 33224.46
567.2128, 33262.09
567.6949, 33298.46
568.1770, 33327.54
568.6591, 33353.28
569.1412, 33384.69
569.6234, 33417.52
570.1055, 33441.12
570.5876, 33440.43
571.0697, 33436.00
571.5518, 33441.84
572.0339, 33457.89
572.5161, 33482.90
572.9982, 33526.84
573.4803, 33571.77
573.9624, 33607.54
574.4445, 33634.07
574.9266, 33648.97
575.4088, 33633.89
575.8909, 33618.64
576.3730, 33635.88
576.8551, 33705.85
577.3372, 33761.18
577.8193, 33790.35
578.3015, 33799.65
578.7836, 33800.31
579.2657, 33789.71
579.7478, 33795.03
580.2299, 33838.45
580.7120, 33908.84
581.1942, 33967.25
581.6763, 34013.65
582.1584, 34051.91
582.6405, 34095.04
583.1226, 34128.68
583.6047, 34122.20
584.0869, 34049.06
584.5690, 33992.42
585.0511, 34015.70
585.5332, 34085.19
586.0153, 34148.36
586.4974, 34183.33
586.9796, 34217.10
587.4617, 34259.63
587.9438, 34309.14
588.4259, 34351.39
588.9080, 34390.26
589.3901, 34415.96
589.8723, 34416.35
590.3544, 34383.47
590.8365, 34388.73
591.3186, 34439.93
591.8007, 34507.25
592.2828, 34568.45
592.7650, 34621.32
593.2471, 34642.44
593.7292, 34616.32
594.2113, 34580.55
594.6934, 34585.85
595.1755, 34623.52
595.6577, 34668.62
596.1398, 34704.92
596.6219, 34747.26
597.1040, 34809.19
597.5862, 34889.00
598.0683, 34973.35
598.5504, 35046.79
599.0325, 35130.36
599.5146, 35244.36
599.9968, 35434.65
600.4789, 35546.70
600.9610, 35534.55
601.4431, 35478.21
601.9252, 35456.64
602.4073, 35469.95
602.8895, 35524.89
603.3716, 35642.10
603.8537, 35781.69
604.3358, 35836.51
604.8179, 35809.38
605.3000, 35803.59
605.7822, 35882.70
606.2643, 36012.88
606.7464, 36137.93
607.2285, 36257.20
607.7106, 36376.00
608.1927, 36527.46
608.6749, 36662.86
609.1570, 36735.01
609.6391, 36735.30
610.1212, 36677.43
610.6033, 36534.74
611.0854, 36349.55
611.5676, 36172.15
612.0497, 35983.16
612.5318, 35831.15
613.0139, 35715.81
613.4960, 35640.65
613.9781, 35627.50
614.4603, 35690.52
614.9424, 35765.18
615.4245, 35831.99
615.9066, 35889.32
616.3887, 35925.18
616.8708, 35938.57
617.3530, 35949.20
617.8351, 35959.32
618.3172, 35980.60
618.7993, 36040.73
619.2814, 36148.88
619.7635, 36263.73
620.2457, 36366.51
620.7278, 36454.04
621.2099, 36522.33
621.6920, 36546.30
622.1741, 36577.70
622.6563, 36628.37
623.1384, 36696.34
623.6205, 36776.30
624.1026, 36877.70
624.5847, 36976.27
625.0668, 37061.70
625.5490, 37136.12
626.0311, 37234.19
626.5132, 37365.32
626.9953, 37482.72
627.4774, 37572.99
627.9595, 37626.73
628.4417, 37584.50
628.9238, 37435.30
629.4059, 37239.25
629.8880, 37007.32
630.3701, 36778.71
630.8522, 36624.90
631.3344, 36611.34
631.8165, 36606.04
632.2986, 36509.67
632.7807, 36371.42
633.2628, 36290.83
633.7449, 36359.75
634.2271, 36416.89
634.7092, 36406.57
635.1913, 36339.06
635.6734, 36308.27
636.1555, 36321.67
636.6376, 36358.21
637.1198, 36423.54
637.6019, 36517.38
638.0840, 36540.62
638.5661, 36481.63
639.0482, 36419.50
639.5303, 36445.13
640.0125, 36529.85
640.4946, 36596.61
640.9767, 36628.80
641.4588, 36646.62
641.9409, 36664.41
642.4230, 36680.17
642.9052, 36690.29
643.3873, 36670.72
643.8694, 36669.22
644.3515, 36720.40
644.8336, 36808.80
645.3157, 36863.09
645.7979, 36859.70
646.2800, 36848.89
646.7621, 36840.41
647.2442, 36834.42
647.7263, 36866.49
648.2084, 36950.47
648.6906, 37023.98
649.1727, 37026.13
649.6548, 36972.76
650.1369, 36936.99
650.6190, 36923.20
651.1011, 36938.13
651.5833, 37015.57
652.0654, 37120.02
652.5475, 37193.25
653.0296, 37205.96
653.5117, 37204.51
653.9938, 37212.93
654.4760, 37223.19
654.9581, 37219.79
655.4402, 37163.21
