##NAMES=Anhydrite
##RRUFFID=R040061
##IDEAL CHEMISTRY=CaS^6+^O_4_
##LOCALITY=Chester County, Pennsylvania, USA
##OWNER=RRUFF
##SOURCE=University of Arizona Mineral Museum
##DESCRIPTION=Pale purple fractured single crystal
##STATUS=The identification of this mineral has been confirmed by X-ray diffraction and chemical analysis
##URL=rruff.info/R040061
##MEASURED CHEMISTRY=Ca_0.98_S_1.01_O_4_
129.7241, 637.7051
130.2062, 681.2192
130.6884, 709.1437
131.1705, 732.1995
131.6526, 755.8055
132.1347, 780.0081
132.6168, 801.3397
133.0989, 815.6813
133.5811, 822.6214
134.0632, 822.2999
134.5453, 809.8836
135.0274, 795.0469
135.5095, 783.3468
135.9916, 776.0499
136.4738, 771.4891
136.9559, 767.0878
137.4380, 760.1323
137.9201, 759.5802
138.4022, 765.1166
138.8843, 776.5778
139.3665, 794.2640
139.8486, 818.0894
140.3307, 847.2969
140.8128, 880.4607
141.2949, 919.6224
141.7770, 960.4228
142.2592, 1000.954
142.7413, 1043.594
143.2234, 1091.137
143.7055, 1144.405
144.1876, 1202.565
144.6697, 1265.471
145.1519, 1341.439
145.6340, 1407.563
146.1161, 1458.246
146.5982, 1497.951
147.0803, 1532.351
147.5624, 1563.548
148.0446, 1591.465
148.5267, 1615.180
149.0088, 1631.755
149.4909, 1650.075
149.9730, 1684.094
150.4551, 1721.108
150.9372, 1734.118
151.4194, 1709.289
151.9015, 1657.996
152.3836, 1608.195
152.8657, 1555.366
153.3478, 1510.353
153.8299, 1479.370
154.3121, 1459.884
154.7942, 1444.508
155.2763, 1429.459
155.7584, 1417.656
156.2405, 1415.324
156.7226, 1423.521
157.2048, 1437.923
157.6869, 1459.505
158.1690, 1486.572
158.6511, 1511.027
159.1332, 1524.669
159.6153, 1536.552
160.0975, 1566.663
160.5796, 1625.117
161.0617, 1686.653
161.5438, 1730.348
162.0259, 1759.087
162.5080, 1797.472
162.9902, 1857.210
163.4723, 1935.659
163.9544, 2021.143
164.4365, 2108.091
164.9186, 2208.781
165.4007, 2331.132
165.8829, 2475.172
166.3650, 2642.768
166.8471, 2867.265
167.3292, 3099.489
167.8113, 3266.812
168.2934, 3376.862
168.7756, 3400.000
169.2577, 3278.270
169.7398, 3008.025
170.2219, 2722.774
170.7040, 2461.065
171.1861, 2234.100
171.6683, 2056.610
172.1504, 1940.590
172.6325, 1862.926
173.1146, 1806.307
173.5967, 1771.976
174.0788, 1744.592
174.5610, 1717.870
175.0431, 1693.751
175.5252, 1675.250
176.0073, 1664.025
176.4894, 1656.923
176.9715, 1650.910
177.4537, 1646.124
177.9358, 1641.280
178.4179, 1632.256
178.9000, 1624.209
179.3821, 1624.421
179.8642, 1638.316
180.3464, 1655.371
180.8285, 1661.842
181.3106, 1656.205
181.7927, 1648.177
182.2748, 1638.411
182.7569, 1629.775
183.2391, 1626.265
183.7212, 1630.746
184.2033, 1637.566
184.6854, 1638.544
185.1675, 1632.256
185.6496, 1626.940
186.1318, 1624.032
186.6139, 1624.786
187.0960, 1632.244
187.5781, 1649.651
188.0602, 1669.221
188.5423, 1680.752
189.0245, 1683.202
189.5066, 1681.809
189.9887, 1675.152
190.4708, 1667.058
190.9529, 1660.474
191.4350, 1655.815
191.9172, 1654.044
192.3993, 1658.032
192.8814, 1669.629
193.3635, 1678.785
193.8456, 1680.075
194.3277, 1677.906
194.8099, 1675.887
195.2920, 1675.195
195.7741, 1674.273
196.2562, 1669.257
196.7383, 1658.028
197.2204, 1652.571
197.7026, 1661.942
198.1847, 1676.864
198.6668, 1691.397
199.1489, 1704.891
199.6310, 1714.733
200.1131, 1716.302
200.5953, 1707.993
201.0774, 1699.946
201.5595, 1695.768
202.0416, 1693.082
202.5237, 1689.941
203.0058, 1685.625
203.4880, 1682.210
203.9701, 1682.354
204.4522, 1686.407
204.9343, 1691.602
205.4164, 1697.756
205.8985, 1704.433
206.3807, 1712.197
206.8628, 1721.493
207.3449, 1729.031
207.8270, 1729.624
208.3091, 1722.261
208.7912, 1717.914
209.2734, 1726.153
209.7555, 1733.875
210.2376, 1728.113
210.7197, 1706.357
211.2018, 1684.996
211.6839, 1683.685
212.1661, 1703.522
212.6482, 1716.296
213.1303, 1708.150
213.6124, 1696.493
214.0945, 1695.357
214.5766, 1706.037
215.0588, 1718.011
215.5409, 1719.800
216.0230, 1711.751
216.5051, 1710.450
216.9872, 1722.951
217.4693, 1739.859
217.9515, 1754.704
218.4336, 1767.159
218.9157, 1778.608
219.3978, 1790.474
219.8799, 1802.545
220.3620, 1812.679
220.8442, 1820.793
221.3263, 1826.354
221.8084, 1824.900
222.2905, 1818.059
222.7726, 1819.682
223.2547, 1846.039
223.7369, 1891.255
224.2190, 1922.574
224.7011, 1928.446
225.1832, 1931.323
225.6653, 1947.598
226.1474, 1975.413
226.6296, 2006.942
227.1117, 2039.666
227.5938, 2072.834
228.0759, 2103.846
228.5580, 2130.624
229.0401, 2158.671
229.5223, 2194.778
230.0044, 2235.917
230.4865, 2272.257
230.9686, 2300.886
231.4507, 2321.625
231.9328, 2332.957
232.4150, 2332.763
232.8971, 2328.688
233.3792, 2330.715
233.8613, 2333.342
234.3434, 2322.832
234.8255, 2289.587
235.3077, 2242.800
235.7898, 2191.661
236.2719, 2133.940
236.7540, 2083.932
237.2361, 2055.573
237.7182, 2040.936
238.2004, 2024.634
238.6825, 2003.021
239.1646, 1979.067
239.6467, 1954.914
240.1288, 1930.397
240.6109, 1908.453
241.0931, 1890.780
241.5752, 1876.970
242.0573, 1865.282
242.5394, 1854.400
243.0215, 1847.011
243.5036, 1847.968
243.9858, 1856.034
244.4679, 1860.880
244.9500, 1857.178
245.4321, 1847.440
245.9142, 1838.099
246.3963, 1828.590
246.8785, 1820.516
247.3606, 1815.442
247.8427, 1812.652
248.3248, 1809.543
248.8069, 1804.730
249.2890, 1799.700
249.7712, 1797.305
250.2533, 1797.755
250.7354, 1799.372
251.2175, 1805.158
251.6996, 1811.191
252.1817, 1808.044
252.6639, 1791.124
253.1460, 1770.712
253.6281, 1764.126
254.1102, 1774.316
254.5923, 1782.866
255.0744, 1786.784
255.5566, 1787.210
256.0387, 1783.426
256.5208, 1775.199
257.0029, 1768.819
257.4850, 1772.661
257.9671, 1790.140
258.4492, 1803.680
258.9314, 1813.404
259.4135, 1818.574
259.8956, 1815.870
260.3777, 1806.104
260.8598, 1797.217
261.3419, 1796.631
261.8241, 1805.482
262.3062, 1813.703
262.7883, 1821.080
263.2704, 1828.048
263.7525, 1835.870
264.2346, 1843.773
264.7168, 1849.043
265.1989, 1849.253
265.6810, 1844.781
266.1631, 1843.754
266.6452, 1851.637
267.1273, 1856.561
267.6095, 1853.579
268.0916, 1845.323
268.5737, 1836.290
269.0558, 1828.792
269.5379, 1822.859
270.0201, 1818.805
270.5022, 1820.685
270.9843, 1819.751
271.4664, 1811.380
271.9485, 1801.369
272.4306, 1796.431
272.9128, 1799.169
273.3949, 1806.886
273.8770, 1814.415
274.3591, 1823.456
274.8412, 1829.005
275.3233, 1830.992
275.8055, 1829.858
276.2876, 1823.602
276.7697, 1812.849
277.2518, 1803.256
277.7339, 1803.679
278.2160, 1819.156
278.6982, 1828.047
279.1803, 1822.732
279.6624, 1817.295
280.1445, 1821.692
280.6266, 1833.588
281.1087, 1841.063
281.5909, 1829.446
282.0730, 1798.605
282.5551, 1784.032
283.0372, 1798.670
283.5193, 1815.787
284.0014, 1828.387
284.4836, 1835.462
284.9657, 1835.661
285.4478, 1826.613
285.9299, 1810.803
286.4120, 1794.647
286.8941, 1773.188
287.3763, 1762.605
287.8584, 1777.813
288.3405, 1804.144
288.8226, 1824.422
289.3047, 1833.067
289.7868, 1832.694
290.2690, 1823.366
290.7511, 1803.336
291.2332, 1789.248
291.7153, 1792.765
292.1974, 1802.143
292.6795, 1804.270
293.1617, 1796.438
293.6438, 1787.318
294.1259, 1783.559
294.6080, 1784.387
295.0901, 1785.548
295.5722, 1786.228
296.0544, 1786.474
296.5365, 1785.611
297.0186, 1783.426
297.5007, 1783.466
297.9828, 1788.939
298.4649, 1797.029
298.9471, 1802.904
299.4292, 1805.700
299.9113, 1807.158
300.3934, 1808.071
300.8755, 1808.573
301.3576, 1811.934
301.8398, 1823.656
302.3219, 1834.713
302.8040, 1835.825
303.2861, 1827.827
303.7682, 1820.111
304.2503, 1819.243
304.7325, 1824.501
305.2146, 1828.004
305.6967, 1829.783
306.1788, 1830.109
306.6609, 1830.218
307.1430, 1828.881
307.6252, 1821.637
308.1073, 1805.474
308.5894, 1786.462
309.0715, 1781.422
309.5536, 1810.091
310.0357, 1828.501
310.5179, 1829.398
311.0000, 1822.581
311.4821, 1816.379
311.9642, 1813.304
312.4463, 1812.596
312.9284, 1813.603
313.4106, 1817.910
313.8927, 1819.428
314.3748, 1818.764
314.8569, 1815.359
315.3390, 1806.983
315.8211, 1795.042
316.3033, 1783.978
316.7854, 1777.385
317.2675, 1775.193
317.7496, 1775.046
318.2317, 1778.728
318.7138, 1782.477
319.1960, 1785.794
319.6781, 1788.282
320.1602, 1788.856
320.6423, 1786.145
321.1244, 1782.772
321.6065, 1786.355
322.0887, 1800.942
322.5708, 1810.322
323.0529, 1804.119
323.5350, 1793.134
324.0171, 1785.657
324.4992, 1783.351
324.9814, 1785.309
325.4635, 1793.099
325.9456, 1806.129
326.4277, 1814.888
326.9098, 1815.949
327.3919, 1813.734
327.8741, 1812.724
328.3562, 1812.824
328.8383, 1812.143
329.3204, 1807.230
329.8025, 1801.781
330.2846, 1804.519
330.7668, 1817.631
331.2489, 1828.578
331.7310, 1825.524
332.2131, 1810.423
332.6952, 1798.438
333.1773, 1790.170
333.6595, 1785.695
334.1416, 1787.021
334.6237, 1792.816
335.1058, 1797.959
335.5879, 1799.555
336.0700, 1798.905
336.5522, 1800.641
337.0343, 1812.776
337.5164, 1816.421
337.9985, 1798.478
338.4806, 1774.349
338.9627, 1764.153
339.4449, 1773.424
339.9270, 1790.130
340.4091, 1796.571
340.8912, 1787.526
341.3733, 1781.621
341.8554, 1778.624
342.3376, 1778.375
342.8197, 1782.513
343.3018, 1789.689
343.7839, 1796.063
344.2660, 1798.366
344.7481, 1796.845
345.2303, 1795.707
345.7124, 1795.063
346.1945, 1794.701
346.6766, 1794.802
347.1587, 1795.055
347.6408, 1794.800
348.1230, 1793.577
348.6051, 1792.571
349.0872, 1794.196
349.5693, 1799.123
350.0514, 1803.726
350.5335, 1807.322
351.0157, 1810.111
351.4978, 1812.679
351.9799, 1815.048
352.4620, 1815.427
352.9441, 1811.215
353.4262, 1803.728
353.9084, 1798.244
354.3905, 1796.081
354.8726, 1794.275
355.3547, 1788.331
355.8368, 1780.051
356.3189, 1776.524
356.8011, 1785.167
357.2832, 1795.137
357.7653, 1794.243
358.2474, 1783.722
358.7295, 1775.586
359.2116, 1776.875
359.6938, 1784.971
360.1759, 1790.639
360.6580, 1795.596
361.1401, 1796.318
361.6222, 1787.762
362.1043, 1775.865
362.5865, 1769.201
363.0686, 1770.161
363.5507, 1774.234
364.0328, 1774.910
364.5149, 1770.240
364.9970, 1767.931
365.4792, 1768.132
365.9613, 1770.155
366.4434, 1775.136
366.9255, 1781.811
367.4076, 1786.938
367.8897, 1788.005
368.3719, 1785.547
368.8540, 1783.573
369.3361, 1784.178
369.8182, 1781.972
370.3003, 1771.769
370.7824, 1760.205
371.2646, 1754.840
371.7467, 1758.388
372.2288, 1766.289
372.7109, 1772.683
373.1930, 1777.355
373.6751, 1783.587
374.1573, 1792.686
374.6394, 1802.828
375.1215, 1815.225
375.6036, 1828.799
376.0857, 1835.500
376.5678, 1826.515
377.0500, 1809.396
377.5321, 1797.652
378.0142, 1792.275
378.4963, 1789.389
378.9784, 1786.840
379.4605, 1784.885
379.9427, 1784.194
380.4248, 1787.694
380.9069, 1789.269
381.3890, 1783.470
381.8711, 1773.786
382.3532, 1768.106
382.8354, 1769.508
383.3175, 1774.430
383.7996, 1776.895
384.2817, 1775.895
384.7638, 1774.284
385.2459, 1771.072
385.7281, 1768.046
386.2102, 1765.020
386.6923, 1762.964
387.1744, 1765.463
387.6565, 1776.994
388.1386, 1796.242
388.6208, 1803.294
389.1029, 1784.709
389.5850, 1770.721
390.0671, 1770.490
390.5492, 1777.018
391.0313, 1781.888
391.5135, 1782.038
391.9956, 1780.707
392.4777, 1783.438
392.9598, 1791.014
393.4419, 1793.958
393.9240, 1785.834
394.4062, 1777.710
394.8883, 1780.089
395.3704, 1791.225
395.8525, 1798.770
396.3346, 1792.789
396.8167, 1781.048
397.2989, 1776.225
397.7810, 1779.022
398.2631, 1785.220
398.7452, 1794.988
399.2273, 1805.480
399.7094, 1807.681
400.1916, 1794.952
400.6737, 1783.304
401.1558, 1779.380
401.6379, 1780.367
402.1200, 1782.185
402.6021, 1783.644
403.0843, 1784.838
403.5664, 1786.047
404.0485, 1787.930
404.5306, 1787.499
405.0127, 1782.476
405.4948, 1777.649
405.9770, 1775.905
406.4591, 1776.422
406.9412, 1776.856
407.4233, 1775.826
407.9054, 1773.451
408.3875, 1769.813
408.8697, 1763.213
409.3518, 1758.839
409.8339, 1754.646
410.3160, 1754.747
410.7981, 1765.431
411.2802, 1787.267
411.7624, 1808.733
412.2445, 1817.261
412.7266, 1815.775
413.2087, 1820.117
413.6908, 1832.498
414.1729, 1849.094
414.6551, 1871.144
415.1372, 1895.508
415.6193, 1913.775
416.1014, 1926.189
416.5835, 1930.107
417.0656, 1920.686
417.5478, 1900.527
418.0299, 1877.048
418.5120, 1851.793
418.9941, 1828.354
419.4762, 1813.945
419.9583, 1814.146
420.4405, 1811.893
420.9226, 1802.038
421.4047, 1792.982
421.8868, 1793.038
422.3689, 1800.828
422.8510, 1808.075
423.3332, 1808.416
423.8153, 1802.253
424.2974, 1792.513
424.7795, 1773.082
425.2616, 1759.195
425.7437, 1758.141
426.2259, 1761.435
426.7080, 1759.610
427.1901, 1750.068
427.6722, 1739.723
428.1543, 1736.606
428.6364, 1740.223
429.1186, 1742.875
429.6007, 1743.277
430.0828, 1743.262
430.5649, 1744.169
431.0470, 1745.791
431.5291, 1747.594
432.0113, 1750.388
432.4934, 1752.560
432.9755, 1751.443
433.4576, 1748.068
433.9397, 1747.443
434.4218, 1752.398
434.9040, 1759.647
435.3861, 1762.279
435.8682, 1757.547
436.3503, 1754.080
436.8324, 1754.128
437.3145, 1754.272
437.7967, 1750.885
438.2788, 1744.645
438.7609, 1739.572
439.2430, 1738.882
439.7251, 1742.063
440.2072, 1744.921
440.6894, 1746.204
441.1715, 1749.173
441.6536, 1758.319
442.1357, 1767.160
442.6178, 1768.349
443.0999, 1760.255
443.5821, 1749.827
444.0642, 1741.935
444.5463, 1736.919
445.0284, 1739.181
445.5105, 1753.530
445.9926, 1765.379
446.4748, 1758.699
446.9569, 1740.345
447.4390, 1728.827
447.9211, 1732.663
448.4032, 1739.156
448.8853, 1739.151
449.3675, 1735.294
449.8496, 1735.576
450.3317, 1743.508
450.8138, 1752.330
451.2959, 1750.235
451.7780, 1729.053
452.2602, 1719.623
452.7423, 1732.384
453.2244, 1746.695
453.7065, 1751.220
454.1886, 1747.601
454.6707, 1742.691
455.1529, 1740.761
455.6350, 1740.160
456.1171, 1734.746
456.5992, 1720.023
457.0813, 1712.605
457.5634, 1724.041
458.0455, 1738.661
458.5276, 1745.477
459.0098, 1743.906
459.4919, 1740.988
459.9740, 1740.347
460.4561, 1741.528
460.9382, 1743.756
461.4203, 1747.034
461.9025, 1751.332
462.3846, 1758.364
462.8667, 1765.809
463.3488, 1765.756
463.8309, 1751.881
464.3130, 1741.044
464.7952, 1739.285
465.2773, 1742.474
465.7594, 1747.020
466.2415, 1751.702
466.7236, 1754.759
467.2057, 1753.973
467.6879, 1749.134
468.1700, 1746.552
468.6521, 1746.872
469.1342, 1748.940
469.6163, 1755.169
470.0984, 1761.867
470.5806, 1763.945
471.0627, 1759.573
471.5448, 1753.559
472.0269, 1751.532
472.5090, 1753.200
472.9911, 1755.372
473.4733, 1759.188
473.9554, 1760.607
474.4375, 1751.782
474.9196, 1737.151
475.4017, 1730.985
475.8839, 1741.384
476.3660, 1755.797
476.8481, 1768.717
477.3302, 1779.245
477.8123, 1783.814
478.2944, 1780.833
478.7766, 1775.775
479.2587, 1776.909
479.7408, 1785.589
480.2229, 1796.589
480.7050, 1811.815
481.1871, 1827.169
481.6693, 1840.752
482.1514, 1852.948
482.6335, 1864.645
483.1156, 1876.141
483.5977, 1887.806
484.0798, 1899.051
484.5620, 1908.821
485.0441, 1925.595
485.5262, 1955.596
486.0083, 1988.446
486.4904, 2013.242
486.9725, 2031.651
487.4547, 2055.591
487.9368, 2089.940
488.4189, 2131.497
488.9010, 2175.094
489.3831, 2221.883
489.8652, 2278.728
490.3474, 2349.485
490.8295, 2430.173
491.3116, 2514.310
491.7937, 2604.050
492.2758, 2692.794
492.7579, 2772.764
493.2401, 2858.110
493.7222, 2960.722
494.2043, 3077.348
494.6864, 3198.754
495.1685, 3319.999
495.6506, 3440.149
496.1328, 3559.446
496.6149, 3683.726
497.0970, 3790.722
497.5791, 3884.204
498.0612, 3949.688
498.5433, 3980.715
499.0255, 3976.066
499.5076, 3925.483
499.9897, 3807.849
500.4718, 3651.247
500.9539, 3482.547
501.4360, 3305.260
501.9182, 3130.598
502.4003, 2963.108
502.8824, 2805.282
503.3645, 2663.039
503.8466, 2537.714
504.3287, 2428.429
504.8109, 2340.733
505.2930, 2265.184
505.7751, 2195.019
506.2572, 2130.681
506.7393, 2075.052
507.2214, 2031.122
507.7036, 1996.990
508.1857, 1968.805
508.6678, 1948.812
509.1499, 1927.036
509.6320, 1897.497
510.1141, 1867.957
510.5963, 1845.331
511.0784, 1829.574
511.5605, 1814.703
512.0426, 1795.192
512.5247, 1776.859
513.0068, 1768.992
513.4890, 1770.209
513.9711, 1769.559
514.4532, 1761.430
514.9353, 1748.463
515.4174, 1736.955
515.8995, 1727.300
516.3817, 1718.483
516.8638, 1711.125
517.3459, 1704.075
517.8280, 1694.254
518.3101, 1683.985
518.7922, 1680.574
519.2744, 1690.234
519.7565, 1705.605
520.2386, 1708.193
520.7207, 1695.473
521.2028, 1684.474
521.6849, 1680.280
522.1671, 1678.176
522.6492, 1671.592
523.1313, 1661.387
523.6134, 1657.873
524.0955, 1671.047
524.5776, 1686.953
525.0598, 1694.006
525.5419, 1693.060
526.0240, 1687.564
526.5061, 1678.518
526.9882, 1668.970
527.4703, 1664.862
527.9525, 1669.414
528.4346, 1671.084
528.9167, 1667.990
529.3988, 1664.312
529.8809, 1662.322
530.3630, 1661.145
530.8452, 1658.045
531.3273, 1650.970
531.8094, 1644.513
532.2915, 1648.180
532.7736, 1661.378
533.2557, 1665.968
533.7379, 1655.309
534.2200, 1641.453
534.7021, 1635.014
535.1842, 1635.186
535.6663, 1637.400
536.1484, 1643.784
536.6306, 1649.357
537.1127, 1651.479
537.5948, 1651.043
538.0769, 1648.988
538.5590, 1645.747
539.0411, 1642.770
539.5233, 1641.991
540.0054, 1643.642
540.4875, 1645.031
540.9696, 1645.702
541.4517, 1646.739
541.9338, 1649.802
542.4160, 1652.872
542.8981, 1653.301
543.3802, 1650.272
543.8623, 1645.727
544.3444, 1641.018
544.8265, 1636.004
545.3087, 1629.300
545.7908, 1620.519
546.2729, 1614.982
546.7550, 1618.319
547.2371, 1627.677
547.7192, 1627.466
548.2014, 1603.627
548.6835, 1589.929
549.1656, 1597.219
549.6477, 1611.865
550.1298, 1624.660
550.6119, 1633.209
551.0941, 1636.637
551.5762, 1633.264
552.0583, 1625.008
552.5404, 1617.870
553.0225, 1611.293
553.5046, 1608.493
553.9868, 1612.698
554.4689, 1619.378
554.9510, 1624.062
555.4331, 1626.737
555.9152, 1627.095
556.3973, 1624.651
556.8795, 1620.155
557.3616, 1611.881
557.8437, 1601.935
558.3258, 1596.988
558.8079, 1600.211
559.2900, 1607.008
559.7722, 1608.354
560.2543, 1600.078
560.7364, 1599.264
561.2185, 1614.421
561.7006, 1628.685
562.1827, 1638.071
562.6649, 1641.762
563.1470, 1637.805
563.6291, 1623.899
564.1112, 1608.242
564.5933, 1598.351
565.0754, 1593.299
565.5576, 1590.617
566.0397, 1590.098
566.5218, 1590.361
567.0039, 1590.934
567.4860, 1591.509
567.9681, 1588.636
568.4503, 1575.010
568.9324, 1567.879
569.4145, 1579.027
569.8966, 1592.468
570.3787, 1589.974
570.8608, 1572.145
571.3430, 1556.198
571.8251, 1557.442
572.3072, 1570.716
572.7893, 1579.188
573.2714, 1582.414
573.7535, 1583.158
574.2357, 1582.186
574.7178, 1579.125
575.1999, 1572.109
575.6820, 1560.858
576.1641, 1553.747
576.6462, 1555.189
577.1284, 1559.223
577.6105, 1562.645
578.0926, 1565.127
578.5747, 1566.287
579.0568, 1565.985
579.5389, 1565.328
580.0211, 1567.247
580.5032, 1573.541
580.9853, 1571.126
581.4674, 1549.242
581.9495, 1533.093
582.4316, 1537.507
582.9138, 1552.164
583.3959, 1561.450
583.8780, 1561.108
584.3601, 1558.814
584.8422, 1560.260
585.3243, 1562.740
585.8065, 1561.053
586.2886, 1554.956
586.7707, 1548.432
587.2528, 1543.974
587.7349, 1541.533
588.2170, 1541.082
588.6992, 1544.377
589.1813, 1546.773
589.6634, 1546.121
590.1455, 1546.269
590.6276, 1551.141
591.1097, 1559.030
591.5919, 1564.431
592.0740, 1563.775
592.5561, 1560.522
593.0382, 1560.773
593.5203, 1563.134
594.0024, 1557.269
594.4846, 1538.287
594.9667, 1521.929
595.4488, 1526.536
595.9309, 1552.581
596.4130, 1564.219
596.8951, 1549.101
597.3773, 1536.762
597.8594, 1536.393
598.3415, 1541.178
598.8236, 1543.800
599.3057, 1543.186
599.7878, 1543.264
600.2700, 1549.306
600.7521, 1557.997
601.2342, 1556.549
601.7163, 1543.409
602.1984, 1536.677
602.6805, 1545.740
603.1627, 1560.884
603.6448, 1567.521
604.1269, 1564.601
604.6090, 1564.286
605.0911, 1570.995
605.5732, 1577.369
606.0554, 1580.049
606.5375, 1579.339
607.0196, 1574.118
607.5017, 1564.485
607.9838, 1557.224
608.4659, 1564.210
608.9481, 1584.682
609.4302, 1593.495
609.9123, 1586.449
610.3944, 1578.447
610.8765, 1573.841
611.3586, 1574.129
611.8408, 1582.892
612.3229, 1603.623
612.8050, 1619.568
613.2871, 1618.828
613.7692, 1616.911
614.2513, 1627.960
614.7335, 1649.736
615.2156, 1671.087
615.6977, 1686.300
616.1798, 1703.224
616.6619, 1737.101
617.1440, 1790.069
617.6262, 1843.273
618.1083, 1886.510
618.5904, 1943.753
619.0725, 2032.104
619.5546, 2142.020
620.0367, 2257.938
620.5189, 2374.825
621.0010, 2504.202
621.4831, 2649.068
621.9652, 2810.718
622.4473, 2983.061
622.9294, 3170.105
623.4116, 3383.326
623.8937, 3626.293
624.3758, 3914.634
624.8579, 4296.125
625.3400, 4781.319
625.8221, 5325.083
626.3043, 6088.005
