##NAMES=Anhydrite
##RRUFFID=R040012
##IDEAL CHEMISTRY=CaS^6+^O_4_
##LOCALITY=Moundhouse, Nevada, USA
##OWNER=RRUFF
##SOURCE=University of Arizona Mineral Museum
##DESCRIPTION=White massive
##STATUS=The identification of this mineral has been confirmed by X-ray diffraction and chemical analysis
##URL=rruff.info/R040012
##MEASURED CHEMISTRY=Ca_1.00_S_1.00_O_4_
111.7267, 99.97116
112.2088, 107.1497
112.6909, 114.1636
113.1730, 121.0632
113.6551, 127.5563
114.1373, 133.8793
114.6194, 139.6284
115.1015, 144.5473
115.5836, 147.1871
116.0657, 150.1890
116.5478, 154.5880
117.0300, 160.6040
117.5121, 166.5338
117.9942, 170.5866
118.4763, 174.4715
118.9584, 180.3647
119.4405, 187.5866
119.9227, 198.1986
120.4048, 213.0985
120.8869, 232.2714
121.3690, 256.4432
121.8511, 295.2514
122.3332, 339.8921
122.8154, 371.8365
123.2975, 380.4002
123.7796, 372.0224
124.2617, 349.9979
124.7438, 309.6161
125.2259, 268.2654
125.7081, 240.7260
126.1902, 225.9530
126.6723, 219.0157
127.1544, 219.0623
127.6365, 225.9797
128.1186, 237.9668
128.6008, 253.8221
129.0829, 275.0244
129.5650, 305.5331
130.0471, 344.8838
130.5292, 386.7452
131.0113, 438.0435
131.4935, 491.6852
131.9756, 515.8262
132.4577, 496.1584
132.9398, 443.8770
133.4219, 384.9145
133.9040, 317.5502
134.3862, 253.6547
134.8683, 206.6571
135.3504, 175.9430
135.8325, 153.0083
136.3146, 136.1311
136.7967, 125.0533
137.2789, 117.2493
137.7610, 113.0672
138.2431, 111.0315
138.7252, 109.4858
139.2073, 108.6194
139.6894, 107.2794
140.1716, 104.5334
140.6537, 99.88392
141.1358, 97.68683
141.6179, 98.70670
142.1000, 101.3412
142.5821, 102.3790
143.0643, 100.9015
143.5464, 99.81116
144.0285, 100.3594
144.5106, 103.1472
144.9927, 105.9408
145.4748, 108.3786
145.9570, 110.8628
146.4391, 114.4093
146.9212, 118.9795
147.4033, 124.6627
147.8854, 131.6614
148.3675, 140.9974
148.8497, 150.0185
149.3318, 159.0349
149.8139, 167.7486
150.2960, 174.6472
150.7781, 180.6237
151.2602, 184.1175
151.7424, 184.2249
152.2245, 177.8526
152.7066, 171.6993
153.1887, 165.5361
153.6708, 159.5721
154.1529, 155.6987
154.6351, 154.6671
155.1172, 155.3318
155.5993, 156.9040
156.0814, 159.7077
156.5635, 162.9933
157.0456, 167.0150
157.5278, 171.7281
158.0099, 175.6926
158.4920, 178.2317
158.9741, 180.1144
159.4562, 182.0376
159.9383, 183.9220
160.4205, 186.0947
160.9026, 188.3782
161.3847, 190.7078
161.8668, 194.2672
162.3489, 199.2509
162.8310, 205.7358
163.3132, 213.8128
163.7953, 222.0264
164.2774, 232.9659
164.7595, 247.0173
165.2416, 263.8491
165.7237, 286.9937
166.2059, 322.1294
166.6880, 364.2172
167.1701, 405.5973
167.6522, 458.9077
168.1343, 500.3220
168.6164, 511.3300
169.0985, 487.2679
169.5807, 445.2424
170.0628, 384.3146
170.5449, 313.6708
171.0270, 251.8176
171.5091, 209.0806
171.9912, 178.8741
172.4734, 155.7753
172.9555, 139.7352
173.4376, 128.1833
173.9197, 120.2563
174.4018, 115.2145
174.8839, 111.1567
175.3661, 106.9707
175.8482, 103.1718
176.3303, 100.5541
176.8124, 99.42631
177.2945, 99.02263
177.7766, 98.94125
178.2588, 99.02222
178.7409, 98.60820
179.2230, 96.60514
179.7051, 93.90270
180.1872, 92.28085
180.6693, 92.30678
181.1515, 92.99335
181.6336, 93.08069
182.1157, 92.62144
182.5978, 91.98857
183.0799, 91.31869
183.5620, 90.65981
184.0442, 90.15453
184.5263, 89.83137
185.0084, 89.66283
185.4905, 89.57625
185.9726, 89.57571
186.4547, 89.74432
186.9369, 90.44812
187.4190, 91.47176
187.9011, 91.81065
188.3832, 91.02536
188.8653, 89.66163
189.3474, 88.95969
189.8296, 88.93332
190.3117, 89.03060
190.7938, 88.60481
191.2759, 87.77393
191.7580, 87.49707
192.2401, 88.11352
192.7223, 89.35367
193.2044, 90.61446
193.6865, 91.96355
194.1686, 92.89652
194.6507, 92.59518
195.1328, 91.13613
195.6150, 90.26791
196.0971, 90.65244
196.5792, 91.87949
197.0613, 92.17263
197.5434, 91.34351
198.0255, 90.47540
198.5077, 90.91394
198.9898, 92.73550
199.4719, 93.86346
199.9540, 93.44946
200.4361, 91.91697
200.9182, 91.76945
201.4004, 93.33024
201.8825, 95.30016
202.3646, 96.40822
202.8467, 96.57832
203.3288, 96.41879
203.8109, 95.84994
204.2931, 94.99860
204.7752, 95.05869
205.2573, 96.24151
205.7394, 97.82758
206.2215, 99.11626
206.7036, 100.0645
207.1858, 100.8537
207.6679, 101.3674
208.1500, 101.6619
208.6321, 102.6780
209.1142, 104.5760
209.5963, 106.8926
210.0785, 109.3680
210.5606, 112.2705
211.0427, 114.1901
211.5248, 114.3510
212.0069, 112.8240
212.4890, 112.9188
212.9712, 115.1801
213.4533, 118.2321
213.9354, 120.4477
214.4175, 121.4657
214.8996, 122.8414
215.3817, 125.2243
215.8639, 128.5996
216.3460, 130.7451
216.8281, 131.0806
217.3102, 130.9593
217.7923, 131.8687
218.2744, 134.0453
218.7565, 136.6912
219.2387, 139.7363
219.7208, 143.2258
220.2029, 146.2257
220.6850, 148.4339
221.1671, 150.4792
221.6492, 153.0407
222.1314, 156.3482
222.6135, 159.7086
223.0956, 162.9274
223.5777, 166.0454
224.0598, 169.0086
224.5419, 171.6282
225.0241, 174.3292
225.5062, 177.7264
225.9883, 182.3033
226.4704, 186.5056
226.9525, 189.8777
227.4346, 192.4368
227.9168, 194.7941
228.3989, 196.6818
228.8810, 198.6511
229.3631, 201.3911
229.8452, 205.7366
230.3273, 209.2740
230.8095, 211.5938
231.2916, 212.6955
231.7737, 212.5629
232.2558, 210.7799
232.7379, 208.1999
233.2200, 205.9383
233.7022, 205.3021
234.1843, 202.3759
234.6664, 195.6998
235.1485, 185.2723
235.6306, 175.9654
236.1127, 167.9021
236.5949, 160.7143
237.0770, 154.0207
237.5591, 147.7585
238.0412, 142.1479
238.5233, 137.4205
239.0054, 133.5578
239.4876, 129.5735
239.9697, 125.0675
240.4518, 120.8343
240.9339, 117.6195
241.4160, 115.8359
241.8981, 114.2774
242.3803, 112.8392
242.8624, 111.5087
243.3445, 110.0510
243.8266, 108.3033
244.3087, 106.5976
244.7908, 105.1819
245.2730, 104.0057
245.7551, 103.2197
246.2372, 102.8605
246.7193, 102.9192
247.2014, 103.3873
247.6835, 104.7360
248.1657, 105.9166
248.6478, 105.9857
249.1299, 104.1457
249.6120, 102.9684
250.0941, 103.0662
250.5762, 104.2169
251.0584, 104.5830
251.5405, 103.8059
252.0226, 102.7232
252.5047, 101.8865
252.9868, 101.2838
253.4689, 100.9613
253.9511, 101.0409
254.4332, 101.4308
254.9153, 101.5820
255.3974, 101.3761
255.8795, 101.1202
256.3616, 100.9480
256.8438, 100.7093
257.3259, 101.0085
257.8080, 102.2598
258.2901, 104.0560
258.7722, 104.6870
259.2543, 103.4270
259.7365, 102.2228
260.2186, 102.2294
260.7007, 103.9091
261.1828, 105.4203
261.6649, 106.7010
262.1470, 107.7333
262.6292, 108.4419
263.1113, 108.6396
263.5934, 108.8787
264.0755, 109.4759
264.5576, 110.5754
265.0397, 111.5830
265.5219, 112.6600
266.0040, 113.5319
266.4861, 113.4221
266.9682, 111.9146
267.4503, 110.4685
267.9324, 109.8503
268.4146, 110.2818
268.8967, 110.5032
269.3788, 110.5574
269.8609, 110.3605
270.3430, 109.7107
270.8251, 108.5293
271.3073, 107.1553
271.7894, 105.5542
272.2715, 103.6209
272.7536, 102.6201
273.2357, 102.8131
273.7178, 103.5686
274.2000, 103.9110
274.6821, 103.7249
275.1642, 103.6334
275.6463, 103.9762
276.1284, 104.7547
276.6105, 104.9582
277.0927, 104.4330
277.5748, 103.6666
278.0569, 103.3498
278.5390, 103.5633
279.0211, 103.5703
279.5032, 103.0661
279.9854, 102.1245
280.4675, 101.3276
280.9496, 100.6621
281.4317, 100.1876
281.9138, 100.0121
282.3959, 100.1446
282.8781, 100.3487
283.3602, 100.5881
283.8423, 100.8506
284.3244, 101.0496
284.8065, 101.1684
285.2886, 101.3334
285.7708, 101.6814
286.2529, 102.2032
286.7350, 102.7792
287.2171, 103.5268
287.6992, 104.2134
288.1813, 103.9001
288.6635, 102.5181
289.1456, 101.3722
289.6277, 101.9026
290.1098, 103.7923
290.5919, 104.8220
291.0740, 104.4516
291.5562, 103.3548
292.0383, 102.7968
292.5204, 102.7536
293.0025, 102.8237
293.4846, 102.6285
293.9667, 102.3132
294.4489, 102.5044
294.9310, 103.4399
295.4131, 104.4693
295.8952, 104.3890
296.3773, 103.3893
296.8594, 102.6858
297.3416, 103.3865
297.8237, 104.8351
298.3058, 105.4017
298.7879, 104.8535
299.2700, 104.0533
299.7521, 104.1111
300.2343, 104.7874
300.7164, 105.3139
301.1985, 105.0463
301.6806, 104.4943
302.1627, 104.5890
302.6448, 105.4047
303.1270, 106.1917
303.6091, 106.0949
304.0912, 105.4653
304.5733, 105.0297
305.0554, 105.3629
305.5375, 105.8893
306.0197, 105.8388
306.5018, 105.2494
306.9839, 104.8033
307.4660, 105.3101
307.9481, 106.2087
308.4302, 106.6861
308.9124, 106.1763
309.3945, 105.4703
309.8766, 105.1954
310.3587, 105.2954
310.8408, 105.4883
311.3229, 105.5379
311.8051, 105.6263
312.2872, 105.9786
312.7693, 106.8691
313.2514, 107.6603
313.7335, 107.9085
314.2156, 107.7483
314.6978, 107.5792
315.1799, 107.6568
315.6620, 107.7507
316.1441, 107.6521
316.6262, 107.2065
317.1083, 106.8938
317.5905, 107.0492
318.0726, 107.4585
318.5547, 107.7512
319.0368, 107.6174
319.5189, 107.4757
320.0010, 107.4510
320.4832, 107.4977
320.9653, 107.9617
321.4474, 109.6790
321.9295, 111.6214
322.4116, 112.5862
322.8937, 111.5493
323.3759, 110.2398
323.8580, 109.1054
324.3401, 108.1863
324.8222, 107.2710
325.3043, 105.4867
325.7864, 104.1487
326.2686, 104.2708
326.7507, 108.2899
327.2328, 111.1833
327.7149, 111.7881
328.1970, 110.3254
328.6791, 109.3637
329.1613, 109.1233
329.6434, 109.2461
330.1255, 109.5843
330.6076, 110.7542
331.0897, 111.2331
331.5718, 110.6439
332.0540, 109.3543
332.5361, 108.4006
333.0182, 107.8280
333.5003, 107.5210
333.9824, 107.4829
334.4645, 107.8419
334.9467, 108.0466
335.4288, 107.9133
335.9109, 107.7563
336.3930, 108.1752
336.8751, 109.5143
337.3572, 110.6251
337.8394, 111.0830
338.3215, 110.8454
338.8036, 110.9984
339.2857, 111.8931
339.7678, 112.5665
340.2499, 111.5806
340.7320, 108.5148
341.2141, 106.4360
341.6963, 106.2600
342.1784, 107.5907
342.6605, 108.7688
343.1426, 109.8525
343.6247, 110.4622
344.1068, 109.9983
344.5890, 108.5274
345.0711, 107.4815
345.5532, 107.1575
346.0353, 107.2549
346.5174, 107.2018
346.9995, 106.9992
347.4817, 106.7463
347.9638, 106.4321
348.4459, 106.1055
348.9280, 106.0176
349.4101, 106.2495
349.8922, 106.4565
350.3744, 105.9572
350.8565, 104.9762
351.3386, 104.3799
351.8207, 104.8499
352.3028, 105.8783
352.7849, 106.7138
353.2671, 107.3540
353.7492, 107.7708
354.2313, 107.7947
354.7134, 107.6007
355.1955, 107.4963
355.6776, 107.6273
356.1598, 107.8524
356.6419, 108.0589
357.1240, 108.2500
357.6061, 108.4401
358.0882, 108.7494
358.5703, 109.0113
359.0525, 109.0267
359.5346, 108.6344
360.0167, 108.2304
360.4988, 107.8903
360.9809, 107.7041
361.4630, 107.8783
361.9452, 108.9202
362.4273, 110.0268
362.9094, 110.7447
363.3915, 110.9726
363.8736, 111.0412
364.3557, 110.8641
364.8379, 110.6469
365.3200, 110.6318
365.8021, 111.2475
366.2842, 111.7037
366.7663, 111.5833
367.2484, 110.8732
367.7306, 110.6168
368.2127, 111.2650
368.6948, 112.2026
369.1769, 113.0292
369.6590, 114.1761
370.1411, 114.6567
370.6233, 114.0662
371.1054, 112.7219
371.5875, 111.8250
372.0696, 111.5979
372.5517, 111.5591
373.0338, 111.5235
373.5160, 111.4907
373.9981, 111.4706
374.4802, 111.5092
374.9623, 111.5226
375.4444, 111.2495
375.9265, 110.3678
376.4087, 110.1194
376.8908, 111.1004
377.3729, 113.2556
377.8550, 114.7263
378.3371, 115.3561
378.8192, 115.6846
379.3014, 116.4057
379.7835, 117.5767
380.2656, 117.8467
380.7477, 116.5680
381.2298, 114.5929
381.7119, 114.3250
382.1941, 115.8019
382.6762, 117.2502
383.1583, 117.0658
383.6404, 115.7763
384.1225, 115.5809
384.6046, 116.8641
385.0868, 118.6247
385.5689, 119.8819
386.0510, 120.6128
386.5331, 120.7630
387.0152, 119.4623
387.4973, 117.9193
387.9795, 118.1511
388.4616, 120.1755
388.9437, 122.3521
389.4258, 123.4525
389.9079, 123.8990
390.3900, 124.2215
390.8722, 124.1593
391.3543, 124.5380
391.8364, 126.2604
392.3185, 129.0071
392.8006, 131.6536
393.2827, 132.6169
393.7649, 133.9515
394.2470, 136.9557
394.7291, 141.7382
395.2112, 148.4855
395.6933, 155.0214
396.1754, 164.0299
396.6576, 179.5275
397.1397, 204.0661
397.6218, 233.7237
398.1039, 270.2631
398.5860, 314.7953
399.0681, 352.3688
399.5503, 382.3153
400.0324, 404.3051
400.5145, 417.7760
400.9966, 415.0038
401.4787, 414.7003
401.9608, 418.2950
402.4430, 425.2812
402.9251, 433.7538
403.4072, 443.8363
403.8893, 455.2712
404.3714, 467.8082
404.8535, 481.4394
405.3357, 496.4291
405.8178, 512.4568
406.2999, 530.0172
406.7820, 549.6929
407.2641, 571.4874
407.7462, 595.1009
408.2284, 619.3246
408.7105, 645.0633
409.1926, 677.6934
409.6747, 716.6122
410.1568, 766.7493
410.6389, 828.6982
411.1211, 903.7642
411.6032, 1004.681
412.0853, 1138.253
412.5674, 1290.115
413.0495, 1445.981
413.5316, 1606.529
414.0138, 1770.356
414.4959, 1933.298
414.9780, 2102.649
415.4601, 2324.451
415.9422, 2611.655
416.4243, 2807.221
416.9065, 2789.331
417.3886, 2597.317
417.8707, 2286.335
418.3528, 1741.683
418.8349, 1211.105
419.3170, 841.5553
419.7992, 614.1857
420.2813, 455.7546
420.7634, 360.3703
421.2455, 299.3397
421.7276, 255.7279
422.2097, 230.8507
422.6919, 212.3631
423.1740, 199.5025
423.6561, 190.5072
424.1382, 182.3672
424.6203, 173.9635
425.1024, 167.2803
425.5846, 163.3565
426.0667, 162.3797
426.5488, 160.7879
427.0309, 158.1208
427.5130, 155.2247
427.9951, 152.6629
428.4773, 150.5152
428.9594, 148.5286
429.4415, 146.6784
429.9236, 144.9900
430.4057, 143.4910
430.8878, 142.1808
431.3700, 141.0999
431.8521, 140.3670
432.3342, 139.9829
432.8163, 139.2082
433.2984, 137.8751
433.7805, 136.7368
434.2627, 137.0519
434.7448, 138.6219
435.2269, 139.3423
435.7090, 138.2870
436.1911, 136.4808
436.6732, 136.1084
437.1554, 137.0142
437.6375, 137.9771
438.1196, 138.0858
438.6017, 137.7473
439.0838, 137.6268
439.5659, 137.8237
440.0480, 138.1067
440.5302, 138.3612
441.0123, 138.5571
441.4944, 138.6440
441.9765, 138.3326
442.4586, 138.1302
442.9407, 138.6108
443.4229, 139.6448
443.9050, 140.1819
444.3871, 139.0234
444.8692, 137.7231
445.3513, 137.3527
445.8334, 138.6671
446.3156, 139.8680
446.7977, 140.6486
447.2798, 141.1086
447.7619, 141.4125
448.2440, 141.5395
448.7261, 141.5405
449.2083, 141.4170
449.6904, 141.1669
450.1725, 140.7733
450.6546, 139.9098
451.1367, 139.3133
451.6188, 139.7170
452.1010, 141.6111
452.5831, 142.7490
453.0652, 142.6120
453.5473, 141.9405
454.0294, 142.6387
454.5115, 144.9137
454.9937, 146.9018
455.4758, 147.5356
455.9579, 147.1029
456.4400, 147.3552
456.9221, 148.3631
457.4042, 149.4028
457.8864, 149.6604
458.3685, 149.3719
458.8506, 149.1796
459.3327, 149.0954
459.8148, 149.4238
460.2969, 150.8595
460.7791, 153.0985
461.2612, 155.0909
461.7433, 155.9638
462.2254, 156.5217
462.7075, 157.4660
463.1896, 158.8976
463.6718, 160.3682
464.1539, 161.5815
464.6360, 162.7392
465.1181, 164.0218
465.6002, 165.0535
466.0823, 166.6770
466.5645, 169.6074
467.0466, 173.4202
467.5287, 176.4867
468.0108, 177.7930
468.4929, 179.0717
468.9750, 180.9483
469.4572, 183.5733
469.9393, 186.1909
470.4214, 188.6657
470.9035, 191.2330
471.3856, 194.1326
471.8677, 197.3790
472.3499, 200.9109
472.8320, 204.7295
473.3141, 208.8764
473.7962, 213.4556
474.2783, 218.4216
474.7604, 224.1533
475.2426, 230.7790
475.7247, 238.3666
476.2068, 247.1821
476.6889, 257.3486
477.1710, 268.2769
477.6531, 278.6908
478.1353, 289.2891
478.6174, 301.9701
479.0995, 317.2812
479.5816, 335.0961
480.0637, 355.8846
480.5458, 379.1584
481.0280, 402.8044
481.5101, 426.2579
481.9922, 449.2864
482.4743, 471.2820
482.9564, 492.1365
483.4385, 513.0109
483.9207, 534.7477
484.4028, 556.3885
484.8849, 576.9169
485.3670, 593.5182
485.8491, 611.6007
486.3312, 632.4564
486.8134, 655.7482
487.2955, 679.7065
487.7776, 702.8431
488.2597, 727.7410
488.7418, 755.4191
489.2239, 785.7267
489.7061, 818.0284
490.1882, 851.5054
490.6703, 888.2965
491.1524, 931.9955
491.6345, 983.7199
492.1166, 1036.105
492.5988, 1087.122
493.0809, 1139.764
493.5630, 1202.096
494.0451, 1274.356
494.5272, 1347.620
495.0093, 1420.922
495.4915, 1491.367
495.9736, 1554.028
496.4557, 1608.563
496.9378, 1653.496
497.4199, 1691.084
497.9020, 1716.864
498.3842, 1723.724
498.8663, 1711.868
499.3484, 1677.478
499.8305, 1613.188
500.3126, 1524.241
500.7947, 1424.315
501.2769, 1307.780
501.7590, 1189.311
502.2411, 1073.262
502.7232, 957.6168
503.2053, 853.7122
503.6874, 767.3817
504.1696, 691.5406
504.6517, 622.2253
505.1338, 557.8391
505.6159, 503.1295
506.0980, 460.5047
506.5801, 427.1383
507.0623, 397.0946
507.5444, 370.3138
508.0265, 345.9130
508.5086, 323.2702
508.9907, 302.4728
509.4728, 284.4975
509.9550, 269.5442
510.4371, 256.2650
510.9192, 243.4992
511.4013, 231.5000
511.8834, 221.6904
512.3655, 214.5030
512.8477, 208.5820
513.3298, 202.7794
513.8119, 197.0296
514.2940, 191.1730
514.7761, 184.2482
515.2582, 177.8807
515.7404, 173.5679
516.2225, 171.0846
516.7046, 168.6875
517.1867, 165.3339
517.6688, 161.9908
518.1509, 159.3011
518.6331, 157.5325
519.1152, 155.9663
519.5973, 154.5902
520.0794, 153.3276
520.5615, 152.1123
521.0436, 151.0610
521.5258, 149.8322
522.0079, 148.1749
522.4900, 146.2766
522.9721, 145.2109
523.4542, 145.3432
523.9363, 145.2911
524.4185, 144.1800
524.9006, 142.0139
525.3827, 140.2116
525.8648, 138.7499
526.3469, 137.7187
526.8290, 137.5206
527.3112, 137.9072
527.7933, 137.8554
528.2754, 136.9241
528.7575, 135.8262
529.2396, 135.3733
529.7217, 135.4449
530.2039, 135.6899
530.6860, 136.0465
531.1681, 136.4175
531.6502, 136.7602
532.1323, 137.0702
532.6144, 137.2943
533.0966, 137.3857
533.5787, 137.3996
534.0608, 137.4102
534.5429, 137.8500
535.0250, 137.5758
535.5071, 135.7101
535.9893, 133.3794
536.4714, 132.3620
536.9535, 133.6615
537.4356, 134.3175
537.9177, 133.5207
538.3998, 131.5181
538.8820, 129.7670
539.3641, 128.2450
539.8462, 127.1620
540.3283, 126.8871
540.8104, 127.2823
541.2925, 127.2789
541.7747, 126.7727
542.2568, 126.2725
542.7389, 126.5645
543.2210, 127.2767
543.7031, 127.4864
544.1852, 126.6925
544.6674, 125.7048
545.1495, 125.3763
545.6316, 125.4476
546.1137, 125.2701
546.5958, 124.0867
547.0779, 122.9727
547.5601, 122.5064
548.0422, 122.7307
548.5243, 123.1816
549.0064, 124.1715
549.4885, 125.0639
549.9706, 125.4434
550.4528, 124.9507
550.9349, 124.5898
551.4170, 124.2265
551.8991, 124.0905
552.3812, 124.7446
552.8633, 126.5780
553.3455, 127.5491
553.8276, 126.9146
554.3097, 125.2211
554.7918, 124.2495
555.2739, 124.0154
555.7560, 123.8423
556.2382, 122.9908
556.7203, 121.9722
557.2024, 122.1068
557.6845, 123.4816
558.1666, 125.0056
558.6487, 125.7880
559.1309, 126.1726
559.6130, 126.5830
560.0951, 127.1636
560.5772, 127.7178
561.0593, 128.2378
561.5414, 128.6556
562.0236, 128.8450
562.5057, 128.3554
562.9878, 128.0724
563.4699, 128.3745
563.9520, 129.1880
564.4341, 129.7781
564.9163, 130.1943
565.3984, 130.3125
565.8805, 130.0034
566.3626, 129.1693
566.8447, 128.4259
567.3268, 127.6978
567.8090, 127.2350
568.2911, 127.6349
568.7732, 128.7477
569.2553, 129.1176
569.7374, 128.2498
570.2195, 126.9314
570.7017, 126.0828
571.1838, 125.6655
571.6659, 125.5661
572.1480, 125.9444
572.6301, 126.4553
573.1122, 126.9318
573.5944, 127.3399
574.0765, 127.4199
574.5586, 126.9115
575.0407, 126.1515
575.5228, 125.2108
576.0049, 123.7670
576.4871, 123.1200
576.9692, 124.0597
577.4513, 125.3926
577.9334, 125.9868
578.4155, 125.4434
578.8976, 125.0741
579.3798, 125.0242
579.8619, 125.2411
580.3440, 125.7251
580.8261, 126.5179
581.3082, 127.0246
581.7903, 126.7770
582.2725, 126.1188
582.7546, 125.9953
583.2367, 126.3926
583.7188, 127.1998
584.2009, 128.8114
584.6830, 130.5776
585.1652, 131.4025
585.6473, 130.9490
586.1294, 130.9291
586.6115, 132.3328
587.0936, 134.6989
587.5757, 137.5275
588.0578, 139.8357
588.5399, 143.6041
589.0220, 149.0188
589.5042, 156.1969
589.9863, 164.9707
590.4684, 172.6474
590.9505, 186.2114
591.4326, 208.4754
591.9147, 238.5771
592.3969, 270.2842
592.8790, 304.8307
593.3611, 335.6974
593.8432, 358.9268
594.3253, 374.6413
594.8074, 384.1903
595.2896, 387.0981
595.7717, 389.2144
596.2538, 395.3759
596.7359, 404.9699
597.2180, 417.1198
597.7001, 431.7083
598.1823, 448.0000
598.6644, 464.9509
599.1465, 483.3116
599.6286, 504.4571
600.1107, 525.5717
600.5928, 552.6136
601.0750, 585.0927
601.5571, 624.2308
602.0392, 677.2643
602.5213, 745.9763
603.0034, 827.0985
603.4855, 922.3002
603.9677, 1034.144
604.4498, 1133.151
604.9319, 1216.935
605.4140, 1297.734
605.8961, 1378.373
606.3782, 1462.436
606.8604, 1570.182
607.3425, 1707.952
607.8246, 1856.676
608.3067, 2049.691
608.7888, 2232.751
609.2709, 2282.535
