##NAMES=Anhydrite
##RRUFFID=R040061
##IDEAL CHEMISTRY=CaS^6+^O_4_
##LOCALITY=Chester County, Pennsylvania, USA
##OWNER=RRUFF
##SOURCE=University of Arizona Mineral Museum
##DESCRIPTION=Pale purple fractured single crystal
##STATUS=The identification of this mineral has been confirmed by X-ray diffraction and chemical analysis
##URL=rruff.info/R040061
##MEASURED CHEMISTRY=Ca_0.98_S_1.01_O_4_
121.0401, 2423.559
121.5222, 2632.008
122.0043, 2877.669
122.4864, 3126.248
122.9685, 3388.936
123.4506, 3638.999
123.9328, 3817.046
124.4149, 3840.684
124.8970, 3790.627
125.3791, 3768.702
125.8612, 3790.927
126.3433, 3842.318
126.8255, 3916.427
127.3076, 4010.134
127.7897, 4104.282
128.2718, 4186.837
128.7539, 4259.422
129.2361, 4326.104
129.7182, 4387.047
130.2003, 4443.302
130.6824, 4498.875
131.1645, 4554.295
131.6466, 4603.699
132.1288, 4636.965
132.6109, 4655.689
133.0930, 4677.488
133.5751, 4706.521
134.0572, 4743.116
134.5393, 4788.390
135.0215, 4843.534
135.5036, 4905.148
135.9857, 4971.362
136.4678, 5043.368
136.9499, 5113.134
137.4320, 5174.617
137.9142, 5226.243
138.3963, 5289.974
138.8784, 5369.210
139.3605, 5458.860
139.8426, 5543.840
140.3247, 5623.619
140.8069, 5702.136
141.2890, 5782.763
141.7711, 5871.345
142.2532, 5946.501
142.7353, 6003.769
143.2174, 6045.599
143.6996, 6090.049
144.1817, 6139.555
144.6638, 6188.782
145.1459, 6232.519
145.6280, 6258.562
146.1101, 6299.202
146.5923, 6370.086
147.0744, 6477.699
147.5565, 6543.106
148.0386, 6535.091
148.5207, 6499.903
149.0028, 6491.691
149.4850, 6534.457
149.9671, 6580.028
150.4492, 6620.261
150.9313, 6662.621
151.4134, 6683.707
151.8955, 6674.131
152.3777, 6645.240
152.8598, 6616.386
153.3419, 6573.876
153.8240, 6544.278
154.3061, 6537.484
154.7883, 6565.469
155.2704, 6599.644
155.7525, 6639.561
156.2346, 6683.890
156.7167, 6727.398
157.1988, 6759.973
157.6810, 6796.646
158.1631, 6845.785
158.6452, 6921.905
159.1273, 6996.993
159.6094, 7055.134
160.0915, 7100.314
160.5737, 7164.352
161.0558, 7270.913
161.5379, 7394.785
162.0200, 7514.793
162.5021, 7626.068
162.9842, 7729.092
163.4664, 7816.717
163.9485, 7888.450
164.4306, 7968.455
164.9127, 8050.365
165.3948, 8151.511
165.8769, 8294.307
166.3591, 8490.993
166.8412, 8731.336
167.3233, 9053.227
167.8054, 9491.230
168.2875, 9827.484
168.7696, 9927.725
169.2518, 9829.547
169.7339, 9605.129
170.2160, 9171.138
170.6981, 8686.210
171.1802, 8287.957
171.6623, 8002.698
172.1445, 7798.964
172.6266, 7681.449
173.1087, 7633.154
173.5908, 7599.842
174.0729, 7543.086
174.5550, 7483.120
175.0372, 7450.203
175.5193, 7457.213
176.0014, 7481.816
176.4835, 7505.539
176.9656, 7527.758
177.4477, 7544.575
177.9299, 7545.851
178.4120, 7539.774
178.8941, 7543.678
179.3762, 7568.050
179.8583, 7600.263
180.3405, 7619.333
180.8226, 7625.657
181.3047, 7631.681
181.7868, 7650.878
182.2689, 7679.443
182.7510, 7704.746
183.2332, 7722.175
183.7153, 7733.337
184.1974, 7740.776
184.6795, 7744.074
185.1616, 7746.335
185.6437, 7748.509
186.1259, 7751.408
186.6080, 7759.825
187.0901, 7782.137
187.5722, 7812.373
188.0543, 7829.606
188.5364, 7832.067
189.0186, 7827.156
189.5007, 7819.098
189.9828, 7808.755
190.4649, 7809.873
190.9470, 7839.000
191.4291, 7889.760
191.9113, 7922.106
192.3934, 7930.693
192.8755, 7927.163
193.3576, 7932.407
193.8397, 7947.117
194.3218, 7958.983
194.8040, 7958.728
195.2861, 7946.975
195.7682, 7937.916
196.2503, 7930.771
196.7324, 7929.417
197.2145, 7946.761
197.6967, 7985.997
198.1788, 8025.533
198.6609, 8050.896
199.1430, 8061.674
199.6251, 8067.065
200.1072, 8065.468
200.5894, 8060.600
201.0715, 8066.044
201.5536, 8083.703
202.0357, 8104.206
202.5178, 8118.038
202.9999, 8123.042
203.4821, 8136.736
203.9642, 8165.765
204.4463, 8205.828
204.9284, 8233.113
205.4105, 8245.644
205.8926, 8249.720
206.3748, 8251.129
206.8569, 8250.582
207.3390, 8242.966
207.8211, 8220.477
208.3032, 8186.086
208.7854, 8186.719
209.2675, 8235.470
209.7496, 8296.140
210.2317, 8328.216
210.7138, 8324.367
211.1959, 8318.167
211.6781, 8318.477
212.1602, 8325.578
212.6423, 8327.188
213.1244, 8318.650
213.6065, 8310.667
214.0886, 8319.217
214.5708, 8351.376
215.0529, 8379.743
215.5350, 8392.885
216.0171, 8386.802
216.4992, 8395.801
216.9813, 8425.746
217.4635, 8464.613
217.9456, 8494.145
218.4277, 8513.188
218.9098, 8525.420
219.3919, 8529.287
219.8740, 8520.880
220.3562, 8523.683
220.8383, 8541.240
221.3204, 8568.001
221.8025, 8594.221
222.2846, 8622.252
222.7667, 8646.378
223.2489, 8662.253
223.7310, 8662.696
224.2131, 8679.832
224.6952, 8722.544
225.1773, 8777.731
225.6594, 8813.809
226.1416, 8818.227
226.6237, 8824.721
227.1058, 8849.036
227.5879, 8901.265
228.0700, 8945.643
228.5521, 8980.496
229.0343, 9007.563
229.5164, 9031.248
229.9985, 9047.529
230.4806, 9066.077
230.9627, 9092.970
231.4448, 9137.138
231.9270, 9169.122
232.4091, 9184.789
232.8912, 9188.335
233.3733, 9193.940
233.8554, 9205.944
234.3376, 9214.297
234.8197, 9214.405
235.3018, 9207.316
235.7839, 9189.411
236.2660, 9156.504
236.7481, 9112.796
237.2303, 9073.156
237.7124, 9029.191
238.1945, 9000.724
238.6766, 9003.907
239.1587, 9065.261
239.6408, 9102.715
240.1230, 9103.220
240.6051, 9074.527
241.0872, 9052.407
241.5693, 9033.704
242.0514, 9025.441
242.5335, 9034.460
243.0157, 9075.664
243.4978, 9102.800
243.9799, 9106.483
244.4620, 9090.892
244.9441, 9083.271
245.4262, 9087.437
245.9084, 9094.063
246.3905, 9095.745
246.8726, 9084.350
247.3547, 9085.981
247.8368, 9111.810
248.3189, 9155.722
248.8011, 9174.088
249.2832, 9152.786
249.7653, 9124.942
250.2474, 9114.842
250.7295, 9133.007
251.2116, 9146.475
251.6938, 9148.141
252.1759, 9141.050
252.6580, 9151.448
253.1401, 9197.293
253.6222, 9236.610
254.1043, 9231.901
254.5865, 9149.608
255.0686, 9102.813
255.5507, 9117.763
256.0328, 9185.853
256.5149, 9230.606
256.9970, 9243.079
257.4792, 9244.514
257.9613, 9250.017
258.4434, 9259.881
258.9255, 9271.510
259.4076, 9282.447
259.8897, 9293.739
260.3719, 9318.277
260.8540, 9364.423
261.3361, 9409.958
261.8182, 9434.997
262.3003, 9431.876
262.7824, 9430.350
263.2646, 9433.524
263.7467, 9441.574
264.2288, 9458.330
264.7109, 9490.858
265.1930, 9519.550
265.6751, 9525.078
266.1573, 9497.113
266.6394, 9483.138
267.1215, 9496.113
267.6036, 9530.145
268.0857, 9545.364
268.5678, 9535.413
269.0500, 9520.168
269.5321, 9516.279
270.0142, 9527.463
270.4963, 9534.665
270.9784, 9535.328
271.4605, 9529.820
271.9427, 9516.283
272.4248, 9489.310
272.9069, 9468.472
273.3890, 9472.634
273.8711, 9506.434
274.3532, 9536.866
274.8354, 9557.421
275.3175, 9570.698
275.7996, 9590.388
276.2817, 9619.800
276.7639, 9645.149
277.2460, 9651.508
277.7281, 9636.174
278.2102, 9631.943
278.6923, 9647.692
279.1744, 9676.387
279.6566, 9691.432
280.1387, 9690.615
280.6208, 9685.654
281.1029, 9683.942
281.5850, 9685.454
282.0671, 9691.041
282.5493, 9701.394
283.0314, 9715.615
283.5135, 9733.896
283.9956, 9757.537
284.4777, 9775.890
284.9598, 9778.047
285.4420, 9765.320
285.9241, 9754.643
286.4062, 9749.055
286.8883, 9746.498
287.3704, 9738.597
287.8525, 9724.724
288.3347, 9719.802
288.8168, 9743.661
289.2989, 9789.734
289.7810, 9818.272
290.2631, 9819.796
290.7452, 9806.899
291.2274, 9804.263
291.7095, 9811.385
292.1916, 9815.652
292.6737, 9800.561
293.1558, 9774.196
293.6379, 9768.534
294.1201, 9792.919
294.6022, 9828.651
295.0843, 9850.239
295.5664, 9858.288
296.0485, 9857.179
296.5306, 9838.976
297.0128, 9814.476
297.4949, 9811.115
297.9770, 9837.192
298.4591, 9871.509
298.9412, 9885.166
299.4233, 9882.480
299.9055, 9883.152
300.3876, 9893.696
300.8697, 9915.646
301.3518, 9959.117
301.8339, 10031.40
302.3160, 10097.76
302.7982, 10108.30
303.2803, 10079.68
303.7624, 10060.78
304.2445, 10088.10
304.7266, 10134.55
305.2087, 10169.49
305.6909, 10189.54
306.1730, 10200.56
306.6551, 10206.12
307.1372, 10206.44
307.6193, 10201.77
308.1014, 10186.83
308.5836, 10170.63
309.0657, 10162.93
309.5478, 10165.44
310.0299, 10167.30
310.5120, 10159.11
310.9941, 10145.94
311.4763, 10135.38
311.9584, 10127.41
312.4405, 10125.63
312.9226, 10136.04
313.4047, 10159.58
313.8868, 10179.21
314.3690, 10184.04
314.8511, 10180.75
315.3332, 10177.08
315.8153, 10169.97
316.2974, 10168.24
316.7795, 10179.99
317.2617, 10205.08
317.7438, 10225.87
318.2259, 10233.99
318.7080, 10235.87
319.1901, 10237.09
319.6722, 10228.05
320.1544, 10229.43
320.6365, 10255.57
321.1186, 10303.19
321.6007, 10339.20
322.0828, 10348.63
322.5649, 10347.42
323.0471, 10346.41
323.5292, 10352.54
324.0113, 10353.04
324.4934, 10336.93
324.9755, 10309.31
325.4576, 10299.89
325.9398, 10326.40
326.4219, 10361.33
326.9040, 10390.90
327.3861, 10419.32
327.8682, 10435.81
328.3503, 10431.93
328.8325, 10414.90
329.3146, 10408.39
329.7967, 10422.49
330.2788, 10437.52
330.7610, 10444.61
331.2431, 10433.58
331.7252, 10435.14
332.2073, 10454.30
332.6894, 10484.67
333.1715, 10515.49
333.6537, 10555.01
334.1358, 10582.27
334.6179, 10585.95
335.1000, 10557.39
335.5821, 10539.82
336.0642, 10534.32
336.5464, 10538.68
337.0285, 10552.54
337.5106, 10581.21
337.9927, 10602.32
338.4748, 10604.88
338.9569, 10587.95
339.4391, 10582.20
339.9212, 10590.42
340.4033, 10604.44
340.8854, 10615.04
341.3675, 10622.38
341.8496, 10627.68
342.3318, 10631.80
342.8139, 10634.63
343.2960, 10633.98
343.7781, 10629.54
344.2602, 10625.22
344.7423, 10621.21
345.2245, 10618.57
345.7066, 10630.41
346.1887, 10666.19
346.6708, 10713.00
347.1529, 10738.38
347.6350, 10742.17
348.1172, 10738.76
348.5993, 10735.66
349.0814, 10733.36
349.5635, 10734.42
350.0456, 10739.74
350.5277, 10746.93
351.0099, 10747.90
351.4920, 10745.37
351.9741, 10754.54
352.4562, 10806.34
352.9383, 10869.91
353.4204, 10891.15
353.9026, 10853.76
354.3847, 10807.60
354.8668, 10803.68
355.3489, 10827.41
355.8310, 10843.77
356.3131, 10822.34
356.7953, 10793.52
357.2774, 10784.76
357.7595, 10799.85
358.2416, 10822.24
358.7237, 10852.72
359.2058, 10881.84
359.6880, 10895.81
360.1701, 10863.38
360.6522, 10835.68
361.1343, 10844.21
361.6164, 10889.98
362.0985, 10934.13
362.5807, 10968.16
363.0628, 10990.71
363.5449, 11000.58
364.0270, 10981.75
364.5091, 10966.44
364.9912, 10965.44
365.4734, 10976.91
365.9555, 10986.37
366.4376, 10994.32
366.9197, 10998.02
367.4018, 10995.97
367.8839, 10973.42
368.3661, 10963.36
368.8482, 10969.76
369.3303, 10989.59
369.8124, 11015.02
370.2945, 11053.83
370.7766, 11089.82
371.2588, 11117.53
371.7409, 11136.57
372.2230, 11146.36
372.7051, 11139.05
373.1872, 11126.68
373.6693, 11131.27
374.1515, 11161.41
374.6336, 11188.09
375.1157, 11200.07
375.5978, 11196.21
376.0799, 11203.14
376.5620, 11226.79
377.0442, 11250.71
377.5263, 11253.79
378.0084, 11233.18
378.4905, 11218.97
378.9726, 11221.71
379.4547, 11236.26
379.9369, 11238.96
380.4190, 11228.41
380.9011, 11218.60
381.3832, 11222.50
381.8653, 11238.31
382.3474, 11253.06
382.8296, 11263.32
383.3117, 11273.56
383.7938, 11292.25
384.2759, 11318.65
384.7580, 11346.91
385.2402, 11374.34
385.7223, 11400.91
386.2044, 11428.31
386.6865, 11457.88
387.1686, 11482.22
387.6508, 11492.84
388.1329, 11492.39
388.6150, 11487.95
389.0971, 11478.47
389.5792, 11469.28
390.0613, 11467.08
390.5435, 11472.53
391.0256, 11476.78
391.5077, 11470.88
391.9898, 11462.68
392.4719, 11461.21
392.9540, 11475.16
393.4362, 11491.81
393.9183, 11506.96
394.4004, 11520.67
394.8825, 11532.81
395.3646, 11540.41
395.8467, 11548.26
396.3289, 11559.71
396.8110, 11581.96
397.2931, 11597.70
397.7752, 11597.99
398.2573, 11589.22
398.7394, 11588.18
399.2216, 11602.64
399.7037, 11618.79
400.1858, 11632.71
400.6679, 11644.37
401.1500, 11653.50
401.6321, 11657.44
402.1143, 11660.84
402.5964, 11670.24
403.0785, 11689.54
403.5606, 11707.47
404.0427, 11721.98
404.5248, 11733.13
405.0070, 11741.10
405.4891, 11746.04
405.9712, 11747.53
406.4533, 11741.26
406.9354, 11725.03
407.4175, 11723.34
407.8997, 11744.41
408.3818, 11778.21
408.8639, 11798.35
409.3460, 11804.65
409.8281, 11806.53
410.3102, 11804.07
410.7924, 11801.00
411.2745, 11815.37
411.7566, 11851.71
412.2387, 11893.60
412.7208, 11919.73
413.2029, 11933.38
413.6851, 11945.95
414.1672, 11953.48
414.6493, 11966.92
415.1314, 12007.98
415.6135, 12076.23
416.0956, 12140.23
416.5778, 12185.60
417.0599, 12209.26
417.5420, 12206.49
418.0241, 12157.79
418.5062, 12102.52
418.9883, 12062.39
419.4705, 12034.56
419.9526, 12009.48
420.4347, 11970.01
420.9168, 11941.78
421.3989, 11944.67
421.8810, 12003.22
422.3632, 12046.04
422.8453, 12046.57
423.3274, 12024.17
423.8095, 12009.97
424.2916, 12007.90
424.7737, 12014.61
425.2559, 12035.54
425.7380, 12074.93
426.2201, 12090.57
426.7022, 12062.05
427.1843, 12026.78
427.6664, 12017.73
428.1486, 12046.38
428.6307, 12075.21
429.1128, 12100.75
429.5949, 12122.59
430.0770, 12139.98
430.5591, 12152.79
431.0413, 12161.02
431.5234, 12164.53
432.0055, 12163.36
432.4876, 12157.40
432.9697, 12145.47
433.4518, 12132.05
433.9340, 12120.31
434.4161, 12111.21
434.8982, 12114.45
435.3803, 12148.12
435.8624, 12193.60
436.3445, 12200.18
436.8267, 12167.36
437.3088, 12137.16
437.7909, 12151.42
438.2730, 12192.16
438.7551, 12228.03
439.2372, 12251.48
439.7194, 12265.64
440.2015, 12262.54
440.6836, 12249.89
441.1657, 12252.31
441.6479, 12303.07
442.1300, 12359.10
442.6121, 12387.75
443.0942, 12378.17
443.5763, 12368.04
444.0584, 12378.18
444.5406, 12393.48
445.0227, 12394.92
445.5048, 12360.27
445.9869, 12330.26
446.4690, 12314.09
446.9511, 12312.22
447.4333, 12319.83
447.9154, 12345.89
448.3975, 12373.43
448.8796, 12391.59
449.3617, 12388.79
449.8438, 12400.66
450.3260, 12437.05
450.8081, 12484.92
451.2902, 12510.87
451.7723, 12508.52
452.2544, 12503.41
452.7365, 12505.72
453.2187, 12515.26
453.7008, 12522.00
454.1829, 12524.54
454.6650, 12529.51
455.1471, 12549.67
455.6292, 12582.49
456.1114, 12602.10
456.5935, 12594.27
457.0756, 12578.16
457.5577, 12594.11
458.0398, 12637.51
458.5219, 12675.00
459.0041, 12678.88
459.4862, 12664.52
459.9683, 12650.88
460.4504, 12638.15
460.9325, 12635.74
461.4146, 12660.69
461.8968, 12699.19
462.3789, 12728.13
462.8610, 12718.89
463.3431, 12714.97
463.8252, 12749.03
464.3073, 12818.93
464.7895, 12869.54
465.2716, 12862.73
465.7537, 12844.87
466.2358, 12846.34
466.7179, 12891.08
467.2000, 12928.33
467.6822, 12953.96
468.1643, 12970.27
468.6464, 12982.23
469.1285, 12984.32
469.6106, 12989.80
470.0927, 13005.21
470.5749, 13032.22
471.0570, 13043.33
471.5391, 13025.70
472.0212, 13015.38
472.5033, 13061.29
472.9854, 13169.71
473.4676, 13245.66
473.9497, 13262.16
474.4318, 13245.06
474.9139, 13258.88
475.3960, 13302.89
475.8781, 13343.17
476.3603, 13345.86
476.8424, 13331.48
477.3245, 13346.58
477.8066, 13395.81
478.2887, 13465.21
478.7708, 13555.25
479.2530, 13654.93
479.7351, 13742.48
480.2172, 13794.05
480.6993, 13844.93
481.1814, 13919.83
481.6635, 14015.22
482.1457, 14115.14
482.6278, 14190.68
483.1099, 14282.38
483.5920, 14420.92
484.0741, 14627.71
484.5562, 14834.54
485.0384, 15018.26
485.5205, 15197.85
486.0026, 15402.72
486.4847, 15647.13
486.9668, 15897.00
487.4489, 16149.55
487.9311, 16400.97
488.4132, 16649.86
488.8953, 16886.56
489.3774, 17139.89
489.8595, 17431.11
490.3416, 17763.69
490.8238, 18122.75
491.3059, 18510.34
491.7880, 18926.96
492.2701, 19353.15
492.7522, 19795.31
493.2343, 20279.66
493.7165, 20840.03
494.1986, 21450.12
494.6807, 22027.47
495.1628, 22579.98
495.6450, 23148.83
496.1271, 23828.88
496.6092, 24539.41
497.0913, 25191.59
497.5734, 25803.99
498.0555, 26254.74
498.5377, 26507.11
499.0198, 26536.84
499.5019, 26298.61
499.9840, 25679.31
500.4661, 24875.12
500.9482, 23915.55
501.4304, 22799.62
501.9125, 21717.56
502.3946, 20661.96
502.8767, 19688.12
503.3588, 18835.27
503.8409, 18124.28
504.3231, 17500.54
504.8052, 16971.35
505.2873, 16523.01
505.7694, 16141.42
506.2515, 15840.67
506.7336, 15570.31
507.2158, 15311.15
507.6979, 15064.20
508.1800, 14852.48
508.6621, 14678.80
509.1442, 14528.77
509.6263, 14386.74
510.1085, 14255.60
510.5906, 14154.61
511.0727, 14095.57
511.5548, 14050.05
512.0369, 13968.15
512.5190, 13862.39
513.0012, 13775.90
513.4833, 13744.91
513.9654, 13735.55
514.4475, 13715.90
514.9296, 13683.78
515.4117, 13655.37
515.8939, 13646.55
516.3760, 13640.87
516.8581, 13623.32
517.3402, 13575.77
517.8223, 13534.86
518.3044, 13507.85
518.7866, 13492.83
519.2687, 13484.71
519.7508, 13488.82
520.2329, 13492.78
520.7150, 13493.36
521.1971, 13490.52
521.6793, 13485.85
522.1614, 13477.73
522.6435, 13471.12
523.1256, 13474.62
523.6077, 13490.61
524.0898, 13487.28
524.5720, 13454.01
525.0541, 13411.02
525.5362, 13397.27
526.0183, 13410.37
526.5004, 13428.25
526.9825, 13448.50
527.4647, 13463.40
527.9468, 13454.36
528.4289, 13422.11
528.9110, 13393.03
529.3931, 13388.78
529.8752, 13396.84
530.3574, 13403.01
530.8395, 13402.73
531.3216, 13403.43
531.8037, 13415.36
532.2858, 13429.84
532.7679, 13431.61
533.2501, 13392.02
533.7322, 13364.32
534.2143, 13375.12
534.6964, 13426.09
535.1785, 13449.49
535.6606, 13427.81
536.1428, 13399.44
536.6249, 13387.08
537.1070, 13394.86
537.5891, 13407.03
538.0712, 13428.35
538.5533, 13446.04
539.0355, 13431.21
539.5176, 13382.91
539.9997, 13349.20
540.4818, 13348.02
540.9639, 13370.58
541.4460, 13401.67
541.9282, 13439.90
542.4103, 13473.86
542.8924, 13496.24
543.3745, 13508.14
543.8566, 13505.06
544.3387, 13481.36
544.8209, 13469.84
545.3030, 13508.04
545.7851, 13566.29
546.2672, 13606.61
546.7493, 13610.75
547.2314, 13602.02
547.7136, 13575.13
548.1957, 13536.84
548.6778, 13521.29
549.1599, 13558.40
549.6420, 13590.73
550.1241, 13594.75
550.6063, 13562.49
551.0884, 13542.18
551.5705, 13536.30
552.0526, 13538.00
552.5347, 13541.59
553.0168, 13547.27
553.4990, 13550.96
553.9811, 13550.79
554.4632, 13550.06
554.9453, 13556.20
555.4274, 13568.44
555.9095, 13581.11
556.3917, 13590.60
556.8738, 13599.20
557.3559, 13609.58
557.8380, 13621.88
558.3201, 13637.42
558.8022, 13665.36
559.2844, 13692.56
559.7665, 13704.76
560.2486, 13688.93
560.7307, 13677.55
561.2128, 13690.73
561.6949, 13712.67
562.1771, 13717.50
562.6592, 13669.25
563.1413, 13639.77
563.6234, 13650.10
564.1055, 13694.83
564.5876, 13721.03
565.0698, 13721.35
565.5519, 13717.66
566.0340, 13724.57
566.5161, 13743.13
566.9982, 13748.73
567.4803, 13737.25
567.9625, 13726.20
568.4446, 13743.35
568.9267, 13781.56
569.4088, 13810.03
569.8909, 13819.83
570.3730, 13816.79
570.8552, 13801.85
571.3373, 13779.05
571.8194, 13760.69
572.3015, 13746.48
572.7836, 13744.21
573.2657, 13769.96
573.7479, 13827.08
574.2300, 13860.29
574.7121, 13826.05
575.1942, 13779.69
575.6763, 13761.75
576.1584, 13814.62
576.6406, 13836.65
577.1227, 13808.00
577.6049, 13760.14
578.0870, 13749.57
578.5691, 13786.29
579.0512, 13826.46
579.5333, 13861.38
580.0154, 13890.15
580.4976, 13908.69
580.9797, 13916.90
581.4618, 13919.99
581.9439, 13912.23
582.4260, 13903.22
582.9081, 13924.05
583.3903, 13980.95
583.8724, 14023.75
584.3545, 13984.21
584.8366, 13913.14
585.3187, 13880.04
585.8008, 13941.56
586.2830, 13997.07
586.7651, 13997.65
587.2472, 13963.26
587.7293, 13939.08
588.2114, 13937.56
588.6935, 13943.84
589.1757, 13956.41
589.6578, 13975.45
590.1399, 13987.07
590.6220, 13983.60
591.1041, 13986.79
591.5862, 14018.94
592.0684, 14083.47
592.5505, 14120.39
593.0326, 14124.81
593.5147, 14108.07
593.9968, 14070.55
594.4789, 14021.18
594.9611, 13996.74
595.4432, 14015.66
595.9253, 14055.35
596.4074, 14099.10
596.8895, 14143.26
597.3716, 14176.06
597.8538, 14188.17
598.3359, 14189.37
598.8180, 14179.31
599.3001, 14157.13
599.7822, 14148.21
600.2643, 14173.84
600.7465, 14203.42
601.2286, 14216.13
601.7107, 14191.79
602.1928, 14190.96
602.6749, 14219.37
603.1570, 14265.56
603.6392, 14316.72
604.1213, 14375.40
604.6034, 14420.90
605.0855, 14442.94
605.5676, 14454.09
606.0497, 14489.09
606.5319, 14544.95
607.0140, 14594.08
607.4961, 14617.29
607.9782, 14626.29
608.4603, 14631.58
608.9424, 14633.93
609.4246, 14646.79
609.9067, 14686.25
610.3888, 14735.05
610.8709, 14777.58
611.3530, 14805.47
611.8351, 14839.20
612.3173, 14878.92
612.7994, 14929.07
613.2815, 14994.51
613.7636, 15084.07
614.2457, 15173.37
614.7278, 15258.35
615.2100, 15339.72
615.6921, 15417.89
616.1742, 15490.36
616.6563, 15574.97
617.1384, 15682.04
617.6205, 15808.50
