##NAMES=Anhydrite
##RRUFFID=R040012
##IDEAL CHEMISTRY=CaS^6+^O_4_
##LOCALITY=Moundhouse, Nevada, USA
##OWNER=RRUFF
##SOURCE=University of Arizona Mineral Museum
##DESCRIPTION=White massive
##STATUS=The identification of this mineral has been confirmed by X-ray diffraction and chemical analysis
##URL=rruff.info/R040012
##MEASURED CHEMISTRY=Ca_1.00_S_1.00_O_4_
109.9378, 38.83439
110.4199, 40.84814
110.9020, 43.19738
111.3841, 44.98660
111.8663, 45.86718
112.3484, 46.12535
112.8305, 46.12998
113.3126, 46.10719
113.7947, 46.05187
114.2768, 46.16361
114.7590, 46.38044
115.2411, 46.79734
115.7232, 47.55294
116.2053, 48.58489
116.6874, 49.65985
117.1695, 50.53041
117.6517, 51.09389
118.1338, 51.92077
118.6159, 52.94315
119.0980, 54.24123
119.5801, 55.80549
120.0622, 57.61731
120.5444, 59.90519
121.0265, 63.23195
121.5086, 67.58939
121.9907, 71.96336
122.4728, 77.41293
122.9549, 82.75071
123.4371, 84.71711
123.9192, 81.44808
124.4013, 75.50183
124.8834, 69.75171
125.3655, 64.14580
125.8476, 59.32812
126.3298, 55.82982
126.8119, 53.70302
127.2940, 52.45338
127.7761, 52.21196
128.2582, 52.74611
128.7403, 54.01662
129.2225, 56.01827
129.7046, 58.72176
130.1867, 62.40413
130.6688, 68.53017
131.1509, 72.71331
131.6330, 75.31718
132.1152, 75.74459
132.5973, 73.00900
133.0794, 66.59752
133.5615, 57.37469
134.0436, 49.05468
134.5257, 41.38961
135.0079, 35.01059
135.4900, 30.20163
135.9721, 26.72751
136.4542, 24.26301
136.9363, 22.68001
137.4184, 21.93346
137.9006, 21.17202
138.3827, 20.36834
138.8648, 19.57214
139.3469, 18.69293
139.8290, 17.78311
140.3111, 17.12008
140.7933, 16.99794
141.2754, 17.38288
141.7575, 17.70197
142.2396, 17.91212
142.7217, 18.04924
143.2038, 18.07828
143.6860, 17.94454
144.1681, 17.94831
144.6502, 18.44131
145.1323, 19.26481
145.6144, 20.12143
146.0965, 20.82089
146.5787, 21.44970
147.0608, 22.32867
147.5429, 23.68686
148.0250, 24.99182
148.5071, 25.97948
148.9892, 26.68364
149.4714, 27.21762
149.9535, 27.67891
150.4356, 28.07795
150.9177, 28.26301
151.3998, 28.15743
151.8819, 27.87227
152.3641, 27.34626
152.8462, 26.62879
153.3283, 25.87763
153.8104, 25.22158
154.2925, 24.54245
154.7746, 24.35118
155.2568, 24.88186
155.7389, 25.61704
156.2210, 26.31133
156.7031, 26.88269
157.1852, 27.32096
157.6673, 27.59496
158.1495, 27.49390
158.6316, 27.59045
159.1137, 28.04466
159.5958, 28.61987
160.0779, 29.08772
160.5600, 29.37223
161.0422, 29.52754
161.5243, 29.62132
162.0064, 29.50459
162.4885, 29.65534
162.9706, 30.20719
163.4527, 31.09768
163.9349, 32.18752
164.4170, 33.39388
164.8991, 34.84926
165.3812, 36.71743
165.8633, 38.92659
166.3454, 41.63204
166.8276, 45.33486
167.3097, 49.84972
167.7918, 54.02637
168.2739, 58.32290
168.7560, 61.20502
169.2381, 60.94801
169.7203, 56.96629
170.2024, 51.14398
170.6845, 44.83604
171.1666, 37.84359
171.6487, 31.69744
172.1308, 27.03854
172.6130, 23.43501
173.0951, 20.82300
173.5772, 19.24796
174.0593, 18.31413
174.5414, 17.31568
175.0235, 16.09967
175.5057, 15.17266
175.9878, 14.70724
176.4699, 14.49010
176.9520, 14.33084
177.4341, 14.14587
177.9162, 13.96245
178.3984, 13.86620
178.8805, 13.94193
179.3626, 14.00435
179.8447, 14.04148
180.3268, 14.04960
180.8089, 14.02757
181.2911, 13.97486
181.7732, 13.89129
182.2553, 13.77195
182.7374, 13.52371
183.2195, 13.34175
183.7016, 13.29684
184.1838, 13.34323
184.6659, 13.40197
185.1480, 13.42815
185.6301, 13.42233
186.1122, 13.38940
186.5943, 13.28681
187.0764, 13.20636
187.5586, 13.19801
188.0407, 13.24573
188.5228, 13.30617
189.0049, 13.37869
189.4870, 13.42978
189.9691, 13.31729
190.4513, 12.76680
190.9334, 12.28592
191.4155, 12.29468
191.8976, 12.76562
192.3797, 13.22341
192.8618, 13.32555
193.3440, 13.17606
193.8261, 13.09584
194.3082, 13.16374
194.7903, 13.28311
195.2724, 13.34679
195.7545, 13.34507
196.2367, 13.35143
196.7188, 13.46152
197.2009, 13.60050
197.6830, 13.65505
198.1651, 13.53021
198.6472, 13.34419
199.1294, 13.31574
199.6115, 13.50472
200.0936, 13.70589
200.5757, 13.80472
201.0578, 13.86165
201.5399, 13.96043
202.0221, 14.16283
202.5042, 14.41549
202.9863, 14.54538
203.4684, 14.42497
203.9505, 14.39233
204.4326, 14.60193
204.9148, 14.94088
205.3969, 15.25757
205.8790, 15.46918
206.3611, 15.59098
206.8432, 15.69841
207.3253, 15.69054
207.8075, 15.80030
208.2896, 16.12891
208.7717, 16.59270
209.2538, 17.07733
209.7359, 17.51016
210.2180, 17.89764
210.7002, 18.28201
211.1823, 18.69894
211.6644, 19.07467
212.1465, 19.40986
212.6286, 19.69224
213.1107, 19.88225
213.5929, 19.93820
214.0750, 19.88076
214.5571, 20.01618
215.0392, 20.56300
215.5213, 21.05243
216.0034, 21.29517
216.4856, 21.37496
216.9677, 21.48280
217.4498, 21.74723
217.9319, 22.15556
218.4140, 22.55961
218.8961, 23.03819
219.3783, 23.43329
219.8604, 23.59190
220.3425, 23.59706
220.8246, 23.71119
221.3067, 24.13373
221.7888, 24.80804
222.2710, 25.31211
222.7531, 25.51367
223.2352, 25.69244
223.7173, 25.97177
224.1994, 26.34597
224.6815, 26.78995
225.1637, 27.33427
225.6458, 27.92017
226.1279, 28.34998
226.6100, 28.58653
227.0921, 28.70976
227.5742, 28.74814
228.0564, 28.70596
228.5385, 28.62026
229.0206, 28.46148
229.5027, 28.29602
229.9848, 28.27471
230.4669, 28.52803
230.9491, 28.76388
231.4312, 28.69396
231.9133, 28.31644
232.3954, 27.94060
232.8775, 27.80717
233.3596, 27.70426
233.8418, 27.35667
234.3239, 26.68780
234.8060, 25.84311
235.2881, 24.94911
235.7702, 24.00341
236.2523, 23.02714
236.7345, 21.94877
237.2166, 20.89014
237.6987, 19.98447
238.1808, 19.27380
238.6629, 18.64904
239.1451, 17.94177
239.6272, 17.10019
240.1093, 16.44785
240.5914, 16.25359
241.0735, 16.19780
241.5556, 16.08239
242.0378, 15.85930
242.5199, 15.58263
243.0020, 15.29808
243.4841, 14.98397
243.9662, 14.75229
244.4483, 14.66331
244.9305, 14.63432
245.4126, 14.64220
245.8947, 14.67517
246.3768, 14.68464
246.8589, 14.58865
247.3410, 14.33975
247.8231, 14.13382
248.3053, 14.03204
248.7874, 13.94398
249.2695, 13.79852
249.7516, 13.59089
250.2337, 13.38645
250.7158, 13.27742
251.1980, 13.29983
251.6801, 13.32382
252.1622, 13.31787
252.6443, 13.33422
253.1264, 13.42854
253.6085, 13.59353
254.0907, 13.75737
254.5728, 13.82219
255.0549, 13.73882
255.5370, 13.70652
256.0191, 13.77182
256.5013, 13.84110
256.9834, 13.86476
257.4655, 13.83889
257.9476, 13.78530
258.4297, 13.71913
258.9118, 13.61666
259.3940, 13.60497
259.8761, 13.75915
260.3582, 13.91903
260.8403, 13.76043
261.3224, 14.04783
261.8045, 14.20203
262.2867, 14.23019
262.7688, 13.75482
263.2509, 13.92966
263.7330, 13.84393
264.2151, 13.74751
264.6972, 14.01386
265.1794, 13.61173
265.6615, 13.87233
266.1436, 13.86838
266.6257, 13.98551
267.1078, 13.84046
267.5899, 13.77638
268.0721, 13.97457
268.5542, 14.02754
269.0363, 13.85231
269.5184, 13.97713
270.0005, 13.56584
270.4826, 13.62500
270.9648, 13.88713
271.4469, 13.72508
271.9290, 13.85470
272.4111, 13.87323
272.8932, 13.38693
273.3753, 13.77859
273.8575, 13.79056
274.3396, 13.41267
274.8217, 13.77424
275.3038, 13.45010
275.7859, 13.37072
276.2680, 13.47553
276.7502, 13.38832
277.2323, 13.60386
277.7144, 13.52774
278.1965, 13.42557
278.6786, 13.43711
279.1607, 13.12642
279.6428, 13.41354
280.1249, 13.29230
280.6071, 13.37405
281.0892, 13.50181
281.5713, 13.27727
282.0534, 13.42570
282.5355, 12.99575
283.0176, 13.04975
283.4998, 13.05164
283.9819, 13.36286
284.4640, 12.93573
284.9461, 12.97628
285.4282, 13.21598
285.9103, 13.06537
286.3925, 13.15014
286.8746, 13.42193
287.3567, 13.61520
287.8388, 13.61002
288.3209, 13.52349
288.8030, 13.52558
289.2852, 13.65558
289.7673, 13.78416
290.2494, 13.74089
290.7315, 13.53754
291.2136, 13.40770
291.6957, 13.50721
292.1779, 13.63199
292.6600, 13.48571
293.1421, 13.03178
293.6242, 12.65168
294.1063, 12.74397
294.5884, 13.20783
295.0706, 13.47468
295.5527, 13.27702
296.0348, 13.00920
296.5169, 13.07443
296.9990, 13.46418
297.4811, 13.78622
297.9633, 13.75119
298.4454, 13.46696
298.9275, 13.30971
299.4096, 13.39143
299.8917, 13.48945
300.3738, 13.39436
300.8560, 13.14301
301.3381, 13.01303
301.8202, 13.20072
302.3023, 13.53177
302.7844, 13.63037
303.2665, 13.38298
303.7487, 13.17700
304.2308, 13.31276
304.7129, 13.68791
305.1950, 13.92643
305.6771, 13.86389
306.1592, 13.67378
306.6414, 13.60757
307.1235, 13.67023
307.6056, 13.75809
308.0877, 13.87072
308.5698, 13.97408
309.0519, 13.97965
309.5341, 13.85091
310.0162, 13.66614
310.4983, 13.47131
310.9804, 13.27107
311.4625, 13.17074
311.9446, 13.29597
312.4268, 13.51012
312.9089, 13.60574
313.3910, 13.55367
313.8731, 13.42601
314.3552, 13.20889
314.8373, 12.95196
315.3195, 12.82675
315.8016, 12.97863
316.2837, 13.21276
316.7658, 13.32107
317.2479, 13.29757
317.7300, 13.22694
318.2122, 13.10995
318.6943, 12.99649
319.1764, 13.00007
319.6585, 13.18164
320.1406, 13.41615
320.6227, 13.64162
321.1049, 13.85140
321.5870, 13.99950
322.0691, 14.06951
322.5512, 14.05508
323.0333, 13.94501
323.5154, 13.69932
323.9976, 13.48913
324.4797, 13.42085
324.9618, 13.46247
325.4439, 13.51979
325.9260, 13.57110
326.4081, 13.62295
326.8903, 13.72190
327.3724, 13.87492
327.8545, 13.90684
328.3366, 13.59558
328.8187, 13.16716
329.3008, 13.05728
329.7830, 13.39086
330.2651, 13.75704
330.7472, 13.70403
331.2293, 13.31083
331.7114, 12.99366
332.1935, 12.85736
332.6757, 12.81359
333.1578, 12.78235
333.6399, 12.75937
334.1220, 12.73890
334.6041, 12.69604
335.0862, 12.65871
335.5684, 12.71251
336.0505, 12.95055
336.5326, 13.18802
337.0147, 13.29559
337.4968, 13.29556
337.9789, 13.29590
338.4611, 13.36283
338.9432, 13.43782
339.4253, 13.37625
339.9074, 13.10720
340.3895, 12.90044
340.8716, 12.92134
341.3538, 13.07141
341.8359, 13.14591
342.3180, 13.07778
342.8001, 12.95581
343.2822, 12.92327
343.7643, 12.99697
344.2465, 12.98685
344.7286, 12.77779
345.2107, 12.50779
345.6928, 12.30898
346.1749, 12.20017
346.6570, 12.19496
347.1392, 12.34963
347.6213, 12.66554
348.1034, 12.82135
348.5855, 12.68503
349.0676, 12.49986
349.5497, 12.43592
350.0319, 12.47302
350.5140, 12.47309
350.9961, 12.32653
351.4782, 12.09376
351.9603, 12.06300
352.4424, 12.49999
352.9246, 12.78440
353.4067, 12.58388
353.8888, 12.12387
354.3709, 11.80450
354.8530, 11.78011
355.3351, 11.94862
355.8173, 12.13501
356.2994, 12.38510
356.7815, 12.54703
357.2636, 12.57151
357.7457, 12.52218
358.2278, 12.43166
358.7100, 12.31531
359.1921, 12.22720
359.6742, 12.23253
360.1563, 12.35165
360.6384, 12.45139
361.1205, 12.55563
361.6027, 12.62183
362.0848, 12.61716
362.5669, 12.55214
363.0490, 12.45375
363.5311, 12.33241
364.0132, 12.19854
364.4954, 12.14367
364.9775, 12.34707
365.4596, 12.41395
365.9417, 12.09619
366.4238, 11.64642
366.9059, 11.43524
367.3881, 11.61155
367.8702, 11.99626
368.3523, 12.21650
368.8344, 12.08136
369.3165, 12.09123
369.7986, 12.39907
370.2808, 12.73334
370.7629, 12.86527
371.2450, 12.78308
371.7271, 12.65942
372.2092, 12.69410
372.6913, 12.93280
373.1735, 13.03326
373.6556, 12.79712
374.1377, 12.62935
374.6198, 12.72103
375.1019, 12.99333
375.5840, 13.28202
376.0662, 13.49387
376.5483, 13.61719
377.0304, 13.57789
377.5125, 13.18430
377.9946, 12.90396
378.4767, 12.82055
378.9589, 12.87131
379.4410, 13.03012
379.9231, 13.28106
380.4052, 13.53829
380.8873, 13.64956
381.3694, 13.54726
381.8516, 13.52049
382.3337, 13.70699
382.8158, 13.87832
383.2979, 13.87606
383.7800, 13.72880
384.2621, 13.60445
384.7443, 13.65925
385.2264, 13.87669
385.7085, 14.05666
386.1906, 14.21340
386.6727, 14.30477
387.1548, 14.24130
387.6370, 14.12776
388.1191, 14.13202
388.6012, 14.34747
389.0833, 14.67041
389.5654, 14.89883
390.0475, 14.99627
390.5297, 15.16545
391.0118, 15.48411
391.4939, 15.90061
391.9760, 16.31569
392.4581, 16.71209
392.9402, 17.35137
393.4224, 18.38735
393.9045, 19.82931
394.3866, 21.63070
394.8687, 23.44190
395.3508, 26.24870
395.8329, 30.75202
396.3151, 36.76910
396.7972, 43.95878
397.2793, 53.27662
397.7614, 63.18919
398.2435, 72.19497
398.7256, 80.34985
399.2078, 85.87205
399.6899, 86.87742
400.1720, 84.63102
400.6541, 82.13288
401.1362, 78.96010
401.6183, 76.55980
402.1004, 75.87943
402.5826, 76.65484
403.0647, 78.23350
403.5468, 80.49856
404.0289, 83.27828
404.5110, 86.42861
404.9931, 89.93418
405.4753, 93.67567
405.9574, 97.79333
406.4395, 102.0214
406.9216, 106.0588
407.4037, 109.9111
407.8858, 113.7920
408.3680, 117.8446
408.8501, 122.0777
409.3322, 126.3616
409.8143, 130.2777
410.2964, 134.7253
410.7785, 140.0040
411.2607, 146.0395
411.7428, 152.4423
412.2249, 158.9707
412.7070, 166.5456
413.1891, 177.0334
413.6712, 191.9319
414.1534, 207.3428
414.6355, 224.1163
415.1176, 240.7571
415.5997, 259.7402
416.0818, 278.8307
416.5639, 289.9166
417.0461, 285.6146
417.5282, 265.8893
418.0103, 237.5950
418.4924, 188.8002
418.9745, 144.3076
419.4566, 108.1750
419.9388, 79.96917
420.4209, 58.94412
420.9030, 45.02650
421.3851, 36.45739
421.8672, 30.15769
422.3493, 26.71211
422.8315, 24.05886
423.3136, 22.23744
423.7957, 20.87213
424.2778, 19.86040
424.7599, 19.12647
425.2420, 18.51132
425.7242, 17.87041
426.2063, 17.21725
426.6884, 16.72047
427.1705, 16.45481
427.6526, 16.22693
428.1347, 15.92825
428.6169, 15.61435
429.0990, 15.36467
429.5811, 15.20959
430.0632, 15.11934
430.5453, 15.07594
431.0274, 15.08077
431.5096, 15.06035
431.9917, 14.95915
432.4738, 14.86130
432.9559, 14.89149
433.4380, 15.04710
433.9201, 15.11273
434.4023, 14.87284
434.8844, 14.50932
435.3665, 14.36100
435.8486, 14.47237
436.3307, 14.66721
436.8128, 14.89128
437.2950, 15.09134
437.7771, 15.08393
438.2592, 14.59773
438.7413, 14.19049
439.2234, 14.27375
439.7055, 14.66611
440.1877, 14.91636
440.6698, 14.84870
441.1519, 14.63071
441.6340, 14.53376
442.1161, 14.61204
442.5982, 14.65634
443.0804, 14.61323
443.5625, 14.56578
444.0446, 14.58551
444.5267, 14.66640
445.0088, 14.75200
445.4909, 14.80121
445.9731, 14.81633
446.4552, 14.82061
446.9373, 14.76934
447.4194, 14.76151
447.9015, 14.83254
448.3836, 14.94476
448.8658, 15.10037
449.3479, 15.28451
449.8300, 15.39070
450.3121, 15.21066
450.7942, 14.59975
451.2763, 14.24739
451.7585, 14.35596
452.2406, 14.54109
452.7227, 14.67675
453.2048, 14.77305
453.6869, 14.88898
454.1690, 15.07061
454.6512, 15.27812
455.1333, 15.39972
455.6154, 15.39882
456.0975, 15.42097
456.5796, 15.51076
457.0617, 15.64391
457.5439, 15.81645
458.0260, 16.02629
458.5081, 16.24384
458.9902, 16.45498
459.4723, 16.65564
459.9544, 16.82711
460.4366, 16.95764
460.9187, 17.08729
461.4008, 17.27207
461.8829, 17.47992
462.3650, 17.62268
462.8471, 17.59284
463.3293, 17.59180
463.8114, 17.80075
464.2935, 18.17262
464.7756, 18.54138
465.2577, 18.84906
465.7398, 19.11865
466.2220, 19.37010
466.7041, 19.58263
467.1862, 19.86528
467.6683, 20.28134
468.1504, 20.73594
468.6325, 21.12273
469.1147, 21.45999
469.5968, 21.85637
470.0789, 22.38952
470.5610, 23.05091
471.0431, 23.77393
471.5252, 24.73823
472.0074, 25.54566
472.4895, 25.96323
472.9716, 26.30665
473.4537, 26.87007
473.9358, 27.72625
474.4179, 28.77991
474.9001, 29.88006
475.3822, 30.97636
475.8643, 32.47879
476.3464, 34.59499
476.8285, 36.92582
477.3106, 39.33804
477.7928, 41.87619
478.2749, 44.62568
478.7570, 47.62891
479.2391, 50.84845
479.7212, 54.18891
480.2033, 57.65145
480.6855, 61.35315
481.1676, 65.65635
481.6497, 69.92844
482.1318, 73.77432
482.6139, 77.19018
483.0960, 80.11447
483.5782, 82.23703
484.0603, 83.98000
484.5424, 86.06448
485.0245, 88.52090
485.5066, 90.89865
485.9887, 92.78758
486.4709, 94.53519
486.9530, 97.01528
487.4351, 100.5064
487.9172, 104.0592
488.3993, 107.3535
488.8814, 110.5367
489.3636, 113.7636
489.8457, 117.0753
490.3278, 120.4299
490.8099, 123.7570
491.2920, 127.0118
491.7741, 130.8874
492.2563, 135.4429
492.7384, 140.4055
493.2205, 146.0937
493.7026, 151.9872
494.1847, 157.2786
494.6668, 161.6757
495.1490, 165.7396
495.6311, 170.5459
496.1132, 176.6520
496.5953, 181.6345
497.0774, 185.6453
497.5595, 188.3606
498.0417, 190.0259
498.5238, 190.2367
499.0059, 188.2166
499.4880, 183.5153
499.9701, 176.3918
500.4522, 166.9984
500.9344, 155.0008
501.4165, 142.6834
501.8986, 130.3188
502.3807, 118.2607
502.8628, 106.7361
503.3449, 95.81468
503.8271, 85.74756
504.3092, 76.46004
504.7913, 68.17859
505.2734, 61.50933
505.7555, 56.47403
506.2376, 52.07791
506.7198, 47.78385
507.2019, 43.69335
507.6840, 40.12287
508.1661, 37.14391
508.6482, 34.45992
509.1303, 31.95430
509.6125, 29.72008
510.0946, 27.91335
510.5767, 26.54126
511.0588, 25.47799
511.5409, 24.65306
512.0230, 24.06367
512.5051, 23.27383
512.9872, 22.03039
513.4694, 20.88283
513.9515, 19.94086
514.4336, 19.15048
514.9157, 18.46342
515.3978, 17.85869
515.8799, 17.31442
516.3621, 16.78623
516.8442, 16.26664
517.3263, 15.86137
517.8084, 15.62174
518.2905, 15.43327
518.7726, 15.24129
519.2548, 15.06010
519.7369, 14.92277
520.2190, 14.85610
520.7011, 14.79421
521.1832, 14.64067
521.6653, 14.41217
522.1475, 14.25180
522.6296, 14.22347
523.1117, 14.21102
523.5938, 14.05594
524.0759, 13.78292
524.5580, 13.58212
525.0402, 13.49811
525.5223, 13.48444
526.0044, 13.56612
526.4865, 13.69495
526.9686, 13.73253
527.4507, 13.61395
527.9329, 13.40735
528.4150, 13.23517
528.8971, 13.09756
529.3792, 13.00238
529.8613, 12.98102
530.3434, 12.97054
530.8256, 12.92076
531.3077, 12.85224
531.7898, 12.81815
532.2719, 12.84922
532.7540, 12.93683
533.2361, 13.08751
533.7183, 13.38019
534.2004, 13.51265
534.6825, 13.32010
535.1646, 13.03760
535.6467, 12.77018
536.1288, 12.52923
536.6110, 12.31334
537.0931, 12.08138
537.5752, 11.89401
538.0573, 11.92712
538.5394, 12.19526
539.0215, 12.35513
539.5037, 12.21972
539.9858, 11.93700
540.4679, 11.74564
540.9500, 11.64503
541.4321, 11.60257
541.9142, 11.70798
542.3964, 11.80182
542.8785, 11.68724
543.3606, 11.38684
543.8427, 11.07950
544.3248, 10.87134
544.8069, 10.75802
545.2891, 10.72423
545.7712, 10.80609
546.2533, 10.92564
546.7354, 11.20946
547.2175, 11.43235
547.6996, 11.34093
548.1818, 10.99701
548.6639, 10.72693
549.1460, 10.82868
549.6281, 11.17570
550.1102, 11.19254
550.5923, 10.69952
551.0745, 10.34317
551.5566, 10.42791
552.0387, 10.66202
552.5208, 10.84635
553.0029, 10.95994
553.4850, 11.03661
553.9672, 11.09882
554.4493, 11.13652
554.9314, 11.11746
555.4135, 11.03985
555.8956, 10.97240
556.3777, 10.95017
556.8599, 10.96518
557.3420, 11.00180
557.8241, 11.07506
558.3062, 11.13089
558.7883, 11.14452
559.2704, 11.14606
559.7526, 11.15582
560.2347, 11.17902
560.7168, 11.22444
561.1989, 11.30268
561.6810, 11.39987
562.1631, 11.44876
562.6453, 11.40508
563.1274, 11.38809
563.6095, 11.46309
564.0916, 11.52554
564.5737, 11.47394
565.0558, 11.32448
565.5380, 11.19724
566.0201, 11.19439
566.5022, 11.26644
566.9843, 11.28807
567.4664, 11.25670
567.9485, 11.18762
568.4307, 11.05118
568.9128, 10.91044
569.3949, 10.85272
569.8770, 10.88300
570.3591, 10.92758
570.8412, 10.98441
571.3234, 11.02897
571.8055, 11.01848
572.2876, 10.96517
572.7697, 10.93906
573.2518, 10.98376
573.7339, 11.06440
574.2161, 11.09303
574.6982, 11.06526
575.1803, 10.98617
575.6624, 10.74387
576.1445, 10.55175
576.6266, 10.55652
577.1088, 10.72367
577.5909, 10.95173
578.0730, 11.19632
578.5551, 11.41504
579.0372, 11.48810
579.5193, 11.37961
580.0015, 11.32320
580.4836, 11.36128
580.9657, 11.47255
581.4478, 11.68587
581.9299, 11.96596
582.4120, 12.16137
582.8942, 12.15438
583.3763, 12.09094
583.8584, 12.04112
584.3405, 12.04210
584.8226, 12.28173
585.3047, 12.85875
585.7869, 13.51690
586.2690, 13.84298
586.7511, 13.66763
587.2332, 14.05493
587.7153, 15.32277
588.1974, 16.76792
588.6796, 17.64061
589.1617, 18.63198
589.6438, 20.74766
590.1259, 24.35540
590.6080, 29.31885
591.0901, 35.70507
591.5723, 43.68623
592.0544, 51.61935
592.5365, 60.77685
593.0186, 67.81863
593.5007, 70.92461
593.9828, 71.22726
594.4650, 70.02614
594.9471, 67.17518
595.4292, 64.59647
595.9113, 63.66791
596.3934, 64.12010
596.8755, 65.42961
597.3577, 67.52279
597.8398, 70.22556
598.3219, 73.48035
598.8040, 77.23251
599.2861, 81.16535
599.7682, 85.54867
600.2504, 89.72584
600.7325, 93.46607
601.2146, 97.06107
601.6967, 100.7823
602.1788, 104.6551
602.6609, 108.5035
603.1431, 112.0572
603.6252, 115.5696
604.1073, 119.9362
604.5894, 124.8922
605.0715, 131.4184
605.5536, 140.1011
606.0358, 150.3059
606.5179, 162.3178
607.0000, 175.7801
607.4821, 188.7041
