##NAMES=Anilite
##RRUFFID=R060688
##IDEAL CHEMISTRY=Cu_7_S_4_
##LOCALITY=Horai Halze bei Medenec, Erzgebirge, Czech Republic
##OWNER=RRUFF
##SOURCE=Michael Scott
##DESCRIPTION=Black metallic massive; associated with malachite
##STATUS=The identification of this mineral has been confirmed by X-ray diffraction and chemical analysis
##URL=rruff.info/R060688
##MEASURED CHEMISTRY=Cu_6.96_S_4.00
136.469, 905.979
136.951, 916.489
137.433, 929.833
137.915, 946.725
138.397, 958.927
138.879, 966.097
139.361, 968.240
139.843, 963.643
140.326, 948.423
140.808, 935.137
141.290, 933.359
141.772, 948.194
142.254, 959.413
142.736, 963.317
143.218, 960.649
143.700, 960.884
144.182, 965.564
144.665, 971.481
145.147, 975.663
145.629, 977.505
146.111, 978.519
146.593, 978.949
147.075, 978.794
147.557, 977.726
148.039, 974.148
148.521, 970.283
149.004, 968.988
149.486, 969.206
149.968, 973.033
150.450, 982.321
150.932, 1002.600
151.414, 1016.273
151.896, 1022.436
152.378, 1022.073
152.861, 1017.120
153.343, 999.281
153.825, 983.464
154.307, 975.679
154.789, 980.789
155.271, 987.926
155.753, 1000.534
156.235, 1015.432
156.717, 1021.044
157.200, 1005.798
157.682, 986.115
158.164, 972.072
158.646, 964.826
159.128, 964.331
159.610, 974.226
160.092, 993.406
160.574, 1009.699
161.057, 1018.494
161.539, 1022.519
162.021, 1024.317
162.503, 1023.229
162.985, 1021.175
163.467, 1019.274
163.949, 1017.646
164.431, 1014.640
164.913, 1006.289
165.396, 996.717
165.878, 991.561
166.360, 996.311
166.842, 1004.234
167.324, 1011.438
167.806, 1017.830
168.288, 1022.375
168.770, 1024.086
169.253, 1023.550
169.735, 1021.957
170.217, 1016.824
170.699, 1012.410
171.181, 1014.510
171.663, 1027.401
172.145, 1038.561
172.627, 1033.966
173.109, 1017.726
173.592, 1003.730
174.074, 1002.541
174.556, 1008.271
175.038, 1012.524
175.520, 1012.889
176.002, 1012.033
176.484, 1012.130
176.966, 1013.298
177.449, 1016.470
177.931, 1025.201
178.413, 1036.334
178.895, 1043.360
179.377, 1042.696
179.859, 1038.164
180.341, 1035.301
180.823, 1034.072
181.305, 1033.690
181.788, 1033.595
182.270, 1033.784
182.752, 1034.223
183.234, 1034.295
183.716, 1034.741
184.198, 1038.078
184.680, 1044.651
185.162, 1051.068
185.645, 1053.985
186.127, 1053.572
186.609, 1051.033
187.091, 1042.446
187.573, 1031.247
188.055, 1033.079
188.537, 1050.481
189.019, 1072.637
189.501, 1086.100
189.984, 1091.170
190.466, 1091.694
190.948, 1087.217
191.430, 1078.723
191.912, 1074.189
192.394, 1074.957
192.876, 1077.842
193.358, 1076.322
193.840, 1070.141
194.323, 1065.359
194.805, 1065.820
195.287, 1071.382
195.769, 1078.527
196.251, 1087.857
196.733, 1097.806
197.215, 1105.371
197.697, 1110.935
198.180, 1112.195
198.662, 1104.957
199.144, 1088.430
199.626, 1077.801
200.108, 1076.379
200.590, 1081.438
201.072, 1083.242
201.554, 1080.760
202.036, 1078.824
202.519, 1081.776
203.001, 1090.308
203.483, 1098.374
203.965, 1105.007
204.447, 1110.334
204.929, 1113.870
205.411, 1113.812
205.893, 1092.943
206.376, 1120.668
206.858, 1136.598
207.340, 1141.365
207.822, 1101.539
208.304, 1119.296
208.786, 1113.977
209.268, 1107.711
209.750, 1120.866
210.232, 1116.956
210.714, 1096.469
211.197, 1082.175
211.679, 1082.011
212.161, 1096.372
212.643, 1102.279
213.125, 1096.297
213.607, 1086.434
214.089, 1082.427
214.572, 1086.269
215.054, 1090.731
215.536, 1093.931
216.018, 1095.797
216.500, 1097.133
216.982, 1098.187
217.464, 1098.353
217.946, 1096.260
218.428, 1090.289
218.911, 1085.554
219.393, 1083.167
219.875, 1082.706
220.357, 1087.662
220.839, 1102.269
221.321, 1119.225
221.803, 1126.175
222.285, 1119.065
222.767, 1109.711
223.250, 1102.047
223.732, 1096.311
224.214, 1090.726
224.696, 1082.228
225.178, 1075.552
225.660, 1081.900
226.142, 1111.452
226.624, 1136.476
227.107, 1144.353
227.589, 1126.430
228.071, 1115.282
228.553, 1114.029
229.035, 1118.422
229.517, 1117.816
229.999, 1109.078
230.481, 1100.112
230.963, 1093.878
231.445, 1089.495
231.928, 1090.172
232.410, 1098.894
232.892, 1112.162
233.374, 1119.116
233.856, 1116.016
234.338, 1112.213
234.820, 1111.746
235.303, 1114.710
235.785, 1121.673
236.267, 1137.705
236.749, 1157.482
237.231, 1160.759
237.713, 1135.499
238.195, 1110.342
238.677, 1100.727
239.159, 1116.237
239.641, 1126.774
240.124, 1128.851
240.606, 1125.007
241.088, 1125.808
241.570, 1133.873
242.052, 1143.079
242.534, 1150.522
243.016, 1157.458
243.498, 1159.497
243.981, 1153.104
244.463, 1141.184
244.945, 1137.974
245.427, 1150.525
245.909, 1162.595
246.391, 1163.389
246.873, 1143.198
247.355, 1132.686
247.837, 1138.330
248.320, 1156.082
248.802, 1164.910
249.284, 1161.235
249.766, 1153.342
250.248, 1145.541
250.730, 1136.550
251.212, 1130.569
251.694, 1127.807
252.176, 1128.365
252.659, 1133.596
253.141, 1148.254
253.623, 1161.124
254.105, 1164.009
254.587, 1150.843
255.069, 1142.573
255.551, 1142.930
256.033, 1150.024
256.516, 1153.386
256.998, 1150.708
257.480, 1147.660
257.962, 1148.231
258.444, 1154.032
258.926, 1159.352
259.408, 1164.332
259.890, 1168.468
260.372, 1168.103
260.855, 1159.824
261.337, 1152.514
261.819, 1153.730
262.301, 1168.755
262.783, 1176.048
263.265, 1169.594
263.747, 1153.497
264.229, 1149.839
264.711, 1165.556
265.194, 1180.853
265.676, 1179.212
266.158, 1153.385
266.640, 1137.880
267.122, 1139.671
267.604, 1154.498
268.086, 1162.916
268.569, 1162.979
269.051, 1161.146
269.533, 1161.268
270.015, 1163.155
270.497, 1168.952
270.979, 1182.309
271.461, 1199.016
271.943, 1199.332
272.425, 1178.091
272.908, 1154.993
273.390, 1143.781
273.872, 1145.808
274.354, 1152.210
274.836, 1164.332
275.318, 1179.167
275.800, 1186.065
276.282, 1183.571
276.764, 1178.360
277.247, 1173.614
277.729, 1169.001
278.211, 1169.125
278.693, 1176.348
279.175, 1187.159
279.657, 1190.856
280.139, 1186.259
280.621, 1180.751
281.103, 1178.715
281.586, 1180.161
282.068, 1183.781
282.550, 1189.488
283.032, 1197.216
283.514, 1209.815
283.996, 1228.471
284.478, 1240.696
284.960, 1232.288
285.443, 1205.109
285.925, 1193.027
286.407, 1203.527
286.889, 1224.002
287.371, 1229.213
287.853, 1218.984
288.335, 1206.652
288.817, 1197.881
289.299, 1193.139
289.782, 1198.057
290.264, 1216.877
290.746, 1237.166
291.228, 1234.471
291.710, 1210.289
292.192, 1186.888
292.674, 1175.520
293.156, 1175.260
293.638, 1187.127
294.121, 1215.253
294.603, 1243.185
295.085, 1245.815
295.567, 1226.352
296.049, 1204.001
296.531, 1184.437
297.013, 1170.200
297.496, 1170.948
297.978, 1190.208
298.460, 1211.760
298.942, 1213.771
299.424, 1201.107
299.906, 1190.605
300.388, 1192.381
300.870, 1201.456
301.352, 1211.009
301.835, 1221.069
302.317, 1228.327
302.799, 1226.609
303.281, 1219.308
303.763, 1214.668
304.245, 1218.737
304.727, 1226.528
305.209, 1232.586
305.691, 1236.721
306.174, 1239.063
306.656, 1239.433
307.138, 1238.192
307.620, 1236.011
308.102, 1232.017
308.584, 1227.969
309.066, 1224.745
309.548, 1222.369
310.030, 1222.627
310.513, 1231.162
310.995, 1241.874
311.477, 1246.707
311.959, 1237.740
312.441, 1225.853
312.923, 1216.061
313.405, 1208.567
313.887, 1205.791
314.370, 1214.339
314.852, 1225.898
315.334, 1232.272
315.816, 1223.716
316.298, 1216.140
316.780, 1217.499
317.262, 1226.622
317.744, 1235.108
318.226, 1241.757
318.709, 1245.312
319.191, 1244.716
319.673, 1234.686
320.155, 1226.130
320.637, 1221.724
321.119, 1221.142
321.601, 1222.995
322.083, 1230.145
322.565, 1237.394
323.048, 1241.883
323.530, 1242.341
324.012, 1241.158
324.494, 1238.154
324.976, 1233.654
325.458, 1228.638
325.940, 1218.401
326.422, 1211.508
326.905, 1212.058
327.387, 1227.812
327.869, 1238.013
328.351, 1238.878
328.833, 1234.315
329.315, 1231.801
329.797, 1230.807
330.279, 1232.498
330.762, 1238.265
331.244, 1251.311
331.726, 1258.899
332.208, 1258.857
332.690, 1254.602
333.172, 1250.284
333.654, 1241.437
334.136, 1240.601
334.618, 1256.192
335.100, 1292.191
335.583, 1305.193
336.065, 1284.356
336.547, 1253.156
337.029, 1238.251
337.511, 1244.272
337.993, 1253.342
338.475, 1264.131
338.957, 1275.584
339.440, 1273.052
339.922, 1251.439
340.404, 1227.895
340.886, 1219.335
341.368, 1227.435
341.850, 1235.418
342.332, 1240.327
342.814, 1242.635
343.297, 1242.747
343.779, 1240.228
344.261, 1238.818
344.743, 1243.396
345.225, 1253.092
345.707, 1257.805
346.189, 1254.865
346.671, 1248.108
347.153, 1243.350
347.635, 1240.691
348.118, 1241.496
348.600, 1249.477
349.082, 1261.768
349.564, 1270.727
350.046, 1276.194
350.528, 1276.072
351.010, 1262.951
351.492, 1240.603
351.975, 1222.717
352.457, 1220.823
352.939, 1226.580
353.421, 1226.797
353.903, 1219.825
354.385, 1214.117
354.867, 1220.330
355.349, 1232.930
355.832, 1241.454
356.314, 1237.779
356.796, 1230.623
357.278, 1226.266
357.760, 1224.930
358.242, 1226.894
358.724, 1236.191
359.206, 1247.482
359.688, 1254.850
360.171, 1252.753
360.653, 1249.519
361.135, 1248.560
361.617, 1249.714
362.099, 1251.871
362.581, 1253.969
363.063, 1257.270
363.545, 1263.193
364.027, 1281.396
364.510, 1289.671
364.992, 1273.024
365.474, 1241.144
365.956, 1222.423
366.438, 1235.499
366.920, 1252.227
367.402, 1260.272
367.884, 1252.153
368.366, 1248.715
368.849, 1255.906
369.331, 1267.333
369.813, 1271.947
370.295, 1260.517
370.777, 1253.540
371.259, 1259.684
371.741, 1283.995
372.224, 1292.456
372.706, 1273.386
373.188, 1248.484
373.670, 1245.160
374.152, 1276.535
374.634, 1296.770
375.116, 1292.370
375.598, 1266.232
376.080, 1250.187
376.562, 1246.232
377.045, 1248.018
377.527, 1251.174
378.009, 1255.838
378.491, 1261.117
378.973, 1267.279
379.455, 1273.689
379.937, 1278.249
380.419, 1280.916
380.902, 1283.145
381.384, 1285.820
381.866, 1288.910
382.348, 1292.343
382.830, 1296.356
383.312, 1300.052
383.794, 1303.017
384.276, 1304.852
384.759, 1303.521
385.241, 1292.823
385.723, 1279.488
386.205, 1279.417
386.687, 1293.880
387.169, 1306.525
387.651, 1296.399
388.133, 1274.491
388.615, 1260.689
389.098, 1270.708
389.580, 1286.362
390.062, 1292.704
390.544, 1290.559
391.026, 1285.120
391.508, 1273.659
391.990, 1263.186
392.472, 1260.681
392.954, 1274.069
393.437, 1286.979
393.919, 1292.367
394.401, 1291.817
394.883, 1289.799
395.365, 1282.714
395.847, 1278.389
396.329, 1281.849
396.811, 1297.711
397.293, 1310.714
397.776, 1319.387
398.258, 1323.533
398.740, 1323.045
399.222, 1312.343
399.704, 1302.613
400.186, 1295.587
400.668, 1291.145
401.151, 1290.752
401.633, 1297.370
402.115, 1305.450
402.597, 1310.436
403.079, 1311.701
403.561, 1311.124
404.043, 1308.018
404.525, 1303.258
405.007, 1300.627
405.490, 1299.659
405.972, 1302.086
406.454, 1311.221
406.936, 1328.093
407.418, 1337.699
407.900, 1337.528
408.382, 1332.360
408.864, 1332.353
409.346, 1337.511
409.828, 1337.384
410.311, 1321.256
410.793, 1295.312
411.275, 1282.085
411.757, 1282.381
412.239, 1289.240
412.721, 1298.062
413.203, 1308.080
413.685, 1316.973
414.168, 1323.620
414.650, 1329.105
415.132, 1335.388
415.614, 1342.059
416.096, 1346.228
416.578, 1343.442
417.060, 1338.293
417.542, 1336.791
418.025, 1343.469
418.507, 1346.637
418.989, 1331.765
419.471, 1308.806
419.953, 1297.860
420.435, 1323.553
420.917, 1349.687
421.399, 1355.440
421.881, 1334.950
422.364, 1318.959
422.846, 1316.179
423.328, 1320.392
423.810, 1325.454
424.292, 1332.579
424.774, 1338.509
425.256, 1343.088
425.738, 1346.296
426.220, 1347.144
426.703, 1344.882
427.185, 1341.111
427.667, 1336.298
428.149, 1328.873
428.631, 1324.204
429.113, 1322.453
429.595, 1323.504
430.077, 1327.082
430.560, 1333.170
431.042, 1341.858
431.524, 1356.435
432.006, 1376.197
432.488, 1381.428
432.970, 1369.821
433.452, 1352.748
433.934, 1341.103
434.417, 1334.829
434.899, 1332.057
435.381, 1332.448
435.863, 1335.939
436.345, 1344.061
436.827, 1356.272
437.309, 1367.577
437.791, 1374.148
438.273, 1377.565
438.755, 1380.625
439.238, 1384.500
439.720, 1385.475
440.202, 1376.427
440.684, 1362.420
441.166, 1353.357
441.648, 1357.871
442.130, 1365.484
442.612, 1370.674
443.095, 1373.093
443.577, 1373.469
444.059, 1369.134
444.541, 1364.419
445.023, 1362.954
445.505, 1368.516
445.987, 1373.989
446.469, 1378.357
446.952, 1381.769
447.434, 1384.698
447.916, 1386.094
448.398, 1388.152
448.880, 1392.251
449.362, 1400.479
449.844, 1404.096
450.326, 1400.065
450.808, 1394.262
451.290, 1395.374
451.773, 1405.548
452.255, 1414.868
452.737, 1420.149
453.219, 1422.314
453.701, 1428.265
454.183, 1438.885
454.665, 1448.219
455.147, 1450.924
455.630, 1447.810
456.112, 1443.949
456.594, 1439.592
457.076, 1435.942
457.558, 1433.849
458.040, 1433.753
458.522, 1437.456
459.004, 1447.748
459.487, 1461.513
459.969, 1475.538
460.451, 1489.586
460.933, 1503.110
461.415, 1515.793
461.897, 1527.376
462.379, 1537.716
462.861, 1548.658
463.343, 1556.082
463.826, 1554.931
464.308, 1547.973
464.790, 1544.624
465.272, 1550.511
465.754, 1558.556
466.236, 1565.093
466.718, 1568.239
467.200, 1574.186
467.682, 1584.975
468.165, 1597.973
468.647, 1610.581
469.129, 1624.075
469.611, 1634.990
470.093, 1642.945
470.575, 1647.867
471.057, 1649.089
471.539, 1645.808
472.022, 1640.494
472.504, 1634.271
472.986, 1627.012
473.468, 1621.151
473.950, 1617.859
474.432, 1614.038
474.914, 1605.222
475.396, 1591.516
475.878, 1573.632
476.361, 1546.923
476.843, 1517.674
477.325, 1500.291
477.807, 1494.430
478.289, 1493.110
478.771, 1494.154
479.253, 1495.330
479.735, 1493.003
480.217, 1484.609
480.700, 1475.744
481.182, 1469.689
481.664, 1466.057
482.146, 1464.084
482.628, 1463.942
483.110, 1464.911
483.592, 1467.536
484.074, 1472.367
484.556, 1474.262
485.039, 1466.795
485.521, 1458.756
486.003, 1457.973
486.485, 1479.089
486.967, 1486.842
487.449, 1470.037
487.931, 1438.228
488.414, 1426.223
488.896, 1443.847
489.378, 1461.586
489.860, 1465.493
490.342, 1454.214
490.824, 1449.590
491.306, 1453.765
491.788, 1458.878
492.270, 1452.526
492.753, 1436.187
493.235, 1428.534
493.717, 1437.571
494.199, 1454.354
494.681, 1464.509
495.163, 1468.199
495.645, 1467.214
496.127, 1455.889
496.609, 1443.225
497.092, 1445.001
497.574, 1465.226
498.056, 1481.123
498.538, 1469.700
499.020, 1446.770
499.502, 1433.068
499.984, 1444.224
500.466, 1457.175
500.948, 1463.087
501.431, 1463.123
501.913, 1463.609
502.395, 1468.901
502.877, 1472.362
503.359, 1469.601
503.841, 1454.861
504.323, 1448.904
504.805, 1456.081
505.288, 1468.895
505.770, 1478.429
506.252, 1484.538
506.734, 1487.631
507.216, 1486.652
507.698, 1482.900
508.180, 1482.491
508.662, 1485.810
509.145, 1489.615
509.627, 1491.118
510.109, 1491.121
510.591, 1494.460
511.073, 1502.549
511.555, 1508.830
512.037, 1503.532
512.519, 1490.555
513.001, 1479.351
513.484, 1472.617
513.966, 1469.833
514.448, 1472.214
514.930, 1478.815
515.412, 1485.042
515.894, 1488.173
516.376, 1490.426
516.858, 1493.650
517.341, 1499.260
517.823, 1502.318
518.305, 1499.704
518.787, 1494.672
519.269, 1491.291
519.751, 1488.637
520.233, 1489.235
520.715, 1495.307
521.197, 1505.462
521.680, 1511.034
522.162, 1511.332
522.644, 1508.542
523.126, 1502.937
523.608, 1494.209
524.090, 1486.017
524.572, 1476.859
525.054, 1472.924
525.536, 1488.290
526.019, 1518.608
526.501, 1537.154
526.983, 1530.131
527.465, 1512.873
527.947, 1507.203
528.429, 1511.683
528.911, 1518.835
529.393, 1529.171
529.875, 1537.035
530.358, 1535.836
530.840, 1523.684
531.322, 1510.707
531.804, 1497.994
532.286, 1488.522
532.768, 1485.743
533.250, 1493.912
533.732, 1504.628
534.214, 1519.937
534.697, 1537.324
535.179, 1547.851
535.661, 1549.109
536.143, 1546.627
536.625, 1541.895
537.107, 1534.587
537.589, 1527.094
538.071, 1518.547
538.554, 1511.792
539.036, 1510.799
539.518, 1515.443
540.000, 1519.588
540.482, 1521.974
540.964, 1523.406
541.446, 1524.707
541.928, 1526.045
542.411, 1528.400
542.893, 1532.660
543.375, 1537.992
543.857, 1542.750
544.339, 1546.926
544.821, 1553.173
545.303, 1568.492
545.785, 1583.866
546.268, 1590.632
546.750, 1582.590
547.232, 1573.309
547.714, 1564.703
548.196, 1557.578
548.678, 1553.119
549.160, 1551.667
549.642, 1552.911
550.124, 1559.097
550.606, 1569.617
551.089, 1570.991
551.571, 1558.052
552.053, 1546.365
552.535, 1549.265
553.017, 1567.916
553.499, 1574.163
553.981, 1563.850
554.463, 1549.153
554.945, 1547.916
555.428, 1557.484
555.910, 1564.677
556.392, 1564.471
556.874, 1560.331
557.356, 1553.002
557.838, 1544.375
558.320, 1542.527
558.802, 1562.364
559.284, 1583.926
559.767, 1589.698
560.249, 1574.981
560.731, 1563.514
561.213, 1567.283
561.695, 1575.782
562.177, 1579.441
562.659, 1566.235
563.141, 1562.100
563.624, 1573.922
564.106, 1594.523
564.588, 1606.950
565.070, 1610.642
565.552, 1606.699
566.034, 1591.405
566.516, 1566.880
566.998, 1557.240
567.481, 1564.323
567.963, 1574.736
568.445, 1577.761
568.927, 1575.071
569.409, 1572.865
569.891, 1572.679
570.373, 1570.581
570.855, 1554.349
571.338, 1533.739
571.820, 1528.381
572.302, 1567.898
572.784, 1604.948
573.266, 1607.616
573.748, 1582.454
574.230, 1562.386
574.712, 1559.311
575.194, 1562.304
575.677, 1567.018
576.159, 1573.913
576.641, 1579.954
577.123, 1584.897
577.605, 1589.345
578.087, 1594.873
578.569, 1603.551
579.051, 1603.973
579.533, 1590.413
580.016, 1573.230
580.498, 1577.694
580.980, 1602.931
581.462, 1625.564
581.944, 1633.343
582.426, 1632.132
582.908, 1633.593
583.390, 1637.319
583.872, 1638.842
584.355, 1632.563
584.837, 1623.754
585.319, 1617.229
585.801, 1613.522
586.283, 1613.304
586.765, 1622.536
587.247, 1633.311
587.729, 1636.187
588.211, 1611.082
588.694, 1600.407
589.176, 1620.077
589.658, 1658.491
590.140, 1673.377
590.622, 1654.361
591.104, 1633.780
591.586, 1624.254
592.068, 1625.300
592.551, 1629.831
593.033, 1638.630
593.515, 1646.316
593.997, 1647.656
594.479, 1643.867
594.961, 1637.677
595.443, 1627.986
595.925, 1621.540
596.407, 1630.071
596.890, 1646.144
597.372, 1655.903
597.854, 1647.842
598.336, 1637.990
598.818, 1633.567
599.300, 1633.957
599.782, 1635.782
600.265, 1642.477
600.747, 1646.521
601.229, 1642.512
601.711, 1627.350
602.193, 1624.411
602.675, 1639.370
603.157, 1658.393
603.639, 1671.167
604.121, 1677.474
604.604, 1677.744
605.086, 1670.409
605.568, 1660.542
606.050, 1655.415
606.532, 1654.630
607.014, 1656.224
607.496, 1662.366
607.978, 1667.916
608.460, 1664.059
608.943, 1653.213
609.425, 1645.849
609.907, 1651.325
610.389, 1659.137
610.871, 1662.455
611.353, 1660.100
611.835, 1657.221
612.317, 1655.198
612.799, 1652.751
613.282, 1648.629
613.764, 1639.990
614.246, 1635.618
614.728, 1636.525
615.210, 1641.145
615.692, 1648.041
616.174, 1657.748
616.656, 1664.628
617.138, 1666.429
617.621, 1664.938
618.103, 1662.947
618.585, 1660.801
619.067, 1660.878
619.549, 1666.563
620.031, 1674.133
620.513, 1680.085
620.995, 1684.123
621.477, 1685.776
621.960, 1680.084
622.442, 1674.688
622.924, 1675.972
623.406, 1689.649
623.888, 1701.840
624.370, 1714.476
624.852, 1723.283
625.334, 1720.702
625.817, 1697.964
626.299, 1685.768
626.781, 1692.432
627.263, 1711.477
627.745, 1725.449
628.227, 1734.440
628.709, 1735.954
629.191, 1722.984
629.674, 1702.714
630.156, 1691.322
630.638, 1688.575
631.120, 1692.700
631.602, 1714.826
632.084, 1736.542
632.566, 1735.824
633.048, 1701.185
633.531, 1672.567
634.013, 1673.527
634.495, 1684.748
634.977, 1685.311
635.459, 1651.424
635.941, 1638.153
636.423, 1660.076
636.905, 1700.490
637.387, 1719.500
637.870, 1713.309
638.352, 1700.366
638.834, 1682.512
639.316, 1663.953
639.798, 1661.626
640.280, 1674.915
640.762, 1688.331
641.244, 1689.014
641.726, 1684.445
642.209, 1687.422
642.691, 1699.630
643.173, 1707.028
643.655, 1692.750
644.137, 1674.559
644.619, 1668.892
645.101, 1689.405
645.583, 1705.731
646.065, 1708.325
646.548, 1706.611
647.030, 1714.611
647.512, 1742.153
647.994, 1755.387
648.476, 1742.542
648.958, 1714.458
649.440, 1704.370
649.922, 1712.801
650.404, 1725.251
650.887, 1736.911
651.369, 1746.939
651.851, 1754.103
652.333, 1758.379
652.815, 1758.840
653.297, 1750.938
653.779, 1741.386
654.261, 1736.390
654.744, 1737.485
655.226, 1740.074
655.708, 1747.315
656.190, 1752.997
656.672, 1750.677
657.154, 1730.040
657.636, 1719.932
658.118, 1725.427
658.601, 1738.344
659.083, 1744.135
659.565, 1741.959
660.047, 1740.388
660.529, 1741.884
661.011, 1745.372
661.493, 1749.344
661.975, 1753.527
