##NAMES=Anilite
##RRUFFID=R060688
##IDEAL CHEMISTRY=Cu_7_S_4_
##LOCALITY=Horai Halze bei Medenec, Erzgebirge, Czech Republic
##OWNER=RRUFF
##SOURCE=Michael Scott
##DESCRIPTION=Black metallic massive; associated with malachite
##STATUS=The identification of this mineral has been confirmed by X-ray diffraction and chemical analysis
##URL=rruff.info/R060688
##MEASURED CHEMISTRY=Cu_6.96_S_4.00
145.1511, 1009.573
145.6333, 1035.060
146.1154, 1064.478
146.5975, 1095.649
147.0796, 1126.526
147.5617, 1156.930
148.0438, 1184.814
148.5260, 1195.365
149.0081, 1175.184
149.4902, 1155.980
149.9723, 1149.511
150.4544, 1151.638
150.9365, 1152.074
151.4187, 1144.498
151.9008, 1129.818
152.3829, 1116.656
152.8650, 1103.183
153.3471, 1092.546
153.8292, 1088.525
154.3114, 1089.159
154.7935, 1087.341
155.2756, 1077.053
155.7577, 1060.136
156.2398, 1052.102
156.7219, 1060.827
157.2041, 1070.571
157.6862, 1071.453
158.1683, 1064.621
158.6504, 1058.143
159.1325, 1057.146
159.6146, 1061.748
160.0968, 1067.901
160.5789, 1080.139
161.0610, 1090.330
161.5431, 1089.515
162.0252, 1078.638
162.5073, 1071.031
162.9895, 1077.479
163.4716, 1096.664
163.9537, 1112.917
164.4358, 1125.047
164.9179, 1134.606
165.4000, 1142.513
165.8822, 1148.797
166.3643, 1154.149
166.8464, 1160.226
167.3285, 1165.822
167.8106, 1166.103
168.2927, 1155.082
168.7749, 1141.862
169.2570, 1135.819
169.7391, 1137.699
170.2212, 1140.648
170.7033, 1139.112
171.1854, 1134.490
171.6676, 1131.801
172.1497, 1136.204
172.6318, 1140.647
173.1139, 1135.661
173.5960, 1119.784
174.0781, 1103.483
174.5603, 1094.314
175.0424, 1090.891
175.5245, 1089.985
176.0066, 1093.799
176.4887, 1098.538
176.9708, 1098.565
177.4530, 1092.872
177.9351, 1087.109
178.4172, 1086.695
178.8993, 1089.453
179.3814, 1090.304
179.8635, 1085.747
180.3457, 1079.463
180.8278, 1075.922
181.3099, 1075.072
181.7920, 1077.648
182.2741, 1087.764
182.7562, 1101.871
183.2384, 1112.778
183.7205, 1118.288
184.2026, 1119.455
184.6847, 1116.491
185.1668, 1108.114
185.6489, 1100.554
186.1311, 1099.414
186.6132, 1102.167
187.0953, 1104.664
187.5774, 1108.372
188.0595, 1110.125
188.5416, 1102.134
189.0238, 1080.720
189.5059, 1062.849
189.9880, 1065.531
190.4701, 1079.191
190.9522, 1087.803
191.4343, 1080.987
191.9165, 1068.525
192.3986, 1066.300
192.8807, 1076.145
193.3628, 1089.586
193.8449, 1107.451
194.3270, 1124.858
194.8092, 1132.163
195.2913, 1118.848
195.7734, 1097.631
196.2555, 1089.380
196.7376, 1096.740
197.2197, 1106.571
197.7019, 1112.399
198.1840, 1115.411
198.6661, 1116.643
199.1482, 1115.362
199.6303, 1113.183
200.1124, 1112.073
200.5946, 1111.824
201.0767, 1113.505
201.5588, 1121.769
202.0409, 1131.612
202.5230, 1135.807
203.0051, 1130.095
203.4873, 1119.747
203.9694, 1110.884
204.4515, 1103.302
204.9336, 1098.384
205.4157, 1098.402
205.8978, 1101.245
206.3800, 1104.605
206.8621, 1108.739
207.3442, 1112.286
207.8263, 1113.197
208.3084, 1111.173
208.7905, 1108.835
209.2727, 1108.079
209.7548, 1107.509
210.2369, 1105.001
210.7190, 1098.982
211.2011, 1092.615
211.6832, 1089.548
212.1654, 1089.982
212.6475, 1091.181
213.1296, 1092.439
213.6117, 1093.597
214.0938, 1094.067
214.5760, 1092.773
215.0581, 1092.722
215.5402, 1098.771
216.0223, 1110.989
216.5044, 1119.515
216.9865, 1119.332
217.4687, 1113.742
217.9508, 1106.494
218.4329, 1096.428
218.9150, 1088.532
219.3971, 1088.464
219.8792, 1095.645
220.3614, 1101.664
220.8435, 1103.439
221.3256, 1102.627
221.8077, 1101.313
222.2898, 1099.014
222.7719, 1098.084
223.2541, 1100.599
223.7362, 1106.130
224.2183, 1112.505
224.7004, 1120.297
225.1825, 1127.193
225.6646, 1129.733
226.1468, 1127.113
226.6289, 1124.875
227.1110, 1127.187
227.5931, 1132.596
228.0752, 1135.815
228.5573, 1134.663
229.0395, 1132.070
229.5216, 1133.192
230.0037, 1138.674
230.4858, 1139.689
230.9679, 1127.276
231.4500, 1107.785
231.9322, 1096.715
232.4143, 1099.055
232.8964, 1106.256
233.3785, 1108.118
233.8606, 1104.984
234.3427, 1103.050
234.8249, 1103.750
235.3070, 1107.021
235.7891, 1114.428
236.2712, 1127.500
236.7533, 1138.980
237.2354, 1138.714
237.7176, 1127.854
238.1997, 1120.164
238.6818, 1119.909
239.1639, 1123.355
239.6460, 1126.542
240.1281, 1129.050
240.6103, 1131.235
241.0924, 1133.801
241.5745, 1136.574
242.0566, 1137.261
242.5387, 1134.484
243.0208, 1130.393
243.5030, 1126.029
243.9851, 1121.637
244.4672, 1118.670
244.9493, 1118.593
245.4314, 1121.263
245.9135, 1123.151
246.3957, 1122.650
246.8778, 1122.805
247.3599, 1126.775
247.8420, 1133.534
248.3241, 1138.190
248.8062, 1137.119
249.2884, 1131.617
249.7705, 1129.816
250.2526, 1136.442
250.7347, 1141.188
251.2168, 1138.956
251.6989, 1131.860
252.1811, 1124.303
252.6632, 1118.165
253.1453, 1113.683
253.6274, 1111.915
254.1095, 1115.062
254.5916, 1117.836
255.0738, 1118.677
255.5559, 1118.717
256.0380, 1119.693
256.5201, 1122.311
257.0022, 1125.786
257.4843, 1128.489
257.9665, 1130.053
258.4486, 1131.277
258.9307, 1131.261
259.4128, 1131.386
259.8949, 1134.820
260.3770, 1141.931
260.8592, 1147.296
261.3413, 1142.097
261.8234, 1117.267
262.3055, 1102.353
262.7876, 1101.057
263.2697, 1105.720
263.7519, 1114.243
264.2340, 1124.651
264.7161, 1132.222
265.1982, 1131.111
265.6803, 1118.794
266.1624, 1109.593
266.6446, 1103.712
267.1267, 1100.245
267.6088, 1099.661
268.0909, 1101.306
268.5730, 1103.745
269.0551, 1105.881
269.5373, 1107.719
270.0194, 1109.592
270.5015, 1114.308
270.9836, 1116.090
271.4657, 1109.820
271.9478, 1100.064
272.4300, 1095.126
272.9121, 1100.701
273.3942, 1113.515
273.8763, 1120.356
274.3584, 1118.150
274.8405, 1113.997
275.3227, 1106.641
275.8048, 1099.564
276.2869, 1096.574
276.7690, 1099.370
277.2511, 1106.248
277.7332, 1115.679
278.2154, 1130.964
278.6975, 1138.958
279.1796, 1131.634
279.6617, 1119.348
280.1438, 1108.275
280.6259, 1099.841
281.1081, 1094.779
281.5902, 1095.315
282.0723, 1101.977
282.5544, 1106.385
283.0365, 1104.941
283.5186, 1102.772
284.0008, 1104.134
284.4829, 1108.789
284.9650, 1112.398
285.4471, 1113.009
285.9292, 1110.329
286.4113, 1101.384
286.8935, 1080.671
287.3756, 1062.969
287.8577, 1061.606
288.3398, 1072.531
288.8219, 1082.863
289.3040, 1087.829
289.7862, 1089.007
290.2683, 1088.364
290.7504, 1085.679
291.2325, 1082.812
291.7146, 1080.565
292.1967, 1079.132
292.6789, 1079.016
293.1610, 1081.982
293.6431, 1084.882
294.1252, 1084.731
294.6073, 1081.908
295.0894, 1079.000
295.5716, 1076.721
296.0537, 1075.651
296.5358, 1077.405
297.0179, 1084.709
297.5000, 1090.141
297.9821, 1088.360
298.4643, 1082.804
298.9464, 1080.451
299.4285, 1083.924
299.9106, 1090.644
300.3927, 1096.727
300.8748, 1103.781
301.3570, 1106.068
301.8391, 1098.483
302.3212, 1088.334
302.8033, 1083.248
303.2854, 1084.387
303.7675, 1086.853
304.2497, 1084.876
304.7318, 1076.699
305.2139, 1072.368
305.6960, 1076.165
306.1781, 1079.423
306.6602, 1074.333
307.1424, 1064.005
307.6245, 1059.484
308.1066, 1070.581
308.5887, 1095.614
309.0708, 1106.961
309.5529, 1084.088
310.0351, 1069.350
310.5172, 1079.048
310.9993, 1099.358
311.4814, 1110.212
311.9635, 1101.569
312.4456, 1081.423
312.9278, 1068.847
313.4099, 1065.749
313.8920, 1067.145
314.3741, 1076.515
314.8562, 1086.804
315.3383, 1093.449
315.8205, 1095.201
316.3026, 1091.999
316.7847, 1081.710
317.2668, 1063.134
317.7489, 1048.405
318.2310, 1038.224
318.7132, 1032.997
319.1953, 1034.346
319.6774, 1041.225
320.1595, 1049.139
320.6416, 1055.673
321.1237, 1060.974
321.6059, 1065.347
322.0880, 1068.607
322.5701, 1071.408
323.0522, 1075.526
323.5343, 1079.398
324.0164, 1079.571
324.4986, 1071.890
324.9807, 1062.942
325.4628, 1060.897
325.9449, 1065.494
326.4270, 1069.469
326.9091, 1069.677
327.3913, 1066.939
327.8734, 1063.170
328.3555, 1056.955
328.8376, 1052.681
329.3197, 1054.082
329.8018, 1058.587
330.2840, 1060.990
330.7661, 1059.620
331.2482, 1056.474
331.7303, 1054.044
332.2124, 1052.099
332.6945, 1051.943
333.1767, 1053.355
333.6588, 1056.818
334.1409, 1066.461
334.6230, 1080.581
335.1051, 1088.484
335.5873, 1079.528
336.0694, 1052.713
336.5515, 1035.120
337.0336, 1030.765
337.5157, 1029.886
337.9979, 1031.170
338.4800, 1033.551
338.9621, 1036.286
339.4442, 1039.157
339.9263, 1041.036
340.4084, 1037.927
340.8906, 1023.340
341.3727, 1014.816
341.8548, 1015.049
342.3369, 1020.618
342.8190, 1030.827
343.3011, 1044.779
343.7833, 1057.784
344.2654, 1063.579
344.7475, 1061.214
345.2296, 1059.986
345.7117, 1062.279
346.1938, 1063.817
346.6760, 1061.531
347.1581, 1056.460
347.6402, 1052.182
348.1223, 1051.967
348.6044, 1053.775
349.0865, 1051.270
349.5687, 1042.498
350.0508, 1036.263
350.5329, 1040.214
351.0150, 1049.110
351.4971, 1054.882
351.9792, 1054.859
352.4614, 1053.576
352.9435, 1056.564
353.4256, 1062.010
353.9077, 1060.713
354.3898, 1047.407
354.8719, 1029.415
355.3541, 1019.176
355.8362, 1016.923
356.3183, 1017.694
356.8004, 1024.767
357.2825, 1032.090
357.7646, 1030.431
358.2468, 1019.297
358.7289, 1009.688
359.2110, 1012.811
359.6931, 1030.164
360.1752, 1040.843
360.6573, 1043.494
361.1395, 1042.067
361.6216, 1035.686
362.1037, 1026.625
362.5858, 1018.142
363.0679, 1011.786
363.5500, 1008.279
364.0322, 1010.279
364.5143, 1023.559
364.9964, 1033.011
365.4785, 1036.131
365.9606, 1036.231
366.4427, 1034.723
366.9249, 1032.400
367.4070, 1031.323
367.8891, 1036.331
368.3712, 1048.362
368.8533, 1049.961
369.3354, 1029.913
369.8176, 1012.077
370.2997, 1009.949
370.7818, 1019.230
371.2639, 1029.255
371.7460, 1035.199
372.2281, 1038.758
372.7103, 1043.950
373.1924, 1051.456
373.6745, 1054.057
374.1566, 1044.105
374.6387, 1029.556
375.1208, 1024.829
375.6030, 1034.975
376.0851, 1043.242
376.5672, 1038.933
377.0493, 1026.790
377.5314, 1015.322
378.0135, 1006.097
378.4957, 1001.562
378.9778, 1006.336
379.4599, 1023.647
379.9420, 1033.449
380.4241, 1029.062
380.9063, 1022.533
381.3884, 1021.933
381.8705, 1026.265
382.3526, 1030.181
382.8347, 1030.068
383.3168, 1026.881
383.7990, 1025.630
384.2811, 1028.347
384.7632, 1030.614
385.2453, 1032.600
385.7274, 1033.672
386.2095, 1031.870
386.6917, 1027.153
387.1738, 1023.681
387.6559, 1029.686
388.1380, 1048.468
388.6201, 1055.160
389.1022, 1037.091
389.5844, 1018.379
390.0665, 1008.637
390.5486, 1007.361
391.0307, 1012.435
391.5128, 1027.819
391.9949, 1045.600
392.4771, 1048.519
392.9592, 1034.391
393.4413, 1021.085
393.9234, 1015.580
394.4055, 1016.438
394.8876, 1021.080
395.3698, 1030.815
395.8519, 1040.361
396.3340, 1048.235
396.8161, 1053.778
397.2982, 1054.739
397.7803, 1050.323
398.2625, 1044.928
398.7446, 1044.241
399.2267, 1049.871
399.7088, 1047.848
400.1909, 1028.616
400.6730, 1011.072
401.1552, 1005.326
401.6373, 1009.352
402.1194, 1017.585
402.6015, 1027.350
403.0836, 1037.125
403.5657, 1041.773
404.0479, 1037.590
404.5300, 1034.162
405.0121, 1032.869
405.4942, 1032.101
405.9763, 1029.710
406.4584, 1025.894
406.9406, 1023.828
407.4227, 1028.401
407.9048, 1039.147
408.3869, 1044.510
408.8690, 1041.183
409.3511, 1037.864
409.8333, 1041.028
410.3154, 1046.888
410.7975, 1048.696
411.2796, 1043.211
411.7617, 1034.710
412.2438, 1025.592
412.7260, 1016.451
413.2081, 1012.015
413.6902, 1014.741
414.1723, 1021.440
414.6544, 1028.252
415.1365, 1035.904
415.6187, 1040.029
416.1008, 1035.248
416.5829, 1029.621
417.0650, 1032.393
417.5471, 1042.788
418.0292, 1051.609
418.5114, 1051.811
418.9935, 1044.386
419.4756, 1038.452
419.9577, 1030.353
420.4398, 1028.325
420.9219, 1043.223
421.4041, 1060.055
421.8862, 1058.477
422.3683, 1034.297
422.8504, 1007.729
423.3325, 1008.726
423.8146, 1042.071
424.2968, 1063.593
424.7789, 1068.464
425.2610, 1064.310
425.7431, 1048.907
426.2252, 1028.070
426.7073, 1015.386
427.1895, 1020.011
427.6716, 1032.128
428.1537, 1039.165
428.6358, 1041.213
429.1179, 1040.974
429.6000, 1038.724
430.0822, 1035.439
430.5643, 1032.319
431.0464, 1028.854
431.5285, 1027.506
432.0106, 1032.761
432.4927, 1038.240
432.9749, 1034.455
433.4570, 1021.968
433.9391, 1012.397
434.4212, 1015.932
434.9033, 1031.139
435.3854, 1038.155
435.8676, 1026.255
436.3497, 1018.966
436.8318, 1024.275
437.3139, 1034.155
437.7960, 1039.849
438.2781, 1038.735
438.7603, 1034.210
439.2424, 1029.616
439.7245, 1024.636
440.2066, 1022.962
440.6887, 1026.635
441.1708, 1031.470
441.6530, 1037.048
442.1351, 1042.012
442.6172, 1043.107
443.0993, 1037.289
443.5814, 1029.168
444.0635, 1023.061
444.5457, 1019.105
445.0278, 1019.355
445.5099, 1025.902
445.9920, 1034.869
446.4741, 1039.558
446.9562, 1039.281
447.4384, 1039.715
447.9205, 1042.345
448.4026, 1045.659
448.8847, 1048.833
449.3668, 1051.580
449.8489, 1053.445
450.3311, 1054.208
450.8132, 1053.758
451.2953, 1051.443
451.7774, 1046.192
452.2595, 1040.474
452.7416, 1033.077
453.2238, 1026.323
453.7059, 1020.889
454.1880, 1017.507
454.6701, 1018.702
455.1522, 1030.892
455.6343, 1052.068
456.1165, 1062.440
456.5986, 1058.649
457.0807, 1050.744
457.5628, 1041.289
458.0449, 1032.022
458.5270, 1025.749
459.0092, 1022.818
459.4913, 1023.223
459.9734, 1030.171
460.4555, 1040.270
460.9376, 1044.202
461.4197, 1039.101
461.9019, 1032.153
462.3840, 1031.948
462.8661, 1039.979
463.3482, 1045.261
463.8303, 1046.026
464.3124, 1046.086
464.7946, 1046.702
465.2767, 1047.901
465.7588, 1050.065
466.2409, 1053.443
466.7230, 1056.179
467.2051, 1054.160
467.6873, 1045.704
468.1694, 1038.404
468.6515, 1031.386
469.1336, 1027.246
469.6157, 1029.472
470.0978, 1036.162
470.5800, 1040.744
471.0621, 1037.560
471.5442, 1032.105
472.0263, 1033.654
472.5084, 1041.976
472.9905, 1037.834
473.4727, 1050.329
473.9548, 1057.216
474.4369, 1058.795
474.9190, 1039.171
475.4011, 1046.926
475.8832, 1043.709
476.3654, 1040.042
476.8475, 1051.652
477.3296, 1035.111
477.8117, 1046.478
478.2938, 1046.705
478.7759, 1052.031
479.2581, 1046.316
479.7402, 1044.011
480.2223, 1052.750
480.7044, 1055.374
481.1865, 1048.388
481.6686, 1054.038
482.1508, 1037.112
482.6329, 1039.996
483.1150, 1051.428
483.5971, 1044.997
484.0792, 1050.849
484.5613, 1052.023
485.0435, 1031.938
485.5256, 1036.841
486.0077, 1040.371
486.4898, 1045.212
486.9719, 1052.556
487.4540, 1058.380
487.9362, 1062.484
488.4183, 1063.534
488.9004, 1056.925
489.3825, 1043.265
489.8646, 1032.772
490.3467, 1035.388
490.8289, 1050.156
491.3110, 1057.366
491.7931, 1048.512
492.2752, 1042.065
492.7573, 1043.228
493.2394, 1046.574
493.7216, 1045.528
494.2037, 1038.964
494.6858, 1032.829
495.1679, 1032.938
495.6500, 1038.720
496.1321, 1047.627
496.6143, 1062.247
497.0964, 1072.445
497.5785, 1067.647
498.0606, 1054.964
498.5427, 1049.666
499.0248, 1057.211
499.5070, 1064.880
499.9891, 1067.220
500.4712, 1065.521
500.9533, 1061.080
501.4355, 1054.339
501.9176, 1046.454
502.3997, 1037.826
502.8818, 1028.323
503.3639, 1025.598
503.8460, 1036.574
504.3282, 1046.526
504.8103, 1054.022
505.2924, 1058.403
505.7745, 1057.565
506.2566, 1051.310
506.7387, 1045.376
507.2209, 1047.212
507.7030, 1055.530
508.1851, 1059.457
508.6672, 1056.245
509.1493, 1054.378
509.6314, 1061.940
510.1136, 1074.269
510.5957, 1080.341
511.0778, 1077.304
511.5599, 1071.165
512.0420, 1060.915
512.5241, 1050.707
513.0062, 1048.562
513.4883, 1055.382
513.9705, 1062.691
514.4526, 1061.706
514.9347, 1052.474
515.4168, 1047.229
515.8989, 1050.054
516.3810, 1052.060
516.8632, 1051.000
517.3453, 1048.710
517.8274, 1047.729
518.3095, 1048.496
518.7916, 1048.032
519.2737, 1040.313
519.7559, 1028.445
520.2380, 1027.584
520.7201, 1041.240
521.2022, 1054.506
521.6843, 1058.901
522.1664, 1055.960
522.6486, 1051.041
523.1307, 1040.125
523.6128, 1034.311
524.0949, 1042.351
524.5770, 1054.558
525.0591, 1059.020
525.5413, 1054.877
526.0234, 1049.880
526.5055, 1050.762
526.9876, 1056.611
527.4697, 1059.637
527.9518, 1057.528
528.4340, 1056.478
528.9161, 1060.976
529.3982, 1064.756
529.8803, 1060.434
530.3624, 1047.899
530.8445, 1037.472
531.3267, 1037.307
531.8088, 1043.601
532.2909, 1049.342
532.7730, 1054.288
533.2551, 1058.396
533.7372, 1062.655
534.2194, 1065.059
534.7015, 1059.241
535.1836, 1036.960
535.6657, 1024.946
536.1478, 1033.198
536.6299, 1046.794
537.1121, 1055.880
537.5942, 1060.026
538.0763, 1062.521
538.5584, 1065.464
539.0405, 1068.124
539.5226, 1067.808
540.0048, 1062.967
540.4869, 1061.175
540.9690, 1065.537
541.4511, 1071.921
541.9332, 1078.721
542.4153, 1085.287
542.8975, 1088.176
543.3796, 1083.382
543.8617, 1076.652
544.3438, 1072.484
544.8259, 1070.752
545.3080, 1071.148
545.7902, 1073.751
546.2723, 1076.877
546.7544, 1077.860
547.2365, 1075.779
547.7186, 1075.098
548.2007, 1076.827
548.6829, 1078.724
549.1650, 1083.502
549.6471, 1086.827
550.1292, 1080.018
550.6113, 1059.074
551.0934, 1037.420
551.5756, 1031.507
552.0577, 1039.514
552.5398, 1049.747
553.0219, 1062.356
553.5040, 1072.077
553.9861, 1074.185
554.4683, 1069.925
554.9504, 1066.602
555.4325, 1063.224
555.9146, 1062.099
556.3967, 1067.178
556.8788, 1073.124
557.3610, 1071.624
557.8431, 1062.952
558.3252, 1057.082
558.8073, 1063.971
559.2894, 1080.833
559.7715, 1088.749
560.2537, 1083.972
560.7358, 1078.460
561.2179, 1073.604
561.7000, 1070.553
562.1821, 1071.252
562.6642, 1075.622
563.1464, 1079.220
563.6285, 1080.662
564.1106, 1079.724
564.5927, 1075.967
565.0748, 1069.499
565.5569, 1059.816
566.0391, 1045.797
566.5212, 1032.149
567.0033, 1028.515
567.4854, 1041.948
567.9675, 1046.782
568.4496, 1031.709
568.9318, 1020.711
569.4139, 1028.178
569.8960, 1046.342
570.3781, 1061.409
570.8602, 1068.147
571.3423, 1067.826
571.8245, 1058.039
572.3066, 1041.207
572.7887, 1030.817
573.2708, 1029.080
573.7529, 1033.251
574.2350, 1043.351
574.7172, 1058.024
575.1993, 1068.547
575.6814, 1074.271
576.1635, 1076.991
576.6456, 1075.197
577.1277, 1071.804
577.6099, 1070.462
578.0920, 1070.987
578.5741, 1069.009
579.0562, 1059.187
579.5383, 1045.569
580.0204, 1045.278
580.5026, 1062.186
580.9847, 1077.475
581.4668, 1084.966
581.9489, 1089.461
582.4310, 1097.909
582.9132, 1109.949
583.3953, 1114.687
583.8774, 1102.277
584.3596, 1087.553
584.8417, 1082.535
585.3238, 1084.067
585.8059, 1083.626
586.2880, 1078.089
586.7701, 1070.926
587.2523, 1067.038
587.7344, 1066.761
588.2165, 1067.360
588.6986, 1070.027
589.1807, 1071.987
589.6628, 1073.730
590.1450, 1073.682
590.6271, 1067.822
591.1092, 1054.070
591.5913, 1044.978
592.0734, 1054.647
592.5555, 1071.884
593.0377, 1077.878
593.5198, 1071.775
594.0019, 1062.368
594.4840, 1054.260
594.9661, 1047.695
595.4482, 1043.253
595.9304, 1038.326
596.4125, 1040.404
596.8946, 1057.927
597.3767, 1073.676
597.8588, 1075.744
598.3409, 1068.903
598.8231, 1065.357
599.3052, 1071.266
599.7873, 1080.173
600.2694, 1084.451
600.7515, 1085.131
601.2336, 1087.852
601.7158, 1094.352
602.1979, 1097.699
602.6800, 1089.992
603.1621, 1073.276
603.6442, 1067.199
604.1263, 1081.627
604.6085, 1092.650
605.0906, 1096.102
605.5727, 1095.199
606.0548, 1091.026
606.5369, 1084.914
607.0190, 1080.201
607.5012, 1080.154
607.9833, 1081.967
608.4654, 1079.353
608.9475, 1072.255
609.4296, 1063.662
609.9117, 1052.046
610.3939, 1043.904
610.8760, 1048.799
611.3581, 1067.477
611.8402, 1078.927
612.3223, 1077.599
612.8044, 1074.770
613.2866, 1075.268
613.7687, 1076.478
614.2508, 1072.891
614.7329, 1064.417
615.2150, 1059.187
615.6971, 1067.703
616.1793, 1085.952
616.6614, 1093.764
617.1435, 1089.410
617.6256, 1082.972
618.1077, 1077.265
618.5898, 1071.948
619.0720, 1065.167
619.5541, 1056.136
620.0362, 1054.033
620.5183, 1066.948
621.0004, 1080.683
621.4825, 1086.684
621.9647, 1087.283
622.4468, 1086.989
622.9289, 1087.439
623.4110, 1088.379
623.8931, 1090.867
624.3752, 1094.638
624.8574, 1090.530
625.3395, 1074.302
625.8216, 1061.841
626.3037, 1062.583
626.7858, 1069.807
627.2679, 1073.048
627.7501, 1071.593
628.2322, 1069.457
628.7143, 1067.082
629.1964, 1064.934
629.6785, 1062.485
630.1606, 1060.637
630.6428, 1062.473
631.1249, 1069.253
631.6070, 1076.068
632.0891, 1073.664
632.5712, 1061.158
633.0533, 1055.841
633.5355, 1061.444
634.0176, 1067.047
634.4997, 1065.494
634.9818, 1061.203
635.4639, 1061.426
635.9460, 1067.849
636.4282, 1073.876
636.9103, 1078.207
637.3924, 1080.560
637.8745, 1079.791
638.3566, 1076.799
638.8387, 1073.552
639.3209, 1070.936
639.8030, 1069.745
640.2851, 1072.174
640.7672, 1078.773
641.2493, 1082.460
641.7314, 1080.896
