##NAMES=Anilite
##RRUFFID=R060514
##IDEAL CHEMISTRY=Cu_7_S_4_
##LOCALITY=Villamanin, Carmenes District, Leon Province, Spain
##OWNER=RRUFF
##SOURCE=Michael Scott
##DESCRIPTION=Steel gray platy coating on tan colored dolomite
##STATUS=The identification of this mineral is confirmed by single-crystal X-ray diffraction and chemical analysis.
##URL=rruff.info/R060514
##MEASURED CHEMISTRY=Cu_6.78_S_4.00
172.627, 36979.020
173.109, 37069.109
173.592, 37160.910
174.074, 37203.129
174.556, 37188.609
175.038, 37176.648
175.520, 37233.051
176.002, 37335.328
176.484, 37422.770
176.966, 37453.770
177.449, 37456.180
177.931, 37470.051
178.413, 37498.531
178.895, 37539.352
179.377, 37592.570
179.859, 37657.102
180.341, 37725.859
180.823, 37804.121
181.305, 37883.488
181.788, 37937.199
182.270, 37949.359
182.752, 37955.750
183.234, 38029.391
183.716, 38165.090
184.198, 38282.559
184.680, 38292.512
185.162, 38226.879
185.645, 38210.531
186.127, 38292.801
186.609, 38423.469
187.091, 38481.230
187.573, 38462.672
188.055, 38435.961
188.537, 38484.660
189.019, 38594.691
189.501, 38656.641
189.984, 38606.410
190.466, 38487.570
190.948, 38472.781
191.430, 38578.141
191.912, 38707.449
192.394, 38747.230
192.876, 38699.910
193.358, 38640.781
193.840, 38585.371
194.323, 38537.621
194.805, 38534.078
195.287, 38584.590
195.769, 38656.430
196.251, 38701.820
196.733, 38719.410
197.215, 38734.410
197.697, 38759.641
198.180, 38795.539
198.662, 38825.141
199.144, 38845.750
199.626, 38864.398
200.108, 38899.148
200.590, 38954.828
201.072, 39002.500
201.554, 39016.750
202.036, 38991.469
202.519, 38999.141
203.001, 39052.988
203.483, 39134.352
203.965, 39190.590
204.447, 39213.031
204.929, 39233.102
205.411, 39273.250
205.893, 39337.480
206.376, 39390.379
206.858, 39422.520
207.340, 39440.090
207.822, 39477.730
208.304, 39548.371
208.786, 39610.961
209.268, 39625.520
209.750, 39577.078
210.232, 39550.961
210.715, 39572.238
211.197, 39634.512
211.679, 39662.262
212.161, 39642.629
212.643, 39613.961
213.125, 39614.941
213.607, 39658.449
214.089, 39692.930
214.572, 39699.039
215.054, 39676.719
215.536, 39695.078
216.018, 39773.570
216.500, 39865.941
216.982, 39916.191
217.464, 39901.102
217.946, 39893.980
218.428, 39911.648
218.911, 39954.719
219.393, 40012.840
219.875, 40104.730
220.357, 40193.691
220.839, 40219.578
221.321, 40146.480
221.803, 40087.461
222.285, 40082.910
222.768, 40150.840
223.250, 40196.680
223.732, 40219.641
224.214, 40223.820
224.696, 40210.719
225.178, 40160.809
225.660, 40130.539
226.142, 40143.840
226.624, 40217.211
227.107, 40283.199
227.589, 40339.922
228.071, 40389.109
228.553, 40432.371
229.035, 40463.789
229.517, 40496.871
229.999, 40541.160
230.481, 40616.770
230.964, 40652.051
231.446, 40625.160
231.928, 40562.379
232.410, 40539.941
232.892, 40578.480
233.374, 40628.090
233.856, 40665.199
234.338, 40686.371
234.820, 40702.559
235.303, 40703.320
235.785, 40700.172
236.267, 40743.262
236.749, 40884.172
237.231, 41003.488
237.713, 41026.059
238.195, 40874.820
238.677, 40790.410
239.160, 40807.289
239.642, 40905.750
240.124, 40986.551
240.606, 41035.590
241.088, 41085.578
241.570, 41161.180
242.052, 41292.441
242.534, 41385.391
243.016, 41409.340
243.499, 41379.590
243.981, 41408.680
244.463, 41535.879
244.945, 41672.629
245.427, 41754.211
245.909, 41744.961
246.391, 41746.539
246.873, 41769.500
247.355, 41811.750
247.838, 41858.219
248.320, 41911.730
248.802, 41964.801
249.284, 42014.578
249.766, 42070.219
250.248, 42104.020
250.730, 42112.379
251.212, 42096.859
251.695, 42062.250
252.177, 41986.629
252.659, 41922.590
253.141, 41923.238
253.623, 42035.148
254.105, 42113.891
254.587, 42124.750
255.069, 42072.109
255.551, 42061.828
256.034, 42113.590
256.516, 42183.691
256.998, 42230.520
257.480, 42237.531
257.962, 42256.719
258.444, 42298.691
258.926, 42361.641
259.408, 42424.730
259.891, 42487.230
260.373, 42546.480
260.855, 42597.711
261.337, 42633.359
261.819, 42676.539
262.301, 42735.340
262.783, 42809.230
263.265, 42863.500
263.747, 42888.730
264.229, 42907.031
264.712, 42950.352
265.194, 43040.789
265.676, 43086.512
266.158, 43046.840
266.640, 42925.320
267.122, 42874.570
267.604, 42921.961
268.086, 42996.879
268.569, 43020.879
269.051, 42979.699
269.533, 42941.680
270.015, 42925.141
270.497, 42929.340
270.979, 42934.270
271.461, 42946.078
271.943, 42948.969
272.426, 42913.961
272.908, 42826.879
273.390, 42772.191
273.872, 42777.328
274.354, 42838.699
274.836, 42906.230
275.318, 42980.320
275.800, 43058.199
276.282, 43144.238
276.765, 43243.770
277.247, 43308.570
277.729, 43309.891
278.211, 43257.379
278.693, 43249.980
279.175, 43296.910
279.657, 43359.602
280.139, 43394.090
280.621, 43397.500
281.104, 43404.648
281.586, 43428.590
282.068, 43464.410
282.550, 43481.871
283.032, 43476.859
283.514, 43469.660
283.996, 43486.461
284.478, 43527.422
284.961, 43561.211
285.443, 43576.469
285.925, 43578.379
286.407, 43591.090
286.889, 43617.578
287.371, 43639.750
287.853, 43627.559
288.335, 43585.680
288.818, 43568.391
289.300, 43604.172
289.782, 43672.570
290.264, 43711.711
290.746, 43720.660
291.228, 43710.250
291.710, 43674.031
292.192, 43620.422
292.674, 43596.578
293.156, 43633.500
293.639, 43700.020
294.121, 43713.148
294.603, 43672.391
295.085, 43636.750
295.567, 43686.359
296.049, 43791.238
296.531, 43849.461
297.013, 43816.398
297.496, 43734.199
297.978, 43659.352
298.460, 43594.102
298.942, 43561.949
299.424, 43592.070
299.906, 43670.078
300.388, 43765.898
300.870, 43878.539
301.353, 43994.238
301.835, 44098.809
302.317, 44188.648
302.799, 44260.281
303.281, 44300.781
303.763, 44319.551
304.245, 44329.609
304.727, 44320.391
305.209, 44317.789
305.691, 44354.750
306.174, 44425.180
306.656, 44498.141
307.138, 44557.559
307.620, 44607.930
308.102, 44657.340
308.584, 44719.609
309.066, 44767.449
309.548, 44777.941
310.031, 44756.730
310.513, 44723.770
310.995, 44675.051
311.477, 44627.559
311.959, 44598.230
312.441, 44598.539
312.923, 44604.031
313.405, 44599.730
313.888, 44589.148
314.370, 44582.711
314.852, 44596.891
315.334, 44609.762
315.816, 44603.340
316.298, 44563.398
316.780, 44526.941
317.262, 44504.199
317.744, 44496.180
318.227, 44505.641
318.709, 44560.500
319.191, 44614.230
319.673, 44641.230
320.155, 44629.801
320.637, 44613.238
321.119, 44577.480
321.601, 44544.250
322.083, 44552.520
322.566, 44658.391
323.048, 44765.910
323.530, 44835.809
324.012, 44850.840
324.494, 44865.660
324.976, 44872.020
325.458, 44884.809
325.940, 44925.930
326.422, 45052.078
326.905, 45154.031
327.387, 45192.680
327.869, 45141.199
328.351, 45118.820
328.833, 45145.289
329.315, 45192.590
329.797, 45228.602
330.280, 45239.820
330.762, 45257.871
331.244, 45299.730
331.726, 45373.391
332.208, 45399.121
332.690, 45343.609
333.172, 45268.680
333.654, 45235.230
334.136, 45265.309
334.618, 45297.070
335.101, 45322.859
335.583, 45342.941
336.065, 45352.160
336.547, 45346.301
337.029, 45336.160
337.511, 45329.590
337.993, 45325.238
338.475, 45325.000
338.958, 45326.441
339.440, 45330.750
339.922, 45350.020
340.404, 45388.641
340.886, 45426.410
341.368, 45446.219
341.850, 45446.590
342.332, 45452.910
342.815, 45470.359
343.297, 45495.430
343.779, 45524.059
344.261, 45559.180
344.743, 45580.211
345.225, 45558.648
345.707, 45504.922
346.189, 45491.090
346.671, 45532.449
347.154, 45601.930
347.636, 45663.379
348.118, 45715.852
348.600, 45757.398
349.082, 45769.922
349.564, 45769.359
350.046, 45806.770
350.528, 45892.070
351.010, 45977.449
351.493, 45999.762
351.975, 45974.410
352.457, 45950.570
352.939, 45939.129
353.421, 45948.160
353.903, 46012.160
354.385, 46138.629
354.867, 46231.969
355.349, 46177.602
355.832, 46043.719
356.314, 45943.980
356.796, 45947.352
357.278, 45988.641
357.760, 46035.441
358.242, 46085.730
358.724, 46109.309
359.207, 46046.391
359.689, 45964.730
360.171, 45933.551
360.653, 46040.141
361.135, 46139.512
361.617, 46149.898
362.099, 46087.961
362.581, 46052.609
363.063, 46094.012
363.546, 46162.801
364.028, 46227.180
364.510, 46284.352
364.992, 46331.309
365.474, 46368.660
365.956, 46395.590
366.438, 46410.191
366.920, 46398.430
367.402, 46387.129
367.885, 46387.020
368.367, 46398.281
368.849, 46424.340
369.331, 46486.270
369.813, 46558.988
370.295, 46594.949
370.777, 46542.859
371.259, 46518.730
371.741, 46571.449
372.224, 46731.770
372.706, 46811.352
373.188, 46763.648
373.670, 46674.148
374.152, 46646.012
374.634, 46691.590
375.116, 46765.051
375.598, 46868.770
376.081, 46997.398
376.563, 47083.879
377.045, 47123.930
377.527, 47131.559
378.009, 47118.238
378.491, 47084.629
378.973, 47027.551
379.455, 46932.020
379.938, 46824.422
380.420, 46790.820
380.902, 46835.809
381.384, 46904.672
381.866, 46966.289
382.348, 47021.738
382.830, 47075.648
383.312, 47131.672
383.794, 47180.730
384.276, 47190.422
384.759, 47170.469
385.241, 47177.141
385.723, 47261.391
386.205, 47386.531
386.687, 47497.281
387.169, 47589.480
387.651, 47653.289
388.134, 47654.129
388.616, 47617.949
389.098, 47597.551
389.580, 47623.922
390.062, 47670.141
390.544, 47725.059
391.026, 47788.520
391.508, 47828.820
391.990, 47812.629
392.473, 47772.391
392.955, 47741.250
393.437, 47726.660
393.919, 47729.930
394.401, 47767.930
394.883, 47832.809
395.365, 47877.539
395.847, 47877.281
396.329, 47861.160
396.812, 47844.180
397.294, 47808.879
397.776, 47800.480
398.258, 47842.531
398.740, 47914.480
399.222, 47966.461
399.704, 47967.488
400.186, 47975.410
400.668, 48013.430
401.151, 48100.359
401.633, 48153.980
402.115, 48154.141
402.597, 48135.629
403.079, 48148.461
403.561, 48218.090
404.043, 48262.480
404.525, 48248.512
405.008, 48180.879
405.490, 48164.301
405.972, 48212.031
406.454, 48280.430
406.936, 48336.180
407.418, 48379.520
407.900, 48404.090
408.382, 48402.719
408.865, 48387.109
409.347, 48387.039
409.829, 48402.559
410.311, 48425.859
410.793, 48445.270
411.275, 48467.539
411.757, 48520.949
412.239, 48615.250
412.721, 48718.980
413.203, 48794.809
413.686, 48846.672
414.168, 48885.461
414.650, 48896.262
415.132, 48906.109
415.614, 48957.230
416.096, 49051.629
416.578, 49138.629
417.060, 49171.121
417.543, 49175.180
418.025, 49184.660
418.507, 49224.320
418.989, 49260.141
419.471, 49277.730
419.953, 49277.461
420.435, 49262.410
420.917, 49208.590
421.400, 49158.109
421.882, 49140.648
422.364, 49182.000
422.846, 49225.289
423.328, 49260.879
423.810, 49293.230
424.292, 49331.559
424.774, 49416.559
425.256, 49470.590
425.738, 49454.648
426.221, 49335.691
426.703, 49293.422
427.185, 49361.820
427.667, 49478.172
428.149, 49576.391
428.631, 49656.148
429.113, 49714.391
429.595, 49742.820
430.078, 49746.488
430.560, 49768.871
431.042, 49815.219
431.524, 49860.730
432.006, 49885.090
432.488, 49888.219
432.970, 49888.691
433.452, 49885.969
433.935, 49886.898
434.417, 49901.141
434.899, 49929.211
435.381, 49975.090
435.863, 50058.699
436.345, 50159.820
436.827, 50226.449
437.309, 50254.090
437.791, 50278.000
438.274, 50322.270
438.756, 50387.148
439.238, 50474.039
439.720, 50616.441
440.202, 50752.602
440.684, 50815.930
441.166, 50818.000
441.648, 50833.539
442.130, 50909.160
442.613, 51009.301
443.095, 51105.891
443.577, 51183.309
444.059, 51274.762
444.541, 51425.250
445.023, 51594.539
445.505, 51703.840
445.987, 51663.980
446.470, 51628.570
446.952, 51649.699
447.434, 51744.129
447.916, 51833.410
448.398, 51899.820
448.880, 51975.371
449.362, 52092.680
449.844, 52271.789
450.327, 52451.359
450.809, 52627.672
451.291, 52797.359
451.773, 52949.551
452.255, 53077.770
452.737, 53205.480
453.219, 53344.621
453.701, 53495.910
454.183, 53662.070
454.665, 53843.430
455.148, 54043.891
455.630, 54279.988
456.112, 54549.898
456.594, 54822.699
457.076, 55085.488
457.558, 55345.289
458.040, 55611.391
458.522, 55883.352
459.005, 56185.129
459.487, 56574.629
459.969, 56993.160
460.451, 57347.551
460.933, 57556.590
461.415, 57780.109
461.897, 58160.199
462.379, 58647.070
462.862, 59111.520
463.344, 59446.359
463.826, 59774.109
464.308, 60174.141
464.790, 60675.172
465.272, 61155.531
465.754, 61582.789
466.236, 61966.570
466.718, 62313.672
467.201, 62616.199
467.683, 62896.059
468.165, 63181.359
468.647, 63460.078
469.129, 63626.949
469.611, 63671.020
470.093, 63611.410
470.575, 63469.520
471.057, 63269.621
471.540, 62872.980
472.022, 62219.691
472.504, 61435.199
472.986, 60766.461
473.468, 60223.840
473.950, 59663.891
474.432, 58999.129
474.914, 58271.230
475.397, 57648.480
475.879, 57135.039
476.361, 56676.949
476.843, 56222.480
477.325, 55786.141
477.807, 55411.629
478.289, 55114.840
478.771, 54868.641
479.254, 54657.031
479.736, 54475.469
480.218, 54309.340
480.700, 54142.160
481.182, 53991.309
481.664, 53877.750
482.146, 53803.789
482.628, 53734.059
483.110, 53621.250
483.592, 53516.379
484.075, 53469.988
484.557, 53567.000
485.039, 53637.680
485.521, 53633.270
486.003, 53565.891
486.485, 53518.320
486.967, 53521.859
487.449, 53509.469
487.931, 53445.891
488.414, 53307.480
488.896, 53207.648
489.378, 53157.809
489.860, 53137.641
490.342, 53125.820
490.824, 53128.172
491.306, 53109.301
491.789, 53052.391
492.271, 52971.660
492.753, 52908.500
493.235, 52862.719
493.717, 52834.602
494.199, 52822.910
494.681, 52827.090
495.163, 52852.961
495.645, 52907.301
496.128, 52955.359
496.610, 52962.398
497.092, 52934.949
497.574, 52888.480
498.056, 52788.262
498.538, 52703.590
499.020, 52693.262
499.502, 52754.270
499.984, 52817.691
500.467, 52868.961
500.949, 52905.789
501.431, 52925.320
501.913, 52914.051
502.395, 52907.789
502.877, 52881.570
503.359, 52867.648
503.841, 52935.219
504.323, 53177.090
504.806, 53366.922
505.288, 53426.352
505.770, 53351.391
506.252, 53301.738
506.734, 53278.309
507.216, 53275.359
507.698, 53297.840
508.181, 53347.781
508.663, 53375.172
509.145, 53368.781
509.627, 53347.500
510.109, 53348.551
510.591, 53368.801
511.073, 53378.730
511.555, 53347.461
512.037, 53303.289
512.519, 53293.320
513.002, 53318.891
513.484, 53362.699
513.966, 53430.949
514.448, 53502.961
514.930, 53552.102
515.412, 53555.059
515.894, 53558.039
516.376, 53585.879
516.859, 53628.500
517.341, 53663.270
517.823, 53656.250
518.305, 53664.711
518.787, 53725.000
519.269, 53856.262
519.751, 53925.379
520.233, 53873.820
520.716, 53811.148
521.198, 53831.000
521.680, 53980.500
522.162, 54083.121
522.644, 54109.789
523.126, 54090.590
523.608, 54096.012
524.090, 54130.250
524.572, 54159.340
525.055, 54166.629
525.537, 54156.141
526.019, 54135.379
526.501, 54102.520
526.983, 54090.199
527.465, 54165.020
527.947, 54276.660
528.429, 54316.070
528.911, 54217.211
529.394, 54116.922
529.876, 54158.570
530.358, 54285.211
530.840, 54368.379
531.322, 54315.828
531.804, 54235.730
532.286, 54176.430
532.768, 54143.172
533.250, 54126.109
533.733, 54127.590
534.215, 54144.000
534.697, 54175.191
535.179, 54267.000
535.661, 54302.020
536.143, 54257.379
536.625, 54164.391
537.107, 54081.590
537.589, 53996.238
538.072, 53961.820
538.554, 54017.020
539.036, 54145.121
539.518, 54205.910
540.000, 54190.750
540.482, 54177.969
540.964, 54249.488
541.446, 54377.191
541.929, 54476.371
542.411, 54526.379
542.893, 54561.129
543.375, 54624.410
543.857, 54699.340
544.339, 54749.129
544.821, 54739.289
545.303, 54712.430
545.786, 54687.391
546.268, 54665.711
546.750, 54657.930
547.232, 54670.988
547.714, 54697.559
548.196, 54735.559
548.678, 54797.031
549.160, 54848.180
549.643, 54897.000
550.125, 54931.539
550.607, 54929.949
551.089, 54867.219
551.571, 54829.770
552.053, 54844.660
552.535, 54897.570
553.017, 54923.109
553.499, 54918.000
553.982, 54908.289
554.464, 54908.301
554.946, 54916.781
555.428, 54929.719
555.910, 54947.250
556.392, 54967.941
556.874, 54982.129
557.356, 55000.281
557.838, 55046.199
558.321, 55174.891
558.803, 55276.461
559.285, 55244.730
559.767, 55121.500
560.249, 55030.730
560.731, 55025.852
561.213, 55056.320
561.695, 55106.422
562.177, 55179.660
562.660, 55242.090
563.142, 55284.770
563.624, 55319.262
564.106, 55352.941
564.588, 55382.941
565.070, 55413.422
565.552, 55441.398
566.034, 55471.699
566.516, 55525.270
566.999, 55606.629
567.481, 55659.172
567.963, 55641.891
568.445, 55585.328
568.927, 55581.109
569.409, 55627.781
569.891, 55684.488
570.373, 55730.309
570.856, 55762.969
571.338, 55773.980
571.820, 55756.238
572.302, 55740.281
572.784, 55747.730
573.266, 55767.660
573.748, 55785.199
574.230, 55782.078
574.713, 55789.961
575.195, 55838.828
575.677, 55915.578
576.159, 55937.820
576.641, 55854.219
577.123, 55779.629
577.605, 55764.691
578.087, 55821.949
578.570, 55857.109
579.052, 55867.141
579.534, 55865.141
580.016, 55852.039
580.498, 55830.371
580.980, 55853.629
581.462, 55945.020
581.944, 56057.031
582.426, 56118.391
582.909, 56136.930
583.391, 56140.441
583.873, 56126.871
584.355, 56113.809
584.837, 56111.520
585.319, 56120.840
585.801, 56153.398
586.283, 56260.230
586.765, 56361.250
587.248, 56392.398
587.730, 56294.629
588.212, 56240.711
588.694, 56286.379
589.176, 56368.590
589.658, 56418.699
590.140, 56419.570
590.622, 56425.910
591.104, 56450.410
591.587, 56485.301
592.069, 56496.520
592.551, 56479.961
593.033, 56478.551
593.515, 56536.871
593.997, 56630.191
594.479, 56662.020
594.961, 56630.379
595.443, 56588.551
595.926, 56575.980
596.408, 56583.738
596.890, 56597.699
597.372, 56611.289
597.854, 56640.430
598.336, 56722.250
598.818, 56820.570
599.300, 56875.211
599.783, 56823.250
600.265, 56777.352
600.747, 56771.051
601.229, 56798.070
601.711, 56817.711
602.193, 56814.871
602.675, 56826.609
603.157, 56871.898
603.640, 56951.930
604.122, 57048.480
604.604, 57172.320
605.086, 57275.609
605.568, 57291.219
606.050, 57237.750
606.532, 57209.090
607.014, 57226.090
607.497, 57267.289
607.979, 57313.730
608.461, 57364.988
608.943, 57420.551
609.425, 57505.340
609.907, 57572.398
610.389, 57570.930
610.871, 57513.391
611.353, 57498.199
611.836, 57637.371
612.318, 57755.160
612.800, 57746.809
613.282, 57562.051
613.764, 57452.660
614.246, 57445.840
614.728, 57485.422
615.210, 57516.391
615.692, 57534.398
616.175, 57590.211
616.657, 57707.090
617.139, 57838.289
617.621, 57895.270
618.103, 57887.871
618.585, 57871.930
619.067, 57871.609
619.549, 57875.410
620.031, 57855.129
620.514, 57818.961
620.996, 57814.500
621.478, 57888.730
621.960, 57987.641
622.442, 58077.379
622.924, 58152.352
623.406, 58217.551
623.888, 58293.730
624.370, 58346.352
624.853, 58339.500
625.335, 58211.930
625.817, 58165.000
626.299, 58248.898
626.781, 58383.000
627.263, 58405.262
627.745, 58308.711
628.227, 58232.910
628.710, 58229.270
629.192, 58274.730
629.674, 58329.961
630.156, 58393.012
630.638, 58444.840
631.120, 58485.488
631.602, 58503.480
632.084, 58480.020
632.567, 58411.941
633.049, 58339.719
633.531, 58249.031
634.013, 58180.949
634.495, 58169.762
634.977, 58245.289
635.459, 58341.730
635.941, 58477.191
636.424, 58619.762
636.906, 58728.891
637.388, 58810.379
637.870, 58828.230
638.352, 58756.301
638.834, 58626.461
639.316, 58506.941
639.798, 58398.762
640.280, 58342.352
640.763, 58409.500
641.245, 58523.629
641.727, 58545.281
642.209, 58477.238
642.691, 58410.141
643.173, 58390.180
643.655, 58404.781
644.137, 58450.051
644.619, 58543.391
645.102, 58620.789
645.584, 58661.320
646.066, 58682.031
646.548, 58703.691
647.030, 58731.391
647.512, 58741.781
647.994, 58707.879
648.476, 58668.930
648.958, 58738.691
649.441, 58925.410
649.923, 59080.961
650.405, 59129.352
650.887, 59112.461
651.369, 59122.352
651.851, 59155.930
652.333, 59190.578
652.815, 59218.051
653.297, 59237.180
653.780, 59242.070
654.262, 59231.512
654.744, 59233.352
655.226, 59294.309
655.708, 59352.770
656.190, 59358.211
656.672, 59217.328
657.154, 59168.090
657.636, 59264.648
658.119, 59410.641
658.601, 59469.609
659.083, 59427.648
659.565, 59370.441
660.047, 59307.871
660.529, 59249.910
661.011, 59235.090
661.494, 59254.840
661.976, 59248.988
662.458, 59140.141
662.940, 59020.512
663.422, 59010.840
663.904, 59101.000
664.386, 59190.609
664.868, 59216.539
665.350, 59237.129
665.833, 59303.430
666.315, 59454.398
666.797, 59516.230
667.279, 59396.039
667.761, 59256.660
668.243, 59230.469
668.725, 59345.379
669.207, 59458.570
