##NAMES=Ankerite
##RRUFFID=R050181
##IDEAL CHEMISTRY=CaFe^2+^(CO_3_)_2_
##LOCALITY=Cerro Sapo, Cochabamba Department, Bolivia
##OWNER=RRUFF
##SOURCE=Marcus Origlieri
##DESCRIPTION=White coarsely crystalline massive
##STATUS=The identification of this mineral has been confirmed by X-ray diffraction and chemical analysis
##URL=rruff.info/R050181
##MEASURED CHEMISTRY=Ca_1.00_(Fe^2+^_0.60_Mg_0.35_Mn^2+^_0.05_)_Î£=1_(CO_3_)_2_ ; C not measured but estimated by difference and stoichiometry
114.1789, 35.34623
114.6611, 35.47711
115.1432, 35.40919
115.6253, 35.23557
116.1074, 35.15871
116.5895, 35.30074
117.0716, 35.56131
117.5538, 35.69077
118.0359, 35.62873
118.5180, 35.54536
119.0001, 35.54171
119.4822, 35.61750
119.9643, 35.76797
120.4465, 36.02971
120.9286, 36.35736
121.4107, 36.73233
121.8928, 37.21425
122.3749, 37.67488
122.8570, 37.83268
123.3392, 37.49915
123.8213, 37.20190
124.3034, 37.10677
124.7855, 37.15874
125.2676, 37.28889
125.7497, 37.46101
126.2319, 37.67509
126.7140, 37.92439
127.1961, 38.27510
127.6782, 38.60327
128.1603, 38.84055
128.6424, 39.02339
129.1246, 39.24591
129.6067, 39.61092
130.0888, 40.17063
130.5709, 40.58718
131.0530, 40.86084
131.5351, 41.03323
132.0173, 41.07975
132.4994, 41.01675
132.9815, 40.93684
133.4636, 40.92752
133.9457, 40.94539
134.4278, 41.26490
134.9100, 42.15000
135.3921, 43.25601
135.8742, 44.14717
136.3563, 44.67641
136.8384, 45.08286
137.3205, 45.75265
137.8027, 46.69556
138.2848, 47.60485
138.7669, 48.28864
139.2490, 48.81529
139.7311, 49.45485
140.2132, 50.29472
140.6953, 51.28822
141.1775, 52.38392
141.6596, 53.59332
142.1417, 54.81163
142.6238, 55.91303
143.1059, 56.87758
143.5880, 57.89225
144.0702, 58.92832
144.5523, 60.07929
145.0344, 61.46132
145.5165, 63.11113
145.9986, 64.89378
146.4807, 66.56658
146.9629, 68.10288
147.4450, 69.57558
147.9271, 71.01093
148.4092, 72.40392
148.8913, 73.73084
149.3734, 74.98367
149.8556, 76.18722
150.3377, 77.43838
150.8198, 78.90420
151.3019, 80.24725
151.7840, 81.38378
152.2661, 82.38150
152.7483, 83.32419
153.2304, 84.25632
153.7125, 85.19138
154.1946, 86.25031
154.6767, 87.50014
155.1588, 88.77428
155.6410, 90.01209
156.1231, 91.21713
156.6052, 92.40628
157.0873, 93.57446
157.5694, 94.72842
158.0515, 95.95434
158.5337, 97.41190
159.0158, 98.82780
159.4979, 99.91830
159.9800, 100.6569
160.4621, 101.3676
160.9442, 102.2881
161.4264, 103.3913
161.9085, 104.6081
162.3906, 106.2057
162.8727, 107.8330
163.3548, 108.8923
163.8369, 109.2475
164.3191, 109.2707
164.8012, 109.3205
165.2833, 109.2838
165.7654, 108.8603
166.2475, 107.9476
166.7296, 106.5409
167.2118, 104.5195
167.6939, 101.5685
168.1760, 98.32030
168.6581, 95.09885
169.1402, 91.88167
169.6223, 88.50753
170.1045, 84.79096
170.5866, 80.67724
171.0687, 76.84702
171.5508, 73.45839
172.0329, 70.24101
172.5150, 67.06911
172.9971, 63.96471
173.4793, 61.02200
173.9614, 58.33654
174.4435, 55.91316
174.9256, 53.77678
175.4077, 51.95735
175.8898, 50.31669
176.3720, 48.82602
176.8541, 47.45631
177.3362, 46.14976
177.8183, 44.82485
178.3004, 43.34339
178.7825, 42.20488
179.2647, 41.66623
179.7468, 41.29165
180.2289, 40.69963
180.7110, 39.80156
181.1931, 38.79271
181.6752, 37.96289
182.1574, 37.33784
182.6395, 36.83018
183.1216, 36.54424
183.6037, 36.33664
184.0858, 36.01009
184.5679, 35.49384
185.0501, 34.89475
185.5322, 34.37066
186.0143, 33.91166
186.4964, 33.51434
186.9785, 33.14859
187.4606, 32.84409
187.9428, 32.71193
188.4249, 32.88921
188.9070, 33.09136
189.3891, 32.92122
189.8712, 32.35552
190.3533, 31.81459
190.8355, 31.61582
191.3176, 31.71328
191.7997, 31.71736
192.2818, 31.41276
192.7639, 31.09078
193.2460, 31.03497
193.7282, 31.26499
194.2103, 31.50942
194.6924, 31.49210
195.1745, 31.18193
195.6566, 30.91051
196.1387, 30.73738
196.6209, 30.63162
197.1030, 30.60464
197.5851, 30.65265
198.0672, 30.72215
198.5493, 30.75185
199.0314, 30.74188
199.5136, 30.68832
199.9957, 30.53154
200.4778, 30.37439
200.9599, 30.26953
201.4420, 30.23364
201.9241, 30.26624
202.4063, 30.39330
202.8884, 30.76364
203.3705, 30.92364
203.8526, 30.66631
204.3347, 30.34619
204.8168, 30.24483
205.2990, 30.44049
205.7811, 30.79522
206.2632, 31.05779
206.7453, 31.19252
207.2274, 31.26656
207.7095, 31.28580
208.1917, 31.24710
208.6738, 31.12292
209.1559, 30.90743
209.6380, 30.65755
210.1201, 30.48760
210.6022, 30.42454
211.0844, 30.41170
211.5665, 30.49510
212.0486, 30.61138
212.5307, 30.66969
213.0128, 30.63441
213.4949, 30.57355
213.9771, 30.64215
214.4592, 30.91540
214.9413, 31.13942
215.4234, 31.24613
215.9055, 31.28125
216.3876, 31.30832
216.8698, 31.34402
217.3519, 31.39547
217.8340, 31.50286
218.3161, 31.70373
218.7982, 31.81570
219.2803, 31.69993
219.7625, 31.45227
220.2446, 31.29483
220.7267, 31.31291
221.2088, 31.41913
221.6909, 31.49225
222.1730, 31.53489
222.6552, 31.54801
223.1373, 31.43617
223.6194, 31.27305
224.1015, 31.34843
224.5836, 31.84035
225.0657, 32.47375
225.5479, 32.97817
226.0300, 33.35892
226.5121, 33.56712
226.9942, 33.44410
227.4763, 33.05566
227.9584, 32.87334
228.4406, 33.11698
228.9227, 33.48005
229.4048, 33.69526
229.8869, 33.76664
230.3690, 33.84712
230.8511, 34.06061
231.3333, 34.40430
231.8154, 34.76416
232.2975, 35.11571
232.7796, 35.49293
233.2617, 35.93138
233.7438, 36.42226
234.2259, 36.91117
234.7081, 37.32249
235.1902, 37.64479
235.6723, 38.06385
236.1544, 38.74836
236.6365, 39.40552
237.1186, 39.85692
237.6008, 40.13543
238.0829, 40.41360
238.5650, 40.86232
239.0471, 41.50541
239.5292, 42.14070
240.0113, 42.79073
240.4935, 43.41240
240.9756, 43.96478
241.4577, 44.46790
241.9398, 44.97694
242.4219, 45.52522
242.9040, 46.09113
243.3862, 46.85015
243.8683, 48.01427
244.3504, 49.17590
244.8325, 50.15741
245.3146, 50.98860
245.7967, 51.80483
246.2789, 52.70810
246.7610, 53.69652
247.2431, 54.83833
247.7252, 56.27829
248.2073, 57.72558
248.6894, 59.01937
249.1716, 60.21743
249.6537, 61.46782
250.1358, 62.89333
250.6179, 64.50170
251.1000, 66.22443
251.5821, 68.15942
252.0643, 70.10159
252.5464, 71.92119
253.0285, 73.68061
253.5106, 75.53460
253.9927, 77.61876
254.4748, 79.92307
254.9570, 82.24155
255.4391, 84.51216
255.9212, 86.86030
256.4033, 89.40565
256.8854, 92.06770
257.3675, 94.64146
257.8496, 96.95570
258.3318, 99.05473
258.8139, 101.5699
259.2960, 104.8783
259.7781, 108.0956
260.2602, 110.8627
260.7423, 113.3131
261.2245, 115.7994
261.7066, 118.5133
262.1887, 121.4134
262.6708, 124.2570
263.1529, 126.9392
263.6350, 129.7098
264.1172, 132.7712
264.5993, 135.9832
265.0814, 139.0597
265.5635, 141.8398
266.0456, 144.4248
266.5277, 147.1243
267.0099, 150.0455
267.4920, 152.9035
267.9741, 155.5769
268.4562, 158.1265
268.9383, 160.6975
269.4204, 163.3738
269.9026, 166.0215
270.3847, 168.2965
270.8668, 170.0884
271.3489, 171.9222
271.8310, 174.2102
272.3131, 176.6086
272.7953, 178.3849
273.2774, 179.1966
273.7595, 179.6212
274.2416, 180.7143
274.7237, 182.5848
275.2058, 184.0873
275.6880, 184.7207
276.1701, 184.7996
276.6522, 184.9245
277.1343, 185.3019
277.6164, 185.5158
278.0985, 184.8822
278.5807, 183.5050
279.0628, 182.0586
279.5449, 180.7924
280.0270, 179.5549
280.5091, 178.1224
280.9912, 176.4748
281.4734, 174.5962
281.9555, 172.4790
282.4376, 170.1245
282.9197, 167.4263
283.4018, 164.1699
283.8839, 160.6322
284.3661, 157.1564
284.8482, 153.7719
285.3303, 150.4322
285.8124, 147.1481
286.2945, 143.8967
286.7766, 140.6243
287.2588, 137.3979
287.7409, 134.1133
288.2230, 130.6100
288.7051, 126.8757
289.1872, 123.2076
289.6693, 119.8468
290.1515, 116.6644
290.6336, 113.5143
291.1157, 110.4139
291.5978, 107.2658
292.0799, 103.9146
292.5620, 100.3513
293.0442, 96.87174
293.5263, 93.62302
294.0084, 90.54800
294.4905, 87.58237
294.9726, 84.74759
295.4547, 81.91835
295.9369, 78.88672
296.4190, 75.68877
296.9011, 72.82307
297.3832, 70.57548
297.8653, 68.66039
298.3474, 66.76302
298.8296, 64.89162
299.3117, 62.92894
299.7938, 60.66716
300.2759, 58.19588
300.7580, 56.02907
301.2401, 54.32749
301.7223, 52.90693
302.2044, 51.64763
302.6865, 50.52248
303.1686, 49.33519
303.6507, 47.81958
304.1328, 46.13656
304.6150, 44.85643
305.0971, 44.18242
305.5792, 43.63446
306.0613, 42.85598
306.5434, 41.91185
307.0255, 40.97540
307.5077, 40.13688
307.9898, 39.35196
308.4719, 38.50284
308.9540, 37.54181
309.4361, 36.66519
309.9182, 36.05584
310.4003, 35.60363
310.8824, 35.15300
311.3646, 34.65599
311.8467, 34.14022
312.3288, 33.64437
312.8109, 33.16604
313.2930, 32.71466
313.7751, 32.28988
314.2573, 31.90141
314.7394, 31.57053
315.2215, 31.31528
315.7036, 31.08355
316.1857, 30.81009
316.6678, 30.49597
317.1500, 30.25047
317.6321, 30.22310
318.1142, 30.18045
318.5963, 29.82725
319.0784, 29.11984
319.5605, 28.47679
320.0427, 28.27303
320.5248, 28.42881
321.0069, 28.46384
321.4890, 28.22851
321.9711, 27.93296
322.4532, 27.77941
322.9354, 27.74474
323.4175, 27.68855
323.8996, 27.53576
324.3817, 27.30719
324.8638, 27.05090
325.3459, 26.75563
325.8281, 26.46730
326.3102, 26.21624
326.7923, 25.99830
327.2744, 25.80802
327.7565, 25.60069
328.2386, 25.44231
328.7208, 25.49637
329.2029, 25.81623
329.6850, 26.03868
330.1671, 25.86835
330.6492, 25.49931
331.1313, 25.21719
331.6135, 25.12409
332.0956, 25.04362
332.5777, 24.74269
333.0598, 24.23466
333.5419, 23.88472
334.0240, 23.93839
334.5062, 24.14060
334.9883, 24.13561
335.4704, 23.88487
335.9525, 23.59279
336.4346, 23.39215
336.9167, 23.25829
337.3989, 23.07972
337.8810, 22.77617
338.3631, 22.51929
338.8452, 22.58846
339.3273, 22.94390
339.8094, 23.11058
340.2916, 22.73281
340.7737, 22.09107
341.2558, 21.67276
341.7379, 21.54829
342.2200, 21.55417
342.7021, 21.63085
343.1843, 21.74158
343.6664, 21.76412
344.1485, 21.65081
344.6306, 21.45519
345.1127, 21.18978
345.5948, 20.85828
346.0770, 20.58579
346.5591, 20.46701
347.0412, 20.45013
347.5233, 20.38020
348.0054, 20.21782
348.4875, 20.06293
348.9697, 20.01108
349.4518, 20.02244
349.9339, 19.94092
350.4160, 19.66611
350.8981, 19.34637
351.3802, 19.26272
351.8624, 19.45098
352.3445, 19.60748
352.8266, 19.64714
353.3087, 19.59414
353.7908, 19.45009
354.2729, 19.20328
354.7551, 18.97877
355.2372, 18.92670
355.7193, 19.05262
356.2014, 19.16825
356.6835, 19.31886
357.1656, 19.40918
357.6478, 19.30643
358.1299, 19.03058
358.6120, 18.78984
359.0941, 18.73634
359.5762, 18.84606
360.0583, 18.92124
360.5405, 18.97803
361.0226, 18.98871
361.5047, 18.94882
361.9868, 18.85453
362.4689, 18.66023
362.9510, 18.32198
363.4332, 17.95725
363.9153, 17.88218
364.3974, 18.33453
364.8795, 18.59168
365.3616, 18.38132
365.8438, 18.01640
366.3259, 17.86371
366.8080, 17.99743
367.2901, 18.19343
367.7722, 18.16843
368.2543, 17.83338
368.7365, 17.66196
369.2186, 17.77127
369.7007, 17.92974
370.1828, 18.05104
370.6649, 18.10779
371.1470, 18.04691
371.6291, 17.80549
372.1112, 17.41191
372.5934, 17.22176
373.0755, 17.46923
373.5576, 17.63622
374.0397, 17.54522
374.5218, 17.32563
375.0039, 17.16430
375.4861, 17.14065
375.9682, 17.19930
376.4503, 17.22351
376.9324, 17.23109
377.4145, 17.16617
377.8966, 16.94914
378.3788, 16.72248
378.8609, 16.56712
379.3430, 16.50644
379.8251, 16.54851
380.3072, 16.73501
380.7893, 17.11340
381.2715, 17.29367
381.7536, 17.06909
382.2357, 16.85193
382.7178, 16.79677
383.1999, 16.85128
383.6820, 16.89077
384.1642, 16.83714
384.6463, 16.71430
385.1284, 16.60769
385.6105, 16.46661
386.0926, 16.43648
386.5747, 16.65305
387.0569, 16.91768
387.5390, 17.02961
388.0211, 16.93316
388.5032, 16.75022
388.9853, 16.64789
389.4674, 16.64504
389.9496, 16.61870
390.4317, 16.48207
390.9138, 16.38391
391.3959, 16.45452
391.8780, 16.64923
392.3601, 16.78761
392.8423, 16.70684
393.3244, 16.45525
393.8065, 16.26958
394.2886, 16.17365
394.7707, 16.10040
395.2528, 16.04089
395.7350, 15.97594
396.2171, 15.86132
396.6992, 15.64658
397.1813, 15.45437
397.6634, 15.45178
398.1455, 15.64525
398.6277, 15.88648
399.1098, 16.21029
399.5919, 16.48739
400.0740, 16.58858
400.5561, 16.50718
401.0382, 16.33046
401.5204, 16.00644
402.0025, 15.62856
402.4846, 15.46089
402.9667, 15.58214
403.4488, 15.76375
403.9309, 15.80157
404.4131, 15.73312
404.8952, 15.68668
405.3773, 15.68486
405.8594, 15.71408
406.3415, 15.78491
406.8236, 15.88780
407.3058, 15.96260
407.7879, 15.98843
408.2700, 15.95643
408.7521, 15.82030
409.2342, 15.46733
409.7163, 15.26520
410.1985, 15.47162
410.6806, 15.85002
411.1627, 16.04181
411.6448, 15.96013
412.1269, 15.78785
412.6090, 15.74990
413.0912, 15.89384
413.5733, 15.90389
414.0554, 15.61232
414.5375, 15.34193
415.0196, 15.32153
415.5017, 15.49385
415.9839, 15.64772
416.4660, 15.64925
416.9481, 15.52997
417.4302, 15.44021
417.9123, 15.36151
418.3944, 15.33798
418.8766, 15.42439
419.3587, 15.54235
419.8408, 15.62197
420.3229, 15.64110
420.8050, 15.60702
421.2871, 15.51511
421.7693, 15.32667
422.2514, 15.22624
422.7335, 15.32028
423.2156, 15.39407
423.6977, 15.32550
424.1798, 15.16385
424.6620, 15.03980
425.1441, 15.04536
425.6262, 15.14141
426.1083, 15.17129
426.5904, 15.07477
427.0725, 15.02923
427.5547, 15.10515
428.0368, 15.22609
428.5189, 15.34211
429.0010, 15.43912
429.4831, 15.49031
429.9652, 15.42953
430.4474, 15.25659
430.9295, 15.18658
431.4116, 15.35227
431.8937, 15.47639
432.3758, 15.31558
432.8579, 14.97381
433.3400, 14.74678
433.8221, 14.83789
434.3043, 15.07205
434.7864, 15.15837
435.2685, 15.08305
435.7506, 15.02086
436.2327, 15.05749
436.7148, 15.14974
437.1970, 15.22589
437.6791, 15.28283
438.1612, 15.32935
438.6433, 15.39314
439.1254, 15.44671
439.6075, 15.41219
440.0897, 15.26190
440.5718, 15.10307
441.0539, 15.06393
441.5360, 15.14438
442.0181, 15.14616
442.5002, 14.95345
442.9824, 14.77360
443.4645, 14.76794
443.9466, 14.89306
444.4287, 14.99731
444.9108, 14.99988
445.3929, 14.94458
445.8751, 14.95205
446.3572, 15.11163
446.8393, 15.19748
447.3214, 15.14319
447.8035, 15.04641
448.2856, 14.98604
448.7678, 14.97526
449.2499, 14.98496
449.7320, 14.98278
450.2141, 14.96547
450.6962, 15.00369
451.1783, 15.17418
451.6605, 15.31804
452.1426, 15.42404
452.6247, 15.47185
453.1068, 15.41228
453.5889, 15.22341
454.0710, 14.99501
454.5532, 14.90379
455.0353, 14.99504
455.5174, 15.06360
455.9995, 15.07366
456.4816, 15.06398
456.9637, 15.03714
457.4459, 15.00324
457.9280, 14.99367
458.4101, 15.06691
458.8922, 15.17319
459.3743, 15.12559
459.8564, 14.85994
460.3386, 14.64739
460.8207, 14.62514
461.3028, 14.72688
461.7849, 14.93370
462.2670, 15.30246
462.7491, 15.54434
463.2313, 15.28871
463.7134, 14.72749
464.1955, 14.50471
464.6776, 14.82863
465.1597, 15.25418
465.6418, 15.30470
466.1240, 15.01864
466.6061, 14.80585
467.0882, 14.75836
467.5703, 14.75973
468.0524, 14.69729
468.5345, 14.60791
469.0167, 14.63711
469.4988, 14.87199
469.9809, 15.21692
470.4630, 15.45469
470.9451, 15.58271
471.4272, 15.59601
471.9094, 15.38862
472.3915, 15.14054
472.8736, 14.98087
473.3557, 14.92599
473.8378, 14.94748
474.3199, 15.03587
474.8021, 15.18150
475.2842, 15.22477
475.7663, 14.98738
476.2484, 14.86928
476.7305, 15.06357
477.2126, 15.34283
477.6948, 15.44911
478.1769, 15.31148
478.6590, 15.08370
479.1411, 14.94852
479.6232, 14.91015
480.1053, 14.91312
480.5875, 14.96889
481.0696, 15.05263
481.5517, 15.21504
482.0338, 15.38945
482.5159, 15.42392
482.9980, 15.18740
483.4802, 14.87439
483.9623, 14.77702
484.4444, 14.89589
484.9265, 15.00707
485.4086, 15.04199
485.8907, 15.03330
486.3729, 15.01721
486.8550, 14.99270
487.3371, 14.98300
487.8192, 14.99944
488.3013, 15.03303
488.7834, 15.07891
489.2656, 15.13509
489.7477, 15.18447
490.2298, 15.21159
490.7119, 15.22524
491.1940, 15.26930
491.6761, 15.38974
492.1583, 15.47427
492.6404, 15.49119
493.1225, 15.46764
493.6046, 15.43294
494.0867, 15.39316
494.5688, 15.33125
495.0509, 15.21525
495.5331, 15.03232
496.0152, 14.97136
496.4973, 15.14459
496.9794, 15.32036
497.4615, 15.48239
497.9436, 15.60161
498.4258, 15.63097
498.9079, 15.55315
499.3900, 15.43006
499.8721, 15.33815
500.3542, 15.27295
500.8363, 15.28395
501.3185, 15.48681
501.8006, 15.64244
502.2827, 15.54447
502.7648, 15.29356
503.2469, 15.16104
503.7290, 15.33333
504.2112, 15.61392
504.6933, 15.73339
505.1754, 15.69599
505.6575, 15.61551
506.1396, 15.48067
506.6217, 15.38366
507.1039, 15.51556
507.5860, 15.90429
508.0681, 16.14669
508.5502, 16.01902
509.0323, 15.77193
509.5144, 15.65600
509.9966, 15.67364
510.4787, 15.70625
510.9608, 15.67923
511.4429, 15.61097
511.9250, 15.57645
512.4072, 15.58461
512.8893, 15.61521
513.3714, 15.71766
513.8535, 15.80893
514.3356, 15.76197
514.8177, 15.60056
515.2999, 15.52125
515.7820, 15.74254
516.2641, 16.22572
516.7462, 16.44203
517.2283, 16.20019
517.7104, 15.96558
518.1926, 15.82827
518.6747, 15.76455
519.1568, 15.76963
519.6389, 15.83988
520.1210, 15.91493
520.6031, 15.95312
521.0853, 15.95070
521.5674, 15.85434
522.0495, 15.59345
522.5316, 15.39715
523.0137, 15.50308
523.4958, 15.77516
523.9780, 15.94975
524.4601, 15.93625
524.9421, 15.90134
525.4243, 15.96719
525.9064, 16.09240
526.3885, 16.18792
526.8706, 16.23295
527.3527, 16.22288
527.8348, 16.14040
528.3170, 15.97253
528.7991, 15.84852
529.2812, 15.74756
529.7633, 15.70835
530.2454, 15.81415
530.7275, 15.97619
531.2097, 16.02467
531.6918, 15.89708
532.1739, 15.72657
532.6560, 15.75469
533.1381, 16.08077
533.6202, 16.26377
534.1024, 16.19014
534.5845, 16.07726
535.0666, 15.95603
535.5487, 15.85999
536.0308, 15.84939
536.5129, 15.97062
536.9951, 16.13273
537.4772, 16.19984
537.9593, 16.17031
538.4414, 16.11408
538.9235, 16.01919
539.4056, 15.93901
539.8878, 15.93812
540.3699, 16.00142
540.8520, 16.04512
541.3341, 16.02163
541.8162, 15.98884
542.2983, 16.01608
542.7805, 16.08221
543.2626, 16.08207
543.7447, 15.95447
544.2268, 15.81665
544.7089, 15.89027
545.1910, 16.33697
545.6732, 16.56007
546.1553, 16.37560
546.6374, 16.14305
547.1195, 16.07848
547.6016, 16.13202
548.0837, 16.14645
548.5659, 16.03469
549.0480, 15.85319
549.5301, 15.71888
550.0122, 15.62073
550.4943, 15.60417
550.9764, 15.75556
551.4586, 15.92310
551.9407, 16.03495
552.4228, 16.09900
552.9049, 16.15479
553.3870, 16.22624
553.8691, 16.29578
554.3513, 16.34892
554.8334, 16.38481
555.3155, 16.34588
555.7976, 16.16332
556.2797, 15.96675
556.7618, 15.96382
557.2440, 16.14998
557.7261, 16.28530
558.2082, 16.34542
558.6903, 16.32110
559.1724, 16.12929
559.6545, 15.84126
560.1367, 15.67646
560.6188, 15.74752
561.1009, 15.92860
561.5830, 15.95525
562.0651, 15.72132
562.5472, 15.57102
563.0294, 15.50383
563.5115, 15.50706
563.9936, 15.65344
564.4757, 15.85837
564.9578, 15.93700
565.4399, 15.77576
565.9221, 15.51605
566.4042, 15.41701
566.8863, 15.49410
567.3684, 15.61540
567.8505, 15.80975
568.3326, 15.98009
568.8148, 16.06135
569.2969, 16.06207
569.7790, 16.01234
570.2611, 15.87306
570.7432, 15.73116
571.2253, 15.67845
571.7075, 15.69186
572.1896, 15.68651
572.6717, 15.63140
573.1538, 15.56391
573.6359, 15.53895
574.1180, 15.57421
574.6002, 15.55945
575.0823, 15.43629
575.5644, 15.32839
576.0465, 15.28649
576.5286, 15.29669
577.0107, 15.34615
577.4929, 15.42717
577.9750, 15.49965
578.4571, 15.50420
578.9392, 15.43624
579.4213, 15.32438
579.9034, 15.07742
580.3856, 14.90868
580.8677, 14.99838
581.3498, 15.19641
581.8319, 15.23417
582.3140, 14.98027
582.7961, 14.73774
583.2783, 14.83360
583.7604, 15.16186
584.2425, 15.39704
584.7246, 15.48358
585.2067, 15.46755
585.6888, 15.36604
586.1710, 15.18742
586.6531, 15.01675
587.1352, 14.80110
587.6173, 14.65871
588.0994, 14.67265
588.5815, 14.75143
589.0637, 14.77497
589.5458, 14.73118
590.0279, 14.72104
590.5100, 14.86158
590.9921, 15.12843
591.4742, 15.22444
591.9564, 15.05087
592.4385, 14.86906
592.9206, 14.69716
593.4027, 14.57053
593.8848, 14.53309
594.3669, 14.58458
594.8491, 14.66642
595.3312, 14.78435
595.8133, 14.89147
596.2954, 14.85834
596.7775, 14.67818
597.2596, 14.53378
597.7418, 14.50967
598.2239, 14.57240
598.7060, 14.67345
599.1881, 14.83329
599.6702, 14.94592
600.1523, 14.96079
600.6345, 14.95203
601.1166, 14.99720
601.5987, 15.06691
602.0808, 15.05658
602.5629, 14.90640
603.0450, 14.69901
603.5272, 14.62217
604.0093, 14.74063
604.4914, 14.79248
604.9735, 14.68506
605.4556, 14.58689
605.9377, 14.56884
606.4199, 14.61418
606.9020, 14.68897
607.3841, 14.79380
607.8662, 14.88833
608.3483, 14.95677
