##NAMES=Ankinovichite
##RRUFFID=R060671
##IDEAL CHEMISTRY=Ni^2+^Al_4_(V^5+^O_3_)_2_(OH)_12_&#183;2H_2_O
##LOCALITY=Kara-Chagyr Mountain, Fergana, Fergana Valley, Osh Oblast, Kyrgyzstan
##OWNER=RRUFF
##SOURCE=Michael Scott
##DESCRIPTION=Aggregates of pale green thin pseudohexagonal plates
##STATUS=The identification of this mineral has been confirmed only by single crystal X-ray diffraction.
##URL=rruff.info/R060671
134.540, 16703.080
135.022, 17141.039
135.504, 17610.699
135.986, 18068.670
136.469, 18509.779
136.951, 18960.529
137.433, 19437.689
137.915, 19939.561
138.397, 20447.199
138.879, 20969.930
139.361, 21493.980
139.843, 21979.119
140.326, 22420.980
140.808, 22844.869
141.290, 23276.801
141.772, 23724.420
142.254, 24149.449
142.736, 24546.480
143.218, 24918.311
143.700, 25257.539
144.182, 25579.131
144.665, 25851.570
145.147, 26044.490
145.629, 26169.529
146.111, 26196.170
146.593, 26116.080
147.075, 25923.301
147.557, 25644.721
148.039, 25283.230
148.521, 24836.039
149.004, 24289.289
149.486, 23523.680
149.968, 22785.449
150.450, 22127.570
150.932, 21566.090
151.414, 21063.650
151.896, 20612.580
152.378, 20222.090
152.861, 19911.330
153.343, 19707.330
153.825, 19561.279
154.307, 19455.400
154.789, 19396.609
155.271, 19366.160
155.753, 19363.391
156.235, 19388.240
156.717, 19438.570
157.200, 19527.980
157.682, 19634.859
158.164, 19745.789
158.646, 19872.740
159.128, 19987.369
159.610, 20076.369
160.092, 20140.801
160.574, 20202.250
161.057, 20273.699
161.539, 20341.289
162.021, 20392.109
162.503, 20405.539
162.985, 20412.971
163.467, 20437.260
163.949, 20480.779
164.431, 20498.689
164.913, 20446.211
165.396, 20359.910
165.878, 20289.859
166.360, 20284.650
166.842, 20285.480
167.324, 20249.811
167.806, 20168.770
168.288, 20079.199
168.770, 20006.510
169.253, 19943.051
169.735, 19871.920
170.217, 19768.000
170.699, 19661.430
171.181, 19585.920
171.663, 19556.750
172.145, 19534.711
172.627, 19477.859
173.109, 19397.381
173.592, 19329.650
174.074, 19299.811
174.556, 19295.449
175.038, 19300.971
175.520, 19317.650
176.002, 19335.730
176.484, 19346.240
176.966, 19348.850
177.449, 19342.420
177.931, 19315.980
178.413, 19280.090
178.895, 19256.869
179.377, 19259.561
179.859, 19273.189
180.341, 19274.279
180.823, 19262.859
181.305, 19248.279
181.788, 19237.141
182.270, 19229.279
182.752, 19223.961
183.234, 19222.480
183.716, 19222.859
184.198, 19221.850
184.680, 19219.631
185.162, 19213.090
185.645, 19199.311
186.127, 19178.311
186.609, 19149.869
187.091, 19106.939
187.573, 19054.859
188.055, 19020.070
188.537, 19006.381
189.019, 18995.631
189.501, 18957.641
189.984, 18893.619
190.466, 18834.500
190.948, 18806.070
191.430, 18801.471
191.912, 18769.260
192.394, 18702.430
192.876, 18617.279
193.358, 18540.670
193.840, 18473.340
194.323, 18408.211
194.805, 18335.461
195.287, 18256.359
195.769, 18204.340
196.251, 18188.359
196.733, 18193.980
197.215, 18182.391
197.697, 18149.930
198.180, 18125.301
198.662, 18129.891
199.144, 18165.221
199.626, 18205.160
200.108, 18246.189
200.590, 18290.131
201.072, 18338.920
201.554, 18389.881
202.036, 18455.500
202.519, 18547.920
203.001, 18669.330
203.483, 18796.840
203.965, 18922.420
204.447, 19050.510
204.929, 19204.119
205.411, 19385.211
205.893, 19586.641
206.376, 19804.990
206.858, 20042.619
207.340, 20282.170
207.822, 20511.561
208.304, 20734.500
208.786, 21008.100
209.268, 21339.340
209.750, 21704.289
210.232, 22077.350
210.714, 22450.320
211.197, 22849.600
211.679, 23278.680
212.161, 23738.000
212.643, 24247.150
213.125, 24817.471
213.607, 25417.301
214.089, 26013.650
214.572, 26600.381
215.054, 27203.750
215.536, 27828.340
216.018, 28479.369
216.500, 29131.619
216.982, 29794.471
217.464, 30438.670
217.946, 31029.881
218.428, 31550.270
218.911, 32040.199
219.393, 32515.070
219.875, 32975.250
220.357, 33396.301
220.839, 33795.398
221.321, 34141.828
221.803, 34402.711
222.285, 34583.270
222.767, 34665.980
223.250, 34640.859
223.732, 34498.672
224.214, 34281.191
224.696, 33965.051
225.178, 33587.711
225.660, 33205.180
226.142, 32823.551
226.624, 32431.580
227.107, 32012.730
227.589, 31506.359
228.071, 31130.760
228.553, 30919.670
229.035, 30824.400
229.517, 30726.811
229.999, 30607.039
230.481, 30511.260
230.963, 30455.990
231.445, 30433.410
231.928, 30468.891
232.410, 30570.551
232.892, 30729.869
233.374, 30918.240
233.856, 31145.170
234.338, 31388.289
234.820, 31640.211
235.303, 31898.150
235.785, 32169.000
236.267, 32454.430
236.749, 32754.439
237.231, 33064.789
237.713, 33407.398
238.195, 33726.352
238.677, 33992.309
239.159, 34193.289
239.641, 34364.891
240.124, 34495.551
240.606, 34598.211
241.088, 34739.941
241.570, 34995.109
242.052, 35188.719
242.534, 35216.359
243.016, 35008.020
243.498, 34778.320
243.981, 34545.461
244.463, 34299.500
244.945, 33995.141
245.427, 33609.551
245.909, 33191.410
246.391, 32767.369
246.873, 32355.500
247.355, 31893.221
247.837, 31352.189
248.320, 30752.350
248.802, 30198.230
249.284, 29717.539
249.766, 29254.150
250.248, 28768.359
250.730, 28237.551
251.212, 27739.619
251.694, 27290.689
252.176, 26885.330
252.659, 26467.369
253.141, 26020.391
253.623, 25585.750
254.105, 25188.740
254.587, 24855.980
255.069, 24508.439
255.551, 24135.891
256.033, 23744.449
256.516, 23345.830
256.998, 22930.990
257.480, 22518.619
257.962, 22118.240
258.444, 21718.641
258.926, 21348.391
259.408, 21007.439
259.890, 20693.789
260.372, 20407.789
260.855, 20144.820
261.337, 19910.721
261.819, 19713.381
262.301, 19562.000
262.783, 19413.900
263.265, 19260.051
263.747, 19105.439
264.229, 18968.689
264.711, 18854.770
265.194, 18751.590
265.676, 18651.551
266.158, 18554.529
266.640, 18467.020
267.122, 18394.211
267.604, 18331.811
268.086, 18261.100
268.569, 18175.840
269.051, 18095.410
269.533, 18034.240
270.015, 17996.100
270.497, 17962.730
270.979, 17935.240
271.461, 17910.689
271.943, 17874.529
272.425, 17821.119
272.908, 17772.920
273.390, 17745.820
273.872, 17741.510
274.354, 17752.189
274.836, 17786.131
275.318, 17830.340
275.800, 17834.891
276.282, 17789.090
276.764, 17741.590
277.247, 17732.551
277.729, 17768.000
278.211, 17777.891
278.693, 17748.949
279.175, 17693.619
279.657, 17644.020
280.139, 17599.471
280.621, 17562.949
281.103, 17536.650
281.586, 17520.461
282.068, 17512.141
282.550, 17512.750
283.032, 17519.461
283.514, 17524.301
283.996, 17526.561
284.478, 17534.609
284.960, 17554.320
285.443, 17585.650
285.925, 17623.980
286.407, 17670.670
286.889, 17721.359
287.371, 17765.650
287.853, 17803.510
288.335, 17844.350
288.817, 17886.820
289.299, 17934.289
289.782, 18010.721
290.264, 18121.090
290.746, 18250.900
291.228, 18381.930
291.710, 18513.391
292.192, 18635.840
292.674, 18739.369
293.156, 18828.170
293.638, 18909.160
294.121, 18975.949
294.603, 19054.730
295.085, 19195.631
295.567, 19389.680
296.049, 19581.580
296.531, 19741.039
297.013, 19875.840
297.496, 19994.811
297.978, 20091.619
298.460, 20197.670
298.942, 20354.779
299.424, 20552.820
299.906, 20754.439
300.388, 20938.330
300.870, 21112.949
301.352, 21281.490
301.835, 21440.279
302.317, 21614.699
302.799, 21871.881
303.281, 22166.820
303.763, 22398.801
304.245, 22473.311
304.727, 22476.990
305.209, 22499.910
305.691, 22545.211
306.174, 22617.609
306.656, 22738.230
307.138, 22888.141
307.620, 23033.980
308.102, 23142.240
308.584, 23255.400
309.066, 23415.789
309.548, 23627.211
310.030, 23849.850
310.513, 24068.689
310.995, 24283.980
311.477, 24492.461
311.959, 24660.490
312.441, 24847.391
312.923, 25100.449
313.405, 25417.680
313.887, 25733.150
314.370, 26028.760
314.852, 26305.551
315.334, 26565.910
315.816, 26790.410
316.298, 27016.510
316.780, 27284.869
317.262, 27582.990
317.744, 27832.070
318.226, 28009.641
318.709, 28120.029
319.191, 28164.949
319.673, 28112.510
320.155, 28031.480
320.637, 27949.801
321.119, 27858.100
321.601, 27715.820
322.083, 27473.590
322.565, 27205.199
323.048, 26951.199
323.530, 26730.480
324.012, 26504.770
324.494, 26241.770
324.976, 25965.631
325.458, 25747.570
325.940, 25637.221
326.422, 25553.020
326.905, 25458.650
327.387, 25321.551
327.869, 25226.990
328.351, 25192.109
328.833, 25198.961
329.315, 25211.820
329.797, 25204.721
330.279, 25231.850
330.762, 25316.260
331.244, 25482.520
331.726, 25634.900
332.208, 25762.141
332.690, 25882.900
333.172, 26024.811
333.654, 26187.920
334.136, 26371.279
334.618, 26582.939
335.100, 26826.070
335.583, 27053.779
336.065, 27260.830
336.547, 27459.061
337.029, 27661.680
337.511, 27865.301
337.993, 28087.400
338.475, 28345.609
338.957, 28631.381
339.440, 28857.400
339.922, 29010.619
340.404, 29134.301
340.886, 29278.131
341.368, 29447.039
341.850, 29578.289
342.332, 29659.500
342.814, 29693.260
343.297, 29681.779
343.779, 29624.840
344.261, 29529.250
344.743, 29396.141
345.225, 29227.480
345.707, 29031.131
346.189, 28800.029
346.671, 28552.340
347.153, 28309.211
347.635, 28071.350
348.118, 27836.561
348.600, 27580.721
349.082, 27322.971
349.564, 27122.020
350.046, 26986.740
350.528, 26890.631
351.010, 26789.480
351.492, 26693.080
351.975, 26637.779
352.457, 26664.340
352.939, 26736.910
353.421, 26800.881
353.903, 26850.170
354.385, 26913.350
354.867, 27004.391
355.349, 27128.561
355.832, 27295.471
356.314, 27550.381
356.796, 27824.359
357.278, 28052.061
357.760, 28233.980
358.242, 28416.510
358.724, 28621.939
359.206, 28847.320
359.688, 29089.270
360.171, 29360.490
360.653, 29635.189
361.135, 29913.029
361.617, 30190.330
362.099, 30435.500
362.581, 30631.109
363.063, 30795.400
363.545, 30942.080
364.027, 31098.461
364.510, 31203.631
364.992, 31244.189
365.474, 31222.939
365.956, 31147.920
366.438, 30993.070
366.920, 30808.391
367.402, 30616.961
367.884, 30441.580
368.366, 30218.811
368.849, 29920.859
369.331, 29577.900
369.813, 29243.369
370.295, 28928.971
370.777, 28610.350
371.259, 28274.020
371.741, 27913.900
372.224, 27584.689
372.706, 27293.189
373.188, 27024.641
373.670, 26766.240
374.152, 26520.420
374.634, 26278.539
375.116, 26043.400
375.598, 25812.520
376.080, 25563.730
376.562, 25282.779
377.045, 25021.961
377.527, 24858.641
378.009, 24812.131
378.491, 24659.580
378.973, 24333.539
379.455, 23911.711
379.937, 23627.580
380.419, 23489.859
380.902, 23356.971
381.384, 23123.109
381.866, 22808.051
382.348, 22522.131
382.830, 22278.650
383.312, 22058.840
383.794, 21839.061
384.276, 21622.721
384.759, 21421.539
385.241, 21247.939
385.723, 21091.711
386.205, 20937.820
386.687, 20784.289
387.169, 20644.029
387.651, 20547.141
388.133, 20471.270
388.615, 20374.449
389.098, 20208.150
389.580, 20037.301
390.062, 19926.230
390.544, 19866.961
391.026, 19813.270
391.508, 19742.789
391.990, 19663.910
392.472, 19583.471
392.954, 19504.119
393.437, 19424.840
393.919, 19340.750
394.401, 19257.340
394.883, 19184.820
395.365, 19124.570
395.847, 19078.990
396.329, 19050.250
396.811, 19041.619
397.293, 19041.539
397.776, 19055.461
398.258, 19074.609
398.740, 19086.289
399.222, 19095.920
399.704, 19090.160
400.186, 19056.529
400.668, 18989.000
401.151, 18951.619
401.633, 18961.221
402.115, 18986.391
402.597, 19000.840
403.079, 19000.211
403.561, 18999.119
404.043, 18999.080
404.525, 19000.369
405.007, 19005.180
405.490, 19016.461
405.972, 19024.051
406.454, 19018.670
406.936, 18998.711
407.418, 18988.350
407.900, 18992.000
408.382, 19000.650
408.864, 18998.369
409.346, 18985.051
409.828, 18967.789
410.311, 18943.801
410.793, 18918.090
411.275, 18914.600
411.757, 18936.320
412.239, 18955.109
412.721, 18937.529
413.203, 18893.580
413.685, 18850.900
414.168, 18813.369
414.650, 18785.920
415.132, 18775.070
415.614, 18780.109
416.096, 18798.000
416.578, 18858.721
417.060, 18917.260
417.542, 18916.039
418.025, 18815.020
418.507, 18714.510
418.989, 18678.289
419.471, 18683.529
419.953, 18682.551
420.435, 18654.471
420.917, 18618.260
421.399, 18580.359
421.881, 18539.760
422.364, 18510.131
422.846, 18500.561
423.328, 18501.410
423.810, 18503.260
424.292, 18511.240
424.774, 18513.920
425.256, 18509.949
425.738, 18499.430
426.220, 18482.340
426.703, 18448.689
427.185, 18419.160
427.667, 18406.039
428.149, 18414.699
428.631, 18426.660
429.113, 18445.170
429.595, 18463.590
430.077, 18463.551
430.560, 18437.990
431.042, 18420.869
431.524, 18428.461
432.006, 18459.730
432.488, 18490.881
432.970, 18522.881
433.452, 18551.061
433.934, 18573.199
434.417, 18588.350
434.899, 18589.770
435.381, 18570.869
435.863, 18542.080
436.345, 18518.850
436.827, 18501.801
437.309, 18495.270
437.791, 18504.029
438.273, 18524.789
438.755, 18554.961
439.238, 18597.000
439.720, 18638.061
440.202, 18665.641
440.684, 18684.350
441.166, 18703.561
441.648, 18723.619
442.130, 18747.730
442.612, 18784.689
443.095, 18835.561
443.577, 18868.230
444.059, 18848.320
444.541, 18817.131
445.023, 18809.320
445.505, 18856.330
445.987, 18900.131
446.469, 18925.199
446.952, 18938.160
447.434, 18965.141
447.916, 19007.920
448.398, 19064.311
448.880, 19136.811
449.362, 19238.359
449.844, 19319.721
450.326, 19378.391
450.808, 19419.109
451.290, 19442.189
451.773, 19437.840
452.255, 19448.090
452.737, 19482.650
453.219, 19540.270
453.701, 19616.699
454.183, 19711.430
454.665, 19824.750
455.147, 19984.561
455.630, 20175.150
456.112, 20296.631
456.594, 20323.340
457.076, 20302.230
457.558, 20285.301
458.040, 20275.301
458.522, 20283.230
459.004, 20319.961
459.487, 20375.580
459.969, 20451.080
460.451, 20546.520
460.933, 20618.039
461.415, 20611.420
461.897, 20569.551
462.379, 20542.109
462.861, 20545.520
463.343, 20566.051
463.826, 20600.369
464.308, 20647.260
464.790, 20703.500
465.272, 20803.250
465.754, 20883.551
466.236, 20913.631
466.718, 20880.391
467.200, 20824.721
467.682, 20729.340
468.165, 20621.881
468.647, 20531.840
469.129, 20460.730
469.611, 20405.750
470.093, 20370.660
470.575, 20352.650
471.057, 20322.430
471.539, 20267.980
472.022, 20228.070
472.504, 20242.891
472.986, 20318.689
473.468, 20345.020
473.950, 20299.230
474.432, 20233.080
474.914, 20229.570
475.396, 20285.109
475.878, 20360.641
476.361, 20482.279
476.843, 20601.051
477.325, 20582.180
477.807, 20431.449
478.289, 20284.730
478.771, 20264.641
479.253, 20312.330
479.735, 20341.789
480.217, 20321.461
480.700, 20299.109
481.182, 20303.699
481.664, 20330.490
482.146, 20369.471
482.628, 20415.400
483.110, 20471.641
483.592, 20543.119
484.074, 20632.100
484.556, 20714.891
485.039, 20785.311
485.521, 20846.020
486.003, 20899.590
486.485, 20945.141
486.967, 20983.301
487.449, 20997.881
487.931, 21005.430
488.414, 21069.660
488.896, 21220.609
489.378, 21367.779
489.860, 21466.320
490.342, 21510.340
490.824, 21587.131
491.306, 21700.900
491.788, 21838.980
492.270, 22010.580
492.753, 22208.539
493.235, 22353.400
493.717, 22402.980
494.199, 22408.660
494.681, 22454.039
495.163, 22536.010
495.645, 22639.090
496.127, 22764.500
496.609, 22899.961
497.092, 23021.619
497.574, 23124.131
498.056, 23236.279
498.538, 23385.359
499.020, 23553.160
499.502, 23713.230
499.984, 23846.561
500.466, 23984.340
500.948, 24159.650
501.431, 24360.150
501.913, 24503.850
502.395, 24507.061
502.877, 24505.801
503.359, 24566.520
503.841, 24717.971
504.323, 24858.051
504.805, 24987.010
505.288, 25102.029
505.770, 25198.750
506.252, 25271.270
506.734, 25343.240
507.216, 25419.580
507.698, 25499.029
508.180, 25582.689
508.662, 25673.779
509.145, 25745.789
509.627, 25774.029
510.109, 25766.711
510.591, 25762.721
511.073, 25768.250
511.555, 25763.000
512.037, 25725.990
512.519, 25660.420
513.001, 25574.189
513.484, 25452.770
513.966, 25326.350
514.448, 25225.449
514.930, 25144.211
515.412, 25054.619
515.894, 24930.199
516.376, 24799.990
516.858, 24690.551
517.341, 24621.400
517.823, 24521.381
518.305, 24354.160
518.787, 24154.990
519.269, 23968.211
519.751, 23796.270
520.233, 23635.869
520.715, 23503.580
521.197, 23388.080
521.680, 23218.160
522.162, 22963.609
522.644, 22719.311
523.126, 22547.199
523.608, 22452.080
524.090, 22342.961
524.572, 22213.471
525.054, 22082.699
525.536, 21967.461
526.019, 21867.580
526.501, 21783.770
526.983, 21726.270
527.465, 21675.080
527.947, 21595.811
528.429, 21494.869
528.911, 21396.570
529.393, 21320.789
529.875, 21252.990
530.358, 21178.199
530.840, 21093.580
531.322, 21014.670
531.804, 20949.369
532.286, 20893.910
532.768, 20846.221
533.250, 20815.150
533.732, 20780.561
534.214, 20734.029
534.697, 20680.750
535.179, 20638.080
535.661, 20610.760
536.143, 20588.930
536.625, 20570.910
537.107, 20557.350
537.589, 20539.689
538.071, 20515.250
538.554, 20493.051
539.036, 20489.801
539.518, 20504.789
540.000, 20494.561
540.482, 20441.820
540.964, 20376.109
541.446, 20346.711
541.928, 20349.350
542.411, 20362.000
542.893, 20385.490
543.375, 20405.500
543.857, 20397.289
544.339, 20361.141
544.821, 20330.320
545.303, 20328.320
545.785, 20338.811
546.268, 20347.100
546.750, 20350.270
547.232, 20350.680
547.714, 20340.000
548.196, 20328.750
548.678, 20335.939
549.160, 20384.420
549.642, 20427.410
550.124, 20455.500
550.606, 20469.289
551.089, 20478.131
551.571, 20480.131
552.053, 20481.141
552.535, 20484.920
553.017, 20491.619
553.499, 20497.180
553.981, 20499.961
554.463, 20505.680
554.945, 20517.570
555.428, 20537.750
555.910, 20578.461
556.392, 20660.891
556.874, 20748.119
557.356, 20783.561
557.838, 20778.490
558.320, 20780.740
558.802, 20823.660
559.284, 20881.279
559.767, 20931.051
560.249, 20966.539
560.731, 21019.230
561.213, 21120.820
561.695, 21233.240
562.177, 21322.859
562.659, 21349.961
563.141, 21398.770
563.624, 21482.711
564.106, 21588.230
564.588, 21685.270
565.070, 21772.930
565.552, 21849.840
566.034, 21907.461
566.516, 21949.350
566.998, 22026.789
567.481, 22143.590
567.963, 22268.510
568.445, 22377.391
568.927, 22473.609
569.409, 22571.080
569.891, 22669.920
570.373, 22774.301
570.855, 22889.631
571.338, 23013.471
571.820, 23136.311
572.302, 23250.080
572.784, 23368.260
573.266, 23508.420
573.748, 23663.039
574.230, 23802.570
574.712, 23889.820
575.194, 23981.670
575.677, 24109.051
576.159, 24286.539
576.641, 24451.631
577.123, 24595.939
577.605, 24738.740
578.087, 24894.830
578.569, 25063.010
579.051, 25260.789
579.533, 25501.109
580.016, 25759.801
580.498, 25976.939
580.980, 26154.740
581.462, 26349.961
581.944, 26585.051
582.426, 26856.189
582.908, 27161.430
583.390, 27495.789
583.872, 27833.539
584.355, 28144.971
584.837, 28453.801
585.319, 28792.279
585.801, 29173.029
586.283, 29549.359
586.765, 29889.180
587.247, 30216.660
587.729, 30565.881
588.211, 30978.580
588.694, 31370.029
589.176, 31717.080
589.658, 32034.490
590.140, 32379.260
590.622, 32777.109
591.104, 33149.809
591.586, 33467.219
592.068, 33731.148
592.551, 33935.211
593.033, 34074.289
593.515, 34186.172
593.997, 34340.641
594.479, 34499.000
594.961, 34524.539
595.443, 34379.270
595.925, 34165.898
596.407, 33974.672
596.890, 33790.160
597.372, 33586.961
597.854, 33372.738
598.336, 33118.480
598.818, 32793.840
599.300, 32411.730
599.782, 32027.920
600.265, 31670.090
600.747, 31293.180
601.229, 30867.689
601.711, 30372.961
602.193, 29949.471
602.675, 29626.570
603.157, 29338.289
603.639, 29032.260
604.121, 28710.961
604.604, 28367.160
605.086, 27988.971
605.568, 27610.920
606.050, 27281.859
606.532, 26996.949
607.014, 26724.510
607.496, 26451.551
607.978, 26185.119
608.460, 25939.090
608.943, 25709.600
609.425, 25491.061
609.907, 25277.770
610.389, 25072.949
610.871, 24878.830
611.353, 24696.189
611.835, 24520.270
612.317, 24344.961
612.799, 24178.961
613.282, 24026.301
613.764, 23890.770
614.246, 23764.609
614.728, 23649.471
615.210, 23542.580
615.692, 23437.650
616.174, 23332.949
616.656, 23244.381
617.138, 23185.980
617.621, 23138.971
618.103, 23047.119
618.585, 22918.631
619.067, 22806.961
619.549, 22754.061
620.031, 22730.410
620.513, 22701.461
620.995, 22664.660
621.477, 22640.490
621.960, 22650.471
622.442, 22670.529
622.924, 22683.100
623.406, 22695.180
623.888, 22681.150
624.370, 22619.750
624.852, 22539.689
625.334, 22477.480
625.817, 22440.340
626.299, 22402.189
626.781, 22352.961
627.263, 22302.689
627.745, 22289.900
628.227, 22316.170
628.709, 22334.721
629.191, 22312.561
629.674, 22267.170
630.156, 22242.180
630.638, 22236.279
