##NAMES=Annabergite
##RRUFFID=R050462
##IDEAL CHEMISTRY=Ni^2+^_3_(As^5+^O_4_)_2_&#183;8H_2_O
##LOCALITY=Plaka mine, Laurium, Attica, Greece
##OWNER=RRUFF
##SOURCE=University of Arizona Mineral Museum
##DESCRIPTION=Green bladed crystals
##STATUS=The identification of this mineral has been confirmed by X-ray diffraction and chemical analysis
##URL=rruff.info/R050462
##MEASURED CHEMISTRY=(Ni_2.97_Zn_0.03_)_Σ=3_(As_1.00_O_4_)_2_·8H_2_O; lighter vein: (Ni_2.95_Zn_0.05_)_Σ=3_(As_1.00_O_4_)_2_·8H_2_O
93.78320, 129.8474
94.26532, 129.6124
94.74744, 130.0960
95.22955, 130.9771
95.71167, 132.2057
96.19379, 133.0181
96.67590, 133.7340
97.15802, 134.0698
97.64014, 133.8619
98.12225, 133.2807
98.60437, 132.6218
99.08649, 132.0155
99.56860, 131.4272
100.0507, 130.7453
100.5328, 129.7016
101.0150, 128.7095
101.4971, 128.1071
101.9792, 127.9024
102.4613, 127.8391
102.9434, 128.0283
103.4255, 128.1888
103.9077, 128.0281
104.3898, 127.3845
104.8719, 126.5895
105.3540, 126.3676
105.8361, 127.1524
106.3182, 127.7549
106.8004, 127.8827
107.2825, 127.7106
107.7646, 127.3897
108.2467, 126.9772
108.7288, 126.4981
109.2109, 126.3660
109.6931, 127.0064
110.1752, 127.5542
110.6573, 127.6520
111.1394, 127.4290
111.6215, 127.2856
112.1036, 127.5983
112.5858, 128.4590
113.0679, 129.0692
113.5500, 129.2137
114.0321, 129.2774
114.5142, 129.5588
114.9964, 130.1044
115.4785, 130.7091
115.9606, 131.1046
116.4427, 131.3027
116.9248, 131.5653
117.4069, 131.9280
117.8891, 132.3960
118.3712, 133.0369
118.8533, 134.0043
119.3354, 134.9114
119.8175, 135.4865
120.2996, 135.7423
120.7818, 135.6728
121.2639, 135.2232
121.7460, 134.3850
122.2281, 133.3884
122.7102, 132.0202
123.1923, 130.6642
123.6745, 129.4838
124.1566, 128.5166
124.6387, 127.7750
125.1208, 127.2865
125.6029, 127.1259
126.0850, 127.0910
126.5672, 127.2953
127.0493, 127.5204
127.5314, 127.5518
128.0135, 127.3097
128.4956, 126.9203
128.9777, 126.7346
129.4599, 127.0222
129.9420, 127.2312
130.4241, 127.2338
130.9062, 127.1484
131.3883, 127.1367
131.8705, 127.2799
132.3526, 127.5808
132.8347, 128.0501
133.3168, 128.8628
133.7989, 129.6330
134.2810, 130.1723
134.7632, 130.5139
135.2453, 130.8366
135.7274, 131.2546
136.2095, 131.7477
136.6916, 132.2198
137.1737, 132.6083
137.6559, 133.0106
138.1380, 133.5758
138.6201, 134.3511
139.1022, 135.0666
139.5843, 135.5190
140.0664, 135.8075
140.5486, 136.0412
141.0307, 136.2465
141.5128, 136.4318
141.9949, 136.6266
142.4770, 136.8743
142.9591, 137.0606
143.4413, 137.0103
143.9234, 136.8720
144.4055, 136.9234
144.8876, 137.4105
145.3697, 138.3351
145.8518, 139.1635
146.3340, 139.8660
146.8161, 140.4857
147.2982, 141.0142
147.7803, 141.4638
148.2624, 141.8517
148.7445, 142.1777
149.2267, 142.3812
149.7088, 142.7850
150.1909, 143.3788
150.6730, 144.1239
151.1551, 145.0660
151.6372, 146.1821
152.1194, 147.3352
152.6015, 148.3779
153.0836, 149.2977
153.5657, 150.0548
154.0478, 150.4848
154.5299, 150.8311
155.0121, 151.3307
155.4942, 152.0443
155.9763, 152.8879
156.4584, 153.7884
156.9405, 154.7660
157.4227, 155.6363
157.9048, 156.4774
158.3869, 157.1709
158.8690, 157.4629
159.3511, 157.2655
159.8332, 156.6345
160.3154, 155.6231
160.7975, 154.2287
161.2796, 152.7808
161.7617, 151.3909
162.2438, 150.0667
162.7259, 149.0225
163.2081, 148.4767
163.6902, 148.1118
164.1723, 147.7238
164.6544, 147.2879
165.1365, 146.8135
165.6186, 146.2756
166.1008, 145.6409
166.5829, 145.1088
167.0650, 144.8786
167.5471, 144.6545
168.0292, 144.2224
168.5113, 143.5366
168.9935, 142.7583
169.4756, 142.1817
169.9577, 142.0170
170.4398, 141.6397
170.9219, 140.7756
171.4040, 139.8389
171.8862, 139.1839
172.3683, 138.9391
172.8504, 138.9651
173.3325, 138.9334
173.8146, 138.9117
174.2967, 138.7287
174.7789, 138.1344
175.2610, 137.4554
175.7431, 137.1117
176.2252, 137.3007
176.7073, 137.8511
177.1894, 138.1999
177.6716, 138.3097
178.1537, 138.2972
178.6358, 138.0569
179.1179, 137.7122
179.6000, 137.4793
180.0821, 137.4462
180.5643, 137.6303
181.0464, 138.0966
181.5285, 139.1884
182.0106, 140.0340
182.4927, 139.9776
182.9749, 139.2247
183.4570, 138.7271
183.9391, 139.0531
184.4212, 139.8726
184.9033, 140.4046
185.3854, 140.5384
185.8676, 140.5499
186.3497, 140.6729
186.8318, 140.9126
187.3139, 141.0824
187.7960, 140.9824
188.2781, 140.8210
188.7603, 140.8591
189.2424, 141.2157
189.7245, 141.6290
190.2066, 141.7346
190.6887, 141.4512
191.1708, 141.1503
191.6530, 140.8015
192.1351, 140.5661
192.6172, 140.6361
193.0993, 141.1045
193.5814, 141.8057
194.0635, 142.4090
194.5457, 142.8598
195.0278, 143.3151
195.5099, 143.7981
195.9920, 144.3049
196.4741, 144.8294
196.9562, 145.3684
197.4384, 145.9276
197.9205, 146.5322
198.4026, 147.2197
198.8847, 147.9021
199.3668, 148.5577
199.8489, 149.2055
200.3311, 149.8610
200.8132, 150.5313
201.2953, 151.2249
201.7774, 151.9675
202.2595, 152.7153
202.7416, 153.5736
203.2238, 154.7426
203.7059, 155.9931
204.1880, 157.0023
204.6701, 157.5836
205.1522, 157.8333
205.6344, 158.1740
206.1165, 158.6307
206.5986, 159.1414
207.0807, 159.8383
207.5628, 160.5739
208.0449, 161.0384
208.5271, 161.0284
209.0092, 160.6887
209.4913, 160.6187
209.9734, 160.9682
210.4555, 161.3416
210.9376, 161.6344
211.4198, 161.8482
211.9019, 161.9684
212.3840, 161.9432
212.8661, 161.8583
213.3482, 161.9647
213.8303, 162.4308
214.3125, 162.8090
214.7946, 162.7727
215.2767, 162.3927
215.7588, 162.0494
216.2409, 161.8993
216.7230, 161.9013
217.2052, 161.9825
217.6873, 162.2464
218.1694, 162.3640
218.6515, 161.9541
219.1336, 161.0397
219.6157, 160.2981
220.0979, 160.2141
220.5800, 160.2764
221.0621, 159.8598
221.5442, 158.7981
222.0263, 157.6678
222.5084, 157.0655
222.9906, 157.0350
223.4727, 157.0286
223.9548, 156.9707
224.4369, 156.8124
224.9190, 156.4934
225.4011, 155.9957
225.8833, 155.4060
226.3654, 154.8415
226.8475, 154.3387
227.3296, 153.6923
227.8117, 152.6285
228.2938, 151.5544
228.7760, 150.7483
229.2581, 150.2593
229.7402, 149.9254
230.2223, 149.5367
230.7044, 149.0659
231.1866, 148.6239
231.6687, 148.1792
232.1508, 147.7945
232.6329, 147.5164
233.1150, 147.3508
233.5971, 147.2684
234.0793, 147.2612
234.5614, 147.4386
235.0435, 147.4094
235.5256, 146.8852
236.0077, 146.3865
236.4898, 146.2862
236.9720, 146.6221
237.4541, 147.1232
237.9362, 147.3960
238.4183, 147.2127
238.9004, 147.3721
239.3825, 148.0958
239.8647, 148.9268
240.3468, 149.5854
240.8289, 150.0301
241.3110, 150.3793
241.7931, 150.7918
242.2752, 151.3250
242.7574, 151.7341
243.2395, 151.9526
243.7216, 152.1158
244.2037, 152.3432
244.6858, 152.6303
245.1679, 152.8462
245.6501, 152.8298
246.1322, 152.4966
246.6143, 152.2587
247.0964, 152.2337
247.5785, 152.2047
248.0606, 152.1006
248.5428, 151.8838
249.0249, 151.4309
249.5070, 150.5693
249.9891, 149.2032
250.4712, 148.1052
250.9533, 147.4596
251.4355, 146.9192
251.9176, 146.2102
252.3997, 145.3392
252.8818, 144.5425
253.3639, 144.0414
253.8460, 143.8486
254.3282, 143.5903
254.8103, 143.0841
255.2924, 142.6558
255.7745, 142.5905
256.2566, 142.8661
256.7387, 143.1936
257.2209, 143.3912
257.7030, 143.4577
258.1851, 143.4860
258.6672, 143.3417
259.1493, 143.2665
259.6314, 143.4888
260.1136, 143.9777
260.5957, 144.4472
261.0778, 144.7437
261.5599, 144.8824
262.0420, 144.9785
262.5241, 145.0290
263.0063, 145.0406
263.4884, 144.8691
263.9705, 144.5683
264.4526, 144.6757
264.9347, 145.7581
265.4168, 147.1999
265.8990, 147.8062
266.3811, 147.2769
266.8632, 146.5463
267.3453, 146.3253
267.8275, 146.5407
268.3096, 146.5908
268.7917, 146.1546
269.2738, 145.5433
269.7559, 145.1404
270.2380, 144.9501
270.7202, 144.9790
271.2023, 145.3451
271.6844, 145.9922
272.1665, 146.5274
272.6486, 146.7709
273.1307, 146.9547
273.6129, 147.3769
274.0950, 148.0362
274.5771, 148.5696
275.0592, 148.6905
275.5413, 148.4590
276.0234, 148.1850
276.5056, 147.7411
276.9877, 147.5152
277.4698, 147.8414
277.9519, 148.6357
278.4340, 149.4749
278.9161, 150.2242
279.3983, 150.8393
279.8804, 151.0882
280.3625, 150.7423
280.8446, 150.3521
281.3267, 150.3000
281.8088, 150.4664
282.2910, 150.5671
282.7731, 150.3691
283.2552, 149.9914
283.7373, 149.8766
284.2194, 150.2336
284.7015, 150.4540
285.1837, 150.1477
285.6658, 149.5604
286.1479, 149.0718
286.6300, 148.9236
287.1121, 148.9118
287.5942, 148.5439
288.0764, 147.6736
288.5585, 146.7832
289.0406, 146.0535
289.5227, 145.3970
290.0048, 144.7227
290.4869, 143.9817
290.9691, 143.2453
291.4512, 142.6192
291.9333, 142.1025
292.4154, 141.7108
292.8975, 141.6273
293.3796, 141.5657
293.8618, 141.2538
294.3439, 140.6234
294.8260, 139.9447
295.3081, 139.6319
295.7902, 139.8062
296.2723, 139.7715
296.7545, 139.1661
297.2366, 138.4900
297.7187, 138.0339
298.2008, 137.8172
298.6829, 137.6551
299.1650, 137.3216
299.6472, 136.7781
300.1293, 136.4136
300.6114, 136.4931
301.0935, 136.5435
301.5756, 136.2439
302.0577, 135.6996
302.5399, 135.2945
303.0220, 135.4370
303.5041, 136.0907
303.9862, 136.4060
304.4683, 136.0756
304.9504, 135.7440
305.4326, 135.6598
305.9147, 135.7434
306.3968, 135.8411
306.8789, 135.8799
307.3610, 135.8510
307.8431, 135.6938
308.3253, 135.2632
308.8074, 134.9387
309.2895, 134.8220
309.7716, 134.8533
310.2537, 134.9929
310.7358, 135.2387
311.2180, 135.5086
311.7001, 135.5989
312.1822, 135.4006
312.6643, 135.2616
313.1464, 135.3360
313.6285, 135.4367
314.1107, 135.3539
314.5928, 135.0410
315.0749, 134.7323
315.5570, 134.8318
316.0392, 135.5136
316.5213, 135.9624
317.0034, 135.8372
317.4855, 135.6581
317.9676, 135.7273
318.4497, 136.0534
318.9319, 136.4294
319.4140, 136.6917
319.8961, 136.8503
320.3782, 136.7961
320.8603, 136.1006
321.3424, 135.6016
321.8246, 135.8150
322.3067, 136.5055
322.7888, 137.0612
323.2709, 136.9824
323.7530, 136.3726
324.2351, 136.0299
324.7173, 136.3016
325.1994, 136.3450
325.6815, 135.6712
326.1636, 134.6934
326.6457, 133.9937
327.1278, 133.8814
327.6100, 134.1496
328.0921, 134.3173
328.5742, 134.3815
329.0563, 134.3401
329.5384, 134.1384
330.0205, 133.8753
330.5027, 133.5930
330.9848, 133.3041
331.4669, 133.1059
331.9490, 133.2038
332.4311, 133.7112
332.9132, 134.0163
333.3954, 133.9179
333.8775, 133.6685
334.3596, 133.3409
334.8417, 132.9659
335.3238, 132.6107
335.8059, 132.3145
336.2881, 132.0758
336.7702, 131.9717
337.2523, 132.0566
337.7344, 132.2328
338.2165, 132.5287
338.6986, 132.8775
339.1808, 133.1338
339.6629, 133.1779
340.1450, 133.0684
340.6271, 133.0127
341.1092, 132.9781
341.5913, 133.0690
342.0735, 133.5210
342.5556, 134.0384
343.0377, 134.1975
343.5198, 133.7621
344.0019, 133.1486
344.4840, 133.0973
344.9662, 133.7668
345.4483, 134.2980
345.9304, 134.2671
346.4125, 134.0945
346.8946, 134.0824
347.3767, 134.2782
347.8589, 134.4813
348.3410, 134.4475
348.8231, 134.1858
349.3052, 134.0814
349.7873, 134.2913
350.2694, 134.5585
350.7516, 134.6969
351.2337, 134.7305
351.7158, 134.7737
352.1979, 134.9487
352.6800, 135.1899
353.1621, 135.2516
353.6443, 135.0441
354.1264, 134.8536
354.6085, 134.8808
355.0906, 135.0283
355.5727, 135.1520
356.0548, 135.2051
356.5370, 135.2147
357.0191, 135.2050
357.5012, 135.1733
357.9833, 135.1566
358.4654, 135.1429
358.9475, 135.1740
359.4297, 135.3118
359.9118, 135.5814
360.3939, 135.8660
360.8760, 136.1213
361.3581, 136.3315
361.8402, 136.3822
362.3224, 136.1269
362.8045, 135.8948
363.2866, 136.0714
363.7687, 136.6131
364.2508, 137.1575
364.7329, 137.6456
365.2151, 138.0224
365.6972, 138.1805
366.1793, 138.0960
366.6614, 137.8742
367.1436, 137.4186
367.6257, 136.8836
368.1078, 136.7531
368.5899, 137.4686
369.0720, 138.2961
369.5541, 138.5724
370.0363, 138.3792
370.5184, 138.2720
371.0005, 138.5766
371.4826, 139.0638
371.9647, 139.1995
372.4468, 138.8615
372.9290, 138.5292
373.4111, 138.3942
373.8932, 138.3884
374.3753, 138.3733
374.8574, 138.3025
375.3395, 138.2835
375.8217, 138.5125
376.3038, 139.0385
376.7859, 139.3457
377.2680, 139.1481
377.7501, 138.8732
378.2322, 138.9503
378.7144, 139.3648
379.1965, 139.7264
379.6786, 139.7153
380.1607, 139.3770
380.6428, 139.2618
381.1249, 139.4749
381.6071, 139.7575
382.0892, 140.0779
382.5713, 140.3982
383.0534, 140.6547
383.5355, 140.8218
384.0176, 140.9128
384.4998, 140.9555
384.9819, 140.9338
385.4640, 140.8854
385.9461, 140.7028
386.4282, 140.5617
386.9103, 140.6068
387.3925, 140.8602
387.8746, 141.2959
388.3567, 141.9459
388.8388, 142.9166
389.3209, 143.2979
389.8030, 142.6360
390.2852, 141.9520
390.7673, 141.5136
391.2494, 141.3595
391.7315, 141.5625
392.2136, 142.2003
392.6957, 143.0823
393.1779, 143.4475
393.6600, 142.7741
394.1421, 142.3008
394.6242, 142.2168
395.1063, 142.3202
395.5884, 142.4536
396.0706, 142.5677
396.5527, 142.6748
397.0348, 142.7908
397.5169, 142.9144
397.9990, 143.0479
398.4811, 143.2517
398.9633, 143.4076
399.4454, 143.4702
399.9275, 143.4441
400.4096, 143.3624
400.8917, 143.2685
401.3738, 143.1261
401.8560, 142.7444
402.3381, 141.9550
402.8202, 141.2491
403.3023, 140.7010
403.7844, 140.3315
404.2665, 140.2417
404.7487, 140.4828
405.2308, 140.7467
405.7129, 140.5930
406.1950, 139.9917
406.6771, 139.5216
407.1592, 139.2492
407.6414, 139.1938
408.1235, 139.5673
408.6056, 140.2430
409.0877, 140.5710
409.5698, 139.7928
410.0519, 138.4581
410.5341, 137.9232
411.0162, 138.3703
411.4983, 139.0478
411.9804, 139.7330
412.4625, 140.2905
412.9446, 140.4303
413.4268, 139.9183
413.9089, 139.2971
414.3910, 139.0099
414.8731, 138.9955
415.3553, 138.9583
415.8374, 138.7977
416.3195, 138.5866
416.8016, 138.3932
417.2837, 138.1985
417.7658, 138.1615
418.2480, 138.3963
418.7301, 138.7728
419.2122, 139.1663
419.6943, 139.5594
420.1764, 139.9403
420.6585, 140.2991
421.1407, 140.6353
421.6228, 140.9474
422.1049, 141.2413
422.5870, 141.5102
423.0691, 141.6879
423.5512, 141.8483
424.0334, 142.1597
424.5155, 142.6949
424.9976, 143.3089
425.4797, 143.7176
425.9618, 143.7272
426.4439, 143.9221
426.9261, 144.3971
427.4082, 144.9785
427.8903, 145.5486
428.3724, 146.1055
428.8545, 146.7357
429.3366, 147.5493
429.8188, 148.5273
430.3009, 149.1357
430.7830, 148.6861
431.2651, 148.6329
431.7472, 149.3901
432.2293, 150.5990
432.7115, 151.9118
433.1936, 153.1839
433.6757, 154.2867
434.1578, 154.9340
434.6399, 154.9574
435.1220, 155.1119
435.6042, 155.4513
436.0863, 155.9329
436.5684, 156.6893
437.0505, 157.6006
437.5326, 158.3116
438.0147, 158.4500
438.4969, 158.2352
438.9790, 158.5070
439.4611, 159.4876
439.9432, 160.3924
440.4253, 160.8988
440.9074, 161.1664
441.3896, 161.3346
441.8717, 161.4342
442.3538, 161.4370
442.8359, 161.2563
443.3180, 160.9312
443.8001, 160.7310
444.2823, 160.8004
444.7644, 160.8332
445.2465, 160.4961
445.7286, 159.8563
446.2107, 159.1694
446.6928, 158.4444
447.1750, 157.7432
447.6571, 157.0896
448.1392, 156.4990
448.6213, 156.1295
449.1034, 156.1911
449.5855, 156.4197
450.0677, 156.0316
450.5498, 154.7702
451.0319, 153.5665
451.5140, 152.4983
451.9961, 151.6869
452.4782, 151.4434
452.9604, 151.7752
453.4425, 152.1369
453.9246, 151.9661
454.4067, 151.2128
454.8888, 150.4245
455.3709, 149.3038
455.8531, 148.4757
456.3352, 148.4339
456.8173, 148.7851
457.2994, 148.8339
457.7815, 148.2566
458.2636, 147.3603
458.7458, 146.7890
459.2279, 146.6824
459.7100, 146.6241
460.1921, 146.7248
460.6742, 146.7610
461.1563, 146.5213
461.6385, 146.0726
462.1206, 145.6980
462.6027, 145.6639
463.0848, 145.8735
463.5669, 145.8000
464.0491, 145.2922
464.5312, 144.8036
465.0133, 144.5611
465.4954, 144.3751
465.9775, 144.0392
466.4597, 143.4963
466.9418, 142.9050
467.4239, 142.4024
467.9060, 141.9789
468.3881, 141.5630
468.8702, 141.1347
469.3524, 140.7299
469.8345, 140.4789
470.3166, 140.2946
470.7987, 139.8936
471.2808, 139.0828
471.7629, 138.1245
472.2451, 137.0803
472.7272, 136.0337
473.2093, 135.4914
473.6914, 135.8088
474.1735, 136.4821
474.6556, 136.4874
475.1378, 135.6415
475.6199, 134.8749
476.1020, 134.3418
476.5841, 133.9309
477.0662, 133.5345
477.5483, 133.1534
478.0305, 132.8768
478.5126, 132.8060
478.9947, 132.8913
479.4768, 132.7044
479.9589, 131.8419
480.4410, 131.1936
480.9232, 130.9309
481.4053, 130.9056
481.8874, 131.0327
482.3695, 131.2598
482.8516, 131.4600
483.3337, 131.4624
483.8159, 131.2389
484.2980, 131.0599
484.7801, 131.0138
485.2622, 130.9100
485.7443, 130.5994
486.2264, 130.2097
486.7086, 129.9567
487.1907, 129.9476
487.6728, 130.0461
488.1549, 130.0624
488.6370, 129.9924
489.1191, 129.9009
489.6013, 129.7867
490.0834, 129.6722
490.5655, 129.5699
491.0476, 129.4815
491.5297, 129.4183
492.0118, 129.4214
492.4940, 129.4322
492.9761, 129.3504
493.4582, 129.1814
493.9403, 129.0719
494.4224, 129.1370
494.9045, 129.2730
495.3867, 129.1826
495.8688, 128.7252
496.3509, 128.4279
496.8330, 128.6046
497.3151, 128.8904
497.7972, 128.8426
498.2794, 128.4445
498.7615, 128.0338
499.2436, 127.9024
499.7257, 128.0346
500.2078, 128.1479
500.6899, 128.3630
501.1721, 128.4100
501.6542, 128.0679
502.1363, 127.6234
502.6184, 127.3854
503.1005, 127.4325
503.5826, 127.6241
504.0648, 127.8211
504.5469, 128.0358
505.0290, 128.1367
505.5111, 128.0830
505.9932, 127.9589
506.4753, 127.7347
506.9575, 127.4844
507.4396, 127.3326
507.9217, 127.3430
508.4038, 127.4047
508.8859, 127.3587
509.3680, 127.2147
509.8502, 127.1636
510.3323, 127.2941
510.8144, 127.4520
511.2965, 127.4855
511.7786, 127.4117
512.2607, 127.3071
512.7429, 127.1009
513.2250, 126.9416
513.7071, 127.0612
514.1892, 127.3699
514.6713, 127.4209
515.1534, 126.9451
515.6356, 126.3218
516.1177, 126.3491
516.5998, 127.5719
517.0819, 128.2166
517.5640, 127.8842
518.0461, 127.2517
518.5283, 126.6447
519.0104, 126.1467
519.4925, 125.8110
519.9746, 125.6703
520.4567, 125.7219
520.9388, 125.9926
521.4210, 126.7367
521.9031, 127.2150
522.3852, 127.1581
522.8673, 126.9800
523.3494, 126.9910
523.8315, 127.1885
524.3137, 127.3528
524.7958, 127.3250
525.2779, 127.1290
525.7600, 126.7906
526.2421, 126.2270
526.7242, 125.8368
527.2064, 125.9356
527.6885, 126.2349
528.1706, 126.3691
528.6527, 126.2910
529.1348, 126.1727
529.6169, 126.0685
530.0991, 125.9931
530.5812, 125.9960
531.0633, 126.0814
531.5454, 126.1261
532.0275, 125.9956
532.5096, 125.7466
532.9918, 125.7804
533.4739, 126.4411
533.9560, 126.8973
534.4381, 126.8790
534.9202, 126.6254
535.4023, 126.3635
535.8845, 126.1525
536.3666, 125.9556
536.8487, 125.7109
537.3308, 125.4184
537.8129, 125.4064
538.2951, 126.1236
538.7772, 126.5241
539.2593, 126.1135
539.7415, 125.4176
540.2236, 124.9771
540.7057, 124.9344
541.1878, 125.0978
541.6699, 125.3886
542.1520, 125.7603
542.6342, 125.8113
543.1163, 125.3246
543.5984, 124.9837
544.0805, 125.4792
544.5626, 126.3781
545.0447, 126.8605
545.5269, 126.6739
546.0090, 126.3349
546.4911, 126.1113
546.9732, 125.9510
547.4553, 125.7138
547.9374, 125.3667
548.4196, 125.1152
548.9017, 125.1903
549.3838, 125.6028
549.8659, 125.8368
550.3480, 125.7840
550.8301, 125.7172
551.3123, 125.6743
551.7944, 125.6753
552.2765, 125.7919
552.7586, 126.0197
553.2407, 126.1861
553.7228, 126.0078
554.2050, 125.4455
554.6871, 125.2985
555.1692, 126.0481
555.6513, 126.5239
556.1334, 126.0220
556.6155, 125.1492
557.0977, 124.7291
557.5798, 125.0217
558.0619, 125.4483
558.5440, 125.4118
559.0261, 125.0658
559.5082, 125.0616
559.9904, 125.5798
560.4725, 126.0152
560.9546, 125.8165
561.4367, 125.1217
561.9188, 124.7032
562.4009, 124.7408
562.8831, 124.8388
563.3652, 124.8712
563.8473, 124.8683
564.3294, 124.8227
564.8115, 124.7532
565.2936, 124.8183
565.7758, 125.2258
566.2579, 125.9797
566.7400, 126.3548
567.2221, 126.0085
567.7042, 125.6766
568.1863, 125.4877
568.6685, 125.3679
569.1506, 125.2088
569.6327, 125.0001
570.1148, 124.8740
570.5969, 125.0984
571.0790, 125.5700
571.5612, 125.5387
572.0433, 124.7727
572.5254, 124.1532
573.0075, 124.3288
573.4896, 124.8401
573.9717, 124.9715
574.4539, 124.5598
574.9360, 124.1653
575.4181, 124.0682
575.9002, 124.1393
576.3823, 124.1828
576.8644, 124.1859
577.3466, 124.3073
577.8287, 124.7112
578.3108, 125.2869
578.7929, 125.4859
579.2750, 124.9464
579.7571, 124.4923
580.2393, 124.0510
580.7214, 123.7933
581.2035, 123.9969
581.6856, 124.5578
582.1677, 125.0186
582.6498, 125.0137
583.1320, 124.6682
583.6141, 124.4022
584.0962, 124.2230
584.5783, 124.0918
585.0604, 123.9667
585.5425, 123.9155
586.0247, 124.0277
586.5068, 124.2915
586.9889, 124.5420
587.4710, 124.7879
587.9531, 124.9323
