##NAMES=Annabergite
##RRUFFID=R050462
##IDEAL CHEMISTRY=Ni^2+^_3_(As^5+^O_4_)_2_&#183;8H_2_O
##LOCALITY=Plaka mine, Laurium, Attica, Greece
##OWNER=RRUFF
##SOURCE=University of Arizona Mineral Museum
##DESCRIPTION=Green bladed crystals
##STATUS=The identification of this mineral has been confirmed by X-ray diffraction and chemical analysis
##URL=rruff.info/R050462
##MEASURED CHEMISTRY=(Ni_2.97_Zn_0.03_)_Σ=3_(As_1.00_O_4_)_2_·8H_2_O; lighter vein: (Ni_2.95_Zn_0.05_)_Σ=3_(As_1.00_O_4_)_2_·8H_2_O
91.00781, 16.36631
91.48993, 15.74371
91.97205, 15.49526
92.45416, 15.75498
92.93628, 16.38075
93.41840, 17.07194
93.90051, 17.78275
94.38263, 18.53301
94.86475, 19.31669
95.34686, 20.13519
95.82898, 21.12546
96.31110, 22.37368
96.79321, 23.88031
97.27533, 25.61808
97.75745, 27.52373
98.23956, 29.63960
98.72168, 32.10020
99.20380, 34.89183
99.68591, 37.99174
100.1680, 41.28278
100.6501, 44.63761
101.1323, 48.67474
101.6144, 53.62386
102.0965, 59.53698
102.5786, 65.71270
103.0607, 72.21140
103.5428, 78.96499
104.0250, 86.03276
104.5071, 93.42648
104.9892, 101.0133
105.4713, 108.6945
105.9534, 116.4729
106.4355, 124.3163
106.9177, 132.4153
107.3998, 140.5852
107.8819, 148.5390
108.3640, 156.4060
108.8461, 163.8622
109.3282, 170.8494
109.8104, 176.6702
110.2925, 182.6647
110.7746, 188.7824
111.2567, 195.0213
111.7388, 201.6310
112.2209, 208.1709
112.7031, 215.2640
113.1852, 223.4235
113.6673, 233.3478
114.1494, 243.7063
114.6315, 253.9453
115.1136, 264.1045
115.5958, 275.3159
116.0779, 288.1053
116.5600, 302.0945
117.0421, 316.7946
117.5242, 332.0610
118.0063, 348.1455
118.4885, 365.7522
118.9706, 385.2635
119.4527, 404.4564
119.9348, 423.7586
120.4169, 441.7963
120.8990, 456.3203
121.3812, 466.2090
121.8633, 471.8963
122.3454, 472.9479
122.8275, 468.0313
123.3096, 461.8324
123.7917, 457.8865
124.2739, 455.9547
124.7560, 455.1595
125.2381, 454.5165
125.7202, 454.7068
126.2023, 457.0380
126.6844, 462.3912
127.1666, 469.2394
127.6487, 475.5710
128.1308, 481.4506
128.6129, 487.4230
129.0950, 493.7968
129.5771, 500.6399
130.0593, 508.2325
130.5414, 516.5964
131.0235, 525.7159
131.5056, 535.2564
131.9877, 543.2541
132.4698, 548.7812
132.9520, 553.4155
133.4341, 557.2383
133.9162, 561.5610
134.3983, 566.8517
134.8804, 573.0034
135.3625, 579.5048
135.8447, 586.4809
136.3268, 593.5910
136.8089, 600.4351
137.2910, 606.9983
137.7731, 613.6173
138.2552, 620.6970
138.7374, 628.3610
139.2195, 635.2199
139.7016, 641.3714
140.1837, 646.7372
140.6658, 650.9132
141.1479, 653.5584
141.6301, 655.8732
142.1122, 658.4720
142.5943, 661.6394
143.0764, 664.2933
143.5585, 666.3932
144.0406, 667.9752
144.5228, 669.1278
145.0049, 669.1448
145.4870, 669.5867
145.9691, 671.3654
146.4512, 675.5364
146.9333, 679.3490
147.4155, 682.3383
147.8976, 684.6935
148.3797, 687.8816
148.8618, 692.3856
149.3439, 697.4107
149.8260, 702.4307
150.3082, 707.0693
150.7903, 712.1637
151.2724, 717.4158
151.7545, 722.7527
152.2366, 730.0226
152.7188, 740.3073
153.2009, 752.0134
153.6830, 763.7499
154.1651, 775.0353
154.6472, 786.7004
155.1293, 798.6801
155.6115, 810.9999
156.0936, 823.8364
156.5757, 838.6279
157.0578, 853.5300
157.5399, 866.3178
158.0220, 878.2487
158.5042, 886.6190
158.9863, 890.4091
159.4684, 889.5534
159.9505, 884.7106
160.4326, 873.4786
160.9147, 858.8590
161.3969, 845.3041
161.8790, 833.8958
162.3611, 824.2602
162.8432, 816.3182
163.3253, 810.3730
163.8074, 805.3314
164.2896, 801.1432
164.7717, 797.4962
165.2538, 793.7798
165.7359, 789.3467
166.2180, 784.9222
166.7001, 781.2245
167.1823, 778.9348
167.6644, 776.1876
168.1465, 771.4639
168.6286, 765.2769
169.1107, 759.0778
169.5928, 753.3366
170.0750, 748.1376
170.5571, 743.4914
171.0392, 739.5193
171.5213, 736.0168
172.0034, 732.9548
172.4855, 730.2742
172.9677, 727.7745
173.4498, 724.8024
173.9319, 722.0319
174.4140, 720.5407
174.8961, 721.3020
175.3782, 722.6564
175.8604, 722.9450
176.3425, 722.2125
176.8246, 720.8441
177.3067, 718.6656
177.7888, 716.0611
178.2709, 713.8405
178.7531, 712.1949
179.2352, 711.0552
179.7173, 710.5886
180.1994, 710.7598
180.6815, 710.7438
181.1636, 709.3077
181.6458, 707.0045
182.1279, 705.5388
182.6100, 705.6635
183.0921, 706.8708
183.5742, 708.0275
184.0563, 709.0803
184.5385, 710.6998
185.0206, 713.7022
185.5027, 717.9189
185.9848, 722.4205
186.4669, 727.1535
186.9490, 731.9075
187.4312, 736.1583
187.9133, 739.7790
188.3954, 743.2164
188.8775, 747.3961
189.3596, 752.1132
189.8417, 755.5341
190.3239, 756.5270
190.8060, 755.5219
191.2881, 754.3787
191.7702, 752.9788
192.2523, 751.9646
192.7344, 752.2968
193.2166, 753.9808
193.6987, 756.0182
194.1808, 757.7742
194.6629, 759.3705
195.1450, 762.3875
195.6271, 767.0096
196.1093, 772.5764
196.5914, 777.9173
197.0735, 782.9232
197.5556, 788.9921
198.0377, 796.8713
198.5198, 806.6331
199.0020, 816.7242
199.4841, 827.1367
199.9662, 837.9052
200.4483, 849.0375
200.9304, 860.3705
201.4125, 873.0050
201.8947, 887.7559
202.3768, 904.7922
202.8589, 921.8938
203.3410, 939.2927
203.8231, 956.5118
204.3052, 972.6215
204.7874, 987.8693
205.2695, 1001.421
205.7516, 1013.048
206.2337, 1022.836
206.7158, 1030.150
207.1979, 1034.876
207.6801, 1037.259
208.1622, 1037.482
208.6443, 1035.132
209.1264, 1031.941
209.6085, 1028.486
210.0906, 1024.596
210.5728, 1021.092
211.0549, 1017.644
211.5370, 1014.862
212.0191, 1014.331
212.5012, 1016.480
212.9833, 1019.811
213.4655, 1023.721
213.9476, 1028.351
214.4297, 1033.218
214.9118, 1038.611
215.3939, 1044.084
215.8760, 1048.733
216.3581, 1052.582
216.8403, 1055.469
217.3224, 1057.352
217.8045, 1058.407
218.2866, 1057.844
218.7687, 1055.296
219.2508, 1051.218
219.7330, 1046.778
220.2151, 1041.640
220.6972, 1036.714
221.1793, 1032.637
221.6614, 1029.953
222.1435, 1026.461
222.6257, 1021.885
223.1078, 1016.533
223.5899, 1011.143
224.0720, 1005.814
224.5541, 1000.281
225.0362, 994.4674
225.5184, 988.9399
226.0005, 981.7985
226.4826, 972.3625
226.9647, 961.4862
227.4468, 951.1757
227.9289, 941.5604
228.4111, 932.4719
228.8932, 923.9919
229.3753, 916.7836
229.8574, 908.5822
230.3395, 898.6019
230.8216, 887.8690
231.3038, 879.1049
231.7859, 873.1274
232.2680, 867.9988
232.7501, 862.7665
233.2322, 856.7746
233.7143, 852.1474
234.1965, 848.9745
234.6786, 847.1192
235.1607, 846.1951
235.6428, 846.3306
236.1249, 847.1817
236.6070, 848.6302
237.0892, 850.8058
237.5713, 853.1832
238.0534, 855.2489
238.5355, 857.6373
239.0176, 862.0908
239.4997, 869.6445
239.9819, 877.8771
240.4640, 885.4278
240.9461, 890.8480
241.4282, 899.3789
241.9103, 913.0084
242.3924, 929.1240
242.8746, 941.3728
243.3567, 948.2600
243.8388, 953.5706
244.3209, 958.6213
244.8030, 963.0334
245.2851, 968.1180
245.7673, 974.0848
246.2494, 980.6541
246.7315, 987.7569
247.2136, 998.0410
247.6957, 1004.675
248.1778, 1004.654
248.6600, 996.2061
249.1421, 986.3224
249.6242, 974.4791
250.1063, 961.4143
250.5884, 948.4547
251.0705, 935.3443
251.5527, 922.7053
252.0348, 910.9472
252.5169, 900.1677
252.9990, 889.4171
253.4811, 878.0814
253.9632, 867.0421
254.4454, 858.0000
254.9275, 851.1346
255.4096, 845.7880
255.8917, 841.8840
256.3738, 839.6586
256.8560, 837.8513
257.3381, 836.1351
257.8202, 835.0957
258.3023, 835.8267
258.7844, 839.1475
259.2665, 842.4412
259.7487, 844.8604
260.2308, 846.2339
260.7129, 847.9164
261.1950, 850.2063
261.6771, 852.4716
262.1592, 853.9223
262.6414, 854.6134
263.1235, 854.2501
263.6056, 852.2333
264.0877, 848.3115
264.5698, 846.5402
265.0519, 847.8305
265.5341, 850.0256
266.0162, 850.4392
266.4983, 848.3796
266.9804, 846.7043
267.4625, 846.3858
267.9446, 847.3926
268.4268, 847.2503
268.9089, 845.7496
269.3910, 843.4816
269.8731, 840.7707
270.3552, 837.3387
270.8373, 834.6606
271.3195, 833.1212
271.8016, 832.6472
272.2837, 832.4453
272.7658, 832.5381
273.2479, 832.8386
273.7300, 833.1817
274.2122, 833.4853
274.6943, 834.3517
275.1764, 835.9654
275.6585, 838.2418
276.1406, 840.7619
276.6227, 843.5618
277.1049, 846.5135
277.5870, 849.4385
278.0691, 852.3024
278.5512, 855.6086
279.0333, 859.5128
279.5154, 863.8784
279.9976, 868.3372
280.4797, 872.9539
280.9618, 877.3825
281.4439, 881.6261
281.9260, 885.6650
282.4081, 888.7769
282.8903, 890.5472
283.3724, 891.6808
283.8545, 894.2490
284.3366, 898.4415
284.8187, 902.0485
285.3008, 903.5494
285.7830, 903.0674
286.2651, 901.8848
286.7472, 900.1015
287.2293, 897.6892
287.7114, 894.5419
288.1935, 890.6584
288.6757, 886.2346
289.1578, 881.1617
289.6399, 875.5549
290.1220, 870.4081
290.6041, 865.8958
291.0862, 861.3438
291.5684, 855.5370
292.0505, 848.5880
292.5326, 841.8561
293.0147, 836.0616
293.4968, 830.9803
293.9789, 825.6691
294.4611, 820.0963
294.9432, 814.6730
295.4253, 810.0236
295.9074, 805.9933
296.3895, 802.0143
296.8716, 797.7933
297.3538, 793.4429
297.8359, 788.8663
298.3180, 783.9809
298.8001, 779.8436
299.2822, 778.1959
299.7643, 778.0986
300.2465, 777.0779
300.7286, 773.3549
301.2107, 768.8505
301.6928, 766.3986
302.1749, 765.9024
302.6570, 765.5351
303.1392, 763.3219
303.6213, 760.3408
304.1034, 758.5488
304.5855, 758.9717
305.0676, 760.2295
305.5497, 760.9694
306.0319, 761.2919
306.5140, 761.7552
306.9961, 763.0983
307.4782, 764.6360
307.9603, 765.4644
308.4424, 764.9845
308.9246, 764.4554
309.4067, 765.0208
309.8888, 766.3470
310.3709, 767.5090
310.8530, 767.5658
311.3351, 767.4672
311.8173, 768.0646
312.2994, 769.6423
312.7815, 771.4765
313.2636, 773.4037
313.7457, 775.2599
314.2278, 776.7572
314.7100, 776.6244
315.1921, 776.9278
315.6742, 779.4560
316.1563, 784.8665
316.6384, 789.4298
317.1205, 790.2947
317.6027, 789.6752
318.0848, 790.3679
318.5669, 794.3050
319.0490, 798.7709
319.5311, 802.9409
320.0132, 806.7717
320.4954, 809.9375
320.9775, 811.7434
321.4596, 813.1031
321.9417, 814.7621
322.4238, 818.2354
322.9059, 820.6021
323.3881, 821.1559
323.8702, 819.9386
324.3523, 817.7115
324.8344, 814.0055
325.3165, 809.7098
325.7986, 805.3221
326.2808, 801.2067
326.7629, 796.6334
327.2450, 791.2022
327.7271, 785.1925
328.2092, 779.6797
328.6913, 774.6340
329.1735, 770.1311
329.6556, 766.1589
330.1377, 762.9761
330.6198, 759.8097
331.1019, 756.4409
331.5840, 753.1506
332.0662, 750.3635
332.5483, 747.8022
333.0304, 746.1367
333.5125, 745.9133
333.9946, 747.6131
334.4767, 748.0157
334.9589, 746.2751
335.4410, 744.0541
335.9231, 743.6802
336.4052, 746.0807
336.8873, 747.8901
337.3694, 748.1454
337.8516, 746.9517
338.3336, 746.0214
338.8158, 745.4181
339.2979, 744.9726
339.7800, 744.4379
340.2621, 743.7462
340.7442, 743.5406
341.2263, 743.9426
341.7085, 744.9157
342.1906, 746.5917
342.6727, 749.1611
343.1548, 751.3446
343.6369, 751.8633
344.1190, 750.8551
344.6012, 750.8093
345.0833, 752.1641
345.5654, 754.2263
346.0475, 755.8644
346.5296, 757.0833
347.0117, 758.1502
347.4939, 758.8981
347.9760, 759.5626
348.4581, 761.1209
348.9402, 763.7517
349.4223, 766.4902
349.9044, 768.3605
350.3866, 769.4853
350.8687, 770.3115
351.3508, 771.0140
351.8329, 771.5431
352.3150, 771.9104
352.7971, 772.1086
353.2793, 771.8869
353.7614, 770.6540
354.2435, 768.9454
354.7256, 767.6077
355.2077, 766.8680
355.6898, 766.6047
356.1720, 766.8792
356.6541, 767.5992
357.1362, 768.3611
357.6183, 769.0483
358.1004, 769.6162
358.5826, 769.9492
359.0647, 769.8455
359.5468, 769.9681
360.0289, 770.9944
360.5110, 772.4785
360.9931, 773.5752
361.4753, 773.1045
361.9574, 772.8282
362.4395, 773.8449
362.9216, 776.4872
363.4037, 778.9032
363.8858, 780.6620
364.3680, 781.8809
364.8501, 782.6877
365.3322, 782.3558
365.8143, 782.3923
366.2964, 783.4989
366.7785, 785.6529
367.2607, 787.1232
367.7428, 786.6115
368.2249, 786.1495
368.7070, 786.9984
369.1891, 790.9397
369.6712, 793.8101
370.1534, 795.0031
370.6355, 795.0293
371.1176, 795.4456
371.5997, 796.0638
372.0818, 797.2884
372.5639, 799.4699
373.0461, 803.1806
373.5282, 805.9078
374.0103, 807.4033
374.4924, 808.1762
374.9745, 808.8781
375.4566, 809.3781
375.9388, 810.2377
376.4209, 811.6755
376.9030, 813.6871
377.3851, 815.7677
377.8672, 817.9806
378.3493, 820.2127
378.8315, 822.5687
379.3136, 825.1014
379.7957, 826.5297
380.2778, 826.0182
380.7599, 824.9002
381.2420, 826.6385
381.7242, 831.1996
382.2063, 836.6080
382.6884, 842.4327
383.1705, 848.1467
383.6526, 851.1604
384.1347, 850.6379
384.6169, 849.7058
385.0990, 852.6088
385.5811, 858.4552
386.0632, 864.2750
386.5453, 868.7596
387.0274, 872.3949
387.5096, 875.4598
387.9917, 877.9664
388.4738, 880.7806
388.9559, 885.2289
389.4380, 890.1434
389.9201, 893.9387
390.4023, 895.1516
390.8844, 896.1921
391.3665, 899.0494
391.8486, 903.2172
392.3307, 906.7197
392.8128, 908.1008
393.2950, 908.8156
393.7771, 909.8227
394.2592, 911.2975
394.7413, 912.9485
395.2234, 915.1255
395.7055, 917.3057
396.1877, 918.6874
396.6698, 918.0751
397.1519, 917.6031
397.6340, 918.0939
398.1161, 919.7325
398.5982, 920.9356
399.0804, 921.5949
399.5625, 921.8077
400.0446, 921.6317
400.5267, 920.8011
401.0088, 920.0241
401.4909, 919.4734
401.9731, 919.0566
402.4552, 918.3945
402.9373, 917.5474
403.4194, 916.3716
403.9015, 914.6613
404.3836, 912.1331
404.8658, 910.2063
405.3479, 909.0358
405.8300, 908.2569
406.3121, 907.5344
406.7942, 906.9734
407.2763, 905.6048
407.7585, 902.9414
408.2406, 899.1574
408.7227, 895.1264
409.2048, 890.7725
409.6869, 886.8365
410.1690, 884.3150
410.6512, 882.9241
411.1333, 881.1029
411.6154, 878.3614
412.0975, 875.4389
412.5796, 873.5195
413.0617, 872.4486
413.5439, 871.3993
414.0260, 869.9689
414.5081, 868.2420
414.9902, 865.9963
415.4723, 863.0849
415.9544, 861.0352
416.4366, 862.1406
416.9187, 864.7086
417.4008, 866.1949
417.8829, 864.4053
418.3650, 862.3330
418.8471, 861.3004
419.3293, 861.3597
419.8114, 862.7103
420.2935, 866.2689
420.7756, 870.6287
421.2577, 874.7993
421.7398, 878.7023
422.2220, 882.3903
422.7041, 885.7279
423.1862, 888.9094
423.6683, 892.2911
424.1504, 895.3944
424.6325, 899.2927
425.1147, 904.4699
425.5968, 911.1835
426.0789, 917.3395
426.5610, 921.7823
427.0431, 926.7170
427.5252, 934.0321
428.0074, 944.7637
428.4895, 955.4513
428.9716, 965.5752
429.4537, 975.3058
429.9358, 985.0998
430.4179, 994.9987
430.9001, 1004.684
431.3822, 1013.596
431.8643, 1021.706
432.3464, 1030.899
432.8285, 1041.231
433.3106, 1052.479
433.7928, 1064.602
434.2749, 1077.518
434.7570, 1090.560
435.2391, 1103.589
435.7212, 1116.571
436.2033, 1129.647
436.6855, 1142.671
437.1676, 1155.240
437.6497, 1166.331
438.1318, 1176.976
438.6139, 1189.231
439.0960, 1204.085
439.5782, 1218.131
440.0603, 1228.001
440.5424, 1235.150
441.0245, 1242.156
441.5066, 1251.402
441.9887, 1259.868
442.4709, 1265.934
442.9530, 1269.547
443.4351, 1271.282
443.9172, 1271.067
444.3993, 1269.175
444.8814, 1265.804
445.3636, 1260.800
445.8457, 1254.538
446.3278, 1246.828
446.8099, 1237.921
447.2920, 1228.212
447.7741, 1216.844
448.2563, 1205.618
448.7384, 1195.485
449.2205, 1186.621
449.7026, 1176.612
450.1847, 1164.840
450.6668, 1152.879
451.1490, 1142.316
451.6311, 1133.477
452.1132, 1124.648
452.5953, 1115.281
453.0774, 1105.934
453.5595, 1097.760
454.0417, 1090.822
454.5238, 1084.142
455.0059, 1076.595
455.4880, 1068.651
455.9701, 1062.541
456.4522, 1058.455
456.9344, 1055.552
457.4165, 1053.704
457.8986, 1052.367
458.3807, 1049.974
458.8628, 1045.217
459.3449, 1040.068
459.8271, 1036.850
460.3092, 1035.241
460.7913, 1033.776
461.2734, 1031.006
461.7555, 1028.379
462.2376, 1027.388
462.7198, 1028.651
463.2019, 1029.649
463.6840, 1029.287
464.1661, 1027.963
464.6482, 1026.158
465.1303, 1023.973
465.6125, 1021.321
466.0946, 1018.129
466.5767, 1014.395
467.0588, 1010.355
467.5409, 1006.415
468.0230, 1001.832
468.5052, 996.1943
468.9873, 989.0012
469.4694, 982.0761
469.9515, 975.7955
470.4336, 969.5073
470.9157, 962.0201
471.3979, 952.9453
471.8800, 944.2195
472.3621, 936.5121
472.8442, 929.5648
473.3263, 921.4360
473.8084, 911.9001
474.2906, 902.9105
474.7727, 896.1243
475.2548, 891.1670
475.7369, 886.4072
476.2190, 881.7597
476.7011, 876.8778
477.1833, 870.6627
477.6654, 863.7458
478.1475, 857.8764
478.6296, 854.6310
479.1117, 852.1956
479.5938, 848.3868
480.0760, 843.4795
480.5581, 839.4250
481.0402, 838.4349
481.5223, 838.0663
482.0044, 836.1099
482.4865, 831.3851
482.9687, 827.2835
483.4508, 825.5266
483.9329, 824.9255
484.4150, 823.8074
484.8971, 821.2235
485.3792, 818.7611
485.8614, 816.7497
486.3435, 815.1653
486.8256, 813.7453
487.3077, 812.3781
487.7898, 811.3224
488.2719, 810.8317
488.7541, 811.2621
489.2362, 811.1031
489.7183, 810.1765
490.2004, 808.8812
490.6825, 807.8162
491.1646, 807.0087
491.6468, 806.0767
492.1289, 804.8422
492.6110, 803.4309
493.0931, 801.9161
493.5752, 800.3029
494.0573, 799.3151
494.5395, 800.0756
495.0216, 801.7223
495.5037, 802.4778
495.9858, 802.0760
496.4679, 801.0375
496.9500, 799.1803
497.4322, 797.1117
497.9143, 795.8730
498.3964, 796.8562
498.8785, 797.9065
499.3606, 797.5932
499.8427, 796.2120
500.3249, 795.1660
500.8070, 795.3176
501.2891, 795.6318
501.7712, 795.5140
502.2533, 794.6345
502.7354, 794.1002
503.2176, 794.1816
503.6997, 794.5477
504.1818, 794.9049
504.6639, 795.4348
505.1460, 795.5330
505.6281, 794.7670
506.1103, 793.5350
506.5924, 793.7150
507.0745, 795.8146
507.5566, 797.4989
508.0387, 797.2792
508.5208, 795.2708
509.0030, 793.8130
509.4851, 792.9280
509.9672, 792.4860
510.4493, 792.5483
510.9314, 792.9808
511.4135, 793.3359
511.8957, 793.5592
512.3778, 793.5905
512.8599, 793.4337
513.3420, 793.0502
513.8242, 792.3070
514.3063, 790.2012
514.7884, 788.3723
515.2705, 788.5232
515.7526, 790.7762
516.2347, 792.5099
516.7169, 792.2475
517.1990, 791.2987
517.6811, 790.6330
518.1632, 790.0959
518.6453, 790.2510
519.1274, 791.7842
519.6096, 793.9176
520.0917, 795.1902
520.5738, 795.0691
521.0559, 794.9557
521.5380, 795.2758
522.0201, 795.9852
522.5023, 796.1906
522.9844, 795.6888
523.4665, 795.2809
523.9486, 795.7008
524.4307, 796.8994
524.9128, 797.7447
525.3950, 798.1183
525.8771, 798.2103
526.3592, 798.1074
526.8413, 797.8913
527.3234, 797.8857
527.8055, 798.4169
528.2877, 799.0025
528.7698, 798.9354
529.2519, 798.3754
529.7340, 798.0150
530.2161, 798.4178
530.6982, 799.0540
531.1804, 799.5647
531.6625, 799.8997
532.1446, 800.1326
532.6267, 800.1876
533.1088, 800.2147
533.5909, 800.3514
534.0731, 800.8947
534.5552, 801.2205
535.0373, 801.1342
535.5194, 800.8337
536.0015, 800.7906
536.4836, 800.9891
536.9658, 801.4953
537.4479, 802.5342
537.9300, 804.0403
538.4121, 804.5445
538.8942, 803.8258
539.3763, 802.9690
539.8585, 802.9257
540.3406, 803.5628
540.8227, 804.2159
541.3048, 804.8655
541.7869, 805.2783
542.2690, 804.7747
542.7512, 803.7891
543.2333, 803.4261
543.7154, 805.0217
544.1975, 806.6951
544.6796, 806.6370
545.1617, 805.2207
545.6439, 804.0805
546.1260, 803.9213
546.6081, 804.2997
547.0902, 805.1385
547.5723, 806.6527
548.0544, 807.6418
548.5366, 807.9686
549.0187, 807.6833
549.5008, 806.7214
549.9829, 803.9097
550.4650, 802.6819
550.9471, 804.0909
551.4293, 806.8389
551.9114, 807.6334
552.3935, 805.9781
552.8756, 804.8090
553.3577, 805.5275
553.8398, 807.6396
554.3220, 808.9201
554.8041, 809.3621
555.2862, 809.2590
555.7683, 808.5591
556.2504, 807.5361
556.7325, 806.6656
557.2147, 805.9740
557.6968, 805.6291
558.1789, 806.1101
558.6610, 806.9426
559.1431, 807.4235
559.6252, 806.7236
560.1074, 806.2068
560.5895, 806.5398
561.0716, 807.5055
561.5537, 808.3742
562.0358, 809.5186
562.5179, 810.0361
563.0001, 809.3406
563.4822, 807.2535
563.9643, 805.9633
564.4464, 805.6595
564.9285, 805.8941
565.4106, 806.5342
565.8928, 807.7506
566.3749, 808.1015
566.8570, 807.1680
567.3391, 806.0349
567.8212, 806.6849
568.3033, 808.8502
568.7855, 810.4864
569.2676, 810.7330
569.7497, 810.2585
570.2318, 809.7934
570.7139, 809.4124
571.1960, 809.4092
571.6782, 810.7507
572.1603, 812.0053
572.6424, 811.6147
573.1245, 809.3105
573.6066, 807.6863
574.0887, 807.7864
574.5709, 808.9264
575.0530, 810.6115
575.5351, 814.5834
576.0172, 816.4506
576.4993, 814.9104
576.9814, 811.8051
577.4636, 810.0683
577.9457, 809.9548
578.4278, 810.6069
578.9099, 812.1024
579.3920, 814.1126
579.8741, 815.4273
580.3563, 816.0194
580.8384, 816.1369
581.3205, 815.8190
581.8026, 815.1381
582.2847, 814.1303
582.7668, 812.7776
583.2490, 811.7867
583.7311, 812.0359
584.2132, 812.8899
584.6953, 813.5007
585.1774, 813.5148
