##NAMES=Annite
##RRUFFID=R060204
##IDEAL CHEMISTRY=KFe^2+^_3_AlSi_3_O_10_(OH)_2_
##LOCALITY=Mont Saint-Hilaire, Rouville County, Quebec, Canada
##OWNER=RRUFF
##SOURCE=Royal Ontario Museum
##DESCRIPTION=Black mica with pseudohexagonal outines
##STATUS=The identification of this mineral has been confirmed by X-ray diffraction and chemical analysis
##URL=rruff.info/R060204
##MEASURED CHEMISTRY=(K_0.96_Na_0.04_)_Σ=1_(Fe^2+^_2.04_Mg_0.81_Mn_0.09_Ti_0.03_[box]_0.03_)_Σ=3_(Si_3.00_Al_1.00_)O_10_((OH)_1.54_F_0.46_)_Σ=2_
92.07813, 36.86240
92.56024, 36.58401
93.04236, 36.97272
93.52448, 37.78623
94.00659, 38.12907
94.48871, 36.82312
94.97083, 34.63280
95.45294, 33.76027
95.93506, 34.79969
96.41718, 36.56245
96.89929, 36.75531
97.38141, 35.35275
97.86353, 34.07319
98.34564, 34.45968
98.82776, 36.41295
99.30988, 37.81923
99.79199, 38.25917
100.2741, 37.93891
100.7562, 37.62090
101.2383, 37.30133
101.7205, 36.99230
102.2026, 36.72845
102.6847, 36.55239
103.1668, 36.23954
103.6489, 35.60344
104.1310, 34.62902
104.6132, 34.30017
105.0953, 34.91565
105.5774, 35.89881
106.0595, 36.56066
106.5416, 36.91948
107.0237, 36.92768
107.5059, 36.43913
107.9880, 35.10271
108.4701, 34.37386
108.9522, 34.42944
109.4343, 35.05428
109.9164, 35.86550
110.3986, 37.56622
110.8807, 38.84778
111.3628, 39.26102
111.8449, 37.97514
112.3270, 37.15105
112.8091, 36.71128
113.2913, 36.79723
113.7734, 37.77891
114.2555, 40.90892
114.7376, 44.18641
115.2197, 46.49802
115.7018, 46.39164
116.1840, 46.75705
116.6661, 48.32360
117.1482, 50.99363
117.6303, 54.24438
118.1124, 58.23096
118.5945, 62.60987
119.0767, 67.04765
119.5588, 70.79321
120.0409, 75.14489
120.5230, 80.85905
121.0051, 87.87557
121.4872, 95.55778
121.9694, 103.2202
122.4515, 111.3114
122.9336, 120.4939
123.4157, 131.4102
123.8978, 143.2309
124.3799, 155.1658
124.8621, 167.1639
125.3442, 179.5489
125.8263, 193.3978
126.3084, 207.9527
126.7905, 221.4155
127.2726, 232.2801
127.7548, 241.5225
128.2369, 250.4905
128.7190, 259.2197
129.2011, 267.9357
129.6832, 277.1358
130.1653, 286.6358
130.6474, 295.8451
131.1296, 303.5220
131.6117, 310.3919
132.0938, 319.4018
132.5759, 331.1235
133.0580, 344.7483
133.5401, 358.2395
134.0223, 371.6037
134.5044, 386.5345
134.9865, 404.8058
135.4686, 426.4989
135.9507, 447.9109
136.4328, 468.6797
136.9150, 489.1640
137.3971, 510.1772
137.8792, 531.9633
138.3613, 553.7765
138.8434, 575.2902
139.3255, 596.5163
139.8077, 616.6813
140.2898, 636.0682
140.7719, 654.3890
141.2540, 670.5056
141.7361, 683.9250
142.2182, 695.6678
142.7004, 706.5676
143.1825, 716.3510
143.6646, 725.7685
144.1467, 734.7925
144.6288, 743.5489
145.1109, 751.6436
145.5931, 758.1210
146.0752, 764.7524
146.5573, 773.7972
147.0394, 785.8463
147.5215, 799.4100
148.0036, 813.7614
148.4858, 828.8185
148.9679, 845.8302
149.4500, 864.5350
149.9321, 885.3311
150.4142, 908.3909
150.8963, 935.7949
151.3785, 963.9484
151.8606, 991.4342
152.3427, 1018.034
152.8248, 1045.580
153.3069, 1073.842
153.7890, 1103.207
154.2712, 1130.798
154.7533, 1153.225
155.2354, 1174.987
155.7175, 1195.929
156.1996, 1215.334
156.6817, 1234.522
157.1639, 1253.718
157.6460, 1272.905
158.1281, 1291.598
158.6102, 1309.453
159.0923, 1327.010
159.5744, 1344.567
160.0566, 1361.657
160.5387, 1379.231
161.0208, 1397.604
161.5029, 1416.600
161.9850, 1435.665
162.4671, 1454.814
162.9493, 1473.909
163.4314, 1492.785
163.9135, 1510.634
164.3956, 1529.310
164.8777, 1549.441
165.3598, 1571.067
165.8420, 1594.416
166.3241, 1621.141
166.8062, 1648.883
167.2883, 1675.483
167.7704, 1699.111
168.2525, 1722.630
168.7346, 1748.209
169.2168, 1775.561
169.6989, 1803.008
170.1810, 1829.737
170.6631, 1855.926
171.1452, 1881.943
171.6273, 1908.988
172.1095, 1934.727
172.5916, 1957.182
173.0737, 1976.529
173.5558, 1994.487
174.0379, 2013.211
174.5201, 2031.208
175.0022, 2046.412
175.4843, 2058.174
175.9664, 2066.784
176.4485, 2072.045
176.9306, 2074.067
177.4128, 2073.752
177.8949, 2072.883
178.3770, 2070.308
178.8591, 2063.441
179.3412, 2049.776
179.8233, 2031.657
180.3055, 2013.025
180.7876, 1993.832
181.2697, 1972.502
181.7518, 1945.890
182.2339, 1915.475
182.7160, 1885.030
183.1982, 1857.578
183.6803, 1831.305
184.1624, 1801.807
184.6445, 1768.867
185.1266, 1735.191
185.6087, 1704.269
186.0909, 1675.359
186.5730, 1646.177
187.0551, 1615.117
187.5372, 1582.886
188.0193, 1550.402
188.5014, 1517.481
188.9836, 1485.465
189.4657, 1455.128
189.9478, 1426.643
190.4299, 1399.086
190.9120, 1372.376
191.3941, 1346.572
191.8763, 1321.164
192.3584, 1296.041
192.8405, 1271.938
193.3226, 1249.474
193.8047, 1228.758
194.2868, 1208.341
194.7690, 1187.114
195.2511, 1165.286
195.7332, 1144.299
196.2153, 1124.169
196.6974, 1104.956
197.1795, 1087.567
197.6617, 1071.988
198.1438, 1057.337
198.6259, 1043.468
199.1080, 1030.438
199.5901, 1017.034
200.0722, 1002.970
200.5544, 989.0276
201.0365, 976.9905
201.5186, 966.9844
202.0007, 957.5602
202.4828, 948.1205
202.9649, 938.6505
203.4471, 929.2465
203.9292, 919.7753
204.4113, 910.3679
204.8934, 900.9819
205.3755, 891.4895
205.8576, 882.8331
206.3398, 875.7048
206.8219, 870.3585
207.3040, 864.7409
207.7861, 858.7404
208.2682, 852.6124
208.7503, 846.9656
209.2325, 841.9868
209.7146, 837.0979
210.1967, 832.0387
210.6788, 826.7615
211.1609, 821.5732
211.6430, 816.4485
212.1252, 811.4267
212.6073, 806.6276
213.0894, 802.0243
213.5715, 797.7678
214.0536, 793.9161
214.5357, 790.4337
215.0179, 787.5164
215.5000, 785.3785
215.9821, 783.6376
216.4642, 781.3928
216.9463, 778.4439
217.4284, 775.4449
217.9105, 772.6166
218.3927, 769.9742
218.8748, 767.5558
219.3569, 765.4774
219.8390, 763.5565
220.3211, 761.2802
220.8032, 758.3391
221.2854, 755.6018
221.7675, 753.4348
222.2496, 752.1005
222.7317, 750.5638
223.2138, 748.7117
223.6959, 746.7116
224.1781, 744.8444
224.6602, 743.0237
225.1423, 741.5046
225.6244, 740.4572
226.1065, 740.0080
226.5886, 739.5940
227.0708, 739.1870
227.5529, 738.8232
228.0350, 738.6546
228.5171, 739.0461
228.9992, 739.0218
229.4813, 738.1959
229.9635, 736.4261
230.4456, 734.2073
230.9277, 730.8795
231.4098, 727.4677
231.8919, 726.0280
232.3740, 727.5714
232.8562, 729.5005
233.3383, 731.1171
233.8204, 732.7811
234.3025, 732.8775
234.7846, 730.7001
235.2667, 727.3491
235.7489, 724.7706
236.2310, 722.8886
236.7131, 721.9291
237.1952, 722.3314
237.6773, 724.9200
238.1594, 725.7216
238.6416, 723.7322
239.1237, 720.5781
239.6058, 718.9179
240.0879, 719.4562
240.5700, 720.3300
241.0521, 720.9840
241.5343, 721.3343
242.0164, 721.8195
242.4985, 722.5989
242.9806, 723.3905
243.4627, 723.7213
243.9448, 723.1656
244.4270, 722.8486
244.9091, 723.1747
245.3912, 724.3271
245.8733, 725.0322
246.3554, 724.9778
246.8375, 724.7058
247.3197, 725.0114
247.8018, 726.4317
248.2839, 727.4338
248.7660, 727.4064
249.2481, 726.1130
249.7302, 725.8054
250.2124, 727.0969
250.6945, 728.8260
251.1766, 729.5887
251.6587, 728.7406
252.1408, 728.2335
252.6229, 728.6714
253.1051, 730.1625
253.5872, 730.9769
254.0693, 730.4041
254.5514, 729.9600
255.0335, 731.5891
255.5156, 737.0060
255.9978, 740.6150
256.4799, 740.6733
256.9620, 737.2116
257.4441, 735.5485
257.9262, 736.4710
258.4083, 738.1446
258.8904, 738.7923
259.3726, 737.7011
259.8547, 737.3929
260.3368, 738.5729
260.8189, 741.0707
261.3010, 742.8259
261.7831, 743.6224
262.2653, 744.0178
262.7474, 744.2726
263.2295, 744.0477
263.7116, 744.7780
264.1937, 747.1451
264.6758, 750.6897
265.1580, 752.7410
265.6401, 752.6793
266.1222, 752.2781
266.6043, 752.8767
267.0864, 754.9280
267.5685, 756.3466
268.0507, 756.7311
268.5328, 756.3976
269.0149, 756.5864
269.4970, 757.5088
269.9791, 758.4692
270.4612, 758.9774
270.9434, 758.8491
271.4255, 759.1964
271.9076, 760.2952
272.3897, 761.7680
272.8718, 762.6759
273.3539, 762.9696
273.8361, 762.8215
274.3182, 762.2336
274.8003, 761.1501
275.2824, 759.8651
275.7645, 758.0438
276.2466, 756.4255
276.7288, 757.2991
277.2109, 761.5306
277.6930, 763.9681
278.1751, 761.3435
278.6572, 753.3308
279.1393, 747.1420
279.6215, 743.1407
280.1036, 740.2869
280.5857, 737.1678
281.0678, 733.8156
281.5499, 730.1104
282.0320, 725.9263
282.5142, 721.3071
282.9963, 717.0468
283.4784, 713.2086
283.9605, 709.5438
284.4426, 705.5668
284.9247, 701.2582
285.4069, 697.5655
285.8890, 695.0720
286.3711, 693.4836
286.8532, 691.1730
287.3353, 688.0429
287.8174, 684.6956
288.2996, 681.8676
288.7817, 679.4918
289.2638, 676.9213
289.7459, 673.8876
290.2280, 670.6006
290.7101, 667.6379
291.1923, 665.0127
291.6744, 662.3068
292.1565, 658.8001
292.6386, 654.7419
293.1207, 651.4383
293.6028, 649.2717
294.0850, 647.8596
294.5671, 646.6448
295.0492, 645.5908
295.5313, 644.1918
296.0134, 641.8284
296.4955, 638.8109
296.9777, 636.0191
297.4598, 633.5611
297.9419, 631.4872
298.4240, 630.0881
298.9061, 629.2697
299.3882, 628.4984
299.8704, 627.6432
300.3525, 626.6013
300.8346, 625.0144
301.3167, 622.7443
301.7988, 620.4604
302.2809, 618.9627
302.7631, 618.0634
303.2452, 617.1387
303.7273, 615.6696
304.2094, 614.0844
304.6915, 613.1303
305.1736, 612.8940
305.6558, 612.5886
306.1379, 611.1737
306.6200, 609.2103
307.1021, 607.7615
307.5842, 607.6769
308.0663, 608.0266
308.5485, 607.9258
309.0306, 607.3694
309.5127, 606.7411
309.9948, 606.2587
310.4769, 605.8636
310.9590, 605.4955
311.4412, 605.3085
311.9233, 604.9579
312.4054, 604.1428
312.8875, 602.9181
313.3696, 601.6025
313.8517, 600.1448
314.3339, 598.8156
314.8160, 597.9012
315.2981, 597.8580
315.7802, 597.6700
316.2623, 596.6052
316.7444, 594.9936
317.2266, 593.6815
317.7087, 593.3093
318.1908, 593.1814
318.6729, 592.8636
319.1550, 592.2393
319.6371, 591.5596
320.1193, 590.7355
320.6014, 589.9310
321.0835, 589.4058
321.5656, 589.5604
322.0477, 589.7226
322.5298, 589.7131
323.0120, 589.5750
323.4941, 588.8868
323.9762, 587.0934
324.4583, 584.8730
324.9404, 582.9615
325.4225, 581.5184
325.9047, 580.3438
326.3868, 579.4944
326.8689, 578.9744
327.3510, 578.4786
327.8331, 577.9711
328.3152, 577.5091
328.7974, 577.1318
329.2795, 576.6654
329.7616, 576.5089
330.2437, 577.0056
330.7258, 577.9534
331.2079, 578.2235
331.6901, 577.3873
332.1722, 576.2885
332.6543, 575.2770
333.1364, 574.0792
333.6185, 573.5047
334.1006, 573.9227
334.5828, 574.8494
335.0649, 575.1043
335.5470, 574.3037
336.0291, 573.4988
336.5112, 573.1817
336.9933, 573.5540
337.4755, 573.2838
337.9576, 572.0138
338.4397, 570.5303
338.9218, 569.9286
339.4039, 570.4026
339.8860, 571.1243
340.3681, 572.0512
340.8503, 573.1282
341.3324, 573.4136
341.8145, 572.8024
342.2966, 571.7126
342.7787, 570.2789
343.2608, 568.4716
343.7430, 567.2518
344.2251, 566.9551
344.7072, 567.2738
345.1893, 567.2496
345.6714, 566.8380
346.1535, 566.6320
346.6357, 567.1223
347.1178, 568.2188
347.5999, 569.5539
348.0820, 571.3270
348.5641, 572.7645
349.0462, 572.3256
349.5284, 570.2301
350.0105, 568.1487
350.4926, 566.9940
350.9747, 566.4753
351.4568, 565.9191
351.9389, 565.2742
352.4211, 564.8255
352.9032, 565.1938
353.3853, 566.0139
353.8674, 566.3957
354.3495, 565.7285
354.8316, 564.6148
355.3138, 563.6732
355.7959, 562.9039
356.2780, 562.2781
356.7601, 561.9719
357.2422, 561.7331
357.7243, 561.2173
358.2065, 560.2278
358.6886, 559.1145
359.1707, 558.0014
359.6528, 556.9375
360.1349, 556.0714
360.6170, 555.8582
361.0992, 555.6152
361.5813, 554.7154
362.0634, 552.7868
362.5455, 551.1569
363.0276, 550.5882
363.5097, 550.5980
363.9919, 550.4700
364.4740, 549.9133
364.9561, 549.2438
365.4382, 548.6120
365.9203, 548.0388
366.4024, 547.2695
366.8846, 546.0208
367.3667, 544.6759
367.8488, 543.5465
368.3309, 543.1752
368.8130, 542.4587
369.2951, 540.9446
369.7773, 538.8107
370.2594, 537.3023
370.7415, 536.9083
371.2236, 536.6898
371.7057, 536.2488
372.1878, 535.6424
372.6700, 534.6781
373.1521, 533.0936
373.6342, 531.2744
374.1163, 530.0239
374.5984, 529.6801
375.0805, 529.2629
375.5627, 528.4743
376.0448, 527.2929
376.5269, 525.7711
377.0090, 523.5990
377.4911, 521.5892
377.9732, 520.8050
378.4554, 521.4922
378.9375, 521.8021
379.4196, 521.2386
379.9017, 520.0634
380.3838, 519.1867
380.8659, 518.6359
381.3481, 518.2502
381.8302, 517.9500
382.3123, 517.7345
382.7944, 517.6223
383.2765, 517.6796
383.7586, 517.6902
384.2408, 517.1425
384.7229, 516.1571
385.2050, 515.4266
385.6871, 515.6902
386.1692, 516.3624
386.6513, 516.1598
387.1335, 515.0157
387.6156, 513.8629
388.0977, 513.4055
388.5798, 513.5583
389.0619, 514.2307
389.5440, 516.0646
390.0262, 517.7067
390.5083, 517.6060
390.9904, 516.0927
391.4725, 514.7346
391.9546, 514.6876
392.4367, 515.0557
392.9189, 515.0738
393.4010, 514.5380
393.8831, 513.7795
394.3652, 512.6820
394.8473, 511.5187
395.3294, 510.7364
395.8116, 511.0456
396.2937, 511.2892
396.7758, 510.7887
397.2579, 509.3839
397.7400, 508.5336
398.2221, 509.0379
398.7043, 509.9527
399.1864, 510.5102
399.6685, 510.3788
400.1506, 510.1847
400.6327, 509.9951
401.1148, 509.7918
401.5970, 509.4867
402.0791, 509.0215
402.5612, 508.5252
403.0433, 508.0444
403.5254, 507.5551
404.0075, 507.1825
404.4897, 507.0165
404.9718, 506.9076
405.4539, 506.6286
405.9360, 506.1640
406.4181, 505.5947
406.9002, 504.8864
407.3824, 504.0759
407.8645, 503.3865
408.3466, 502.7705
408.8287, 502.4448
409.3108, 502.9711
409.7929, 504.2628
410.2751, 504.4800
410.7572, 503.0870
411.2393, 500.8990
411.7214, 499.3494
412.2035, 498.3928
412.6856, 497.7343
413.1678, 497.3377
413.6499, 497.0977
414.1320, 496.9043
414.6141, 496.7879
415.0962, 496.3433
415.5783, 494.6737
416.0605, 492.4667
416.5426, 490.9960
417.0247, 491.1846
417.5068, 491.8845
417.9889, 492.3976
418.4710, 492.6559
418.9532, 492.3359
419.4353, 490.7124
419.9174, 488.7506
420.3995, 487.2722
420.8816, 486.5832
421.3637, 485.8901
421.8459, 483.9548
422.3280, 482.0016
422.8101, 481.8827
423.2922, 487.3976
423.7743, 491.6224
424.2564, 491.6392
424.7386, 487.0402
425.2207, 483.3910
425.7028, 481.9450
426.1849, 481.1195
426.6670, 479.8734
427.1491, 477.5493
427.6313, 475.8949
428.1134, 475.2940
428.5955, 475.3822
429.0776, 475.2035
429.5597, 474.7961
430.0418, 474.0469
430.5240, 472.7924
431.0061, 470.9787
431.4882, 469.5068
431.9703, 468.4648
432.4524, 467.5855
432.9345, 466.4599
433.4167, 465.0700
433.8988, 464.1249
434.3809, 463.9419
434.8630, 464.1865
435.3451, 464.0648
435.8272, 463.5838
436.3094, 462.9879
436.7915, 462.2647
437.2736, 461.5605
437.7557, 461.4175
438.2378, 462.0013
438.7199, 462.4124
439.2020, 461.5498
439.6841, 459.8514
440.1663, 458.2139
440.6484, 456.6639
441.1305, 455.5780
441.6126, 455.7023
442.0947, 456.7991
442.5768, 457.4138
443.0590, 456.0771
443.5411, 454.3671
444.0232, 453.6484
444.5053, 454.8445
444.9874, 455.5488
445.4695, 454.2480
445.9517, 452.0956
446.4338, 450.9436
446.9159, 452.7914
447.3980, 454.0351
447.8801, 453.1382
448.3622, 449.8740
448.8444, 448.1113
449.3265, 449.0366
449.8086, 450.4300
450.2907, 450.8190
450.7728, 449.6449
451.2549, 448.6905
451.7371, 447.8946
452.2192, 447.4776
452.7013, 448.2541
453.1834, 450.7305
453.6655, 452.4983
454.1476, 452.3739
454.6298, 450.5419
455.1119, 449.0003
455.5940, 447.7865
456.0761, 446.7154
456.5582, 445.5397
457.0403, 444.3233
457.5225, 443.4665
458.0046, 443.1087
458.4867, 443.0565
458.9688, 442.9387
459.4509, 442.8476
459.9330, 443.1784
460.4152, 444.6429
460.8973, 446.4108
461.3794, 447.4887
461.8615, 447.8335
462.3436, 447.7968
462.8257, 447.1808
463.3079, 446.4848
463.7900, 446.2831
464.2721, 447.1690
464.7542, 448.0570
465.2363, 448.6694
465.7184, 448.9704
466.2006, 448.8548
466.6827, 447.2236
467.1648, 446.1129
467.6469, 446.6666
468.1290, 449.6557
468.6111, 451.4834
469.0933, 451.3078
469.5754, 450.4783
470.0575, 450.1887
470.5396, 450.7494
471.0217, 451.2292
471.5038, 451.5215
471.9860, 451.6635
472.4681, 451.7739
472.9502, 451.8412
473.4323, 451.9111
473.9144, 451.8625
474.3965, 451.7144
474.8787, 452.3296
475.3608, 453.8335
475.8429, 455.4757
476.3250, 456.3968
476.8071, 456.6963
477.2892, 456.8307
477.7714, 456.7478
478.2535, 456.7984
478.7356, 457.7195
479.2177, 459.3141
479.6998, 460.7080
480.1819, 461.4532
480.6641, 461.7306
481.1462, 461.5268
481.6283, 460.8031
482.1104, 460.3706
482.5925, 460.9077
483.0746, 461.8977
483.5568, 462.8098
484.0389, 462.9678
484.5210, 464.3235
485.0031, 465.2445
485.4852, 465.7540
485.9673, 464.6199
486.4495, 465.6083
486.9316, 465.7461
487.4137, 465.8490
487.8958, 467.1360
488.3779, 466.2410
488.8600, 467.5092
489.3422, 467.9140
489.8243, 468.7140
490.3064, 468.6581
490.7885, 468.8845
491.2706, 469.2875
491.7527, 469.0358
492.2349, 468.5593
492.7170, 467.8007
493.1991, 467.5366
493.6812, 468.2717
494.1633, 467.7498
494.6454, 469.0139
495.1276, 469.8432
495.6097, 470.2612
496.0918, 469.0354
496.5739, 469.9321
497.0560, 469.9782
497.5381, 469.9894
498.0203, 471.1849
498.5024, 470.1982
498.9845, 471.3748
499.4666, 471.6879
499.9487, 472.3961
500.4308, 472.2486
500.9130, 472.3655
501.3951, 473.1567
501.8772, 472.7333
502.3593, 472.1563
502.8414, 471.8514
503.3235, 472.1308
503.8057, 474.0603
504.2878, 475.0493
504.7699, 474.4095
505.2520, 473.0222
505.7341, 472.3423
506.2162, 472.5338
506.6984, 473.1270
507.1805, 474.2249
507.6626, 475.7007
508.1447, 476.2881
508.6268, 475.8138
509.1089, 475.0776
509.5911, 474.4535
510.0732, 473.9778
510.5553, 474.2728
511.0374, 475.5822
511.5195, 476.9025
512.0016, 476.6299
512.4838, 475.2365
512.9659, 474.3244
513.4480, 474.8284
513.9301, 475.7199
514.4122, 475.6006
514.8943, 474.7555
515.3765, 474.3829
515.8586, 474.8599
516.3407, 475.7987
516.8228, 476.3026
517.3049, 476.3952
517.7870, 474.8441
518.2692, 475.4154
518.7513, 475.1362
519.2334, 474.8221
519.7155, 475.6921
520.1976, 474.3801
520.6797, 475.2314
521.1619, 475.2191
521.6440, 475.6020
522.1261, 475.0614
522.6082, 474.8467
523.0903, 475.2218
523.5724, 476.2086
524.0546, 476.7456
524.5367, 476.7840
525.0188, 476.5273
525.5009, 476.0331
525.9830, 474.4747
526.4651, 475.4218
526.9473, 475.9343
527.4294, 476.0352
527.9115, 474.4926
528.3936, 475.0724
528.8757, 474.8016
529.3578, 474.4959
529.8400, 475.3744
530.3221, 474.0708
530.8042, 474.9305
531.2863, 474.9267
531.7684, 475.3181
532.2505, 474.8536
532.7327, 474.6535
533.2148, 475.3095
533.6969, 475.4915
534.1790, 474.9286
534.6611, 475.3451
535.1432, 474.0116
535.6254, 474.2137
536.1075, 475.0785
536.5896, 474.5586
537.0717, 474.9907
537.5538, 475.0603
538.0359, 473.4819
538.5181, 474.7694
539.0002, 474.8176
539.4823, 473.5931
539.9644, 474.7824
540.4465, 473.7334
540.9286, 473.4834
541.4108, 473.8345
541.8929, 473.5590
542.3750, 474.2716
542.8571, 474.0322
543.3392, 473.7077
543.8214, 473.7544
544.3035, 472.7493
544.7856, 473.6956
545.2677, 473.3089
545.7498, 472.6153
546.2319, 472.3942
546.7141, 472.7114
547.1962, 472.7637
547.6783, 472.0255
548.1604, 471.0817
548.6425, 470.1881
549.1246, 469.2847
549.6068, 468.7256
550.0889, 468.8402
550.5710, 469.1269
551.0531, 469.1324
551.5352, 468.7649
552.0173, 468.3203
552.4995, 467.8798
552.9816, 467.3586
553.4637, 466.4909
553.9458, 465.2272
554.4279, 463.9729
554.9100, 462.8895
555.3922, 461.9552
555.8743, 461.2008
556.3564, 460.6354
556.8385, 459.8103
557.3206, 457.7499
557.8027, 455.3571
558.2849, 454.4327
558.7670, 455.5770
559.2491, 456.5795
559.7312, 455.3755
560.2133, 453.0919
560.6954, 451.2614
561.1776, 450.6276
561.6597, 450.3178
562.1418, 450.2636
562.6239, 450.3424
563.1060, 450.1304
563.5881, 449.3667
564.0703, 448.4990
564.5524, 447.6625
565.0345, 446.8783
565.5166, 445.9153
565.9987, 444.6205
566.4808, 443.4090
566.9630, 442.5049
567.4451, 441.8960
567.9272, 442.0694
568.4093, 443.3602
568.8914, 444.6413
569.3735, 444.1593
569.8557, 442.1979
570.3378, 440.0284
570.8199, 437.8246
571.3020, 435.9517
571.7841, 435.1377
572.2662, 435.1527
572.7484, 435.1500
573.2305, 434.6835
573.7126, 434.0233
574.1947, 433.2510
574.6768, 432.3644
575.1589, 431.7189
575.6411, 431.6164
576.1232, 431.6823
576.6053, 431.6687
577.0874, 431.6613
577.5695, 431.3863
578.0516, 430.7306
578.5338, 429.8806
579.0159, 429.0579
579.4980, 428.2335
579.9801, 427.5851
580.4622, 427.1549
580.9443, 426.9297
581.4265, 426.9731
581.9086, 427.2861
582.3907, 427.4984
582.8728, 427.2142
583.3549, 426.7283
583.8370, 426.7935
584.3192, 427.4091
584.8013, 427.8880
585.2834, 427.4695
585.7655, 426.7565
