##NAMES=Anorthite
##RRUFFID=R070510
##IDEAL CHEMISTRY=CaAl_2_Si_2_O_8_
##LOCALITY=Larvik, Vestfold, Norway
##OWNER=RRUFF
##SOURCE=James Shigley
##DESCRIPTION=Colorless to white vitreous crystals. Variety bytownite.
##STATUS=The identification of this mineral is confirmed by single-crystal X-ray diffraction and chemical analysis.
##URL=rruff.info/R070510
##MEASURED CHEMISTRY=Na_0.20_Ca_0.80_(Al_1.80_Si_2.20_)_Î£=4_O_8_
164.7905, 8730.250
165.2726, 8731.994
165.7547, 8749.249
166.2368, 8766.213
166.7189, 8781.209
167.2011, 8799.454
167.6832, 8830.011
168.1653, 8865.710
168.6474, 8889.562
169.1295, 8886.462
169.6116, 8857.599
170.0938, 8863.355
170.5759, 8950.775
171.0580, 9020.934
171.5401, 9032.995
172.0222, 9003.217
172.5043, 8971.224
172.9865, 8965.166
173.4686, 8984.841
173.9507, 9007.436
174.4328, 9044.236
174.9149, 9071.669
175.3970, 9077.857
175.8792, 9067.129
176.3613, 9050.149
176.8434, 9033.070
177.3255, 9015.550
177.8076, 9012.216
178.2897, 9032.538
178.7719, 9053.783
179.2540, 9071.949
179.7361, 9084.485
180.2182, 9085.101
180.7003, 9066.580
181.1824, 9028.839
181.6646, 9015.525
182.1467, 9043.813
182.6288, 9073.228
183.1109, 9092.551
183.5930, 9100.558
184.0751, 9096.091
184.5573, 9075.906
185.0394, 9040.767
185.5215, 9021.411
186.0036, 9020.684
186.4857, 9028.384
186.9678, 9044.688
187.4500, 9066.652
187.9321, 9088.125
188.4142, 9105.732
188.8963, 9119.188
189.3784, 9123.751
189.8605, 9105.168
190.3427, 9093.694
190.8248, 9104.496
191.3069, 9132.521
191.7890, 9164.517
192.2711, 9193.414
192.7532, 9218.424
193.2353, 9230.636
193.7175, 9215.442
194.1996, 9205.416
194.6817, 9215.856
195.1638, 9241.824
195.6459, 9271.401
196.1280, 9299.425
196.6102, 9324.188
197.0923, 9330.118
197.5744, 9308.948
198.0565, 9282.910
198.5386, 9256.415
199.0207, 9230.820
199.5029, 9209.620
199.9850, 9195.757
200.4671, 9187.009
200.9492, 9168.843
201.4313, 9140.673
201.9134, 9106.723
202.3956, 9065.266
202.8777, 9019.005
203.3598, 8972.841
203.8419, 8929.460
204.3240, 8888.133
204.8061, 8846.056
205.2883, 8804.301
205.7704, 8760.219
206.2525, 8709.824
206.7346, 8656.795
207.2167, 8608.179
207.6988, 8567.814
208.1810, 8533.170
208.6631, 8497.229
209.1452, 8454.564
209.6273, 8417.092
210.1094, 8387.386
210.5915, 8364.226
211.0737, 8345.781
211.5558, 8331.367
212.0379, 8321.162
212.5200, 8316.452
213.0021, 8322.326
213.4842, 8325.504
213.9664, 8330.733
214.4485, 8330.304
214.9306, 8308.646
215.4127, 8258.811
215.8948, 8198.344
216.3769, 8162.915
216.8590, 8168.164
217.3412, 8170.638
217.8233, 8162.254
218.3054, 8150.812
218.7875, 8144.976
219.2696, 8147.362
219.7517, 8155.774
220.2339, 8167.613
220.7160, 8189.623
221.1981, 8200.558
221.6802, 8188.581
222.1623, 8171.137
222.6444, 8164.598
223.1266, 8172.732
223.6087, 8190.162
224.0908, 8210.609
224.5729, 8237.227
225.0550, 8258.606
225.5371, 8273.854
226.0193, 8284.754
226.5014, 8289.109
226.9835, 8288.018
227.4656, 8290.630
227.9477, 8307.974
228.4298, 8345.292
228.9120, 8378.204
229.3941, 8407.943
229.8762, 8432.985
230.3583, 8450.776
230.8404, 8462.095
231.3225, 8470.809
231.8047, 8479.736
232.2868, 8488.110
232.7689, 8503.291
233.2510, 8519.841
233.7331, 8546.291
234.2152, 8594.928
234.6974, 8659.326
235.1795, 8717.775
235.6616, 8752.193
236.1437, 8762.043
236.6258, 8785.216
237.1079, 8827.728
237.5900, 8875.130
238.0722, 8922.058
238.5543, 8970.243
239.0364, 9026.779
239.5185, 9098.590
240.0006, 9181.188
240.4827, 9239.001
240.9649, 9233.455
241.4470, 9246.506
241.9291, 9310.125
242.4112, 9398.576
242.8933, 9469.888
243.3754, 9501.544
243.8576, 9508.520
244.3397, 9545.161
244.8218, 9657.124
245.3039, 9743.014
245.7860, 9782.711
246.2681, 9798.159
246.7503, 9814.021
247.2324, 9840.003
247.7145, 9867.375
248.1966, 9874.836
248.6787, 9834.855
249.1608, 9821.656
249.6430, 9856.841
250.1251, 9905.701
250.6072, 9943.681
251.0893, 9963.621
251.5714, 9969.425
252.0535, 9965.157
252.5357, 9945.874
253.0178, 9928.387
253.4999, 9910.406
253.9820, 9895.921
254.4641, 9889.796
254.9462, 9891.066
255.4284, 9892.903
255.9105, 9888.974
256.3926, 9879.593
256.8747, 9862.679
257.3568, 9829.590
257.8389, 9796.221
258.3210, 9762.936
258.8032, 9733.578
259.2853, 9716.915
259.7674, 9724.297
260.2495, 9754.196
260.7316, 9772.668
261.2137, 9777.813
261.6959, 9772.357
262.1780, 9749.114
262.6601, 9717.487
263.1422, 9694.513
263.6243, 9691.981
264.1064, 9703.880
264.5886, 9710.826
265.0707, 9713.232
265.5528, 9709.499
266.0349, 9691.507
266.5170, 9670.575
266.9991, 9664.029
267.4813, 9684.506
267.9634, 9708.238
268.4455, 9686.426
268.9276, 9602.703
269.4097, 9540.037
269.8918, 9549.090
270.3740, 9581.117
270.8561, 9599.195
271.3382, 9595.370
271.8203, 9579.301
272.3024, 9557.009
272.7845, 9528.441
273.2667, 9502.357
273.7488, 9478.715
274.2309, 9460.896
274.7130, 9453.120
275.1951, 9455.692
275.6772, 9459.105
276.1594, 9457.865
276.6415, 9452.653
277.1236, 9445.174
277.6057, 9433.876
278.0878, 9423.878
278.5699, 9422.546
279.0521, 9428.236
279.5342, 9430.050
280.0163, 9418.233
280.4984, 9402.366
280.9805, 9398.771
281.4626, 9410.228
281.9448, 9424.612
282.4269, 9435.475
282.9090, 9441.782
283.3911, 9439.158
283.8732, 9416.478
284.3553, 9392.435
284.8375, 9388.912
285.3196, 9402.790
285.8017, 9404.759
286.2838, 9375.021
286.7659, 9320.203
287.2480, 9270.612
287.7302, 9231.710
288.2123, 9191.699
288.6944, 9147.581
289.1765, 9098.631
289.6586, 9043.082
290.1407, 8979.801
290.6229, 8910.525
291.1050, 8837.924
291.5871, 8749.809
292.0692, 8679.535
292.5513, 8650.058
293.0334, 8632.414
293.5155, 8589.070
293.9977, 8511.802
294.4798, 8427.428
294.9619, 8375.162
295.4440, 8374.679
295.9261, 8349.312
296.4082, 8280.950
296.8904, 8204.349
297.3725, 8141.059
297.8546, 8091.887
298.3367, 8046.308
298.8188, 7995.750
299.3009, 7939.526
299.7831, 7882.944
300.2652, 7818.983
300.7473, 7761.896
301.2294, 7716.778
301.7115, 7681.488
302.1936, 7653.302
302.6758, 7631.569
303.1579, 7613.618
303.6400, 7588.001
304.1221, 7544.550
304.6042, 7509.749
305.0863, 7496.136
305.5685, 7488.298
306.0506, 7469.604
306.5327, 7434.707
307.0148, 7394.451
307.4969, 7364.213
307.9790, 7344.925
308.4612, 7333.205
308.9433, 7338.529
309.4254, 7344.304
309.9075, 7341.089
310.3896, 7328.430
310.8717, 7312.254
311.3539, 7296.115
311.8360, 7280.259
312.3181, 7267.176
312.8002, 7257.454
313.2823, 7250.057
313.7644, 7241.595
314.2466, 7234.303
314.7287, 7234.467
315.2108, 7252.302
315.6929, 7276.293
316.1750, 7284.161
316.6571, 7273.338
317.1393, 7260.245
317.6214, 7252.312
318.1035, 7248.306
318.5856, 7245.494
319.0677, 7240.298
319.5498, 7241.202
320.0320, 7258.575
320.5141, 7288.910
320.9962, 7317.908
321.4783, 7343.628
321.9604, 7360.675
322.4425, 7353.366
322.9247, 7311.563
323.4068, 7287.694
323.8889, 7315.739
324.3710, 7363.064
324.8531, 7385.124
325.3352, 7372.792
325.8174, 7343.951
326.2995, 7314.811
326.7816, 7284.104
327.2637, 7264.916
327.7458, 7268.114
328.2279, 7273.058
328.7101, 7268.135
329.1922, 7253.969
329.6743, 7234.965
330.1564, 7212.740
330.6385, 7189.031
331.1206, 7178.574
331.6028, 7203.326
332.0849, 7215.537
332.5670, 7195.784
333.0491, 7163.533
333.5312, 7142.297
334.0133, 7141.402
334.4955, 7154.122
334.9776, 7169.924
335.4597, 7196.029
335.9418, 7208.565
336.4239, 7199.896
336.9060, 7184.285
337.3882, 7168.713
337.8703, 7154.617
338.3524, 7141.158
338.8345, 7123.932
339.3166, 7102.923
339.7987, 7100.838
340.2808, 7133.309
340.7629, 7164.455
341.2451, 7181.992
341.7272, 7186.886
342.2093, 7179.553
342.6914, 7153.403
343.1735, 7122.238
343.6556, 7115.535
344.1378, 7138.632
344.6199, 7153.211
345.1020, 7133.088
345.5841, 7101.686
346.0662, 7089.903
346.5483, 7105.642
347.0305, 7121.629
347.5126, 7118.881
347.9947, 7101.771
348.4768, 7082.512
348.9589, 7062.192
349.4410, 7045.013
349.9232, 7040.005
350.4053, 7047.514
350.8874, 7045.657
351.3695, 7023.250
351.8516, 6994.859
352.3337, 6974.590
352.8159, 6962.513
353.2980, 6947.502
353.7801, 6918.676
354.2622, 6878.931
354.7443, 6863.750
355.2264, 6904.030
355.7086, 6928.326
356.1907, 6898.655
356.6728, 6844.615
357.1549, 6812.324
357.6370, 6819.933
358.1191, 6850.067
358.6013, 6869.177
359.0834, 6870.676
359.5655, 6872.469
360.0476, 6872.877
360.5297, 6874.744
361.0118, 6880.091
361.4940, 6888.827
361.9761, 6899.674
362.4582, 6912.888
362.9403, 6928.124
363.4224, 6935.672
363.9045, 6926.726
364.3867, 6921.837
364.8688, 6933.062
365.3509, 6951.068
365.8330, 6962.226
366.3151, 6960.288
366.7972, 6950.490
367.2794, 6939.884
367.7615, 6928.393
368.2436, 6916.280
368.7257, 6901.790
369.2078, 6888.195
369.6899, 6879.734
370.1721, 6877.036
370.6542, 6872.683
371.1363, 6863.759
371.6184, 6850.305
372.1005, 6829.195
372.5826, 6798.158
373.0648, 6772.146
373.5469, 6766.203
374.0290, 6779.262
374.5111, 6788.720
374.9932, 6793.115
375.4753, 6794.281
375.9575, 6791.765
376.4396, 6786.796
376.9217, 6783.148
377.4038, 6783.119
377.8859, 6783.963
378.3680, 6778.459
378.8502, 6752.089
379.3323, 6739.336
379.8144, 6750.345
380.2965, 6769.024
380.7786, 6781.012
381.2607, 6784.921
381.7429, 6790.115
382.2250, 6808.652
382.7071, 6842.691
383.1892, 6860.477
383.6713, 6841.222
384.1534, 6827.076
384.6355, 6835.848
385.1176, 6856.400
385.5998, 6868.351
386.0819, 6859.819
386.5640, 6845.149
387.0461, 6854.042
387.5282, 6892.253
388.0103, 6924.098
388.4925, 6935.937
388.9746, 6940.747
389.4567, 6943.417
389.9388, 6944.516
390.4209, 6962.315
390.9030, 7025.747
391.3852, 7110.835
391.8673, 7160.605
392.3494, 7164.806
392.8315, 7159.500
393.3136, 7168.627
393.7957, 7191.735
394.2779, 7221.205
394.7600, 7261.815
395.2421, 7304.199
395.7242, 7346.075
396.2063, 7385.927
396.6884, 7418.041
397.1706, 7439.110
397.6527, 7458.125
398.1348, 7492.701
398.6169, 7557.660
399.0990, 7610.540
399.5811, 7650.912
400.0633, 7680.457
400.5454, 7696.062
401.0275, 7700.580
401.5096, 7703.404
401.9917, 7712.773
402.4738, 7727.327
402.9560, 7734.371
403.4381, 7734.136
403.9202, 7724.661
404.4023, 7700.626
404.8844, 7670.304
405.3665, 7643.070
405.8487, 7621.919
406.3308, 7601.089
406.8129, 7573.618
407.2950, 7539.637
407.7771, 7502.745
408.2592, 7457.768
408.7414, 7418.347
409.2235, 7399.486
409.7056, 7396.819
410.1877, 7390.186
410.6698, 7371.400
411.1519, 7346.214
411.6341, 7321.928
412.1162, 7298.086
412.5983, 7266.542
413.0804, 7219.164
413.5625, 7164.525
414.0446, 7130.293
414.5268, 7126.793
415.0089, 7120.771
415.4910, 7107.613
415.9731, 7088.008
416.4552, 7056.141
416.9373, 7014.041
417.4195, 6980.212
417.9016, 6974.585
418.3837, 6999.141
418.8658, 7024.364
419.3479, 7057.536
419.8300, 7083.375
420.3122, 7094.027
420.7943, 7096.222
421.2764, 7098.688
421.7585, 7104.959
422.2406, 7114.535
422.7227, 7130.023
423.2049, 7154.274
423.6870, 7164.677
424.1691, 7146.828
424.6512, 7124.186
425.1333, 7116.343
425.6154, 7120.497
426.0976, 7118.031
426.5797, 7092.650
427.0618, 7058.717
427.5439, 7039.112
428.0260, 7034.260
428.5081, 7030.253
428.9902, 7019.846
429.4724, 7004.920
429.9545, 6991.063
430.4366, 6978.519
430.9187, 6966.090
431.4008, 6951.145
431.8829, 6937.077
432.3651, 6933.254
432.8472, 6939.168
433.3293, 6935.175
433.8114, 6896.454
434.2935, 6817.662
434.7756, 6779.748
435.2578, 6821.372
435.7399, 6861.120
436.2220, 6878.799
436.7041, 6882.514
437.1862, 6883.707
437.6683, 6886.812
438.1505, 6892.501
438.6326, 6903.999
439.1147, 6922.825
439.5968, 6934.646
440.0789, 6939.135
440.5610, 6933.570
441.0432, 6905.747
441.5253, 6864.322
442.0074, 6843.135
442.4895, 6879.711
442.9716, 6930.526
443.4537, 6934.304
443.9359, 6894.890
444.4180, 6861.661
444.9001, 6858.448
445.3822, 6873.430
445.8643, 6882.315
446.3464, 6888.676
446.8286, 6881.955
447.3107, 6842.773
447.7928, 6801.082
448.2749, 6788.697
448.7570, 6804.750
449.2391, 6824.683
449.7213, 6829.623
450.2034, 6820.343
450.6855, 6804.410
451.1676, 6764.508
451.6497, 6742.345
452.1318, 6756.566
452.6140, 6784.086
453.0961, 6802.296
453.5782, 6805.812
454.0603, 6805.111
454.5424, 6809.120
455.0245, 6817.900
455.5067, 6833.276
455.9888, 6859.480
456.4709, 6884.042
456.9530, 6895.023
457.4351, 6898.689
457.9172, 6907.418
458.3994, 6925.175
458.8815, 6946.323
459.3636, 6976.442
459.8457, 7006.708
460.3278, 7009.029
460.8099, 6971.948
461.2921, 6926.584
461.7742, 6916.209
462.2563, 6953.563
462.7384, 6973.008
463.2205, 6947.091
463.7026, 6931.577
464.1848, 6965.479
464.6669, 7028.357
465.1490, 7077.563
465.6311, 7090.365
466.1132, 7084.018
466.5953, 7096.983
467.0775, 7137.398
467.5596, 7169.055
468.0417, 7170.813
468.5238, 7177.039
469.0059, 7212.451
469.4880, 7271.716
469.9702, 7328.397
470.4523, 7364.821
470.9344, 7392.819
471.4165, 7433.082
471.8986, 7485.107
472.3807, 7533.221
472.8629, 7567.681
473.3449, 7597.090
473.8271, 7639.291
474.3092, 7696.771
474.7913, 7755.097
475.2734, 7812.829
475.7555, 7869.749
476.2376, 7923.165
476.7198, 7974.581
477.2019, 8029.934
477.6840, 8093.349
478.1661, 8164.090
478.6482, 8239.992
479.1303, 8324.289
479.6125, 8408.293
480.0946, 8490.998
480.5767, 8572.445
481.0588, 8657.084
481.5409, 8742.652
482.0230, 8814.945
482.5052, 8852.183
482.9873, 8866.595
483.4694, 8906.555
483.9515, 8980.895
484.4336, 9042.061
484.9157, 9065.066
485.3979, 9057.388
485.8800, 9038.403
486.3621, 9002.069
486.8442, 8968.967
487.3263, 8950.458
487.8084, 8937.972
488.2906, 8923.067
488.7727, 8903.594
489.2548, 8875.717
489.7369, 8834.618
490.2190, 8781.578
490.7011, 8736.080
491.1833, 8679.108
491.6654, 8654.855
492.1475, 8693.182
492.6296, 8753.111
493.1117, 8788.392
493.5938, 8792.462
494.0760, 8803.591
494.5581, 8863.813
495.0402, 8966.375
495.5223, 9066.815
496.0044, 9160.333
496.4865, 9261.098
496.9687, 9379.379
497.4508, 9509.113
497.9329, 9638.462
498.4150, 9764.488
498.8971, 9895.259
499.3792, 10040.81
499.8614, 10190.84
500.3435, 10335.17
500.8256, 10470.40
501.3077, 10583.40
501.7898, 10660.98
502.2719, 10703.48
502.7541, 10741.38
503.2362, 10798.13
503.7183, 10820.80
504.2004, 10790.90
504.6825, 10728.00
505.1646, 10647.82
505.6468, 10555.45
506.1289, 10457.17
506.6110, 10362.82
507.0931, 10269.67
507.5752, 10154.51
508.0573, 10012.48
508.5395, 9861.088
509.0216, 9698.332
509.5037, 9535.953
509.9858, 9400.578
510.4679, 9306.872
510.9500, 9210.909
511.4322, 9084.736
511.9143, 8947.275
512.3964, 8825.613
512.8785, 8723.916
513.3606, 8634.240
513.8427, 8552.840
514.3248, 8478.067
514.8069, 8388.775
515.2891, 8260.975
515.7712, 8149.331
516.2533, 8069.146
516.7354, 8001.952
517.2175, 7931.823
517.6996, 7855.957
518.1818, 7779.090
518.6639, 7707.214
519.1460, 7638.531
519.6281, 7559.363
520.1102, 7463.807
520.5923, 7386.400
521.0745, 7356.069
521.5566, 7348.727
522.0387, 7313.648
522.5208, 7238.969
523.0029, 7172.048
523.4850, 7132.142
523.9672, 7105.266
524.4493, 7072.060
524.9314, 7034.394
525.4135, 7014.832
525.8956, 7032.810
526.3777, 7075.303
526.8599, 7085.329
527.3420, 7043.027
527.8241, 7002.278
528.3062, 6971.625
528.7883, 6942.058
529.2704, 6906.970
529.7526, 6866.477
530.2347, 6825.126
530.7168, 6783.143
531.1989, 6743.368
531.6810, 6710.950
532.1631, 6685.922
532.6453, 6667.341
533.1274, 6658.471
533.6095, 6651.001
534.0916, 6629.446
534.5737, 6590.071
535.0558, 6556.164
535.5380, 6531.175
536.0201, 6511.365
536.5022, 6493.932
536.9843, 6479.631
537.4664, 6473.577
537.9485, 6478.798
538.4307, 6485.003
538.9128, 6468.234
539.3949, 6419.958
539.8770, 6385.493
540.3591, 6374.082
540.8412, 6371.070
541.3234, 6372.978
541.8055, 6376.531
542.2876, 6373.795
542.7697, 6359.163
543.2518, 6342.098
543.7339, 6332.557
544.2161, 6327.340
544.6982, 6315.865
545.1803, 6295.080
545.6624, 6273.659
546.1445, 6260.493
546.6266, 6255.794
547.1088, 6255.653
547.5909, 6262.515
548.0730, 6270.410
548.5551, 6282.556
549.0372, 6292.520
549.5193, 6290.004
550.0015, 6273.876
550.4836, 6258.152
550.9657, 6259.604
551.4478, 6274.879
551.9299, 6282.066
552.4120, 6278.281
552.8942, 6276.111
553.3763, 6284.246
553.8584, 6296.718
554.3405, 6300.720
554.8226, 6291.586
555.3047, 6288.456
555.7869, 6312.082
556.2690, 6334.400
556.7511, 6317.834
557.2332, 6270.278
557.7153, 6235.717
558.1974, 6243.143
558.6796, 6276.403
559.1617, 6287.029
559.6438, 6266.981
560.1259, 6244.603
560.6080, 6213.496
561.0901, 6188.943
561.5723, 6183.095
562.0544, 6191.392
562.5365, 6198.354
563.0186, 6198.555
563.5007, 6193.278
563.9828, 6182.132
564.4650, 6166.376
564.9471, 6151.476
565.4292, 6139.435
565.9113, 6125.015
566.3934, 6100.988
566.8755, 6065.692
567.3577, 6039.086
567.8398, 6028.017
568.3219, 6016.174
568.8040, 5995.173
569.2861, 5972.961
569.7682, 5961.321
570.2504, 5961.986
570.7325, 5962.546
571.2146, 5951.344
571.6967, 5929.682
572.1788, 5899.442
572.6609, 5855.792
573.1431, 5827.612
573.6252, 5838.483
574.1073, 5866.541
574.5894, 5868.812
575.0715, 5838.960
575.5536, 5809.490
576.0358, 5785.809
576.5179, 5766.570
577.0000, 5748.818
577.4821, 5734.522
577.9642, 5731.970
578.4464, 5746.435
578.9285, 5766.151
579.4106, 5763.069
579.8927, 5728.999
580.3748, 5711.625
580.8569, 5730.884
581.3391, 5747.477
581.8212, 5730.426
582.3033, 5695.237
582.7854, 5678.000
583.2675, 5695.039
583.7496, 5717.800
584.2318, 5727.310
584.7139, 5729.132
585.1959, 5735.471
585.6780, 5747.670
586.1602, 5753.539
586.6423, 5741.208
587.1244, 5713.670
587.6065, 5694.293
588.0886, 5685.672
588.5707, 5681.517
589.0529, 5686.678
589.5350, 5691.346
590.0171, 5684.797
590.4992, 5669.402
590.9813, 5659.751
591.4634, 5666.285
591.9456, 5681.652
592.4277, 5702.652
592.9098, 5726.000
593.3919, 5725.870
593.8740, 5689.540
594.3561, 5645.551
594.8383, 5629.700
595.3204, 5646.200
595.8025, 5659.263
596.2846, 5672.218
596.7667, 5678.321
597.2488, 5665.251
597.7310, 5649.223
598.2131, 5654.610
598.6952, 5684.723
599.1773, 5712.347
599.6594, 5709.127
600.1415, 5682.635
600.6237, 5656.968
601.1058, 5630.848
601.5879, 5621.260
602.0700, 5646.507
602.5521, 5681.907
603.0342, 5678.708
603.5164, 5625.979
603.9985, 5586.750
604.4806, 5569.569
604.9627, 5565.824
605.4448, 5576.998
605.9269, 5596.371
606.4091, 5614.954
606.8912, 5628.859
607.3733, 5635.315
607.8554, 5626.447
608.3375, 5602.895
608.8196, 5588.244
609.3018, 5585.286
609.7839, 5586.774
610.2660, 5589.994
610.7481, 5594.739
611.2302, 5600.939
611.7123, 5610.244
612.1945, 5616.628
612.6766, 5614.990
613.1587, 5612.207
613.6408, 5616.790
614.1229, 5626.155
614.6050, 5629.233
615.0872, 5619.304
615.5693, 5605.170
616.0514, 5606.883
616.5335, 5628.130
617.0156, 5639.072
617.4977, 5631.758
617.9799, 5621.528
618.4620, 5619.975
618.9441, 5621.901
619.4262, 5615.477
619.9083, 5591.234
620.3904, 5574.515
620.8726, 5582.979
621.3547, 5602.089
621.8368, 5614.265
622.3189, 5618.518
622.8010, 5624.055
623.2831, 5637.798
623.7653, 5654.270
624.2474, 5655.657
624.7295, 5634.666
625.2116, 5624.271
625.6937, 5638.002
626.1758, 5652.211
626.6580, 5652.830
627.1401, 5642.857
627.6222, 5629.537
628.1043, 5608.725
628.5864, 5594.989
629.0685, 5606.279
629.5507, 5626.136
630.0328, 5626.869
630.5149, 5606.580
630.9970, 5584.623
631.4791, 5575.668
631.9612, 5576.187
632.4434, 5573.438
632.9255, 5569.180
633.4076, 5556.604
633.8897, 5518.017
634.3718, 5487.011
634.8539, 5492.809
635.3361, 5523.857
635.8182, 5541.831
636.3003, 5527.084
636.7824, 5508.893
637.2645, 5505.376
637.7466, 5512.427
638.2288, 5528.643
638.7109, 5551.084
639.1930, 5562.392
639.6751, 5546.216
640.1572, 5510.557
640.6393, 5493.612
641.1215, 5503.457
641.6036, 5512.279
642.0857, 5516.737
642.5678, 5518.358
643.0499, 5518.468
643.5320, 5516.593
644.0142, 5510.664
644.4963, 5495.619
644.9784, 5482.617
645.4605, 5482.614
645.9426, 5488.704
646.4247, 5487.831
646.9069, 5478.616
647.3890, 5470.706
647.8711, 5472.382
648.3532, 5480.871
648.8353, 5484.300
649.3174, 5483.055
649.7996, 5475.529
650.2817, 5452.469
650.7638, 5431.749
651.2459, 5428.567
651.7280, 5437.611
652.2101, 5440.338
652.6923, 5424.473
653.1744, 5411.678
653.6565, 5420.867
654.1386, 5439.131
654.6207, 5445.366
655.1028, 5437.863
655.5850, 5431.252
656.0671, 5437.271
656.5492, 5450.901
657.0313, 5454.266
657.5134, 5444.104
657.9955, 5434.597
658.4777, 5426.493
658.9598, 5420.952
659.4419, 5418.734
659.9240, 5419.491
660.4061, 5422.189
660.8882, 5426.467
