##NAMES=Anorthite
##RRUFFID=R060221
##IDEAL CHEMISTRY=CaAl_2_Si_2_O_8_
##LOCALITY=Pinacate lavafield, Sonora, Mexico
##OWNER=RRUFF
##SOURCE=Rock Currier
##DESCRIPTION=Light tan transparent fragment
##STATUS=The identification of this mineral has been confirmed by X-ray diffraction and chemical analysis
##URL=rruff.info/R060221
##MEASURED CHEMISTRY=(Ca_0.65_Na_0.34_K_0.01_)(Al_1.66_Fe^3+^_0.01_)Si_2.33_O_8_
92.07813, 57.06570
92.56024, 57.27438
93.04236, 56.98731
93.52448, 56.38628
94.00659, 56.14332
94.48871, 57.09679
94.97083, 58.71637
95.45294, 59.52304
95.93506, 59.17541
96.41718, 58.29686
96.89929, 57.98358
97.38141, 58.24592
97.86353, 58.52766
98.34564, 58.25952
98.82776, 57.48781
99.30988, 57.16532
99.79199, 57.46320
100.2741, 58.31156
100.7562, 59.75429
101.2383, 62.16689
101.7205, 64.13384
102.2026, 64.04179
102.6847, 61.20359
103.1668, 58.98389
103.6489, 58.28036
104.1310, 59.14385
104.6132, 59.41623
105.0953, 58.79840
105.5774, 57.86852
106.0595, 57.37841
106.5416, 57.69381
107.0237, 57.87843
107.5059, 57.62676
107.9880, 56.70255
108.4701, 56.07542
108.9522, 55.70695
109.4343, 55.63936
109.9164, 55.94789
110.3986, 56.92142
110.8807, 58.02671
111.3628, 59.15803
111.8449, 60.56490
112.3270, 61.56907
112.8091, 61.71869
113.2913, 61.38123
113.7734, 61.58838
114.2555, 62.96741
114.7376, 64.63673
115.2197, 66.10696
115.7018, 66.85432
116.1840, 67.90447
116.6661, 69.70816
117.1482, 72.12415
117.6303, 74.40826
118.1124, 75.87886
118.5945, 77.30853
119.0767, 79.34351
119.5588, 81.79904
120.0409, 85.23605
120.5230, 90.01840
121.0051, 96.10023
121.4872, 103.1100
121.9694, 111.2294
122.4515, 120.0145
122.9336, 128.8884
123.4157, 136.3763
123.8978, 144.4433
124.3799, 154.8663
124.8621, 167.7647
125.3442, 182.3498
125.8263, 198.2953
126.3084, 215.4474
126.7905, 233.5087
127.2726, 252.4533
127.7548, 272.0349
128.2369, 292.0058
128.7190, 312.5565
129.2011, 332.6682
129.6832, 351.2096
130.1653, 368.1049
130.6474, 383.9369
131.1296, 398.5227
131.6117, 412.1123
132.0938, 425.9234
132.5759, 439.8485
133.0580, 454.5239
133.5401, 470.6120
134.0223, 488.1572
134.5044, 507.6913
134.9865, 529.6021
135.4686, 554.1000
135.9507, 580.5293
136.4328, 609.3550
136.9150, 640.2674
137.3971, 671.6468
137.8792, 703.6399
138.3613, 736.1774
138.8434, 769.9705
139.3255, 805.4084
139.8077, 838.6601
140.2898, 869.3446
140.7719, 897.2852
141.2540, 923.3945
141.7361, 947.2808
142.2182, 969.5107
142.7004, 990.4631
143.1825, 1009.641
143.6646, 1028.386
144.1467, 1046.556
144.6288, 1064.384
145.1109, 1081.684
145.5931, 1097.924
146.0752, 1114.178
146.5573, 1132.016
147.0394, 1151.470
147.5215, 1172.343
148.0036, 1194.204
148.4858, 1217.382
148.9679, 1241.528
149.4500, 1266.287
149.9321, 1292.200
150.4142, 1319.522
150.8963, 1349.435
151.3785, 1380.148
151.8606, 1410.831
152.3427, 1442.008
152.8248, 1473.162
153.3069, 1504.625
153.7890, 1536.143
154.2712, 1562.488
154.7533, 1577.482
155.2354, 1590.503
155.7175, 1601.977
156.1996, 1610.485
156.6817, 1619.790
157.1639, 1630.925
157.6460, 1643.208
158.1281, 1654.939
158.6102, 1665.131
159.0923, 1675.152
159.5744, 1685.687
160.0566, 1696.568
160.5387, 1708.184
161.0208, 1720.258
161.5029, 1733.028
161.9850, 1747.195
162.4671, 1763.364
162.9493, 1780.812
163.4314, 1799.020
163.9135, 1817.461
164.3956, 1837.201
164.8777, 1858.602
165.3598, 1881.701
165.8420, 1906.737
166.3241, 1934.046
166.8062, 1963.156
167.2883, 1993.664
167.7704, 2025.862
168.2525, 2058.911
168.7346, 2092.430
169.2168, 2126.484
169.6989, 2161.677
170.1810, 2199.552
170.6631, 2238.386
171.1452, 2276.269
171.6273, 2311.540
172.1095, 2345.938
172.5916, 2381.321
173.0737, 2417.604
173.5558, 2453.614
174.0379, 2489.827
174.5201, 2524.931
175.0022, 2557.444
175.4843, 2586.077
175.9664, 2612.466
176.4485, 2638.099
176.9306, 2663.194
177.4128, 2686.138
177.8949, 2705.914
178.3770, 2722.436
178.8591, 2735.968
179.3412, 2746.494
179.8233, 2754.101
180.3055, 2759.729
180.7876, 2763.594
181.2697, 2763.154
181.7518, 2754.453
182.2339, 2739.138
182.7160, 2722.106
183.1982, 2706.784
183.6803, 2691.214
184.1624, 2670.704
184.6445, 2645.058
185.1266, 2616.556
185.6087, 2587.180
186.0909, 2556.804
186.5730, 2526.327
187.0551, 2495.720
187.5372, 2465.213
188.0193, 2434.228
188.5014, 2402.577
188.9836, 2371.503
189.4657, 2341.313
189.9478, 2312.279
190.4299, 2284.719
190.9120, 2259.299
191.3941, 2235.861
191.8763, 2212.687
192.3584, 2189.469
192.8405, 2167.620
193.3226, 2148.887
193.8047, 2133.369
194.2868, 2118.747
194.7690, 2104.263
195.2511, 2089.920
195.7332, 2074.489
196.2153, 2057.746
196.6974, 2040.473
197.1795, 2024.273
197.6617, 2009.066
198.1438, 1995.142
198.6259, 1983.433
199.1080, 1973.992
199.5901, 1962.569
200.0722, 1948.651
200.5544, 1933.470
201.0365, 1919.427
201.5186, 1906.538
202.0007, 1894.055
202.4828, 1882.007
202.9649, 1870.508
203.4471, 1857.530
203.9292, 1842.530
204.4113, 1826.407
204.8934, 1810.655
205.3755, 1795.414
205.8576, 1780.485
206.3398, 1765.897
206.8219, 1751.722
207.3040, 1737.318
207.7861, 1722.805
208.2682, 1708.135
208.7503, 1693.112
209.2325, 1677.634
209.7146, 1662.649
210.1967, 1648.894
210.6788, 1636.803
211.1609, 1623.790
211.6430, 1609.353
212.1252, 1594.301
212.6073, 1580.782
213.0894, 1569.375
213.5715, 1558.151
214.0536, 1546.315
214.5357, 1533.732
215.0179, 1520.797
215.5000, 1507.114
215.9821, 1493.231
216.4642, 1480.535
216.9463, 1469.797
217.4284, 1458.784
217.9105, 1446.036
218.3927, 1430.564
218.8748, 1417.083
219.3569, 1406.032
219.8390, 1396.734
220.3211, 1387.704
220.8032, 1379.489
221.2854, 1370.419
221.7675, 1359.053
222.2496, 1343.771
222.7317, 1331.620
223.2138, 1323.313
223.6959, 1317.790
224.1781, 1312.789
224.6602, 1308.955
225.1423, 1304.544
225.6244, 1298.755
226.1065, 1290.722
226.5886, 1283.604
227.0708, 1277.303
227.5529, 1271.903
228.0350, 1267.604
228.5171, 1264.730
228.9992, 1262.346
229.4813, 1260.132
229.9635, 1258.115
230.4456, 1256.213
230.9277, 1254.434
231.4098, 1252.801
231.8919, 1251.286
232.3740, 1249.684
232.8562, 1248.572
233.3383, 1248.198
233.8204, 1248.730
234.3025, 1249.474
234.7846, 1250.426
235.2667, 1251.604
235.7489, 1252.961
236.2310, 1254.191
236.7131, 1256.108
237.1952, 1259.177
237.6773, 1263.764
238.1594, 1267.979
238.6416, 1271.390
239.1237, 1274.709
239.6058, 1279.122
240.0879, 1285.263
240.5700, 1291.573
241.0521, 1297.631
241.5343, 1303.340
242.0164, 1308.871
242.4985, 1313.714
242.9806, 1318.703
243.4627, 1325.179
243.9448, 1333.990
244.4270, 1342.769
244.9091, 1350.683
245.3912, 1357.418
245.8733, 1365.090
246.3554, 1374.371
246.8375, 1384.068
247.3197, 1392.452
247.8018, 1398.360
248.2839, 1405.064
248.7660, 1413.827
249.2481, 1425.164
249.7302, 1434.644
250.2124, 1441.238
250.6945, 1447.046
251.1766, 1454.732
251.6587, 1465.541
252.1408, 1475.844
252.6229, 1484.628
253.1051, 1491.834
253.5872, 1499.737
254.0693, 1508.730
254.5514, 1518.140
255.0335, 1527.340
255.5156, 1536.208
255.9978, 1544.876
256.4799, 1553.131
256.9620, 1561.007
257.4441, 1569.817
257.9262, 1579.782
258.4083, 1590.331
258.8904, 1600.808
259.3726, 1611.196
259.8547, 1621.753
260.3368, 1632.621
260.8189, 1643.791
261.3010, 1654.043
261.7831, 1663.077
262.2653, 1671.650
262.7474, 1679.996
263.2295, 1687.716
263.7116, 1696.744
264.1937, 1708.150
264.6758, 1721.188
265.1580, 1731.879
265.6401, 1739.061
266.1222, 1745.986
266.6043, 1755.145
267.0864, 1767.570
267.5685, 1778.770
268.0507, 1788.039
268.5328, 1795.925
269.0149, 1804.832
269.4970, 1815.578
269.9791, 1825.669
270.4612, 1833.553
270.9434, 1838.607
271.4255, 1844.132
271.9076, 1850.246
272.3897, 1857.063
272.8718, 1865.271
273.3539, 1875.350
273.8361, 1885.159
274.3182, 1893.642
274.8003, 1900.701
275.2824, 1906.655
275.7645, 1911.063
276.2466, 1914.787
276.7288, 1919.791
277.2109, 1926.402
277.6930, 1932.550
278.1751, 1937.043
278.6572, 1939.835
279.1393, 1942.737
279.6215, 1946.029
280.1036, 1948.960
280.5857, 1950.180
281.0678, 1949.572
281.5499, 1948.696
282.0320, 1948.690
282.5142, 1949.355
282.9963, 1947.243
283.4784, 1941.798
283.9605, 1935.312
284.4426, 1931.155
284.9247, 1929.398
285.4069, 1926.189
285.8890, 1919.815
286.3711, 1910.928
286.8532, 1902.619
287.3353, 1895.066
287.8174, 1887.012
288.2996, 1877.472
288.7817, 1866.415
289.2638, 1853.765
289.7459, 1839.035
290.2280, 1822.972
290.7101, 1807.184
291.1923, 1791.627
291.6744, 1776.096
292.1565, 1760.166
292.6386, 1743.908
293.1207, 1727.709
293.6028, 1711.510
294.0850, 1695.511
294.5671, 1679.465
295.0492, 1663.354
295.5313, 1647.082
296.0134, 1630.660
296.4955, 1614.100
296.9777, 1597.559
297.4598, 1581.133
297.9419, 1564.891
298.4240, 1548.950
298.9061, 1533.488
299.3882, 1519.019
299.8704, 1506.432
300.3525, 1495.069
300.8346, 1483.414
301.3167, 1471.414
301.7988, 1459.150
302.2809, 1446.149
302.7631, 1432.850
303.2452, 1420.095
303.7273, 1408.278
304.2094, 1397.380
304.6915, 1387.775
305.1736, 1379.451
305.6558, 1371.692
306.1379, 1364.314
306.6200, 1356.985
307.1021, 1349.118
307.5842, 1339.210
308.0663, 1329.333
308.5485, 1321.649
309.0306, 1316.121
309.5127, 1310.693
309.9948, 1303.547
310.4769, 1295.756
310.9590, 1288.739
311.4412, 1283.372
311.9233, 1278.403
312.4054, 1272.863
312.8875, 1266.859
313.3696, 1261.192
313.8517, 1256.991
314.3339, 1253.065
314.8160, 1248.217
315.2981, 1241.302
315.7802, 1234.898
316.2623, 1230.802
316.7444, 1228.328
317.2266, 1225.535
317.7087, 1220.251
318.1908, 1215.385
318.6729, 1213.293
319.1550, 1216.027
319.6371, 1216.941
320.1193, 1212.189
320.6014, 1204.416
321.0835, 1197.881
321.5656, 1194.305
322.0477, 1191.813
322.5298, 1189.845
323.0120, 1188.493
323.4941, 1186.777
323.9762, 1183.928
324.4583, 1180.807
324.9404, 1178.352
325.4225, 1177.090
325.9047, 1176.125
326.3868, 1175.380
326.8689, 1174.864
327.3510, 1174.290
327.8331, 1173.506
328.3152, 1172.775
328.7974, 1172.283
329.2795, 1172.611
329.7616, 1172.504
330.2437, 1171.592
330.7258, 1170.070
331.2079, 1169.014
331.6901, 1168.540
332.1722, 1168.392
332.6543, 1168.416
333.1364, 1168.364
333.6185, 1168.960
334.1006, 1170.730
334.5828, 1172.970
335.0649, 1173.978
335.5470, 1173.358
336.0291, 1172.171
336.5112, 1170.625
336.9933, 1168.487
337.4755, 1167.242
337.9576, 1167.245
338.4397, 1167.762
338.9218, 1167.825
339.4039, 1167.380
339.8860, 1166.671
340.3681, 1165.598
340.8503, 1164.228
341.3324, 1163.777
341.8145, 1164.625
342.2966, 1165.332
342.7787, 1164.285
343.2608, 1161.393
343.7430, 1158.937
344.2251, 1157.539
344.7072, 1156.755
345.1893, 1155.099
345.6714, 1152.453
346.1535, 1150.223
346.6357, 1149.744
347.1178, 1150.700
347.5999, 1151.178
348.0820, 1150.929
348.5641, 1150.223
349.0462, 1149.235
349.5284, 1148.037
350.0105, 1147.157
350.4926, 1147.339
350.9747, 1147.968
351.4568, 1147.342
351.9389, 1145.248
352.4211, 1143.330
352.9032, 1144.077
353.3853, 1146.381
353.8674, 1147.540
354.3495, 1145.520
354.8316, 1142.434
355.3138, 1140.672
355.7959, 1140.161
356.2780, 1140.098
356.7601, 1140.514
357.2422, 1140.864
357.7243, 1140.255
358.2065, 1137.402
358.6886, 1135.163
359.1707, 1136.481
359.6528, 1140.213
360.1349, 1142.904
360.6170, 1141.967
361.0992, 1139.941
361.5813, 1138.578
362.0634, 1138.271
362.5455, 1138.203
363.0276, 1138.191
363.5097, 1138.170
363.9919, 1138.044
364.4740, 1137.307
364.9561, 1136.874
365.4382, 1137.271
365.9203, 1138.605
366.4024, 1139.665
366.8846, 1140.104
367.3667, 1140.243
367.8488, 1140.344
368.3309, 1140.343
368.8130, 1140.426
369.2951, 1140.894
369.7773, 1141.613
370.2594, 1141.604
370.7415, 1139.527
371.2236, 1137.984
371.7057, 1138.271
372.1878, 1141.908
372.6700, 1144.484
373.1521, 1145.670
373.6342, 1145.927
374.1163, 1146.026
374.5984, 1145.651
375.0805, 1145.709
375.5627, 1146.492
376.0448, 1148.026
376.5269, 1150.079
377.0090, 1152.977
377.4911, 1155.829
377.9732, 1157.561
378.4554, 1157.957
378.9375, 1158.486
379.4196, 1159.411
379.9017, 1160.708
380.3838, 1162.417
380.8659, 1164.565
381.3481, 1166.839
381.8302, 1168.882
382.3123, 1170.781
382.7944, 1173.208
383.2765, 1176.386
383.7586, 1179.814
384.2408, 1182.870
384.7229, 1185.556
385.2050, 1188.012
385.6871, 1189.817
386.1692, 1191.528
386.6513, 1194.542
387.1335, 1198.921
387.6156, 1203.406
388.0977, 1206.664
388.5798, 1209.176
389.0619, 1211.878
389.5440, 1215.062
390.0262, 1218.528
390.5083, 1221.911
390.9904, 1225.361
391.4725, 1229.482
391.9546, 1235.556
392.4367, 1241.907
392.9189, 1247.151
393.4010, 1250.832
393.8831, 1253.765
394.3652, 1255.666
394.8473, 1257.153
395.3294, 1259.268
395.8116, 1262.736
396.2937, 1266.562
396.7758, 1270.425
397.2579, 1274.318
397.7400, 1278.134
398.2221, 1282.458
398.7043, 1286.342
399.1864, 1288.994
399.6685, 1288.456
400.1506, 1288.869
400.6327, 1291.187
401.1148, 1294.936
401.5970, 1297.913
402.0791, 1299.934
402.5612, 1301.354
403.0433, 1302.155
403.5254, 1301.755
404.0075, 1302.562
404.4897, 1305.430
404.9718, 1308.814
405.4539, 1310.065
405.9360, 1308.346
406.4181, 1307.248
406.9002, 1308.072
407.3824, 1310.545
407.8645, 1312.087
408.3466, 1312.611
408.8287, 1312.506
409.3108, 1312.134
409.7929, 1311.462
410.2751, 1310.045
410.7572, 1307.607
411.2393, 1304.656
411.7214, 1302.372
412.2035, 1300.625
412.6856, 1298.403
413.1678, 1294.418
413.6499, 1289.655
414.1320, 1286.481
414.6141, 1285.110
415.0962, 1283.996
415.5783, 1281.559
416.0605, 1278.368
416.5426, 1275.424
417.0247, 1273.060
417.5068, 1271.141
417.9889, 1269.763
418.4710, 1268.815
418.9532, 1267.735
419.4353, 1265.668
419.9174, 1263.657
420.3995, 1262.674
420.8816, 1263.287
421.3637, 1263.790
421.8459, 1263.082
422.3280, 1261.903
422.8101, 1261.384
423.2922, 1262.751
423.7743, 1263.887
424.2564, 1263.917
424.7386, 1262.720
425.2207, 1261.897
425.7028, 1261.815
426.1849, 1262.033
426.6670, 1262.313
427.1491, 1263.160
427.6313, 1263.273
428.1134, 1261.951
428.5955, 1260.014
429.0776, 1259.859
429.5597, 1262.526
430.0418, 1264.923
430.5240, 1265.406
431.0061, 1263.666
431.4882, 1264.590
431.9703, 1269.061
432.4524, 1274.238
432.9345, 1276.612
433.4167, 1276.084
433.8988, 1275.929
434.3809, 1276.838
434.8630, 1278.621
435.3451, 1280.939
435.8272, 1283.780
436.3094, 1286.935
436.7915, 1290.351
437.2736, 1293.988
437.7557, 1297.852
438.2378, 1302.065
438.7199, 1305.907
439.2020, 1308.441
439.6841, 1310.080
440.1663, 1311.668
440.6484, 1313.619
441.1305, 1315.626
441.6126, 1317.643
442.0947, 1319.588
442.5768, 1320.885
443.0590, 1320.855
443.5411, 1320.270
444.0232, 1319.733
444.5053, 1319.464
444.9874, 1318.983
445.4695, 1317.422
445.9517, 1315.682
446.4338, 1315.208
446.9159, 1317.635
447.3980, 1320.007
447.8801, 1321.186
448.3622, 1321.036
448.8444, 1322.015
449.3265, 1325.091
449.8086, 1328.472
450.2907, 1331.016
450.7728, 1332.548
451.2549, 1333.684
451.7371, 1334.263
452.2192, 1334.599
452.7013, 1335.254
453.1834, 1336.116
453.6655, 1337.738
454.1476, 1340.496
454.6298, 1344.280
455.1119, 1347.972
455.5940, 1351.461
456.0761, 1355.245
456.5582, 1359.635
457.0403, 1364.655
457.5225, 1370.516
458.0046, 1377.301
458.4867, 1384.607
458.9688, 1391.693
459.4509, 1398.674
459.9330, 1405.755
460.4152, 1412.932
460.8973, 1420.449
461.3794, 1428.575
461.8615, 1437.438
462.3436, 1446.537
462.8257, 1455.744
463.3079, 1465.049
463.7900, 1474.413
464.2721, 1483.324
464.7542, 1493.064
465.2363, 1504.583
465.7184, 1517.391
466.2006, 1530.078
466.6827, 1541.622
467.1648, 1553.589
467.6469, 1566.571
468.1290, 1580.803
468.6111, 1595.210
469.0933, 1609.360
469.5754, 1624.059
470.0575, 1640.414
470.5396, 1659.729
471.0217, 1677.907
471.5038, 1693.969
471.9860, 1708.818
472.4681, 1725.952
472.9502, 1745.912
473.4323, 1766.419
473.9144, 1786.139
474.3965, 1805.181
474.8787, 1824.852
475.3608, 1845.250
475.8429, 1865.441
476.3250, 1883.374
476.8071, 1899.648
477.2892, 1917.637
477.7714, 1938.814
478.2535, 1960.856
478.7356, 1981.074
479.2177, 1999.425
479.6998, 2015.260
480.1819, 2027.164
480.6641, 2037.226
481.1462, 2047.759
481.6283, 2059.137
482.1104, 2069.095
482.5925, 2076.000
483.0746, 2080.992
483.5568, 2085.260
484.0389, 2089.784
484.5210, 2092.910
485.0031, 2094.039
485.4852, 2093.394
485.9673, 2091.700
486.4495, 2087.724
486.9316, 2083.952
487.4137, 2081.317
487.8958, 2080.106
488.3779, 2078.281
488.8600, 2074.684
489.3422, 2071.581
489.8243, 2071.036
490.3064, 2073.459
490.7885, 2076.791
491.2706, 2080.424
491.7527, 2085.072
492.2349, 2092.875
492.7170, 2103.897
493.1991, 2116.576
493.6812, 2129.377
494.1633, 2142.992
494.6454, 2161.044
495.1276, 2183.510
495.6097, 2208.329
496.0918, 2232.850
496.5739, 2258.396
497.0560, 2286.579
497.5381, 2318.200
498.0203, 2352.685
498.5024, 2391.340
498.9845, 2432.632
499.4666, 2474.188
499.9487, 2513.472
500.4308, 2553.426
500.9130, 2596.327
501.3951, 2642.060
501.8772, 2687.419
502.3593, 2732.175
502.8414, 2775.167
503.3235, 2816.163
503.8057, 2856.047
504.2878, 2892.008
504.7699, 2923.977
505.2520, 2952.035
505.7341, 2976.557
506.2162, 2998.692
506.6984, 3014.823
507.1805, 3023.502
507.6626, 3025.018
508.1447, 3022.429
508.6268, 3015.928
509.1089, 3004.491
509.5911, 2987.060
510.0732, 2963.805
510.5553, 2936.659
511.0374, 2905.833
511.5195, 2870.987
512.0016, 2831.011
512.4838, 2786.372
512.9659, 2739.625
513.4480, 2690.026
513.9301, 2639.211
514.4122, 2588.137
514.8943, 2537.075
515.3765, 2487.117
515.8586, 2440.278
516.3407, 2393.652
516.8228, 2344.946
517.3049, 2292.915
517.7870, 2242.517
518.2692, 2196.201
518.7513, 2152.431
519.2334, 2109.933
519.7155, 2067.341
520.1976, 2027.364
520.6797, 1991.617
521.1619, 1958.739
521.6440, 1924.897
522.1261, 1888.725
522.6082, 1854.699
523.0903, 1824.828
523.5724, 1799.191
524.0546, 1773.541
524.5367, 1747.820
525.0188, 1722.855
525.5009, 1699.057
525.9830, 1676.347
526.4651, 1655.031
526.9473, 1635.037
527.4294, 1616.228
527.9115, 1598.956
528.3936, 1583.009
528.8757, 1567.350
529.3578, 1551.484
529.8400, 1535.876
530.3221, 1520.766
530.8042, 1506.347
531.2863, 1492.994
531.7684, 1481.261
532.2505, 1470.576
532.7327, 1460.782
533.2148, 1452.111
533.6969, 1443.487
534.1790, 1434.406
534.6611, 1425.377
535.1432, 1417.137
535.6254, 1409.275
536.1075, 1402.738
536.5896, 1398.264
537.0717, 1395.198
537.5538, 1391.340
538.0359, 1386.048
538.5181, 1381.441
539.0002, 1378.523
539.4823, 1377.280
539.9644, 1375.885
540.4465, 1374.238
540.9286, 1372.961
541.4108, 1372.711
541.8929, 1373.343
542.3750, 1374.141
542.8571, 1374.819
543.3392, 1376.071
543.8214, 1378.880
544.3035, 1382.920
544.7856, 1387.484
545.2677, 1393.152
545.7498, 1398.498
546.2319, 1401.835
546.7141, 1403.572
547.1962, 1406.178
547.6783, 1410.948
548.1604, 1416.625
548.6425, 1422.740
549.1246, 1429.467
549.6068, 1435.797
550.0889, 1440.493
550.5710, 1445.463
551.0531, 1452.764
551.5352, 1464.509
552.0173, 1473.930
552.4995, 1479.309
552.9816, 1482.449
553.4637, 1487.902
553.9458, 1495.989
554.4279, 1504.206
554.9100, 1511.572
555.3922, 1518.247
555.8743, 1524.681
556.3564, 1530.828
556.8385, 1537.239
557.3206, 1545.192
557.8027, 1553.444
558.2849, 1559.874
558.7670, 1563.966
559.2491, 1567.200
559.7312, 1570.527
560.2133, 1573.709
560.6954, 1576.411
561.1776, 1578.868
561.6597, 1580.406
562.1418, 1581.244
562.6239, 1581.059
563.1060, 1578.714
563.5881, 1572.728
564.0703, 1565.840
564.5524, 1558.873
565.0345, 1551.973
565.5166, 1543.799
565.9987, 1533.863
566.4808, 1523.471
566.9630, 1513.495
567.4451, 1504.027
567.9272, 1494.294
568.4093, 1483.990
568.8914, 1473.866
569.3735, 1464.804
569.8557, 1456.777
570.3378, 1449.319
570.8199, 1443.117
571.3020, 1436.599
571.7841, 1426.952
572.2662, 1415.071
572.7484, 1404.307
573.2305, 1397.145
573.7126, 1391.134
574.1947, 1384.584
574.6768, 1377.387
575.1589, 1369.956
575.6411, 1361.240
576.1232, 1353.214
576.6053, 1347.484
577.0874, 1346.239
577.5695, 1343.815
578.0516, 1339.495
578.5338, 1334.485
579.0159, 1330.475
579.4980, 1327.725
579.9801, 1325.323
580.4622, 1323.253
580.9443, 1321.288
581.4265, 1318.742
581.9086, 1315.622
582.3907, 1312.334
582.8728, 1308.478
583.3549, 1304.760
583.8370, 1303.085
584.3192, 1303.434
584.8013, 1303.444
585.2834, 1300.463
585.7655, 1296.601
586.2476, 1294.314
586.7297, 1294.525
587.2118, 1295.077
587.6939, 1295.964
588.1760, 1296.349
588.6581, 1295.166
