##NAMES=Anorpiment
##RRUFFID=R110016
##IDEAL CHEMISTRY=As^3+^_2_S^2-^_3_
##LOCALITY=Palomo mine, Huancavelica Department, Peru
##OWNER=RRUFF
##SOURCE=Bob Jenkins
##DESCRIPTION=Platy transparent olive green crystals coating botryoidal yellow orpiment. Co-type specimen.
##STATUS=The identification of this mineral is confirmed by single-crystal X-ray diffraction and chemical analysis.
##URL=rruff.info/R110016
##MEASURED CHEMISTRY=As_1.96_S_3.04_
93.49817, 2470.705
93.98029, 2590.289
94.46240, 2720.605
94.94452, 2867.346
95.42664, 3018.641
95.90874, 3181.180
96.39086, 3351.875
96.87298, 3501.659
97.35509, 3599.751
97.83721, 3644.877
98.31933, 3634.654
98.80145, 3561.659
99.28356, 3454.817
99.76568, 3326.315
100.2478, 3181.411
100.7299, 3026.701
101.2120, 2879.447
101.6941, 2725.234
102.1763, 2594.372
102.6584, 2488.481
103.1405, 2405.018
103.6226, 2342.349
104.1047, 2299.636
104.5868, 2276.138
105.0690, 2265.798
105.5511, 2268.026
106.0332, 2279.791
106.5153, 2300.666
106.9974, 2330.247
107.4795, 2366.633
107.9617, 2409.131
108.4438, 2457.982
108.9259, 2512.462
109.4080, 2570.083
109.8901, 2634.306
110.3722, 2708.871
110.8544, 2791.563
111.3365, 2890.883
111.8186, 2999.078
112.3007, 3123.976
112.7828, 3287.192
113.2649, 3500.040
113.7471, 3762.620
114.2292, 4063.987
114.7113, 4415.358
115.1934, 4805.371
115.6755, 5275.235
116.1576, 5795.298
116.6397, 6283.112
117.1219, 6680.892
117.6040, 7044.392
118.0861, 7112.936
118.5682, 6797.077
119.0503, 6316.479
119.5324, 5741.714
120.0146, 5111.843
120.4967, 4478.235
120.9788, 3929.978
121.4609, 3484.623
121.9430, 3123.606
122.4251, 2865.082
122.9073, 2683.644
123.3894, 2560.009
123.8715, 2488.818
124.3536, 2459.551
124.8357, 2451.394
125.3178, 2463.719
125.8000, 2488.724
126.2821, 2523.811
126.7642, 2569.343
127.2463, 2624.670
127.7284, 2684.413
128.2105, 2760.794
128.6927, 2864.515
129.1748, 2991.117
129.6569, 3153.972
130.1390, 3359.359
130.6211, 3603.708
131.1032, 3912.587
131.5854, 4313.712
132.0675, 4781.635
132.5496, 5331.614
133.0317, 6020.635
133.5138, 6726.143
133.9959, 7173.065
134.4781, 7352.023
134.9602, 7233.789
135.4423, 6715.565
135.9244, 5967.915
136.4065, 5198.304
136.8886, 4521.341
137.3708, 3934.100
137.8529, 3453.999
138.3350, 3107.110
138.8171, 2846.986
139.2992, 2695.767
139.7813, 2627.207
140.2635, 2596.170
140.7456, 2570.307
141.2277, 2553.771
141.7098, 2493.104
142.1919, 2366.735
142.6740, 2224.705
143.1561, 2085.062
143.6383, 1952.736
144.1204, 1832.699
144.6025, 1729.813
145.0846, 1646.625
145.5667, 1580.429
146.0488, 1533.993
146.5310, 1503.586
147.0131, 1487.168
147.4952, 1485.382
147.9773, 1492.607
148.4594, 1503.886
148.9415, 1518.629
149.4237, 1538.570
149.9058, 1562.853
150.3879, 1592.698
150.8700, 1630.592
151.3521, 1675.973
151.8342, 1733.227
152.3164, 1801.519
152.7985, 1880.858
153.2806, 1974.451
153.7627, 2085.899
154.2448, 2215.573
154.7269, 2354.706
155.2091, 2536.396
155.6912, 2699.545
156.1733, 2822.339
156.6554, 2899.516
157.1375, 2924.441
157.6196, 2880.798
158.1018, 2745.711
158.5839, 2605.615
159.0660, 2452.756
159.5481, 2305.190
160.0302, 2170.726
160.5123, 2052.838
160.9945, 1955.194
161.4766, 1885.293
161.9587, 1852.456
162.4408, 1837.848
162.9229, 1845.359
163.4050, 1867.203
163.8871, 1896.196
164.3693, 1929.698
164.8514, 1970.027
165.3335, 2023.602
165.8156, 2093.273
166.2977, 2171.901
166.7798, 2261.191
167.2620, 2359.014
167.7441, 2464.885
168.2262, 2581.021
168.7083, 2699.448
169.1904, 2796.859
169.6725, 2877.279
170.1547, 2937.735
170.6368, 2964.021
171.1189, 2965.664
171.6010, 2972.061
172.0831, 2986.399
172.5652, 3024.764
173.0474, 3109.012
173.5295, 3250.484
174.0116, 3414.982
174.4937, 3611.564
174.9758, 3840.564
175.4579, 3983.939
175.9401, 3964.648
176.4222, 3836.458
176.9043, 3644.072
177.3864, 3378.564
177.8685, 3088.151
178.3506, 2823.622
178.8328, 2580.316
179.3149, 2381.022
179.7970, 2236.204
180.2791, 2134.210
180.7612, 2072.274
181.2433, 2050.124
181.7255, 2062.849
182.2076, 2101.503
182.6897, 2172.944
183.1718, 2261.203
183.6539, 2372.854
184.1360, 2492.149
184.6181, 2611.941
185.1003, 2731.390
185.5824, 2834.373
186.0645, 2861.513
186.5466, 2749.333
187.0287, 2630.512
187.5108, 2508.055
187.9930, 2393.543
188.4751, 2297.750
188.9572, 2226.773
189.4393, 2180.938
189.9214, 2165.158
190.4035, 2202.578
190.8857, 2244.234
191.3678, 2301.059
191.8499, 2354.595
192.3320, 2375.649
192.8141, 2346.041
193.2962, 2269.256
193.7784, 2167.193
194.2605, 2023.907
194.7426, 1879.187
195.2247, 1736.175
195.7068, 1600.504
196.1889, 1485.906
196.6711, 1402.378
197.1532, 1347.788
197.6353, 1301.475
198.1174, 1264.612
198.5995, 1233.621
199.0816, 1206.372
199.5638, 1182.985
200.0459, 1164.900
200.5280, 1154.156
201.0101, 1149.431
201.4922, 1145.393
201.9743, 1142.344
202.4565, 1139.439
202.9386, 1136.772
203.4207, 1134.418
203.9028, 1129.589
204.3849, 1118.362
204.8670, 1104.482
205.3492, 1093.472
205.8313, 1087.115
206.3134, 1082.940
206.7955, 1078.066
207.2776, 1072.303
207.7597, 1066.740
208.2419, 1062.046
208.7240, 1057.729
209.2061, 1053.239
209.6882, 1048.178
210.1703, 1043.311
210.6524, 1040.462
211.1346, 1041.062
211.6167, 1039.944
212.0988, 1032.340
212.5809, 1023.734
213.0630, 1020.326
213.5451, 1025.239
214.0273, 1033.972
214.5094, 1035.643
214.9915, 1024.330
215.4736, 1016.624
215.9557, 1018.481
216.4378, 1023.724
216.9200, 1026.124
217.4021, 1022.862
217.8842, 1015.930
218.3663, 1010.887
218.8484, 1008.937
219.3305, 1007.362
219.8127, 1006.287
220.2948, 1005.202
220.7769, 1003.223
221.2590, 999.9454
221.7411, 996.2850
222.2232, 994.9749
222.7054, 998.4053
223.1875, 1001.554
223.6696, 1003.692
224.1517, 1005.550
224.6338, 1008.050
225.1159, 1011.614
225.5980, 1015.857
226.0802, 1019.673
226.5623, 1020.574
227.0444, 1024.064
227.5265, 1032.863
228.0086, 1043.828
228.4907, 1052.537
228.9729, 1057.037
229.4550, 1059.211
229.9371, 1063.953
230.4192, 1073.508
230.9013, 1081.965
231.3834, 1088.677
231.8656, 1093.677
232.3477, 1096.593
232.8298, 1097.056
233.3119, 1096.286
233.7940, 1096.935
234.2761, 1099.176
234.7583, 1101.935
235.2404, 1105.585
235.7225, 1109.479
236.2046, 1112.244
236.6867, 1113.125
237.1688, 1113.511
237.6510, 1116.470
238.1331, 1122.630
238.6152, 1127.219
239.0973, 1128.222
239.5794, 1126.549
240.0615, 1123.903
240.5437, 1120.393
241.0258, 1116.705
241.5079, 1113.493
241.9900, 1110.653
242.4721, 1108.860
242.9542, 1108.495
243.4364, 1109.404
243.9185, 1111.173
244.4006, 1113.654
244.8827, 1117.198
245.3648, 1123.159
245.8469, 1131.098
246.3290, 1137.157
246.8112, 1137.561
247.2933, 1134.447
247.7754, 1134.574
248.2575, 1139.802
248.7396, 1146.799
249.2217, 1152.517
249.7039, 1157.517
250.1860, 1163.821
250.6681, 1174.386
251.1502, 1187.432
251.6323, 1196.356
252.1144, 1199.700
252.5966, 1200.442
253.0787, 1199.685
253.5608, 1198.013
254.0429, 1196.769
254.5250, 1197.274
255.0071, 1198.835
255.4893, 1198.748
255.9714, 1196.714
256.4535, 1193.305
256.9356, 1187.099
257.4177, 1180.159
257.8998, 1176.061
258.3820, 1177.639
258.8641, 1183.083
259.3462, 1186.081
259.8283, 1186.063
260.3104, 1184.227
260.7925, 1179.861
261.2747, 1174.562
261.7568, 1170.342
262.2389, 1168.130
262.7210, 1167.684
263.2031, 1168.444
263.6852, 1171.275
264.1674, 1173.880
264.6495, 1176.082
265.1316, 1177.678
265.6137, 1178.230
266.0958, 1177.497
266.5779, 1176.139
267.0601, 1175.515
267.5422, 1174.779
268.0243, 1176.622
268.5064, 1184.055
268.9885, 1192.411
269.4706, 1196.895
269.9528, 1195.932
270.4349, 1192.632
270.9170, 1193.227
271.3991, 1200.789
271.8812, 1206.219
272.3633, 1207.634
272.8455, 1207.850
273.3276, 1208.285
273.8097, 1209.565
274.2918, 1212.407
274.7739, 1218.222
275.2560, 1229.000
275.7382, 1238.603
276.2202, 1245.115
276.7024, 1252.117
277.1845, 1262.907
277.6666, 1277.369
278.1487, 1291.947
278.6308, 1302.015
279.1129, 1305.458
279.5951, 1311.637
280.0772, 1320.758
280.5593, 1331.845
281.0414, 1345.412
281.5235, 1360.797
282.0056, 1376.136
282.4878, 1389.580
282.9699, 1400.930
283.4520, 1412.295
283.9341, 1423.746
284.4162, 1435.207
284.8983, 1446.800
285.3805, 1458.408
285.8626, 1469.837
286.3447, 1481.034
286.8268, 1491.948
287.3089, 1501.604
287.7910, 1507.583
288.2732, 1514.966
288.7553, 1524.969
289.2374, 1537.438
289.7195, 1552.197
290.2016, 1569.381
290.6837, 1588.227
291.1659, 1604.899
291.6480, 1616.032
292.1301, 1628.804
292.6122, 1644.481
293.0943, 1662.468
293.5764, 1681.808
294.0586, 1702.154
294.5407, 1723.684
295.0228, 1747.000
295.5049, 1770.682
295.9870, 1798.239
296.4691, 1828.549
296.9513, 1863.351
297.4334, 1903.540
297.9155, 1949.387
298.3976, 2002.936
298.8797, 2067.367
299.3618, 2143.753
299.8440, 2232.337
300.3261, 2326.581
300.8082, 2435.912
301.2903, 2568.276
301.7724, 2724.940
302.2545, 2904.769
302.7367, 3109.183
303.2188, 3343.896
303.7009, 3583.298
304.1830, 3831.709
304.6651, 4081.777
305.1472, 4329.508
305.6294, 4574.682
306.1115, 4818.802
306.5936, 5062.332
307.0757, 5306.000
307.5578, 5552.728
308.0399, 5799.568
308.5221, 6051.893
309.0042, 6300.542
309.4863, 6555.302
309.9684, 6830.780
310.4505, 7130.531
310.9326, 7462.298
311.4148, 7877.026
311.8969, 8343.430
312.3790, 8914.243
312.8611, 9582.840
313.3432, 10367.19
313.8253, 11300.33
314.3075, 12394.18
314.7896, 13642.53
315.2717, 15048.47
315.7538, 16728.37
316.2359, 18406.36
316.7180, 20095.16
317.2001, 21757.56
317.6823, 23345.95
318.1644, 24854.21
318.6465, 26307.50
319.1286, 27757.79
319.6107, 29249.70
320.0928, 30583.51
320.5750, 31812.56
321.0571, 32859.13
321.5392, 33631.31
322.0213, 34133.93
322.5034, 34491.55
322.9855, 34829.57
323.4677, 35167.15
323.9498, 35303.10
324.4319, 35157.55
324.9140, 34919.64
325.3961, 34534.73
325.8782, 34113.51
326.3604, 33883.86
326.8425, 33968.28
327.3246, 34394.90
327.8067, 35533.22
328.2888, 37384.86
328.7709, 39823.26
329.2531, 42933.27
329.7352, 46588.45
330.2173, 50707.82
330.6994, 55280.55
331.1815, 60061.56
331.6636, 64422.00
332.1458, 69762.07
332.6279, 72789.80
333.1100, 73260.81
333.5921, 71440.85
334.0742, 67046.24
334.5563, 60172.99
335.0385, 52000.83
335.5206, 44195.19
336.0027, 36517.37
336.4848, 29943.78
336.9669, 24427.21
337.4490, 19847.24
337.9312, 16244.13
338.4133, 13522.96
338.8954, 11467.59
339.3775, 9914.572
339.8596, 8889.948
340.3417, 8017.193
340.8239, 7333.200
341.3060, 6739.687
341.7881, 6222.344
342.2702, 5767.704
342.7523, 5361.753
343.2344, 4997.029
343.7166, 4690.010
344.1987, 4407.663
344.6808, 4216.778
345.1629, 4062.225
345.6450, 3947.786
346.1271, 3866.666
346.6093, 3815.443
347.0914, 3792.428
347.5735, 3791.266
348.0556, 3803.027
348.5377, 3846.659
349.0198, 3868.018
349.5020, 3880.525
349.9841, 3865.011
350.4662, 3805.093
350.9483, 3701.357
351.4304, 3566.156
351.9125, 3407.115
352.3947, 3216.465
352.8768, 3056.058
353.3589, 2918.917
353.8410, 2818.573
354.3231, 2759.593
354.8052, 2741.957
355.2874, 2766.424
355.7695, 2836.146
356.2516, 2946.027
356.7337, 3070.778
357.2158, 3234.301
357.6979, 3379.508
358.1800, 3508.426
358.6621, 3610.372
359.1443, 3670.010
359.6264, 3681.982
360.1085, 3661.236
360.5906, 3629.873
361.0727, 3577.251
361.5548, 3542.490
362.0370, 3522.583
362.5191, 3525.327
363.0012, 3555.688
363.4833, 3614.564
363.9654, 3700.141
364.4475, 3811.419
364.9297, 3948.577
365.4118, 4108.161
365.8939, 4288.169
366.3760, 4496.397
366.8581, 4723.062
367.3402, 4978.564
367.8224, 5279.797
368.3045, 5625.949
368.7866, 6030.116
369.2687, 6533.636
369.7508, 7139.736
370.2329, 7844.384
370.7151, 8667.109
371.1972, 9569.031
371.6793, 10554.95
372.1614, 11630.47
372.6435, 12700.59
373.1256, 13742.94
373.6078, 14785.36
374.0899, 15389.72
374.5720, 15419.17
375.0541, 14964.95
375.5362, 14002.27
376.0183, 12577.69
376.5005, 11059.47
376.9826, 9579.899
377.4647, 8181.178
377.9468, 7007.549
378.4289, 6076.941
378.9110, 5359.341
379.3932, 4883.737
379.8753, 4591.874
380.3574, 4399.645
380.8395, 4302.476
381.3216, 4273.671
381.8037, 4284.710
382.2859, 4335.485
382.7680, 4426.489
383.2501, 4559.811
383.7322, 4737.454
384.2143, 4954.312
384.6964, 5211.527
385.1786, 5499.866
385.6607, 5846.094
386.1428, 6217.976
386.6249, 6562.097
387.1070, 6900.823
387.5891, 7107.329
388.0713, 6991.984
388.5534, 6586.020
389.0355, 6061.353
389.5176, 5357.858
389.9997, 4609.681
390.4818, 3930.277
390.9640, 3327.047
391.4461, 2806.811
391.9282, 2376.438
392.4103, 2037.925
392.8924, 1767.824
393.3745, 1584.102
393.8567, 1441.674
394.3388, 1334.855
394.8209, 1255.994
395.3030, 1193.359
395.7851, 1142.627
396.2672, 1102.081
396.7494, 1068.819
397.2315, 1045.889
397.7136, 1023.729
398.1957, 1000.546
398.6778, 978.7141
399.1599, 960.1042
399.6420, 944.8710
400.1241, 932.2769
400.6063, 921.9988
401.0884, 914.0964
401.5705, 905.2307
402.0526, 894.5999
402.5347, 884.0468
403.0168, 873.7607
403.4990, 863.9948
403.9811, 854.9529
404.4632, 846.7510
404.9453, 839.7363
405.4274, 835.0815
405.9095, 836.0975
406.3917, 833.8285
406.8738, 826.6644
407.3559, 817.5120
407.8380, 807.1609
408.3201, 796.4756
408.8022, 787.5375
409.2844, 782.8746
409.7665, 782.8771
410.2486, 781.1530
410.7307, 776.1223
411.2128, 770.9640
411.6949, 766.6870
412.1771, 762.8849
412.6592, 758.6171
413.1413, 753.2454
413.6234, 747.7516
414.1055, 744.6613
414.5876, 745.1249
415.0698, 744.4322
415.5519, 739.5316
416.0340, 734.4020
416.5161, 732.4928
416.9982, 733.9640
417.4803, 735.0347
417.9625, 731.5577
418.4446, 724.4078
418.9267, 719.5492
419.4088, 717.8157
419.8909, 717.7303
420.3730, 720.1910
420.8552, 723.4211
421.3373, 723.4911
421.8194, 717.9628
422.3015, 709.8951
422.7836, 701.6613
423.2657, 693.3230
423.7479, 688.6097
424.2300, 691.1063
424.7121, 696.2220
425.1942, 696.6920
425.6763, 691.9016
426.1584, 685.9626
426.6406, 679.5750
427.1227, 673.4706
427.6048, 669.3007
428.0869, 667.4266
428.5690, 665.9012
429.0511, 662.8629
429.5333, 658.3030
430.0154, 654.5334
430.4975, 651.6102
430.9796, 649.4273
431.4617, 648.6144
431.9438, 648.5351
432.4260, 647.5606
432.9081, 644.8865
433.3902, 641.0502
433.8723, 637.2784
434.3544, 633.2549
434.8365, 629.8676
435.3187, 627.2149
435.8008, 625.1554
436.2829, 623.8244
436.7650, 623.0902
437.2471, 622.4576
437.7292, 621.5568
438.2114, 620.4016
438.6935, 618.2339
439.1756, 612.9739
439.6577, 609.0172
440.1398, 607.5682
440.6219, 607.9688
441.1040, 609.8273
441.5862, 612.9575
442.0683, 616.0441
442.5504, 616.2847
443.0325, 612.3361
443.5146, 609.6870
443.9967, 609.5599
444.4789, 610.2264
444.9610, 611.2750
445.4431, 612.4262
445.9252, 613.0928
446.4073, 612.4222
446.8894, 610.9862
447.3716, 611.2086
447.8537, 613.8197
448.3358, 616.2573
448.8179, 617.4411
449.3000, 617.8388
449.7821, 617.9945
450.2643, 618.1309
450.7464, 617.4769
451.2285, 615.0862
451.7106, 611.2257
452.1927, 607.0251
452.6748, 602.1749
453.1570, 598.1703
453.6391, 597.8779
454.1212, 600.3055
454.6033, 600.5169
455.0854, 595.1998
455.5675, 588.8031
456.0497, 585.8564
456.5318, 585.8356
457.0139, 584.9269
457.4960, 581.1149
457.9781, 575.2631
458.4602, 569.3885
458.9424, 562.2792
459.4245, 557.5446
459.9066, 557.7699
460.3887, 559.6032
460.8708, 559.3533
461.3529, 556.6357
461.8351, 553.8895
462.3172, 553.6524
462.7993, 556.0822
463.2814, 556.0159
463.7635, 549.2175
464.2456, 544.9466
464.7278, 547.9285
465.2099, 554.0244
465.6920, 557.3524
466.1741, 555.6738
466.6562, 551.3939
467.1383, 548.4119
467.6205, 546.9459
468.1026, 546.0430
468.5847, 546.3109
469.0668, 546.5696
469.5489, 546.0536
470.0310, 545.0631
470.5132, 544.4432
470.9953, 544.6422
471.4774, 545.6256
471.9595, 548.0341
472.4416, 552.9948
472.9237, 555.1324
473.4059, 548.8676
473.8880, 541.1033
474.3701, 538.6712
474.8522, 542.4886
475.3343, 546.6988
475.8164, 547.3436
476.2986, 545.5895
476.7807, 544.2343
477.2628, 543.5975
477.7449, 543.3148
478.2270, 543.2272
478.7091, 543.2880
479.1913, 543.3071
479.6734, 543.9776
480.1555, 543.8220
480.6376, 540.4940
481.1197, 535.9507
481.6018, 535.0659
482.0839, 539.6420
482.5660, 545.5583
483.0482, 546.9368
483.5303, 542.0995
484.0124, 538.4783
484.4945, 534.9911
484.9766, 533.6374
485.4587, 537.5099
485.9409, 544.3781
486.4230, 548.7585
486.9051, 547.4235
487.3872, 542.6298
487.8693, 541.0789
488.3514, 545.2994
488.8336, 548.0292
489.3157, 549.0330
489.7978, 548.4142
490.2799, 544.9016
490.7620, 539.3939
491.2441, 535.3375
491.7263, 536.2888
492.2084, 540.9455
492.6905, 542.7379
493.1726, 540.4326
493.6547, 538.2294
494.1368, 538.4508
494.6190, 539.3615
495.1011, 539.1476
495.5832, 537.4030
496.0653, 535.2894
496.5474, 532.9237
497.0295, 530.8607
497.5117, 531.5141
497.9938, 535.9982
498.4759, 539.9276
498.9580, 538.7084
499.4401, 533.5468
499.9222, 531.1459
500.4044, 534.7350
500.8865, 538.2399
501.3686, 537.8087
501.8507, 535.1237
502.3328, 533.6705
502.8149, 534.6483
503.2971, 537.0150
503.7792, 539.6295
504.2613, 543.4251
504.7434, 543.7574
505.2255, 537.2422
505.7076, 531.0024
506.1898, 528.6204
506.6719, 529.1074
507.1540, 529.9101
507.6361, 529.6669
508.1182, 529.2189
508.6003, 531.0785
509.0825, 537.4522
509.5646, 540.1930
510.0467, 535.4293
510.5288, 529.4767
511.0109, 525.3813
511.4930, 523.1215
511.9752, 521.4061
512.4573, 519.4368
512.9394, 517.4703
513.4215, 516.2319
513.9036, 515.8611
514.3857, 515.2856
514.8679, 513.8939
515.3500, 512.2312
515.8321, 510.9407
516.3142, 510.0335
516.7963, 509.5107
517.2784, 509.6968
517.7606, 510.1144
518.2427, 509.5315
518.7248, 507.9848
519.2069, 508.2034
519.6890, 513.0038
520.1711, 520.6916
520.6533, 522.4660
521.1354, 514.3463
521.6175, 506.6526
522.0996, 500.2429
522.5817, 495.5226
523.0638, 493.5197
523.5460, 494.0648
524.0281, 495.4998
524.5102, 496.4301
524.9923, 496.8375
525.4744, 495.8505
525.9565, 492.5222
526.4387, 488.9606
526.9208, 484.5175
527.4029, 480.6085
527.8850, 479.3245
528.3671, 481.0290
528.8492, 482.8690
529.3314, 481.5731
529.8135, 477.4886
530.2956, 473.7152
530.7777, 469.7618
531.2598, 467.5352
531.7419, 470.1255
532.2241, 474.8260
532.7062, 477.2456
533.1883, 476.0584
533.6704, 473.5512
534.1525, 470.2495
534.6346, 466.8882
535.1168, 465.6654
535.5989, 467.2625
536.0810, 468.9491
536.5631, 467.5629
537.0452, 462.9086
537.5273, 461.0279
538.0095, 464.7697
538.4916, 467.8356
538.9737, 467.4810
539.4558, 465.1306
539.9379, 462.8122
540.4200, 461.2471
540.9022, 460.2094
541.3843, 459.3740
541.8664, 458.6691
542.3485, 458.6028
542.8306, 460.4329
543.3127, 461.5261
543.7948, 460.1946
544.2769, 457.8510
544.7590, 456.8098
545.2411, 458.0393
545.7233, 459.8646
546.2054, 460.2920
546.6875, 459.3833
547.1696, 457.8516
547.6517, 455.2613
548.1339, 453.0982
548.6160, 453.1341
549.0981, 454.6540
549.5802, 455.6948
550.0623, 454.8483
550.5444, 454.5357
551.0266, 457.8452
551.5087, 462.7440
551.9908, 464.1382
552.4729, 460.4007
552.9550, 454.5738
553.4371, 450.0516
553.9193, 446.5931
554.4014, 446.1986
554.8835, 452.5487
555.3656, 457.4434
555.8477, 457.2430
556.3298, 453.9371
556.8120, 450.1465
557.2941, 446.9179
557.7762, 444.7679
558.2583, 444.9068
558.7404, 447.7579
559.2225, 449.2363
559.7047, 447.8546
560.1868, 446.8941
560.6689, 448.5606
561.1510, 451.4610
561.6331, 453.4013
562.1152, 453.9123
562.5974, 452.7458
563.0795, 448.2986
563.5616, 441.7861
564.0437, 437.8841
564.5258, 437.7986
565.0079, 439.1387
565.4901, 440.4433
565.9722, 441.4776
566.4543, 440.0114
566.9364, 433.2883
567.4185, 427.2428
567.9006, 424.6687
568.3828, 423.9476
568.8649, 422.5426
569.3470, 419.8862
569.8291, 417.5272
570.3112, 417.5934
570.7933, 420.3452
571.2755, 420.7589
571.7576, 416.2249
572.2397, 412.5854
572.7218, 411.5744
573.2039, 411.9747
573.6860, 412.7128
574.1682, 413.4768
574.6503, 413.6219
575.1324, 411.6286
575.6145, 408.3170
576.0966, 407.8614
576.5787, 411.3054
577.0609, 414.5473
577.5430, 415.6530
578.0251, 414.5333
578.5072, 410.8248
578.9893, 402.0236
579.4714, 396.2700
579.9536, 399.1597
580.4357, 405.4986
580.9178, 409.4988
581.3999, 410.2604
581.8820, 408.7060
582.3641, 405.2301
582.8463, 400.2816
583.3284, 396.3566
583.8105, 391.8905
584.2926, 390.9630
584.7747, 397.2205
585.2568, 404.4001
585.7390, 408.0274
586.2211, 407.8330
586.7032, 405.7038
587.1853, 402.2774
587.6674, 398.3885
588.1495, 396.3517
588.6317, 396.2926
589.1138, 397.5247
