##NAMES=Anorthite
##RRUFFID=R060221
##IDEAL CHEMISTRY=CaAl_2_Si_2_O_8_
##LOCALITY=Pinacate lavafield, Sonora, Mexico
##OWNER=RRUFF
##SOURCE=Rock Currier
##DESCRIPTION=Light tan transparent fragment
##STATUS=The identification of this mineral has been confirmed by X-ray diffraction and chemical analysis
##URL=rruff.info/R060221
##MEASURED CHEMISTRY=(Ca_0.65_Na_0.34_K_0.01_)(Al_1.66_Fe^3+^_0.01_)Si_2.33_O_8_
91.82715, 734.6429
92.30927, 721.4601
92.79138, 724.2704
93.27350, 737.2598
93.75562, 748.5590
94.23773, 755.4709
94.71985, 759.4870
95.20197, 760.8090
95.68408, 759.2392
96.16620, 755.9035
96.64832, 752.4001
97.13043, 749.1774
97.61255, 745.7689
98.09467, 741.3935
98.57678, 735.7262
99.05890, 728.3962
99.54102, 721.2983
100.0231, 714.7484
100.5052, 708.8019
100.9874, 703.3736
101.4695, 698.2777
101.9516, 693.1445
102.4337, 685.6768
102.9158, 680.3701
103.3979, 679.2783
103.8801, 680.8339
104.3622, 682.1506
104.8443, 680.8939
105.3264, 676.7161
105.8085, 673.3252
106.2906, 670.7995
106.7728, 668.5845
107.2549, 666.2845
107.7370, 663.8858
108.2191, 661.7533
108.7012, 660.3871
109.1833, 659.8176
109.6655, 659.2889
110.1476, 658.2447
110.6297, 657.2793
111.1118, 657.6004
111.5939, 660.0174
112.0760, 662.5140
112.5582, 662.7176
113.0403, 660.8428
113.5224, 658.8059
114.0045, 657.7202
114.4866, 657.5450
114.9688, 657.6249
115.4509, 657.9993
115.9330, 658.4836
116.4151, 659.0880
116.8972, 659.7914
117.3793, 660.3358
117.8615, 660.2261
118.3436, 658.9123
118.8257, 658.3167
119.3078, 659.1931
119.7899, 660.4431
120.2720, 661.0830
120.7542, 660.7316
121.2363, 659.9013
121.7184, 660.0685
122.2005, 662.5787
122.6826, 664.7111
123.1647, 666.1945
123.6468, 667.2039
124.1290, 668.0039
124.6111, 668.7566
125.0932, 669.4310
125.5753, 669.7733
126.0574, 669.2226
126.5395, 668.9634
127.0217, 669.6497
127.5038, 671.1502
127.9859, 672.7308
128.4680, 673.8391
128.9501, 674.5818
129.4323, 675.6214
129.9144, 677.0969
130.3965, 678.8341
130.8786, 680.8011
131.3607, 683.0989
131.8428, 685.1561
132.3250, 686.2590
132.8071, 686.8231
133.2892, 687.5363
133.7713, 688.6324
134.2534, 690.0921
134.7355, 691.9203
135.2177, 694.4055
135.6998, 696.8751
136.1819, 698.7635
136.6640, 700.3250
137.1461, 702.1766
137.6282, 704.9112
138.1104, 708.6198
138.5925, 712.1907
139.0746, 715.8105
139.5567, 719.1271
140.0388, 721.7700
140.5209, 723.8652
141.0031, 725.9686
141.4852, 728.7561
141.9673, 732.5574
142.4494, 736.2576
142.9315, 739.9231
143.4136, 743.4583
143.8958, 746.8406
144.3779, 750.0445
144.8600, 753.0861
145.3421, 755.9706
145.8242, 758.5380
146.3063, 761.2585
146.7885, 764.6035
147.2706, 767.9793
147.7527, 770.6920
148.2348, 772.5047
148.7169, 773.5551
149.1990, 773.9630
149.6812, 773.6641
150.1633, 773.2350
150.6454, 772.9031
151.1275, 772.6089
151.6096, 772.0916
152.0917, 770.9543
152.5739, 769.8700
153.0560, 769.7739
153.5381, 770.8429
154.0202, 772.3292
154.5023, 773.9429
154.9844, 775.7170
155.4665, 776.7507
155.9487, 775.8722
156.4308, 774.4828
156.9129, 773.6111
157.3950, 773.4938
157.8771, 773.9449
158.3592, 774.7508
158.8414, 776.0060
159.3235, 777.3982
159.8056, 778.9264
160.2877, 780.4995
160.7698, 781.9469
161.2519, 783.1619
161.7341, 784.4083
162.2162, 786.4782
162.6983, 790.1629
163.1804, 793.6873
163.6625, 796.6161
164.1446, 799.3021
164.6268, 802.1698
165.1089, 805.4830
165.5910, 809.1639
166.0731, 812.8045
166.5552, 816.1549
167.0373, 819.7401
167.5195, 823.7941
168.0016, 828.1729
168.4837, 832.6219
168.9658, 836.9711
169.4479, 841.2524
169.9300, 845.4709
170.4122, 849.5606
170.8943, 853.6624
171.3764, 857.7904
171.8585, 861.9601
172.3406, 866.2872
172.8227, 870.9055
173.3049, 875.7507
173.7870, 880.3884
174.2691, 884.4260
174.7512, 888.5550
175.2333, 893.5653
175.7154, 899.5267
176.1976, 905.2765
176.6797, 909.8362
177.1618, 913.5201
177.6439, 916.9156
178.1260, 920.3102
178.6081, 923.4290
179.0903, 925.9048
179.5724, 927.6989
180.0545, 928.8904
180.5366, 929.0368
181.0187, 928.6935
181.5008, 928.7859
181.9830, 930.1663
182.4651, 932.2350
182.9472, 933.1310
183.4293, 932.5720
183.9114, 931.1072
184.3935, 928.5175
184.8757, 925.3932
185.3578, 922.7426
185.8399, 921.3766
186.3220, 921.1457
186.8041, 920.4477
187.2862, 918.6716
187.7684, 917.0493
188.2505, 916.0017
188.7326, 915.3813
189.2147, 914.8318
189.6968, 914.0436
190.1789, 912.9885
190.6611, 912.3547
191.1432, 912.4066
191.6253, 912.6053
192.1074, 912.9275
192.5895, 913.2712
193.0716, 913.4518
193.5538, 913.2823
194.0359, 912.6981
194.5180, 912.2668
195.0001, 912.3140
195.4822, 912.1852
195.9643, 911.4855
196.4465, 910.2785
196.9286, 908.9985
197.4107, 908.1844
197.8928, 907.9916
198.3749, 906.3074
198.8570, 901.8220
199.3392, 897.0010
199.8213, 893.6248
200.3034, 891.7535
200.7855, 890.0582
201.2676, 887.2912
201.7497, 883.3646
202.2319, 879.5974
202.7140, 876.2203
203.1961, 872.9135
203.6782, 869.4432
204.1603, 865.7780
204.6424, 861.8456
205.1246, 857.3019
205.6067, 852.3168
206.0888, 847.7784
206.5709, 844.1815
207.0530, 841.0057
207.5351, 837.4812
208.0173, 833.4265
208.4994, 829.4677
208.9815, 826.3394
209.4636, 823.6841
209.9457, 820.7595
210.4278, 817.1018
210.9100, 813.0016
211.3921, 809.0398
211.8742, 805.1940
212.3563, 801.6028
212.8384, 798.2308
213.3205, 795.1312
213.8027, 792.4668
214.2848, 790.5703
214.7669, 789.1639
215.2490, 787.2252
215.7311, 784.3046
216.2132, 781.5273
216.6954, 779.8088
217.1775, 778.5072
217.6596, 776.4197
218.1417, 772.4827
218.6238, 767.1629
219.1059, 763.3209
219.5881, 762.0797
220.0702, 761.0937
220.5523, 759.8582
221.0344, 758.3615
221.5165, 756.5323
221.9986, 754.1788
222.4808, 751.4680
222.9629, 749.9865
223.4450, 751.3068
223.9271, 752.2960
224.4092, 752.3958
224.8913, 751.7079
225.3735, 750.4601
225.8556, 748.7562
226.3377, 746.6458
226.8198, 744.5648
227.3019, 742.3584
227.7840, 740.3581
228.2662, 738.8132
228.7483, 737.5140
229.2304, 736.0109
229.7125, 733.9344
230.1946, 731.4257
230.6767, 730.1337
231.1589, 731.2134
231.6410, 732.1322
232.1231, 732.3357
232.6052, 731.9240
233.0873, 731.0497
233.5694, 729.7074
234.0516, 728.0703
234.5337, 727.4720
235.0158, 728.8486
235.4979, 730.0219
235.9800, 730.1127
236.4621, 729.5177
236.9443, 729.1168
237.4264, 729.3904
237.9085, 730.2375
238.3906, 731.1921
238.8727, 732.6380
239.3548, 733.7568
239.8370, 733.9958
240.3191, 733.6718
240.8012, 733.5652
241.2833, 734.0850
241.7654, 735.0511
242.2475, 735.8743
242.7297, 736.1948
243.2118, 736.9401
243.6939, 738.9508
244.1760, 741.7753
244.6581, 744.0121
245.1402, 744.9527
245.6224, 745.1171
246.1045, 745.5539
246.5866, 746.2314
247.0687, 747.1877
247.5508, 748.6006
248.0329, 750.3429
248.5151, 751.9332
248.9972, 753.0684
249.4793, 754.1793
249.9614, 756.0303
250.4435, 758.7961
250.9256, 761.1970
251.4078, 762.5029
251.8899, 762.8401
252.3720, 762.6477
252.8541, 761.4485
253.3362, 760.5320
253.8183, 761.3432
254.3005, 763.8586
254.7826, 766.6255
255.2647, 768.8128
255.7468, 770.5061
256.2289, 772.1363
256.7110, 773.7727
257.1931, 775.3531
257.6753, 776.9225
258.1574, 778.4478
258.6395, 779.7115
259.1216, 780.2664
259.6037, 780.3198
260.0858, 781.1653
260.5680, 783.6852
261.0501, 785.9562
261.5322, 786.5681
262.0143, 785.9504
262.4964, 785.4139
262.9785, 785.7289
263.4607, 786.8165
263.9428, 788.3378
264.4249, 790.8947
264.9070, 792.9717
265.3891, 793.4587
265.8712, 793.0121
266.3534, 792.9768
266.8355, 794.3651
267.3176, 796.7672
267.7997, 798.3870
268.2818, 798.6687
268.7639, 798.9816
269.2461, 800.0663
269.7282, 801.4529
270.2103, 802.4002
270.6924, 802.4172
271.1745, 801.8466
271.6566, 801.8275
272.1388, 802.6607
272.6209, 803.5719
273.1030, 804.5984
273.5851, 805.4896
274.0672, 805.8860
274.5493, 805.5936
275.0315, 804.8925
275.5136, 804.4964
275.9957, 804.6445
276.4778, 804.6455
276.9599, 804.1364
277.4420, 803.5710
277.9242, 803.4623
278.4063, 803.9862
278.8884, 804.7294
279.3705, 804.8788
279.8526, 804.0783
280.3347, 803.4382
280.8169, 803.3528
281.2990, 803.2728
281.7811, 802.7389
282.2632, 801.6641
282.7453, 800.3700
283.2274, 799.3416
283.7096, 798.7395
284.1917, 798.0084
284.6738, 797.4464
285.1559, 796.5419
285.6380, 794.7852
286.1201, 792.2420
286.6023, 789.5190
287.0844, 787.3109
287.5665, 785.7835
288.0486, 784.1575
288.5307, 782.4414
289.0128, 780.6270
289.4950, 778.6037
289.9771, 776.4420
290.4592, 774.4156
290.9413, 772.8887
291.4234, 771.9808
291.9055, 769.9969
292.3877, 765.7896
292.8698, 761.6630
293.3519, 758.1887
293.8340, 755.3824
294.3161, 753.1199
294.7982, 751.3479
295.2804, 750.0343
295.7625, 748.8377
296.2446, 748.2303
296.7267, 747.2275
297.2088, 745.4761
297.6909, 743.2447
298.1731, 740.9055
298.6552, 738.6619
299.1373, 736.5184
299.6194, 734.4997
300.1015, 732.2740
300.5836, 730.6472
301.0658, 730.1865
301.5479, 730.1555
302.0300, 729.6934
302.5121, 728.4741
302.9942, 726.9213
303.4763, 725.9453
303.9585, 726.5242
304.4406, 726.1747
304.9227, 723.8118
305.4048, 721.2408
305.8869, 720.1144
306.3690, 720.7159
306.8512, 721.8677
307.3333, 721.8604
307.8154, 719.8879
308.2975, 718.9081
308.7796, 719.6729
309.2617, 720.6432
309.7439, 720.8956
310.2260, 720.3945
310.7081, 719.6403
311.1902, 719.1306
311.6723, 718.9154
312.1544, 718.5494
312.6366, 717.5034
313.1187, 716.8381
313.6008, 717.1675
314.0829, 718.2431
314.5650, 719.4381
315.0471, 720.3135
315.5293, 720.8829
316.0114, 721.3203
316.4935, 721.6146
316.9756, 721.7899
317.4577, 721.5928
317.9398, 721.3301
318.4220, 721.3546
318.9041, 721.8306
319.3862, 722.8466
319.8683, 724.7480
320.3504, 729.5370
320.8326, 732.6014
321.3147, 732.6712
321.7968, 731.4561
322.2789, 730.5223
322.7610, 730.4102
323.2431, 730.7559
323.7253, 730.9226
324.2074, 730.5909
324.6895, 730.7429
325.1716, 731.7026
325.6537, 732.8349
326.1358, 733.7861
326.6180, 734.4749
327.1001, 734.9398
327.5822, 735.1645
328.0643, 735.0137
328.5464, 735.3506
329.0285, 736.3066
329.5107, 737.5479
329.9928, 739.3232
330.4749, 741.3088
330.9570, 742.7709
331.4391, 743.1212
331.9212, 742.4354
332.4034, 741.8275
332.8855, 740.9053
333.3676, 740.5101
333.8497, 741.4114
334.3318, 742.7936
334.8139, 743.4172
335.2961, 742.6413
335.7782, 741.0302
336.2603, 740.2696
336.7424, 741.1271
337.2245, 741.7330
337.7066, 741.7806
338.1888, 741.6370
338.6709, 741.6156
339.1530, 741.8053
339.6351, 742.1003
340.1172, 742.4569
340.5993, 743.2851
341.0815, 743.0690
341.5636, 740.4122
342.0457, 738.0099
342.5278, 737.7911
343.0099, 739.4549
343.4920, 741.0871
343.9742, 740.7268
344.4563, 738.2048
344.9384, 736.8488
345.4205, 738.0856
345.9026, 739.1624
346.3847, 739.3054
346.8669, 738.7763
347.3490, 738.1468
347.8311, 737.7742
348.3132, 737.5402
348.7953, 736.9572
349.2774, 735.7021
349.7596, 734.5811
350.2417, 733.7130
350.7238, 733.0449
351.2059, 732.6707
351.6880, 732.6072
352.1701, 732.4572
352.6523, 731.3757
353.1344, 728.7994
353.6165, 727.0352
354.0986, 726.9389
354.5807, 727.2184
355.0628, 727.1879
355.5450, 726.7869
356.0271, 726.3391
356.5092, 726.2933
356.9913, 726.6862
357.4734, 726.4597
357.9555, 725.1238
358.4377, 723.6775
358.9198, 722.3861
359.4019, 721.3082
359.8840, 720.5587
360.3661, 720.3289
360.8482, 720.3867
361.3304, 719.9496
361.8125, 718.7201
362.2946, 717.6657
362.7767, 717.5182
363.2588, 717.5271
363.7409, 716.7180
364.2231, 714.6701
364.7052, 712.5336
365.1873, 711.9479
365.6694, 713.0919
366.1515, 714.1082
366.6336, 714.6848
367.1158, 714.8773
367.5979, 714.6008
368.0800, 713.8926
368.5621, 713.1730
369.0442, 712.8398
369.5263, 712.7800
370.0085, 712.3700
370.4906, 711.2455
370.9727, 710.3564
371.4548, 710.6810
371.9369, 711.7082
372.4190, 712.2797
372.9012, 711.7341
373.3833, 710.6420
373.8654, 709.7798
374.3475, 709.1585
374.8296, 708.7196
375.3117, 708.5618
375.7939, 708.5236
376.2760, 708.3945
376.7581, 708.1984
377.2402, 707.7985
377.7223, 706.9188
378.2044, 705.6976
378.6866, 704.6934
379.1687, 703.9618
379.6508, 703.6666
380.1329, 704.2460
380.6150, 705.6678
381.0971, 706.7704
381.5793, 706.8053
382.0614, 706.4606
382.5435, 706.8643
383.0256, 708.1842
383.5077, 709.3792
383.9898, 709.5947
384.4720, 708.9050
384.9541, 708.2399
385.4362, 707.2371
385.9183, 706.6213
386.4004, 706.9127
386.8825, 707.9800
387.3647, 709.5534
387.8468, 711.7480
388.3289, 713.9681
388.8110, 714.4703
389.2931, 712.4943
389.7752, 710.8361
390.2574, 709.8752
390.7395, 709.6155
391.2216, 710.3073
391.7037, 711.9581
392.1858, 713.8307
392.6679, 715.0709
393.1501, 715.5393
393.6322, 715.9839
394.1143, 716.0685
394.5964, 716.4316
395.0785, 717.6859
395.5606, 719.5627
396.0428, 721.2128
396.5249, 722.0662
397.0070, 722.2963
397.4891, 722.8741
397.9712, 724.1247
398.4533, 725.3337
398.9355, 726.3538
399.4176, 727.3291
399.8997, 728.4874
400.3818, 729.8754
400.8639, 731.2737
401.3460, 732.3972
401.8282, 733.3707
402.3103, 733.6662
402.7924, 732.6329
403.2745, 731.6005
403.7566, 731.1693
404.2387, 731.3293
404.7209, 731.8873
405.2030, 732.8324
405.6851, 734.0167
406.1672, 734.2070
406.6493, 732.6817
407.1314, 731.1470
407.6136, 730.0520
408.0957, 729.1349
408.5778, 728.0572
409.0599, 726.6993
409.5420, 725.3171
410.0241, 724.3751
410.5063, 724.0208
410.9884, 723.3384
411.4705, 722.0929
411.9526, 720.5494
412.4347, 718.7471
412.9168, 716.7531
413.3990, 714.7657
413.8811, 712.8499
414.3632, 711.0510
414.8453, 709.5563
415.3274, 708.4261
415.8095, 707.4574
416.2917, 706.5458
416.7738, 705.7245
417.2559, 705.0258
417.7380, 704.3923
418.2201, 704.0239
418.7022, 704.3973
419.1844, 705.3912
419.6665, 705.7375
420.1486, 704.6944
420.6307, 703.3391
421.1128, 703.2985
421.5949, 704.5714
422.0771, 705.1740
422.5592, 703.6157
423.0413, 701.3196
423.5234, 700.3573
424.0055, 700.9527
424.4876, 701.7862
424.9698, 701.8762
425.4519, 701.3493
425.9340, 701.1578
426.4161, 701.7509
426.8982, 702.1934
427.3803, 701.9296
427.8625, 701.2228
428.3446, 700.5998
428.8267, 700.2502
429.3088, 700.0988
429.7909, 699.9650
430.2730, 699.5053
430.7552, 699.9983
431.2373, 702.7355
431.7194, 705.4659
432.2015, 706.2004
432.6836, 705.1653
433.1657, 704.2149
433.6479, 704.9122
434.1300, 707.0724
434.6121, 708.2263
435.0942, 706.8772
435.5763, 706.2421
436.0584, 707.2721
436.5406, 709.0887
437.0227, 710.8535
437.5048, 712.2282
437.9869, 713.0731
438.4690, 712.9839
438.9511, 711.4625
439.4333, 710.6301
439.9154, 710.7792
440.3975, 711.4059
440.8796, 712.5435
441.3617, 714.0037
441.8438, 715.4186
442.3260, 716.6169
442.8081, 717.5427
443.2902, 717.9108
443.7723, 717.5343
444.2544, 717.0707
444.7365, 716.2466
445.2187, 715.7064
445.7008, 716.3956
446.1829, 718.5826
446.6650, 720.5916
447.1471, 720.3836
447.6292, 718.4947
448.1114, 718.0839
448.5935, 720.1396
449.0756, 722.6935
449.5577, 724.2078
450.0398, 724.8959
450.5219, 725.2702
451.0041, 725.1198
451.4862, 724.9562
451.9683, 725.2022
452.4504, 725.8546
452.9325, 726.9264
453.4146, 728.5203
453.8968, 730.4213
454.3789, 732.1888
454.8610, 733.8281
455.3431, 735.3544
455.8252, 736.3666
456.3073, 737.4894
456.7895, 739.6236
457.2716, 742.7950
457.7537, 746.0267
458.2358, 748.4215
458.7179, 749.9841
459.2000, 752.1658
459.6822, 755.9445
460.1643, 759.1213
460.6464, 760.1594
461.1285, 760.5300
461.6106, 762.6400
462.0927, 767.3186
462.5748, 772.7958
463.0569, 775.8815
463.5391, 775.0400
464.0212, 775.9352
464.5033, 779.3956
464.9854, 783.6818
465.4675, 788.4984
465.9496, 793.4927
466.4318, 798.0563
466.9139, 801.7147
467.3960, 804.7823
467.8781, 808.2075
468.3602, 811.9645
468.8423, 816.1947
469.3245, 821.4017
469.8066, 826.8466
470.2887, 831.8332
470.7708, 836.2803
471.2529, 840.8963
471.7350, 846.3109
472.2172, 852.3679
472.6993, 858.3788
473.1814, 864.2457
473.6635, 870.1846
474.1456, 876.4942
474.6277, 882.9863
475.1099, 889.1660
475.5920, 894.8373
476.0741, 900.2787
476.5562, 905.7095
477.0383, 911.0377
477.5204, 916.0461
478.0026, 920.5553
478.4847, 924.9814
478.9668, 930.0164
479.4489, 935.9788
479.9310, 940.9698
480.4131, 944.7617
480.8953, 947.6508
481.3774, 949.7293
481.8595, 951.0585
482.3416, 951.6494
482.8237, 951.4520
483.3058, 950.7169
483.7880, 950.3241
484.2701, 951.2242
484.7522, 951.0552
485.2343, 949.1275
485.7164, 946.5922
486.1985, 944.1390
486.6807, 941.9462
487.1628, 940.0168
487.6449, 938.2551
488.1270, 936.7036
488.6091, 936.0177
489.0912, 936.7685
489.5734, 937.4931
490.0555, 937.3551
490.5376, 937.1298
491.0197, 937.5877
491.5018, 938.9214
491.9839, 941.1672
492.4661, 944.5812
492.9482, 949.0695
493.4303, 953.6162
493.9124, 957.8682
494.3945, 962.5695
494.8766, 968.0438
495.3588, 974.3725
495.8409, 982.0087
496.3230, 991.5925
496.8051, 1002.042
497.2872, 1012.378
497.7693, 1022.754
498.2515, 1033.961
498.7336, 1046.473
499.2157, 1059.327
499.6978, 1071.014
500.1799, 1081.168
500.6620, 1091.601
501.1442, 1102.855
501.6263, 1114.070
502.1084, 1125.205
502.5905, 1135.861
503.0726, 1145.188
503.5547, 1152.635
504.0369, 1159.720
504.5190, 1163.787
505.0011, 1169.490
505.4832, 1173.013
505.9653, 1174.386
506.4474, 1173.661
506.9296, 1170.492
507.4117, 1165.133
507.8938, 1158.556
508.3759, 1151.622
508.8580, 1144.118
509.3401, 1135.111
509.8223, 1124.432
510.3044, 1112.517
510.7865, 1098.828
511.2686, 1084.362
511.7507, 1070.078
512.2328, 1056.144
512.7150, 1042.018
513.1971, 1027.065
513.6792, 1011.578
514.1613, 996.2533
514.6434, 981.2052
515.1255, 966.0152
515.6077, 949.9283
516.0898, 933.4232
516.5719, 918.5278
517.0540, 906.0398
517.5361, 894.3597
518.0182, 883.0717
518.5004, 872.0371
518.9825, 860.8567
519.4646, 849.3912
519.9467, 838.3914
520.4288, 828.7979
520.9109, 820.8160
521.3931, 812.8158
521.8752, 804.1866
522.3573, 796.0992
522.8394, 789.3350
523.3215, 783.2819
523.8036, 776.9706
524.2858, 770.0600
524.7679, 762.9939
525.2500, 756.5399
525.7321, 750.7178
526.2142, 745.4578
526.6964, 741.2505
527.1785, 737.1346
527.6606, 732.6514
528.1427, 727.9206
528.6248, 723.1765
529.1069, 718.3944
529.5891, 713.8572
530.0712, 709.9230
530.5533, 706.5900
531.0354, 703.9294
531.5175, 702.2207
531.9996, 700.7927
532.4818, 698.7414
532.9639, 696.1378
533.4460, 693.7523
533.9281, 691.9426
534.4102, 690.2468
534.8923, 688.2075
535.3745, 685.9482
535.8566, 683.7844
536.3387, 681.8323
536.8208, 680.2956
537.3029, 679.6765
537.7850, 680.7970
538.2672, 681.1226
538.7493, 679.7281
539.2314, 678.4434
539.7135, 678.5789
540.1956, 679.7201
540.6777, 680.4977
541.1599, 680.0081
541.6420, 678.9616
542.1241, 679.2757
542.6062, 681.4208
543.0883, 683.4202
543.5704, 684.7596
544.0526, 685.9670
544.5347, 687.5078
545.0168, 689.2684
545.4989, 690.6014
545.9810, 690.5374
546.4631, 690.2061
546.9453, 691.6589
547.4274, 694.8428
547.9095, 697.7958
548.3916, 699.6703
548.8737, 700.9549
549.3558, 702.3906
549.8380, 703.9244
550.3201, 705.7592
550.8022, 708.0537
551.2843, 710.5559
551.7664, 713.0773
552.2485, 715.6180
552.7307, 718.3332
553.2128, 721.3727
553.6949, 724.4374
554.1770, 726.6562
554.6591, 727.3128
555.1412, 728.3871
555.6234, 730.3732
556.1055, 732.3477
556.5876, 733.6290
557.0697, 734.3962
557.5518, 735.3270
558.0339, 736.8936
558.5161, 738.8142
558.9982, 740.6644
559.4803, 742.6082
559.9624, 743.4332
560.4445, 742.4332
560.9266, 740.4982
561.4088, 738.4031
561.8909, 736.1723
562.3730, 733.9603
562.8551, 732.2410
563.3372, 730.2783
563.8193, 727.0720
564.3015, 722.8262
564.7836, 718.6258
565.2657, 714.9168
565.7478, 711.5958
566.2299, 708.4835
566.7120, 705.7534
567.1942, 702.8059
567.6763, 699.6912
568.1584, 696.3315
568.6405, 692.3096
569.1226, 688.0284
569.6047, 684.3519
570.0869, 681.7753
570.5690, 679.7581
571.0511, 677.2331
571.5332, 674.0682
572.0153, 670.7996
572.4974, 667.0951
572.9796, 663.7045
573.4617, 661.0513
573.9438, 659.0108
574.4259, 657.2673
574.9080, 655.7995
575.3901, 654.4209
575.8723, 652.9647
576.3544, 651.4285
576.8365, 649.7143
577.3186, 647.7300
577.8007, 645.7746
578.2828, 644.2221
578.7650, 643.0974
579.2471, 641.9335
579.7292, 640.6686
580.2113, 639.4149
580.6934, 638.0157
581.1755, 636.7176
581.6577, 636.0750
582.1398, 636.2287
582.6219, 636.4301
583.1040, 635.5363
583.5861, 633.2981
584.0682, 631.9628
584.5504, 632.4114
585.0325, 632.7218
585.5146, 632.3919
585.9967, 631.5714
586.4788, 630.3344
586.9609, 628.6693
587.4431, 627.1316
587.9252, 626.3103
588.4073, 626.0627
