##NAMES=Anorthite
##RRUFFID=R060193
##IDEAL CHEMISTRY=CaAl_2_Si_2_O_8_
##LOCALITY=Mexico
##OWNER=RRUFF
##SOURCE=Bill Barker
##DESCRIPTION=Tan colored translucent fragment
##STATUS=The identification of this mineral has been confirmed by X-ray diffraction and chemical analysis
##URL=rruff.info/R060193
##MEASURED CHEMISTRY=(Ca_0.58_Na_0.39_K_0.02_)Al_1.60_Si_2.40_O_8_
91.82715, 854.5311
92.30927, 835.5120
92.79138, 839.2924
93.27350, 859.2637
93.75562, 878.0036
94.23773, 890.5215
94.71985, 898.8163
95.20197, 904.8114
95.68408, 909.3621
96.16620, 912.5255
96.64832, 914.9886
97.13043, 917.0488
97.61255, 918.7883
98.09467, 920.4435
98.57678, 919.8230
99.05890, 921.1086
99.54102, 916.7952
100.0231, 911.9243
100.5052, 908.1330
100.9874, 906.0676
101.4695, 905.4131
101.9516, 905.2424
102.4337, 905.7076
102.9158, 906.4066
103.3979, 906.9399
103.8801, 907.5742
104.3622, 909.0162
104.8443, 912.0275
105.3264, 916.9247
105.8085, 919.1368
106.2906, 917.0829
106.7728, 913.9838
107.2549, 911.1539
107.7370, 908.8613
108.2191, 907.3834
108.7012, 907.4366
109.1833, 909.1422
109.6655, 909.9285
110.1476, 908.1255
110.6297, 905.5145
111.1118, 905.0594
111.5939, 907.9929
112.0760, 911.8527
112.5582, 914.3566
113.0403, 915.6007
113.5224, 915.6104
114.0045, 913.9675
114.4866, 910.7372
114.9688, 907.4941
115.4509, 904.3832
115.9330, 901.4760
116.4151, 898.8252
116.8972, 896.4464
117.3793, 894.2112
117.8615, 891.8192
118.3436, 888.8818
118.8257, 886.8256
119.3078, 885.9967
119.7899, 885.8082
120.2720, 885.9947
120.7542, 886.4297
121.2363, 886.8949
121.7184, 886.7708
122.2005, 885.6791
122.6826, 884.2900
123.1647, 882.5266
123.6468, 880.4993
124.1290, 878.3546
124.6111, 876.1473
125.0932, 873.8812
125.5753, 871.6022
126.0574, 868.6729
126.5395, 866.3188
127.0217, 865.2043
127.5038, 865.1976
127.9859, 865.6702
128.4680, 866.5412
128.9501, 867.5206
129.4323, 867.3701
129.9144, 864.9886
130.3965, 862.0185
130.8786, 860.0623
131.3607, 859.2292
131.8428, 859.1658
132.3250, 860.2211
132.8071, 861.8558
133.2892, 863.0709
133.7713, 862.9130
134.2534, 861.9234
134.7355, 862.0189
135.2177, 863.6984
135.6998, 865.9083
136.1819, 868.5316
136.6640, 871.2607
137.1461, 873.3546
137.6282, 873.7535
138.1104, 872.1479
138.5925, 872.2849
139.0746, 876.7888
139.5567, 880.9084
140.0388, 882.0919
140.5209, 880.7343
141.0031, 879.3592
141.4852, 881.1198
141.9673, 887.7664
142.4494, 893.1226
142.9315, 896.4003
143.4136, 899.1829
143.8958, 902.6074
144.3779, 906.9100
144.8600, 911.4996
145.3421, 915.4050
145.8242, 918.1209
146.3063, 921.0648
146.7885, 924.9366
147.2706, 928.8724
147.7527, 931.7907
148.2348, 933.2787
148.7169, 933.7538
149.1990, 933.9337
149.6812, 933.8402
150.1633, 933.5534
150.6454, 933.2664
151.1275, 932.8401
151.6096, 931.7454
152.0917, 929.4084
152.5739, 926.6407
153.0560, 924.9056
153.5381, 924.6472
154.0202, 924.0353
154.5023, 921.2756
154.9844, 916.2791
155.4665, 911.4045
155.9487, 907.6072
156.4308, 904.3132
156.9129, 901.0770
157.3950, 897.7637
157.8771, 894.6379
158.3592, 892.0963
158.8414, 890.2766
159.3235, 888.7653
159.8056, 888.1183
160.2877, 887.3987
160.7698, 885.4537
161.2519, 881.6973
161.7341, 877.0825
162.2162, 874.5068
162.6983, 875.8975
163.1804, 876.8905
163.6625, 876.8499
164.1446, 876.0831
164.6268, 874.7976
165.1089, 873.0367
165.5910, 871.0534
166.0731, 870.4994
166.5552, 873.0383
167.0373, 875.1887
167.5195, 876.1439
168.0016, 876.2021
168.4837, 876.0246
168.9658, 876.0328
169.4479, 876.2010
169.9300, 876.1559
170.4122, 874.4249
170.8943, 873.8787
171.3764, 875.9160
171.8585, 880.3441
172.3406, 886.3425
172.8227, 894.0714
173.3049, 902.9708
173.7870, 909.3030
174.2691, 911.2026
174.7512, 911.8928
175.2333, 913.9543
175.7154, 917.5172
176.1976, 921.2463
176.6797, 923.8879
177.1618, 925.9655
177.6439, 928.6913
178.1260, 932.8141
178.6081, 937.5490
179.0903, 941.6922
179.5724, 944.9806
180.0545, 948.4027
180.5366, 953.3472
181.0187, 958.7747
181.5008, 962.8143
181.9830, 963.7505
182.4651, 962.7895
182.9472, 963.8346
183.4293, 968.1052
183.9114, 972.6199
184.3935, 976.4482
184.8757, 979.5660
185.3578, 981.9015
185.8399, 983.1320
186.3220, 983.4222
186.8041, 984.4941
187.2862, 986.8763
187.7684, 989.5898
188.2505, 992.6287
188.7326, 995.7790
189.2147, 998.6560
189.6968, 1000.846
190.1789, 1002.307
190.6611, 1004.475
191.1432, 1008.088
191.6253, 1011.696
192.1074, 1015.083
192.5895, 1018.087
193.0716, 1020.478
193.5538, 1021.974
194.0359, 1022.439
194.5180, 1023.127
195.0001, 1023.911
195.4822, 1024.958
195.9643, 1026.671
196.4465, 1028.846
196.9286, 1030.736
197.4107, 1031.644
197.8928, 1031.429
198.3749, 1030.867
198.8570, 1030.151
199.3392, 1028.992
199.8213, 1027.379
200.3034, 1025.251
200.7855, 1022.168
201.2676, 1017.315
201.7497, 1010.592
202.2319, 1005.136
202.7140, 1002.519
203.1961, 1000.371
203.6782, 996.3621
204.1603, 990.1839
204.6424, 983.3358
205.1246, 977.0026
205.6067, 971.0637
206.0888, 965.0524
206.5709, 958.3033
207.0530, 951.6533
207.5351, 946.4308
208.0173, 942.9647
208.4994, 939.9424
208.9815, 936.6806
209.4636, 933.1148
209.9457, 928.9593
210.4278, 923.6624
210.9100, 917.7422
211.3921, 912.3037
211.8742, 907.4508
212.3563, 902.9647
212.8384, 898.6469
213.3205, 894.5510
213.8027, 890.8212
214.2848, 887.7028
214.7669, 885.0012
215.2490, 882.0671
215.7311, 878.7468
216.2132, 875.3996
216.6954, 872.0938
217.1775, 868.8781
217.6596, 865.7950
218.1417, 862.7981
218.6238, 859.9554
219.1059, 857.7324
219.5881, 856.5342
220.0702, 855.5419
220.5523, 854.6807
221.0344, 853.8280
221.5165, 852.7790
221.9986, 851.3577
222.4808, 849.6301
222.9629, 848.1970
223.4450, 847.0937
223.9271, 846.3176
224.4092, 845.9671
224.8913, 845.9320
225.3735, 846.0317
225.8556, 846.1404
226.3377, 846.2734
226.8198, 846.6412
227.3019, 847.3458
227.7840, 848.1807
228.2662, 849.3937
228.7483, 850.6844
229.2304, 851.4843
229.7125, 851.3783
230.1946, 850.4850
230.6767, 850.1298
231.1589, 849.6562
231.6410, 850.3514
232.1231, 853.5808
232.6052, 858.1950
233.0873, 862.0190
233.5694, 863.6949
234.0516, 863.5121
234.5337, 863.4872
235.0158, 863.2256
235.4979, 863.5084
235.9800, 865.1025
236.4621, 867.4338
236.9443, 869.1813
237.4264, 869.4891
237.9085, 868.7978
238.3906, 869.1550
238.8727, 870.5514
239.3548, 872.7310
239.8370, 876.2990
240.3191, 880.6504
240.8012, 884.1400
241.2833, 885.7139
241.7654, 886.1766
242.2475, 887.9494
242.7297, 891.5344
243.2118, 895.3369
243.6939, 898.9825
244.1760, 902.3453
244.6581, 904.9014
245.1402, 906.1030
245.6224, 906.7639
246.1045, 908.6118
246.5866, 912.0314
247.0687, 915.4000
247.5508, 917.7601
248.0329, 919.3588
248.5151, 921.0529
248.9972, 922.9598
249.4793, 925.3487
249.9614, 928.8459
250.4435, 933.7564
250.9256, 937.9070
251.4078, 939.4323
251.8899, 938.9744
252.3720, 939.4088
252.8541, 941.5582
253.3362, 944.8001
253.8183, 948.7781
254.3005, 953.4990
254.7826, 957.3339
255.2647, 958.4689
255.7468, 957.5519
256.2289, 958.0630
256.7110, 961.5812
257.1931, 965.3694
257.6753, 966.9840
258.1574, 966.7178
258.6395, 966.4391
259.1216, 967.4443
259.6037, 969.4977
260.0858, 971.2338
260.5680, 972.1112
261.0501, 973.2650
261.5322, 975.6702
262.0143, 978.9510
262.4964, 981.9633
262.9785, 983.8635
263.4607, 984.8195
263.9428, 985.9323
264.4249, 987.6459
264.9070, 988.8158
265.3891, 988.4044
265.8712, 987.1346
266.3534, 986.4955
266.8355, 987.6448
267.3176, 990.0873
267.7997, 991.6395
268.2818, 991.5746
268.7639, 991.7069
269.2461, 992.9861
269.7282, 994.7979
270.2103, 996.2998
270.6924, 997.1209
271.1745, 997.2551
271.6566, 996.4053
272.1388, 993.1082
272.6209, 991.4281
273.1030, 993.4456
273.5851, 997.0139
274.0672, 999.6107
274.5493, 1000.054
275.0315, 999.2365
275.5136, 999.4643
275.9957, 1001.719
276.4778, 1003.147
276.9599, 1002.911
277.4420, 1001.948
277.9242, 1001.028
278.4063, 1000.428
278.8884, 1000.081
279.3705, 999.8915
279.8526, 999.9897
280.3347, 999.9836
280.8169, 999.8170
281.2990, 999.5718
281.7811, 999.4770
282.2632, 999.5262
282.7453, 999.2888
283.2274, 998.0435
283.7096, 995.3327
284.1917, 992.7306
284.6738, 990.0712
285.1559, 987.6578
285.6380, 986.0709
286.1201, 985.1429
286.6023, 983.8275
287.0844, 980.5975
287.5665, 974.5216
288.0486, 970.3573
288.5307, 970.2219
289.0128, 969.9480
289.4950, 967.7047
289.9771, 963.5320
290.4592, 958.3892
290.9413, 952.9823
291.4234, 947.2391
291.9055, 942.3257
292.3877, 938.7789
292.8698, 935.4968
293.3519, 932.1922
293.8340, 928.8787
294.3161, 925.7110
294.7982, 922.8444
295.2804, 920.2186
295.7625, 917.1804
296.2446, 912.8211
296.7267, 909.0196
297.2088, 906.6373
297.6909, 904.9470
298.1731, 902.9705
298.6552, 900.1964
299.1373, 896.6719
299.6194, 892.5455
300.1015, 886.1915
300.5836, 881.2913
301.0658, 879.3030
301.5479, 878.4564
302.0300, 876.6296
302.5121, 873.0273
302.9942, 868.7546
303.4763, 866.1426
303.9585, 867.1556
304.4406, 866.9301
304.9227, 864.2645
305.4048, 861.1537
305.8869, 859.3265
306.3690, 859.1168
306.8512, 859.4631
307.3333, 858.8537
307.8154, 856.7128
308.2975, 855.1293
308.7796, 854.5313
309.2617, 854.0383
309.7439, 853.0670
310.2260, 851.6304
310.7081, 850.0793
311.1902, 848.6400
311.6723, 847.1115
312.1544, 847.2285
312.6366, 851.1264
313.1187, 854.3384
313.6008, 854.5805
314.0829, 852.6271
314.5650, 850.6246
315.0471, 850.1296
315.5293, 851.0267
316.0114, 851.8159
316.4935, 852.7529
316.9756, 853.2984
317.4577, 852.8836
317.9398, 852.0951
318.4220, 851.8682
318.9041, 852.6984
319.3862, 854.2030
319.8683, 855.1732
320.3504, 854.9810
320.8326, 854.9975
321.3147, 855.1811
321.7968, 855.6500
322.2789, 856.6918
322.7610, 858.3457
323.2431, 860.1398
323.7253, 861.1838
324.2074, 860.6509
324.6895, 861.0289
325.1716, 863.1896
325.6537, 865.4899
326.1358, 866.4835
326.6180, 866.2131
327.1001, 866.1179
327.5822, 867.9329
328.0643, 872.3011
328.5464, 875.2643
329.0285, 875.9889
329.5107, 876.3212
329.9928, 876.6553
330.4749, 877.2190
330.9570, 878.3772
331.4391, 880.5081
331.9212, 883.4990
332.4034, 885.6526
332.8855, 886.5368
333.3676, 887.0120
333.8497, 887.0866
334.3318, 886.8816
334.8139, 886.3852
335.2961, 885.5734
335.7782, 884.7696
336.2603, 884.9670
336.7424, 886.9098
337.2245, 888.8251
337.7066, 891.1108
338.1888, 893.0322
338.6709, 893.8552
339.1530, 893.4203
339.6351, 892.2175
340.1172, 890.9774
340.5993, 889.8541
341.0815, 888.2816
341.5636, 884.9815
342.0457, 882.3460
342.5278, 882.1520
343.0099, 884.0930
343.4920, 886.4117
343.9742, 887.5529
344.4563, 887.4822
344.9384, 886.8826
345.4205, 885.2733
345.9026, 883.5624
346.3847, 881.9271
346.8669, 880.3624
347.3490, 878.7178
347.8311, 876.8251
348.3132, 874.9437
348.7953, 874.2850
349.2774, 876.2535
349.7596, 877.2241
350.2417, 875.9582
350.7238, 873.7793
351.2059, 871.9268
351.6880, 870.8260
352.1701, 870.2089
352.6523, 869.6790
353.1344, 869.2606
353.6165, 868.8555
354.0986, 868.5610
354.5807, 868.1935
355.0628, 867.4161
355.5450, 866.3364
356.0271, 865.5942
356.5092, 866.2023
356.9913, 868.2508
357.4734, 868.9518
357.9555, 867.2696
358.4377, 865.2989
358.9198, 863.7770
359.4019, 862.6384
359.8840, 861.6791
360.3661, 860.8080
360.8482, 860.0189
361.3304, 859.2545
361.8125, 858.4442
362.2946, 857.8400
362.7767, 857.8447
363.2588, 857.9431
363.7409, 857.5578
364.2231, 856.4808
364.7052, 855.1039
365.1873, 853.7724
365.6694, 852.4266
366.1515, 851.6196
366.6336, 851.5886
367.1158, 852.1000
367.5979, 853.1801
368.0800, 854.7651
368.5621, 856.2530
369.0442, 857.1091
369.5263, 857.4658
370.0085, 858.1182
370.4906, 859.6824
370.9727, 860.4784
371.4548, 858.6406
371.9369, 855.2390
372.4190, 852.6605
372.9012, 852.1602
373.3833, 852.7528
373.8654, 853.1132
374.3475, 853.2369
374.8296, 853.1393
375.3117, 852.4480
375.7939, 851.7345
376.2760, 851.9948
376.7581, 853.7781
377.2402, 855.3345
377.7223, 854.9201
378.2044, 853.0603
378.6866, 852.1448
379.1687, 853.1273
379.6508, 854.7758
380.1329, 855.7662
380.6150, 856.1561
381.0971, 855.7142
381.5793, 853.2291
382.0614, 850.3234
382.5435, 849.5436
383.0256, 851.2460
383.5077, 853.4623
383.9898, 854.7217
384.4720, 855.1262
384.9541, 855.7533
385.4362, 857.0319
385.9183, 858.1768
386.4004, 858.6224
386.8825, 858.5140
387.3647, 858.3459
387.8468, 858.3280
388.3289, 858.4323
388.8110, 858.6207
389.2931, 859.0250
389.7752, 859.2333
390.2574, 858.7073
390.7395, 858.1420
391.2216, 858.4259
391.7037, 859.7408
392.1858, 861.6004
392.6679, 863.5001
393.1501, 865.4819
393.6322, 867.2393
394.1143, 868.9002
394.5964, 870.2533
395.0785, 870.8454
395.5606, 870.9736
396.0428, 871.5195
396.5249, 873.1242
397.0070, 875.5022
397.4891, 877.1649
397.9712, 877.2342
398.4533, 877.6178
398.9355, 878.7006
399.4176, 880.1144
399.8997, 881.3500
400.3818, 882.2819
400.8639, 883.3692
401.3460, 885.4636
401.8282, 889.3778
402.3103, 891.9854
402.7924, 892.2418
403.2745, 892.3290
403.7566, 893.4664
404.2387, 895.4369
404.7209, 897.3241
405.2030, 898.4847
405.6851, 898.9391
406.1672, 898.7899
406.6493, 898.1715
407.1314, 896.6508
407.6136, 893.4575
408.0957, 889.7127
408.5778, 886.7712
409.0599, 885.1325
409.5420, 883.8469
410.0241, 881.2920
410.5063, 877.1028
410.9884, 873.6818
411.4705, 872.2074
411.9526, 870.9320
412.4347, 868.9119
412.9168, 866.1924
413.3990, 863.2844
413.8811, 860.3862
414.3632, 857.5757
414.8453, 855.1721
415.3274, 853.2692
415.8095, 851.5488
416.2917, 849.8672
416.7738, 848.2518
417.2559, 846.7050
417.7380, 845.1163
418.2201, 843.8339
418.7022, 843.5018
419.1844, 843.9783
419.6665, 843.8445
420.1486, 842.4480
420.6307, 840.5742
421.1128, 839.3713
421.5949, 838.8351
422.0771, 837.8183
422.5592, 834.7062
423.0413, 831.4041
423.5234, 831.3253
424.0055, 834.8519
424.4876, 837.7206
424.9698, 836.4039
425.4519, 831.5266
425.9340, 828.0496
426.4161, 826.7781
426.8982, 825.9998
427.3803, 824.9617
427.8625, 823.8687
428.3446, 823.1547
428.8267, 822.9802
429.3088, 823.2560
429.7909, 823.9153
430.2730, 825.4883
430.7552, 826.1622
431.2373, 825.3609
431.7194, 824.0847
432.2015, 822.9880
432.6836, 822.1247
433.1657, 821.1675
433.6479, 819.7563
434.1300, 818.0075
434.6121, 817.4861
435.0942, 819.9528
435.5763, 821.6261
436.0584, 820.9881
436.5406, 819.6345
437.0227, 819.6369
437.5048, 821.6477
437.9869, 824.3301
438.4690, 825.5062
438.9511, 824.5834
439.4333, 824.0734
439.9154, 823.9982
440.3975, 824.3761
440.8796, 825.6080
441.3617, 827.3484
441.8438, 828.7757
442.3260, 829.3861
442.8081, 829.2635
443.2902, 828.4567
443.7723, 826.4224
444.2544, 825.0770
444.7365, 825.8484
445.2187, 827.1959
445.7008, 827.4677
446.1829, 826.2507
446.6650, 825.4075
447.1471, 827.5120
447.6292, 831.7628
448.1114, 833.3112
448.5935, 830.2352
449.0756, 826.7358
449.5577, 826.7145
450.0398, 829.1810
450.5219, 831.3942
451.0041, 832.5744
451.4862, 833.2294
451.9683, 834.0101
452.4504, 834.8038
452.9325, 834.5961
453.4146, 832.4558
453.8968, 829.6438
454.3789, 829.0787
454.8610, 831.1641
455.3431, 833.5422
455.8252, 836.0068
456.3073, 838.3273
456.7895, 840.0856
457.2716, 841.3002
457.7537, 842.6678
458.2358, 844.8651
458.7179, 847.8991
459.2000, 850.4752
459.6822, 852.5514
460.1643, 854.3110
460.6464, 855.5150
461.1285, 856.5289
461.6106, 857.8154
462.0927, 859.5506
462.5748, 861.6174
463.0569, 863.8598
463.5391, 866.3615
464.0212, 868.7683
464.5033, 870.6990
464.9854, 872.8824
465.4675, 875.6620
465.9496, 878.9939
466.4318, 882.7088
466.9139, 886.7596
467.3960, 891.0506
467.8781, 895.2626
468.3602, 899.2916
468.8423, 903.5622
469.3245, 908.4352
469.8066, 913.4869
470.2887, 918.0959
470.7708, 922.2160
471.2529, 927.0723
471.7350, 934.1815
472.2172, 942.9025
472.6993, 950.6233
473.1814, 956.9059
473.6635, 962.8138
474.1456, 968.8338
474.6277, 975.0600
475.1099, 981.6921
475.5920, 988.8278
476.0741, 996.2344
476.5562, 1004.103
477.0383, 1012.105
477.5204, 1019.377
478.0026, 1025.499
478.4847, 1031.073
478.9668, 1036.804
479.4489, 1042.699
479.9310, 1048.891
480.4131, 1056.504
480.8953, 1063.469
481.3774, 1068.732
481.8595, 1072.126
482.3416, 1073.150
482.8237, 1071.239
483.3058, 1067.607
483.7880, 1066.475
484.2701, 1071.251
484.7522, 1073.643
485.2343, 1071.845
485.7164, 1068.781
486.1985, 1066.430
486.6807, 1065.127
487.1628, 1064.425
487.6449, 1064.173
488.1270, 1064.248
488.6091, 1062.716
489.0912, 1057.488
489.5734, 1054.037
490.0555, 1054.771
490.5376, 1057.530
491.0197, 1059.722
491.5018, 1060.565
491.9839, 1061.892
492.4661, 1065.743
492.9482, 1071.913
493.4303, 1078.307
493.9124, 1084.162
494.3945, 1091.124
494.8766, 1101.249
495.3588, 1113.549
495.8409, 1125.407
496.3230, 1135.246
496.8051, 1145.331
497.2872, 1157.641
497.7693, 1171.766
498.2515, 1186.250
498.7336, 1200.498
499.2157, 1214.935
499.6978, 1230.442
500.1799, 1247.349
500.6620, 1264.159
501.1442, 1281.047
501.6263, 1297.605
502.1084, 1314.217
502.5905, 1330.369
503.0726, 1344.768
503.5547, 1356.540
504.0369, 1366.262
504.5190, 1376.083
505.0011, 1387.860
505.4832, 1396.654
505.9653, 1400.842
506.4474, 1403.327
506.9296, 1407.211
507.4117, 1411.928
507.8938, 1413.633
508.3759, 1408.519
508.8580, 1397.660
509.3401, 1387.721
509.8223, 1379.561
510.3044, 1370.339
510.7865, 1359.449
511.2686, 1346.782
511.7507, 1332.036
512.2328, 1315.103
512.7150, 1296.466
513.1971, 1275.407
513.6792, 1252.906
514.1613, 1231.843
514.6434, 1212.876
515.1255, 1193.599
515.6077, 1171.464
516.0898, 1147.471
516.5719, 1126.105
517.0540, 1109.318
517.5361, 1093.096
518.0182, 1075.283
518.5004, 1056.931
518.9825, 1039.665
519.4646, 1023.870
519.9467, 1009.587
520.4288, 997.0124
520.9109, 986.4543
521.3931, 975.4305
521.8752, 963.2598
522.3573, 951.2999
522.8394, 939.5272
523.3215, 928.4453
523.8036, 918.9991
524.2858, 911.5915
524.7679, 905.0704
525.2500, 897.6014
525.7321, 888.8668
526.2142, 880.8152
526.6964, 873.4830
527.1785, 867.0430
527.6606, 861.9144
528.1427, 857.6915
528.6248, 853.4764
529.1069, 848.8493
529.5891, 844.1385
530.0712, 839.6047
530.5533, 835.2821
531.0354, 831.9285
531.5175, 830.2330
531.9996, 828.8391
532.4818, 825.9622
532.9639, 821.7538
533.4460, 817.5604
533.9281, 813.0773
534.4102, 809.1965
534.8923, 807.1990
535.3745, 806.4775
535.8566, 804.6152
536.3387, 800.2930
536.8208, 795.3268
537.3029, 793.6312
537.7850, 797.8535
538.2672, 799.8754
538.7493, 798.2100
539.2314, 795.8778
539.7135, 794.0458
540.1956, 793.0192
540.6777, 793.1176
541.1599, 794.6698
541.6420, 796.9518
542.1241, 798.0342
542.6062, 797.5058
543.0883, 797.1067
543.5704, 796.9109
544.0526, 797.1514
544.5347, 798.4444
545.0168, 800.4765
545.4989, 801.7826
545.9810, 800.6754
546.4631, 798.9091
546.9453, 799.3738
547.4274, 802.0179
547.9095, 805.2071
548.3916, 808.6535
548.8737, 811.8354
549.3558, 813.4641
549.8380, 813.2352
550.3201, 813.7628
550.8022, 815.9626
551.2843, 818.7579
551.7664, 821.3259
552.2485, 823.6839
552.7307, 826.2418
553.2128, 829.2819
553.6949, 832.5177
554.1770, 835.1287
554.6591, 836.5677
555.1412, 838.3464
555.6234, 840.7620
556.1055, 843.2589
556.5876, 845.4429
557.0697, 847.4154
557.5518, 849.5852
558.0339, 852.3075
558.5161, 855.2431
558.9982, 857.6130
559.4803, 859.3610
559.9624, 860.8546
560.4445, 862.2668
560.9266, 863.3505
561.4088, 863.7765
561.8909, 863.6058
562.3730, 863.5362
562.8551, 864.8207
563.3372, 865.6386
563.8193, 863.5134
564.3015, 858.9318
564.7836, 854.5896
565.2657, 851.6891
565.7478, 849.5809
566.2299, 847.0616
566.7120, 843.9125
567.1942, 840.8600
567.6763, 838.1798
568.1584, 835.3543
568.6405, 832.4227
569.1226, 829.0709
569.6047, 824.3668
570.0869, 817.7621
570.5690, 810.5219
571.0511, 805.4650
571.5332, 803.1218
572.0153, 800.7667
572.4974, 798.0722
572.9796, 795.3967
573.4617, 792.9484
573.9438, 790.6653
574.4259, 788.4029
574.9080, 786.1910
575.3901, 783.8500
575.8723, 780.9335
576.3544, 777.6166
576.8365, 775.0176
577.3186, 773.7032
577.8007, 772.3886
578.2828, 769.1718
578.7650, 763.9027
579.2471, 760.8686
579.7292, 762.1752
580.2113, 763.6473
580.6934, 763.4392
581.1755, 762.0250
581.6577, 760.1754
582.1398, 758.1920
582.6219, 756.1472
583.1040, 754.1015
583.5861, 752.0012
584.0682, 750.3328
584.5504, 749.2281
585.0325, 748.4193
585.5146, 748.6777
585.9967, 748.8264
586.4788, 746.7914
586.9609, 741.8438
587.4431, 737.3975
587.9252, 737.7289
588.4073, 741.3934
588.8894, 742.3975
589.3715, 739.6171
