##NAMES=Anorpiment
##RRUFFID=R110016
##IDEAL CHEMISTRY=As^3+^_2_S^2-^_3_
##LOCALITY=Palomo mine, Huancavelica Department, Peru
##OWNER=RRUFF
##SOURCE=Bob Jenkins
##DESCRIPTION=Platy transparent olive green crystals coating botryoidal yellow orpiment. Co-type specimen.
##STATUS=The identification of this mineral is confirmed by single-crystal X-ray diffraction and chemical analysis.
##URL=rruff.info/R110016
##MEASURED CHEMISTRY=As_1.96_S_3.04_
139.7290, 14.33121
140.2111, 15.63174
140.6932, 18.69423
141.1753, 22.13284
141.6575, 24.59410
142.1396, 25.84913
142.6217, 26.78455
143.1038, 27.41773
143.5859, 27.71382
144.0681, 28.50982
144.5502, 29.62766
145.0323, 31.40584
145.5144, 34.36283
145.9965, 39.17387
146.4786, 44.10947
146.9608, 48.69366
147.4429, 52.94863
147.9250, 57.00837
148.4071, 60.23473
148.8892, 63.51287
149.3713, 68.09636
149.8535, 75.46584
150.3356, 82.74130
150.8177, 89.03016
151.2998, 93.43797
151.7819, 98.78010
152.2640, 105.0449
152.7462, 112.2659
153.2283, 120.3898
153.7104, 128.6444
154.1925, 138.4303
154.6746, 150.4204
155.1567, 165.9061
155.6389, 181.1264
156.1210, 194.5911
156.6031, 207.4532
157.0852, 222.6758
157.5673, 244.2945
158.0495, 265.9214
158.5316, 284.7260
159.0137, 300.2515
159.4958, 312.6035
159.9779, 320.3828
160.4600, 324.7452
160.9422, 329.4667
161.4243, 335.1907
161.9064, 342.0568
162.3885, 350.1747
162.8706, 360.4956
163.3527, 371.1262
163.8349, 380.5508
164.3170, 389.3388
164.7991, 400.2109
165.2812, 414.1943
165.7633, 430.9467
166.2454, 450.2035
166.7276, 473.3585
167.2097, 497.6508
167.6918, 520.9741
168.1739, 543.5215
168.6560, 568.6260
169.1381, 596.1211
169.6203, 627.5996
170.1024, 660.7234
170.5845, 701.3614
171.0666, 745.9696
171.5487, 788.5587
172.0309, 829.3285
172.5130, 874.2128
172.9951, 925.3796
173.4772, 983.3826
173.9593, 1049.482
174.4414, 1122.098
174.9236, 1203.497
175.4057, 1300.372
175.8878, 1413.733
176.3699, 1522.816
176.8520, 1636.589
177.3341, 1735.801
177.8163, 1777.521
178.2984, 1731.655
178.7805, 1623.031
179.2626, 1471.092
179.7447, 1275.266
180.2268, 1079.377
180.7090, 921.8978
181.1911, 800.3782
181.6732, 710.9148
182.1553, 659.2902
182.6374, 637.2706
183.1195, 631.4194
183.6017, 642.1252
184.0838, 663.3475
184.5659, 690.6828
185.0480, 723.3467
185.5301, 758.9591
186.0123, 797.7815
186.4944, 838.7413
186.9765, 880.8604
187.4586, 927.5638
187.9407, 964.4567
188.4228, 968.7092
188.9050, 942.4601
189.3871, 905.9863
189.8692, 860.8307
190.3513, 811.5118
190.8334, 781.3840
191.3155, 773.3820
191.7977, 780.1734
192.2798, 795.9816
192.7619, 820.8063
193.2440, 839.2072
193.7261, 847.2382
194.2082, 844.1327
194.6904, 818.6811
195.1725, 767.5781
195.6546, 699.6605
196.1367, 628.0721
196.6188, 551.4659
197.1009, 483.2945
197.5831, 431.5183
198.0652, 395.5862
198.5473, 367.5864
199.0294, 347.9212
199.5115, 334.6252
199.9937, 324.2252
200.4758, 316.9395
200.9579, 311.7302
201.4400, 308.9974
201.9221, 309.0337
202.4042, 307.1335
202.8864, 302.3627
203.3685, 296.1884
203.8506, 292.1479
204.3327, 290.6303
204.8148, 289.7806
205.2969, 288.7563
205.7791, 287.5812
206.2612, 286.0167
206.7433, 283.9176
207.2254, 281.5220
207.7075, 279.4807
208.1896, 277.9091
208.6718, 276.3412
209.1539, 274.3023
209.6360, 271.5319
210.1181, 269.7548
210.6002, 269.2724
211.0823, 269.7224
211.5645, 270.1599
212.0466, 270.6515
212.5287, 270.9930
213.0108, 271.1094
213.4929, 271.0427
213.9750, 270.5118
214.4572, 269.0897
214.9393, 267.3614
215.4214, 267.2718
215.9035, 269.6575
216.3856, 271.9788
216.8678, 272.7111
217.3499, 271.2969
217.8320, 270.1596
218.3141, 269.5025
218.7962, 269.1618
219.2783, 268.5832
219.7605, 267.5178
220.2426, 266.6584
220.7247, 266.4916
221.2068, 267.4294
221.6889, 267.8153
222.1710, 267.2592
222.6532, 266.1823
223.1353, 265.9918
223.6174, 267.1470
224.0995, 268.4265
224.5816, 269.1215
225.0637, 268.7397
225.5459, 269.1331
226.0280, 270.8193
226.5101, 273.2214
226.9922, 274.3347
227.4743, 273.0849
227.9564, 272.2502
228.4386, 273.4161
228.9207, 277.8809
229.4028, 281.0927
229.8849, 282.5624
230.3670, 282.8441
230.8492, 283.5522
231.3313, 284.9717
231.8134, 286.3734
232.2955, 287.3503
232.7776, 287.3781
233.2597, 288.2378
233.7419, 290.4080
234.2240, 293.2981
234.7061, 295.2844
235.1882, 296.0334
235.6703, 296.4022
236.1524, 296.6732
236.6346, 296.5602
237.1167, 297.0630
237.5988, 298.5058
238.0809, 300.4455
238.5630, 301.9088
239.0451, 302.9231
239.5273, 303.3897
240.0094, 303.1179
240.4915, 301.5326
240.9736, 300.7383
241.4557, 301.1391
241.9378, 302.1350
242.4200, 302.4370
242.9021, 301.5784
243.3842, 300.7433
243.8663, 300.3269
244.3484, 300.3039
244.8306, 300.8400
245.3127, 302.3418
245.7948, 304.1833
246.2769, 305.1183
246.7590, 304.5405
247.2411, 304.0732
247.7233, 304.2722
248.2054, 305.2588
248.6875, 306.5333
249.1696, 308.3925
249.6517, 310.3348
250.1338, 311.4113
250.6160, 310.9351
251.0981, 310.8417
251.5802, 311.8307
252.0623, 314.1557
252.5444, 316.2874
253.0265, 318.1640
253.5087, 319.8870
253.9908, 321.5919
254.4729, 323.4213
254.9550, 324.9802
255.4371, 326.1954
255.9192, 327.0740
256.4014, 327.4046
256.8835, 326.8042
257.3656, 326.0353
257.8477, 326.0108
258.3298, 326.8867
258.8120, 328.1866
259.2941, 329.9948
259.7762, 332.3854
260.2583, 334.0725
260.7404, 334.9177
261.2225, 335.2415
261.7047, 335.2018
262.1868, 334.3077
262.6689, 334.3920
263.1510, 336.2945
263.6331, 339.9133
264.1152, 341.9175
264.5974, 341.4484
265.0795, 340.6693
265.5616, 341.8916
266.0437, 345.9488
266.5258, 349.3142
267.0079, 351.2617
267.4901, 351.9449
267.9722, 352.4347
268.4543, 352.5700
268.9364, 352.8644
269.4185, 353.8842
269.9006, 355.8912
270.3828, 357.4734
270.8649, 358.3092
271.3470, 358.5744
271.8291, 359.0434
272.3112, 359.6413
272.7933, 360.6356
273.2755, 362.3746
273.7576, 365.0058
274.2397, 367.2887
274.7218, 368.9850
275.2039, 370.2659
275.6860, 371.5544
276.1682, 372.7784
276.6503, 374.3272
277.1324, 376.3797
277.6145, 378.9025
278.0966, 382.2802
278.5787, 386.7825
279.0609, 391.8747
279.5430, 396.2900
280.0251, 399.8472
280.5072, 403.7971
280.9893, 408.9633
281.4715, 415.3011
281.9536, 421.8593
282.4357, 428.7958
282.9178, 435.5604
283.3999, 440.9635
283.8820, 444.9214
284.3642, 448.9102
284.8463, 453.3358
285.3284, 458.2651
285.8105, 464.6636
286.2926, 472.9761
286.7747, 481.3952
287.2569, 487.1396
287.7390, 490.2955
288.2211, 493.3380
288.7032, 497.3269
289.1853, 502.0226
289.6674, 506.3552
290.1496, 510.2886
290.6317, 514.2549
291.1138, 518.9158
291.5959, 524.1730
292.0780, 529.0821
292.5602, 532.9036
293.0423, 536.3771
293.5244, 541.5046
294.0065, 548.3094
294.4886, 555.8600
294.9707, 563.8748
295.4529, 572.1331
295.9350, 579.5554
296.4171, 585.4567
296.8992, 590.8754
297.3813, 597.4999
297.8634, 605.2534
298.3456, 613.7071
298.8277, 622.2281
299.3098, 631.1428
299.7919, 640.8737
300.2740, 650.8075
300.7561, 662.7491
301.2383, 678.6172
301.7204, 698.3696
302.2025, 720.8401
302.6846, 744.9281
303.1667, 771.4929
303.6488, 801.9495
304.1310, 835.7384
304.6131, 874.9908
305.0952, 921.5597
305.5773, 974.9501
306.0594, 1033.569
306.5415, 1096.879
307.0237, 1165.167
307.5058, 1240.836
307.9879, 1324.340
308.4700, 1410.514
308.9521, 1496.339
309.4343, 1582.356
309.9164, 1671.364
310.3985, 1764.531
310.8806, 1862.071
311.3627, 1963.529
311.8448, 2069.737
312.3270, 2181.803
312.8091, 2293.573
313.2912, 2413.920
313.7733, 2553.328
314.2554, 2702.292
314.7375, 2882.610
315.2197, 3096.539
315.7018, 3348.175
316.1839, 3655.492
316.6660, 4014.132
317.1481, 4440.432
317.6302, 4944.237
318.1124, 5559.543
318.5945, 6215.256
319.0766, 6923.814
319.5587, 7664.203
320.0408, 8374.087
320.5229, 9053.826
321.0051, 9683.789
321.4872, 10257.23
321.9693, 10774.87
322.4514, 11220.17
322.9335, 11578.62
323.4156, 11863.03
323.8978, 12098.06
324.3799, 12237.70
324.8620, 12372.42
325.3441, 12528.04
325.8262, 12696.62
326.3083, 12912.29
326.7905, 13141.87
327.2726, 13432.68
327.7547, 13838.94
328.2368, 14272.79
328.7189, 14918.08
329.2010, 15828.87
329.6832, 17007.10
330.1653, 18333.33
330.6474, 19886.72
331.1295, 21529.49
331.6116, 23171.89
332.0938, 24831.35
332.5759, 26480.90
333.0580, 28206.99
333.5401, 29962.23
334.0222, 31343.03
334.5043, 32661.03
334.9865, 33196.25
335.4686, 32489.19
335.9507, 30304.49
336.4328, 27417.93
336.9149, 23547.99
337.3970, 19109.97
337.8792, 15297.92
338.3613, 12062.73
338.8434, 9425.646
339.3255, 7435.124
339.8076, 6137.797
340.2898, 5112.043
340.7719, 4382.950
341.2540, 3865.591
341.7361, 3444.558
342.2182, 3132.357
342.7003, 2864.545
343.1825, 2628.077
343.6646, 2419.879
344.1467, 2234.097
344.6288, 2068.606
345.1109, 1927.999
345.5930, 1816.675
346.0752, 1734.959
346.5573, 1671.566
347.0394, 1625.365
347.5215, 1593.894
348.0036, 1571.869
348.4857, 1559.365
348.9679, 1554.145
349.4500, 1559.651
349.9321, 1571.463
350.4142, 1579.194
350.8963, 1584.594
351.3784, 1577.202
351.8606, 1543.666
352.3427, 1485.930
352.8248, 1409.729
353.3069, 1304.894
353.7890, 1189.478
354.2711, 1083.737
354.7533, 989.1001
355.2354, 908.4406
355.7175, 846.2422
356.1996, 800.4924
356.6817, 767.6896
357.1638, 750.5595
357.6460, 742.8115
358.1281, 740.3480
358.6102, 743.0214
359.0923, 750.3660
359.5744, 763.8557
360.0565, 781.1041
360.5387, 799.9090
361.0208, 820.8141
361.5029, 841.8058
361.9850, 863.4526
362.4671, 884.6964
362.9492, 901.9325
363.4314, 910.1719
363.9135, 916.7930
364.3956, 925.4964
364.8777, 936.4544
365.3598, 950.4961
365.8419, 965.4193
366.3241, 983.9987
366.8062, 1010.367
367.2883, 1042.512
367.7704, 1084.978
368.2526, 1138.410
368.7347, 1202.756
369.2168, 1280.048
369.6989, 1367.564
370.1810, 1469.718
370.6631, 1591.608
371.1453, 1741.616
371.6274, 1899.528
372.1095, 2066.102
372.5916, 2240.930
373.0737, 2415.119
373.5558, 2589.613
374.0380, 2764.217
374.5201, 2945.802
375.0022, 3144.353
375.4843, 3317.814
375.9664, 3485.773
376.4485, 3609.473
376.9307, 3613.792
377.4128, 3491.951
377.8949, 3277.343
378.3770, 2952.157
378.8591, 2525.717
379.3412, 2149.116
379.8234, 1823.323
380.3055, 1555.046
380.7876, 1366.533
381.2697, 1253.725
381.7518, 1175.448
382.2339, 1128.763
382.7161, 1103.464
383.1982, 1077.857
383.6803, 1052.138
384.1624, 1025.403
384.6445, 993.4459
385.1266, 960.2825
385.6088, 936.0124
386.0909, 922.6171
386.5730, 916.9753
387.0551, 916.4085
387.5372, 920.9095
388.0193, 930.5793
388.5015, 956.6249
388.9836, 981.8496
389.4657, 991.0941
389.9478, 983.7197
390.4299, 954.5501
390.9120, 889.8112
391.3942, 804.3182
391.8763, 717.0306
392.3584, 624.0197
392.8405, 540.7374
393.3226, 476.0592
393.8047, 428.2706
394.2869, 389.5431
394.7690, 359.6808
395.2511, 335.9821
395.7332, 317.1135
396.2154, 303.9945
396.6975, 293.3614
397.1796, 284.7761
397.6617, 278.1124
398.1438, 273.1784
398.6259, 272.2360
399.1081, 270.7256
399.5902, 266.8914
400.0723, 260.1521
400.5544, 255.0499
401.0365, 252.3194
401.5186, 250.6658
402.0008, 249.1465
402.4829, 248.0979
402.9650, 246.4915
403.4471, 243.9848
403.9292, 240.8248
404.4113, 238.0197
404.8935, 235.3936
405.3756, 233.4761
405.8577, 232.8992
406.3398, 233.9946
406.8219, 233.9152
407.3040, 232.3999
407.7862, 230.1562
408.2683, 228.1247
408.7504, 226.3151
409.2325, 224.4765
409.7146, 222.4091
410.1967, 220.2920
410.6789, 218.4586
411.1610, 216.8971
411.6431, 215.9545
412.1252, 216.4981
412.6073, 217.9459
413.0894, 218.5150
413.5716, 217.5778
414.0537, 216.2525
414.5358, 216.0497
415.0179, 216.6445
415.5000, 216.9720
415.9821, 216.0630
416.4643, 214.7950
416.9464, 214.2307
417.4285, 214.5056
417.9106, 214.5423
418.3927, 213.5101
418.8748, 211.8832
419.3570, 210.2450
419.8391, 208.4889
420.3212, 207.0356
420.8033, 206.0564
421.2854, 205.5278
421.7675, 205.3020
422.2497, 205.6807
422.7318, 206.0959
423.2139, 206.2890
423.6960, 206.3527
424.1781, 205.9374
424.6602, 204.3601
425.1424, 202.4576
425.6245, 201.4990
426.1066, 202.5960
426.5887, 203.2486
427.0709, 202.8964
427.5530, 201.5388
428.0351, 199.8924
428.5172, 197.6080
428.9993, 195.4825
429.4814, 194.1636
429.9636, 193.8919
430.4457, 193.5670
430.9278, 193.2868
431.4099, 192.7191
431.8920, 190.7625
432.3741, 187.1434
432.8563, 184.1420
433.3384, 183.3179
433.8205, 184.2108
434.3026, 183.1834
434.7847, 179.9270
435.2668, 177.1613
435.7490, 179.0662
436.2311, 184.0811
436.7132, 186.3018
437.1953, 182.9736
437.6774, 177.8565
438.1595, 175.7364
438.6417, 176.2028
439.1238, 177.5577
439.6059, 180.0390
440.0880, 182.2447
440.5701, 182.3147
441.0522, 179.7565
441.5344, 177.1423
442.0165, 176.0992
442.4986, 175.9287
442.9807, 175.7846
443.4628, 175.0746
443.9449, 174.6442
444.4271, 174.9998
444.9092, 176.0020
445.3913, 176.8498
445.8734, 177.6980
446.3555, 178.0548
446.8376, 177.5214
447.3198, 175.0719
447.8019, 173.7428
448.2840, 174.4785
448.7661, 175.9956
449.2482, 176.4593
449.7303, 175.0570
450.2125, 173.9765
450.6946, 173.7222
451.1767, 174.2445
451.6588, 174.8280
452.1409, 175.5269
452.6230, 176.1749
453.1052, 176.9055
453.5873, 177.8245
454.0694, 177.1863
454.5515, 174.3666
455.0337, 170.9622
455.5158, 169.9901
455.9979, 171.2749
456.4800, 172.3545
456.9621, 171.9669
457.4442, 170.7118
457.9264, 170.1667
458.4085, 170.2983
458.8906, 170.1059
459.3727, 168.3137
459.8548, 165.7770
460.3369, 163.8961
460.8191, 163.0237
461.3012, 162.6973
461.7833, 162.9929
462.2654, 163.5450
462.7475, 163.5926
463.2296, 161.8740
463.7118, 160.3253
464.1939, 160.2532
464.6760, 161.7518
465.1581, 163.0588
465.6402, 163.9760
466.1223, 164.2787
466.6045, 163.7867
467.0866, 160.8925
467.5687, 159.1650
468.0508, 159.3915
468.5329, 160.8403
469.0150, 161.9273
469.4972, 162.5647
469.9793, 162.9624
470.4614, 163.2351
470.9435, 163.4052
471.4256, 162.9607
471.9077, 161.7325
472.3899, 160.2329
472.8720, 158.8041
473.3541, 157.4020
473.8362, 156.4364
474.3183, 155.9727
474.8004, 155.9397
475.2826, 156.2197
475.7647, 156.8110
476.2468, 157.6986
476.7289, 159.7103
477.2110, 161.8521
477.6931, 161.3374
478.1753, 158.1605
478.6574, 155.0166
479.1395, 154.1685
479.6216, 154.7592
480.1037, 155.5682
480.5858, 156.3580
481.0680, 157.1646
481.5501, 158.4436
482.0322, 159.7522
482.5143, 160.1465
482.9964, 158.2794
483.4786, 156.2621
483.9607, 155.1163
484.4428, 154.9733
484.9249, 154.9142
485.4070, 154.6231
485.8892, 154.4476
486.3713, 154.6621
486.8534, 155.9658
487.3355, 156.5956
487.8176, 156.0711
488.2997, 154.9945
488.7819, 154.7300
489.2640, 155.7444
489.7461, 156.4715
490.2282, 156.1020
490.7103, 154.7675
491.1924, 155.1683
491.6746, 157.7535
492.1567, 160.2259
492.6388, 160.1361
493.1209, 157.8256
493.6030, 156.4097
494.0851, 156.4370
494.5673, 157.0617
495.0494, 157.2458
495.5315, 157.0282
496.0136, 156.5453
496.4957, 155.4973
496.9778, 154.4339
497.4600, 153.9534
497.9421, 154.0334
498.4242, 154.3734
498.9063, 154.9834
499.3884, 155.6670
499.8705, 156.3607
500.3527, 157.3116
500.8348, 157.6016
501.3169, 156.0406
501.7990, 153.8509
502.2811, 152.7496
502.7632, 153.9959
503.2454, 155.3523
503.7275, 156.5733
504.2096, 157.6089
504.6917, 157.8954
505.1738, 156.9751
505.6559, 155.9295
506.1381, 155.2291
506.6202, 154.7753
507.1023, 155.3109
507.5844, 157.3635
508.0665, 159.4613
508.5486, 159.1485
509.0308, 156.3500
509.5129, 154.3280
509.9950, 154.0184
510.4771, 154.8863
510.9592, 156.2570
511.4413, 158.0088
511.9235, 159.0774
512.4056, 158.1396
512.8877, 156.3328
513.3698, 155.3638
513.8519, 155.3916
514.3340, 155.7406
514.8162, 156.4047
515.2983, 156.9287
515.7804, 156.7448
516.2625, 155.2176
516.7446, 153.5493
517.2267, 152.0927
517.7089, 150.8571
518.1910, 149.8818
518.6731, 149.5107
519.1552, 149.0876
519.6373, 148.1810
520.1194, 146.6512
520.6016, 146.0682
521.0837, 147.1371
521.5658, 148.3700
522.0479, 148.6571
522.5300, 147.7316
523.0121, 146.7927
523.4943, 145.8720
523.9764, 145.0345
524.4585, 144.4054
524.9406, 143.9969
525.4227, 143.7030
525.9048, 143.5733
526.3870, 143.4924
526.8691, 143.2154
527.3513, 142.7361
527.8334, 141.9962
528.3155, 140.5224
528.7976, 138.9110
529.2797, 138.1034
529.7618, 138.2972
530.2440, 138.7375
530.7261, 139.1908
531.2082, 139.4787
531.6903, 139.3650
532.1724, 138.2957
532.6545, 137.3185
533.1367, 136.7029
533.6188, 136.4320
534.1009, 136.4127
534.5830, 137.0425
535.0651, 137.5318
535.5472, 137.6650
536.0294, 137.4498
536.5115, 136.7093
536.9936, 134.8897
537.4757, 133.3189
537.9578, 133.4187
538.4399, 135.6110
538.9221, 136.7097
539.4042, 136.1679
539.8863, 134.8089
540.3684, 133.9567
540.8505, 133.5946
541.3326, 133.5372
541.8148, 133.8008
542.2969, 134.2649
542.7790, 135.0282
543.2611, 135.9750
543.7432, 136.2295
544.2253, 133.9483
544.7075, 131.3380
545.1896, 131.1518
545.6717, 134.2977
546.1538, 136.7970
546.6359, 136.0298
547.1180, 133.8840
547.6002, 132.3717
548.0823, 132.7919
548.5644, 132.9219
549.0465, 131.8797
549.5286, 130.2362
550.0107, 129.7146
550.4929, 131.2254
550.9750, 132.4643
551.4571, 132.4475
551.9392, 131.1638
552.4213, 131.3840
552.9034, 133.7344
553.3856, 135.6381
553.8677, 134.2721
554.3498, 130.0150
554.8319, 127.6540
555.3140, 127.9262
555.7961, 129.1906
556.2783, 129.5423
556.7604, 129.1717
557.2425, 128.5837
557.7246, 127.7707
558.2067, 127.0238
558.6888, 126.6356
559.1710, 126.5580
559.6531, 126.6362
560.1352, 127.0266
560.6173, 127.3689
561.0994, 127.4114
561.5815, 127.0997
562.0637, 126.8069
562.5458, 126.8348
563.0279, 126.7533
563.5100, 126.2140
563.9921, 124.5652
564.4742, 123.6295
564.9564, 123.6789
565.4385, 124.2719
565.9206, 124.8202
566.4027, 125.4359
566.8848, 125.3580
567.3669, 124.1276
567.8491, 122.1717
568.3312, 120.8137
568.8133, 120.0493
569.2954, 119.6927
569.7775, 120.2165
570.2596, 120.9068
570.7418, 120.1656
571.2239, 117.8502
571.7060, 115.5998
572.1881, 114.3768
572.6702, 114.0185
573.1523, 114.4539
573.6345, 116.2989
574.1166, 117.7779
574.5987, 118.2751
575.0808, 117.9623
575.5629, 117.1208
576.0450, 114.6407
576.5272, 112.9665
577.0093, 112.8133
577.4914, 113.9453
577.9735, 114.9306
578.4556, 116.0056
578.9377, 116.4231
579.4199, 115.4531
579.9020, 113.0658
580.3841, 111.8940
580.8662, 112.0867
581.3483, 112.7046
581.8304, 112.8879
582.3126, 112.7280
582.7947, 112.5467
583.2768, 112.4188
583.7589, 112.2367
584.2410, 111.7719
584.7231, 111.1767
585.2053, 110.7521
585.6874, 110.8761
586.1696, 110.9685
586.6517, 110.5000
587.1338, 109.6599
587.6159, 109.3013
588.0980, 110.2260
588.5801, 111.1575
589.0623, 111.5798
589.5444, 111.4640
590.0265, 110.9738
590.5086, 109.7375
590.9907, 108.6035
591.4728, 108.4135
591.9550, 109.4214
592.4371, 109.5844
592.9192, 108.4476
593.4013, 107.1621
593.8834, 107.8786
594.3655, 110.2060
594.8477, 111.5802
595.3298, 110.6618
595.8119, 109.0304
596.2940, 108.8412
596.7761, 109.7649
597.2582, 110.6881
597.7404, 111.1543
598.2225, 111.3062
598.7046, 111.0271
599.1867, 110.3290
599.6688, 110.0661
600.1509, 110.8368
600.6331, 111.8682
601.1152, 112.7145
601.5973, 113.4473
602.0794, 113.7657
602.5615, 113.4226
603.0436, 112.8987
603.5258, 112.7356
604.0079, 112.9784
604.4900, 113.3899
604.9721, 114.0425
605.4542, 114.6824
605.9363, 114.6267
606.4185, 113.9681
606.9006, 113.5213
607.3827, 113.8018
607.8648, 114.4248
608.3469, 114.8239
608.8290, 115.0464
609.3112, 115.3350
609.7933, 115.9767
610.2754, 116.6421
610.7575, 116.9178
611.2396, 116.6330
611.7217, 116.9624
612.2039, 119.2338
612.6860, 121.6040
613.1681, 122.6193
613.6502, 120.9228
614.1323, 120.1826
614.6144, 120.7168
615.0966, 121.9710
615.5787, 123.2968
616.0608, 124.7534
616.5429, 125.7866
617.0250, 126.0553
617.5071, 126.0712
617.9893, 127.0715
618.4714, 128.9656
618.9535, 130.9756
619.4356, 132.7177
619.9177, 134.3726
620.3998, 136.2231
620.8820, 138.2457
621.3641, 140.1888
621.8462, 142.1201
622.3283, 143.8037
622.8104, 144.7303
623.2925, 144.3020
623.7747, 145.3321
624.2568, 149.1866
624.7389, 154.1806
625.2210, 158.9929
625.7031, 163.5697
626.1852, 168.0216
626.6674, 172.0630
627.1495, 176.2500
627.6316, 181.8064
628.1137, 188.8141
628.5958, 195.0168
629.0779, 199.1960
629.5601, 202.8517
630.0422, 208.9980
630.5243, 217.2918
631.0064, 226.3672
631.4885, 235.6802
631.9706, 245.2655
632.4528, 255.4028
632.9349, 265.9449
633.4170, 276.1850
633.8991, 285.1100
634.3812, 294.1478
634.8633, 304.5450
635.3455, 317.1668
