##NAMES=Anorthite
##RRUFFID=R040059
##IDEAL CHEMISTRY=CaAl_2_Si_2_O_8_
##LOCALITY=Miyakejima, Japan
##OWNER=RRUFF
##SOURCE=University of Arizona Mineral Museum
##DESCRIPTION=Colorless fragments of crystals
##STATUS=The identification of this mineral has been confirmed by X-ray diffraction and chemical analysis
##URL=rruff.info/R040059
##MEASURED CHEMISTRY=(Ca_0.94_Na_0.04_Fe_0.02_)(Al_0.98_Si_0.02_)_2_Si_2.00_O_8_
129.3915, 527.0366
129.8736, 540.3167
130.3557, 553.6524
130.8378, 564.7657
131.3199, 573.2827
131.8020, 581.7067
132.2842, 589.6696
132.7663, 596.5099
133.2484, 602.3195
133.7305, 606.9903
134.2126, 610.0811
134.6947, 611.7740
135.1769, 613.6283
135.6590, 615.7936
136.1411, 618.3557
136.6232, 621.8307
137.1053, 626.3685
137.5874, 630.9683
138.0696, 634.6491
138.5517, 637.2438
139.0338, 640.1893
139.5159, 643.7470
139.9980, 647.8663
140.4801, 652.3728
140.9623, 656.9990
141.4444, 662.4565
141.9265, 670.1413
142.4086, 681.2343
142.8907, 691.1627
143.3728, 698.8650
143.8550, 704.1657
144.3371, 708.5020
144.8192, 712.3860
145.3013, 714.9257
145.7834, 714.6556
146.2655, 710.9211
146.7477, 705.5726
147.2298, 699.1053
147.7119, 691.6820
148.1940, 682.8975
148.6761, 672.1533
149.1582, 660.1545
149.6404, 648.7986
150.1225, 638.1194
150.6046, 627.9246
151.0867, 618.2391
151.5688, 608.6967
152.0509, 600.0062
152.5331, 592.0126
153.0152, 584.7576
153.4973, 578.6360
153.9794, 574.0302
154.4615, 570.3219
154.9436, 567.2143
155.4258, 564.9850
155.9079, 563.0162
156.3900, 561.1793
156.8721, 559.5129
157.3542, 558.1761
157.8363, 557.0856
158.3185, 556.4136
158.8006, 556.2626
159.2827, 556.8519
159.7648, 557.7809
160.2469, 558.6682
160.7290, 559.6283
161.2112, 561.6819
161.6933, 565.9209
162.1754, 571.0342
162.6575, 575.9305
163.1396, 579.7487
163.6217, 583.7821
164.1039, 588.6075
164.5860, 594.2231
165.0681, 600.1002
165.5502, 605.9734
166.0323, 611.9628
166.5145, 618.2864
166.9966, 625.2938
167.4787, 632.4423
167.9608, 639.5615
168.4429, 646.6624
168.9250, 653.3136
169.4071, 659.1442
169.8893, 664.3748
170.3714, 669.3709
170.8535, 673.8007
171.3356, 678.4018
171.8177, 683.9003
172.2998, 690.4313
172.7820, 697.2222
173.2641, 703.8809
173.7462, 710.3615
174.2283, 716.6034
174.7104, 722.6030
175.1925, 728.4059
175.6747, 733.8463
176.1568, 738.8132
176.6389, 743.9532
177.1210, 750.3214
177.6031, 757.4811
178.0852, 764.1259
178.5674, 768.6094
179.0495, 772.3723
179.5316, 778.0505
180.0137, 786.4571
180.4958, 795.5377
180.9779, 803.0374
181.4601, 809.1949
181.9422, 814.9867
182.4243, 821.3158
182.9064, 827.7111
183.3885, 833.1003
183.8706, 837.1450
184.3528, 840.5034
184.8349, 844.4266
185.3170, 848.7702
185.7991, 852.5323
186.2812, 854.7076
186.7633, 855.6181
187.2455, 856.4084
187.7276, 857.2560
188.2097, 858.0663
188.6918, 858.6096
189.1739, 858.8793
189.6560, 859.2098
190.1382, 860.2541
190.6203, 861.7860
191.1024, 862.3242
191.5845, 861.5208
192.0666, 859.6879
192.5487, 857.4496
193.0309, 854.8334
193.5130, 851.8596
193.9951, 848.5089
194.4772, 844.7897
194.9593, 840.8029
195.4414, 836.7371
195.9236, 832.3071
196.4057, 826.3885
196.8878, 818.7529
197.3699, 810.9083
197.8520, 804.3896
198.3341, 799.1512
198.8163, 793.4158
199.2984, 786.3610
199.7805, 778.5115
200.2626, 772.4414
200.7447, 768.4223
201.2268, 765.1672
201.7090, 761.6191
202.1911, 757.7604
202.6732, 753.7289
203.1553, 749.3705
203.6374, 744.8484
204.1195, 741.5023
204.6017, 739.6102
205.0838, 738.1705
205.5659, 736.3051
206.0480, 734.0216
206.5301, 731.2521
207.0122, 727.8909
207.4944, 723.9862
207.9765, 720.1844
208.4586, 716.4516
208.9407, 712.8811
209.4228, 709.6955
209.9049, 707.0813
210.3871, 704.1132
210.8692, 700.7012
211.3513, 696.8474
211.8334, 691.8828
212.3155, 685.3199
212.7976, 678.4554
213.2798, 672.8558
213.7619, 669.0226
214.2440, 664.8624
214.7261, 659.6798
215.2082, 653.5081
215.6903, 647.7305
216.1725, 642.2627
216.6546, 637.3939
217.1367, 633.4791
217.6188, 630.5793
218.1009, 628.4738
218.5830, 627.2722
219.0651, 627.0234
219.5473, 626.5695
220.0294, 625.9783
220.5115, 625.0740
220.9936, 623.6104
221.4757, 621.3434
221.9578, 619.0439
222.4400, 616.9803
222.9221, 615.1964
223.4042, 612.7628
223.8863, 609.4346
224.3684, 605.6864
224.8505, 601.8961
225.3327, 597.8167
225.8148, 594.3060
226.2969, 591.6172
226.7790, 589.7551
227.2611, 588.5441
227.7432, 588.4761
228.2254, 588.5638
228.7075, 587.4930
229.1896, 584.2292
229.6717, 581.8744
230.1538, 581.3206
230.6359, 582.7637
231.1181, 583.8864
231.6002, 584.2067
232.0823, 584.6580
232.5644, 586.3777
233.0465, 590.0746
233.5286, 593.7292
234.0108, 596.9300
234.4929, 599.6865
234.9750, 602.0014
235.4571, 603.2373
235.9392, 604.5869
236.4213, 607.4282
236.9035, 612.4031
237.3856, 617.6644
237.8677, 622.8032
238.3498, 627.8380
238.8319, 633.1953
239.3140, 638.9556
239.7962, 644.9738
240.2783, 651.2523
240.7604, 658.1511
241.2425, 664.6296
241.7246, 670.3588
242.2067, 675.3421
242.6889, 680.3941
243.1710, 685.3636
243.6531, 690.5383
244.1352, 696.3757
244.6173, 703.4888
245.0994, 710.0956
245.5816, 715.9943
246.0637, 721.1897
246.5458, 725.1017
247.0279, 727.1490
247.5100, 728.5197
247.9921, 730.3777
248.4743, 733.3392
248.9564, 735.5563
249.4385, 736.3920
249.9206, 735.8982
250.4027, 736.4208
250.8848, 738.4333
251.3670, 740.9388
251.8491, 743.0631
252.3312, 744.7033
252.8133, 746.2267
253.2954, 747.7235
253.7775, 749.1783
254.2597, 750.3922
254.7418, 751.4084
255.2239, 752.1138
255.7060, 752.4493
256.1881, 752.4899
256.6702, 751.9464
257.1523, 750.6564
257.6345, 748.6931
258.1166, 746.6622
258.5987, 744.5001
259.0808, 742.4000
259.5629, 740.5247
260.0450, 739.0244
260.5272, 737.4240
261.0093, 735.5881
261.4914, 733.6073
261.9735, 732.0287
262.4556, 730.9743
262.9377, 730.1411
263.4199, 729.1716
263.9020, 727.6575
264.3841, 727.3465
264.8662, 728.4963
265.3483, 730.9410
265.8304, 734.2746
266.3126, 738.8213
266.7947, 743.5271
267.2768, 747.5945
267.7589, 750.7728
268.2410, 754.5612
268.7231, 759.3766
269.2053, 764.7807
269.6874, 769.5833
270.1695, 773.8287
270.6516, 777.4841
271.1337, 780.3625
271.6158, 782.2906
272.0980, 784.5195
272.5801, 787.2496
273.0622, 790.1644
273.5443, 792.2367
274.0264, 793.0588
274.5085, 794.4189
274.9907, 797.7198
275.4728, 803.3867
275.9549, 806.9778
276.4370, 807.7775
276.9191, 807.3246
277.4012, 808.6046
277.8834, 811.9589
278.3655, 815.2164
278.8476, 817.3180
279.3297, 818.2509
279.8118, 819.6389
280.2939, 821.7538
280.7761, 823.8035
281.2582, 824.4057
281.7403, 823.4529
282.2224, 822.4246
282.7045, 821.9722
283.1866, 822.0193
283.6688, 821.9562
284.1509, 822.0515
284.6330, 821.1238
285.1151, 817.4448
285.5972, 811.0073
286.0793, 803.6584
286.5615, 795.5113
287.0436, 786.8998
287.5257, 779.5292
288.0078, 773.4788
288.4899, 768.0889
288.9720, 763.3015
289.4542, 758.9236
289.9363, 752.8811
290.4184, 744.3915
290.9005, 733.9269
291.3826, 721.9839
291.8647, 708.4089
292.3469, 695.1043
292.8290, 683.5547
293.3111, 673.6478
293.7932, 664.4156
294.2753, 655.7711
294.7574, 647.5148
295.2396, 639.6022
295.7217, 631.9709
296.2038, 624.0507
296.6859, 614.7847
297.1680, 604.9347
297.6501, 596.5214
298.1323, 590.1050
298.6144, 584.9396
299.0965, 579.9791
299.5786, 575.2127
300.0607, 570.8776
300.5428, 567.2518
301.0250, 564.0604
301.5071, 560.5401
301.9892, 556.3188
302.4713, 552.5208
302.9534, 550.7558
303.4355, 550.5374
303.9177, 550.2038
304.3998, 548.9930
304.8819, 547.0641
305.3640, 544.3487
305.8461, 540.6329
306.3282, 537.2471
306.8104, 535.6579
307.2925, 535.2579
307.7746, 534.8194
308.2567, 533.7750
308.7388, 532.4401
309.2209, 530.9903
309.7031, 529.4369
310.1852, 528.0670
310.6673, 527.2390
311.1494, 526.6782
311.6315, 525.9870
312.1136, 524.5734
312.5958, 523.2996
313.0779, 522.9396
313.5600, 523.4116
314.0421, 523.6851
314.5242, 522.5427
315.0063, 521.1754
315.4885, 520.7669
315.9706, 522.0150
316.4527, 523.9226
316.9348, 526.4974
317.4169, 529.5109
317.8990, 531.9446
318.3812, 532.7410
318.8633, 533.2136
319.3454, 534.3336
319.8275, 537.0370
320.3096, 539.2979
320.7917, 540.6456
321.2739, 541.1356
321.7560, 540.8881
322.2381, 539.5016
322.7202, 537.7443
323.2023, 535.9749
323.6844, 534.3004
324.1666, 532.4596
324.6487, 530.5125
325.1308, 528.3582
325.6129, 525.8507
326.0950, 523.1400
326.5771, 519.8960
327.0593, 515.7758
327.5414, 510.3927
328.0235, 505.6518
328.5056, 501.9113
328.9877, 498.7657
329.4698, 495.8515
329.9520, 493.3203
330.4341, 490.7953
330.9162, 487.7387
331.3983, 484.0721
331.8804, 482.5602
332.3625, 485.2968
332.8447, 488.4030
333.3268, 488.9130
333.8089, 485.0940
334.2910, 481.7735
334.7731, 479.2919
335.2552, 477.6636
335.7374, 477.1936
336.2195, 478.7386
336.7016, 480.0582
337.1837, 479.5466
337.6658, 476.1626
338.1479, 474.5825
338.6301, 475.6968
339.1122, 478.2520
339.5943, 479.3321
340.0764, 478.5890
340.5585, 477.4638
341.0406, 476.3914
341.5227, 475.3018
342.0049, 475.2991
342.4870, 476.8101
342.9691, 478.5197
343.4512, 478.1397
343.9333, 475.4957
344.4154, 473.4189
344.8976, 473.1787
345.3797, 474.3428
345.8618, 474.8672
346.3439, 474.7256
346.8260, 474.1737
347.3081, 473.3158
347.7903, 472.2065
348.2724, 471.1865
348.7545, 470.3564
349.2366, 469.6540
349.7187, 468.8221
350.2008, 467.8867
350.6830, 467.3314
351.1651, 467.8568
351.6472, 469.0095
352.1293, 469.7077
352.6114, 469.7071
353.0935, 469.3721
353.5757, 468.7035
354.0578, 467.9416
354.5399, 467.9038
355.0220, 469.4791
355.5041, 471.8429
355.9862, 474.0854
356.4684, 476.1244
356.9505, 477.8754
357.4326, 479.0131
357.9147, 479.8450
358.3968, 480.8663
358.8789, 482.3286
359.3611, 484.0206
359.8432, 485.9318
360.3253, 488.0438
360.8074, 489.9438
361.2895, 491.2213
361.7716, 492.2987
362.2538, 493.5497
362.7359, 494.5875
363.2180, 496.3677
363.7001, 499.8881
364.1822, 504.6318
364.6643, 508.5934
365.1465, 510.7205
365.6286, 512.3074
366.1107, 513.9820
366.5928, 515.6974
367.0749, 517.7883
367.5570, 521.1737
368.0392, 524.8505
368.5213, 527.0916
369.0034, 526.3143
369.4855, 525.3956
369.9676, 525.2512
370.4497, 526.1846
370.9319, 526.2687
371.4140, 524.9107
371.8961, 523.0483
372.3782, 521.5862
372.8603, 520.6370
373.3424, 519.8938
373.8246, 519.4522
374.3067, 519.2400
374.7888, 518.5068
375.2709, 516.7950
375.7530, 515.3381
376.2351, 515.0555
376.7173, 516.3065
377.1994, 517.2996
377.6815, 517.8529
378.1636, 518.1858
378.6457, 518.6742
379.1278, 519.2787
379.6100, 520.3282
380.0921, 522.0531
380.5742, 524.4333
381.0563, 527.2283
381.5384, 530.5983
382.0205, 533.7449
382.5027, 535.4481
382.9848, 535.8459
383.4669, 536.1034
383.9490, 536.5530
384.4311, 537.1339
384.9132, 537.7969
385.3954, 538.5279
385.8775, 539.1039
386.3596, 538.6628
386.8417, 537.9800
387.3238, 538.9396
387.8059, 542.5308
388.2881, 546.6331
388.7702, 548.5767
389.2523, 549.0173
389.7344, 549.9578
390.2165, 552.6702
390.6986, 556.3210
391.1808, 560.2025
391.6629, 564.3075
392.1450, 568.4464
392.6271, 572.6816
393.1092, 576.8065
393.5913, 580.5082
394.0735, 583.2156
394.5556, 585.9506
395.0377, 589.4395
395.5198, 593.5849
396.0019, 597.2188
396.4840, 599.6443
396.9662, 601.6371
397.4483, 603.6830
397.9304, 605.5383
398.4125, 607.8953
398.8946, 611.3912
399.3767, 615.4684
399.8589, 618.7552
400.3410, 620.5303
400.8231, 622.0626
401.3052, 623.8093
401.7873, 625.9872
402.2694, 627.4900
402.7516, 628.0682
403.2337, 628.1484
403.7158, 628.2146
404.1979, 628.3920
404.6800, 628.2727
405.1621, 627.6642
405.6443, 626.6669
406.1264, 626.2341
406.6085, 626.8216
407.0906, 626.8035
407.5727, 624.6703
408.0548, 620.1965
408.5370, 616.5924
409.0191, 614.4903
409.5012, 612.8665
409.9833, 609.7824
410.4654, 605.2469
410.9475, 600.6064
411.4297, 596.5408
411.9118, 592.8917
412.3939, 589.1235
412.8760, 585.2840
413.3581, 581.5401
413.8402, 577.6691
414.3224, 574.0486
414.8045, 571.5928
415.2866, 570.9653
415.7687, 571.1468
416.2508, 570.9210
416.7329, 570.4401
417.2151, 570.3514
417.6972, 570.7722
418.1793, 571.9177
418.6614, 574.0707
419.1435, 577.3441
419.6256, 581.2482
420.1078, 586.0374
420.5899, 591.1376
421.0720, 595.8752
421.5541, 599.1430
422.0362, 602.7269
422.5183, 607.3604
423.0005, 613.0270
423.4826, 619.3076
423.9647, 627.2252
424.4468, 635.0138
424.9289, 641.3657
425.4110, 644.4003
425.8932, 648.2403
426.3753, 653.9904
426.8574, 660.5237
427.3395, 665.2945
427.8216, 668.0809
428.3037, 669.2955
428.7859, 668.8480
429.2680, 666.5194
429.7501, 663.9861
430.2322, 661.3261
430.7143, 658.3445
431.1964, 654.7932
431.6786, 650.5715
432.1607, 646.3082
432.6428, 642.0943
433.1249, 637.9521
433.6070, 633.9525
434.0891, 630.1102
434.5713, 626.3696
435.0534, 622.4653
435.5355, 618.5939
436.0176, 615.7419
436.4997, 614.1644
436.9818, 612.9286
437.4640, 610.8242
437.9461, 608.0871
438.4282, 605.4667
438.9103, 603.6478
439.3924, 601.8618
439.8745, 598.8323
440.3566, 594.7451
440.8387, 590.9457
441.3209, 588.8564
441.8030, 587.2549
442.2851, 584.7270
442.7672, 580.4052
443.2493, 576.3925
443.7314, 574.1854
444.2136, 573.0144
444.6957, 571.5397
445.1778, 569.5322
445.6599, 566.9364
446.1420, 563.2024
446.6241, 558.0942
447.1063, 554.4467
447.5884, 553.7695
448.0705, 554.0066
448.5526, 553.6281
449.0347, 551.8146
449.5168, 550.5081
449.9990, 549.9135
450.4811, 549.8685
450.9632, 549.8790
451.4453, 549.7483
451.9274, 550.0579
452.4095, 551.2202
452.8917, 553.3254
453.3738, 554.7420
453.8559, 555.1130
454.3380, 555.6148
454.8201, 557.6866
455.3022, 561.3264
455.7844, 565.2297
456.2665, 569.3688
456.7486, 573.2728
457.2307, 575.5802
457.7128, 576.4007
458.1949, 577.4382
458.6771, 580.3734
459.1592, 584.1570
459.6413, 586.5460
460.1234, 587.2887
460.6055, 587.3863
461.0876, 587.2838
461.5698, 587.2199
462.0519, 587.6030
462.5340, 589.0502
463.0161, 590.5613
463.4982, 590.9536
463.9803, 590.6681
464.4625, 591.6244
464.9446, 596.1368
465.4267, 601.0692
465.9088, 604.2225
466.3909, 604.2255
466.8730, 605.6083
467.3552, 609.6759
467.8373, 615.4571
468.3194, 621.7385
468.8015, 628.9146
469.2836, 636.0109
469.7657, 642.8649
470.2479, 649.5336
470.7300, 656.0438
471.2121, 662.3163
471.6942, 668.5304
472.1763, 674.8043
472.6584, 681.0623
473.1406, 687.2447
473.6227, 693.1018
474.1048, 699.2449
474.5869, 707.0734
475.0690, 716.6385
475.5511, 725.2211
476.0333, 731.4236
476.5154, 736.3434
476.9975, 742.5349
477.4796, 750.0260
477.9617, 759.3242
478.4438, 771.9982
478.9260, 786.4818
479.4081, 799.5155
479.8902, 810.2126
480.3723, 821.5015
480.8544, 836.3046
481.3365, 853.5097
481.8187, 871.2045
482.3008, 889.0305
482.7829, 906.7296
483.2650, 924.7335
483.7471, 942.9258
484.2292, 959.8145
484.7114, 975.4762
485.1935, 989.5186
485.6756, 1001.685
486.1577, 1012.660
486.6398, 1020.558
487.1219, 1024.614
487.6041, 1025.727
488.0862, 1024.857
488.5683, 1021.376
489.0504, 1016.876
489.5325, 1011.222
490.0146, 1004.659
490.4968, 999.2239
490.9789, 994.8853
491.4610, 991.8542
491.9431, 990.1407
492.4252, 989.7545
492.9073, 991.0733
493.3895, 993.9260
493.8716, 999.1165
494.3537, 1007.818
494.8358, 1019.862
495.3179, 1034.882
495.8000, 1053.396
496.2822, 1074.130
496.7643, 1094.893
497.2464, 1116.073
497.7285, 1138.705
498.2106, 1163.189
498.6927, 1189.804
499.1749, 1220.064
499.6570, 1254.768
500.1391, 1288.933
500.6212, 1321.383
501.1033, 1351.078
501.5854, 1377.186
502.0676, 1400.378
502.5497, 1418.506
503.0318, 1430.910
503.5139, 1437.764
503.9960, 1440.285
504.4781, 1440.226
504.9603, 1434.422
505.4424, 1421.515
505.9245, 1400.642
506.4066, 1375.449
506.8887, 1344.728
507.3708, 1311.399
507.8530, 1277.687
508.3351, 1243.934
508.8172, 1210.374
509.2993, 1176.633
509.7814, 1143.567
510.2635, 1113.400
510.7457, 1085.860
511.2278, 1060.145
511.7099, 1035.904
512.1920, 1013.160
512.6741, 991.4918
513.1563, 970.8906
513.6384, 951.1260
514.1205, 931.9495
514.6026, 913.5047
515.0847, 896.0873
515.5668, 880.6142
516.0490, 865.0126
516.5311, 847.5801
517.0132, 829.1608
517.4953, 811.4537
517.9774, 794.9673
518.4595, 779.3923
518.9417, 764.3665
519.4238, 749.7725
519.9059, 737.0196
520.3880, 726.6971
520.8701, 717.8281
521.3522, 709.8674
521.8344, 702.9397
522.3165, 696.7196
522.7986, 691.5281
523.2807, 686.7182
523.7628, 681.3077
524.2449, 675.0972
524.7271, 669.0765
525.2092, 663.4855
525.6913, 658.3337
526.1734, 653.6778
526.6555, 649.5364
527.1376, 645.0938
527.6198, 639.5313
528.1019, 633.3231
528.5840, 627.3703
529.0661, 621.7824
529.5482, 616.6706
530.0303, 612.4540
530.5125, 608.7395
530.9946, 604.7795
531.4767, 599.7690
531.9588, 595.2133
532.4409, 592.1536
532.9230, 590.2409
533.4052, 588.3685
533.8873, 586.1643
534.3694, 583.9697
534.8515, 581.6529
535.3336, 578.8944
535.8157, 577.8207
536.2979, 579.7598
536.7800, 582.2320
537.2621, 583.3605
537.7442, 582.4096
538.2263, 582.1537
538.7084, 582.9606
539.1906, 584.3804
539.6727, 585.4886
540.1548, 586.2670
540.6369, 587.1680
541.1190, 588.0240
541.6011, 589.2482
542.0833, 592.3035
542.5654, 597.1297
543.0475, 602.4511
543.5296, 607.7391
544.0117, 612.7795
544.4938, 616.8585
544.9760, 619.6648
545.4581, 623.1848
545.9402, 629.5781
546.4223, 637.3289
546.9044, 644.5037
547.3865, 649.9307
547.8687, 655.2321
548.3508, 660.8096
548.8329, 666.6512
549.3150, 672.7258
549.7971, 678.7137
550.2792, 685.2782
550.7614, 692.9047
551.2435, 701.6633
551.7256, 709.6765
552.2077, 716.6950
552.6898, 723.3030
553.1719, 730.2983
553.6541, 737.9911
554.1362, 743.4857
554.6183, 746.1234
555.1004, 747.4160
555.5825, 750.3506
556.0646, 754.4489
556.5468, 756.2830
557.0289, 753.7571
557.5110, 748.9783
557.9931, 745.0984
558.4752, 741.8525
558.9573, 738.0190
559.4395, 732.7341
559.9216, 726.5674
560.4037, 719.7402
560.8858, 712.1884
561.3679, 704.8257
561.8500, 698.5606
562.3322, 692.3859
562.8143, 685.3295
563.2964, 676.5113
563.7785, 667.8026
564.2606, 659.4269
564.7427, 651.2592
565.2249, 642.9713
565.7070, 634.1476
566.1891, 626.3349
566.6712, 620.3614
567.1533, 615.8990
567.6354, 609.6823
568.1176, 601.3223
568.5997, 593.4630
569.0818, 588.3148
569.5639, 585.2321
570.0460, 581.2904
570.5281, 576.2976
571.0103, 571.1225
571.4924, 566.4357
571.9745, 562.2468
572.4566, 558.4875
572.9387, 555.2695
573.4208, 552.3444
573.9030, 549.5253
574.3851, 546.8619
574.8672, 544.4349
575.3493, 542.3749
575.8314, 540.4470
576.3135, 538.5568
576.7957, 536.7075
577.2778, 535.0738
577.7599, 533.9344
578.2420, 532.7081
578.7241, 530.9921
579.2062, 528.4449
579.6884, 526.8903
580.1705, 526.6345
580.6526, 526.7433
581.1347, 525.8959
581.6168, 524.1418
582.0989, 523.1477
582.5811, 523.5443
583.0632, 524.3586
583.5453, 523.5570
584.0274, 521.6993
584.5095, 520.8624
584.9916, 523.2760
585.4738, 526.3793
585.9559, 527.5462
586.4380, 526.9613
586.9201, 526.6391
587.4022, 527.6000
587.8843, 529.0595
588.3664, 530.5964
588.8485, 532.2767
589.3306, 533.6379
589.8127, 534.4151
590.2949, 534.9743
590.7770, 535.6310
591.2591, 536.5029
591.7412, 537.2026
592.2233, 537.6550
592.7054, 537.9556
593.1876, 538.3356
593.6697, 538.8160
594.1518, 539.1842
594.6339, 539.3754
595.1160, 539.3940
595.5981, 539.1783
596.0803, 538.7497
596.5624, 538.3019
597.0445, 537.9330
597.5266, 537.6307
598.0087, 537.5238
598.4908, 537.6561
598.9730, 537.3785
599.4551, 535.8423
599.9372, 533.9702
600.4193, 532.6657
600.9014, 532.9148
601.3835, 532.5185
601.8657, 530.8563
602.3478, 528.4592
602.8299, 526.0082
603.3120, 523.1829
603.7941, 520.9930
604.2762, 519.9709
604.7584, 519.6674
605.2405, 517.9147
605.7226, 514.4440
606.2047, 511.4145
606.6868, 510.1957
607.1689, 510.3066
607.6511, 510.2032
608.1332, 509.8790
608.6153, 509.2262
609.0974, 507.5095
609.5795, 505.6584
610.0616, 505.1425
610.5438, 506.6407
611.0259, 507.8918
611.5080, 507.1827
611.9901, 505.7109
612.4722, 504.8917
612.9543, 505.7954
613.4365, 506.5095
613.9186, 506.5721
614.4007, 506.2503
614.8828, 506.1255
615.3649, 506.1685
615.8470, 506.4712
616.3292, 507.1354
616.8113, 508.0939
617.2934, 508.8495
617.7755, 509.3683
618.2576, 510.0154
618.7397, 511.3678
619.2219, 513.0208
619.7040, 513.6766
620.1861, 513.2056
620.6682, 512.7030
621.1503, 513.3222
621.6324, 514.3673
622.1146, 514.9811
622.5967, 514.8653
623.0788, 514.5212
623.5609, 513.9047
624.0430, 513.2794
624.5251, 513.0187
625.0073, 514.2147
625.4894, 514.5185
