##NAMES=Anorthite
##RRUFFID=R060275
##IDEAL CHEMISTRY=CaAl_2_Si_2_O_8_
##LOCALITY=Madagascar
##OWNER=RRUFF
##SOURCE=Herb Obodda
##DESCRIPTION=Colorless to light gray fragment
##STATUS=The identification of this mineral has been confirmed by X-ray diffraction and chemical analysis
##URL=rruff.info/R060275
##MEASURED CHEMISTRY=(Na_0.44_K_0.03_Ca_0.53_)_Î£=1_Al_1.53_Si_2.47_O_8_
103.1040, 3247.419
103.5861, 3258.046
104.0682, 3270.182
104.5504, 3277.448
105.0325, 3278.709
105.5146, 3276.590
105.9967, 3273.903
106.4788, 3269.633
106.9609, 3266.684
107.4431, 3266.043
107.9252, 3266.401
108.4073, 3266.032
108.8894, 3264.290
109.3715, 3261.536
109.8536, 3258.560
110.3358, 3255.451
110.8179, 3251.726
111.3000, 3246.195
111.7821, 3239.173
112.2642, 3233.985
112.7463, 3234.017
113.2285, 3235.252
113.7106, 3233.390
114.1927, 3227.111
114.6748, 3219.284
115.1569, 3214.017
115.6390, 3212.227
116.1212, 3210.543
116.6033, 3208.165
117.0854, 3205.246
117.5675, 3201.902
118.0496, 3198.166
118.5317, 3194.008
119.0139, 3189.353
119.4960, 3182.064
119.9781, 3176.617
120.4602, 3174.576
120.9423, 3174.887
121.4244, 3175.963
121.9066, 3176.819
122.3887, 3177.632
122.8708, 3175.188
123.3529, 3167.011
123.8350, 3158.575
124.3171, 3152.244
124.7993, 3148.173
125.2814, 3145.328
125.7635, 3142.642
126.2456, 3140.045
126.7277, 3138.594
127.2098, 3138.875
127.6920, 3140.030
128.1741, 3141.490
128.6562, 3143.296
129.1383, 3144.571
129.6204, 3143.928
130.1025, 3141.608
130.5847, 3138.790
131.0668, 3135.788
131.5489, 3132.622
132.0310, 3129.218
132.5131, 3124.737
132.9952, 3121.022
133.4774, 3119.726
133.9595, 3120.866
134.4416, 3122.727
134.9237, 3124.210
135.4058, 3125.479
135.8879, 3125.432
136.3701, 3122.023
136.8522, 3118.460
137.3343, 3116.366
137.8164, 3116.189
138.2985, 3117.714
138.7806, 3121.180
139.2628, 3129.931
139.7449, 3134.180
140.2270, 3130.338
140.7091, 3123.652
141.1912, 3118.468
141.6733, 3116.765
142.1555, 3117.926
142.6376, 3119.944
143.1197, 3124.541
143.6018, 3128.048
144.0839, 3128.886
144.5660, 3128.475
145.0482, 3129.182
145.5303, 3132.506
146.0124, 3138.001
146.4945, 3142.439
146.9766, 3146.698
147.4587, 3149.337
147.9409, 3148.606
148.4230, 3145.224
148.9051, 3142.421
149.3872, 3142.597
149.8693, 3145.419
150.3514, 3147.617
150.8336, 3148.522
151.3157, 3149.178
151.7978, 3150.735
152.2799, 3153.384
152.7620, 3155.822
153.2441, 3156.708
153.7263, 3156.719
154.2084, 3156.934
154.6905, 3157.695
155.1726, 3158.899
155.6547, 3160.238
156.1368, 3161.406
156.6190, 3163.343
157.1011, 3167.277
157.5832, 3172.234
158.0653, 3176.317
158.5474, 3177.825
159.0295, 3177.010
159.5117, 3177.362
159.9938, 3181.052
160.4759, 3183.726
160.9580, 3182.747
161.4401, 3179.222
161.9222, 3176.197
162.4044, 3176.854
162.8865, 3182.250
163.3686, 3185.021
163.8507, 3183.925
164.3328, 3181.525
164.8149, 3178.205
165.2971, 3174.373
165.7792, 3170.811
166.2613, 3168.328
166.7434, 3166.886
167.2255, 3167.128
167.7076, 3172.331
168.1898, 3176.833
168.6719, 3175.628
169.1540, 3168.048
169.6361, 3158.420
170.1182, 3152.737
170.6003, 3152.486
171.0825, 3153.086
171.5646, 3154.367
172.0467, 3156.431
172.5288, 3160.054
173.0109, 3165.742
173.4930, 3171.350
173.9752, 3172.364
174.4573, 3168.125
174.9394, 3165.292
175.4215, 3166.514
175.9036, 3170.515
176.3857, 3174.829
176.8679, 3179.561
177.3500, 3183.030
177.8321, 3182.194
178.3142, 3176.520
178.7963, 3172.370
179.2784, 3175.018
179.7606, 3183.527
180.2427, 3189.923
180.7248, 3190.274
181.2069, 3189.298
181.6890, 3191.296
182.1711, 3196.674
182.6533, 3202.951
183.1354, 3207.568
183.6175, 3210.221
184.0996, 3213.691
184.5817, 3220.310
185.0638, 3226.925
185.5460, 3231.767
186.0281, 3234.444
186.5102, 3235.502
186.9923, 3235.026
187.4744, 3231.367
187.9565, 3230.730
188.4387, 3237.237
188.9208, 3244.591
189.4029, 3247.451
189.8850, 3244.397
190.3671, 3239.076
190.8492, 3238.726
191.3314, 3248.066
191.8135, 3254.864
192.2956, 3256.212
192.7777, 3256.055
193.2598, 3258.603
193.7419, 3265.389
194.2241, 3273.798
194.7062, 3277.515
195.1883, 3269.656
195.6704, 3264.801
196.1525, 3266.834
196.6346, 3270.883
197.1168, 3270.366
197.5989, 3262.228
198.0810, 3249.966
198.5631, 3243.892
199.0452, 3248.932
199.5273, 3253.143
200.0095, 3254.421
200.4916, 3253.701
200.9737, 3252.213
201.4558, 3250.230
201.9379, 3248.341
202.4200, 3248.617
202.9022, 3253.391
203.3843, 3256.018
203.8664, 3252.602
204.3485, 3245.007
204.8306, 3238.210
205.3127, 3234.080
205.7949, 3232.426
206.2770, 3233.054
206.7591, 3238.175
207.2412, 3240.823
207.7233, 3235.604
208.2054, 3223.616
208.6876, 3211.631
209.1697, 3201.685
209.6518, 3193.799
210.1339, 3187.906
210.6160, 3184.629
211.0981, 3181.633
211.5803, 3176.707
212.0624, 3169.855
212.5445, 3163.636
213.0266, 3159.267
213.5087, 3155.879
213.9908, 3152.966
214.4730, 3150.645
214.9551, 3147.943
215.4372, 3143.095
215.9193, 3135.421
216.4014, 3129.796
216.8836, 3129.656
217.3657, 3130.994
217.8478, 3131.336
218.3299, 3130.086
218.8120, 3128.010
219.2941, 3125.555
219.7763, 3121.777
220.2584, 3120.840
220.7405, 3126.828
221.2226, 3133.646
221.7047, 3136.897
222.1868, 3135.436
222.6690, 3131.572
223.1511, 3129.163
223.6332, 3129.738
224.1153, 3128.106
224.5974, 3120.082
225.0795, 3112.331
225.5617, 3111.012
226.0438, 3117.428
226.5259, 3126.564
227.0080, 3129.344
227.4901, 3120.755
227.9722, 3114.774
228.4544, 3112.556
228.9365, 3112.318
229.4186, 3112.895
229.9007, 3113.895
230.3828, 3115.496
230.8649, 3118.141
231.3471, 3123.944
231.8292, 3127.233
232.3113, 3125.949
232.7934, 3123.564
233.2755, 3123.098
233.7576, 3125.317
234.2398, 3128.634
234.7219, 3130.380
235.2040, 3129.135
235.6861, 3128.737
236.1682, 3129.587
236.6503, 3131.019
237.1325, 3132.416
237.6146, 3133.610
238.0967, 3134.921
238.5788, 3136.946
239.0609, 3140.495
239.5430, 3142.713
240.0252, 3142.604
240.5073, 3141.556
240.9894, 3140.529
241.4715, 3139.762
241.9536, 3139.917
242.4357, 3142.047
242.9179, 3146.520
243.4000, 3151.514
243.8821, 3158.592
244.3642, 3165.316
244.8463, 3168.289
245.3284, 3166.697
245.8106, 3164.115
246.2927, 3165.058
246.7748, 3169.684
247.2569, 3173.370
247.7390, 3175.620
248.2211, 3176.513
248.7033, 3175.415
249.1854, 3171.921
249.6675, 3168.848
250.1496, 3169.771
250.6317, 3174.054
251.1138, 3177.541
251.5960, 3178.210
252.0781, 3178.121
252.5602, 3180.418
253.0423, 3185.774
253.5244, 3191.177
254.0065, 3193.653
254.4887, 3194.032
254.9708, 3194.383
255.4529, 3195.001
255.9350, 3195.964
256.4171, 3197.283
256.8992, 3198.888
257.3813, 3201.176
257.8635, 3205.613
258.3456, 3210.861
258.8277, 3214.508
259.3098, 3214.609
259.7919, 3213.438
260.2740, 3214.633
260.7562, 3218.835
261.2383, 3222.548
261.7204, 3222.512
262.2025, 3221.070
262.6846, 3221.332
263.1667, 3225.217
263.6489, 3229.904
264.1310, 3230.502
264.6131, 3225.626
265.0952, 3222.705
265.5773, 3227.959
266.0594, 3235.758
266.5416, 3240.701
267.0237, 3240.873
267.5058, 3239.111
267.9879, 3238.903
268.4700, 3240.314
268.9521, 3243.132
269.4343, 3249.300
269.9164, 3255.870
270.3985, 3260.143
270.8806, 3261.304
271.3627, 3261.870
271.8448, 3265.864
272.3270, 3274.556
272.8091, 3280.065
273.2912, 3276.643
273.7733, 3271.769
274.2554, 3269.952
274.7375, 3271.942
275.2197, 3275.554
275.7018, 3278.350
276.1839, 3280.071
276.6660, 3282.517
277.1481, 3288.225
277.6302, 3292.986
278.1124, 3293.695
278.5945, 3290.619
279.0766, 3287.225
279.5587, 3286.888
280.0408, 3289.869
280.5229, 3293.698
281.0051, 3301.288
281.4872, 3307.086
281.9693, 3307.841
282.4514, 3304.404
282.9335, 3300.138
283.4156, 3298.233
283.8978, 3298.784
284.3799, 3297.148
284.8620, 3290.595
285.3441, 3284.471
285.8262, 3281.130
286.3083, 3279.659
286.7905, 3277.847
287.2726, 3274.030
287.7547, 3268.432
288.2368, 3263.298
288.7189, 3258.516
289.2010, 3254.403
289.6832, 3250.839
290.1653, 3248.013
290.6474, 3246.777
291.1295, 3248.189
291.6116, 3250.657
292.0938, 3247.174
292.5759, 3231.680
293.0580, 3218.833
293.5401, 3212.223
294.0222, 3209.247
294.5043, 3207.409
294.9865, 3205.655
295.4686, 3203.692
295.9507, 3200.656
296.4328, 3195.467
296.9149, 3191.166
297.3970, 3188.319
297.8792, 3186.254
298.3613, 3184.630
298.8434, 3183.275
299.3255, 3181.832
299.8076, 3179.529
300.2897, 3175.452
300.7719, 3172.615
301.2540, 3172.319
301.7361, 3172.237
302.2182, 3170.580
302.7003, 3167.231
303.1824, 3163.628
303.6646, 3161.537
304.1467, 3161.375
304.6288, 3161.259
305.1109, 3159.950
305.5930, 3159.731
306.0751, 3162.239
306.5573, 3167.036
307.0394, 3172.433
307.5215, 3177.233
308.0036, 3181.581
308.4857, 3183.375
308.9678, 3179.047
309.4500, 3175.580
309.9321, 3174.432
310.4142, 3175.720
310.8963, 3179.417
311.3784, 3185.797
311.8605, 3194.446
312.3427, 3202.032
312.8248, 3209.563
313.3069, 3214.646
313.7890, 3213.796
314.2711, 3211.227
314.7532, 3212.559
315.2354, 3220.661
315.7175, 3233.464
316.1996, 3245.380
316.6817, 3259.371
317.1638, 3267.234
317.6459, 3263.212
318.1281, 3256.083
318.6102, 3254.359
319.0923, 3260.512
319.5744, 3269.743
320.0565, 3273.513
320.5386, 3267.563
321.0208, 3266.065
321.5029, 3270.623
321.9850, 3278.189
322.4671, 3289.070
322.9492, 3302.078
323.4313, 3312.996
323.9135, 3316.336
324.3956, 3309.889
324.8777, 3307.004
325.3598, 3309.475
325.8419, 3313.819
326.3240, 3319.675
326.8062, 3326.425
327.2883, 3333.077
327.7704, 3338.902
328.2525, 3343.930
328.7346, 3348.918
329.2167, 3355.626
329.6989, 3360.182
330.1810, 3360.777
330.6631, 3358.908
331.1452, 3356.668
331.6273, 3355.142
332.1094, 3354.141
332.5916, 3352.941
333.0737, 3350.737
333.5558, 3349.848
334.0379, 3352.400
334.5200, 3355.358
335.0021, 3355.339
335.4843, 3351.336
335.9664, 3346.000
336.4485, 3343.479
336.9306, 3344.197
337.4127, 3346.516
337.8948, 3354.787
338.3770, 3361.117
338.8591, 3359.130
339.3412, 3349.222
339.8233, 3338.075
340.3055, 3333.105
340.7876, 3335.228
341.2697, 3334.343
341.7518, 3326.938
342.2339, 3319.824
342.7160, 3316.901
343.1982, 3316.471
343.6803, 3314.003
344.1624, 3305.488
344.6445, 3292.632
345.1266, 3284.256
345.6087, 3283.054
346.0909, 3282.178
346.5730, 3280.082
347.0551, 3276.719
347.5372, 3271.723
348.0193, 3264.606
348.5014, 3256.818
348.9836, 3251.268
349.4657, 3248.946
349.9478, 3245.618
350.4299, 3239.347
350.9120, 3232.149
351.3941, 3225.309
351.8763, 3219.094
352.3584, 3213.243
352.8405, 3207.296
353.3226, 3201.191
353.8047, 3196.520
354.2868, 3195.917
354.7690, 3194.179
355.2511, 3186.613
355.7332, 3174.571
356.2153, 3164.071
356.6974, 3160.713
357.1795, 3162.313
357.6617, 3159.784
358.1438, 3150.922
358.6259, 3142.369
359.1080, 3138.623
359.5901, 3137.523
360.0722, 3135.632
360.5544, 3131.401
361.0365, 3126.236
361.5186, 3122.390
362.0007, 3120.171
362.4828, 3116.842
362.9649, 3109.953
363.4471, 3102.096
363.9292, 3096.360
364.4113, 3093.406
364.8934, 3090.931
365.3755, 3086.342
365.8576, 3080.338
366.3398, 3077.269
366.8219, 3079.734
367.3040, 3083.017
367.7861, 3081.870
368.2682, 3076.726
368.7503, 3071.376
369.2325, 3066.665
369.7146, 3062.885
370.1967, 3061.449
370.6788, 3063.057
371.1609, 3063.265
371.6430, 3057.048
372.1252, 3046.505
372.6073, 3038.852
373.0894, 3036.230
373.5715, 3035.863
374.0536, 3036.734
374.5357, 3038.458
375.0179, 3038.488
375.5000, 3035.001
375.9821, 3029.577
376.4642, 3026.007
376.9463, 3024.895
377.4284, 3023.969
377.9106, 3021.869
378.3927, 3019.538
378.8748, 3018.923
379.3569, 3020.690
379.8390, 3023.133
380.3211, 3024.133
380.8033, 3023.490
381.2854, 3022.381
381.7675, 3020.686
382.2496, 3018.703
382.7317, 3016.136
383.2138, 3013.233
383.6960, 3011.406
384.1781, 3011.927
384.6602, 3014.577
385.1423, 3016.188
385.6244, 3016.996
386.1065, 3016.696
386.5887, 3013.393
387.0708, 3009.209
387.5529, 3008.000
388.0350, 3011.542
388.5171, 3017.913
388.9992, 3022.998
389.4814, 3027.264
389.9635, 3029.170
390.4456, 3027.773
390.9277, 3024.710
391.4098, 3020.482
391.8919, 3015.638
392.3741, 3011.521
392.8562, 3009.477
393.3383, 3009.549
393.8204, 3011.563
394.3025, 3019.287
394.7846, 3024.960
395.2668, 3023.616
395.7489, 3018.529
396.2310, 3016.177
396.7131, 3020.562
397.1952, 3029.494
397.6773, 3035.292
398.1595, 3035.833
398.6416, 3036.612
399.1237, 3038.915
399.6058, 3041.380
400.0879, 3042.379
400.5700, 3041.714
401.0522, 3041.214
401.5343, 3043.427
402.0164, 3048.899
402.4985, 3053.785
402.9806, 3058.708
403.4627, 3062.163
403.9449, 3062.744
404.4270, 3061.254
404.9091, 3059.723
405.3912, 3059.396
405.8733, 3059.927
406.3554, 3060.365
406.8376, 3060.853
407.3197, 3060.848
407.8018, 3060.513
408.2839, 3059.419
408.7660, 3056.602
409.2481, 3051.464
409.7303, 3046.507
410.2124, 3045.326
410.6945, 3047.537
411.1766, 3046.822
411.6587, 3040.826
412.1408, 3032.717
412.6230, 3024.877
413.1051, 3017.427
413.5872, 3011.428
414.0693, 3007.557
414.5514, 3005.322
415.0335, 3005.041
415.5157, 3007.098
415.9978, 3006.839
416.4799, 2999.505
416.9620, 2987.754
417.4441, 2980.266
417.9262, 2981.321
418.4084, 2981.370
418.8905, 2971.783
419.3726, 2956.884
419.8547, 2948.970
420.3368, 2953.323
420.8189, 2962.598
421.3011, 2964.642
421.7832, 2957.404
422.2653, 2952.190
422.7474, 2953.248
423.2295, 2954.770
423.7116, 2950.496
424.1938, 2940.791
424.6759, 2931.729
425.1580, 2928.078
425.6401, 2929.562
426.1222, 2930.984
426.6043, 2934.645
427.0865, 2935.588
427.5686, 2930.704
428.0507, 2922.918
428.5328, 2915.768
429.0149, 2910.653
429.4970, 2907.729
429.9792, 2907.500
430.4613, 2911.749
430.9434, 2914.829
431.4255, 2916.194
431.9076, 2917.101
432.3897, 2919.102
432.8719, 2921.480
433.3540, 2921.648
433.8361, 2916.989
434.3182, 2908.495
434.8003, 2903.513
435.2824, 2905.201
435.7646, 2905.677
436.2467, 2901.702
436.7288, 2896.301
437.2109, 2892.523
437.6930, 2891.318
438.1751, 2891.938
438.6573, 2894.481
439.1394, 2899.279
439.6215, 2900.908
440.1036, 2895.735
440.5857, 2890.406
441.0678, 2889.644
441.5500, 2892.508
442.0321, 2895.187
442.5142, 2895.152
442.9963, 2893.959
443.4784, 2894.648
443.9605, 2897.453
444.4427, 2900.327
444.9248, 2902.313
445.4069, 2903.695
445.8890, 2904.951
446.3711, 2906.031
446.8532, 2907.209
447.3354, 2909.046
447.8175, 2911.046
448.2996, 2911.862
448.7817, 2911.034
449.2638, 2910.052
449.7459, 2910.843
450.2281, 2913.546
450.7102, 2914.613
451.1923, 2911.607
451.6744, 2908.970
452.1565, 2909.573
452.6386, 2912.922
453.1208, 2917.334
453.6029, 2922.082
454.0850, 2926.879
454.5671, 2930.931
455.0492, 2933.762
455.5313, 2936.441
456.0135, 2939.353
456.4956, 2941.883
456.9777, 2943.025
457.4598, 2943.003
457.9419, 2943.378
458.4240, 2945.490
458.9062, 2949.343
459.3883, 2955.453
459.8704, 2967.568
460.3525, 2977.796
460.8346, 2984.079
461.3167, 2987.649
461.7989, 2989.175
462.2810, 2988.842
462.7631, 2989.427
463.2452, 2996.277
463.7273, 3010.839
464.2094, 3022.921
464.6916, 3028.991
465.1737, 3034.299
465.6558, 3041.358
466.1379, 3050.163
466.6200, 3060.248
467.1021, 3071.484
467.5843, 3083.779
468.0664, 3097.278
468.5485, 3112.288
469.0306, 3126.543
469.5127, 3137.818
469.9948, 3148.555
470.4770, 3162.506
470.9591, 3180.605
471.4412, 3198.951
471.9233, 3215.185
472.4054, 3230.500
472.8875, 3246.603
473.3697, 3263.753
473.8518, 3282.833
474.3339, 3305.982
474.8160, 3332.873
475.2981, 3353.603
475.7802, 3363.663
476.2624, 3372.403
476.7445, 3383.498
477.2266, 3396.376
477.7087, 3410.073
478.1908, 3424.337
478.6729, 3437.968
479.1551, 3448.857
479.6372, 3456.889
480.1193, 3462.050
480.6014, 3463.979
481.0835, 3463.785
481.5656, 3462.580
482.0478, 3459.817
482.5299, 3453.601
483.0120, 3442.315
483.4941, 3427.419
483.9762, 3415.214
484.4583, 3408.768
484.9405, 3398.682
485.4226, 3380.651
485.9047, 3360.272
486.3868, 3341.470
486.8689, 3324.893
487.3510, 3309.810
487.8332, 3294.777
488.3153, 3280.550
488.7974, 3270.948
489.2795, 3267.504
489.7616, 3265.291
490.2437, 3261.244
490.7259, 3256.498
491.2080, 3252.543
491.6901, 3249.045
492.1722, 3247.608
492.6543, 3249.779
493.1364, 3254.957
493.6186, 3260.747
494.1007, 3266.033
494.5828, 3274.374
495.0649, 3291.102
495.5470, 3317.274
496.0291, 3340.436
496.5113, 3357.876
496.9934, 3374.490
497.4755, 3392.132
497.9576, 3411.294
498.4397, 3432.883
498.9218, 3457.252
499.4040, 3483.680
499.8861, 3510.169
500.3682, 3535.096
500.8503, 3562.996
501.3324, 3596.765
501.8145, 3630.776
502.2967, 3662.598
502.7788, 3691.735
503.2609, 3718.237
503.7430, 3741.997
504.2251, 3763.533
504.7072, 3784.705
505.1894, 3806.038
505.6715, 3825.960
506.1536, 3846.094
506.6357, 3863.431
507.1178, 3875.006
507.5999, 3880.578
508.0821, 3882.783
508.5642, 3882.818
509.0463, 3881.025
509.5284, 3879.812
510.0105, 3880.901
510.4926, 3875.330
510.9748, 3854.652
511.4569, 3823.863
511.9390, 3795.301
512.4211, 3771.151
512.9032, 3746.703
513.3853, 3720.641
513.8674, 3692.527
514.3495, 3661.778
514.8317, 3627.984
515.3138, 3591.909
515.7959, 3553.738
516.2780, 3513.024
516.7601, 3475.208
517.2422, 3442.613
517.7244, 3409.621
518.2065, 3372.184
518.6886, 3333.874
519.1707, 3300.417
519.6528, 3273.755
520.1349, 3250.156
520.6171, 3224.002
521.0992, 3194.218
521.5813, 3166.334
522.0634, 3138.923
522.5455, 3115.174
523.0276, 3098.721
523.5098, 3086.425
523.9919, 3072.709
524.4740, 3054.972
524.9561, 3034.986
525.4382, 3013.345
525.9203, 2990.049
526.4025, 2972.627
526.8846, 2966.272
527.3667, 2961.916
527.8488, 2949.273
528.3309, 2929.881
528.8130, 2913.561
529.2952, 2906.312
529.7773, 2900.956
530.2594, 2889.798
530.7415, 2874.193
531.2236, 2861.013
531.7057, 2853.582
532.1879, 2849.348
532.6700, 2843.427
533.1521, 2834.543
533.6342, 2826.798
534.1163, 2820.837
534.5984, 2815.591
535.0806, 2810.666
535.5627, 2805.862
536.0448, 2800.448
536.5269, 2793.737
537.0090, 2787.186
537.4911, 2786.150
537.9733, 2795.470
538.4554, 2799.512
538.9375, 2793.134
539.4196, 2783.948
539.9017, 2774.740
540.3839, 2766.601
540.8660, 2761.691
541.3481, 2763.237
541.8302, 2767.921
542.3123, 2767.664
542.7944, 2761.819
543.2766, 2756.862
543.7587, 2755.542
544.2408, 2756.314
544.7229, 2757.283
545.2050, 2758.683
545.6871, 2758.500
546.1693, 2754.859
546.6514, 2750.034
547.1335, 2745.642
547.6156, 2742.165
548.0977, 2741.330
548.5798, 2744.658
549.0620, 2750.623
549.5441, 2754.066
550.0262, 2751.829
550.5083, 2751.157
550.9904, 2753.115
551.4725, 2755.825
551.9547, 2759.151
552.4368, 2762.102
552.9189, 2761.972
553.4010, 2756.114
553.8831, 2746.340
554.3652, 2740.046
554.8474, 2738.121
555.3295, 2737.553
555.8116, 2738.570
556.2937, 2740.057
556.7758, 2741.032
557.2579, 2741.535
557.7401, 2742.748
558.2222, 2746.426
558.7043, 2750.841
559.1864, 2752.946
559.6685, 2752.638
560.1506, 2751.162
560.6328, 2748.354
561.1149, 2745.448
561.5970, 2745.529
562.0791, 2749.499
562.5612, 2752.810
563.0433, 2755.251
563.5255, 2756.224
564.0076, 2754.646
564.4897, 2750.969
564.9718, 2746.833
565.4539, 2743.200
565.9360, 2740.159
566.4182, 2738.251
566.9003, 2739.235
567.3824, 2737.985
567.8645, 2732.786
568.3466, 2726.726
568.8287, 2721.490
569.3109, 2717.152
569.7930, 2713.382
570.2751, 2710.448
570.7572, 2707.418
571.2393, 2701.805
571.7214, 2693.340
572.2036, 2685.896
572.6857, 2681.504
573.1678, 2677.830
573.6499, 2671.278
574.1320, 2661.953
574.6141, 2655.047
575.0963, 2654.274
575.5784, 2654.679
576.0605, 2652.024
576.5426, 2646.792
577.0247, 2641.098
577.5068, 2635.877
577.9890, 2630.980
578.4711, 2626.199
578.9532, 2621.919
579.4353, 2616.750
579.9174, 2608.068
580.3995, 2601.208
580.8817, 2600.183
581.3638, 2602.663
581.8459, 2604.171
582.3280, 2602.608
582.8101, 2599.103
583.2922, 2595.084
583.7744, 2590.477
584.2565, 2586.517
584.7386, 2583.184
585.2207, 2580.750
585.7029, 2579.919
586.1850, 2580.066
586.6671, 2579.587
587.1492, 2577.755
587.6313, 2575.627
588.1135, 2573.934
588.5956, 2572.522
589.0777, 2570.827
589.5598, 2568.683
590.0419, 2567.159
590.5240, 2567.847
591.0062, 2570.976
591.4883, 2570.907
591.9704, 2565.658
592.4525, 2560.054
592.9346, 2554.767
593.4167, 2550.035
593.8989, 2545.670
594.3810, 2541.826
594.8631, 2539.500
595.3452, 2540.699
595.8273, 2544.893
596.3094, 2545.474
596.7916, 2540.737
597.2737, 2536.320
597.7558, 2535.479
598.2379, 2535.774
598.7200, 2534.606
599.2021, 2531.582
599.6843, 2528.255
600.1664, 2524.575
