##NAMES=Anorthite
##RRUFFID=R060193
##IDEAL CHEMISTRY=CaAl_2_Si_2_O_8_
##LOCALITY=Mexico
##OWNER=RRUFF
##SOURCE=Bill Barker
##DESCRIPTION=Tan colored translucent fragment
##STATUS=The identification of this mineral has been confirmed by X-ray diffraction and chemical analysis
##URL=rruff.info/R060193
##MEASURED CHEMISTRY=(Ca_0.58_Na_0.39_K_0.02_)Al_1.60_Si_2.40_O_8_
92.07813, 79.88094
92.56024, 79.81348
93.04236, 79.89133
93.52448, 80.06892
94.00659, 80.17803
94.48871, 79.86795
94.97083, 79.40476
95.45294, 79.69467
95.93506, 81.14647
96.41718, 82.77206
96.89929, 82.54585
97.38141, 80.44494
97.86353, 78.26313
98.34564, 77.37576
98.82776, 77.73990
99.30988, 78.10632
99.79199, 78.44279
100.2741, 78.58811
100.7562, 77.60195
101.2383, 75.00764
101.7205, 72.60167
102.2026, 72.19499
102.6847, 74.32545
103.1668, 76.41663
103.6489, 78.00706
104.1310, 79.07994
104.6132, 79.92038
105.0953, 80.86816
105.5774, 81.25130
106.0595, 80.00205
106.5416, 75.40711
107.0237, 71.78407
107.5059, 70.27278
107.9880, 71.40770
108.4701, 73.07710
108.9522, 75.96669
109.4343, 79.26325
109.9164, 81.54864
110.3986, 81.76395
110.8807, 81.81966
111.3628, 82.26984
111.8449, 83.13840
112.3270, 84.37399
112.8091, 86.22942
113.2913, 88.48983
113.7734, 90.56243
114.2555, 91.99998
114.7376, 93.48689
115.2197, 95.36913
115.7018, 97.76693
116.1840, 100.5118
116.6661, 103.2958
117.1482, 106.2621
117.6303, 110.1377
118.1124, 115.1194
118.5945, 121.2233
119.0767, 128.4008
119.5588, 137.1247
120.0409, 146.5790
120.5230, 155.9333
121.0051, 165.2208
121.4872, 176.1273
121.9694, 189.4781
122.4515, 205.0170
122.9336, 222.4665
123.4157, 241.5511
123.8978, 262.3943
124.3799, 285.4568
124.8621, 310.8667
125.3442, 337.0624
125.8263, 362.3931
126.3084, 387.4288
126.7905, 413.6788
127.2726, 443.0325
127.7548, 473.5908
128.2369, 502.0587
128.7190, 528.0616
129.2011, 552.4752
129.6832, 576.5412
130.1653, 599.9344
130.6474, 622.0480
131.1296, 640.0374
131.6117, 655.8250
132.0938, 677.3212
132.5759, 706.3348
133.0580, 739.9303
133.5401, 771.1572
134.0223, 799.9938
134.5044, 831.9503
134.9865, 871.9838
135.4686, 920.2764
135.9507, 968.4535
136.4328, 1015.552
136.9150, 1062.597
137.3971, 1112.417
137.8792, 1165.908
138.3613, 1219.755
138.8434, 1271.839
139.3255, 1321.985
139.8077, 1369.615
140.2898, 1415.230
140.7719, 1458.355
141.2540, 1498.534
141.7361, 1535.465
142.2182, 1569.233
142.7004, 1599.506
143.1825, 1624.998
143.6646, 1649.457
144.1467, 1672.242
144.6288, 1693.314
145.1109, 1718.494
145.5931, 1750.832
146.0752, 1785.006
146.5573, 1814.969
147.0394, 1836.420
147.5215, 1859.570
148.0036, 1886.228
148.4858, 1917.076
148.9679, 1950.359
149.4500, 1986.958
149.9321, 2025.807
150.4142, 2064.528
150.8963, 2103.169
151.3785, 2142.307
151.8606, 2181.367
152.3427, 2220.234
152.8248, 2260.827
153.3069, 2305.204
153.7890, 2351.282
154.2712, 2388.185
154.7533, 2407.507
155.2354, 2421.645
155.7175, 2430.324
156.1996, 2430.202
156.6817, 2430.760
157.1639, 2432.607
157.6460, 2435.930
158.1281, 2441.188
158.6102, 2449.521
159.0923, 2458.947
159.5744, 2468.651
160.0566, 2479.020
160.5387, 2488.667
161.0208, 2496.144
161.5029, 2502.411
161.9850, 2510.240
162.4671, 2518.856
162.9493, 2530.377
163.4314, 2546.395
163.9135, 2569.647
164.3956, 2594.381
164.8777, 2618.054
165.3598, 2641.169
165.8420, 2665.852
166.3241, 2692.925
166.8062, 2721.998
167.2883, 2752.823
167.7704, 2787.088
168.2525, 2821.160
168.7346, 2852.979
169.2168, 2882.771
169.6989, 2912.104
170.1810, 2939.955
170.6631, 2968.422
171.1452, 3000.263
171.6273, 3039.502
172.1095, 3079.555
172.5916, 3115.952
173.0737, 3148.792
173.5558, 3178.686
174.0379, 3205.682
174.5201, 3230.031
175.0022, 3252.606
175.4843, 3273.824
175.9664, 3293.522
176.4485, 3311.077
176.9306, 3326.673
177.4128, 3340.140
177.8949, 3352.176
178.3770, 3361.957
178.8591, 3367.937
179.3412, 3369.683
179.8233, 3367.159
180.3055, 3360.589
180.7876, 3349.980
181.2697, 3334.825
181.7518, 3312.926
182.2339, 3285.737
182.7160, 3257.056
183.1982, 3229.833
183.6803, 3202.368
184.1624, 3170.168
184.6445, 3132.913
185.1266, 3094.302
185.6087, 3058.439
186.0909, 3024.704
186.5730, 2991.750
187.0551, 2958.962
187.5372, 2926.417
188.0193, 2892.873
188.5014, 2858.059
188.9836, 2823.638
189.4657, 2790.488
189.9478, 2758.838
190.4299, 2728.285
190.9120, 2697.909
191.3941, 2668.407
191.8763, 2643.657
192.3584, 2624.547
192.8405, 2608.027
193.3226, 2588.956
193.8047, 2567.404
194.2868, 2546.689
194.7690, 2528.559
195.2511, 2512.895
195.7332, 2496.790
196.2153, 2480.259
196.6974, 2463.247
197.1795, 2446.239
197.6617, 2429.203
198.1438, 2411.954
198.6259, 2393.942
199.1080, 2375.254
199.5901, 2358.268
200.0722, 2343.482
200.5544, 2329.811
201.0365, 2315.886
201.5186, 2301.762
202.0007, 2286.480
202.4828, 2269.216
202.9649, 2249.788
203.4471, 2230.681
203.9292, 2211.763
204.4113, 2193.052
204.8934, 2174.216
205.3755, 2155.229
205.8576, 2136.833
206.3398, 2119.537
206.8219, 2103.487
207.3040, 2087.489
207.7861, 2071.798
208.2682, 2056.102
208.7503, 2039.848
209.2325, 2023.193
209.7146, 2006.072
210.1967, 1988.371
210.6788, 1969.940
211.1609, 1951.693
211.6430, 1933.461
212.1252, 1915.505
212.6073, 1898.692
213.0894, 1883.262
213.5715, 1868.531
214.0536, 1854.344
214.5357, 1840.828
215.0179, 1827.164
215.5000, 1813.014
215.9821, 1798.812
216.4642, 1785.636
216.9463, 1774.075
217.4284, 1762.473
217.9105, 1749.855
218.3927, 1735.854
218.8748, 1722.344
219.3569, 1708.976
219.8390, 1696.300
220.3211, 1685.397
220.8032, 1676.905
221.2854, 1668.912
221.7675, 1660.465
222.2496, 1651.462
222.7317, 1642.350
223.2138, 1632.083
223.6959, 1622.228
224.1781, 1616.420
224.6602, 1616.928
225.1423, 1617.561
225.6244, 1615.659
226.1065, 1610.026
226.5886, 1605.345
227.0708, 1601.753
227.5529, 1599.003
228.0350, 1596.555
228.5171, 1594.291
228.9992, 1592.486
229.4813, 1591.156
229.9635, 1590.095
230.4456, 1590.223
230.9277, 1591.928
231.4098, 1594.631
231.8919, 1597.298
232.3740, 1599.945
232.8562, 1602.527
233.3383, 1604.983
233.8204, 1607.176
234.3025, 1609.783
234.7846, 1613.274
235.2667, 1616.946
235.7489, 1619.227
236.2310, 1618.647
236.7131, 1619.067
237.1952, 1621.806
237.6773, 1627.114
238.1594, 1633.901
238.6416, 1643.240
239.1237, 1653.425
239.6058, 1661.497
240.0879, 1666.015
240.5700, 1670.899
241.0521, 1677.380
241.5343, 1685.604
242.0164, 1694.507
242.4985, 1704.268
242.9806, 1714.555
243.4627, 1725.030
243.9448, 1736.359
244.4270, 1746.627
244.9091, 1754.792
245.3912, 1760.105
245.8733, 1767.438
246.3554, 1777.741
246.8375, 1789.299
247.3197, 1799.928
247.8018, 1809.422
248.2839, 1818.301
248.7660, 1826.465
249.2481, 1833.776
249.7302, 1841.827
250.2124, 1850.770
250.6945, 1860.425
251.1766, 1870.927
251.6587, 1883.237
252.1408, 1894.542
252.6229, 1903.692
253.1051, 1910.518
253.5872, 1919.490
254.0693, 1932.045
254.5514, 1945.327
255.0335, 1956.246
255.5156, 1963.407
255.9978, 1971.006
256.4799, 1979.933
256.9620, 1990.197
257.4441, 2000.310
257.9262, 2010.470
258.4083, 2020.152
258.8904, 2028.352
259.3726, 2033.790
259.8547, 2041.117
260.3368, 2051.606
260.8189, 2064.991
261.3010, 2077.190
261.7831, 2087.791
262.2653, 2097.835
262.7474, 2107.985
263.2295, 2118.475
263.7116, 2128.709
264.1937, 2138.835
264.6758, 2148.694
265.1580, 2157.574
265.6401, 2164.598
266.1222, 2172.232
266.6043, 2182.802
267.0864, 2197.984
267.5685, 2210.246
268.0507, 2217.958
268.5328, 2222.531
269.0149, 2229.703
269.4970, 2240.740
269.9791, 2251.599
270.4612, 2259.717
270.9434, 2264.219
271.4255, 2269.946
271.9076, 2277.402
272.3897, 2286.172
272.8718, 2295.489
273.3539, 2305.574
273.8361, 2315.366
274.3182, 2324.207
274.8003, 2331.918
275.2824, 2339.765
275.7645, 2348.124
276.2466, 2356.098
276.7288, 2361.564
277.2109, 2364.019
277.6930, 2366.316
278.1751, 2369.659
278.6572, 2374.105
279.1393, 2379.272
279.6215, 2385.917
280.1036, 2391.916
280.5857, 2393.542
281.0678, 2390.471
281.5499, 2386.563
282.0320, 2383.430
282.5142, 2380.972
282.9963, 2377.705
283.4784, 2373.632
283.9605, 2368.793
284.4426, 2363.558
284.9247, 2357.951
285.4069, 2350.468
285.8890, 2339.781
286.3711, 2326.764
286.8532, 2315.543
287.3353, 2306.411
287.8174, 2297.344
288.2996, 2286.604
288.7817, 2274.187
289.2638, 2260.503
289.7459, 2245.822
290.2280, 2229.911
290.7101, 2210.750
291.1923, 2188.046
291.6744, 2165.699
292.1565, 2147.675
292.6386, 2133.025
293.1207, 2116.883
293.6028, 2097.693
294.0850, 2077.026
294.5671, 2056.971
295.0492, 2037.475
295.5313, 2017.913
296.0134, 1997.248
296.4955, 1976.195
296.9777, 1957.312
297.4598, 1941.616
297.9419, 1927.198
298.4240, 1911.191
298.9061, 1894.119
299.3882, 1878.285
299.8704, 1866.595
300.3525, 1856.972
300.8346, 1844.891
301.3167, 1829.663
301.7988, 1813.417
302.2809, 1796.969
302.7631, 1781.102
303.2452, 1767.557
303.7273, 1758.911
304.2094, 1752.579
304.6915, 1745.463
305.1736, 1737.325
305.6558, 1728.511
306.1379, 1718.623
306.6200, 1708.281
307.1021, 1698.700
307.5842, 1690.148
308.0663, 1682.609
308.5485, 1676.339
309.0306, 1671.292
309.5127, 1666.093
309.9948, 1659.571
310.4769, 1652.376
310.9590, 1645.388
311.4412, 1639.182
311.9233, 1632.872
312.4054, 1625.358
312.8875, 1616.912
313.3696, 1609.299
313.8517, 1604.018
314.3339, 1599.843
314.8160, 1595.658
315.2981, 1590.968
315.7802, 1586.727
316.2623, 1583.998
316.7444, 1582.219
317.2266, 1579.780
317.7087, 1574.898
318.1908, 1569.965
318.6729, 1566.701
319.1550, 1566.247
319.6371, 1565.081
320.1193, 1561.382
320.6014, 1556.295
321.0835, 1551.632
321.5656, 1547.559
322.0477, 1544.320
322.5298, 1542.059
323.0120, 1540.875
323.4941, 1540.079
323.9762, 1539.749
324.4583, 1539.632
324.9404, 1539.456
325.4225, 1539.716
325.9047, 1539.383
326.3868, 1537.793
326.8689, 1534.889
327.3510, 1532.980
327.8331, 1532.872
328.3152, 1533.474
328.7974, 1534.033
329.2795, 1534.328
329.7616, 1534.861
330.2437, 1535.819
330.7258, 1537.097
331.2079, 1538.136
331.6901, 1538.949
332.1722, 1539.486
332.6543, 1539.641
333.1364, 1538.722
333.6185, 1538.639
334.1006, 1539.631
334.5828, 1541.368
335.0649, 1543.237
335.5470, 1545.899
336.0291, 1547.490
336.5112, 1546.779
336.9933, 1542.870
337.4755, 1541.596
337.9576, 1544.337
338.4397, 1548.151
338.9218, 1548.805
339.4039, 1545.431
339.8860, 1542.068
340.3681, 1540.103
340.8503, 1539.343
341.3324, 1536.777
341.8145, 1531.517
342.2966, 1526.917
342.7787, 1526.665
343.2608, 1531.008
343.7430, 1534.797
344.2251, 1537.298
344.7072, 1538.398
345.1893, 1537.093
345.6714, 1533.177
346.1535, 1529.276
346.6357, 1527.505
347.1178, 1527.499
347.5999, 1526.976
348.0820, 1525.521
348.5641, 1523.835
349.0462, 1523.221
349.5284, 1523.511
350.0105, 1523.459
350.4926, 1521.985
350.9747, 1519.748
351.4568, 1518.479
351.9389, 1518.375
352.4211, 1518.045
352.9032, 1514.988
353.3853, 1510.546
353.8674, 1507.986
354.3495, 1509.966
354.8316, 1513.642
355.3138, 1516.282
355.7959, 1517.857
356.2780, 1517.963
356.7601, 1514.964
357.2422, 1510.785
357.7243, 1507.895
358.2065, 1507.350
358.6886, 1507.712
359.1707, 1508.762
359.6528, 1510.064
360.1349, 1510.307
360.6170, 1508.088
361.0992, 1505.048
361.5813, 1502.000
362.0634, 1498.646
362.5455, 1496.778
363.0276, 1498.164
363.5097, 1501.254
363.9919, 1503.754
364.4740, 1505.002
364.9561, 1505.498
365.4382, 1505.173
365.9203, 1503.947
366.4024, 1502.960
366.8846, 1501.803
367.3667, 1501.300
367.8488, 1502.123
368.3309, 1506.674
368.8130, 1509.959
369.2951, 1510.394
369.7773, 1508.571
370.2594, 1508.564
370.7415, 1512.725
371.2236, 1516.564
371.7057, 1517.957
372.1878, 1515.100
372.6700, 1513.269
373.1521, 1512.645
373.6342, 1512.978
374.1163, 1513.856
374.5984, 1515.411
375.0805, 1517.210
375.5627, 1519.039
376.0448, 1520.846
376.5269, 1523.457
377.0090, 1527.252
377.4911, 1531.188
377.9732, 1533.778
378.4554, 1534.571
378.9375, 1537.041
379.4196, 1542.928
379.9017, 1550.632
380.3838, 1553.963
380.8659, 1552.455
381.3481, 1550.066
381.8302, 1548.928
382.3123, 1549.169
382.7944, 1552.287
383.2765, 1559.317
383.7586, 1567.130
384.2408, 1570.340
384.7229, 1569.658
385.2050, 1569.609
385.6871, 1572.749
386.1692, 1577.988
386.6513, 1583.705
387.1335, 1589.841
387.6156, 1595.778
388.0977, 1600.543
388.5798, 1604.660
389.0619, 1609.191
389.5440, 1614.800
390.0262, 1620.572
390.5083, 1625.863
390.9904, 1630.703
391.4725, 1635.057
391.9546, 1638.328
392.4367, 1641.395
392.9189, 1645.135
393.4010, 1649.958
393.8831, 1654.777
394.3652, 1658.760
394.8473, 1662.392
395.3294, 1666.504
395.8116, 1671.961
396.2937, 1677.412
396.7758, 1682.245
397.2579, 1686.365
397.7400, 1690.543
398.2221, 1695.509
398.7043, 1700.251
399.1864, 1703.928
399.6685, 1705.459
400.1506, 1707.066
400.6327, 1709.050
401.1148, 1711.300
401.5970, 1713.357
402.0791, 1715.469
402.5612, 1717.066
403.0433, 1717.695
403.5254, 1716.557
404.0075, 1716.980
404.4897, 1720.250
404.9718, 1724.030
405.4539, 1724.431
405.9360, 1720.424
406.4181, 1716.358
406.9002, 1713.440
407.3824, 1711.573
407.8645, 1709.517
408.3466, 1707.216
408.8287, 1704.894
409.3108, 1702.873
409.7929, 1701.107
410.2751, 1698.798
410.7572, 1695.684
411.2393, 1692.084
411.7214, 1688.677
412.2035, 1685.397
412.6856, 1681.910
413.1678, 1678.209
413.6499, 1674.127
414.1320, 1669.008
414.6141, 1662.688
415.0962, 1656.566
415.5783, 1651.745
416.0605, 1648.067
416.5426, 1645.145
417.0247, 1643.350
417.5068, 1641.836
417.9889, 1640.176
418.4710, 1638.278
418.9532, 1635.627
419.4353, 1630.633
419.9174, 1625.536
420.3995, 1622.222
420.8816, 1621.314
421.3637, 1621.256
421.8459, 1621.897
422.3280, 1622.857
422.8101, 1623.577
423.2922, 1624.026
423.7743, 1624.052
424.2564, 1623.306
424.7386, 1621.701
425.2207, 1620.759
425.7028, 1621.474
426.1849, 1622.373
426.6670, 1622.511
427.1491, 1621.596
427.6313, 1620.427
428.1134, 1618.605
428.5955, 1616.692
429.0776, 1616.243
429.5597, 1617.759
430.0418, 1619.822
430.5240, 1622.002
431.0061, 1624.313
431.4882, 1626.502
431.9703, 1628.502
432.4524, 1630.480
432.9345, 1632.735
433.4167, 1635.264
433.8988, 1637.252
434.3809, 1637.971
434.8630, 1638.424
435.3451, 1641.697
435.8272, 1647.682
436.3094, 1653.326
436.7915, 1656.219
437.2736, 1657.294
437.7557, 1658.579
438.2378, 1660.187
438.7199, 1662.489
439.2020, 1666.435
439.6841, 1671.337
440.1663, 1675.783
440.6484, 1679.724
441.1305, 1682.590
441.6126, 1683.115
442.0947, 1681.718
442.5768, 1680.962
443.0590, 1683.727
443.5411, 1686.744
444.0232, 1687.223
444.5053, 1683.407
444.9874, 1679.719
445.4695, 1676.933
445.9517, 1675.317
446.4338, 1675.282
446.9159, 1677.998
447.3980, 1681.228
447.8801, 1684.778
448.3622, 1688.744
448.8444, 1691.292
449.3265, 1691.146
449.8086, 1690.719
450.2907, 1691.581
450.7728, 1694.196
451.2549, 1697.167
451.7371, 1700.523
452.2192, 1704.140
452.7013, 1707.630
453.1834, 1710.829
453.6655, 1714.416
454.1476, 1718.267
454.6298, 1722.505
455.1119, 1729.545
455.5940, 1739.815
456.0761, 1750.250
456.5582, 1756.735
457.0403, 1760.237
457.5225, 1765.992
458.0046, 1775.179
458.4867, 1786.566
458.9688, 1798.847
459.4509, 1811.851
459.9330, 1824.387
460.4152, 1835.093
460.8973, 1845.521
461.3794, 1857.447
461.8615, 1871.139
462.3436, 1885.491
462.8257, 1899.887
463.3079, 1914.684
463.7900, 1930.326
464.2721, 1947.946
464.7542, 1965.465
465.2363, 1981.583
465.7184, 1996.930
466.2006, 2013.282
466.6827, 2030.698
467.1648, 2049.559
467.6469, 2070.286
468.1290, 2093.588
468.6111, 2115.940
469.0933, 2136.329
469.5754, 2156.556
470.0575, 2178.492
470.5396, 2202.433
471.0217, 2227.452
471.5038, 2253.941
471.9860, 2281.493
472.4681, 2309.470
472.9502, 2338.417
473.4323, 2366.050
473.9144, 2390.002
474.3965, 2410.561
474.8787, 2434.134
475.3608, 2460.996
475.8429, 2489.067
476.3250, 2516.008
476.8071, 2541.886
477.2892, 2567.439
477.7714, 2593.283
478.2535, 2617.759
478.7356, 2637.670
479.2177, 2653.778
479.6998, 2668.901
480.1819, 2686.282
480.6641, 2702.906
481.1462, 2715.267
481.6283, 2723.074
482.1104, 2728.731
482.5925, 2734.777
483.0746, 2738.962
483.5568, 2738.956
484.0389, 2730.537
484.5210, 2721.783
485.0031, 2714.874
485.4852, 2709.374
485.9673, 2703.675
486.4495, 2697.078
486.9316, 2690.717
487.4137, 2684.571
487.8958, 2678.151
488.3779, 2674.180
488.8600, 2672.840
489.3422, 2673.615
489.8243, 2675.600
490.3064, 2677.729
490.7885, 2684.700
491.2706, 2697.809
491.7527, 2715.495
492.2349, 2734.113
492.7170, 2753.329
493.1991, 2775.552
493.6812, 2801.813
494.1633, 2831.805
494.6454, 2865.238
495.1276, 2901.895
495.6097, 2941.313
496.0918, 2982.243
496.5739, 3025.661
497.0560, 3071.709
497.5381, 3121.018
498.0203, 3173.448
498.5024, 3231.849
498.9845, 3293.545
499.4666, 3354.151
499.9487, 3409.926
500.4308, 3464.744
500.9130, 3521.453
501.3951, 3579.914
501.8772, 3636.545
502.3593, 3691.339
502.8414, 3742.499
503.3235, 3789.478
503.8057, 3832.953
504.2878, 3870.371
504.7699, 3901.280
505.2520, 3926.335
505.7341, 3946.884
506.2162, 3964.345
506.6984, 3974.356
507.1805, 3975.713
507.6626, 3968.469
508.1447, 3953.271
508.6268, 3929.907
509.1089, 3899.226
509.5911, 3860.332
510.0732, 3813.750
510.5553, 3765.906
511.0374, 3717.842
511.5195, 3666.552
512.0016, 3607.022
512.4838, 3540.602
512.9659, 3473.397
513.4480, 3406.830
513.9301, 3339.567
514.4122, 3268.881
514.8943, 3195.584
515.3765, 3123.061
515.8586, 3051.992
516.3407, 2982.964
516.8228, 2917.425
517.3049, 2855.437
517.7870, 2794.892
518.2692, 2734.240
518.7513, 2675.618
519.2334, 2621.346
519.7155, 2575.411
520.1976, 2529.309
520.6797, 2482.026
521.1619, 2434.169
521.6440, 2387.415
522.1261, 2340.600
522.6082, 2297.899
523.0903, 2261.522
523.5724, 2231.587
524.0546, 2202.063
524.5367, 2173.009
525.0188, 2144.858
525.5009, 2118.053
525.9830, 2092.372
526.4651, 2066.264
526.9473, 2038.806
527.4294, 2012.161
527.9115, 1990.427
528.3936, 1972.615
528.8757, 1955.032
529.3578, 1935.947
529.8400, 1916.507
530.3221, 1897.483
530.8042, 1879.125
531.2863, 1861.965
531.7684, 1846.598
532.2505, 1832.508
532.7327, 1819.589
533.2148, 1808.030
533.6969, 1796.973
534.1790, 1786.543
534.6611, 1776.437
535.1432, 1766.494
535.6254, 1754.815
536.1075, 1745.646
536.5896, 1740.662
537.0717, 1738.501
537.5538, 1734.452
538.0359, 1727.404
538.5181, 1721.060
539.0002, 1717.194
539.4823, 1715.773
539.9644, 1713.317
540.4465, 1709.453
540.9286, 1706.449
541.4108, 1707.001
541.8929, 1710.383
542.3750, 1713.401
542.8571, 1715.414
543.3392, 1717.133
543.8214, 1719.126
544.3035, 1721.479
544.7856, 1724.471
545.2677, 1728.993
545.7498, 1733.578
546.2319, 1736.944
546.7141, 1739.275
547.1962, 1741.747
547.6783, 1743.754
548.1604, 1746.843
548.6425, 1752.266
549.1246, 1761.153
549.6068, 1769.244
550.0889, 1775.727
550.5710, 1781.547
551.0531, 1787.637
551.5352, 1794.634
552.0173, 1800.345
552.4995, 1803.508
552.9816, 1805.839
553.4637, 1812.339
553.9458, 1823.758
554.4279, 1834.119
554.9100, 1840.263
555.3922, 1843.403
555.8743, 1848.275
556.3564, 1854.847
556.8385, 1862.138
557.3206, 1870.283
557.8027, 1878.332
558.2849, 1884.584
558.7670, 1888.525
559.2491, 1891.944
559.7312, 1896.474
560.2133, 1901.218
560.6954, 1904.938
561.1776, 1907.264
561.6597, 1908.375
562.1418, 1908.231
562.6239, 1906.876
563.1060, 1904.512
563.5881, 1901.057
564.0703, 1896.663
564.5524, 1891.518
565.0345, 1885.763
565.5166, 1877.837
565.9987, 1866.795
566.4808, 1855.173
566.9630, 1845.024
567.4451, 1836.584
567.9272, 1826.817
568.4093, 1815.015
568.8914, 1802.903
569.3735, 1793.201
569.8557, 1785.436
570.3378, 1776.796
570.8199, 1766.017
571.3020, 1754.318
571.7841, 1743.144
572.2662, 1732.472
572.7484, 1722.275
573.2305, 1711.702
573.7126, 1702.114
574.1947, 1694.765
574.6768, 1689.924
575.1589, 1684.801
575.6411, 1677.863
576.1232, 1670.836
576.6053, 1665.079
577.0874, 1662.149
577.5695, 1657.993
578.0516, 1651.694
578.5338, 1644.804
579.0159, 1639.591
579.4980, 1636.582
579.9801, 1633.619
580.4622, 1630.056
580.9443, 1626.332
581.4265, 1624.489
581.9086, 1624.525
582.3907, 1623.563
582.8728, 1618.852
583.3549, 1612.256
583.8370, 1607.612
584.3192, 1604.980
584.8013, 1603.152
585.2834, 1601.110
585.7655, 1599.418
586.2476, 1598.902
586.7297, 1600.254
587.2118, 1601.246
587.6939, 1601.078
588.1760, 1599.956
588.6581, 1598.141
589.1403, 1594.071
589.6224, 1591.236
