##NAMES=Anthophyllite
##RRUFFID=R070245
##IDEAL CHEMISTRY=[box]Mg_2_Mg_5_Si_8_O_22_(OH)_2_
##LOCALITY=Shartash, Zlatoust, Ilmen Mts, Chelyabinsk Oblast', Urals Region, Russia
##OWNER=RRUFF
##SOURCE=Michael Scott
##DESCRIPTION=Translucent to transparent grey bladed crystals with satin luster (fibrous appearance) associated with hematite
##STATUS=The identification of this mineral has been confirmed only by single crystal X-ray diffraction.
##URL=rruff.info/R070245
181.4815, 48350.76
181.9637, 48754.91
182.4458, 49177.81
182.9279, 49570.84
183.4100, 49944.01
183.8921, 50345.66
184.3742, 50818.80
184.8564, 51317.45
185.3385, 51746.29
185.8206, 52112.84
186.3027, 52363.06
186.7848, 52415.46
187.2669, 52286.38
187.7491, 52102.52
188.2312, 51864.63
188.7133, 51605.15
189.1954, 51445.48
189.6775, 51394.50
190.1596, 51409.43
190.6418, 51447.29
191.1239, 51507.98
191.6060, 51588.93
192.0881, 51700.95
192.5702, 51838.78
193.0524, 51954.76
193.5345, 52045.39
194.0166, 52122.63
194.4987, 52195.11
194.9808, 52261.32
195.4629, 52346.09
195.9451, 52478.53
196.4272, 52658.56
196.9093, 52781.48
197.3914, 52831.63
197.8735, 52844.13
198.3556, 52884.74
198.8378, 52957.00
199.3199, 53033.73
199.8020, 53102.74
200.2841, 53163.64
200.7662, 53213.93
201.2483, 53252.04
201.7305, 53280.73
202.2126, 53304.31
202.6947, 53320.55
203.1768, 53340.02
203.6589, 53376.82
204.1410, 53437.14
204.6232, 53468.43
205.1053, 53463.61
205.5874, 53427.87
206.0695, 53372.30
206.5516, 53288.05
207.0337, 53207.23
207.5159, 53161.52
207.9980, 53167.07
208.4801, 53133.20
208.9622, 53039.36
209.4443, 52897.87
209.9264, 52770.64
210.4086, 52665.34
210.8907, 52558.38
211.3728, 52427.29
211.8549, 52257.41
212.3370, 52110.45
212.8191, 51998.36
213.3013, 51918.18
213.7834, 51838.00
214.2655, 51759.39
214.7476, 51677.91
215.2297, 51580.79
215.7118, 51441.85
216.1940, 51360.07
216.6761, 51367.71
217.1582, 51459.91
217.6403, 51533.08
218.1224, 51590.23
218.6045, 51623.37
219.0867, 51614.93
219.5688, 51534.33
220.0509, 51486.52
220.5330, 51507.22
221.0151, 51598.96
221.4972, 51647.14
221.9794, 51636.09
222.4615, 51599.53
222.9436, 51566.33
223.4257, 51517.05
223.9078, 51514.58
224.3899, 51594.98
224.8721, 51771.65
225.3542, 51866.97
225.8363, 51858.24
226.3184, 51790.71
226.8005, 51712.44
227.2827, 51612.95
227.7648, 51524.04
228.2469, 51457.18
228.7290, 51416.69
229.2111, 51365.53
229.6932, 51297.68
230.1754, 51224.66
230.6575, 51160.42
231.1396, 51107.21
231.6217, 51060.00
232.1038, 51020.65
232.5859, 50993.30
233.0681, 50948.72
233.5502, 50868.95
234.0323, 50785.00
234.5144, 50741.13
234.9965, 50747.04
235.4786, 50778.36
235.9608, 50837.45
236.4429, 50937.20
236.9250, 50997.44
237.4071, 50987.66
237.8892, 50956.91
238.3713, 50988.75
238.8535, 51127.89
239.3356, 51254.06
239.8177, 51316.77
240.2998, 51282.10
240.7819, 51319.83
241.2640, 51466.77
241.7462, 51665.27
242.2283, 51812.51
242.7104, 51867.94
243.1925, 51939.08
243.6746, 52066.98
244.1567, 52274.91
244.6389, 52464.53
245.1210, 52641.18
245.6031, 52796.18
246.0852, 52909.46
246.5673, 52963.87
247.0494, 53005.47
247.5316, 53045.35
248.0137, 53075.01
248.4958, 53134.28
248.9779, 53235.74
249.4600, 53359.55
249.9421, 53470.89
250.4243, 53582.35
250.9064, 53659.93
251.3885, 53679.20
251.8706, 53607.29
252.3527, 53589.96
252.8348, 53646.10
253.3170, 53744.81
253.7991, 53822.10
254.2812, 53848.60
254.7633, 53909.05
255.2454, 54057.60
255.7275, 54346.35
256.2097, 54514.18
256.6918, 54502.36
257.1739, 54408.16
257.6560, 54410.06
258.1381, 54528.34
258.6202, 54702.55
259.1024, 54929.43
259.5845, 55234.58
260.0666, 55476.89
260.5487, 55649.09
261.0308, 55763.26
261.5129, 55846.33
261.9951, 55896.39
262.4772, 55918.46
262.9593, 55922.52
263.4414, 55921.17
263.9235, 55833.34
264.4056, 55627.78
264.8878, 55363.47
265.3699, 55136.05
265.8520, 54947.70
266.3341, 54784.48
266.8162, 54639.11
267.2983, 54512.04
267.7805, 54409.76
268.2626, 54338.84
268.7447, 54286.43
269.2268, 54235.41
269.7089, 54190.42
270.1910, 54129.73
270.6732, 54025.65
271.1553, 53866.57
271.6374, 53795.11
272.1195, 53837.19
272.6016, 53928.81
273.0837, 53963.50
273.5659, 53931.41
274.0480, 53893.70
274.5301, 53866.64
275.0122, 53849.84
275.4943, 53871.16
275.9764, 53945.52
276.4586, 54029.95
276.9407, 54049.22
277.4228, 53994.09
277.9049, 53952.18
278.3870, 53958.83
278.8691, 54012.43
279.3513, 54078.11
279.8334, 54158.16
280.3155, 54244.42
280.7976, 54331.89
281.2798, 54420.64
281.7619, 54492.21
282.2440, 54532.41
282.7261, 54546.17
283.2082, 54565.11
283.6903, 54585.05
284.1725, 54625.59
284.6546, 54726.83
285.1367, 54885.21
285.6188, 55029.48
286.1009, 55131.50
286.5830, 55198.60
287.0652, 55261.23
287.5473, 55318.98
288.0294, 55371.27
288.5115, 55402.22
288.9936, 55418.15
289.4757, 55470.05
289.9579, 55592.56
290.4400, 55759.02
290.9221, 55903.34
291.4042, 56025.34
291.8863, 56127.71
292.3684, 56185.83
292.8506, 56217.45
293.3327, 56303.13
293.8148, 56501.21
294.2969, 56750.36
294.7790, 56923.77
295.2611, 57021.94
295.7433, 57118.46
296.2254, 57293.70
296.7075, 57522.61
297.1896, 57726.46
297.6717, 57873.44
298.1538, 57996.94
298.6360, 58152.78
299.1181, 58338.54
299.6002, 58508.71
300.0823, 58644.04
300.5644, 58738.96
301.0465, 58783.41
301.5287, 58768.86
302.0108, 58710.37
302.4929, 58615.75
302.9750, 58487.38
303.4571, 58344.39
303.9392, 58173.90
304.4214, 58003.31
304.9035, 57868.05
305.3856, 57789.92
305.8677, 57732.88
306.3498, 57669.50
306.8319, 57602.99
307.3141, 57543.19
307.7962, 57491.94
308.2783, 57452.98
308.7604, 57432.54
309.2425, 57440.81
309.7246, 57449.21
310.2068, 57440.40
310.6889, 57417.53
311.1710, 57388.82
311.6531, 57344.23
312.1352, 57303.84
312.6173, 57284.83
313.0995, 57295.67
313.5816, 57311.79
314.0637, 57311.10
314.5458, 57308.43
315.0279, 57331.55
315.5100, 57432.60
315.9922, 57530.97
316.4743, 57568.50
316.9564, 57513.75
317.4385, 57501.03
317.9206, 57633.87
318.4027, 57821.81
318.8849, 57938.41
319.3670, 57875.03
319.8491, 57800.30
320.3312, 57775.11
320.8133, 57809.60
321.2954, 57859.88
321.7776, 57927.61
322.2597, 58003.19
322.7418, 58076.38
323.2239, 58166.39
323.7060, 58233.22
324.1881, 58245.11
324.6703, 58192.43
325.1524, 58201.15
325.6345, 58343.82
326.1166, 58517.29
326.5987, 58639.21
327.0808, 58626.33
327.5630, 58659.97
328.0451, 58793.67
328.5272, 59019.75
329.0093, 59168.11
329.4914, 59172.53
329.9735, 59156.18
330.4557, 59199.74
330.9378, 59341.09
331.4199, 59477.45
331.9020, 59603.67
332.3841, 59719.75
332.8662, 59823.82
333.3484, 59905.04
333.8305, 59989.14
334.3126, 60092.11
334.7947, 60218.36
335.2768, 60348.15
335.7589, 60486.36
336.2411, 60624.07
336.7232, 60748.66
337.2053, 60868.14
337.6874, 60948.15
338.1695, 60958.31
338.6516, 60887.35
339.1338, 60847.02
339.6159, 60847.43
340.0980, 60866.29
340.5801, 60864.21
341.0622, 60838.46
341.5443, 60816.55
342.0265, 60815.70
342.5086, 60832.00
342.9907, 60823.66
343.4728, 60785.73
343.9549, 60742.81
344.4370, 60736.66
344.9192, 60761.59
345.4013, 60759.92
345.8834, 60685.48
346.3655, 60577.14
346.8476, 60552.05
347.3297, 60612.53
347.8119, 60688.14
348.2940, 60701.71
348.7761, 60675.69
349.2582, 60678.44
349.7403, 60741.93
350.2225, 60830.18
350.7046, 60890.52
351.1867, 60926.84
351.6688, 60964.80
352.1509, 61025.79
352.6331, 61099.63
353.1152, 61171.17
353.5973, 61236.64
354.0794, 61299.91
354.5615, 61356.08
355.0436, 61411.10
355.5258, 61482.96
356.0079, 61570.87
356.4900, 61685.90
356.9721, 61856.50
357.4542, 62116.78
357.9363, 62331.75
358.4185, 62404.82
358.9006, 62383.55
359.3827, 62350.26
359.8648, 62287.09
360.3469, 62259.77
360.8290, 62326.24
361.3112, 62509.38
361.7933, 62653.10
362.2754, 62673.09
362.7575, 62642.22
363.2396, 62639.68
363.7217, 62708.77
364.2039, 62782.42
364.6860, 62840.94
365.1681, 62883.89
365.6502, 62936.72
366.1323, 62987.86
366.6144, 63058.69
367.0966, 63165.17
367.5787, 63389.48
368.0608, 63546.70
368.5429, 63589.96
369.0250, 63545.89
369.5071, 63550.61
369.9893, 63631.96
370.4714, 63729.35
370.9535, 63812.73
371.4356, 63866.64
371.9177, 63937.90
372.3998, 64019.41
372.8820, 64123.04
373.3641, 64285.43
373.8462, 64536.39
374.3283, 64767.26
374.8104, 64920.58
375.2925, 64987.84
375.7747, 65089.18
376.2568, 65221.87
376.7389, 65395.52
377.2210, 65644.74
377.7031, 65977.33
378.1852, 66270.80
378.6674, 66475.87
379.1495, 66613.00
379.6316, 66783.38
380.1137, 66989.36
380.5958, 67194.13
381.0779, 67357.63
381.5601, 67488.16
382.0422, 67614.49
382.5243, 67746.06
383.0064, 67876.91
383.4885, 68014.10
383.9706, 68152.68
384.4528, 68246.53
384.9349, 68266.44
385.4170, 68221.40
385.8991, 68119.82
386.3812, 67951.78
386.8633, 67760.60
387.3455, 67576.94
387.8276, 67401.01
388.3097, 67230.20
388.7918, 67017.65
389.2739, 66841.07
389.7560, 66782.05
390.2382, 66855.58
390.7203, 66939.75
391.2024, 67000.37
391.6845, 67024.81
392.1666, 66998.81
392.6487, 66881.26
393.1309, 66745.61
393.6130, 66623.88
394.0951, 66513.67
394.5772, 66386.09
395.0593, 66228.69
395.5414, 66054.66
396.0236, 65873.59
396.5057, 65640.08
396.9878, 65454.17
397.4699, 65342.04
397.9520, 65287.48
398.4341, 65240.26
398.9163, 65203.36
399.3984, 65170.64
399.8805, 65136.02
400.3626, 65086.66
400.8447, 65074.56
401.3268, 65109.60
401.8090, 65174.65
402.2911, 65249.95
402.7732, 65340.91
403.2553, 65426.26
403.7374, 65501.95
404.2195, 65567.73
404.7017, 65608.98
405.1838, 65609.60
405.6659, 65630.16
406.1480, 65742.71
406.6301, 65949.37
407.1122, 66130.62
407.5944, 66260.59
408.0765, 66357.94
408.5586, 66465.23
409.0407, 66582.60
409.5228, 66692.99
410.0049, 66801.87
410.4871, 66894.52
410.9692, 66920.66
411.4513, 66864.84
411.9334, 66784.08
412.4155, 66759.16
412.8976, 66764.10
413.3798, 66726.09
413.8619, 66561.18
414.3440, 66365.52
414.8261, 66234.05
415.3082, 66168.80
415.7903, 66139.79
416.2725, 66153.23
416.7546, 66181.65
417.2367, 66193.70
417.7188, 66159.63
418.2009, 66128.92
418.6830, 66107.62
419.1652, 66103.82
419.6473, 66148.13
420.1294, 66290.78
420.6115, 66454.79
421.0937, 66606.12
421.5758, 66752.43
422.0579, 66852.89
422.5400, 66841.47
423.0221, 66793.75
423.5042, 66834.63
423.9864, 67041.60
424.4685, 67254.41
424.9506, 67451.41
425.4327, 67632.53
425.9148, 67759.77
426.3969, 67797.64
426.8791, 67822.02
427.3612, 67903.14
427.8433, 68064.30
428.3254, 68209.29
428.8075, 68326.88
429.2896, 68417.95
429.7718, 68484.03
430.2539, 68525.77
430.7360, 68541.40
431.2181, 68528.71
431.7002, 68488.00
432.1823, 68422.38
432.6645, 68330.77
433.1466, 68217.94
433.6287, 68087.23
434.1108, 67940.88
434.5929, 67787.79
435.0750, 67613.58
435.5572, 67444.21
436.0393, 67337.29
436.5214, 67290.14
437.0035, 67245.96
437.4856, 67145.76
437.9677, 67025.75
438.4499, 66936.71
438.9320, 66894.68
439.4141, 66881.25
439.8962, 66889.66
440.3783, 66917.13
440.8604, 66956.71
441.3426, 67023.23
441.8247, 67086.96
442.3068, 67137.85
442.7889, 67180.70
443.2710, 67181.57
443.7531, 67068.98
444.2353, 66934.13
444.7174, 66875.99
445.1995, 66999.41
445.6816, 67101.86
446.1637, 67139.85
446.6458, 67119.82
447.1280, 67114.50
447.6101, 67135.63
448.0922, 67158.55
448.5743, 67167.22
449.0564, 67149.34
449.5385, 67153.31
450.0207, 67192.65
450.5028, 67243.16
450.9849, 67251.52
451.4670, 67206.94
451.9491, 67175.20
452.4312, 67188.31
452.9134, 67239.09
453.3955, 67274.52
453.8776, 67294.84
454.3597, 67297.82
454.8418, 67264.80
455.3239, 67207.84
455.8061, 67178.01
456.2882, 67187.38
456.7703, 67227.65
457.2524, 67306.25
457.7345, 67411.66
458.2166, 67498.58
458.6988, 67525.54
459.1809, 67526.27
459.6630, 67537.27
460.1451, 67564.23
460.6272, 67587.73
461.1093, 67593.09
461.5915, 67588.57
462.0736, 67584.23
462.5557, 67560.86
463.0378, 67560.30
463.5199, 67613.33
464.0020, 67711.32
464.4842, 67791.89
464.9663, 67844.27
465.4484, 67873.48
465.9305, 67878.84
466.4126, 67823.55
466.8947, 67810.72
467.3769, 67864.70
467.8590, 67950.34
468.3411, 68010.88
468.8232, 68035.79
469.3053, 68055.45
469.7874, 68076.41
470.2696, 68098.77
470.7517, 68126.24
471.2338, 68161.72
471.7159, 68193.21
472.1980, 68201.09
472.6801, 68186.57
473.1623, 68200.70
473.6444, 68257.02
474.1265, 68332.54
474.6086, 68388.83
475.0907, 68428.34
475.5728, 68466.95
476.0550, 68511.55
476.5371, 68561.29
477.0192, 68614.20
477.5013, 68670.43
477.9834, 68730.15
478.4655, 68807.35
478.9477, 68884.05
479.4298, 68934.60
479.9119, 68933.48
480.3940, 68928.07
480.8761, 68930.35
481.3582, 68945.93
481.8404, 68991.48
482.3225, 69075.08
482.8046, 69187.77
483.2867, 69349.88
483.7688, 69609.84
484.2509, 69756.02
484.7331, 69666.54
485.2152, 69508.45
485.6973, 69438.98
486.1794, 69531.02
486.6615, 69583.95
487.1436, 69545.38
487.6258, 69445.25
488.1079, 69434.75
488.5900, 69541.54
489.0721, 69662.01
489.5542, 69728.27
490.0363, 69739.73
490.5185, 69813.13
491.0006, 69968.24
491.4827, 70127.13
491.9648, 70166.44
492.4470, 70108.56
492.9291, 70073.03
493.4112, 70094.70
493.8933, 70166.27
494.3754, 70314.38
494.8575, 70522.94
495.3397, 70681.78
495.8218, 70651.70
496.3039, 70568.34
496.7860, 70593.87
497.2681, 70782.36
497.7502, 70960.98
498.2324, 71018.84
498.7145, 71017.62
499.1966, 71042.27
499.6787, 71157.98
500.1608, 71262.26
500.6429, 71319.51
501.1251, 71331.82
501.6072, 71344.63
502.0893, 71383.67
502.5714, 71404.11
503.0535, 71378.10
503.5356, 71264.60
504.0178, 71204.82
504.4999, 71214.79
504.9820, 71264.71
505.4641, 71315.77
505.9462, 71370.98
506.4283, 71409.67
506.9105, 71419.31
507.3926, 71409.02
507.8747, 71412.66
508.3568, 71430.38
508.8389, 71461.21
509.3210, 71505.58
509.8032, 71562.87
510.2853, 71641.64
510.7674, 71752.34
511.2495, 71844.16
511.7316, 71835.47
512.2137, 71770.86
512.6959, 71741.14
513.1780, 71820.86
513.6601, 71917.29
514.1422, 71953.77
514.6243, 71942.89
515.1064, 71974.05
515.5886, 72146.05
516.0707, 72326.60
516.5528, 72426.24
517.0349, 72376.21
517.5170, 72367.55
517.9991, 72438.33
518.4813, 72552.30
518.9634, 72668.42
519.4455, 72804.90
519.9276, 72910.16
520.4097, 72959.40
520.8918, 72964.72
521.3740, 73015.04
521.8561, 73119.71
522.3382, 73238.47
522.8203, 73365.28
523.3024, 73495.14
523.7845, 73544.03
524.2667, 73491.76
524.7488, 73418.18
525.2309, 73422.85
525.7130, 73488.84
526.1951, 73558.55
526.6772, 73627.83
527.1594, 73676.72
527.6415, 73655.02
528.1236, 73582.16
528.6057, 73543.19
529.0878, 73609.29
529.5699, 73713.51
530.0521, 73814.94
530.5342, 73917.01
531.0163, 73980.03
531.4984, 73945.62
531.9805, 73885.90
532.4626, 73877.44
532.9448, 73968.59
533.4269, 74066.46
533.9090, 74163.20
534.3911, 74259.38
534.8732, 74356.62
535.3553, 74468.39
535.8375, 74557.92
536.3196, 74608.02
536.8017, 74618.54
537.2838, 74608.23
537.7659, 74577.63
538.2480, 74524.04
538.7302, 74426.08
539.2123, 74293.02
539.6944, 74198.62
540.1765, 74169.65
540.6586, 74166.23
541.1407, 74126.88
541.6229, 74062.77
542.1050, 74013.31
542.5871, 74024.37
543.0692, 74043.34
543.5513, 74017.84
544.0334, 73945.72
544.5156, 73873.06
544.9977, 73814.95
545.4798, 73768.95
545.9619, 73733.65
546.4440, 73706.05
546.9261, 73693.20
547.4083, 73708.34
547.8904, 73736.54
548.3725, 73750.63
548.8546, 73744.38
549.3367, 73733.95
549.8188, 73720.22
550.3010, 73704.30
550.7831, 73699.05
551.2652, 73704.95
551.7473, 73720.09
552.2294, 73751.37
552.7115, 73795.52
553.1937, 73810.24
553.6758, 73784.69
554.1579, 73760.92
554.6400, 73797.77
555.1221, 73879.62
555.6042, 73961.50
556.0864, 74033.21
556.5685, 74093.24
557.0506, 74137.48
557.5327, 74167.82
558.0148, 74190.38
558.4969, 74212.20
558.9791, 74224.15
559.4612, 74209.36
559.9433, 74153.45
560.4254, 74138.19
560.9075, 74226.86
561.3896, 74335.30
561.8718, 74387.93
562.3539, 74328.59
562.8360, 74310.30
563.3181, 74358.09
563.8002, 74447.03
564.2823, 74522.40
564.7645, 74584.57
565.2466, 74628.05
565.7287, 74645.55
566.2108, 74641.90
566.6929, 74640.05
567.1750, 74640.21
567.6572, 74637.66
568.1393, 74608.23
568.6214, 74576.66
569.1035, 74601.07
569.5856, 74701.23
570.0677, 74814.32
570.5499, 74898.32
571.0320, 74959.73
571.5141, 75009.60
571.9962, 75047.14
572.4783, 75078.74
572.9604, 75106.02
573.4426, 75128.96
573.9247, 75147.83
574.4068, 75153.47
574.8889, 75163.16
575.3710, 75178.91
575.8531, 75194.95
576.3353, 75250.25
576.8174, 75364.84
577.2995, 75488.17
577.7816, 75582.47
578.2637, 75649.31
578.7458, 75650.23
579.2280, 75554.84
579.7101, 75436.60
580.1922, 75439.53
580.6743, 75545.18
581.1564, 75649.35
581.6385, 75707.90
582.1207, 75735.67
582.6028, 75740.73
583.0849, 75726.30
583.5670, 75717.65
584.0491, 75741.48
584.5313, 75769.51
585.0134, 75775.84
585.4955, 75745.76
585.9776, 75729.54
586.4597, 75741.10
586.9418, 75772.86
587.4240, 75817.66
587.9061, 75899.23
588.3882, 75954.05
588.8703, 75956.88
589.3524, 75933.59
589.8345, 75970.22
590.3167, 76086.44
590.7988, 76187.18
591.2809, 76225.82
591.7630, 76213.55
592.2451, 76195.63
592.7272, 76171.09
593.2094, 76164.94
593.6915, 76214.19
594.1736, 76293.32
594.6557, 76353.45
595.1378, 76383.29
595.6199, 76403.68
596.1021, 76421.08
596.5842, 76440.95
597.0663, 76471.22
597.5485, 76529.02
598.0306, 76581.94
598.5127, 76609.38
598.9948, 76620.59
599.4769, 76657.27
599.9590, 76763.48
600.4412, 76844.78
600.9233, 76854.13
601.4054, 76782.80
601.8875, 76787.88
602.3696, 76893.95
602.8517, 77016.22
603.3339, 77070.55
603.8160, 77064.43
604.2981, 77097.84
604.7802, 77191.13
605.2623, 77292.03
605.7444, 77320.62
606.2266, 77301.23
606.7087, 77297.73
607.1908, 77338.40
607.6729, 77399.11
608.1550, 77477.64
608.6371, 77563.36
609.1193, 77624.49
609.6014, 77634.54
610.0835, 77628.07
610.5656, 77611.72
611.0477, 77580.83
611.5298, 77584.76
612.0120, 77651.86
612.4941, 77726.87
612.9762, 77767.53
613.4583, 77754.46
613.9404, 77782.81
614.4225, 77872.40
614.9047, 77975.65
615.3868, 78018.86
615.8689, 78006.96
616.3510, 77999.12
616.8331, 78010.08
617.3152, 78037.21
617.7974, 78095.36
618.2795, 78171.35
618.7616, 78217.31
619.2437, 78147.55
619.7258, 78081.65
620.2079, 78132.55
620.6901, 78304.29
621.1722, 78442.47
621.6543, 78481.09
622.1364, 78477.55
622.6185, 78462.31
623.1006, 78410.25
623.5828, 78411.27
624.0649, 78499.99
624.5470, 78610.05
625.0291, 78650.26
625.5112, 78599.59
625.9933, 78594.43
626.4755, 78667.53
626.9576, 78787.85
627.4397, 78906.48
627.9218, 79020.41
628.4039, 79106.59
628.8860, 79137.08
629.3682, 79142.06
629.8503, 79148.41
630.3324, 79159.92
630.8145, 79203.80
631.2966, 79351.33
631.7787, 79497.74
632.2609, 79553.20
632.7430, 79472.37
633.2251, 79435.59
633.7072, 79510.98
634.1893, 79624.40
634.6714, 79716.76
635.1536, 79784.12
635.6357, 79837.04
636.1178, 79868.48
636.5999, 79893.31
637.0820, 79938.85
637.5641, 80005.46
638.0463, 80080.41
638.5284, 80164.28
639.0105, 80250.38
639.4926, 80321.77
639.9747, 80382.34
640.4568, 80452.19
640.9390, 80585.87
641.4211, 80707.86
641.9032, 80712.77
642.3853, 80593.70
642.8674, 80545.40
643.3495, 80676.08
643.8317, 80884.53
644.3138, 81113.00
644.7959, 81426.37
645.2780, 81611.24
645.7601, 81601.41
646.2422, 81521.09
646.7244, 81508.95
647.2065, 81569.30
647.6886, 81684.67
648.1707, 81873.32
648.6528, 82083.89
649.1349, 82192.54
649.6171, 82216.22
650.0992, 82278.08
650.5813, 82457.23
651.0634, 82692.38
651.5455, 82916.90
652.0276, 83133.72
652.5098, 83347.70
652.9919, 83553.47
653.4740, 83763.95
653.9561, 83981.52
654.4382, 84201.94
654.9203, 84457.66
655.4025, 84740.32
655.8846, 85069.75
656.3667, 85456.45
656.8488, 85902.54
657.3309, 86407.70
657.8130, 86982.84
658.2952, 87602.60
658.7773, 88214.53
659.2594, 88830.05
659.7415, 89526.66
660.2236, 90338.35
660.7057, 91222.27
661.1879, 92111.87
661.6700, 93016.55
662.1521, 93952.93
662.6342, 94913.49
663.1163, 95921.85
663.5984, 96984.45
664.0806, 98104.20
664.5627, 99304.74
665.0448, 100648.4
665.5269, 102008.3
666.0090, 103318.5
666.4911, 104549.2
666.9733, 105886.4
667.4554, 107393.9
667.9375, 108881.0
668.4196, 110177.3
668.9017, 111292.9
669.3839, 112433.4
669.8660, 113647.3
670.3481, 114728.4
670.8302, 115509.9
671.3123, 115966.3
671.7944, 116034.5
672.2766, 115644.5
672.7587, 114939.7
673.2408, 113933.7
673.7229, 112689.0
674.2050, 111309.6
674.6871, 109765.3
675.1693, 108152.1
675.6514, 106460.4
676.1335, 104699.0
676.6156, 102924.1
