##NAMES=Antimony
##RRUFFID=R050654
##IDEAL CHEMISTRY=Sb
##LOCALITY=Sarawak, Borneo
##OWNER=RRUFF
##SOURCE=University of Arizona Mineral Museum
##DESCRIPTION=Silver metallic crystals
##STATUS=The identification of this mineral has been confirmed by X-ray diffraction and chemical analysis
##URL=rruff.info/R050654
##MEASURED CHEMISTRY=Sb
89.78156, 0.0000000E+00
90.26367, 5.541131
90.74579, 5.924160
91.22791, 5.811617
91.71002, 5.248621
92.19214, 4.624159
92.67426, 4.315773
93.15638, 4.200671
93.63850, 3.956386
94.12061, 3.345849
94.60273, 2.566803
95.08485, 2.102165
95.56696, 1.980796
96.04908, 2.007188
96.53120, 1.945882
97.01331, 1.805443
97.49543, 1.738600
97.97755, 1.795452
98.45966, 1.975927
98.94178, 2.351860
99.42390, 3.027521
99.90602, 3.747110
100.3881, 3.966841
100.8703, 3.558231
101.3524, 3.105726
101.8345, 2.899003
102.3166, 2.979491
102.7987, 3.137414
103.2808, 3.359460
103.7630, 3.649767
104.2451, 4.060676
104.7272, 4.799816
105.2093, 5.389977
105.6914, 5.484917
106.1735, 4.714058
106.6557, 4.081557
107.1378, 3.741745
107.6199, 3.700884
108.1020, 3.651209
108.5841, 3.573634
109.0662, 3.496959
109.5484, 3.446028
110.0305, 3.022909
110.5126, 3.018620
110.9947, 3.856513
111.4768, 5.913131
111.9590, 7.102471
112.4411, 6.489736
112.9232, 5.091840
113.4053, 4.235037
113.8874, 4.862493
114.3695, 5.488090
114.8517, 5.432680
115.3338, 4.214049
115.8159, 3.346622
116.2980, 3.420110
116.7801, 4.161556
117.2622, 4.964587
117.7444, 5.592494
118.2265, 6.215815
118.7086, 6.975082
119.1907, 8.086489
119.6728, 9.068498
120.1549, 9.519673
120.6371, 9.563691
121.1192, 9.702738
121.6013, 9.984928
122.0834, 10.59311
122.5655, 11.77789
123.0476, 14.20220
123.5298, 16.71944
124.0119, 18.10521
124.4940, 18.43343
124.9761, 18.75036
125.4582, 20.01913
125.9404, 21.86571
126.4225, 23.54757
126.9046, 24.73519
127.3867, 25.59426
127.8688, 26.17484
128.3509, 26.41445
128.8331, 26.98525
129.3152, 28.70652
129.7973, 31.45833
130.2794, 34.57875
130.7615, 37.86900
131.2436, 41.30475
131.7258, 44.67987
132.2079, 47.90864
132.6900, 51.30577
133.1721, 55.38807
133.6542, 60.14437
134.1364, 65.25954
134.6185, 70.73738
135.1006, 76.58404
135.5827, 82.33481
136.0648, 88.08339
136.5469, 93.63760
137.0291, 98.43874
137.5112, 102.3216
137.9933, 106.0066
138.4754, 110.1112
138.9575, 114.7497
139.4396, 118.7917
139.9218, 121.7659
140.4039, 124.0362
140.8860, 127.3849
141.3681, 132.0433
141.8502, 137.3418
142.3323, 142.4976
142.8145, 147.0793
143.2966, 152.8195
143.7787, 160.1126
144.2608, 169.0011
144.7429, 177.9053
145.2250, 186.1085
145.7072, 195.0847
146.1893, 206.3155
146.6714, 220.6139
147.1535, 235.9306
147.6356, 251.9377
148.1178, 268.6262
148.5999, 285.6917
149.0820, 304.0580
149.5641, 322.3474
150.0462, 338.7978
150.5283, 356.0710
151.0105, 368.6529
151.4926, 372.2747
151.9747, 370.2591
152.4568, 361.8315
152.9389, 344.1931
153.4210, 321.1759
153.9032, 297.7243
154.3853, 274.1579
154.8674, 250.7652
155.3495, 227.2532
155.8316, 201.6962
156.3137, 179.7263
156.7959, 163.1917
157.2780, 150.5945
157.7601, 139.2272
158.2422, 128.1095
158.7243, 118.1607
159.2065, 109.7348
159.6886, 103.2274
160.1707, 97.56997
160.6528, 92.63270
161.1349, 88.31459
161.6170, 84.36595
162.0992, 80.65145
162.5813, 77.28877
163.0634, 74.38583
163.5455, 72.25541
164.0276, 70.18143
164.5097, 67.65455
164.9919, 64.84826
165.4740, 62.44604
165.9561, 60.69671
166.4382, 59.53524
166.9203, 58.88955
167.4024, 58.89229
167.8846, 59.24186
168.3667, 59.84142
168.8488, 60.66508
169.3309, 61.54908
169.8130, 62.86911
170.2952, 64.06587
170.7773, 64.43151
171.2594, 63.50462
171.7415, 61.84818
172.2236, 59.71633
172.7057, 57.13906
173.1879, 54.56587
173.6700, 52.31677
174.1521, 50.29553
174.6342, 48.33135
175.1163, 46.12845
175.5984, 44.03431
176.0806, 42.54964
176.5627, 41.66729
177.0448, 41.00498
177.5269, 40.30061
178.0090, 39.56716
178.4911, 38.81476
178.9733, 37.90004
179.4554, 37.02287
179.9375, 36.55089
180.4196, 36.51849
180.9017, 36.62044
181.3838, 36.50040
181.8660, 36.23660
182.3481, 36.10380
182.8302, 36.38391
183.3123, 36.87226
183.7944, 37.09143
184.2766, 37.01519
184.7587, 36.76558
185.2408, 36.40122
185.7229, 35.95335
186.2050, 35.59218
186.6871, 35.34099
187.1693, 35.23298
187.6514, 35.43858
188.1335, 36.00470
188.6156, 36.74851
189.0977, 37.48677
189.5798, 38.21069
190.0620, 38.81970
190.5441, 39.43461
191.0262, 39.96753
191.5083, 39.81413
191.9904, 38.86999
192.4725, 37.40203
192.9547, 35.65478
193.4368, 33.59499
193.9189, 31.82849
194.4010, 30.83131
194.8831, 30.54814
195.3652, 30.08993
195.8474, 29.35192
196.3295, 28.49011
196.8116, 27.69873
197.2937, 26.94382
197.7758, 26.57360
198.2579, 27.15333
198.7401, 28.72349
199.2222, 29.21817
199.7043, 28.13605
200.1864, 26.29962
200.6685, 25.73815
201.1507, 26.70925
201.6328, 27.76001
202.1149, 27.89310
202.5970, 26.98251
203.0791, 26.50925
203.5612, 26.76224
204.0434, 27.40112
204.5255, 27.40077
205.0076, 26.56836
205.4897, 25.76183
205.9718, 25.57817
206.4539, 26.14393
206.9361, 26.56710
207.4182, 26.74319
207.9003, 26.73814
208.3824, 26.81094
208.8645, 27.05495
209.3466, 27.13392
209.8288, 26.69143
210.3109, 25.48094
210.7930, 24.88836
211.2751, 25.29120
211.7572, 26.33298
212.2393, 26.64647
212.7215, 25.97098
213.2036, 25.13619
213.6857, 24.68317
214.1678, 24.73928
214.6499, 24.73083
215.1320, 24.55271
215.6142, 24.27592
216.0963, 24.23569
216.5784, 24.52555
217.0605, 24.87220
217.5426, 25.13407
218.0247, 25.35554
218.5069, 25.32393
218.9890, 24.85804
219.4711, 24.11729
219.9532, 23.91390
220.4353, 24.54571
220.9175, 25.22248
221.3996, 25.38527
221.8817, 24.71152
222.3638, 24.38543
222.8459, 24.65467
223.3280, 25.37396
223.8102, 25.80129
224.2923, 25.93036
224.7744, 25.79325
225.2565, 25.34634
225.7386, 24.36659
226.2207, 23.61620
226.7029, 23.16833
227.1850, 23.00246
227.6671, 23.08207
228.1492, 23.62012
228.6313, 24.10134
229.1134, 24.16524
229.5956, 23.52281
230.0777, 23.10831
230.5598, 22.98599
231.0419, 23.14373
231.5240, 23.57535
232.0062, 24.57337
232.4883, 25.44886
232.9704, 25.73946
233.4525, 25.10531
233.9346, 24.61888
234.4167, 24.27535
234.8989, 24.12882
235.3810, 24.50795
235.8631, 25.86264
236.3452, 27.15775
236.8273, 27.73941
237.3094, 27.08345
237.7916, 26.87387
238.2737, 27.43686
238.7558, 28.52944
239.2379, 29.09783
239.7200, 28.78054
240.2021, 28.42741
240.6843, 28.52957
241.1664, 29.39795
241.6485, 30.03177
242.1306, 30.29247
242.6127, 30.28888
243.0948, 30.46011
243.5770, 31.05639
244.0591, 31.48302
244.5412, 31.30439
245.0233, 29.81367
245.5054, 29.34777
245.9876, 30.44184
246.4697, 32.54599
246.9518, 33.91353
247.4339, 34.12657
247.9160, 34.23104
248.3981, 34.75497
248.8803, 35.97686
249.3624, 36.92101
249.8445, 37.31848
250.3266, 37.49178
250.8087, 38.38786
251.2908, 40.37419
251.7730, 42.47704
252.2551, 44.23523
252.7372, 45.52282
253.2193, 46.84243
253.7014, 48.29983
254.1835, 49.73260
254.6657, 50.87670
255.1478, 52.16722
255.6299, 52.39806
256.1120, 50.82275
256.5941, 46.67306
257.0763, 43.19249
257.5584, 40.44798
258.0405, 38.29242
258.5226, 36.48535
259.0047, 35.03609
259.4868, 33.88270
259.9690, 33.01538
260.4511, 32.43986
260.9332, 32.15893
261.4153, 32.30152
261.8974, 32.62236
262.3795, 32.68891
262.8617, 32.39873
263.3438, 32.10123
263.8259, 31.90508
264.3080, 31.81912
264.7901, 31.79645
265.2722, 31.88604
265.7544, 31.98071
266.2365, 31.85961
266.7186, 31.37779
267.2007, 31.13795
267.6828, 31.46702
268.1649, 32.43031
268.6471, 32.80364
269.1292, 32.41756
269.6113, 31.72144
270.0934, 31.23656
270.5755, 30.96858
271.0576, 30.89316
271.5398, 31.12785
272.0219, 31.65328
272.5040, 31.61777
272.9861, 30.84105
273.4682, 29.89781
273.9503, 29.36623
274.4325, 29.28693
274.9146, 29.43249
275.3967, 29.83406
275.8788, 30.44142
276.3610, 30.82466
276.8431, 30.96019
277.3252, 30.93453
277.8073, 30.78134
278.2894, 30.48601
278.7715, 30.23541
279.2537, 30.07102
279.7358, 29.97768
280.2179, 29.86610
280.7000, 29.71527
281.1821, 29.64184
281.6642, 29.82446
282.1464, 30.26592
282.6285, 30.50528
283.1106, 30.44638
283.5927, 30.15698
284.0748, 29.81461
284.5569, 29.42068
285.0391, 28.94151
285.5212, 28.14151
286.0033, 27.09049
286.4854, 26.72008
286.9675, 27.33989
287.4496, 28.39576
287.9318, 28.70698
288.4139, 28.26324
288.8960, 27.80271
289.3781, 27.91032
289.8602, 28.42993
290.3423, 28.49476
290.8245, 27.92352
291.3066, 27.15563
291.7887, 26.89824
292.2708, 27.10952
292.7529, 27.41833
293.2350, 27.73689
293.7172, 28.00435
294.1993, 27.96151
294.6814, 27.54896
295.1635, 27.05627
295.6456, 26.86700
296.1277, 26.92286
296.6099, 26.98115
297.0920, 26.98218
297.5741, 26.89884
298.0562, 26.59323
298.5383, 26.04409
299.0204, 25.56043
299.5026, 25.60299
299.9847, 25.97334
300.4668, 26.13958
300.9489, 25.67142
301.4311, 24.99325
301.9132, 24.75073
302.3953, 24.92690
302.8774, 25.15322
303.3595, 25.14535
303.8416, 24.98260
304.3238, 24.79468
304.8059, 24.56482
305.2880, 24.38853
305.7701, 24.39805
306.2522, 24.57110
306.7343, 24.77163
307.2165, 25.01181
307.6986, 25.19423
308.1807, 25.18212
308.6628, 24.86094
309.1449, 24.46820
309.6270, 24.08479
310.1092, 23.75272
310.5913, 23.62072
311.0734, 23.95719
311.5555, 24.42789
312.0376, 24.76616
312.5197, 24.95507
313.0019, 24.92442
313.4840, 24.46200
313.9661, 23.75561
314.4482, 23.18543
314.9303, 22.96433
315.4124, 22.89321
315.8946, 22.85514
316.3767, 22.82787
316.8588, 22.87882
317.3409, 23.10119
317.8230, 23.40115
318.3051, 23.65394
318.7873, 23.90588
319.2694, 24.03268
319.7515, 23.87215
320.2336, 23.38356
320.7157, 23.13747
321.1978, 23.64645
321.6800, 24.31005
322.1621, 24.58440
322.6442, 23.69331
323.1263, 23.09122
323.6084, 23.41581
324.0905, 24.57936
324.5727, 25.15622
325.0548, 24.26676
325.5369, 23.15806
326.0190, 22.58501
326.5012, 23.40919
326.9833, 23.83343
327.4654, 23.52673
327.9475, 22.66371
328.4296, 21.94346
328.9117, 21.06786
329.3939, 20.60151
329.8760, 20.83445
330.3581, 22.43148
330.8402, 23.50143
331.3223, 23.84491
331.8044, 23.72287
332.2866, 23.66681
332.7687, 23.79294
333.2508, 23.80854
333.7329, 23.54148
334.2150, 22.84816
334.6971, 22.57878
335.1793, 22.84647
335.6614, 23.42565
336.1435, 24.12158
336.6256, 25.17100
337.1077, 25.70381
337.5898, 25.33832
338.0720, 24.13193
338.5541, 23.30783
339.0362, 22.91864
339.5183, 22.77781
340.0004, 22.71617
340.4825, 22.71904
340.9647, 22.93674
341.4468, 23.49890
341.9289, 24.23696
342.4110, 24.54284
342.8931, 24.35288
343.3752, 24.13073
343.8574, 24.28611
344.3395, 24.78108
344.8216, 24.96706
345.3037, 24.70588
345.7858, 24.25774
346.2679, 24.07449
346.7501, 24.14160
347.2322, 24.25213
347.7143, 24.30398
348.1964, 24.31322
348.6785, 24.30048
349.1607, 24.24941
349.6428, 24.28232
350.1249, 24.65733
350.6070, 25.25272
351.0891, 25.68824
351.5713, 25.65987
352.0534, 25.44983
352.5355, 25.53049
353.0176, 25.88841
353.4997, 26.19712
353.9818, 26.22212
354.4640, 26.02726
354.9461, 25.68207
355.4282, 25.06084
355.9103, 24.48908
356.3924, 24.20325
356.8745, 24.19760
357.3567, 24.44999
357.8388, 25.41288
358.3209, 26.37023
358.8030, 26.60908
359.2851, 25.73607
359.7672, 24.86003
360.2494, 24.50150
360.7315, 24.55854
361.2136, 24.84454
361.6957, 25.97637
362.1778, 26.76160
362.6599, 26.28278
363.1421, 24.24048
363.6242, 22.80743
364.1063, 23.07480
364.5884, 24.09233
365.0705, 24.88556
365.5526, 25.07861
366.0348, 25.21425
366.5169, 25.42801
366.9990, 25.71280
367.4811, 25.90416
367.9632, 26.00038
368.4453, 25.98932
368.9275, 25.86287
369.4096, 25.63609
369.8917, 25.26608
370.3738, 24.47364
370.8559, 23.54505
371.3380, 23.33402
371.8202, 24.41099
372.3023, 25.43079
372.7844, 25.86074
373.2665, 25.56539
373.7487, 25.20687
374.2308, 24.68513
374.7129, 24.20123
375.1950, 24.03214
375.6771, 24.23613
376.1592, 24.60144
376.6414, 25.24203
377.1235, 26.06701
377.6056, 26.00582
378.0877, 24.78790
378.5698, 23.56964
379.0519, 23.58917
379.5341, 24.85692
380.0162, 25.57009
380.4983, 25.28998
380.9804, 24.44611
381.4625, 23.97505
381.9446, 23.86516
382.4268, 23.91107
382.9089, 24.07375
383.3910, 24.29780
383.8731, 24.38089
384.3552, 24.28346
384.8373, 24.15815
385.3195, 24.21679
385.8016, 24.39962
386.2837, 24.53134
386.7658, 24.35910
387.2479, 24.17740
387.7300, 24.53289
388.2122, 25.39333
388.6943, 26.03855
389.1764, 25.62266
389.6585, 24.77837
390.1406, 24.32374
390.6227, 24.65247
391.1049, 25.18838
391.5870, 25.77963
392.0691, 26.31304
392.5512, 26.44732
393.0333, 25.58906
393.5154, 24.58570
393.9976, 23.99693
394.4797, 23.99747
394.9618, 24.07352
395.4439, 23.99769
395.9260, 23.92115
396.4081, 24.04431
396.8903, 24.85940
397.3724, 25.43436
397.8545, 25.44560
398.3366, 24.86619
398.8188, 24.27045
399.3009, 23.37146
399.7830, 22.68509
400.2651, 22.56521
400.7472, 23.66010
401.2293, 24.34283
401.7115, 24.39999
402.1936, 24.00831
402.6757, 23.67874
403.1578, 23.36403
403.6399, 23.19384
404.1220, 23.26002
404.6042, 23.61630
405.0863, 23.89987
405.5684, 24.10717
406.0505, 24.24288
406.5326, 24.33917
407.0147, 24.41422
407.4969, 24.27383
407.9790, 23.70742
408.4611, 22.91968
408.9432, 22.92379
409.4253, 23.80525
409.9074, 24.58429
410.3896, 24.24704
410.8717, 23.08249
411.3538, 22.40429
411.8359, 22.47364
412.3180, 22.93220
412.8001, 23.48872
413.2823, 24.06059
413.7644, 24.35835
414.2465, 23.87773
414.7286, 23.18549
415.2107, 23.12667
415.6928, 23.75643
416.1750, 24.41974
416.6571, 24.73281
417.1392, 24.74128
417.6213, 24.50478
418.1034, 23.79388
418.5855, 23.11075
419.0677, 22.71894
419.5498, 22.59108
420.0319, 22.64094
420.5140, 23.04037
420.9961, 23.45899
421.4782, 23.70555
421.9604, 23.74251
422.4425, 23.63651
422.9246, 23.12836
423.4067, 22.56182
423.8889, 22.40348
424.3710, 23.40966
424.8531, 24.09527
425.3352, 23.88494
425.8173, 22.77083
426.2994, 22.40269
426.7816, 23.35705
427.2637, 24.47716
427.7458, 24.99646
428.2279, 24.66772
428.7100, 24.34006
429.1921, 24.06100
429.6743, 23.81781
430.1564, 23.59076
430.6385, 23.37870
431.1206, 23.18450
431.6027, 22.96539
432.0848, 22.72968
432.5670, 22.76360
433.0491, 23.11531
433.5312, 23.54081
434.0133, 23.76294
434.4954, 23.81473
434.9775, 23.95607
435.4597, 24.36966
435.9418, 24.75620
436.4239, 24.37003
436.9060, 23.34739
437.3881, 22.54060
437.8702, 22.55917
438.3524, 23.10301
438.8345, 23.89248
439.3166, 24.97518
439.7987, 25.77052
440.2808, 25.53864
440.7629, 24.76779
441.2451, 24.22193
441.7272, 24.30806
442.2093, 24.59858
442.6914, 24.94189
443.1735, 25.32085
443.6556, 25.64641
444.1378, 25.96512
444.6199, 26.16751
445.1020, 26.17415
445.5841, 25.90714
446.0662, 25.57818
446.5483, 24.93361
447.0305, 24.30103
447.5126, 24.24683
447.9947, 25.50029
448.4768, 26.44383
448.9590, 26.56983
449.4411, 25.85220
449.9232, 25.62983
450.4053, 26.19405
450.8874, 26.82991
451.3695, 26.91828
451.8517, 26.24856
452.3338, 26.03583
452.8159, 26.59465
453.2980, 27.42538
453.7801, 27.41690
454.2622, 26.51436
454.7444, 25.58056
455.2265, 24.91706
455.7086, 24.53160
456.1907, 24.62064
456.6728, 25.22507
457.1549, 25.79038
457.6371, 25.78702
458.1192, 25.35762
458.6013, 24.83189
459.0834, 24.26451
459.5655, 23.68393
460.0476, 23.07065
460.5298, 22.46057
461.0119, 21.99007
461.4940, 21.69728
461.9761, 21.58005
462.4582, 21.67871
462.9403, 22.00939
463.4225, 22.36237
463.9046, 22.63954
464.3867, 22.89644
464.8688, 23.17883
465.3509, 23.82696
465.8330, 24.13663
466.3152, 23.50028
466.7973, 22.31483
467.2794, 22.01970
467.7615, 23.81466
468.2436, 25.41660
468.7257, 26.03321
469.2079, 25.46185
469.6900, 24.76513
470.1721, 23.67637
470.6542, 22.76146
471.1363, 22.78981
471.6184, 24.12798
472.1006, 24.91256
472.5827, 24.65149
473.0648, 23.72962
473.5469, 23.23386
474.0291, 23.16406
474.5112, 23.51925
474.9933, 24.73230
475.4754, 26.46119
475.9575, 27.03776
476.4396, 26.29143
476.9218, 25.26468
477.4039, 24.99210
477.8860, 25.29342
478.3681, 25.77131
478.8502, 26.36796
479.3323, 27.00479
479.8145, 27.70959
480.2966, 28.42174
480.7787, 28.89411
481.2608, 28.80468
481.7429, 28.58077
482.2250, 28.50783
482.7072, 28.63080
483.1893, 28.83325
483.6714, 29.77531
484.1535, 30.46649
484.6356, 29.91847
485.1177, 26.21033
485.5999, 23.27438
486.0820, 22.06427
486.5641, 22.15310
487.0462, 21.95784
487.5283, 21.22618
488.0104, 20.54827
488.4926, 20.16421
488.9747, 20.12604
489.4568, 20.04900
489.9389, 19.87794
490.4210, 19.76864
490.9031, 19.92511
491.3853, 20.36224
491.8674, 20.84632
492.3495, 21.40206
492.8316, 21.88735
493.3137, 21.90927
493.7958, 21.50431
494.2780, 21.07603
494.7601, 20.90308
495.2422, 20.85804
495.7243, 20.61688
496.2064, 20.14799
496.6885, 19.87794
497.1707, 20.34835
497.6528, 21.16166
498.1349, 21.78844
498.6170, 22.13534
499.0992, 22.18719
499.5813, 21.60694
500.0634, 20.71362
500.5455, 20.28292
501.0276, 21.13328
501.5097, 21.98994
501.9919, 22.28936
502.4740, 21.90152
502.9561, 21.60282
503.4382, 21.56429
503.9203, 21.55099
504.4024, 21.38252
504.8846, 20.88628
505.3667, 20.60618
505.8488, 20.65540
506.3309, 20.88901
506.8130, 20.97444
507.2951, 20.86594
507.7773, 20.81645
508.2594, 20.95574
508.7415, 21.23789
509.2236, 21.36550
509.7057, 21.32221
510.1878, 21.33120
510.6700, 21.72861
511.1521, 22.33403
511.6342, 22.61547
512.1163, 22.47327
512.5984, 22.04941
513.0806, 21.21867
513.5627, 20.22544
514.0448, 19.58072
514.5269, 19.65287
515.0090, 20.02993
515.4911, 20.66993
515.9733, 21.47998
516.4554, 21.87558
516.9375, 21.27059
517.4196, 20.45271
517.9017, 19.83117
518.3839, 19.35240
518.8660, 19.32584
519.3481, 20.19267
519.8302, 21.34310
520.3123, 22.12242
520.7944, 22.39602
521.2766, 22.54467
521.7587, 22.56444
522.2408, 22.50902
522.7229, 22.67650
523.2050, 23.20188
523.6871, 23.45359
524.1693, 22.92651
524.6514, 21.71234
525.1335, 20.84385
525.6156, 20.32176
526.0977, 20.13087
526.5798, 20.47467
527.0620, 21.15193
527.5441, 21.53922
528.0262, 21.41680
528.5083, 21.10631
528.9904, 20.90602
529.4725, 20.78472
529.9547, 20.66869
530.4368, 20.35239
530.9189, 20.16493
531.4010, 20.42487
531.8831, 21.13139
532.3652, 21.71170
532.8474, 21.85459
533.3295, 21.90487
533.8116, 22.12304
534.2937, 23.03926
534.7758, 23.23090
535.2579, 22.15192
535.7401, 20.58895
536.2222, 19.72808
536.7043, 19.85216
537.1864, 19.97483
537.6685, 19.83157
538.1506, 19.53159
538.6328, 19.66946
539.1149, 20.32706
539.5970, 20.92060
540.0791, 20.98568
540.5612, 20.65818
541.0433, 20.62345
541.5255, 20.93643
542.0076, 21.24139
542.4897, 21.14706
542.9718, 20.79426
543.4539, 20.44894
543.9360, 20.13887
544.4182, 19.94293
544.9003, 20.06459
545.3824, 20.35016
545.8645, 20.45843
546.3466, 19.83644
546.8287, 19.37793
547.3109, 19.67668
547.7930, 20.76742
548.2751, 21.49409
548.7572, 21.44423
549.2393, 21.16677
549.7214, 20.93038
550.2036, 20.65749
550.6857, 20.62894
551.1678, 20.98646
551.6499, 21.44472
552.1320, 21.57563
552.6141, 21.32718
553.0963, 21.09971
553.5784, 20.98843
554.0605, 20.95549
554.5426, 20.91094
555.0247, 20.85509
555.5068, 20.79216
555.9890, 20.61669
556.4711, 20.47035
556.9532, 20.74803
557.4353, 21.46036
557.9174, 21.98381
558.3995, 21.63782
558.8817, 20.94220
559.3638, 20.46153
559.8459, 20.38845
560.3281, 20.42937
560.8102, 20.61698
561.2923, 20.81240
561.7744, 20.79499
562.2565, 20.05452
562.7386, 19.62448
563.2208, 19.91435
563.7029, 20.77598
564.1850, 21.16610
564.6671, 20.90353
565.1492, 20.48520
565.6313, 20.12088
566.1135, 19.81346
566.5956, 19.49754
567.0777, 19.10461
567.5598, 18.95420
568.0419, 19.60868
568.5240, 20.87702
569.0062, 21.82398
569.4883, 22.26623
569.9704, 22.29746
570.4525, 21.84826
570.9346, 21.05972
571.4167, 20.31909
571.8989, 19.59482
572.3810, 19.13653
572.8631, 19.28207
573.3452, 19.93172
573.8273, 20.42751
574.3094, 20.25248
574.7916, 20.06607
575.2737, 20.32086
575.7558, 21.37016
576.2379, 21.82139
576.7200, 21.18440
577.2021, 20.31886
577.6843, 19.97742
578.1664, 20.29326
578.6485, 20.77252
579.1306, 21.44513
579.6127, 22.17170
580.0948, 22.77744
580.5770, 23.26230
581.0591, 23.34795
581.5412, 22.76433
582.0233, 21.79512
582.5054, 20.92430
582.9875, 20.18663
583.4697, 19.76946
583.9518, 20.13787
584.4339, 20.72434
584.9160, 20.85652
585.3981, 20.41260
585.8802, 19.99580
586.3624, 19.86459
586.8445, 19.92672
587.3266, 20.10014
587.8087, 20.59319
