##NAMES=Antimony
##RRUFFID=R050654
##IDEAL CHEMISTRY=Sb
##LOCALITY=Sarawak, Borneo
##OWNER=RRUFF
##SOURCE=University of Arizona Mineral Museum
##DESCRIPTION=Silver metallic crystals
##STATUS=The identification of this mineral has been confirmed by X-ray diffraction and chemical analysis
##URL=rruff.info/R050654
##MEASURED CHEMISTRY=Sb
92.02539, 205.6446
92.50751, 204.3409
92.98962, 205.2138
93.47174, 205.8984
93.95386, 207.4223
94.43597, 209.5256
94.91809, 212.8002
95.40021, 216.7486
95.88232, 218.7025
96.36444, 216.8429
96.84656, 215.5570
97.32867, 216.1711
97.81078, 218.2263
98.29290, 220.8428
98.77502, 223.1684
99.25713, 224.7378
99.73925, 227.0591
100.2214, 230.2914
100.7035, 234.0123
101.1856, 238.1644
101.6677, 242.6565
102.1498, 247.2341
102.6320, 251.5379
103.1141, 255.2028
103.5962, 259.6883
104.0783, 265.3345
104.5604, 271.6388
105.0425, 278.1975
105.5247, 285.0291
106.0068, 291.6699
106.4889, 297.2094
106.9710, 301.7218
107.4531, 305.5565
107.9352, 308.4986
108.4173, 310.7223
108.8995, 313.3417
109.3816, 317.5053
109.8637, 321.6065
110.3458, 323.9116
110.8279, 324.0300
111.3100, 323.1647
111.7922, 322.8321
112.2743, 323.3902
112.7564, 323.2920
113.2385, 322.9604
113.7206, 321.5135
114.2027, 317.9053
114.6849, 311.5827
115.1670, 303.1030
115.6491, 294.5267
116.1312, 285.6138
116.6133, 276.7672
117.0954, 267.5516
117.5776, 258.4683
118.0597, 250.2641
118.5418, 243.4754
119.0239, 238.1086
119.5060, 232.8074
119.9881, 227.0499
120.4703, 221.7914
120.9524, 217.5135
121.4345, 214.1596
121.9166, 211.2989
122.3987, 208.6003
122.8808, 206.0960
123.3630, 203.7023
123.8451, 200.9190
124.3272, 198.4888
124.8093, 197.4926
125.2914, 198.2837
125.7735, 199.3471
126.2557, 198.4776
126.7378, 196.1237
127.2199, 194.4648
127.7020, 194.6361
128.1841, 196.1987
128.6662, 197.8419
129.1483, 199.6915
129.6305, 201.1253
130.1126, 201.1852
130.5947, 200.0845
131.0768, 199.6712
131.5589, 201.9645
132.0410, 207.3683
132.5232, 212.1732
133.0053, 215.5430
133.4874, 218.4567
133.9695, 221.2168
134.4516, 223.9420
134.9337, 226.7407
135.4159, 229.7048
135.8980, 232.4288
136.3801, 236.2619
136.8622, 241.1802
137.3443, 247.0573
137.8264, 254.1904
138.3086, 262.6327
138.7907, 271.6338
139.2728, 278.9313
139.7549, 282.5141
140.2370, 286.6660
140.7191, 292.0743
141.2013, 298.1957
141.6834, 304.2163
142.1655, 309.6632
142.6476, 314.7228
143.1297, 320.1367
143.6118, 326.2765
144.0939, 332.2962
144.5761, 337.8497
145.0582, 342.9800
145.5403, 348.0715
146.0224, 353.9331
146.5045, 359.5894
146.9866, 362.7643
147.4688, 362.1708
147.9509, 360.0338
148.4330, 358.6960
148.9151, 358.4434
149.3972, 357.1626
149.8793, 353.6120
150.3615, 348.2061
150.8436, 341.0096
151.3257, 332.0082
151.8078, 321.2579
152.2899, 308.7702
152.7720, 293.4312
153.2542, 278.0295
153.7363, 263.6806
154.2184, 249.9977
154.7005, 236.0876
155.1826, 221.0425
155.6647, 205.1771
156.1469, 192.1188
156.6290, 184.1454
157.1111, 177.1575
157.5932, 170.1880
158.0753, 163.3385
158.5574, 157.1296
159.0396, 152.0084
159.5217, 148.0465
160.0038, 144.6009
160.4859, 141.9931
160.9680, 139.5266
161.4501, 136.9143
161.9323, 134.1635
162.4144, 131.4193
162.8965, 128.7806
163.3786, 126.1042
163.8607, 124.4097
164.3428, 124.3387
164.8250, 124.7129
165.3071, 124.7741
165.7892, 124.3874
166.2713, 123.7386
166.7534, 122.9978
167.2355, 122.1504
167.7177, 121.3315
168.1998, 120.3041
168.6819, 119.3966
169.1640, 119.1272
169.6461, 119.6918
170.1282, 120.5615
170.6104, 121.2176
171.0925, 121.6899
171.5746, 121.8403
172.0567, 121.5046
172.5388, 120.7915
173.0209, 120.0080
173.5031, 119.1882
173.9852, 118.3312
174.4673, 117.2754
174.9494, 116.0696
175.4315, 115.1887
175.9136, 115.1030
176.3958, 115.7849
176.8779, 116.4219
177.3600, 116.6986
177.8421, 117.0932
178.3242, 118.0536
178.8063, 119.5251
179.2885, 120.9083
179.7706, 121.5323
180.2527, 121.2241
180.7348, 120.8968
181.2169, 120.0299
181.6990, 119.5824
182.1812, 120.3785
182.6633, 122.4116
183.1454, 124.7867
183.6275, 126.1855
184.1096, 125.9255
184.5917, 126.1089
185.0738, 127.3310
185.5560, 128.5398
186.0381, 128.9270
186.5202, 128.3176
187.0023, 127.1839
187.4844, 126.3429
187.9665, 126.2523
188.4487, 125.6996
188.9308, 124.2353
189.4129, 122.5559
189.8950, 121.3362
190.3771, 120.8008
190.8592, 120.6384
191.3414, 120.2489
191.8235, 119.4173
192.3056, 118.7696
192.7877, 118.6102
193.2698, 118.6079
193.7519, 118.3813
194.2341, 117.8244
194.7162, 116.8827
195.1983, 115.2427
195.6804, 112.6857
196.1625, 110.3735
196.6446, 108.7729
197.1268, 107.6669
197.6089, 106.5302
198.0910, 105.1237
198.5731, 103.7295
199.0552, 102.7361
199.5373, 102.1136
200.0195, 101.8385
200.5016, 102.4627
200.9837, 103.6540
201.4658, 103.5226
201.9479, 100.4746
202.4300, 96.90182
202.9122, 95.70410
203.3943, 97.15340
203.8764, 98.78956
204.3585, 98.31538
204.8406, 95.74793
205.3227, 94.03835
205.8048, 94.79208
206.2870, 96.01174
206.7691, 96.21748
207.2512, 95.25099
207.7333, 94.00337
208.2154, 93.52983
208.6975, 94.03352
209.1797, 94.09998
209.6618, 92.53670
210.1439, 91.11470
210.6260, 91.21268
211.1081, 92.92747
211.5902, 94.81846
212.0724, 94.75311
212.5545, 91.73823
213.0366, 89.80051
213.5187, 90.08678
214.0008, 90.82304
214.4829, 90.85770
214.9651, 90.00528
215.4472, 88.96056
215.9293, 88.85113
216.4114, 90.55070
216.8935, 91.35056
217.3756, 90.43324
217.8578, 89.33807
218.3399, 89.07816
218.8220, 89.88937
219.3041, 91.39001
219.7862, 93.07417
220.2683, 95.46666
220.7505, 96.91790
221.2326, 96.72761
221.7147, 96.14718
222.1968, 96.16323
222.6789, 96.99879
223.1610, 98.18180
223.6432, 98.99765
224.1253, 99.06759
224.6074, 99.57449
225.0895, 100.9950
225.5716, 102.5840
226.0537, 103.7868
226.5358, 104.4591
227.0180, 104.5346
227.5001, 103.7220
227.9822, 101.4425
228.4643, 100.2175
228.9464, 100.9539
229.4285, 102.4705
229.9107, 103.6387
230.3928, 104.2155
230.8749, 104.3229
231.3570, 103.9896
231.8391, 103.1786
232.3212, 102.3922
232.8034, 101.3263
233.2855, 100.4750
233.7676, 100.7096
234.2497, 102.3347
234.7318, 104.1666
235.2139, 104.8987
235.6961, 104.6626
236.1782, 103.9715
236.6603, 102.3047
237.1424, 100.4513
237.6245, 99.89652
238.1066, 101.1972
238.5888, 102.5165
239.0709, 101.7724
239.5530, 99.55639
240.0351, 97.58804
240.5172, 96.56970
240.9993, 96.14906
241.4815, 95.68552
241.9636, 95.12721
242.4457, 94.55539
242.9278, 93.98920
243.4099, 93.44913
243.8920, 92.99171
244.3742, 92.42541
244.8563, 91.99155
245.3384, 92.54998
245.8205, 94.87708
246.3026, 96.40025
246.7847, 94.79952
247.2668, 91.62702
247.7490, 89.37696
248.2311, 89.43058
248.7132, 91.00837
249.1953, 92.22397
249.6774, 92.90971
250.1595, 93.55553
250.6417, 94.60930
251.1238, 95.69260
251.6059, 96.23189
252.0880, 95.81065
252.5701, 94.88430
253.0522, 94.66222
253.5344, 95.60053
254.0165, 96.35789
254.4986, 96.82422
254.9807, 96.82510
255.4628, 95.96028
255.9449, 93.92530
256.4271, 91.42313
256.9092, 90.16624
257.3913, 90.87322
257.8734, 91.52593
258.3555, 91.78516
258.8376, 91.77238
259.3198, 91.51265
259.8019, 91.01067
260.2840, 90.46334
260.7661, 90.30151
261.2482, 90.72691
261.7303, 91.17827
262.2125, 91.29532
262.6946, 91.56237
263.1767, 92.51258
263.6588, 94.28388
264.1409, 96.38712
264.6230, 97.99319
265.1052, 98.99979
265.5873, 99.63823
266.0694, 99.28620
266.5515, 99.04259
267.0336, 99.94976
267.5157, 102.1322
267.9979, 104.6748
268.4800, 106.1446
268.9621, 105.7409
269.4442, 105.9862
269.9263, 107.6008
270.4084, 109.2085
270.8906, 109.8291
271.3727, 109.3872
271.8548, 108.5276
272.3369, 107.9677
272.8190, 107.6226
273.3011, 107.9535
273.7833, 109.6001
274.2654, 111.2543
274.7475, 112.0607
275.2296, 112.0785
275.7117, 111.9536
276.1938, 112.2757
276.6760, 113.0215
277.1581, 114.4615
277.6402, 117.9373
278.1223, 120.7281
278.6044, 121.1852
279.0865, 119.7143
279.5686, 117.9473
280.0508, 117.2281
280.5329, 117.5919
281.0150, 117.3046
281.4971, 115.6452
281.9792, 114.1992
282.4613, 113.6169
282.9435, 113.7249
283.4256, 114.0696
283.9077, 114.3944
284.3898, 114.6797
284.8719, 114.7221
285.3540, 114.2669
285.8362, 113.8937
286.3183, 114.0080
286.8004, 114.2843
287.2825, 113.8864
287.7646, 112.2377
288.2467, 110.0605
288.7289, 109.9670
289.2110, 114.1744
289.6931, 117.5548
290.1752, 118.6708
290.6573, 118.6620
291.1394, 119.1705
291.6216, 120.8529
292.1037, 123.0797
292.5858, 124.5485
293.0679, 124.7181
293.5500, 125.1637
294.0321, 126.1601
294.5143, 127.4545
294.9964, 128.9488
295.4785, 130.6165
295.9606, 131.9997
296.4427, 132.3310
296.9248, 131.0211
297.4070, 130.4604
297.8891, 131.3143
298.3712, 132.6005
298.8533, 133.7063
299.3354, 134.4677
299.8175, 134.5191
300.2997, 133.2863
300.7818, 130.4667
301.2639, 128.5309
301.7460, 128.4863
302.2281, 128.5323
302.7102, 127.0763
303.1924, 124.2811
303.6745, 121.9042
304.1566, 121.5000
304.6387, 122.9172
305.1208, 122.9402
305.6029, 121.2294
306.0851, 118.6278
306.5672, 115.1147
307.0493, 110.9711
307.5314, 106.9795
308.0135, 103.5807
308.4956, 100.6752
308.9778, 97.89046
309.4599, 95.81364
309.9420, 93.13362
310.4241, 89.05943
310.9062, 84.12183
311.3883, 79.26384
311.8705, 74.80840
312.3526, 70.87816
312.8347, 67.97683
313.3168, 66.55727
313.7989, 64.88179
314.2810, 62.46788
314.7632, 59.66209
315.2453, 56.81222
315.7274, 54.00712
316.2095, 51.37947
316.6916, 49.08232
317.1737, 47.09970
317.6559, 45.57201
318.1380, 44.74964
318.6201, 44.24719
319.1022, 43.67512
319.5843, 42.99136
320.0664, 42.51798
320.5485, 42.73430
321.0306, 43.70314
321.5128, 43.61115
321.9949, 41.22689
322.4770, 38.84895
322.9591, 38.18068
323.4412, 38.98803
323.9233, 39.75263
324.4055, 39.41384
324.8876, 38.17274
325.3697, 37.54216
325.8518, 38.23808
326.3339, 38.67130
326.8160, 37.92080
327.2982, 36.47534
327.7803, 35.50678
328.2624, 35.65622
328.7445, 36.35813
329.2266, 36.03326
329.7087, 34.15935
330.1909, 32.37265
330.6730, 30.48985
331.1551, 29.03086
331.6372, 29.02331
332.1193, 30.78902
332.6014, 32.99022
333.0836, 33.60487
333.5657, 31.78444
334.0478, 30.87842
334.5299, 31.93792
335.0120, 33.33425
335.4941, 33.55276
335.9763, 32.50327
336.4584, 31.33144
336.9405, 31.10022
337.4226, 31.90570
337.9047, 32.77984
338.3868, 34.42595
338.8690, 35.49729
339.3511, 35.02334
339.8332, 33.33356
340.3153, 31.44160
340.7974, 29.93822
341.2795, 28.80533
341.7617, 27.98711
342.2438, 27.27916
342.7259, 27.06540
343.2080, 27.71847
343.6901, 28.85255
344.1722, 29.97723
344.6544, 30.89552
345.1365, 31.54988
345.6186, 31.80802
346.1007, 31.39498
346.5828, 30.95941
347.0649, 30.64355
347.5471, 30.22712
348.0292, 29.39377
348.5113, 28.14280
348.9934, 26.85927
349.4755, 26.00445
349.9576, 25.62251
350.4398, 25.55639
350.9219, 25.78523
351.4040, 26.28719
351.8861, 27.21683
352.3682, 28.43712
352.8503, 29.62147
353.3325, 30.53768
353.8146, 31.18318
354.2967, 31.51324
354.7788, 31.30560
355.2609, 31.03842
355.7430, 31.00250
356.2252, 30.91679
356.7073, 30.21292
357.1894, 28.60687
357.6715, 26.64422
358.1536, 25.69023
358.6357, 26.29355
359.1179, 27.17828
359.5999, 29.09816
360.0821, 30.75836
360.5642, 30.82609
361.0463, 29.18553
361.5284, 27.02074
362.0105, 25.70732
362.4926, 25.23700
362.9748, 25.71896
363.4569, 29.21814
363.9390, 31.69411
364.4211, 30.34145
364.9032, 26.31345
365.3853, 22.93777
365.8675, 22.84695
366.3496, 25.66748
366.8317, 27.83126
367.3138, 28.99911
367.7959, 29.86991
368.2780, 30.71971
368.7602, 31.33270
369.2423, 31.33970
369.7244, 30.56143
370.2065, 29.39458
370.6886, 28.72343
371.1707, 29.00843
371.6529, 28.59921
372.1350, 26.11968
372.6171, 23.72996
373.0992, 23.01526
373.5813, 24.10696
374.0634, 25.78095
374.5456, 27.05476
375.0277, 27.95055
375.5098, 27.89729
375.9919, 25.88221
376.4740, 23.99409
376.9561, 22.97178
377.4383, 22.80259
377.9204, 23.49890
378.4025, 25.64273
378.8846, 28.33281
379.3667, 28.64077
379.8488, 25.30752
380.3310, 22.86825
380.8131, 24.34903
381.2952, 27.10620
381.7773, 28.34447
382.2594, 27.14736
382.7415, 25.31580
383.2237, 24.80475
383.7058, 25.60441
384.1879, 26.55984
384.6700, 27.75910
385.1521, 28.62497
385.6342, 28.52061
386.1164, 27.51599
386.5985, 26.59326
387.0806, 26.40319
387.5627, 26.67926
388.0448, 26.67304
388.5269, 26.15373
389.0091, 25.94312
389.4912, 27.38405
389.9733, 29.58675
390.4554, 30.44779
390.9375, 28.38212
391.4196, 25.88842
391.9018, 25.46809
392.3839, 26.89812
392.8660, 28.18152
393.3481, 28.52710
393.8302, 28.12776
394.3123, 27.35479
394.7945, 26.07519
395.2766, 24.89078
395.7587, 23.89696
396.2408, 23.18731
396.7229, 22.93873
397.2050, 23.19434
397.6872, 23.89014
398.1693, 25.21861
398.6514, 27.27430
399.1335, 28.29168
399.6156, 27.76460
400.0977, 26.53037
400.5798, 24.61347
401.0620, 22.35802
401.5441, 21.01271
402.0262, 21.48390
402.5083, 23.37160
402.9904, 24.66199
403.4725, 25.31064
403.9547, 25.52556
404.4368, 25.03483
404.9189, 24.24715
405.4010, 23.61535
405.8831, 23.29171
406.3652, 23.26620
406.8474, 23.57689
407.3295, 24.47194
407.8116, 24.95756
408.2937, 24.81091
408.7758, 24.50559
409.2579, 24.09867
409.7401, 23.74349
410.2222, 23.88822
410.7043, 25.02917
411.1864, 26.88807
411.6685, 27.01760
412.1506, 22.81576
412.6328, 20.07309
413.1149, 20.41726
413.5970, 22.27392
414.0791, 24.17493
414.5612, 25.56109
415.0433, 26.26105
415.5255, 25.62724
416.0076, 22.80765
416.4897, 21.61251
416.9718, 24.12248
417.4539, 26.74586
417.9360, 27.90023
418.4182, 27.65941
418.9003, 26.81483
419.3824, 25.81116
419.8645, 24.67954
420.3466, 23.44044
420.8287, 21.77313
421.3109, 20.70599
421.7930, 20.91336
422.2751, 21.79158
422.7572, 22.87324
423.2393, 24.15908
423.7214, 25.01866
424.2036, 24.24209
424.6857, 21.93348
425.1678, 20.92776
425.6499, 22.70928
426.1320, 24.90919
426.6141, 25.11996
427.0963, 23.59614
427.5784, 22.30908
428.0605, 22.23644
428.5426, 22.83790
429.0247, 23.38886
429.5068, 23.86624
429.9890, 24.12796
430.4711, 24.03186
430.9532, 23.64610
431.4353, 23.24462
431.9174, 22.69104
432.3995, 22.32509
432.8817, 22.42741
433.3638, 22.83010
433.8459, 23.18900
434.3280, 23.39746
434.8101, 23.52829
435.2922, 23.66968
435.7744, 23.81417
436.2565, 24.00986
436.7386, 24.70395
437.2207, 25.09428
437.7028, 24.22459
438.1849, 22.41375
438.6671, 20.93902
439.1492, 20.64858
439.6313, 21.41695
440.1134, 22.53055
440.5955, 25.11719
441.0776, 26.64392
441.5598, 26.01260
442.0418, 24.60352
442.5240, 23.78068
443.0061, 23.91316
443.4882, 24.52698
443.9703, 25.02277
444.4524, 25.34928
444.9345, 25.80649
445.4167, 26.90746
445.8988, 27.62763
446.3809, 27.35078
446.8630, 26.43822
447.3451, 25.53679
447.8272, 24.95952
448.3094, 24.76398
448.7915, 25.35418
449.2736, 27.37790
449.7557, 28.32120
450.2378, 26.41382
450.7199, 23.96880
451.2021, 22.55285
451.6842, 22.35001
452.1663, 22.65927
452.6484, 22.97886
453.1305, 23.35786
453.6126, 24.16177
454.0948, 25.75282
454.5769, 26.93949
455.0590, 26.44978
455.5411, 25.05225
456.0232, 24.03084
456.5053, 23.64106
456.9875, 23.74509
457.4696, 24.59130
457.9517, 25.94744
458.4338, 26.70153
458.9159, 26.36590
459.3980, 25.51021
459.8802, 25.03790
460.3623, 25.02508
460.8444, 24.63060
461.3265, 23.54755
461.8086, 22.12839
462.2907, 20.16548
462.7729, 17.94312
463.2550, 16.94273
463.7371, 18.41365
464.2192, 21.79831
464.7013, 23.90771
465.1834, 23.78113
465.6656, 23.70128
466.1477, 24.41071
466.6298, 25.11549
467.1119, 24.45924
467.5940, 22.35330
468.0761, 20.63556
468.5583, 21.87895
469.0404, 26.96623
469.5225, 29.33187
470.0046, 26.54924
470.4867, 23.50496
470.9688, 21.00299
471.4510, 19.36792
471.9331, 19.20282
472.4152, 20.93217
472.8973, 23.33966
473.3794, 23.95172
473.8615, 22.27871
474.3437, 20.88277
474.8258, 19.86503
475.3079, 19.60824
475.7900, 21.10159
476.2721, 23.89473
476.7542, 25.72591
477.2364, 24.31240
477.7185, 21.14053
478.2006, 19.62268
478.6827, 19.95700
479.1648, 20.89525
479.6469, 22.10326
480.1291, 23.39973
480.6112, 24.53611
481.0933, 25.64222
481.5754, 26.19282
482.0575, 25.67314
482.5396, 24.47165
483.0217, 23.05296
483.5038, 21.46749
483.9860, 20.54011
484.4681, 21.41681
484.9502, 24.17019
485.4323, 25.20499
485.9144, 22.63561
486.3965, 20.45937
486.8787, 21.09975
487.3608, 23.18716
487.8429, 23.95792
488.3250, 22.30950
488.8071, 19.66064
489.2892, 18.58455
489.7714, 19.89403
490.2535, 20.80196
490.7356, 21.23407
491.2177, 21.40562
491.6998, 21.22238
492.1819, 20.86680
492.6641, 20.75426
493.1462, 21.20682
493.6283, 21.94802
494.1104, 22.09656
494.5925, 21.36095
495.0746, 20.82477
495.5568, 20.97714
496.0389, 21.25627
496.5210, 21.09137
497.0031, 20.51913
497.4852, 20.35394
497.9673, 21.63273
498.4495, 23.72201
498.9316, 24.86610
499.4137, 24.93296
499.8958, 24.36477
500.3779, 22.93012
500.8600, 21.17488
501.3422, 20.23734
501.8243, 20.42514
502.3064, 20.87692
502.7885, 21.32449
503.2706, 21.70588
503.7527, 21.90872
504.2349, 21.90729
504.7170, 21.75371
505.1991, 21.45633
505.6812, 20.99920
506.1633, 20.75365
506.6454, 20.92182
507.1276, 21.05250
507.6097, 20.82905
508.0918, 20.50390
508.5739, 20.51160
509.0560, 21.00499
509.5381, 21.72129
510.0203, 22.24738
510.5024, 22.53920
510.9845, 22.79304
511.4666, 23.27699
511.9487, 23.45438
512.4308, 22.99893
512.9130, 22.09064
513.3951, 20.98491
513.8772, 19.68611
514.3593, 18.62635
514.8414, 18.71524
515.3235, 20.09355
515.8057, 21.63489
516.2878, 23.86680
516.7699, 25.35139
517.2520, 24.37104
517.7341, 21.31610
518.2162, 18.99347
518.6984, 18.95101
519.1805, 20.06326
519.6626, 21.05435
520.1447, 21.89374
520.6268, 22.58555
521.1089, 23.06543
521.5911, 23.47758
522.0732, 24.21249
522.5553, 25.49836
523.0374, 26.40717
523.5195, 26.87043
524.0016, 26.83309
524.4838, 26.06841
524.9659, 24.69071
525.4480, 23.08174
525.9301, 21.43267
526.4122, 19.90826
526.8943, 19.39065
527.3765, 20.99616
527.8586, 22.03522
528.3407, 21.98177
528.8228, 21.51677
529.3049, 21.19102
529.7870, 21.06022
530.2692, 20.80145
530.7513, 19.87138
531.2334, 18.53591
531.7155, 18.57364
532.1976, 20.67453
532.6797, 22.53891
533.1619, 22.83372
533.6440, 22.57480
534.1261, 22.99443
534.6082, 24.43167
535.0903, 25.22907
535.5724, 23.55406
536.0546, 20.62440
536.5367, 19.21750
537.0188, 19.76174
537.5009, 20.52827
537.9830, 20.16891
538.4651, 18.96485
538.9473, 18.52273
539.4294, 19.46469
539.9115, 20.30869
540.3936, 20.53841
540.8757, 20.49533
541.3578, 20.66877
541.8400, 21.11986
542.3221, 21.45864
542.8042, 21.26749
543.2863, 20.53817
543.7684, 19.78521
544.2505, 18.66034
544.7326, 17.96021
545.2147, 18.26870
545.6968, 18.85987
546.1790, 18.73536
546.6611, 17.70747
547.1432, 16.83895
547.6253, 17.64915
548.1074, 19.92774
548.5895, 21.09946
549.0717, 20.65000
549.5538, 19.98346
550.0359, 19.73990
550.5180, 19.86517
551.0001, 20.40952
551.4822, 21.60988
551.9644, 22.66538
552.4465, 23.04568
552.9286, 22.93206
553.4107, 22.71568
553.8928, 22.47468
554.3749, 21.99374
554.8571, 21.00277
555.3392, 19.52028
555.8213, 18.38982
556.3034, 17.17514
556.7855, 16.77511
557.2676, 18.16646
557.7498, 20.13817
558.2319, 21.20705
558.7140, 21.06573
559.1961, 20.49817
559.6782, 20.40330
560.1603, 20.79308
560.6425, 20.67817
561.1246, 19.82724
561.6067, 18.78283
562.0888, 17.00431
562.5709, 15.48598
563.0530, 15.74511
563.5352, 18.21246
564.0173, 20.56194
564.4994, 20.55888
564.9815, 18.83282
565.4636, 17.32789
565.9457, 16.16963
566.4279, 15.50562
566.9100, 15.41343
567.3921, 15.94070
567.8742, 17.10977
568.3563, 19.59692
568.8384, 21.59682
569.3206, 22.68962
569.8027, 22.86472
570.2848, 21.71918
570.7669, 19.41215
571.2490, 17.05085
571.7311, 15.53765
572.2133, 14.87462
572.6954, 15.19045
573.1775, 17.95965
573.6596, 19.66763
574.1417, 18.76597
574.6238, 17.40998
575.1060, 17.94576
575.5881, 20.34665
576.0702, 22.16052
576.5523, 20.72936
577.0344, 17.13297
577.5165, 15.44924
577.9987, 15.96607
578.4808, 17.17743
578.9629, 18.90687
579.4450, 20.69468
579.9271, 21.99261
580.4092, 22.80720
580.8914, 23.02095
581.3735, 22.45108
581.8556, 21.34376
582.3377, 19.40689
582.8198, 16.97461
583.3019, 15.86668
583.7841, 17.38795
584.2662, 20.30059
584.7483, 21.15086
585.2304, 17.90279
585.7125, 15.90366
586.1946, 15.58218
586.6768, 16.03479
587.1589, 17.26285
587.6410, 18.78455
588.1231, 19.55432
588.6052, 18.84301
589.0873, 17.42101
589.5695, 16.87470
590.0516, 17.27932
