##NAMES=Antigorite
##RRUFFID=R070228
##IDEAL CHEMISTRY=Mg_3_Si_2_O_5_(OH)_4_
##LOCALITY=Wood's Chrome Mine (Wood's Mine), Texas, Lancaster County, Pennsylvania, USA
##OWNER=RRUFF
##SOURCE=Michael Scott
##DESCRIPTION=Compact massive, light to dark green associated with chromite
##STATUS=The identification of this mineral has been confirmed by X-ray diffraction and chemical analysis
##URL=rruff.info/R070228
##MEASURED CHEMISTRY=(Mg_2.93_Fe_0.07_)_Î£=3_Si_2.00_O_5_(OH)_4_ ; trace amounts of Al and Mn; OH estimated by difference
155.9293, 3868.489
156.4115, 3886.725
156.8936, 3915.585
157.3757, 3951.691
157.8578, 3983.743
158.3399, 4009.163
158.8221, 4029.042
159.3042, 4044.352
159.7863, 4053.591
160.2684, 4059.958
160.7505, 4062.676
161.2326, 4062.394
161.7148, 4063.935
162.1969, 4067.467
162.6790, 4074.550
163.1611, 4086.600
163.6432, 4116.310
164.1253, 4141.497
164.6075, 4145.832
165.0896, 4128.567
165.5717, 4114.214
166.0538, 4115.846
166.5359, 4129.154
167.0180, 4147.819
167.5002, 4175.006
167.9823, 4203.077
168.4644, 4226.038
168.9465, 4243.053
169.4286, 4257.722
169.9107, 4270.881
170.3929, 4283.487
170.8750, 4297.913
171.3571, 4317.944
171.8392, 4339.128
172.3213, 4356.171
172.8034, 4367.380
173.2856, 4377.274
173.7677, 4390.271
174.2498, 4405.575
174.7319, 4420.224
175.2140, 4433.338
175.6961, 4444.495
176.1783, 4453.081
176.6604, 4459.109
177.1425, 4462.135
177.6246, 4455.831
178.1067, 4442.669
178.5888, 4438.389
179.0710, 4460.294
179.5531, 4499.456
180.0352, 4537.316
180.5173, 4572.782
180.9994, 4601.028
181.4815, 4604.748
181.9637, 4584.950
182.4458, 4572.120
182.9279, 4602.041
183.4100, 4663.371
183.8921, 4713.853
184.3742, 4740.057
184.8564, 4748.372
185.3385, 4748.446
185.8206, 4739.400
186.3027, 4732.793
186.7848, 4741.878
187.2669, 4765.078
187.7491, 4790.690
188.2312, 4817.756
188.7133, 4844.113
189.1954, 4859.812
189.6775, 4862.824
190.1596, 4863.808
190.6418, 4875.662
191.1239, 4898.203
191.6060, 4924.618
192.0881, 4952.435
192.5702, 4981.796
193.0524, 5014.516
193.5345, 5051.127
194.0166, 5089.479
194.4987, 5127.085
194.9808, 5164.188
195.4629, 5196.966
195.9451, 5223.533
196.4272, 5244.255
196.9093, 5257.554
197.3914, 5260.839
197.8735, 5260.695
198.3556, 5268.490
198.8378, 5284.234
199.3199, 5307.363
199.8020, 5339.908
200.2841, 5382.355
200.7662, 5423.591
201.2483, 5464.834
201.7305, 5502.822
202.2126, 5525.746
202.6947, 5528.720
203.1768, 5534.872
203.6589, 5564.372
204.1410, 5623.004
204.6232, 5659.992
205.1053, 5663.792
205.5874, 5646.151
206.0695, 5647.101
206.5516, 5671.291
207.0337, 5701.862
207.5159, 5724.087
207.9980, 5731.822
208.4801, 5759.609
208.9622, 5817.259
209.4443, 5898.063
209.9264, 5969.083
210.4086, 6027.867
210.8907, 6082.019
211.3728, 6133.456
211.8549, 6177.433
212.3370, 6238.561
212.8191, 6331.219
213.3013, 6447.787
213.7834, 6526.503
214.2655, 6551.526
214.7476, 6564.301
215.2297, 6602.198
215.7118, 6677.218
216.1940, 6744.887
216.6761, 6795.110
217.1582, 6829.052
217.6403, 6866.861
218.1224, 6906.548
218.6045, 6952.131
219.0867, 7009.102
219.5688, 7082.337
220.0509, 7154.685
220.5330, 7221.729
221.0151, 7284.312
221.4972, 7341.462
221.9794, 7387.103
222.4615, 7434.623
222.9436, 7499.811
223.4257, 7589.130
223.9078, 7683.698
224.3899, 7775.063
224.8721, 7862.563
225.3542, 7974.477
225.8363, 8130.332
226.3184, 8293.005
226.8005, 8418.653
227.2827, 8487.945
227.7648, 8555.631
228.2469, 8638.616
228.7290, 8741.204
229.2111, 8823.837
229.6932, 8884.576
230.1754, 8926.000
230.6575, 8954.881
231.1396, 8985.515
231.6217, 8977.535
232.1038, 8919.277
232.5859, 8807.904
233.0681, 8659.002
233.5502, 8459.994
234.0323, 8233.404
234.5144, 8006.640
234.9965, 7776.826
235.4786, 7554.263
235.9608, 7340.024
236.4429, 7135.500
236.9250, 6944.354
237.4071, 6764.703
237.8892, 6601.066
238.3713, 6462.313
238.8535, 6358.439
239.3356, 6262.645
239.8177, 6164.781
240.2998, 6059.137
240.7819, 5973.632
241.2640, 5913.610
241.7462, 5869.232
242.2283, 5822.359
242.7104, 5766.369
243.1925, 5718.848
243.6746, 5686.996
244.1567, 5675.601
244.6389, 5663.599
245.1210, 5651.720
245.6031, 5638.848
246.0852, 5622.114
246.5673, 5596.751
247.0494, 5575.766
247.5316, 5565.957
248.0137, 5573.958
248.4958, 5568.944
248.9779, 5540.738
249.4600, 5505.281
249.9421, 5495.168
250.4243, 5525.520
250.9064, 5553.953
251.3885, 5563.745
251.8706, 5547.994
252.3527, 5536.599
252.8348, 5531.048
253.3170, 5528.933
253.7991, 5524.819
254.2812, 5514.767
254.7633, 5510.410
255.2454, 5518.573
255.7275, 5545.261
256.2097, 5561.634
256.6918, 5565.083
257.1739, 5559.847
257.6560, 5553.127
258.1381, 5544.017
258.6202, 5535.180
259.1024, 5525.677
259.5845, 5512.437
260.0666, 5512.704
260.5487, 5531.746
261.0308, 5560.311
261.5129, 5583.972
261.9951, 5604.757
262.4772, 5615.108
262.9593, 5606.771
263.4414, 5571.382
263.9235, 5558.928
264.4056, 5577.759
264.8878, 5611.669
265.3699, 5633.790
265.8520, 5643.519
266.3341, 5643.627
266.8162, 5632.618
267.2983, 5608.127
267.7805, 5588.392
268.2626, 5574.425
268.7447, 5564.293
269.2268, 5554.149
269.7089, 5542.912
270.1910, 5535.617
270.6732, 5536.332
271.1553, 5546.557
271.6374, 5547.978
272.1195, 5535.995
272.6016, 5521.958
273.0837, 5528.406
273.5659, 5560.535
274.0480, 5586.680
274.5301, 5593.530
275.0122, 5580.392
275.4943, 5563.109
275.9764, 5537.725
276.4586, 5515.643
276.9407, 5518.119
277.4228, 5548.117
277.9049, 5576.406
278.3870, 5589.780
278.8691, 5589.072
279.3513, 5594.208
279.8334, 5606.660
280.3155, 5621.171
280.7976, 5631.531
281.2798, 5637.649
281.7619, 5639.546
282.2440, 5632.684
282.7261, 5619.669
283.2082, 5622.788
283.6903, 5644.798
284.1725, 5672.792
284.6546, 5691.003
285.1367, 5699.613
285.6188, 5707.328
286.1009, 5716.751
286.5830, 5727.706
287.0652, 5738.931
287.5473, 5749.999
288.0294, 5763.255
288.5115, 5784.007
288.9936, 5811.040
289.4757, 5833.350
289.9579, 5845.021
290.4400, 5849.998
290.9221, 5859.449
291.4042, 5873.567
291.8863, 5889.721
292.3684, 5904.892
292.8506, 5919.680
293.3327, 5937.407
293.8148, 5963.738
294.2969, 5991.119
294.7790, 6001.268
295.2611, 5994.179
295.7433, 5988.035
296.2254, 6001.362
296.7075, 6028.649
297.1896, 6054.198
297.6717, 6075.887
298.1538, 6092.065
298.6360, 6096.146
299.1181, 6089.261
299.6002, 6084.331
300.0823, 6096.765
300.5644, 6117.567
301.0465, 6128.399
301.5287, 6116.852
302.0108, 6102.953
302.4929, 6116.070
302.9750, 6151.090
303.4571, 6177.975
303.9392, 6159.521
304.4214, 6125.948
304.9035, 6121.749
305.3856, 6175.094
305.8677, 6232.180
306.3498, 6240.965
306.8319, 6211.937
307.3141, 6182.076
307.7962, 6171.305
308.2783, 6171.407
308.7604, 6175.108
309.2425, 6182.458
309.7246, 6189.817
310.2068, 6192.710
310.6889, 6193.548
311.1710, 6198.581
311.6531, 6213.450
312.1352, 6232.075
312.6173, 6250.121
313.0995, 6266.651
313.5816, 6282.702
314.0637, 6301.764
314.5458, 6320.578
315.0279, 6333.206
315.5100, 6328.257
315.9922, 6323.390
316.4743, 6329.172
316.9564, 6349.417
317.4385, 6369.526
317.9206, 6390.089
318.4027, 6406.413
318.8849, 6411.937
319.3670, 6382.971
319.8491, 6362.191
320.3312, 6371.159
320.8133, 6418.037
321.2954, 6454.272
321.7776, 6459.074
322.2597, 6453.243
322.7418, 6458.946
323.2239, 6498.603
323.7060, 6530.879
324.1881, 6540.264
324.6703, 6523.488
325.1524, 6520.835
325.6345, 6550.081
326.1166, 6586.564
326.5987, 6610.592
327.0808, 6604.573
327.5630, 6606.689
328.0451, 6624.317
328.5272, 6656.625
329.0093, 6686.030
329.4914, 6714.424
329.9735, 6737.584
330.4557, 6750.983
330.9378, 6740.482
331.4199, 6745.867
331.9020, 6778.914
332.3841, 6831.695
332.8662, 6863.873
333.3484, 6863.602
333.8305, 6860.218
334.3126, 6871.132
334.7947, 6902.968
335.2768, 6927.367
335.7589, 6938.631
336.2411, 6944.022
336.7232, 6963.772
337.2053, 7002.120
337.6874, 7042.053
338.1695, 7074.392
338.6516, 7097.159
339.1338, 7128.503
339.6159, 7171.285
340.0980, 7218.223
340.5801, 7254.724
341.0622, 7279.971
341.5443, 7306.365
342.0265, 7339.217
342.5086, 7377.938
342.9907, 7421.361
343.4728, 7470.243
343.9549, 7519.434
344.4370, 7559.770
344.9192, 7592.248
345.4013, 7628.489
345.8834, 7671.284
346.3655, 7720.621
346.8476, 7778.454
347.3297, 7844.947
347.8119, 7908.758
348.2940, 7954.646
348.7761, 7988.313
349.2582, 8025.417
349.7403, 8070.299
350.2225, 8121.767
350.7046, 8180.011
351.1867, 8244.874
351.6688, 8311.114
352.1509, 8372.853
352.6331, 8434.250
353.1152, 8503.012
353.5973, 8585.529
354.0794, 8666.975
354.5615, 8728.300
355.0436, 8776.414
355.5258, 8832.346
356.0079, 8913.394
356.4900, 9004.131
356.9721, 9091.115
357.4542, 9171.164
357.9363, 9251.271
358.4185, 9333.706
358.9006, 9419.024
359.3827, 9508.188
359.8648, 9611.491
360.3469, 9710.871
360.8290, 9793.568
361.3112, 9855.971
361.7933, 9922.730
362.2754, 10002.10
362.7575, 10090.24
363.2396, 10183.37
363.7217, 10283.01
364.2039, 10383.93
364.6860, 10486.48
365.1681, 10591.06
365.6502, 10690.28
366.1323, 10769.58
366.6144, 10852.27
367.0966, 10955.02
367.5787, 11104.43
368.0608, 11240.42
368.5429, 11353.65
369.0250, 11449.17
369.5071, 11550.20
369.9893, 11661.41
370.4714, 11772.16
370.9535, 11877.17
371.4356, 11972.17
371.9177, 12070.74
372.3998, 12183.72
372.8820, 12295.25
373.3641, 12373.24
373.8462, 12423.39
374.3283, 12425.01
374.8104, 12363.65
375.2925, 12234.71
375.7747, 12093.09
376.2568, 11944.63
376.7389, 11769.66
377.2210, 11529.06
377.7031, 11217.40
378.1852, 10919.94
378.6674, 10664.12
379.1495, 10442.81
379.6316, 10217.25
380.1137, 9989.594
380.5958, 9755.271
381.0779, 9496.001
381.5601, 9220.405
382.0422, 8991.747
382.5243, 8826.380
383.0064, 8704.428
383.4885, 8599.279
383.9706, 8509.038
384.4528, 8427.038
384.9349, 8355.213
385.4170, 8286.297
385.8991, 8202.351
386.3812, 8093.457
386.8633, 7990.473
387.3455, 7929.734
387.8276, 7897.292
388.3097, 7860.215
388.7918, 7786.461
389.2739, 7711.836
389.7560, 7670.418
390.2382, 7667.645
390.7203, 7663.638
391.2024, 7631.712
391.6845, 7588.584
392.1666, 7553.097
392.6487, 7534.290
393.1309, 7521.935
393.6130, 7514.818
394.0951, 7512.208
394.5772, 7507.703
395.0593, 7504.728
395.5414, 7496.147
396.0236, 7477.439
396.5057, 7425.526
396.9878, 7390.028
397.4699, 7380.939
397.9520, 7392.499
398.4341, 7406.878
398.9163, 7434.524
399.3984, 7454.015
399.8805, 7454.338
400.3626, 7422.889
400.8447, 7411.224
401.3268, 7431.974
401.8090, 7463.185
402.2911, 7472.103
402.7732, 7448.843
403.2553, 7429.011
403.7374, 7423.187
404.2195, 7430.467
404.7017, 7435.207
405.1838, 7437.986
405.6659, 7436.592
406.1480, 7424.291
406.6301, 7400.658
407.1122, 7391.286
407.5944, 7405.081
408.0765, 7431.358
408.5586, 7444.122
409.0407, 7443.660
409.5228, 7441.033
410.0049, 7446.978
410.4871, 7456.493
410.9692, 7452.311
411.4513, 7429.331
411.9334, 7406.172
412.4155, 7407.406
412.8976, 7426.208
413.3798, 7442.674
413.8619, 7448.886
414.3440, 7447.776
414.8261, 7439.984
415.3082, 7425.614
415.7903, 7412.684
416.2725, 7404.501
416.7546, 7401.276
417.2367, 7403.517
417.7188, 7420.973
418.2009, 7433.334
418.6830, 7426.500
419.1652, 7405.521
419.6473, 7389.192
420.1294, 7385.670
420.6115, 7386.941
421.0937, 7388.287
421.5758, 7386.734
422.0579, 7390.390
422.5400, 7406.659
423.0221, 7427.453
423.5042, 7439.618
423.9864, 7427.918
424.4685, 7424.244
424.9506, 7440.330
425.4327, 7478.604
425.9148, 7501.793
426.3969, 7502.458
426.8791, 7496.534
427.3612, 7497.644
427.8433, 7507.863
428.3254, 7519.155
428.8075, 7532.494
429.2896, 7545.312
429.7718, 7544.444
430.2539, 7525.794
430.7360, 7514.847
431.2181, 7532.551
431.7002, 7576.379
432.1823, 7609.198
432.6645, 7628.413
433.1466, 7639.211
433.6287, 7645.626
434.1108, 7648.640
434.5929, 7653.191
435.0750, 7660.065
435.5572, 7670.252
436.0393, 7688.622
436.5214, 7714.652
437.0035, 7737.365
437.4856, 7746.159
437.9677, 7746.711
438.4499, 7745.094
438.9320, 7736.059
439.4141, 7736.804
439.8962, 7772.355
440.3783, 7828.366
440.8604, 7868.891
441.3426, 7859.433
441.8247, 7843.565
442.3068, 7845.173
442.7889, 7868.700
443.2710, 7900.979
443.7531, 7953.989
444.2353, 8007.851
444.7174, 8041.492
445.1995, 8022.214
445.6816, 8014.560
446.1637, 8037.398
446.6458, 8086.585
447.1280, 8118.632
447.6101, 8116.108
448.0922, 8115.747
448.5743, 8139.764
449.0564, 8201.853
449.5385, 8252.479
450.0207, 8288.384
450.5028, 8313.971
450.9849, 8334.210
451.4670, 8346.463
451.9491, 8366.191
452.4312, 8404.604
452.9134, 8457.626
453.3955, 8493.020
453.8776, 8509.146
454.3597, 8518.729
454.8418, 8530.251
455.3239, 8544.705
455.8061, 8569.297
456.2882, 8616.426
456.7703, 8657.965
457.2524, 8644.625
457.7345, 8587.437
458.2166, 8530.852
458.6988, 8506.539
459.1809, 8494.421
459.6630, 8475.318
460.1451, 8447.369
460.6272, 8409.925
461.1093, 8356.623
461.5915, 8295.595
462.0736, 8237.975
462.5557, 8187.016
463.0378, 8140.410
463.5199, 8102.220
464.0020, 8070.579
464.4842, 8030.465
464.9663, 7972.750
465.4484, 7910.572
465.9305, 7849.502
466.4126, 7779.469
466.8947, 7727.667
467.3769, 7700.172
467.8590, 7688.316
468.3411, 7680.353
468.8232, 7685.633
469.3053, 7674.890
469.7874, 7632.286
470.2696, 7560.863
470.7517, 7520.362
471.2338, 7517.836
471.7159, 7524.692
472.1980, 7517.608
472.6801, 7496.774
473.1623, 7471.864
473.6444, 7440.957
474.1265, 7412.654
474.6086, 7405.436
475.0907, 7416.439
475.5728, 7427.143
476.0550, 7423.353
476.5371, 7414.559
477.0192, 7419.203
477.5013, 7438.118
477.9834, 7454.187
478.4655, 7448.557
478.9477, 7433.896
479.4298, 7427.147
479.9119, 7439.336
480.3940, 7452.912
480.8761, 7459.327
481.3582, 7459.976
481.8404, 7458.723
482.3225, 7459.429
482.8046, 7456.360
483.2867, 7443.475
483.7688, 7412.987
484.2509, 7398.075
484.7331, 7418.513
485.2152, 7447.031
485.6973, 7457.302
486.1794, 7431.347
486.6615, 7418.784
487.1436, 7433.257
487.6258, 7466.700
488.1079, 7477.210
488.5900, 7454.968
489.0721, 7436.797
489.5542, 7449.433
490.0363, 7493.334
490.5185, 7515.341
491.0006, 7510.570
491.4827, 7495.053
491.9648, 7486.948
492.4470, 7485.628
492.9291, 7488.197
493.4112, 7494.741
493.8933, 7503.686
494.3754, 7514.857
494.8575, 7527.384
495.3397, 7535.135
495.8218, 7528.050
496.3039, 7517.089
496.7860, 7515.159
497.2681, 7526.209
497.7502, 7537.976
498.2324, 7544.459
498.7145, 7547.629
499.1966, 7550.278
499.6787, 7558.128
500.1608, 7560.569
500.6429, 7548.949
501.1251, 7524.802
501.6072, 7512.820
502.0893, 7528.386
502.5714, 7544.202
503.0535, 7547.064
503.5356, 7530.577
504.0178, 7515.275
504.4999, 7496.687
504.9820, 7483.600
505.4641, 7494.954
505.9462, 7538.002
506.4283, 7566.320
506.9105, 7559.343
507.3926, 7528.941
507.8747, 7526.110
508.3568, 7552.327
508.8389, 7579.143
509.3210, 7585.286
509.8032, 7575.936
510.2853, 7562.029
510.7674, 7541.908
511.2495, 7530.271
511.7316, 7549.454
512.2137, 7587.999
512.6959, 7622.222
513.1780, 7635.152
513.6601, 7646.667
514.1422, 7674.021
514.6243, 7714.123
515.1064, 7745.188
515.5886, 7760.164
516.0707, 7762.455
516.5528, 7750.152
517.0349, 7702.975
517.5170, 7683.036
517.9991, 7717.905
518.4813, 7774.866
518.9634, 7812.838
519.4455, 7821.366
519.9276, 7829.064
520.4097, 7843.737
520.8918, 7862.733
521.3740, 7866.196
521.8561, 7847.684
522.3382, 7834.983
522.8203, 7853.345
523.3024, 7899.945
523.7845, 7925.110
524.2667, 7922.051
524.7488, 7913.494
525.2309, 7937.619
525.7130, 7982.052
526.1951, 8001.836
526.6772, 7962.068
527.1594, 7908.798
527.6415, 7899.539
528.1236, 7926.040
528.6057, 7952.005
529.0878, 7954.063
529.5699, 7949.287
530.0521, 7952.573
530.5342, 7969.735
531.0163, 7977.285
531.4984, 7956.879
531.9805, 7927.758
532.4626, 7910.304
532.9448, 7920.472
533.4269, 7926.554
533.9090, 7923.470
534.3911, 7913.565
534.8732, 7905.186
535.3553, 7895.349
535.8375, 7892.814
536.3196, 7906.533
536.8017, 7938.432
537.2838, 7945.888
537.7659, 7923.521
538.2480, 7894.657
538.7302, 7888.907
539.2123, 7901.734
539.6944, 7899.612
540.1765, 7868.426
540.6586, 7831.755
541.1407, 7822.744
541.6229, 7836.462
542.1050, 7854.829
542.5871, 7867.657
543.0692, 7881.114
543.5513, 7908.715
544.0334, 7950.483
544.5156, 7970.813
544.9977, 7934.882
545.4798, 7881.050
545.9619, 7839.054
546.4440, 7810.447
546.9261, 7799.848
547.4083, 7819.656
547.8904, 7855.819
548.3725, 7883.942
548.8546, 7910.065
549.3367, 7917.540
549.8188, 7893.970
550.3010, 7843.729
550.7831, 7821.681
551.2652, 7835.152
551.7473, 7852.399
552.2294, 7845.371
552.7115, 7817.854
553.1937, 7810.913
553.6758, 7830.824
554.1579, 7858.753
554.6400, 7873.232
555.1221, 7877.021
555.6042, 7877.869
556.0864, 7879.269
556.5685, 7878.251
557.0506, 7868.145
557.5327, 7852.119
558.0148, 7842.174
558.4969, 7840.885
558.9791, 7850.000
559.4612, 7876.322
559.9433, 7926.813
560.4254, 7960.763
560.9075, 7955.643
561.3896, 7939.147
561.8718, 7936.571
562.3539, 7964.105
562.8360, 7977.332
563.3181, 7967.340
563.8002, 7943.711
564.2823, 7928.752
564.7645, 7923.482
565.2466, 7922.760
565.7287, 7923.518
566.2108, 7927.088
566.6929, 7943.587
567.1750, 7973.490
567.6572, 8002.516
568.1393, 8019.519
568.6214, 8026.521
569.1035, 8024.139
569.5856, 8009.395
570.0677, 7998.032
570.5499, 8007.447
571.0320, 8027.896
571.5141, 8043.996
571.9962, 8046.569
572.4783, 8047.253
572.9604, 8052.009
573.4426, 8059.379
573.9247, 8061.620
574.4068, 8049.435
574.8889, 8039.300
575.3710, 8038.925
575.8531, 8051.390
576.3353, 8055.131
576.8174, 8040.498
577.2995, 8031.408
577.7816, 8058.198
578.2637, 8125.815
578.7458, 8174.267
579.2280, 8192.729
579.7101, 8192.313
580.1922, 8189.268
580.6743, 8183.848
581.1564, 8177.489
581.6385, 8161.102
582.1207, 8149.336
582.6028, 8171.488
583.0849, 8222.278
583.5670, 8261.934
584.0491, 8249.312
584.5313, 8227.407
585.0134, 8231.643
585.4955, 8275.529
585.9776, 8318.532
586.4597, 8352.304
586.9418, 8378.980
587.4240, 8400.287
587.9061, 8411.625
588.3882, 8425.887
588.8703, 8448.409
589.3524, 8473.659
589.8345, 8481.674
590.3167, 8465.973
590.7988, 8458.215
591.2809, 8475.394
591.7630, 8512.327
592.2451, 8538.476
592.7272, 8553.063
593.2094, 8575.880
593.6915, 8635.804
594.1736, 8713.161
594.6557, 8769.624
595.1378, 8795.403
595.6199, 8810.965
596.1021, 8827.314
596.5842, 8843.961
597.0663, 8860.271
597.5485, 8873.564
598.0306, 8888.859
598.5127, 8903.153
598.9948, 8919.526
599.4769, 8951.926
599.9590, 9022.021
600.4412, 9083.310
600.9233, 9119.432
601.4054, 9129.278
601.8875, 9132.860
602.3696, 9126.985
602.8517, 9122.657
603.3339, 9128.803
603.8160, 9145.057
604.2981, 9168.221
604.7802, 9198.875
605.2623, 9232.363
605.7444, 9264.510
606.2266, 9294.699
606.7087, 9319.843
607.1908, 9339.293
607.6729, 9353.504
608.1550, 9356.743
608.6371, 9354.027
609.1193, 9361.774
609.6014, 9400.800
610.0835, 9439.617
610.5656, 9459.910
611.0477, 9457.151
611.5298, 9463.428
612.0120, 9484.320
612.4941, 9509.862
612.9762, 9534.536
613.4583, 9559.952
613.9404, 9578.035
614.4225, 9587.171
614.9047, 9590.931
615.3868, 9590.432
615.8689, 9586.719
616.3510, 9594.882
616.8331, 9624.718
617.3152, 9661.522
617.7974, 9678.147
618.2795, 9680.644
618.7616, 9693.294
619.2437, 9746.436
619.7258, 9802.040
620.2079, 9828.324
620.6901, 9823.734
621.1722, 9821.429
621.6543, 9831.345
622.1364, 9848.433
622.6185, 9870.725
623.1006, 9905.423
623.5828, 9927.958
624.0649, 9928.348
624.5470, 9925.733
625.0291, 9948.424
625.5112, 10004.82
625.9933, 10038.08
626.4755, 10028.48
626.9576, 10002.70
627.4397, 10026.10
627.9218, 10091.09
628.4039, 10139.74
628.8860, 10120.04
629.3682, 10079.91
629.8503, 10091.36
630.3324, 10147.90
630.8145, 10198.96
631.2966, 10202.66
631.7787, 10198.47
632.2609, 10217.85
632.7430, 10274.05
633.2251, 10317.33
633.7072, 10325.63
634.1893, 10324.35
634.6714, 10336.33
635.1536, 10377.10
635.6357, 10393.59
636.1178, 10369.09
636.5999, 10332.01
637.0820, 10340.82
637.5641, 10397.65
638.0463, 10447.24
638.5284, 10469.88
639.0105, 10476.24
639.4926, 10486.51
639.9747, 10500.06
640.4568, 10512.81
640.9390, 10520.20
641.4211, 10527.18
641.9032, 10541.39
642.3853, 10563.26
642.8674, 10577.36
643.3495, 10577.77
643.8317, 10568.02
644.3138, 10548.93
644.7959, 10507.33
645.2780, 10482.73
645.7601, 10482.16
646.2422, 10492.45
646.7244, 10500.56
647.2065, 10507.95
647.6886, 10503.47
648.1707, 10480.45
648.6528, 10451.30
649.1349, 10443.03
