##NAMES=Antipinite
##RRUFFID=R160005
##IDEAL CHEMISTRY=KNa_3_Cu^2+^_2_((C_2_)^6+^O_4_)_4_
##LOCALITY=Rowley mine, Maricopa County, Arizona, USA
##OWNER=RRUFF
##SOURCE=Danielle Sotomayor and Keith Wentz
##DESCRIPTION=Blue euhedral crystals exhibiting hemihedral symmetry. Associated with colorless barite, yellow hedyphane, and orange wulfenite.
##STATUS=The identification of this mineral has been confirmed only by single crystal X-ray diffraction.
##URL=rruff.info/R160005
8.813672e+001, 4.261589e+002
8.861884e+001, 4.331089e+002
8.910095e+001, 4.392460e+002
8.958307e+001, 4.450756e+002
9.006519e+001, 4.501587e+002
9.054730e+001, 4.533552e+002
9.102942e+001, 4.550393e+002
9.151154e+001, 4.564853e+002
9.199365e+001, 4.592401e+002
9.247577e+001, 4.628662e+002
9.295789e+001, 4.658630e+002
9.344000e+001, 4.682711e+002
9.392212e+001, 4.693501e+002
9.440424e+001, 4.680948e+002
9.488635e+001, 4.650491e+002
9.536847e+001, 4.598688e+002
9.585059e+001, 4.510049e+002
9.633270e+001, 4.385765e+002
9.681482e+001, 4.261484e+002
9.729694e+001, 4.151512e+002
9.777905e+001, 4.055640e+002
9.826117e+001, 3.983805e+002
9.874329e+001, 3.937716e+002
9.922540e+001, 3.914864e+002
9.970752e+001, 3.912550e+002
1.001896e+002, 3.933237e+002
1.006718e+002, 3.962789e+002
1.011539e+002, 3.990019e+002
1.016360e+002, 4.011525e+002
1.021181e+002, 4.046524e+002
1.026002e+002, 4.097461e+002
1.030823e+002, 4.163445e+002
1.035645e+002, 4.239498e+002
1.040466e+002, 4.327704e+002
1.045287e+002, 4.423755e+002
1.050108e+002, 4.525712e+002
1.054929e+002, 4.632731e+002
1.059750e+002, 4.746314e+002
1.064572e+002, 4.870566e+002
1.069393e+002, 5.008625e+002
1.074214e+002, 5.132283e+002
1.079035e+002, 5.245912e+002
1.083856e+002, 5.344972e+002
1.088677e+002, 5.422668e+002
1.093499e+002, 5.475397e+002
1.098320e+002, 5.512700e+002
1.103141e+002, 5.533889e+002
1.107962e+002, 5.533781e+002
1.112783e+002, 5.536090e+002
1.117604e+002, 5.541391e+002
1.122426e+002, 5.550332e+002
1.127247e+002, 5.563819e+002
1.132068e+002, 5.574893e+002
1.136889e+002, 5.595878e+002
1.141710e+002, 5.633489e+002
1.146531e+002, 5.697944e+002
1.151353e+002, 5.760529e+002
1.156174e+002, 5.814947e+002
1.160995e+002, 5.862405e+002
1.165816e+002, 5.906798e+002
1.170637e+002, 5.962433e+002
1.175458e+002, 6.007737e+002
1.180280e+002, 6.027952e+002
1.185101e+002, 6.012143e+002
1.189922e+002, 5.978651e+002
1.194743e+002, 5.932015e+002
1.199564e+002, 5.873708e+002
1.204385e+002, 5.811601e+002
1.209207e+002, 5.741012e+002
1.214028e+002, 5.671645e+002
1.218849e+002, 5.614608e+002
1.223670e+002, 5.572853e+002
1.228491e+002, 5.544724e+002
1.233312e+002, 5.534783e+002
1.238134e+002, 5.541951e+002
1.242955e+002, 5.548902e+002
1.247776e+002, 5.534005e+002
1.252597e+002, 5.508609e+002
1.257418e+002, 5.495666e+002
1.262239e+002, 5.511312e+002
1.267061e+002, 5.543602e+002
1.271882e+002, 5.574821e+002
1.276703e+002, 5.605329e+002
1.281524e+002, 5.632438e+002
1.286345e+002, 5.653187e+002
1.291166e+002, 5.667891e+002
1.295988e+002, 5.678297e+002
1.300809e+002, 5.682387e+002
1.305630e+002, 5.682391e+002
1.310451e+002, 5.686299e+002
1.315272e+002, 5.695098e+002
1.320093e+002, 5.705763e+002
1.324915e+002, 5.710265e+002
1.329736e+002, 5.708721e+002
1.334557e+002, 5.716100e+002
1.339378e+002, 5.739738e+002
1.344199e+002, 5.779531e+002
1.349020e+002, 5.832165e+002
1.353842e+002, 5.898422e+002
1.358663e+002, 5.976337e+002
1.363484e+002, 6.066400e+002
1.368305e+002, 6.169681e+002
1.373126e+002, 6.279460e+002
1.377947e+002, 6.389162e+002
1.382769e+002, 6.497712e+002
1.387590e+002, 6.617537e+002
1.392411e+002, 6.754077e+002
1.397232e+002, 6.901661e+002
1.402053e+002, 7.029626e+002
1.406874e+002, 7.135916e+002
1.411696e+002, 7.230471e+002
1.416517e+002, 7.318474e+002
1.421338e+002, 7.400187e+002
1.426159e+002, 7.477700e+002
1.430980e+002, 7.553806e+002
1.435801e+002, 7.627662e+002
1.440623e+002, 7.690104e+002
1.445444e+002, 7.735103e+002
1.450265e+002, 7.776044e+002
1.455086e+002, 7.823314e+002
1.459907e+002, 7.884100e+002
1.464728e+002, 7.940949e+002
1.469550e+002, 7.991815e+002
1.474371e+002, 8.036282e+002
1.479192e+002, 8.077966e+002
1.484013e+002, 8.113342e+002
1.488834e+002, 8.147766e+002
1.493655e+002, 8.186584e+002
1.498477e+002, 8.228983e+002
1.503298e+002, 8.276041e+002
1.508119e+002, 8.328978e+002
1.512940e+002, 8.388869e+002
1.517761e+002, 8.447022e+002
1.522583e+002, 8.505723e+002
1.527404e+002, 8.560558e+002
1.532225e+002, 8.607334e+002
1.537046e+002, 8.636913e+002
1.541867e+002, 8.666177e+002
1.546688e+002, 8.704902e+002
1.551510e+002, 8.762404e+002
1.556331e+002, 8.795861e+002
1.561152e+002, 8.794626e+002
1.565973e+002, 8.766619e+002
1.570794e+002, 8.722350e+002
1.575615e+002, 8.665128e+002
1.580437e+002, 8.591029e+002
1.585258e+002, 8.495541e+002
1.590079e+002, 8.372296e+002
1.594900e+002, 8.246205e+002
1.599721e+002, 8.120480e+002
1.604542e+002, 7.996909e+002
1.609364e+002, 7.878643e+002
1.614185e+002, 7.760084e+002
1.619006e+002, 7.651440e+002
1.623827e+002, 7.558209e+002
1.628648e+002, 7.481596e+002
1.633469e+002, 7.419239e+002
1.638291e+002, 7.378298e+002
1.643112e+002, 7.351658e+002
1.647933e+002, 7.321746e+002
1.652754e+002, 7.283026e+002
1.657575e+002, 7.236810e+002
1.662396e+002, 7.184720e+002
1.667218e+002, 7.129201e+002
1.672039e+002, 7.064002e+002
1.676860e+002, 6.980625e+002
1.681681e+002, 6.883751e+002
1.686502e+002, 6.784983e+002
1.691323e+002, 6.688226e+002
1.696145e+002, 6.595056e+002
1.700966e+002, 6.507977e+002
1.705787e+002, 6.429820e+002
1.710608e+002, 6.354454e+002
1.715429e+002, 6.274779e+002
1.720250e+002, 6.191769e+002
1.725072e+002, 6.114600e+002
1.729893e+002, 6.044385e+002
1.734714e+002, 5.982949e+002
1.739535e+002, 5.933958e+002
1.744356e+002, 5.903878e+002
1.749177e+002, 5.879807e+002
1.753999e+002, 5.845549e+002
1.758820e+002, 5.802263e+002
1.763641e+002, 5.762565e+002
1.768462e+002, 5.736885e+002
1.773283e+002, 5.720468e+002
1.778104e+002, 5.704514e+002
1.782926e+002, 5.687752e+002
1.787747e+002, 5.669495e+002
1.792568e+002, 5.650914e+002
1.797389e+002, 5.631923e+002
1.802210e+002, 5.606146e+002
1.807031e+002, 5.563051e+002
1.811853e+002, 5.508751e+002
1.816674e+002, 5.460149e+002
1.821495e+002, 5.424627e+002
1.826316e+002, 5.396859e+002
1.831137e+002, 5.369902e+002
1.835958e+002, 5.343569e+002
1.840780e+002, 5.313734e+002
1.845601e+002, 5.270269e+002
1.850422e+002, 5.218061e+002
1.855243e+002, 5.174769e+002
1.860064e+002, 5.149865e+002
1.864885e+002, 5.136713e+002
1.869707e+002, 5.120468e+002
1.874528e+002, 5.101072e+002
1.879349e+002, 5.077686e+002
1.884170e+002, 5.048597e+002
1.888991e+002, 5.014238e+002
1.893812e+002, 4.977960e+002
1.898634e+002, 4.940607e+002
1.903455e+002, 4.902031e+002
1.908276e+002, 4.859766e+002
1.913097e+002, 4.812573e+002
1.917918e+002, 4.766270e+002
1.922739e+002, 4.727839e+002
1.927561e+002, 4.696655e+002
1.932382e+002, 4.667353e+002
1.937203e+002, 4.637814e+002
1.942024e+002, 4.608385e+002
1.946845e+002, 4.580295e+002
1.951666e+002, 4.553470e+002
1.956488e+002, 4.528350e+002
1.961309e+002, 4.506359e+002
1.966130e+002, 4.487374e+002
1.970951e+002, 4.467735e+002
1.975772e+002, 4.445573e+002
1.980593e+002, 4.421230e+002
1.985415e+002, 4.397731e+002
1.990236e+002, 4.374588e+002
1.995057e+002, 4.354040e+002
1.999878e+002, 4.340518e+002
2.004699e+002, 4.335081e+002
2.009520e+002, 4.329846e+002
2.014342e+002, 4.322180e+002
2.019163e+002, 4.312269e+002
2.023984e+002, 4.303759e+002
2.028805e+002, 4.297011e+002
2.033626e+002, 4.291268e+002
2.038447e+002, 4.285883e+002
2.043269e+002, 4.281183e+002
2.048090e+002, 4.275158e+002
2.052911e+002, 4.265284e+002
2.057732e+002, 4.251180e+002
2.062553e+002, 4.246864e+002
2.067374e+002, 4.256065e+002
2.072196e+002, 4.268931e+002
2.077017e+002, 4.270673e+002
2.081838e+002, 4.257774e+002
2.086659e+002, 4.245451e+002
2.091480e+002, 4.238393e+002
2.096301e+002, 4.236676e+002
2.101123e+002, 4.238456e+002
2.105944e+002, 4.246112e+002
2.110765e+002, 4.253990e+002
2.115586e+002, 4.252572e+002
2.120407e+002, 4.237527e+002
2.125228e+002, 4.225425e+002
2.130050e+002, 4.223177e+002
2.134871e+002, 4.232384e+002
2.139692e+002, 4.234928e+002
2.144513e+002, 4.227932e+002
2.149334e+002, 4.217420e+002
2.154155e+002, 4.211807e+002
2.158977e+002, 4.212382e+002
2.163798e+002, 4.214757e+002
2.168619e+002, 4.217295e+002
2.173440e+002, 4.219584e+002
2.178261e+002, 4.226066e+002
2.183082e+002, 4.239239e+002
2.187904e+002, 4.254111e+002
2.192725e+002, 4.262791e+002
2.197546e+002, 4.261351e+002
2.202367e+002, 4.262425e+002
2.207188e+002, 4.270180e+002
2.212009e+002, 4.285756e+002
2.216831e+002, 4.301008e+002
2.221652e+002, 4.315212e+002
2.226473e+002, 4.329878e+002
2.231294e+002, 4.346901e+002
2.236115e+002, 4.367397e+002
2.240936e+002, 4.388361e+002
2.245758e+002, 4.409160e+002
2.250579e+002, 4.429565e+002
2.255400e+002, 4.450478e+002
2.260221e+002, 4.470233e+002
2.265042e+002, 4.491953e+002
2.269863e+002, 4.519974e+002
2.274685e+002, 4.558539e+002
2.279506e+002, 4.595640e+002
2.284327e+002, 4.625497e+002
2.289148e+002, 4.645640e+002
2.293969e+002, 4.679217e+002
2.298790e+002, 4.728983e+002
2.303612e+002, 4.789639e+002
2.308433e+002, 4.854500e+002
2.313254e+002, 4.923010e+002
2.318075e+002, 4.997887e+002
2.322896e+002, 5.080353e+002
2.327717e+002, 5.170429e+002
2.332539e+002, 5.264065e+002
2.337360e+002, 5.357313e+002
2.342181e+002, 5.455253e+002
2.347002e+002, 5.565226e+002
2.351823e+002, 5.691172e+002
2.356644e+002, 5.821160e+002
2.361466e+002, 5.953948e+002
2.366287e+002, 6.089534e+002
2.371108e+002, 6.224010e+002
2.375929e+002, 6.357405e+002
2.380750e+002, 6.487312e+002
2.385571e+002, 6.609785e+002
2.390393e+002, 6.720001e+002
2.395214e+002, 6.831974e+002
2.400035e+002, 6.946935e+002
2.404856e+002, 7.065740e+002
2.409677e+002, 7.191738e+002
2.414498e+002, 7.325400e+002
2.419320e+002, 7.465768e+002
2.424141e+002, 7.612563e+002
2.428962e+002, 7.760643e+002
2.433783e+002, 7.924376e+002
2.438604e+002, 8.105873e+002
2.443425e+002, 8.304969e+002
2.448247e+002, 8.520306e+002
2.453068e+002, 8.752383e+002
2.457889e+002, 8.999733e+002
2.462710e+002, 9.262304e+002
2.467531e+002, 9.532988e+002
2.472352e+002, 9.832905e+002
2.477174e+002, 1.017136e+003
2.481995e+002, 1.054390e+003
2.486816e+002, 1.092477e+003
2.491637e+002, 1.131841e+003
2.496458e+002, 1.171717e+003
2.501279e+002, 1.211287e+003
2.506101e+002, 1.251611e+003
2.510922e+002, 1.290463e+003
2.515743e+002, 1.328985e+003
2.520564e+002, 1.366417e+003
2.525385e+002, 1.394959e+003
2.530206e+002, 1.415231e+003
2.535028e+002, 1.425896e+003
2.539849e+002, 1.425928e+003
2.544670e+002, 1.415335e+003
2.549491e+002, 1.394135e+003
2.554312e+002, 1.360737e+003
2.559133e+002, 1.316570e+003
2.563955e+002, 1.266910e+003
2.568776e+002, 1.209198e+003
2.573597e+002, 1.149393e+003
2.578418e+002, 1.090764e+003
2.583239e+002, 1.031959e+003
2.588061e+002, 9.764410e+002
2.592882e+002, 9.235364e+002
2.597703e+002, 8.737220e+002
2.602524e+002, 8.301182e+002
2.607345e+002, 7.934476e+002
2.612166e+002, 7.610306e+002
2.616988e+002, 7.309573e+002
2.621809e+002, 7.036711e+002
2.626630e+002, 6.791518e+002
2.631451e+002, 6.578049e+002
2.636272e+002, 6.391912e+002
2.641093e+002, 6.228936e+002
2.645915e+002, 6.091093e+002
2.650736e+002, 5.969057e+002
2.655557e+002, 5.858658e+002
2.660378e+002, 5.764765e+002
2.665199e+002, 5.670214e+002
2.670020e+002, 5.573253e+002
2.674842e+002, 5.477367e+002
2.679663e+002, 5.391113e+002
2.684484e+002, 5.314094e+002
2.689305e+002, 5.248089e+002
2.694126e+002, 5.196543e+002
2.698947e+002, 5.161092e+002
2.703769e+002, 5.126315e+002
2.708590e+002, 5.091677e+002
2.713411e+002, 5.057800e+002
2.718232e+002, 5.027005e+002
2.723053e+002, 5.000135e+002
2.727874e+002, 4.972676e+002
2.732696e+002, 4.942541e+002
2.737517e+002, 4.909531e+002
2.742338e+002, 4.875785e+002
2.747159e+002, 4.841045e+002
2.751980e+002, 4.805659e+002
2.756801e+002, 4.771675e+002
2.761623e+002, 4.740003e+002
2.766444e+002, 4.704306e+002
2.771265e+002, 4.660915e+002
2.776086e+002, 4.610131e+002
2.780907e+002, 4.566616e+002
2.785728e+002, 4.532347e+002
2.790550e+002, 4.499306e+002
2.795371e+002, 4.457384e+002
2.800192e+002, 4.405864e+002
2.805013e+002, 4.355723e+002
2.809834e+002, 4.308770e+002
2.814655e+002, 4.265559e+002
2.819477e+002, 4.229984e+002
2.824298e+002, 4.203393e+002
2.829119e+002, 4.179542e+002
2.833940e+002, 4.152103e+002
2.838761e+002, 4.121138e+002
2.843582e+002, 4.093127e+002
2.848404e+002, 4.070092e+002
2.853225e+002, 4.050493e+002
2.858046e+002, 4.029118e+002
2.862867e+002, 4.005820e+002
2.867688e+002, 3.983910e+002
2.872509e+002, 3.966257e+002
2.877331e+002, 3.952571e+002
2.882152e+002, 3.941024e+002
2.886973e+002, 3.932562e+002
2.891794e+002, 3.924394e+002
2.896615e+002, 3.909241e+002
2.901436e+002, 3.887047e+002
2.906258e+002, 3.865843e+002
2.911079e+002, 3.851386e+002
2.915900e+002, 3.842464e+002
2.920721e+002, 3.833934e+002
2.925542e+002, 3.825487e+002
2.930363e+002, 3.816895e+002
2.935185e+002, 3.806562e+002
2.940006e+002, 3.794880e+002
2.944827e+002, 3.786165e+002
2.949648e+002, 3.782008e+002
2.954469e+002, 3.782486e+002
2.959290e+002, 3.791573e+002
2.964112e+002, 3.812255e+002
2.968933e+002, 3.828662e+002
2.973754e+002, 3.814821e+002
2.978575e+002, 3.778080e+002
2.983396e+002, 3.745284e+002
2.988217e+002, 3.732716e+002
2.993039e+002, 3.731830e+002
2.997860e+002, 3.728220e+002
3.002681e+002, 3.721327e+002
3.007502e+002, 3.714104e+002
3.012323e+002, 3.709940e+002
3.017144e+002, 3.707715e+002
3.021966e+002, 3.704947e+002
3.026787e+002, 3.700565e+002
3.031608e+002, 3.695152e+002
3.036429e+002, 3.689369e+002
3.041250e+002, 3.683255e+002
3.046071e+002, 3.676393e+002
3.050893e+002, 3.666289e+002
3.055714e+002, 3.655600e+002
3.060535e+002, 3.649147e+002
3.065356e+002, 3.651109e+002
3.070177e+002, 3.654875e+002
3.074998e+002, 3.654018e+002
3.079820e+002, 3.649321e+002
3.084641e+002, 3.644994e+002
3.089462e+002, 3.644478e+002
3.094283e+002, 3.645401e+002
3.099104e+002, 3.645102e+002
3.103925e+002, 3.642421e+002
3.108747e+002, 3.639366e+002
3.113568e+002, 3.637119e+002
3.118389e+002, 3.635581e+002
3.123210e+002, 3.634467e+002
3.128031e+002, 3.635355e+002
3.132852e+002, 3.635596e+002
3.137674e+002, 3.632173e+002
3.142495e+002, 3.622734e+002
3.147316e+002, 3.615701e+002
3.152137e+002, 3.618087e+002
3.156958e+002, 3.625440e+002
3.161779e+002, 3.630146e+002
3.166601e+002, 3.628170e+002
3.171422e+002, 3.623732e+002
3.176243e+002, 3.617987e+002
3.181064e+002, 3.610579e+002
3.185885e+002, 3.605600e+002
3.190706e+002, 3.606133e+002
3.195528e+002, 3.609293e+002
3.200349e+002, 3.611801e+002
3.205170e+002, 3.611215e+002
3.209991e+002, 3.611367e+002
3.214812e+002, 3.614030e+002
3.219633e+002, 3.619274e+002
3.224455e+002, 3.623740e+002
3.229276e+002, 3.627046e+002
3.234097e+002, 3.629143e+002
3.238918e+002, 3.629990e+002
3.243739e+002, 3.627538e+002
3.248560e+002, 3.626045e+002
3.253382e+002, 3.626636e+002
3.258203e+002, 3.628966e+002
3.263024e+002, 3.630745e+002
3.267845e+002, 3.631194e+002
3.272666e+002, 3.631470e+002
3.277487e+002, 3.632110e+002
3.282309e+002, 3.632706e+002
3.287130e+002, 3.634196e+002
3.291951e+002, 3.636914e+002
3.296772e+002, 3.640513e+002
3.301593e+002, 3.644084e+002
3.306414e+002, 3.646601e+002
3.311236e+002, 3.650269e+002
3.316057e+002, 3.656102e+002
3.320878e+002, 3.665041e+002
3.325699e+002, 3.673603e+002
3.330520e+002, 3.682871e+002
3.335341e+002, 3.691058e+002
3.340163e+002, 3.694930e+002
3.344984e+002, 3.691392e+002
3.349805e+002, 3.689673e+002
3.354626e+002, 3.692827e+002
3.359447e+002, 3.701170e+002
3.364268e+002, 3.707404e+002
3.369090e+002, 3.710577e+002
3.373911e+002, 3.713246e+002
3.378732e+002, 3.717349e+002
3.383553e+002, 3.722385e+002
3.388374e+002, 3.731032e+002
3.393195e+002, 3.744865e+002
3.398017e+002, 3.762450e+002
3.402838e+002, 3.778120e+002
3.407659e+002, 3.791721e+002
3.412480e+002, 3.803773e+002
3.417301e+002, 3.814813e+002
3.422122e+002, 3.824747e+002
3.426944e+002, 3.831669e+002
3.431765e+002, 3.832550e+002
3.436586e+002, 3.834388e+002
3.441407e+002, 3.857494e+002
3.446228e+002, 3.902433e+002
3.451049e+002, 3.940011e+002
3.455871e+002, 3.948983e+002
3.460692e+002, 3.934873e+002
3.465513e+002, 3.927660e+002
3.470334e+002, 3.929091e+002
3.475155e+002, 3.934598e+002
3.479977e+002, 3.940136e+002
3.484798e+002, 3.945388e+002
3.489619e+002, 3.948240e+002
3.494440e+002, 3.948904e+002
3.499261e+002, 3.946253e+002
3.504082e+002, 3.936697e+002
3.508904e+002, 3.920211e+002
3.513725e+002, 3.901983e+002
3.518546e+002, 3.886909e+002
3.523367e+002, 3.873129e+002
3.528188e+002, 3.856476e+002
3.533009e+002, 3.834472e+002
3.537831e+002, 3.810580e+002
3.542652e+002, 3.787645e+002
3.547473e+002, 3.765810e+002
3.552294e+002, 3.745821e+002
3.557115e+002, 3.728265e+002
3.561936e+002, 3.712797e+002
3.566758e+002, 3.699283e+002
3.571579e+002, 3.687902e+002
3.576400e+002, 3.677762e+002
3.581221e+002, 3.664692e+002
3.586042e+002, 3.652651e+002
3.590863e+002, 3.649155e+002
3.595685e+002, 3.672497e+002
3.600506e+002, 3.694472e+002
3.605327e+002, 3.694390e+002
3.610148e+002, 3.668240e+002
3.614969e+002, 3.643024e+002
3.619790e+002, 3.628520e+002
3.624612e+002, 3.621366e+002
3.629433e+002, 3.617723e+002
3.634254e+002, 3.617517e+002
3.639075e+002, 3.619600e+002
3.643896e+002, 3.625982e+002
3.648717e+002, 3.635825e+002
3.653539e+002, 3.640668e+002
3.658360e+002, 3.632471e+002
3.663181e+002, 3.622726e+002
3.668002e+002, 3.618254e+002
3.672823e+002, 3.626769e+002
3.677644e+002, 3.631535e+002
3.682466e+002, 3.628737e+002
3.687287e+002, 3.621231e+002
3.692108e+002, 3.617061e+002
3.696929e+002, 3.617623e+002
3.701750e+002, 3.620103e+002
3.706571e+002, 3.624276e+002
3.711393e+002, 3.631787e+002
3.716214e+002, 3.635497e+002
3.721035e+002, 3.633032e+002
3.725856e+002, 3.628652e+002
3.730677e+002, 3.627971e+002
3.735498e+002, 3.632516e+002
3.740320e+002, 3.637763e+002
3.745141e+002, 3.643500e+002
3.749962e+002, 3.649536e+002
3.754783e+002, 3.651757e+002
3.759604e+002, 3.648596e+002
3.764425e+002, 3.645175e+002
3.769247e+002, 3.646042e+002
3.774068e+002, 3.651814e+002
3.778889e+002, 3.657082e+002
3.783710e+002, 3.660681e+002
3.788531e+002, 3.663815e+002
3.793352e+002, 3.670175e+002
3.798174e+002, 3.680005e+002
3.802995e+002, 3.689175e+002
3.807816e+002, 3.694323e+002
3.812637e+002, 3.696202e+002
3.817458e+002, 3.699842e+002
3.822279e+002, 3.705563e+002
3.827101e+002, 3.712502e+002
3.831922e+002, 3.719042e+002
3.836743e+002, 3.725680e+002
3.841564e+002, 3.734781e+002
3.846385e+002, 3.750173e+002
3.851206e+002, 3.767237e+002
3.856028e+002, 3.776618e+002
3.860849e+002, 3.778678e+002
3.865670e+002, 3.780251e+002
3.870491e+002, 3.788334e+002
3.875312e+002, 3.799235e+002
3.880133e+002, 3.806612e+002
3.884955e+002, 3.807408e+002
3.889776e+002, 3.807125e+002
3.894597e+002, 3.812320e+002
3.899418e+002, 3.820717e+002
3.904239e+002, 3.825734e+002
3.909060e+002, 3.821402e+002
3.913882e+002, 3.813986e+002
3.918703e+002, 3.808643e+002
3.923524e+002, 3.806513e+002
3.928345e+002, 3.803141e+002
3.933166e+002, 3.794380e+002
3.937987e+002, 3.783660e+002
3.942809e+002, 3.775430e+002
3.947630e+002, 3.772564e+002
3.952451e+002, 3.770732e+002
3.957272e+002, 3.769809e+002
3.962093e+002, 3.769475e+002
3.966914e+002, 3.765675e+002
3.971736e+002, 3.755696e+002
3.976557e+002, 3.743196e+002
3.981378e+002, 3.730301e+002
3.986199e+002, 3.712134e+002
3.991020e+002, 3.700257e+002
3.995841e+002, 3.699833e+002
4.000663e+002, 3.705648e+002
4.005484e+002, 3.704921e+002
4.010305e+002, 3.691369e+002
4.015126e+002, 3.679197e+002
4.019947e+002, 3.674095e+002
4.024768e+002, 3.678357e+002
4.029590e+002, 3.677303e+002
4.034411e+002, 3.668723e+002
4.039232e+002, 3.657381e+002
4.044053e+002, 3.648266e+002
4.048874e+002, 3.641413e+002
4.053695e+002, 3.636949e+002
4.058517e+002, 3.635704e+002
4.063338e+002, 3.636758e+002
4.068159e+002, 3.635725e+002
4.072980e+002, 3.632298e+002
4.077801e+002, 3.628416e+002
4.082622e+002, 3.625506e+002
4.087444e+002, 3.623474e+002
4.092265e+002, 3.620880e+002
4.097086e+002, 3.617206e+002
4.101907e+002, 3.613853e+002
4.106728e+002, 3.614105e+002
4.111549e+002, 3.617212e+002
4.116371e+002, 3.618477e+002
4.121192e+002, 3.612411e+002
