##NAMES=Antigorite
##RRUFFID=R070228
##IDEAL CHEMISTRY=Mg_3_Si_2_O_5_(OH)_4_
##LOCALITY=Wood's Chrome Mine (Wood's Mine), Texas, Lancaster County, Pennsylvania, USA
##OWNER=RRUFF
##SOURCE=Michael Scott
##DESCRIPTION=Compact massive, light to dark green associated with chromite
##STATUS=The identification of this mineral has been confirmed by X-ray diffraction and chemical analysis
##URL=rruff.info/R070228
##MEASURED CHEMISTRY=(Mg_2.93_Fe_0.07_)_Î£=3_Si_2.00_O_5_(OH)_4_ ; trace amounts of Al and Mn; OH estimated by difference
175.9807, 1767.882
176.4628, 1760.458
176.9449, 1750.416
177.4271, 1749.203
177.9092, 1768.349
178.3913, 1795.846
178.8734, 1814.401
179.3555, 1813.001
179.8376, 1799.817
180.3197, 1799.746
180.8019, 1819.977
181.2840, 1841.273
181.7661, 1859.536
182.2482, 1874.577
182.7303, 1885.859
183.2124, 1892.946
183.6946, 1896.439
184.1767, 1897.372
184.6588, 1892.516
185.1409, 1890.939
185.6230, 1897.825
186.1051, 1907.756
186.5873, 1914.599
187.0694, 1915.399
187.5515, 1911.781
188.0336, 1906.848
188.5157, 1894.859
188.9978, 1892.493
189.4800, 1910.139
189.9621, 1934.672
190.4442, 1952.467
190.9263, 1957.140
191.4084, 1953.485
191.8905, 1951.984
192.3727, 1948.810
192.8548, 1955.738
193.3369, 1983.952
193.8190, 2017.121
194.3011, 2039.129
194.7832, 2043.502
195.2654, 2036.845
195.7475, 2032.378
196.2296, 2027.844
196.7117, 2030.482
197.1938, 2047.045
197.6759, 2066.706
198.1581, 2079.285
198.6402, 2081.516
199.1223, 2078.865
199.6044, 2081.879
200.0865, 2094.974
200.5686, 2104.973
201.0508, 2106.977
201.5329, 2108.301
202.0150, 2116.182
202.4971, 2132.131
202.9792, 2149.608
203.4613, 2156.599
203.9435, 2144.107
204.4256, 2141.653
204.9077, 2158.569
205.3898, 2178.800
205.8719, 2191.087
206.3540, 2193.439
206.8362, 2192.048
207.3183, 2195.865
207.8004, 2208.402
208.2825, 2217.054
208.7646, 2218.521
209.2467, 2219.093
209.7289, 2222.160
210.2110, 2228.189
210.6931, 2235.771
211.1752, 2243.601
211.6573, 2252.104
212.1395, 2259.064
212.6216, 2258.528
213.1037, 2261.492
213.5858, 2274.389
214.0679, 2296.516
214.5500, 2322.957
215.0322, 2350.469
215.5143, 2380.578
215.9964, 2400.654
216.4785, 2401.023
216.9606, 2400.575
217.4427, 2405.843
217.9249, 2416.513
218.4070, 2429.452
218.8891, 2442.492
219.3712, 2455.691
219.8533, 2466.881
220.3354, 2472.598
220.8176, 2479.624
221.2997, 2490.135
221.7818, 2503.394
222.2639, 2517.510
222.7460, 2530.859
223.2281, 2543.881
223.7103, 2560.099
224.1924, 2582.599
224.6745, 2605.289
225.1566, 2630.687
225.6387, 2654.823
226.1208, 2670.272
226.6030, 2671.327
227.0851, 2663.618
227.5672, 2671.449
228.0493, 2709.737
228.5314, 2744.382
229.0135, 2767.958
229.4957, 2785.542
229.9778, 2804.688
230.4599, 2829.081
230.9420, 2852.989
231.4241, 2861.328
231.9062, 2843.712
232.3884, 2827.450
232.8705, 2820.254
233.3526, 2813.594
233.8347, 2802.132
234.3168, 2783.756
234.7989, 2755.459
235.2811, 2708.898
235.7632, 2630.241
236.2453, 2566.164
236.7274, 2525.883
237.2095, 2495.222
237.6916, 2466.294
238.1738, 2437.009
238.6559, 2407.713
239.1380, 2378.086
239.6201, 2347.000
240.1022, 2319.722
240.5843, 2293.410
241.0665, 2273.422
241.5486, 2267.516
242.0307, 2272.849
242.5128, 2276.233
242.9949, 2261.421
243.4770, 2225.718
243.9592, 2204.223
244.4413, 2209.938
244.9234, 2218.457
245.4055, 2222.150
245.8876, 2221.292
246.3697, 2218.670
246.8519, 2216.576
247.3340, 2214.598
247.8161, 2208.628
248.2982, 2192.685
248.7803, 2180.922
249.2624, 2181.136
249.7446, 2187.839
250.2267, 2192.136
250.7088, 2189.016
251.1909, 2180.692
251.6730, 2173.130
252.1551, 2165.625
252.6373, 2160.460
253.1194, 2156.603
253.6015, 2155.801
254.0836, 2161.520
254.5657, 2176.219
255.0478, 2193.188
255.5300, 2201.315
256.0121, 2198.579
256.4942, 2194.511
256.9763, 2190.524
257.4584, 2186.946
257.9406, 2183.534
258.4227, 2180.188
258.9048, 2178.585
259.3869, 2181.925
259.8690, 2190.555
260.3511, 2195.925
260.8333, 2193.499
261.3154, 2189.849
261.7975, 2190.581
262.2796, 2195.538
262.7617, 2199.332
263.2438, 2195.982
263.7260, 2187.263
264.2081, 2184.429
264.6902, 2192.621
265.1723, 2200.652
265.6544, 2199.592
266.1365, 2191.585
266.6187, 2183.521
267.1008, 2179.690
267.5829, 2177.809
268.0650, 2171.618
268.5471, 2158.738
269.0292, 2148.880
269.5114, 2151.972
269.9935, 2162.483
270.4756, 2171.623
270.9577, 2177.172
271.4398, 2180.397
271.9219, 2184.655
272.4041, 2190.175
272.8862, 2187.440
273.3683, 2164.861
273.8504, 2134.142
274.3325, 2117.846
274.8146, 2121.583
275.2968, 2131.470
275.7789, 2142.022
276.2610, 2152.010
276.7431, 2154.818
277.2252, 2144.283
277.7073, 2130.784
278.1895, 2133.816
278.6716, 2157.165
279.1537, 2175.689
279.6358, 2178.733
280.1179, 2171.406
280.6000, 2159.554
281.0822, 2143.070
281.5643, 2130.638
282.0464, 2135.283
282.5285, 2158.627
283.0106, 2177.880
283.4927, 2191.574
283.9749, 2199.429
284.4570, 2197.807
284.9391, 2187.572
285.4212, 2179.583
285.9033, 2184.063
286.3854, 2200.666
286.8676, 2208.849
287.3497, 2199.506
287.8318, 2191.376
288.3139, 2194.916
288.7960, 2207.203
289.2781, 2220.051
289.7603, 2229.262
290.2424, 2235.069
290.7245, 2238.063
291.2066, 2233.439
291.6887, 2232.106
292.1708, 2237.687
292.6530, 2246.744
293.1351, 2255.478
293.6172, 2262.509
294.0993, 2267.917
294.5814, 2271.479
295.0635, 2269.788
295.5457, 2273.072
296.0278, 2284.593
296.5099, 2298.297
296.9920, 2310.963
297.4741, 2321.676
297.9562, 2330.137
298.4384, 2336.523
298.9205, 2341.467
299.4026, 2339.538
299.8847, 2316.939
300.3668, 2301.400
300.8489, 2307.149
301.3311, 2327.502
301.8131, 2347.310
302.2953, 2356.489
302.7774, 2357.234
303.2595, 2360.972
303.7416, 2371.344
304.2237, 2379.287
304.7058, 2383.027
305.1880, 2383.652
305.6701, 2381.457
306.1522, 2376.422
306.6343, 2371.111
307.1164, 2371.407
307.5985, 2380.668
308.0807, 2382.949
308.5628, 2365.885
309.0449, 2347.561
309.5270, 2339.359
310.0091, 2341.989
310.4912, 2347.711
310.9734, 2351.343
311.4555, 2352.796
311.9376, 2350.194
312.4197, 2339.535
312.9018, 2330.481
313.3839, 2327.797
313.8661, 2330.986
314.3482, 2339.250
314.8303, 2356.710
315.3124, 2377.064
315.7945, 2390.363
316.2766, 2396.845
316.7588, 2394.243
317.2409, 2370.519
317.7230, 2340.504
318.2051, 2329.776
318.6872, 2348.551
319.1693, 2374.384
319.6515, 2393.574
320.1336, 2406.416
320.6157, 2413.764
321.0978, 2414.134
321.5799, 2411.757
322.0620, 2414.167
322.5442, 2422.375
323.0263, 2428.122
323.5084, 2426.931
323.9905, 2422.907
324.4726, 2420.850
324.9547, 2421.572
325.4369, 2424.635
325.9190, 2429.348
326.4011, 2435.836
326.8832, 2446.631
327.3653, 2470.051
327.8474, 2490.089
328.3296, 2494.059
328.8117, 2486.515
329.2938, 2482.377
329.7759, 2491.031
330.2580, 2508.710
330.7401, 2518.033
331.2223, 2511.656
331.7044, 2505.998
332.1865, 2500.954
332.6686, 2498.246
333.1507, 2500.364
333.6328, 2507.836
334.1150, 2518.004
334.5971, 2526.930
335.0792, 2533.617
335.5613, 2541.711
336.0434, 2554.405
336.5255, 2565.532
337.0077, 2571.032
337.4898, 2571.834
337.9719, 2571.640
338.4540, 2573.032
338.9361, 2575.990
339.4182, 2580.018
339.9004, 2582.205
340.3825, 2590.260
340.8646, 2612.530
341.3467, 2639.075
341.8288, 2657.021
342.3109, 2661.102
342.7931, 2657.546
343.2752, 2652.573
343.7573, 2644.650
344.2394, 2646.655
344.7215, 2668.187
345.2036, 2696.094
345.6858, 2720.562
346.1679, 2741.107
346.6500, 2760.647
347.1321, 2780.902
347.6142, 2801.540
348.0963, 2822.592
348.5785, 2845.185
349.0606, 2864.700
349.5427, 2873.967
350.0248, 2876.780
350.5069, 2884.540
350.9890, 2899.594
351.4712, 2920.089
351.9533, 2949.049
352.4354, 2984.027
352.9175, 3011.496
353.3996, 3023.140
353.8817, 3025.594
354.3639, 3035.884
354.8460, 3052.918
355.3281, 3077.318
355.8102, 3117.817
356.2923, 3161.901
356.7744, 3190.014
357.2566, 3199.337
357.7387, 3209.303
358.2208, 3243.669
358.7029, 3309.963
359.1850, 3358.736
359.6671, 3377.789
360.1493, 3394.089
360.6314, 3420.640
361.1135, 3453.890
361.5956, 3482.792
362.0777, 3500.141
362.5598, 3511.277
363.0420, 3537.013
363.5241, 3593.031
364.0062, 3638.381
364.4883, 3661.431
364.9704, 3677.339
365.4525, 3699.116
365.9347, 3729.253
366.4168, 3760.973
366.8989, 3785.795
367.3810, 3803.374
367.8631, 3821.867
368.3452, 3831.502
368.8274, 3855.520
369.3095, 3914.852
369.7916, 3996.554
370.2737, 4069.097
370.7558, 4113.946
371.2379, 4144.438
371.7201, 4182.342
372.2022, 4228.362
372.6843, 4274.930
373.1664, 4323.738
373.6485, 4367.542
374.1306, 4397.693
374.6128, 4413.888
375.0949, 4416.474
375.5770, 4404.730
376.0591, 4379.559
376.5412, 4343.953
377.0233, 4299.098
377.5055, 4238.587
377.9876, 4150.547
378.4697, 4031.512
378.9518, 3926.706
379.4339, 3854.163
379.9160, 3780.535
380.3982, 3681.476
380.8803, 3564.760
381.3624, 3454.600
381.8445, 3363.880
382.3266, 3289.266
382.8087, 3219.284
383.2909, 3154.855
383.7730, 3095.260
384.2551, 3036.162
384.7372, 2984.679
385.2193, 2950.798
385.7014, 2933.552
386.1836, 2918.442
386.6657, 2888.718
387.1478, 2843.261
387.6299, 2807.039
388.1120, 2784.538
388.5941, 2766.663
389.0763, 2753.355
389.5584, 2741.873
390.0405, 2727.727
390.5226, 2707.892
391.0047, 2687.422
391.4868, 2677.188
391.9690, 2679.274
392.4511, 2670.873
392.9332, 2633.300
393.4153, 2594.688
393.8974, 2584.882
394.3795, 2603.796
394.8617, 2621.216
395.3438, 2622.062
395.8259, 2612.118
396.3080, 2598.999
396.7901, 2583.063
397.2722, 2568.716
397.7544, 2556.908
398.2365, 2549.705
398.7186, 2554.031
399.2007, 2588.615
399.6828, 2613.554
400.1649, 2605.634
400.6471, 2579.703
401.1292, 2559.559
401.6113, 2552.943
402.0934, 2555.061
402.5755, 2559.778
403.0576, 2570.401
403.5398, 2572.872
404.0219, 2555.893
404.5040, 2542.389
404.9861, 2550.579
405.4682, 2572.363
405.9503, 2585.524
406.4325, 2574.846
406.9146, 2547.862
407.3967, 2531.407
407.8788, 2529.364
408.3609, 2530.248
408.8430, 2533.927
409.3252, 2538.019
409.8073, 2540.344
410.2894, 2540.680
410.7715, 2541.078
411.2536, 2546.542
411.7357, 2554.588
412.2179, 2548.703
412.7000, 2519.672
413.1821, 2496.408
413.6642, 2508.036
414.1463, 2539.220
414.6284, 2559.991
415.1106, 2561.642
415.5927, 2555.424
416.0748, 2547.191
416.5569, 2537.539
417.0390, 2527.817
417.5211, 2518.064
418.0033, 2510.090
418.4854, 2506.973
418.9675, 2510.343
419.4496, 2513.402
419.9317, 2519.382
420.4138, 2522.132
420.8960, 2515.723
421.3781, 2502.067
421.8602, 2486.973
422.3423, 2473.483
422.8244, 2462.875
423.3065, 2461.116
423.7887, 2476.742
424.2708, 2488.042
424.7529, 2487.562
425.2350, 2485.743
425.7171, 2493.233
426.1992, 2510.373
426.6814, 2526.432
427.1635, 2528.969
427.6456, 2519.502
428.1277, 2516.294
428.6098, 2521.512
429.0919, 2528.922
429.5741, 2538.465
430.0562, 2547.303
430.5383, 2549.865
431.0204, 2541.582
431.5025, 2533.848
431.9846, 2538.786
432.4668, 2552.575
432.9489, 2560.930
433.4310, 2559.355
433.9131, 2554.305
434.3952, 2552.947
434.8773, 2555.616
435.3595, 2559.272
435.8416, 2563.513
436.3237, 2568.934
436.8058, 2577.031
437.2879, 2586.634
437.7701, 2595.797
438.2522, 2603.785
438.7343, 2608.907
439.2164, 2605.496
439.6985, 2578.884
440.1806, 2570.651
440.6628, 2596.640
441.1449, 2626.446
441.6270, 2639.595
442.1091, 2637.386
442.5912, 2634.087
443.0733, 2640.944
443.5555, 2654.830
444.0376, 2662.560
444.5197, 2660.729
445.0018, 2662.342
445.4839, 2678.094
445.9660, 2696.840
446.4482, 2706.477
446.9303, 2704.330
447.4124, 2702.370
447.8945, 2710.316
448.3766, 2723.170
448.8587, 2728.984
449.3409, 2725.652
449.8230, 2723.247
450.3051, 2730.218
450.7872, 2745.659
451.2693, 2758.580
451.7514, 2768.890
452.2336, 2777.018
452.7157, 2781.820
453.1978, 2784.951
453.6799, 2788.677
454.1620, 2793.637
454.6441, 2798.832
455.1263, 2802.900
455.6084, 2805.554
456.0905, 2808.677
456.5726, 2812.294
457.0547, 2816.367
457.5368, 2825.511
458.0190, 2833.978
458.5011, 2831.874
458.9832, 2814.029
459.4653, 2788.990
459.9474, 2766.600
460.4295, 2746.884
460.9117, 2735.514
461.3938, 2742.106
461.8759, 2745.554
462.3580, 2724.603
462.8401, 2683.277
463.3222, 2641.052
463.8044, 2599.520
464.2865, 2561.961
464.7686, 2528.920
465.2507, 2501.939
465.7328, 2489.730
466.2149, 2498.654
466.6971, 2515.122
467.1792, 2511.971
467.6613, 2474.692
468.1434, 2447.794
468.6255, 2439.319
469.1076, 2433.986
469.5898, 2423.039
470.0719, 2406.905
470.5540, 2389.370
471.0361, 2372.223
471.5182, 2356.677
472.0003, 2347.447
472.4825, 2349.207
472.9646, 2344.659
473.4467, 2320.469
473.9288, 2295.764
474.4109, 2283.690
474.8930, 2284.204
475.3752, 2287.490
475.8573, 2289.807
476.3394, 2290.585
476.8215, 2286.639
477.3036, 2277.858
477.7857, 2274.985
478.2679, 2286.681
478.7500, 2304.974
479.2321, 2308.959
479.7142, 2291.125
480.1963, 2280.014
480.6784, 2288.782
481.1606, 2301.391
481.6427, 2301.857
482.1248, 2290.500
482.6069, 2278.823
483.0890, 2275.748
483.5711, 2279.155
484.0533, 2276.499
484.5354, 2259.357
485.0175, 2250.260
485.4996, 2259.613
485.9817, 2272.167
486.4638, 2274.787
486.9460, 2266.750
487.4281, 2257.856
487.9102, 2255.503
488.3923, 2258.180
488.8744, 2262.267
489.3565, 2268.377
489.8387, 2271.739
490.3208, 2266.825
490.8029, 2259.318
491.2850, 2262.080
491.7671, 2280.706
492.2492, 2293.344
492.7314, 2285.955
493.2135, 2272.402
493.6956, 2268.693
494.1777, 2275.933
494.6598, 2286.343
495.1419, 2294.698
495.6241, 2300.667
496.1062, 2302.204
496.5883, 2296.679
497.0704, 2290.108
497.5525, 2282.139
498.0346, 2274.047
498.5168, 2265.694
498.9989, 2257.774
499.4810, 2253.294
499.9631, 2257.925
500.4452, 2267.866
500.9273, 2267.060
501.4095, 2252.655
501.8916, 2239.365
502.3737, 2232.380
502.8558, 2231.121
503.3379, 2236.720
503.8200, 2253.151
504.3022, 2259.478
504.7843, 2235.356
505.2664, 2204.149
505.7485, 2195.462
506.2306, 2209.293
506.7127, 2225.874
507.1949, 2232.362
507.6770, 2230.624
508.1591, 2228.619
508.6412, 2223.506
509.1233, 2222.514
509.6054, 2230.015
510.0876, 2238.486
510.5697, 2243.374
511.0518, 2243.956
511.5339, 2240.556
512.0161, 2231.138
512.4982, 2219.355
512.9803, 2215.947
513.4624, 2222.139
513.9445, 2229.662
514.4266, 2237.060
514.9088, 2243.180
515.3909, 2246.735
515.8730, 2247.686
516.3551, 2247.019
516.8372, 2242.546
517.3193, 2238.421
517.8015, 2238.248
518.2836, 2241.963
518.7657, 2249.382
519.2478, 2261.097
519.7299, 2273.213
520.2120, 2275.953
520.6942, 2262.645
521.1763, 2252.550
521.6584, 2241.816
522.1405, 2237.403
522.6226, 2248.627
523.1047, 2269.258
523.5869, 2283.355
524.0690, 2281.135
524.5511, 2271.576
525.0332, 2269.667
525.5153, 2275.349
525.9974, 2279.126
526.4796, 2278.289
526.9617, 2275.621
527.4438, 2272.902
527.9259, 2270.321
528.4080, 2270.943
528.8901, 2283.301
529.3723, 2290.968
529.8544, 2277.967
530.3365, 2254.440
530.8186, 2240.231
531.3007, 2242.038
531.7828, 2253.061
532.2650, 2265.399
532.7471, 2280.662
533.2292, 2287.321
533.7113, 2276.900
534.1934, 2267.350
534.6755, 2268.077
535.1577, 2271.384
535.6398, 2265.181
536.1219, 2245.112
536.6040, 2223.689
537.0861, 2210.641
537.5682, 2205.544
538.0504, 2210.465
538.5325, 2227.501
539.0146, 2239.957
539.4967, 2234.012
539.9788, 2213.713
540.4609, 2199.780
540.9431, 2197.443
541.4252, 2193.374
541.9073, 2180.336
542.3894, 2167.308
542.8715, 2163.349
543.3536, 2168.784
543.8358, 2178.389
544.3179, 2189.033
544.8000, 2199.484
545.2821, 2203.597
545.7642, 2198.786
546.2463, 2194.650
546.7285, 2190.374
547.2106, 2190.292
547.6927, 2202.558
548.1748, 2225.395
548.6569, 2239.240
549.1390, 2231.693
549.6211, 2213.532
550.1032, 2190.801
550.5853, 2166.546
551.0674, 2154.229
551.5496, 2160.335
552.0317, 2174.389
552.5138, 2179.016
552.9959, 2169.501
553.4780, 2166.601
553.9601, 2177.603
554.4423, 2186.438
554.9244, 2185.359
555.4065, 2178.262
555.8886, 2171.760
556.3707, 2168.273
556.8528, 2165.198
557.3350, 2156.738
557.8171, 2144.498
558.2992, 2143.459
558.7813, 2158.542
559.2634, 2173.527
559.7455, 2176.735
560.2277, 2171.718
560.7098, 2170.692
561.1919, 2176.688
561.6740, 2181.530
562.1561, 2184.593
562.6382, 2184.072
563.1204, 2175.368
563.6025, 2160.055
564.0846, 2146.462
564.5667, 2140.442
565.0488, 2141.065
565.5309, 2145.234
566.0131, 2155.241
566.4952, 2162.985
566.9773, 2165.779
567.4594, 2166.879
567.9415, 2168.033
568.4236, 2169.239
568.9058, 2169.977
569.3879, 2170.757
569.8700, 2170.316
570.3521, 2163.563
570.8342, 2154.040
571.3163, 2156.410
571.7985, 2176.204
572.2806, 2198.472
572.7627, 2204.759
573.2448, 2193.177
573.7269, 2183.500
574.2090, 2172.747
574.6912, 2167.215
575.1733, 2172.976
575.6554, 2182.428
576.1375, 2187.161
576.6196, 2185.379
577.1017, 2181.229
577.5839, 2179.119
578.0660, 2177.649
578.5481, 2170.605
579.0302, 2156.962
579.5123, 2146.020
579.9944, 2141.550
580.4766, 2142.697
580.9587, 2149.364
581.4408, 2163.434
581.9229, 2174.214
582.4050, 2180.976
582.8871, 2183.271
583.3693, 2174.508
583.8514, 2161.803
584.3335, 2161.867
584.8156, 2182.503
585.2977, 2209.904
585.7798, 2222.315
586.2620, 2218.667
586.7441, 2210.700
587.2262, 2192.634
587.7083, 2180.692
588.1904, 2189.184
588.6725, 2208.472
589.1547, 2223.190
589.6368, 2230.139
590.1189, 2235.704
590.6010, 2245.682
591.0831, 2254.544
591.5652, 2252.769
592.0474, 2241.475
592.5295, 2231.363
593.0116, 2229.571
593.4937, 2233.901
593.9758, 2237.502
594.4579, 2239.217
594.9401, 2242.920
595.4222, 2249.744
595.9043, 2257.924
596.3864, 2266.703
596.8685, 2276.147
597.3506, 2286.672
597.8328, 2298.941
598.3149, 2311.251
598.7970, 2323.170
599.2791, 2333.873
599.7612, 2340.457
600.2433, 2342.374
600.7255, 2343.889
601.2076, 2348.963
601.6897, 2356.845
602.1718, 2361.364
602.6539, 2358.310
603.1360, 2357.609
603.6182, 2356.385
604.1003, 2360.554
604.5824, 2380.692
605.0645, 2411.745
605.5466, 2433.094
606.0287, 2427.998
606.5109, 2413.656
606.9930, 2418.664
607.4751, 2440.112
607.9572, 2453.921
608.4393, 2453.042
608.9214, 2447.490
609.4036, 2446.446
609.8857, 2449.958
610.3678, 2446.978
610.8499, 2462.235
611.3320, 2472.285
611.8141, 2477.407
612.2963, 2462.843
612.7784, 2473.699
613.2605, 2474.368
613.7426, 2474.619
614.2247, 2489.054
614.7068, 2477.352
615.1890, 2491.563
615.6711, 2495.429
616.1532, 2504.030
616.6353, 2502.380
617.1174, 2503.895
617.5995, 2515.665
618.0817, 2521.758
618.5638, 2518.927
619.0459, 2527.829
619.5280, 2515.769
620.0101, 2522.102
620.4922, 2536.373
620.9744, 2534.058
621.4565, 2543.147
621.9386, 2547.893
622.4207, 2532.900
622.9028, 2552.234
623.3849, 2556.723
623.8671, 2545.969
624.3492, 2564.127
624.8313, 2555.475
625.3134, 2556.392
625.7955, 2564.511
626.2776, 2565.122
626.7598, 2577.571
627.2419, 2578.616
627.7240, 2578.642
628.2061, 2583.114
628.6882, 2574.987
629.1703, 2590.234
629.6525, 2589.516
630.1346, 2596.733
630.6167, 2605.749
631.0988, 2600.991
631.5809, 2602.722
632.0630, 2610.951
632.5452, 2617.028
633.0273, 2617.756
633.5094, 2615.888
633.9915, 2614.349
634.4736, 2613.112
634.9557, 2611.452
635.4379, 2606.225
635.9200, 2603.710
636.4021, 2609.847
636.8842, 2620.122
637.3663, 2627.393
637.8484, 2630.043
638.3306, 2631.490
638.8127, 2635.681
639.2948, 2641.525
639.7769, 2641.458
640.2590, 2633.472
640.7411, 2626.584
641.2233, 2622.495
641.7054, 2621.478
642.1875, 2624.590
642.6696, 2631.476
643.1517, 2637.748
643.6339, 2646.792
644.1160, 2650.423
644.5981, 2638.874
645.0802, 2621.084
645.5623, 2610.891
646.0444, 2610.964
646.5266, 2614.511
647.0087, 2615.671
647.4908, 2614.787
647.9729, 2612.969
648.4550, 2609.503
648.9371, 2608.312
649.4193, 2612.964
649.9014, 2617.429
650.3835, 2614.698
650.8656, 2605.945
651.3477, 2599.399
651.8298, 2598.817
652.3120, 2597.998
652.7941, 2592.668
653.2762, 2586.014
653.7583, 2583.117
654.2404, 2584.180
654.7225, 2584.304
655.2047, 2578.624
655.6868, 2570.220
656.1689, 2570.365
656.6510, 2580.657
657.1331, 2589.242
657.6152, 2591.255
658.0974, 2594.304
658.5795, 2606.781
659.0616, 2626.609
659.5437, 2644.530
660.0258, 2662.490
660.5079, 2675.060
660.9901, 2677.125
661.4722, 2674.966
661.9543, 2673.589
662.4364, 2674.513
662.9185, 2678.547
663.4006, 2685.927
663.8828, 2697.725
664.3649, 2720.034
664.8470, 2753.524
665.3291, 2773.698
665.8112, 2771.954
666.2933, 2768.211
666.7755, 2779.004
667.2576, 2800.047
667.7397, 2811.937
668.2218, 2802.215
668.7039, 2803.540
669.1860, 2827.944
