##NAMES=Antlerite
##RRUFFID=R110045
##IDEAL CHEMISTRY=Cu^2+^_3_(S^6+^O_4_)(OH)_4_
##LOCALITY=Childs Aldwinkle mine, Bunker Hill District, Copper Creek, Pinal County, Arizona, USA
##OWNER=RRUFF
##SOURCE=Bob Downs, collected March 2011
##DESCRIPTION=Green granular aggregate
##STATUS=The identification of this mineral has been confirmed by single-crystal X-ray diffraction.
##URL=rruff.info/R110045
175.3447, 696.1141
175.8268, 693.8511
176.3090, 688.4945
176.7911, 680.0416
177.2732, 673.7880
177.7553, 673.6608
178.2374, 676.2920
178.7195, 677.1321
179.2017, 672.1833
179.6838, 665.2906
180.1659, 662.7004
180.6480, 664.5880
181.1301, 668.0043
181.6122, 671.2193
182.0944, 673.8998
182.5765, 674.7931
183.0586, 671.6575
183.5407, 666.6678
184.0228, 663.6099
184.5049, 662.2809
184.9871, 664.3612
185.4692, 674.8557
185.9513, 692.0443
186.4334, 706.0705
186.9155, 712.2557
187.3976, 711.7720
187.8798, 706.2321
188.3619, 693.9531
188.8440, 683.3111
189.3261, 691.0375
189.8082, 715.4917
190.2903, 734.1534
190.7725, 728.8663
191.2546, 705.1720
191.7367, 697.5969
192.2188, 710.5977
192.7009, 732.0215
193.1830, 742.1206
193.6652, 740.9029
194.1473, 736.7294
194.6294, 730.4259
195.1115, 722.8213
195.5936, 727.4237
196.0757, 748.3256
196.5579, 775.8334
197.0400, 790.7123
197.5221, 792.0542
198.0042, 791.0458
198.4863, 793.6511
198.9684, 799.8959
199.4506, 806.1098
199.9327, 811.6666
200.4148, 817.4493
200.8969, 825.5602
201.3790, 836.3838
201.8611, 847.8802
202.3433, 859.5826
202.8254, 871.7340
203.3075, 880.7334
203.7896, 884.5414
204.2717, 886.4811
204.7538, 896.5222
205.2360, 917.0677
205.7181, 936.7646
206.2002, 947.5121
206.6823, 947.4040
207.1644, 950.9673
207.6465, 960.3339
208.1287, 973.5004
208.6108, 984.5228
209.0929, 992.4830
209.5750, 1000.840
210.0571, 1012.833
210.5392, 1030.424
211.0214, 1042.670
211.5035, 1048.032
211.9856, 1047.660
212.4677, 1045.526
212.9498, 1041.746
213.4319, 1036.022
213.9141, 1027.729
214.3962, 1016.051
214.8783, 1004.813
215.3604, 994.6991
215.8425, 985.2358
216.3246, 974.1788
216.8067, 959.1472
217.2889, 946.8524
217.7710, 943.2614
218.2531, 954.1824
218.7352, 955.5809
219.2173, 940.7651
219.6994, 914.7035
220.1816, 902.3235
220.6637, 908.6487
221.1458, 919.4409
221.6279, 925.0955
222.1100, 921.6989
222.5921, 923.8158
223.0743, 934.0845
223.5564, 950.7878
224.0385, 967.0389
224.5206, 983.8595
225.0027, 998.1511
225.4848, 1006.150
225.9670, 1000.743
226.4491, 1006.660
226.9312, 1029.640
227.4133, 1065.691
227.8954, 1098.213
228.3775, 1130.703
228.8597, 1153.793
229.3418, 1160.840
229.8239, 1147.883
230.3060, 1127.927
230.7881, 1100.341
231.2702, 1066.208
231.7524, 1031.081
232.2345, 992.6532
232.7166, 957.0261
233.1987, 928.2497
233.6808, 907.7161
234.1629, 890.8942
234.6451, 876.9875
235.1272, 866.4612
235.6093, 861.8664
236.0914, 867.5794
236.5735, 873.2188
237.0556, 872.2915
237.5378, 859.6365
238.0199, 852.0479
238.5020, 853.1075
238.9841, 859.9723
239.4662, 860.6263
239.9483, 851.1047
240.4305, 840.8556
240.9126, 834.3050
241.3947, 830.6118
241.8768, 833.1170
242.3589, 846.3843
242.8410, 865.6921
243.3232, 873.5832
243.8053, 863.3073
244.2874, 850.7985
244.7695, 843.9393
245.2516, 844.1068
245.7337, 847.0629
246.2159, 855.3738
246.6980, 866.0352
247.1801, 868.0225
247.6622, 853.4681
248.1443, 842.1133
248.6264, 844.8947
249.1086, 871.0885
249.5907, 888.8085
250.0728, 894.3690
250.5549, 892.0759
251.0370, 894.2629
251.5191, 906.5659
252.0013, 914.4474
252.4834, 909.0240
252.9655, 879.3942
253.4476, 865.8727
253.9297, 874.3890
254.4118, 896.3628
254.8940, 913.3782
255.3761, 925.0791
255.8582, 932.4577
256.3403, 934.4054
256.8224, 927.3218
257.3046, 927.0469
257.7867, 936.1022
258.2688, 950.3048
258.7509, 960.9539
259.2330, 964.8834
259.7151, 971.4873
260.1973, 985.7173
260.6794, 1010.087
261.1615, 1029.858
261.6436, 1044.947
262.1257, 1055.344
262.6078, 1059.960
263.0900, 1056.314
263.5721, 1052.835
264.0542, 1053.083
264.5363, 1058.141
265.0184, 1059.585
265.5005, 1056.366
265.9827, 1050.870
266.4648, 1048.389
266.9469, 1053.318
267.4290, 1048.178
267.9111, 1023.741
268.3932, 978.3038
268.8754, 943.9932
269.3575, 924.0759
269.8396, 910.2253
270.3217, 891.2614
270.8038, 864.6693
271.2859, 843.0456
271.7681, 831.6525
272.2502, 830.0658
272.7323, 823.8104
273.2144, 810.9782
273.6965, 797.5585
274.1786, 790.6989
274.6608, 791.6104
275.1429, 792.1554
275.6250, 789.9854
276.1071, 785.6519
276.5892, 783.1089
277.0714, 782.3949
277.5535, 783.4910
278.0356, 786.8144
278.5177, 792.5603
278.9998, 798.3979
279.4819, 803.6271
279.9641, 808.6384
280.4462, 815.7963
280.9283, 825.9730
281.4104, 834.6100
281.8925, 836.2244
282.3746, 830.6654
282.8568, 829.4572
283.3389, 835.4821
283.8210, 846.2731
284.3031, 855.8932
284.7852, 864.5685
285.2673, 870.6171
285.7495, 870.5101
286.2316, 865.0562
286.7137, 865.0068
287.1958, 872.3206
287.6779, 884.7886
288.1600, 900.2098
288.6422, 918.6964
289.1243, 933.6784
289.6064, 936.5643
290.0885, 930.6580
290.5706, 933.8531
291.0527, 949.0994
291.5349, 970.5684
292.0170, 989.6053
292.4991, 1006.280
292.9812, 1023.501
293.4633, 1044.159
293.9454, 1066.604
294.4276, 1085.953
294.9097, 1102.064
295.3918, 1113.753
295.8739, 1119.305
296.3560, 1118.939
296.8381, 1113.875
297.3203, 1103.694
297.8024, 1089.459
298.2845, 1072.125
298.7666, 1051.332
299.2487, 1030.680
299.7308, 1014.249
300.2130, 1000.721
300.6951, 986.6095
301.1772, 971.4150
301.6593, 954.4482
302.1414, 931.8677
302.6235, 904.0665
303.1057, 879.7374
303.5878, 869.1210
304.0699, 866.9847
304.5520, 863.8851
305.0341, 855.6613
305.5162, 846.1618
305.9984, 838.8531
306.4805, 833.7227
306.9626, 830.2049
307.4447, 829.8428
307.9268, 830.3193
308.4089, 828.5087
308.8911, 822.7546
309.3732, 815.8310
309.8553, 807.2872
310.3374, 798.7241
310.8195, 795.4731
311.3016, 806.2584
311.7838, 820.8149
312.2659, 829.8290
312.7480, 830.0267
313.2301, 827.9159
313.7122, 825.7181
314.1943, 824.0277
314.6765, 824.1564
315.1586, 828.0355
315.6407, 832.9597
316.1228, 836.9814
316.6049, 839.3431
317.0870, 842.9767
317.5692, 850.5516
318.0513, 859.8510
318.5334, 867.7313
319.0155, 873.1287
319.4976, 876.9507
319.9797, 877.5500
320.4619, 874.1693
320.9440, 876.3087
321.4261, 892.2347
321.9082, 912.6066
322.3903, 928.5225
322.8724, 931.7408
323.3546, 936.6943
323.8367, 947.6439
324.3188, 964.4758
324.8009, 981.7863
325.2830, 998.8180
325.7651, 1015.839
326.2473, 1032.980
326.7294, 1051.272
327.2115, 1068.558
327.6936, 1085.552
328.1757, 1101.653
328.6578, 1114.593
329.1400, 1124.369
329.6221, 1131.066
330.1042, 1134.872
330.5863, 1136.704
331.0684, 1133.948
331.5505, 1123.637
332.0327, 1109.286
332.5148, 1099.184
332.9969, 1098.380
333.4790, 1094.859
333.9611, 1083.024
334.4432, 1059.021
334.9254, 1042.136
335.4075, 1034.573
335.8896, 1032.388
336.3717, 1030.565
336.8538, 1029.273
337.3359, 1027.951
337.8180, 1026.576
338.3001, 1025.155
338.7823, 1022.522
339.2644, 1017.439
339.7465, 1013.673
340.2286, 1016.811
340.7107, 1028.907
341.1928, 1035.565
341.6750, 1033.449
342.1571, 1024.046
342.6392, 1011.077
343.1213, 993.1102
343.6034, 978.6086
344.0855, 976.5793
344.5677, 986.3452
345.0498, 990.1743
345.5319, 985.1863
346.0140, 974.5892
346.4961, 963.2303
346.9782, 951.2209
347.4604, 940.2536
347.9425, 933.2414
348.4246, 928.3792
348.9067, 918.1290
349.3888, 901.1003
349.8709, 883.6199
350.3531, 873.7588
350.8352, 870.0980
351.3173, 867.3913
351.7994, 863.8124
352.2815, 859.5886
352.7636, 854.1556
353.2458, 847.5128
353.7279, 842.7254
354.2100, 844.9027
354.6921, 850.3268
355.1742, 852.4144
355.6563, 847.2871
356.1385, 839.9799
356.6206, 833.7446
357.1027, 828.9194
357.5848, 827.2902
358.0669, 835.7627
358.5490, 844.9929
359.0312, 844.4629
359.5133, 826.7668
359.9954, 811.3900
360.4775, 811.3329
360.9596, 821.7874
361.4417, 832.4868
361.9239, 840.9241
362.4060, 847.2941
362.8881, 852.1298
363.3702, 855.9006
363.8523, 855.9188
364.3344, 847.9266
364.8166, 836.9042
365.2987, 828.4656
365.7808, 821.7526
366.2629, 820.1478
366.7450, 827.7845
367.2271, 844.5345
367.7093, 855.8701
368.1914, 855.8576
368.6735, 852.5814
369.1556, 851.2665
369.6377, 853.5229
370.1198, 856.0665
370.6020, 860.2467
371.0841, 864.8296
371.5662, 865.0111
372.0483, 856.6022
372.5304, 848.8730
373.0125, 845.9139
373.4947, 849.7207
373.9768, 852.6753
374.4589, 854.7062
374.9410, 855.9756
375.4231, 855.8143
375.9052, 852.1248
376.3874, 853.1896
376.8695, 863.7628
377.3516, 883.5908
377.8337, 895.0532
378.3158, 897.0721
378.7979, 894.3641
379.2801, 890.2969
379.7622, 884.6879
380.2443, 881.2238
380.7264, 880.8366
381.2085, 882.8251
381.6906, 883.9912
382.1728, 884.1912
382.6549, 888.9564
383.1370, 906.4990
383.6191, 932.7036
384.1012, 949.5436
384.5833, 953.7606
385.0655, 953.8013
385.5476, 961.8318
386.0297, 975.6115
386.5118, 986.5927
386.9939, 987.4290
387.4760, 984.4260
387.9582, 986.7460
388.4403, 994.6398
388.9224, 1004.892
389.4045, 1014.480
389.8866, 1024.774
390.3687, 1038.126
390.8509, 1059.306
391.3330, 1079.263
391.8151, 1087.726
392.2972, 1088.251
392.7793, 1095.393
393.2614, 1123.149
393.7436, 1155.813
394.2257, 1181.483
394.7078, 1192.885
395.1899, 1209.569
395.6720, 1239.650
396.1541, 1279.159
396.6363, 1321.723
397.1184, 1367.033
397.6005, 1413.984
398.0826, 1461.855
398.5647, 1510.379
399.0468, 1561.856
399.5290, 1610.484
400.0111, 1665.549
400.4932, 1734.662
400.9753, 1828.058
401.4574, 1921.792
401.9395, 2008.743
402.4217, 2093.100
402.9038, 2193.974
403.3859, 2318.906
403.8680, 2449.309
404.3501, 2576.183
404.8322, 2695.171
405.3144, 2821.200
405.7965, 2950.794
406.2786, 3089.722
406.7607, 3246.332
407.2428, 3421.176
407.7249, 3611.271
408.2071, 3812.301
408.6892, 4026.332
409.1713, 4262.027
409.6534, 4520.879
410.1355, 4799.194
410.6176, 5095.578
411.0998, 5410.019
411.5819, 5737.532
412.0640, 6082.015
412.5461, 6431.750
413.0282, 6785.128
413.5103, 7136.749
413.9925, 7463.010
414.4746, 7778.747
414.9567, 8054.737
415.4388, 8249.172
415.9209, 8362.554
416.4030, 8378.013
416.8852, 8274.749
417.3673, 8066.108
417.8494, 7775.378
418.3315, 7366.006
418.8136, 6913.702
419.2957, 6440.501
419.7779, 5956.492
420.2600, 5495.188
420.7421, 5064.663
421.2242, 4669.620
421.7063, 4324.786
422.1884, 4032.555
422.6706, 3777.356
423.1527, 3557.983
423.6348, 3370.865
424.1169, 3207.876
424.5990, 3070.340
425.0811, 2952.028
425.5633, 2853.490
426.0454, 2775.978
426.5275, 2706.306
427.0096, 2639.012
427.4917, 2583.106
427.9738, 2547.138
428.4560, 2540.444
428.9381, 2533.716
429.4202, 2521.060
429.9023, 2506.787
430.3844, 2506.605
430.8665, 2524.014
431.3487, 2545.648
431.8308, 2562.407
432.3129, 2573.283
432.7950, 2599.276
433.2771, 2642.922
433.7592, 2695.481
434.2414, 2748.523
434.7235, 2801.866
435.2056, 2852.478
435.6877, 2896.083
436.1698, 2938.493
436.6519, 2995.562
437.1341, 3066.605
437.6162, 3137.809
438.0983, 3202.125
438.5804, 3259.751
439.0625, 3310.463
439.5446, 3353.525
440.0268, 3392.147
440.5089, 3432.097
440.9910, 3469.770
441.4731, 3497.247
441.9552, 3518.772
442.4373, 3523.184
442.9195, 3500.859
443.4016, 3451.903
443.8837, 3391.022
444.3658, 3320.960
444.8479, 3242.851
445.3300, 3158.377
445.8122, 3065.007
446.2943, 2967.967
446.7764, 2863.828
447.2585, 2756.024
447.7406, 2653.378
448.2227, 2553.247
448.7049, 2461.520
449.1870, 2378.424
449.6691, 2304.241
450.1512, 2242.126
450.6333, 2198.583
451.1154, 2160.870
451.5976, 2115.067
452.0797, 2055.717
452.5618, 2008.690
453.0439, 1980.554
453.5260, 1966.160
454.0081, 1947.726
454.4903, 1924.323
454.9724, 1902.588
455.4545, 1884.855
455.9366, 1871.485
456.4187, 1864.520
456.9008, 1864.407
457.3830, 1868.841
457.8651, 1873.922
458.3472, 1881.084
458.8293, 1895.346
459.3114, 1922.328
459.7935, 1953.144
460.2757, 1976.360
460.7578, 1993.256
461.2399, 2010.934
461.7220, 2031.589
462.2041, 2056.326
462.6862, 2086.759
463.1684, 2123.945
463.6505, 2162.637
464.1326, 2203.329
464.6147, 2242.569
465.0968, 2276.535
465.5789, 2299.428
466.0611, 2320.697
466.5432, 2347.391
467.0253, 2377.871
467.5074, 2394.923
467.9895, 2393.305
468.4716, 2380.356
468.9538, 2358.948
469.4359, 2326.781
469.9180, 2292.028
470.4001, 2255.912
470.8822, 2215.941
471.3643, 2166.620
471.8465, 2103.643
472.3286, 2043.885
472.8107, 1992.498
473.2928, 1948.405
473.7749, 1899.258
474.2570, 1843.475
474.7392, 1792.290
475.2213, 1754.492
475.7034, 1729.023
476.1855, 1709.840
476.6676, 1697.464
477.1497, 1687.321
477.6319, 1672.388
478.1140, 1654.442
478.5961, 1639.467
479.0782, 1631.713
479.5603, 1627.281
480.0424, 1620.117
480.5246, 1611.045
481.0067, 1606.929
481.4888, 1619.340
481.9709, 1634.557
482.4530, 1639.493
482.9352, 1627.721
483.4173, 1615.352
483.8994, 1607.476
484.3815, 1603.220
484.8636, 1601.335
485.3457, 1613.827
485.8279, 1616.069
486.3100, 1596.344
486.7921, 1554.435
487.2742, 1521.530
487.7563, 1502.702
488.2384, 1487.415
488.7206, 1470.266
489.2027, 1451.050
489.6848, 1430.543
490.1669, 1407.699
490.6490, 1384.730
491.1311, 1364.068
491.6133, 1345.609
492.0954, 1331.412
492.5775, 1322.469
493.0596, 1318.209
493.5417, 1317.586
494.0238, 1320.650
494.5060, 1323.261
494.9881, 1318.020
495.4702, 1310.170
495.9523, 1315.071
496.4344, 1337.051
496.9165, 1360.834
497.3987, 1369.543
497.8808, 1369.331
498.3629, 1371.622
498.8450, 1383.774
499.3271, 1397.795
499.8092, 1410.117
500.2914, 1420.453
500.7735, 1426.481
501.2556, 1423.055
501.7377, 1418.436
502.2198, 1418.912
502.7019, 1430.711
503.1841, 1433.211
503.6662, 1420.156
504.1483, 1397.951
504.6304, 1373.966
505.1125, 1347.712
505.5946, 1320.878
506.0768, 1292.613
506.5589, 1263.752
507.0410, 1237.846
507.5231, 1214.993
508.0052, 1194.839
508.4873, 1176.778
508.9695, 1161.026
509.4516, 1149.093
509.9337, 1141.565
510.4158, 1135.378
510.8979, 1126.704
511.3800, 1116.149
511.8622, 1106.834
512.3443, 1099.746
512.8264, 1094.014
513.3085, 1090.189
513.7906, 1087.114
514.2728, 1080.614
514.7549, 1065.800
515.2370, 1048.224
515.7191, 1030.486
516.2012, 1012.446
516.6833, 1001.581
517.1655, 1009.137
517.6476, 1021.099
518.1297, 1025.458
518.6118, 1013.854
519.0939, 1001.845
519.5760, 988.5708
520.0582, 976.7454
520.5403, 972.6351
521.0224, 984.6071
521.5045, 992.5799
521.9866, 989.8336
522.4688, 976.3537
522.9509, 965.6045
523.4330, 956.9974
523.9151, 952.2513
524.3972, 954.4843
524.8793, 963.8867
525.3615, 970.3390
525.8436, 973.1608
526.3257, 972.3003
526.8078, 965.8320
527.2899, 954.9329
527.7720, 945.2455
528.2542, 938.8102
528.7363, 935.0345
529.2184, 934.8998
529.7005, 937.4933
530.1826, 937.8369
530.6647, 929.2004
531.1469, 919.2313
531.6290, 915.8030
532.1111, 921.9891
532.5932, 924.9529
533.0753, 913.8600
533.5574, 899.5119
534.0396, 893.2925
534.5217, 909.4300
535.0038, 919.3039
535.4859, 913.9250
535.9680, 899.1538
536.4501, 893.8947
536.9323, 903.1556
537.4144, 913.5055
537.8965, 920.6919
538.3786, 924.6994
538.8607, 925.6351
539.3428, 923.2523
539.8250, 918.4944
540.3071, 910.3113
540.7892, 899.5213
541.2713, 893.5701
541.7534, 894.3446
542.2355, 898.2985
542.7177, 901.1366
543.1998, 903.1398
543.6819, 905.1262
544.1640, 910.3873
544.6461, 913.7571
545.1282, 907.8293
545.6104, 894.2847
546.0925, 883.4378
546.5746, 883.2170
547.0567, 885.7280
547.5388, 884.7792
548.0209, 877.0863
548.5031, 874.3339
548.9852, 882.9681
549.4673, 895.7856
549.9494, 905.2793
550.4315, 910.9740
550.9136, 913.7538
551.3958, 912.7117
551.8779, 909.0344
552.3600, 906.1478
552.8421, 904.0309
553.3242, 902.6849
553.8063, 902.1173
554.2885, 902.3229
554.7706, 904.1714
555.2527, 907.9930
555.7348, 910.0164
556.2169, 904.4242
556.6990, 894.5834
557.1812, 889.7047
557.6633, 892.2028
558.1454, 896.0988
558.6275, 895.6952
559.1096, 892.6519
559.5917, 889.8756
560.0739, 887.1932
560.5560, 886.3667
561.0381, 890.6456
561.5202, 898.2639
562.0023, 901.6837
562.4844, 893.4802
562.9666, 885.3885
563.4487, 882.9346
563.9308, 887.2432
564.4129, 891.7653
564.8950, 896.9037
565.3771, 901.7982
565.8593, 905.9052
566.3414, 909.3339
566.8235, 911.1839
567.3056, 910.6426
567.7877, 909.6307
568.2698, 913.5140
568.7520, 921.7997
569.2341, 925.1517
569.7162, 916.0143
570.1983, 902.5104
570.6804, 900.4149
571.1625, 908.4674
571.6447, 917.6466
572.1268, 924.9335
572.6089, 928.8746
573.0910, 925.9867
573.5731, 914.6351
574.0552, 906.6043
574.5374, 909.8016
575.0195, 917.5225
575.5016, 923.4897
575.9837, 926.5422
576.4658, 927.6452
576.9479, 923.2830
577.4301, 917.8281
577.9122, 920.5790
578.3943, 936.4914
578.8764, 950.6486
579.3585, 958.2054
579.8406, 960.3589
580.3228, 966.2433
580.8049, 976.5287
581.2870, 986.1569
581.7691, 989.9703
582.2512, 990.0565
582.7333, 995.6696
583.2155, 1007.796
583.6976, 1021.273
584.1797, 1030.515
584.6617, 1038.230
585.1439, 1048.912
585.6260, 1063.906
586.1081, 1081.965
586.5902, 1102.885
587.0723, 1126.377
587.5544, 1151.409
588.0366, 1179.577
588.5187, 1207.893
589.0008, 1233.962
589.4829, 1258.220
589.9650, 1287.616
590.4471, 1322.131
590.9293, 1361.934
591.4114, 1407.025
591.8935, 1457.914
592.3756, 1511.127
592.8577, 1566.078
593.3398, 1625.291
593.8220, 1692.902
594.3041, 1768.276
594.7862, 1846.410
595.2683, 1926.440
595.7504, 2009.406
596.2325, 2098.867
596.7147, 2193.832
597.1968, 2289.961
597.6789, 2392.258
598.1610, 2490.426
598.6431, 2586.447
599.1252, 2674.867
599.6074, 2733.080
600.0895, 2757.376
600.5716, 2746.817
601.0537, 2693.256
601.5358, 2585.932
602.0179, 2485.500
602.5001, 2392.819
602.9822, 2306.795
603.4643, 2225.793
603.9464, 2147.304
604.4285, 2081.453
604.9106, 2029.283
605.3928, 1987.990
605.8749, 1955.504
606.3570, 1930.959
606.8391, 1905.055
607.3212, 1875.336
607.8033, 1842.351
608.2855, 1808.034
608.7676, 1771.424
609.2497, 1727.669
609.7318, 1666.166
610.2139, 1602.666
610.6960, 1549.818
611.1782, 1508.077
611.6603, 1470.939
612.1424, 1438.782
612.6245, 1408.140
613.1066, 1376.403
613.5887, 1339.842
614.0709, 1310.137
614.5530, 1290.384
615.0351, 1274.438
615.5172, 1254.150
615.9993, 1226.459
616.4814, 1208.202
616.9636, 1203.472
617.4457, 1206.723
617.9278, 1206.146
618.4099, 1202.643
618.8920, 1205.448
619.3741, 1223.832
619.8563, 1246.747
620.3384, 1255.931
620.8205, 1253.850
621.3026, 1252.885
621.7847, 1257.142
622.2668, 1267.452
622.7490, 1284.848
623.2311, 1309.691
623.7132, 1338.618
624.1953, 1375.893
624.6774, 1413.459
625.1595, 1445.377
625.6417, 1465.997
626.1238, 1492.763
626.6059, 1529.517
627.0880, 1567.933
627.5701, 1597.740
628.0522, 1618.940
628.5344, 1632.463
629.0165, 1640.069
629.4986, 1637.786
629.9807, 1617.315
630.4628, 1579.451
630.9449, 1529.697
631.4271, 1457.791
631.9092, 1383.306
632.3913, 1328.560
632.8734, 1291.329
633.3555, 1258.434
633.8376, 1222.185
634.3198, 1188.611
634.8019, 1161.572
635.2840, 1142.383
635.7661, 1124.406
636.2482, 1104.103
636.7303, 1086.891
637.2125, 1077.454
637.6946, 1079.953
638.1767, 1077.346
638.6588, 1066.859
639.1409, 1054.898
639.6230, 1051.751
640.1052, 1056.795
640.5873, 1060.688
641.0694, 1060.550
641.5515, 1059.018
642.0336, 1061.355
642.5157, 1065.760
642.9979, 1066.960
643.4800, 1055.730
643.9621, 1045.861
644.4442, 1048.479
644.9263, 1061.898
645.4084, 1075.498
645.8906, 1086.572
646.3727, 1096.387
646.8548, 1105.790
647.3369, 1115.091
647.8190, 1121.705
648.3011, 1124.567
648.7833, 1126.263
649.2654, 1128.549
649.7475, 1131.505
650.2296, 1134.596
650.7117, 1137.934
651.1938, 1140.904
651.6760, 1143.561
652.1581, 1145.277
652.6402, 1143.583
653.1223, 1136.462
653.6044, 1128.644
654.0865, 1126.341
654.5687, 1126.078
655.0508, 1121.204
655.5329, 1101.910
656.0150, 1085.022
656.4971, 1079.880
656.9792, 1083.579
657.4614, 1080.093
657.9435, 1061.407
658.4256, 1045.915
658.9077, 1040.465
659.3898, 1044.596
659.8719, 1047.686
660.3541, 1050.156
660.8362, 1049.615
661.3183, 1042.618
661.8004, 1030.997
662.2825, 1021.282
662.7646, 1013.811
663.2468, 1008.656
663.7289, 1008.331
664.2110, 1009.413
664.6931, 1006.563
665.1752, 995.8948
665.6573, 988.5238
666.1395, 994.0616
666.6216, 1003.758
667.1037, 1006.845
667.5858, 993.0714
668.0679, 983.8265
668.5500, 982.3798
669.0322, 985.6798
669.5143, 987.8244
669.9964, 989.2471
670.4785, 986.9573
670.9606, 977.7330
671.4427, 965.7628
671.9249, 964.7970
