##NAMES=Antlerite
##RRUFFID=R050212
##IDEAL CHEMISTRY=Cu^2+^_3_(S^6+^O_4_)(OH)_4_
##LOCALITY=Chuquicamata mine, Calama, Antofagasta Province, Chile
##OWNER=RRUFF
##SOURCE=John Dagenais
##DESCRIPTION=Deep green tabular crystals
##STATUS=The identification of this mineral has been confirmed by X-ray diffraction and chemical analysis
##URL=rruff.info/R050212
##MEASURED CHEMISTRY=Cu_3.00_S_1.00_O_4_(OH)_4_
93.56738, 36.84839
94.04950, 37.66238
94.53162, 38.33147
95.01373, 38.37787
95.49585, 38.02582
95.97797, 37.46087
96.46008, 36.82555
96.94220, 36.22667
97.42432, 35.45334
97.90643, 34.32536
98.38855, 33.15998
98.87067, 32.16378
99.35278, 31.39221
99.83490, 30.73395
100.3170, 29.93975
100.7991, 28.70179
101.2813, 27.66173
101.7634, 26.89130
102.2455, 26.29703
102.7276, 25.77678
103.2097, 25.28043
103.6918, 24.80270
104.1740, 24.30313
104.6561, 23.66766
105.1382, 23.12457
105.6203, 22.83009
106.1024, 22.73373
106.5845, 22.60019
107.0667, 22.26334
107.5488, 21.73448
108.0309, 21.14437
108.5130, 20.37528
108.9951, 19.60396
109.4772, 19.05641
109.9594, 18.78164
110.4415, 18.58668
110.9236, 18.31368
111.4057, 18.01002
111.8878, 17.77689
112.3699, 17.71351
112.8521, 17.79148
113.3342, 17.79186
113.8163, 17.61653
114.2984, 17.46026
114.7805, 17.41541
115.2626, 17.46685
115.7447, 17.55128
116.2269, 17.61326
116.7090, 17.65619
117.1911, 17.65931
117.6732, 17.61679
118.1553, 17.54587
118.6374, 17.43732
119.1196, 17.29746
119.6017, 16.99973
120.0838, 17.18242
120.5659, 17.28004
121.0480, 17.29719
121.5301, 16.99277
122.0123, 17.10358
122.4944, 17.04798
122.9765, 16.98557
123.4586, 17.15482
123.9407, 16.89717
124.4228, 17.06275
124.9050, 17.05938
125.3871, 17.13333
125.8692, 17.03985
126.3513, 16.99809
126.8334, 17.12382
127.3155, 17.15680
127.7977, 17.04405
128.2798, 17.12292
128.7619, 16.85942
129.2440, 16.89635
129.7261, 17.06291
130.2083, 16.95858
130.6904, 17.04051
131.1725, 17.05150
131.6546, 16.74010
132.1367, 16.98937
132.6188, 16.83695
133.1010, 16.75117
133.5831, 16.50953
134.0652, 16.34890
134.5473, 16.34941
135.0294, 16.45628
135.5115, 16.60849
135.9936, 16.78228
136.4758, 16.96952
136.9579, 17.02949
137.4400, 16.74715
137.9221, 16.54084
138.4042, 16.56677
138.8863, 16.76519
139.3685, 16.98321
139.8506, 17.09447
140.3327, 17.09129
140.8148, 16.99980
141.2969, 16.72182
141.7790, 16.45200
142.2612, 16.30390
142.7433, 16.28500
143.2254, 16.33400
143.7075, 16.41222
144.1896, 16.53590
144.6717, 16.52647
145.1539, 16.28444
145.6360, 15.94113
146.1181, 15.63944
146.6002, 15.40608
147.0823, 15.21753
147.5644, 15.08431
148.0466, 14.99855
148.5287, 14.84656
149.0108, 14.52540
149.4929, 14.09261
149.9750, 13.73472
150.4571, 13.49686
150.9393, 13.34218
151.4214, 13.23815
151.9035, 13.18147
152.3856, 13.13622
152.8677, 13.06617
153.3498, 12.96816
153.8320, 12.89898
154.3141, 12.97473
154.7962, 13.00590
155.2783, 12.84701
155.7604, 12.49447
156.2425, 12.10922
156.7247, 11.47943
157.2068, 12.00830
157.6889, 12.30327
158.1710, 12.37690
158.6531, 11.56623
159.1352, 11.89744
159.6174, 11.77104
160.0995, 11.62588
160.5816, 12.11780
161.0637, 11.43576
161.5458, 11.91758
162.0279, 11.93481
162.5101, 12.16467
162.9922, 11.93409
163.4743, 11.84573
163.9564, 12.21795
164.4385, 12.33514
164.9206, 12.05156
165.4028, 12.29494
165.8849, 11.59681
166.3670, 11.72486
166.8491, 12.20938
167.3312, 11.94895
167.8133, 12.20075
168.2955, 12.25746
168.7776, 11.42760
169.2597, 12.13957
169.7418, 12.18476
170.2239, 11.54529
170.7060, 12.20443
171.1882, 11.65935
171.6703, 11.54410
172.1524, 11.77965
172.6345, 11.74088
173.1166, 11.38471
173.5987, 11.44795
174.0809, 11.34894
174.5630, 11.24730
175.0451, 11.38150
175.5272, 11.09297
176.0093, 11.23184
176.4914, 11.20594
176.9736, 11.26153
177.4557, 11.15386
177.9378, 11.10209
178.4199, 11.22197
178.9020, 11.25329
179.3841, 11.14304
179.8663, 11.22859
180.3484, 10.97595
180.8305, 11.02791
181.3126, 11.21366
181.7947, 11.13270
182.2768, 11.24218
182.7590, 11.28489
183.2411, 11.00939
183.7232, 11.29872
184.2053, 11.34976
184.6874, 11.15600
185.1695, 11.43865
185.6517, 11.28757
186.1338, 11.29697
186.6159, 11.42816
187.0980, 11.44091
187.5801, 11.55926
188.0622, 11.58691
188.5444, 11.57125
189.0265, 11.62205
189.5086, 11.81270
189.9907, 11.98301
190.4728, 12.05927
190.9549, 12.07102
191.4371, 12.10233
191.9192, 12.21687
192.4013, 12.40670
192.8834, 12.55395
193.3655, 12.65563
193.8476, 12.72575
194.3298, 12.74968
194.8119, 12.73813
195.2940, 12.74806
195.7761, 12.83643
196.2582, 12.98317
196.7403, 13.05867
197.2225, 12.97821
197.7046, 12.88683
198.1867, 12.90173
198.6688, 13.02586
199.1509, 13.18689
199.6330, 13.36049
200.1152, 13.53357
200.5973, 13.67720
201.0794, 13.79006
201.5615, 13.86864
202.0436, 13.88201
202.5257, 13.80497
203.0079, 13.77510
203.4900, 13.97051
203.9721, 14.24293
204.4542, 14.39177
204.9363, 14.29115
205.4184, 14.07011
205.9006, 13.98454
206.3827, 14.09367
206.8648, 14.20488
207.3469, 14.23439
207.8290, 14.21901
208.3111, 14.20194
208.7933, 14.20323
209.2754, 14.21614
209.7575, 14.22203
210.2396, 14.22475
210.7217, 14.21219
211.2038, 14.19310
211.6860, 14.15679
212.1681, 14.07966
212.6502, 13.93995
213.1323, 13.76315
213.6144, 13.67034
214.0965, 13.77387
214.5787, 13.82323
215.0608, 13.73262
215.5429, 13.57065
216.0250, 13.42446
216.5071, 13.34136
216.9892, 13.32020
217.4713, 13.35346
217.9535, 13.56222
218.4356, 13.69775
218.9177, 13.67779
219.3998, 13.56756
219.8819, 13.46840
220.3640, 13.44055
220.8462, 13.46908
221.3283, 13.45567
221.8104, 13.29405
222.2925, 13.21080
222.7746, 13.34934
223.2567, 13.59194
223.7389, 13.70935
224.2210, 13.55374
224.7031, 13.19475
225.1852, 13.03153
225.6673, 13.21005
226.1494, 13.37645
226.6316, 13.42306
227.1137, 13.38353
227.5958, 13.33255
228.0779, 13.30583
228.5600, 13.30025
229.0421, 13.30504
229.5243, 13.35553
230.0064, 13.37221
230.4885, 13.29294
230.9706, 13.15052
231.4527, 13.04567
231.9348, 13.04374
232.4170, 13.09232
232.8991, 13.05028
233.3812, 12.86092
233.8633, 12.69389
234.3454, 12.63825
234.8275, 12.67987
235.3097, 12.76636
235.7918, 12.89916
236.2739, 13.04555
236.7560, 13.15248
237.2381, 13.21508
237.7202, 13.25438
238.2024, 13.28008
238.6845, 13.29263
239.1666, 13.29221
239.6487, 13.26624
240.1308, 13.23888
240.6129, 13.23552
241.0951, 13.25742
241.5772, 13.29831
242.0593, 13.34419
242.5414, 13.39754
243.0235, 13.49945
243.5056, 13.68429
243.9878, 13.90367
244.4699, 14.14728
244.9520, 14.41412
245.4341, 14.60922
245.9162, 14.60473
246.3983, 14.40222
246.8805, 14.28071
247.3626, 14.35580
247.8447, 14.46448
248.3268, 14.51094
248.8089, 14.49240
249.2910, 14.44633
249.7732, 14.41083
250.2553, 14.38797
250.7374, 14.32456
251.2195, 14.17307
251.7016, 14.01704
252.1837, 13.87991
252.6659, 13.76987
253.1480, 13.69791
253.6301, 13.68943
254.1122, 13.75016
254.5943, 13.78506
255.0764, 13.77738
255.5586, 13.75627
256.0407, 13.70795
256.5228, 13.65086
257.0049, 13.63189
257.4870, 13.70988
257.9691, 13.88890
258.4513, 13.97264
258.9334, 13.88055
259.4155, 13.75828
259.8976, 13.60106
260.3797, 13.44299
260.8618, 13.35009
261.3440, 13.38831
261.8261, 13.54932
262.3082, 13.59613
262.7903, 13.41780
263.2724, 13.22638
263.7545, 13.04312
264.2367, 12.88090
264.7188, 12.75627
265.2009, 12.68447
265.6830, 12.65660
266.1651, 12.60266
266.6472, 12.51534
267.1294, 12.40649
267.6115, 12.30212
268.0936, 12.17219
268.5757, 11.94177
269.0578, 11.56007
269.5399, 11.09506
270.0221, 10.85133
270.5042, 10.96231
270.9863, 11.08558
271.4684, 11.12631
271.9505, 11.08908
272.4326, 10.73280
272.9148, 10.79426
273.3969, 10.69185
273.8790, 10.58514
274.3611, 10.71261
274.8432, 10.41571
275.3253, 10.54455
275.8075, 10.50696
276.2896, 10.54923
276.7717, 10.42658
277.2538, 10.35816
277.7359, 10.45976
278.2180, 10.47114
278.7002, 10.33929
279.1823, 10.40159
279.6644, 10.12405
280.1465, 10.14946
280.6286, 10.30701
281.1107, 10.19619
281.5929, 10.27416
282.0750, 10.28371
282.5571, 9.973386
283.0392, 10.22625
283.5213, 10.23917
284.0034, 10.00565
284.4856, 10.24687
284.9677, 10.05271
285.4498, 10.01737
285.9319, 10.10219
286.4140, 10.06690
286.8961, 10.22746
287.3783, 10.20430
287.8604, 10.16701
288.3425, 10.20487
288.8246, 10.03946
289.3067, 10.25834
289.7888, 10.21896
290.2710, 10.31174
290.7531, 10.43642
291.2352, 10.33863
291.7173, 10.37896
292.1994, 10.43637
292.6815, 10.45643
293.1637, 10.38809
293.6458, 10.25392
294.1279, 10.19813
294.6100, 10.31159
295.0921, 10.39920
295.5742, 10.34218
296.0564, 10.19056
296.5385, 10.08731
297.0206, 10.11502
297.5027, 10.22074
297.9848, 10.23430
298.4669, 10.08214
298.9491, 9.981641
299.4312, 10.04850
299.9133, 10.20934
300.3954, 10.31423
300.8775, 10.30223
301.3596, 10.23883
301.8418, 10.25977
302.3239, 10.39874
302.8060, 10.48049
303.2881, 10.39396
303.7702, 10.24926
304.2523, 10.22191
304.7345, 10.36183
305.2166, 10.54173
305.6987, 10.58740
306.1808, 10.48688
306.6629, 10.42195
307.1451, 10.41832
307.6272, 10.46086
308.1093, 10.54727
308.5914, 10.67673
309.0735, 10.81116
309.5556, 10.91280
310.0378, 10.98374
310.5199, 11.07660
311.0020, 11.20642
311.4841, 11.34912
311.9662, 11.49229
312.4483, 11.63457
312.9305, 11.77176
313.4126, 11.91200
313.8947, 12.04153
314.3768, 12.11677
314.8589, 12.07113
315.3410, 12.04218
315.8232, 12.10108
316.3053, 12.23651
316.7874, 12.42746
317.2695, 12.70112
317.7516, 12.97832
318.2337, 13.04993
318.7159, 12.82046
319.1980, 12.63992
319.6801, 12.67101
320.1622, 12.83709
320.6443, 12.99282
321.1264, 13.09628
321.6086, 13.16654
322.0907, 13.22685
322.5728, 13.27780
323.0549, 13.32261
323.5370, 13.37538
324.0191, 13.41704
324.5013, 13.40900
324.9834, 13.34189
325.4655, 13.27734
325.9476, 13.29739
326.4297, 13.40164
326.9118, 13.42604
327.3940, 13.28221
327.8761, 13.10617
328.3582, 13.03965
328.8403, 13.07652
329.3224, 13.06616
329.8045, 12.87839
330.2867, 12.54727
330.7688, 12.31593
331.2509, 12.23168
331.7330, 12.19497
332.2151, 12.20432
332.6972, 12.22911
333.1794, 12.15146
333.6615, 11.87769
334.1436, 11.51643
334.6257, 11.38487
335.1078, 11.60590
335.5899, 11.76102
336.0721, 11.71080
336.5542, 11.51849
337.0363, 11.25396
337.5184, 10.92142
338.0005, 10.61663
338.4826, 10.50708
338.9648, 10.64990
339.4469, 10.72737
339.9290, 10.67465
340.4111, 10.55759
340.8932, 10.42188
341.3753, 10.27832
341.8574, 10.15644
342.3395, 10.09494
342.8217, 10.09971
343.3038, 10.04585
343.7859, 9.816080
344.2680, 9.632389
344.7501, 9.678104
345.2322, 9.903098
345.7144, 10.10384
346.1965, 10.15677
346.6786, 10.07886
347.1607, 9.962606
347.6428, 9.739229
348.1249, 9.565691
348.6071, 9.501608
349.0892, 9.512292
349.5713, 9.547083
350.0534, 9.587801
350.5355, 9.628910
351.0176, 9.660894
351.4998, 9.692065
351.9819, 9.695913
352.4640, 9.696420
352.9461, 9.654770
353.4282, 9.485154
353.9103, 9.189457
354.3925, 8.925900
354.8746, 8.890423
355.3567, 9.154263
355.8388, 9.282941
356.3209, 9.162198
356.8030, 9.027804
357.2852, 9.007594
357.7673, 9.087401
358.2494, 9.193830
358.7315, 9.280817
359.2136, 9.345377
359.6957, 9.348469
360.1779, 9.198259
360.6600, 9.097013
361.1421, 9.119581
361.6242, 9.205540
362.1063, 9.275033
362.5884, 9.293476
363.0706, 9.272990
363.5527, 9.237702
364.0348, 9.157314
364.5169, 9.109676
364.9990, 9.101248
365.4811, 9.118775
365.9633, 9.158594
366.4454, 9.216686
366.9275, 9.285588
367.4096, 9.366785
367.8917, 9.479206
368.3738, 9.496508
368.8560, 9.311611
369.3381, 9.144889
369.8202, 9.085367
370.3023, 9.111979
370.7844, 9.161963
371.2665, 9.195151
371.7487, 9.214837
372.2308, 9.241093
372.7129, 9.293893
373.1950, 9.324888
373.6771, 9.284809
374.1592, 9.238575
374.6414, 9.277911
375.1235, 9.432230
375.6056, 9.609991
376.0877, 9.635361
376.5698, 9.426397
377.0519, 9.299764
377.5341, 9.347362
378.0162, 9.425527
378.4983, 9.458697
378.9804, 9.443363
379.4625, 9.419249
379.9446, 9.422214
380.4268, 9.451447
380.9089, 9.471922
381.3910, 9.447821
381.8731, 9.464188
382.3552, 9.591201
382.8373, 9.769110
383.3195, 9.901627
383.8016, 9.937505
384.2837, 9.909407
384.7658, 9.859359
385.2479, 9.748849
385.7300, 9.746377
386.2122, 10.01424
386.6943, 10.35338
387.1764, 10.61395
387.6585, 10.76904
388.1406, 10.87852
388.6227, 10.96163
389.1049, 11.02645
389.5870, 11.18963
390.0691, 11.51830
390.5512, 11.88358
391.0333, 12.17093
391.5154, 12.40570
391.9976, 12.68616
392.4797, 13.06378
392.9618, 13.51448
393.4439, 14.01449
393.9260, 14.58037
394.4081, 15.11438
394.8903, 15.53651
395.3724, 15.89647
395.8545, 16.28043
396.3366, 16.70713
396.8187, 17.14688
397.3008, 17.58985
397.7830, 18.03102
398.2651, 18.45530
398.7472, 18.85086
399.2293, 19.23496
399.7114, 19.63360
400.1935, 20.04890
400.6757, 20.43684
401.1578, 20.81663
401.6399, 21.14593
402.1220, 21.33438
402.6041, 21.37326
403.0862, 21.40770
403.5684, 21.54827
404.0505, 21.79493
404.5326, 22.06869
405.0147, 22.46681
405.4968, 22.79336
405.9789, 22.89038
406.4611, 22.84097
406.9432, 22.86023
407.4253, 23.05443
407.9074, 23.32757
408.3895, 23.45626
408.8716, 23.34076
409.3538, 23.27118
409.8359, 23.33423
410.3180, 23.41010
410.8001, 23.40325
411.2822, 23.29500
411.7643, 23.10305
412.2465, 22.84682
412.7286, 22.52724
413.2107, 22.11246
413.6928, 21.55364
414.1749, 20.96388
414.6570, 20.33627
415.1392, 19.71046
415.6213, 19.17113
416.1034, 18.76534
416.5855, 18.42002
417.0676, 17.93386
417.5497, 17.20458
418.0319, 16.50642
418.5140, 15.75825
418.9961, 15.11124
419.4782, 14.70674
419.9603, 14.54301
420.4424, 14.48303
420.9246, 14.41524
421.4067, 14.34287
421.8888, 14.18351
422.3709, 13.88467
422.8530, 13.55378
423.3351, 13.17381
423.8173, 12.79729
424.2994, 12.49938
424.7815, 12.31522
425.2636, 12.22576
425.7457, 12.24605
426.2278, 12.43659
426.7100, 12.46831
427.1921, 12.02745
427.6742, 11.55053
428.1563, 11.40006
428.6384, 11.59117
429.1205, 11.80007
429.6027, 11.77614
430.0848, 11.57990
430.5669, 11.42675
431.0490, 11.33735
431.5311, 11.28039
432.0132, 11.23329
432.4954, 11.20227
432.9775, 11.20978
433.4596, 11.30528
433.9417, 11.39117
434.4238, 11.36943
434.9059, 11.25370
435.3881, 11.12537
435.8702, 11.01041
436.3523, 10.90460
436.8344, 10.78837
437.3165, 10.64668
437.7986, 10.57064
438.2808, 10.64739
438.7629, 10.76838
439.2450, 10.79127
439.7271, 10.70556
440.2092, 10.63029
440.6913, 10.67393
441.1735, 10.82746
441.6556, 10.90100
442.1377, 10.83269
442.6198, 10.76614
443.1019, 10.76141
443.5840, 10.78715
444.0662, 10.78001
444.5483, 10.71588
445.0304, 10.64480
445.5125, 10.65916
445.9946, 10.81955
446.4767, 10.92782
446.9589, 10.95395
447.4410, 10.96273
447.9231, 10.99638
448.4052, 11.04814
448.8873, 11.07347
449.3694, 11.02549
449.8516, 10.93525
450.3337, 11.00457
450.8158, 11.39787
451.2979, 11.69506
451.7800, 11.72519
452.2621, 11.68561
452.7443, 11.77492
453.2264, 12.03969
453.7085, 12.34991
454.1906, 12.57541
454.6727, 12.71570
455.1548, 12.77937
455.6370, 12.70759
456.1191, 12.63327
456.6012, 12.65328
457.0833, 12.72544
457.5654, 12.74868
458.0475, 12.63842
458.5297, 12.50409
459.0118, 12.52125
459.4939, 12.69390
459.9760, 12.86392
460.4581, 12.97137
460.9402, 13.04982
461.4224, 13.15261
461.9045, 13.28421
462.3866, 13.39972
462.8687, 13.51859
463.3508, 13.59592
463.8329, 13.52457
464.3151, 13.29103
464.7972, 13.08140
465.2793, 13.06333
465.7614, 13.20292
466.2435, 13.21472
466.7256, 12.98339
467.2078, 12.76460
467.6899, 12.68933
468.1720, 12.67724
468.6541, 12.57105
469.1362, 12.31974
469.6183, 12.05346
470.1005, 11.97327
470.5826, 12.17296
471.0647, 12.25094
471.5468, 12.14345
472.0289, 11.99353
472.5110, 11.87703
472.9932, 11.77576
473.4753, 11.63011
473.9574, 11.40097
474.4395, 11.11527
474.9216, 10.84345
475.4037, 10.52952
475.8859, 10.35031
476.3680, 10.44851
476.8501, 10.58310
477.3322, 10.57402
477.8143, 10.41468
478.2964, 10.22719
478.7786, 10.11843
479.2607, 10.07337
479.7428, 9.984628
480.2249, 9.792048
480.7070, 9.687310
481.1891, 9.903563
481.6713, 10.20956
482.1534, 10.29220
482.6355, 10.03917
483.1176, 9.712619
483.5997, 9.514146
484.0818, 9.423120
484.5640, 9.370320
485.0461, 9.359145
485.5282, 9.333877
486.0103, 9.214588
486.4924, 9.015326
486.9745, 8.861774
487.4567, 8.771387
487.9388, 8.731202
488.4209, 8.762448
488.9030, 8.839805
489.3851, 8.884728
489.8672, 8.856310
490.3494, 8.797174
490.8315, 8.797598
491.3136, 8.926865
491.7957, 8.981122
492.2778, 8.906195
492.7599, 8.799177
493.2421, 8.723463
493.7242, 8.679541
494.2063, 8.641381
494.6884, 8.592149
495.1705, 8.529817
495.6526, 8.439410
496.1348, 8.276531
496.6169, 8.157841
497.0990, 8.112007
497.5811, 8.103012
498.0632, 8.115324
498.5453, 8.139417
499.0275, 8.147635
499.5096, 8.083657
499.9917, 7.961939
500.4738, 7.955549
500.9559, 8.139151
501.4380, 8.289428
501.9202, 8.262736
502.4023, 8.144711
502.8844, 8.043783
503.3665, 7.985025
503.8486, 7.944309
504.3307, 7.889569
504.8129, 7.834997
505.2950, 7.844940
505.7771, 7.949973
506.2592, 8.062251
506.7413, 8.089624
507.2234, 8.035363
507.7055, 7.982861
508.1877, 7.966104
508.6698, 7.925296
509.1519, 7.798653
509.6340, 7.622755
510.1161, 7.474275
510.5982, 7.382481
511.0804, 7.348572
511.5625, 7.382967
512.0446, 7.547181
512.5267, 7.618843
513.0089, 7.523734
513.4910, 7.416903
513.9731, 7.369838
514.4552, 7.379014
514.9373, 7.423358
515.4194, 7.495627
515.9016, 7.573445
516.3837, 7.591033
516.8658, 7.521720
517.3479, 7.464889
517.8300, 7.455282
518.3121, 7.448088
518.7943, 7.403644
519.2764, 7.330586
519.7585, 7.282422
520.2406, 7.326472
520.7227, 7.406561
521.2048, 7.388815
521.6870, 7.261737
522.1691, 7.127728
522.6512, 7.015223
523.1333, 6.935413
523.6154, 6.899407
524.0975, 6.911119
524.5797, 6.947761
525.0618, 7.037218
525.5439, 7.128461
526.0260, 7.131469
526.5081, 7.048021
526.9902, 6.995420
527.4724, 7.066516
527.9545, 7.235990
528.4366, 7.348214
528.9187, 7.425920
529.4008, 7.421888
529.8829, 7.244407
530.3651, 7.033243
530.8472, 6.927592
531.3293, 6.942817
531.8114, 6.999679
532.2935, 7.026742
532.7756, 7.024744
533.2578, 7.000626
533.7399, 6.871837
534.2220, 6.853114
534.7041, 7.138671
535.1862, 7.474829
535.6683, 7.570615
536.1505, 7.363154
536.6326, 7.094215
537.1147, 6.982599
537.5968, 6.998826
538.0789, 6.997087
538.5610, 6.944910
539.0432, 6.944844
539.5253, 7.133828
540.0074, 7.412820
540.4895, 7.552269
540.9716, 7.486222
541.4537, 7.361544
541.9359, 7.219332
542.4180, 7.078696
542.9001, 6.966287
543.3822, 6.888472
543.8643, 6.857696
544.3464, 6.891032
544.8286, 6.990328
545.3107, 7.095460
545.7928, 7.261229
546.2749, 7.367567
546.7570, 7.354961
547.2391, 7.279678
547.7213, 7.208960
548.2034, 7.161457
548.6855, 7.112171
549.1676, 7.020911
549.6497, 6.881948
550.1318, 6.794715
550.6140, 6.785913
551.0961, 6.792850
551.5782, 6.804862
552.0603, 6.811210
552.5424, 6.775229
553.0245, 6.670853
553.5067, 6.625271
553.9888, 6.827161
554.4709, 7.195019
554.9530, 7.408250
555.4351, 7.397576
555.9172, 7.318948
556.3994, 7.300675
556.8815, 7.319151
557.3636, 7.253884
557.8457, 6.980291
558.3278, 6.766008
558.8099, 6.763227
559.2921, 6.868747
559.7742, 6.931041
560.2563, 6.915611
560.7384, 6.887738
561.2205, 6.922687
561.7026, 7.025456
562.1848, 7.067667
562.6669, 6.964738
563.1490, 6.897956
563.6311, 6.938069
564.1132, 7.013129
564.5953, 7.053380
565.0775, 7.038295
565.5596, 6.971162
566.0417, 6.794683
566.5238, 6.534438
567.0059, 6.489106
567.4880, 6.752379
567.9702, 7.025455
568.4523, 7.159746
568.9344, 7.199274
569.4165, 7.184829
569.8986, 7.105443
570.3807, 7.027886
570.8629, 6.970419
571.3450, 6.946449
571.8271, 7.003662
572.3092, 7.144632
572.7913, 7.267579
573.2734, 7.291895
573.7556, 7.231691
574.2377, 7.188756
574.7198, 7.153712
575.2019, 7.146772
575.6840, 7.159524
576.1661, 7.208791
576.6483, 7.332085
577.1304, 7.517190
577.6125, 7.699175
578.0946, 7.829290
578.5767, 7.907465
579.0588, 7.920199
579.5410, 7.829254
580.0231, 7.760517
580.5052, 7.703192
580.9873, 7.713731
581.4694, 7.904450
581.9515, 8.262889
582.4337, 8.530125
582.9158, 8.445475
583.3979, 8.229218
583.8800, 8.273632
584.3621, 8.576140
584.8442, 8.822987
585.3264, 8.845520
585.8085, 8.757732
586.2906, 8.800663
586.7727, 9.035155
587.2548, 9.204670
587.7369, 9.233283
588.2190, 9.235665
588.7011, 9.266623
589.1832, 9.338887
589.6653, 9.476452
590.1475, 9.696366
