##NAMES=Antlerite
##RRUFFID=R110045
##IDEAL CHEMISTRY=Cu^2+^_3_(S^6+^O_4_)(OH)_4_
##LOCALITY=Childs Aldwinkle mine, Bunker Hill District, Copper Creek, Pinal County, Arizona, USA
##OWNER=RRUFF
##SOURCE=Bob Downs, collected March 2011
##DESCRIPTION=Green granular aggregate
##STATUS=The identification of this mineral has been confirmed by single-crystal X-ray diffraction.
##URL=rruff.info/R110045
172.5991, 1162.078
173.0812, 1156.190
173.5634, 1151.664
174.0455, 1150.059
174.5276, 1148.870
175.0097, 1147.193
175.4918, 1144.965
175.9739, 1142.520
176.4561, 1140.061
176.9382, 1137.247
177.4203, 1135.590
177.9024, 1136.088
178.3845, 1136.822
178.8666, 1136.745
179.3488, 1135.753
179.8309, 1134.448
180.3130, 1133.682
180.7951, 1133.882
181.2772, 1133.652
181.7593, 1132.915
182.2415, 1131.873
182.7236, 1130.485
183.2057, 1128.807
183.6878, 1127.240
184.1699, 1126.478
184.6520, 1127.475
185.1342, 1127.318
185.6163, 1124.888
186.0984, 1121.742
186.5805, 1119.447
187.0626, 1118.464
187.5447, 1118.444
188.0269, 1119.115
188.5090, 1120.811
188.9911, 1121.802
189.4732, 1121.005
189.9553, 1119.352
190.4374, 1118.403
190.9196, 1118.565
191.4017, 1119.662
191.8838, 1122.009
192.3659, 1125.838
192.8480, 1128.332
193.3301, 1127.018
193.8123, 1123.016
194.2944, 1120.591
194.7765, 1121.431
195.2586, 1123.516
195.7407, 1124.560
196.2228, 1124.544
196.7050, 1124.474
197.1871, 1125.369
197.6692, 1127.156
198.1513, 1128.076
198.6334, 1127.021
199.1155, 1125.607
199.5977, 1124.972
200.0798, 1125.169
200.5619, 1125.516
201.0440, 1125.117
201.5261, 1123.723
202.0082, 1123.292
202.4904, 1125.412
202.9725, 1127.629
203.4546, 1128.812
203.9367, 1128.793
204.4188, 1128.002
204.9009, 1126.670
205.3831, 1124.208
205.8652, 1123.077
206.3473, 1124.449
206.8294, 1126.218
207.3115, 1127.424
207.7936, 1127.795
208.2758, 1127.395
208.7579, 1126.192
209.2400, 1123.548
209.7221, 1121.496
210.2042, 1119.670
210.6863, 1118.553
211.1685, 1118.911
211.6506, 1120.697
212.1327, 1122.750
212.6148, 1123.368
213.0969, 1121.654
213.5790, 1120.230
214.0612, 1119.257
214.5433, 1118.451
215.0254, 1117.512
215.5075, 1116.398
215.9896, 1115.337
216.4717, 1114.642
216.9539, 1114.316
217.4360, 1114.501
217.9181, 1115.773
218.4002, 1117.271
218.8823, 1118.117
219.3644, 1118.094
219.8466, 1117.658
220.3287, 1117.346
220.8108, 1117.145
221.2929, 1117.150
221.7750, 1117.945
222.2571, 1118.738
222.7393, 1118.080
223.2214, 1115.418
223.7035, 1112.832
224.1856, 1113.549
224.6677, 1117.280
225.1498, 1120.428
225.6320, 1121.952
226.1141, 1122.363
226.5962, 1122.351
227.0783, 1121.884
227.5604, 1121.407
228.0425, 1121.588
228.5247, 1122.238
229.0068, 1122.482
229.4889, 1122.091
229.9710, 1121.049
230.4531, 1119.143
230.9352, 1115.989
231.4174, 1112.735
231.8995, 1109.888
232.3816, 1107.553
232.8637, 1106.201
233.3458, 1106.458
233.8279, 1107.909
234.3101, 1109.390
234.7922, 1111.365
235.2743, 1112.423
235.7564, 1111.210
236.2385, 1108.638
236.7206, 1106.537
237.2028, 1106.044
237.6849, 1106.859
238.1670, 1107.861
238.6491, 1109.891
239.1312, 1110.720
239.6133, 1108.965
240.0955, 1105.652
240.5776, 1102.322
241.0597, 1099.517
241.5418, 1097.519
242.0239, 1098.022
242.5060, 1103.761
242.9882, 1108.277
243.4703, 1109.100
243.9524, 1107.749
244.4345, 1106.400
244.9166, 1106.263
245.3987, 1107.128
245.8809, 1108.073
246.3630, 1109.738
246.8451, 1110.570
247.3272, 1109.699
247.8093, 1108.020
248.2914, 1106.826
248.7736, 1106.888
249.2557, 1107.664
249.7378, 1106.876
250.2199, 1101.857
250.7020, 1098.608
251.1841, 1099.355
251.6663, 1101.783
252.1484, 1102.975
252.6305, 1101.504
253.1126, 1098.395
253.5947, 1096.860
254.0768, 1098.641
254.5590, 1100.055
255.0411, 1100.753
255.5232, 1101.027
256.0053, 1101.213
256.4874, 1101.451
256.9695, 1101.676
257.4517, 1101.728
257.9338, 1100.775
258.4159, 1100.698
258.8980, 1102.784
259.3801, 1105.196
259.8622, 1105.877
260.3444, 1104.133
260.8265, 1100.991
261.3086, 1098.379
261.7907, 1096.779
262.2728, 1094.937
262.7549, 1093.004
263.2371, 1090.724
263.7192, 1087.582
264.2013, 1083.472
264.6834, 1079.225
265.1655, 1076.061
265.6476, 1074.347
266.1298, 1073.073
266.6119, 1073.073
267.0940, 1073.035
267.5761, 1071.580
268.0582, 1068.465
268.5403, 1064.713
269.0225, 1061.432
269.5046, 1058.723
269.9867, 1056.260
270.4688, 1053.940
270.9509, 1051.939
271.4330, 1050.472
271.9152, 1049.552
272.3973, 1048.877
272.8794, 1048.061
273.3615, 1047.117
273.8436, 1047.087
274.3257, 1048.864
274.8079, 1050.936
275.2900, 1051.942
275.7721, 1051.879
276.2542, 1051.923
276.7363, 1053.211
277.2184, 1055.462
277.7006, 1056.476
278.1827, 1054.669
278.6648, 1052.870
279.1469, 1053.574
279.6290, 1056.465
280.1111, 1058.808
280.5933, 1058.763
281.0754, 1056.950
281.5575, 1055.874
282.0396, 1055.763
282.5217, 1056.099
283.0038, 1056.479
283.4860, 1056.990
283.9681, 1058.205
284.4502, 1060.795
284.9323, 1063.900
285.4144, 1065.675
285.8965, 1065.612
286.3787, 1065.533
286.8608, 1066.495
287.3429, 1068.275
287.8250, 1070.231
288.3071, 1072.534
288.7892, 1074.355
289.2714, 1074.219
289.7535, 1071.849
290.2356, 1069.986
290.7177, 1070.838
291.1998, 1073.195
291.6819, 1073.442
292.1641, 1069.854
292.6462, 1065.828
293.1283, 1065.978
293.6104, 1069.725
294.0925, 1072.035
294.5746, 1069.888
295.0568, 1065.127
295.5389, 1061.245
296.0210, 1058.603
296.5031, 1056.978
296.9852, 1057.367
297.4673, 1058.840
297.9495, 1058.549
298.4316, 1053.919
298.9137, 1047.639
299.3958, 1044.020
299.8779, 1043.651
300.3600, 1043.529
300.8422, 1041.120
301.3243, 1037.689
301.8064, 1035.529
302.2885, 1035.872
302.7706, 1036.951
303.2527, 1036.692
303.7349, 1035.010
304.2170, 1033.213
304.6991, 1031.983
305.1812, 1030.956
305.6633, 1029.555
306.1454, 1027.504
306.6276, 1025.602
307.1097, 1024.681
307.5918, 1024.689
308.0739, 1024.682
308.5560, 1024.497
309.0381, 1024.023
309.5203, 1023.115
310.0024, 1021.724
310.4845, 1020.308
310.9666, 1018.955
311.4487, 1017.761
311.9308, 1017.312
312.4130, 1018.005
312.8951, 1019.086
313.3772, 1019.781
313.8593, 1020.162
314.3414, 1020.735
314.8235, 1022.000
315.3057, 1023.632
315.7878, 1024.940
316.2699, 1026.070
316.7520, 1026.349
317.2341, 1024.639
317.7162, 1021.731
318.1984, 1019.285
318.6805, 1017.672
319.1626, 1016.979
319.6447, 1017.816
320.1268, 1020.604
320.6089, 1022.815
321.0911, 1021.908
321.5732, 1019.846
322.0553, 1019.478
322.5374, 1022.034
323.0195, 1025.349
323.5016, 1027.219
323.9838, 1027.648
324.4659, 1027.791
324.9480, 1028.193
325.4301, 1028.396
325.9122, 1027.668
326.3943, 1025.734
326.8765, 1024.087
327.3586, 1023.831
327.8407, 1024.810
328.3228, 1026.376
328.8049, 1029.077
329.2870, 1031.300
329.7692, 1031.329
330.2513, 1029.333
330.7334, 1026.853
331.2155, 1024.451
331.6976, 1022.115
332.1797, 1019.648
332.6619, 1016.781
333.1440, 1014.489
333.6261, 1014.108
334.1082, 1014.956
334.5903, 1015.479
335.0724, 1015.119
335.5546, 1014.235
336.0367, 1013.134
336.5188, 1011.780
337.0009, 1010.679
337.4830, 1010.501
337.9651, 1010.645
338.4473, 1009.984
338.9294, 1008.154
339.4115, 1005.888
339.8936, 1003.386
340.3757, 1000.765
340.8578, 999.1061
341.3400, 999.3165
341.8221, 1000.167
342.3042, 999.6880
342.7863, 997.6592
343.2684, 995.6243
343.7505, 994.3494
344.2327, 993.6225
344.7148, 993.0467
345.1969, 992.6703
345.6790, 992.0695
346.1611, 990.1451
346.6432, 987.1641
347.1254, 985.4540
347.6075, 986.7003
348.0896, 989.0167
348.5717, 990.0426
349.0538, 989.5548
349.5359, 988.6907
350.0181, 988.2578
350.5002, 988.1336
350.9823, 987.7433
351.4644, 986.6780
351.9465, 985.6658
352.4286, 985.2676
352.9108, 985.3811
353.3929, 985.5643
353.8750, 985.7285
354.3571, 985.6949
354.8392, 984.9708
355.3214, 983.2234
355.8035, 981.6448
356.2856, 980.0643
356.7677, 979.0487
357.2498, 980.2855
357.7319, 984.6367
358.2141, 989.2064
358.6962, 989.6500
359.1783, 985.2539
359.6604, 981.3937
360.1425, 978.2151
360.6246, 976.1006
361.1068, 976.0391
361.5889, 977.9142
362.0710, 979.6837
362.5531, 979.6347
363.0352, 977.7418
363.5173, 975.8544
363.9995, 973.1400
364.4816, 971.2277
364.9637, 971.4034
365.4458, 973.0406
365.9279, 974.4694
366.4100, 974.7664
366.8922, 974.3961
367.3743, 974.9119
367.8564, 978.0692
368.3385, 979.5821
368.8206, 977.5803
369.3027, 974.2083
369.7849, 971.8580
370.2670, 971.2130
370.7491, 971.5590
371.2312, 972.0113
371.7133, 972.7697
372.1954, 972.9283
372.6776, 971.8926
373.1597, 970.8040
373.6418, 970.7859
374.1239, 971.5148
374.6060, 971.4268
375.0881, 969.0400
375.5703, 964.4871
376.0524, 962.0435
376.5345, 963.6201
377.0166, 965.0540
377.4987, 965.5508
377.9808, 965.2966
378.4630, 964.3971
378.9451, 962.8917
379.4272, 961.3798
379.9093, 961.3762
380.3914, 964.2510
380.8735, 966.3901
381.3557, 968.0156
381.8378, 968.7109
382.3199, 967.5344
382.8020, 964.7233
383.2841, 962.0482
383.7662, 961.7684
384.2484, 964.4307
384.7305, 965.6082
385.2126, 963.6331
385.6947, 961.7108
386.1768, 960.6384
386.6589, 960.4009
387.1411, 960.9693
387.6232, 962.5839
388.1053, 964.5906
388.5874, 964.2331
389.0695, 959.0438
389.5516, 956.2432
390.0338, 959.2607
390.5159, 964.0780
390.9980, 966.9575
391.4801, 966.8772
391.9622, 965.7227
392.4443, 965.8508
392.9265, 967.4303
393.4086, 968.6374
393.8907, 968.2680
394.3728, 968.4662
394.8549, 971.3356
395.3370, 976.0964
395.8192, 979.6848
396.3013, 979.0153
396.7834, 975.7065
397.2655, 975.4486
397.7476, 979.4030
398.2297, 983.3925
398.7119, 984.5172
399.1940, 984.5746
399.6761, 985.9130
400.1582, 989.3754
400.6403, 993.6868
401.1224, 997.8475
401.6046, 1001.860
402.0867, 1005.036
402.5688, 1006.088
403.0509, 1007.490
403.5330, 1012.605
404.0151, 1021.503
404.4973, 1029.873
404.9794, 1034.609
405.4615, 1037.940
405.9436, 1044.684
406.4257, 1055.888
406.9078, 1066.113
407.3900, 1070.022
407.8721, 1068.789
408.3542, 1069.259
408.8363, 1073.333
409.3184, 1077.932
409.8005, 1081.202
410.2827, 1083.351
410.7648, 1085.152
411.2469, 1087.010
411.7290, 1088.592
412.2111, 1089.184
412.6932, 1089.314
413.1754, 1087.459
413.6575, 1082.127
414.1396, 1075.339
414.6217, 1068.946
415.1038, 1063.342
415.5859, 1058.369
416.0681, 1054.093
416.5502, 1050.708
417.0323, 1045.573
417.5144, 1036.987
417.9965, 1028.724
418.4786, 1022.449
418.9608, 1017.618
419.4429, 1012.847
419.9250, 1007.409
420.4071, 1001.838
420.8892, 997.6531
421.3713, 995.9684
421.8535, 994.1052
422.3356, 991.7703
422.8177, 989.3790
423.2998, 987.3089
423.7819, 985.5696
424.2640, 983.8742
424.7462, 981.8703
425.2283, 979.5017
425.7104, 977.5420
426.1925, 976.5079
426.6746, 975.3350
427.1567, 973.4408
427.6389, 971.2701
428.1210, 969.5516
428.6031, 968.6574
429.0852, 968.2799
429.5673, 967.7134
430.0494, 966.7265
430.5316, 966.3828
431.0137, 967.2756
431.4958, 968.7014
431.9779, 970.5516
432.4600, 972.7068
432.9421, 974.4570
433.4243, 975.2435
433.9064, 975.1739
434.3885, 974.4460
434.8706, 972.4476
435.3527, 971.2490
435.8348, 973.4004
436.3170, 977.0507
436.7991, 979.0079
437.2812, 977.7997
437.7633, 975.6277
438.2454, 974.7998
438.7275, 975.0143
439.2097, 974.0009
439.6918, 970.4459
440.1739, 966.1303
440.6560, 963.7795
441.1381, 963.3997
441.6202, 963.4260
442.1024, 963.9935
442.5845, 964.4366
443.0666, 963.9023
443.5487, 962.3491
444.0308, 960.4299
444.5129, 958.6193
444.9951, 956.8802
445.4772, 954.7951
445.9593, 951.4359
446.4414, 948.8658
446.9235, 948.2294
447.4056, 948.6276
447.8878, 949.0516
448.3699, 949.1199
448.8520, 948.1965
449.3341, 944.9789
449.8162, 937.6255
450.2983, 933.3789
450.7805, 933.8899
451.2626, 935.4819
451.7447, 936.8124
452.2268, 937.6083
452.7089, 937.8478
453.1910, 937.5057
453.6732, 936.6146
454.1553, 935.2462
454.6374, 932.9251
455.1195, 930.9356
455.6016, 929.7498
456.0837, 928.7654
456.5659, 927.1091
457.0480, 924.7634
457.5301, 923.1144
458.0122, 924.0497
458.4943, 927.5082
458.9764, 930.0851
459.4586, 931.3178
459.9407, 932.1622
460.4228, 933.0919
460.9049, 934.0280
461.3870, 934.7927
461.8691, 935.2001
462.3513, 935.6166
462.8334, 936.8970
463.3155, 938.9677
463.7976, 939.7213
464.2797, 937.8303
464.7618, 935.1393
465.2440, 934.0137
465.7261, 934.4482
466.2082, 935.0694
466.6903, 935.6693
467.1724, 936.0755
467.6545, 936.0794
468.1367, 935.6683
468.6188, 934.8065
469.1009, 933.1347
469.5830, 931.0914
470.0651, 930.8611
470.5472, 934.4327
471.0294, 937.0424
471.5115, 937.0130
471.9936, 935.5544
472.4757, 933.9105
472.9578, 932.4796
473.4399, 931.5001
473.9221, 931.3390
474.4042, 932.2020
474.8863, 932.6755
475.3684, 932.3954
475.8505, 932.1596
476.3326, 932.0740
476.8148, 932.2718
477.2969, 933.0785
477.7790, 934.6736
478.2611, 936.5192
478.7432, 937.4642
479.2253, 937.3510
479.7075, 936.7656
480.1896, 935.5449
480.6717, 934.0603
481.1538, 932.1339
481.6359, 930.0247
482.1180, 928.6223
482.6002, 929.2214
483.0823, 930.7517
483.5644, 929.8922
484.0465, 926.0382
484.5286, 922.0078
485.0107, 918.8719
485.4929, 916.3204
485.9750, 914.1801
486.4571, 912.6292
486.9392, 910.5597
487.4213, 906.0550
487.9034, 900.7195
488.3856, 898.7791
488.8677, 901.2648
489.3498, 904.0941
489.8319, 903.7111
490.3140, 900.2567
490.7961, 897.3718
491.2783, 895.2585
491.7604, 893.4686
492.2425, 891.5966
492.7246, 889.9324
493.2067, 889.2164
493.6888, 889.7115
494.1710, 890.5887
494.6531, 890.6201
495.1352, 889.7678
495.6173, 888.0703
496.0994, 884.0934
496.5815, 880.7808
497.0637, 880.2207
497.5458, 881.4109
498.0279, 882.0961
498.5100, 881.0007
498.9921, 878.6492
499.4742, 876.3000
499.9564, 873.9893
500.4385, 871.5850
500.9206, 867.9905
501.4027, 865.1242
501.8848, 865.0414
502.3669, 867.2098
502.8491, 868.6016
503.3312, 866.5457
503.8133, 862.3498
504.2954, 859.5878
504.7775, 858.5009
505.2596, 857.7796
505.7418, 856.9661
506.2239, 856.1255
506.7060, 855.3274
507.1881, 854.5634
507.6702, 853.9139
508.1523, 853.7060
508.6345, 853.5479
509.1166, 852.6175
509.5987, 850.7869
510.0808, 848.9749
510.5629, 847.9816
511.0450, 847.7198
511.5272, 847.0845
512.0093, 845.6213
512.4914, 844.3658
512.9735, 844.0238
513.4556, 843.8934
513.9377, 842.6162
514.4199, 839.9977
514.9020, 837.7634
515.3841, 838.5009
515.8662, 843.0633
516.3483, 844.7277
516.8304, 840.8170
517.3126, 836.7601
517.7947, 833.8308
518.2768, 831.7708
518.7589, 830.0530
519.2410, 828.4667
519.7231, 827.1794
520.2053, 826.4446
520.6874, 826.2802
521.1695, 826.5161
521.6516, 827.7977
522.1337, 828.5873
522.6158, 827.5065
523.0980, 825.1352
523.5801, 823.1262
524.0622, 822.0706
524.5443, 821.6220
525.0264, 821.7194
525.5085, 822.2310
525.9907, 822.2964
526.4728, 821.5005
526.9549, 820.4059
527.4370, 819.9421
527.9191, 820.2844
528.4012, 820.1070
528.8834, 818.9560
529.3655, 817.5276
529.8476, 816.1882
530.3297, 814.9753
530.8118, 813.9332
531.2939, 813.1015
531.7761, 812.3254
532.2582, 811.1042
532.7403, 808.2875
533.2224, 807.2070
533.7045, 809.3630
534.1866, 811.7509
534.6688, 812.8356
535.1509, 812.5612
535.6330, 811.2841
536.1151, 808.8655
536.5972, 806.0900
537.0793, 805.3604
537.5615, 807.3226
538.0436, 808.6809
538.5257, 807.8360
539.0078, 806.5132
539.4899, 806.2881
539.9720, 807.1649
540.4542, 808.0250
540.9363, 808.5989
541.4184, 808.7083
541.9005, 807.8912
542.3826, 806.1866
542.8647, 804.4523
543.3469, 803.0735
543.8290, 801.9996
544.3111, 801.0852
544.7932, 800.1699
545.2753, 799.7361
545.7574, 800.5482
546.2396, 801.3623
546.7217, 800.6747
547.2038, 798.7978
547.6859, 797.5851
548.1680, 798.4691
548.6501, 800.7919
549.1323, 801.5900
549.6144, 799.9289
550.0965, 798.3036
550.5786, 796.6569
551.0607, 795.3896
551.5428, 794.9654
552.0250, 795.2897
552.5071, 795.7437
552.9892, 795.9918
553.4713, 795.9999
553.9534, 795.5667
554.4355, 794.5776
554.9177, 793.7439
555.3998, 793.5619
555.8819, 793.5167
556.3640, 792.8441
556.8461, 791.4417
557.3282, 790.1691
557.8104, 789.2228
558.2925, 788.6534
558.7746, 788.7139
559.2567, 789.3176
559.7388, 789.7862
560.2209, 789.6599
560.7031, 789.1953
561.1852, 789.2217
561.6673, 791.1634
562.1494, 791.5318
562.6315, 788.4583
563.1136, 785.2255
563.5958, 784.7864
564.0779, 786.5885
564.5600, 787.7572
565.0421, 786.1107
565.5242, 782.6033
566.0063, 780.3674
566.4885, 779.5672
566.9706, 779.5895
567.4527, 781.8997
567.9348, 783.7750
568.4169, 782.4147
568.8990, 778.3082
569.3812, 775.4932
569.8633, 777.4387
570.3454, 781.2068
570.8275, 782.6025
571.3096, 781.7006
571.7917, 779.9746
572.2739, 777.6087
572.7560, 775.4208
573.2381, 775.0836
573.7202, 777.1515
574.2023, 778.7502
574.6844, 779.9915
575.1666, 780.3673
575.6487, 778.7049
576.1308, 775.8883
576.6129, 774.2135
577.0950, 774.9145
577.5771, 776.9142
578.0593, 777.8079
578.5414, 777.1423
579.0235, 776.5975
579.5056, 776.3825
579.9877, 776.1715
580.4698, 775.5114
580.9520, 774.7562
581.4341, 774.8344
581.9162, 776.5283
582.3983, 778.4547
582.8804, 778.1970
583.3625, 776.0645
583.8447, 775.6707
584.3268, 778.4980
584.8089, 781.7919
585.2910, 782.3314
585.7731, 780.4542
586.2552, 779.6760
586.7374, 781.5273
587.2195, 783.2680
587.7016, 783.3116
588.1837, 782.3216
588.6658, 781.2841
589.1479, 780.5466
589.6301, 780.3528
590.1122, 781.0450
590.5943, 782.6941
591.0764, 784.5881
591.5585, 788.2197
592.0406, 790.2758
592.5228, 788.5126
593.0049, 785.4524
593.4870, 783.8980
593.9691, 784.5806
594.4512, 786.6833
594.9333, 790.0037
595.4155, 794.1973
595.8976, 797.7004
596.3797, 800.3375
596.8618, 802.7529
597.3439, 805.9745
597.8260, 808.8897
598.3082, 808.8691
598.7903, 804.6576
599.2724, 800.7110
599.7545, 798.8449
600.2366, 797.7147
600.7188, 795.7164
601.2009, 792.8987
601.6830, 790.5667
602.1651, 789.6510
602.6472, 789.7379
603.1293, 789.3654
603.6115, 788.8712
604.0936, 787.2190
604.5757, 782.6205
605.0578, 778.4763
605.5399, 777.3341
606.0220, 778.5667
606.5042, 779.7009
606.9863, 779.3705
607.4684, 778.1985
607.9505, 777.1874
608.4326, 776.3240
608.9147, 775.1101
609.3969, 773.3494
609.8790, 771.3184
610.3611, 769.0250
610.8432, 766.5344
611.3253, 765.0118
611.8074, 765.2365
612.2896, 765.7742
612.7717, 765.5068
613.2538, 765.1429
613.7359, 766.3291
614.2180, 769.4172
614.7001, 772.4839
615.1823, 773.0562
615.6644, 770.9469
616.1465, 770.2637
616.6286, 772.5641
617.1107, 774.1458
617.5928, 773.1586
618.0750, 771.5529
618.5571, 771.4716
619.0392, 773.2822
619.5213, 775.4414
620.0034, 776.5481
620.4855, 777.2271
620.9677, 778.9100
621.4498, 781.6713
621.9319, 785.0665
622.4140, 789.2352
622.8961, 793.5297
623.3782, 796.5508
623.8604, 798.1688
624.3425, 799.1430
624.8246, 798.5532
625.3067, 798.2222
625.7888, 799.8033
626.2709, 802.6391
626.7531, 805.3661
627.2352, 807.3387
627.7173, 807.8563
628.1994, 805.0391
628.6815, 797.9939
629.1636, 792.5950
629.6458, 790.6681
630.1279, 788.4754
630.6100, 783.6705
631.0921, 777.4655
631.5742, 771.9772
632.0563, 767.7327
632.5385, 764.2605
633.0206, 761.1078
633.5027, 758.5214
633.9848, 757.4336
634.4669, 757.9254
634.9490, 757.9871
635.4312, 756.0680
635.9133, 752.5898
636.3954, 749.5047
636.8775, 746.4772
637.3596, 744.3845
637.8417, 744.1289
638.3239, 744.1165
638.8060, 743.4058
639.2881, 741.9039
639.7702, 739.6205
640.2523, 736.2548
640.7344, 732.9052
641.2166, 732.2845
641.6987, 734.5652
642.1808, 735.3599
642.6629, 733.1083
643.1450, 730.3080
643.6271, 729.1619
644.1093, 729.3202
644.5914, 729.6836
645.0735, 730.6996
645.5556, 731.2119
646.0377, 730.2433
646.5198, 728.6251
647.0020, 727.3881
647.4841, 726.8030
647.9662, 726.9177
648.4483, 727.8723
648.9304, 729.5174
649.4125, 730.9613
649.8947, 732.9648
650.3768, 733.2545
650.8589, 729.8796
651.3410, 725.9910
651.8231, 723.9003
652.3052, 723.4417
652.7874, 722.8380
653.2695, 720.8239
653.7516, 718.5820
654.2337, 717.5847
654.7158, 717.6619
655.1979, 718.1368
655.6801, 718.8793
656.1622, 719.6335
656.6443, 720.2531
657.1264, 720.7859
657.6085, 720.1757
658.0906, 716.8943
658.5728, 714.5492
659.0549, 714.8545
659.5370, 715.9861
660.0191, 715.9664
660.5012, 714.5773
660.9833, 713.0275
661.4655, 712.4156
661.9476, 711.0961
662.4297, 711.3350
662.9118, 709.2419
663.3939, 707.6429
663.8760, 706.9625
664.3582, 707.0654
664.8403, 708.3846
665.3224, 710.7747
665.8045, 711.7753
666.2866, 709.5585
666.7687, 707.3639
667.2509, 707.3899
667.7330, 708.5177
668.2151, 708.8571
668.6972, 707.9223
669.1793, 706.4216
