##NAMES=Antlerite
##RRUFFID=R050212
##IDEAL CHEMISTRY=Cu^2+^_3_(S^6+^O_4_)(OH)_4_
##LOCALITY=Chuquicamata mine, Calama, Antofagasta Province, Chile
##OWNER=RRUFF
##SOURCE=John Dagenais
##DESCRIPTION=Deep green tabular crystals
##STATUS=The identification of this mineral has been confirmed by X-ray diffraction and chemical analysis
##URL=rruff.info/R050212
##MEASURED CHEMISTRY=Cu_3.00_S_1.00_O_4_(OH)_4_
93.88477, 31.08031
94.36688, 29.76486
94.84900, 30.19600
95.33112, 32.16990
95.81323, 34.72274
96.29535, 37.55935
96.77747, 40.61340
97.25958, 43.56687
97.74170, 46.28051
98.22382, 49.16912
98.70593, 53.03864
99.18805, 57.94936
99.67017, 63.25603
100.1523, 68.25490
100.6344, 72.86787
101.1165, 78.70253
101.5986, 86.19912
102.0807, 95.02810
102.5629, 103.3252
103.0450, 110.8826
103.5271, 118.5038
104.0092, 126.4342
104.4913, 134.0746
104.9734, 144.0317
105.4556, 157.5890
105.9377, 174.8390
106.4198, 191.2651
106.9019, 206.9789
107.3840, 221.6775
107.8661, 234.9087
108.3483, 248.8269
108.8304, 258.7563
109.3125, 263.9700
109.7946, 265.1199
110.2767, 259.8950
110.7588, 243.4981
111.2410, 221.2152
111.7231, 202.2629
112.2052, 185.8893
112.6873, 173.4044
113.1694, 165.2902
113.6515, 162.9824
114.1337, 162.6454
114.6158, 164.5999
115.0979, 168.2991
115.5800, 172.1573
116.0621, 174.7481
116.5442, 178.0171
117.0264, 183.0855
117.5085, 191.3155
117.9906, 200.3078
118.4727, 208.9801
118.9548, 217.5415
119.4369, 227.3429
119.9191, 238.2833
120.4012, 251.1547
120.8833, 266.6205
121.3654, 281.7469
121.8475, 301.9681
122.3296, 331.2526
122.8118, 369.6996
123.2939, 413.5240
123.7760, 470.5092
124.2581, 530.0661
124.7402, 575.7595
125.2223, 598.6309
125.7045, 603.4461
126.1866, 592.0632
126.6687, 562.9815
127.1508, 527.4560
127.6329, 495.7126
128.1150, 466.7926
128.5972, 436.3577
129.0793, 400.8379
129.5614, 362.5221
130.0435, 325.7981
130.5256, 290.5854
131.0077, 258.4727
131.4899, 231.7908
131.9720, 210.4579
132.4541, 193.2190
132.9362, 179.5028
133.4183, 168.8333
133.9004, 160.8377
134.3826, 155.6332
134.8647, 152.3737
135.3468, 149.0411
135.8289, 145.5050
136.3110, 142.7716
136.7931, 141.8155
137.2753, 142.6624
137.7574, 143.9384
138.2395, 145.4325
138.7216, 147.1304
139.2037, 148.8761
139.6858, 150.4054
140.1680, 152.6071
140.6501, 156.4094
141.1322, 161.9929
141.6143, 168.5706
142.0964, 176.4179
142.5785, 185.6453
143.0607, 193.6757
143.5428, 200.4928
144.0249, 206.2639
144.5070, 211.0758
144.9891, 214.0185
145.4712, 217.7059
145.9534, 222.5534
146.4355, 228.3412
146.9176, 236.5014
147.3997, 248.5051
147.8818, 262.2418
148.3639, 274.5057
148.8461, 286.4663
149.3282, 295.5958
149.8103, 301.4731
150.2924, 307.1849
150.7745, 303.9092
151.2566, 288.1675
151.7388, 263.2772
152.2209, 238.3939
152.7030, 210.8908
153.1851, 185.3851
153.6672, 163.6693
154.1493, 145.8576
154.6315, 132.0820
155.1136, 123.4970
155.5957, 119.1815
156.0778, 115.6138
156.5599, 112.6660
157.0420, 110.1046
157.5242, 107.7852
158.0063, 105.7322
158.4884, 103.9063
158.9705, 101.8909
159.4526, 99.88919
159.9347, 99.09461
160.4169, 100.5133
160.8990, 102.8735
161.3811, 105.2573
161.8632, 107.4630
162.3453, 109.6309
162.8274, 111.9572
163.3096, 114.4025
163.7917, 116.4323
164.2738, 117.1178
164.7559, 117.5564
165.2380, 118.8294
165.7201, 121.4864
166.2023, 124.9099
166.6844, 128.5214
167.1665, 132.3028
167.6486, 137.4612
168.1307, 145.7846
168.6128, 155.6111
169.0950, 164.7696
169.5771, 172.1225
170.0592, 178.6810
170.5413, 184.8989
171.0234, 190.7721
171.5055, 197.1345
171.9877, 204.9738
172.4698, 213.6805
172.9519, 222.1697
173.4340, 233.2206
173.9161, 242.1984
174.3982, 244.6464
174.8804, 240.2393
175.3625, 229.7822
175.8446, 211.0898
176.3267, 186.6009
176.8088, 162.4070
177.2909, 139.9092
177.7731, 120.1525
178.2552, 104.8081
178.7373, 94.22298
179.2194, 86.70851
179.7015, 81.06667
180.1836, 77.04686
180.6658, 73.80589
181.1479, 70.64464
181.6300, 67.89542
182.1121, 66.45537
182.5942, 66.70134
183.0763, 67.53813
183.5585, 67.56877
184.0406, 66.88702
184.5227, 66.12829
185.0048, 65.46656
185.4869, 65.01755
185.9690, 65.16161
186.4511, 66.06563
186.9333, 67.38352
187.4154, 68.59840
187.8975, 69.72421
188.3796, 70.81041
188.8617, 71.76830
189.3438, 72.67757
189.8260, 73.96782
190.3081, 75.79288
190.7902, 77.94502
191.2723, 79.93080
191.7544, 81.73805
192.2365, 83.76841
192.7187, 86.54393
193.2008, 89.96355
193.6829, 93.07213
194.1650, 95.65980
194.6471, 97.92082
195.1292, 100.2951
195.6114, 102.7667
196.0935, 105.4942
196.5756, 108.5733
197.0577, 112.0023
197.5398, 115.7848
198.0219, 120.0893
198.5041, 124.7104
198.9862, 128.4858
199.4683, 131.2689
199.9504, 134.0031
200.4325, 137.5090
200.9146, 141.7989
201.3968, 146.3188
201.8789, 151.0159
202.3610, 155.8258
202.8431, 160.2922
203.3252, 164.1727
203.8073, 168.3497
204.2895, 173.7986
204.7716, 180.7230
205.2537, 187.4438
205.7358, 193.5789
206.2179, 199.2227
206.7000, 204.8951
207.1822, 210.3646
207.6643, 216.2968
208.1464, 223.4197
208.6285, 231.9510
209.1106, 240.6847
209.5927, 249.4891
210.0749, 258.3328
210.5570, 266.8505
211.0391, 274.9665
211.5212, 282.7544
212.0033, 290.3373
212.4854, 297.7048
212.9676, 304.9386
213.4497, 312.3232
213.9318, 319.8133
214.4139, 325.5567
214.8960, 329.0828
215.3781, 331.6770
215.8603, 334.9520
216.3424, 339.6779
216.8245, 342.7166
217.3066, 343.4038
217.7887, 341.7372
218.2708, 338.2738
218.7530, 332.4892
219.2351, 325.5395
219.7172, 318.7703
220.1993, 312.2916
220.6814, 305.4702
221.1635, 298.1363
221.6457, 290.2187
222.1278, 282.4572
222.6099, 274.4239
223.0920, 266.9230
223.5741, 260.9144
224.0562, 256.3674
224.5384, 253.1646
225.0205, 251.3741
225.5026, 251.0228
225.9847, 251.2226
226.4668, 251.3494
226.9489, 252.7207
227.4311, 256.7979
227.9132, 264.5773
228.3953, 273.1606
228.8774, 282.3976
229.3595, 292.4358
229.8416, 301.1609
230.3238, 309.9615
230.8059, 316.1196
231.2880, 316.6025
231.7701, 309.1477
232.2522, 300.4742
232.7343, 291.3320
233.2165, 281.5748
233.6986, 273.3037
234.1807, 266.3456
234.6628, 261.0331
235.1449, 257.8426
235.6270, 257.2139
236.1092, 257.8787
236.5913, 259.6157
237.0734, 262.4157
237.5555, 266.6769
238.0376, 273.2267
238.5197, 280.3822
239.0019, 286.3490
239.4840, 290.0733
239.9661, 294.6221
240.4482, 300.5858
240.9303, 307.9561
241.4124, 315.8541
241.8946, 324.2420
242.3767, 333.1935
242.8588, 342.4893
243.3409, 351.2349
243.8230, 362.0955
244.3051, 375.6752
244.7873, 391.9367
245.2694, 409.6452
245.7515, 428.7604
246.2336, 449.3589
246.7157, 471.7741
247.1978, 497.3215
247.6800, 522.5123
248.1621, 549.0001
248.6442, 576.1547
249.1263, 592.3090
249.6084, 597.7493
250.0905, 592.1694
250.5726, 574.4228
251.0548, 540.5325
251.5369, 502.3835
252.0190, 459.3170
252.5011, 412.1912
252.9832, 372.2551
253.4653, 340.5726
253.9475, 314.1368
254.4296, 290.7051
254.9117, 269.2163
255.3938, 253.2074
255.8759, 244.1340
256.3581, 241.0159
256.8402, 238.6311
257.3223, 236.7972
257.8044, 235.9342
258.2865, 236.2321
258.7686, 237.4735
259.2508, 240.4135
259.7329, 245.1501
260.2150, 251.5981
260.6971, 259.7934
261.1792, 269.4713
261.6613, 281.1976
262.1435, 295.2968
262.6256, 311.5604
263.1077, 330.6453
263.5898, 353.2119
264.0719, 378.3536
264.5540, 403.2119
265.0362, 428.0742
265.5183, 452.5154
266.0004, 478.5086
266.4825, 509.3105
266.9646, 528.7999
267.4467, 536.5299
267.9289, 532.1586
268.4110, 513.6001
268.8931, 477.7000
269.3752, 435.1907
269.8573, 389.4376
270.3394, 338.1782
270.8216, 292.5088
271.3037, 252.6514
271.7858, 218.3164
272.2679, 190.8008
272.7500, 170.7730
273.2321, 154.6783
273.7143, 141.7203
274.1964, 132.2231
274.6785, 123.3032
275.1606, 114.7719
275.6427, 107.1853
276.1248, 101.7267
276.6070, 98.71196
277.0891, 96.23125
277.5712, 93.58307
278.0533, 90.76268
278.5354, 88.12222
279.0175, 85.59166
279.4996, 83.39594
279.9818, 82.01137
280.4639, 81.52602
280.9460, 81.12874
281.4281, 80.55544
281.9102, 79.82475
282.3923, 79.09480
282.8745, 78.32953
283.3566, 77.68163
283.8387, 77.33704
284.3208, 77.29897
284.8029, 77.41903
285.2850, 77.62343
285.7672, 77.95115
286.2493, 78.64009
286.7314, 79.73309
287.2135, 80.93611
287.6956, 82.00780
288.1777, 82.95244
288.6599, 83.73815
289.1420, 84.26114
289.6241, 84.68092
290.1062, 85.38615
290.5883, 86.37695
291.0704, 87.72901
291.5526, 89.79698
292.0347, 92.42091
292.5168, 94.60759
292.9989, 96.10822
293.4810, 97.15642
293.9631, 98.18251
294.4453, 99.18456
294.9274, 100.1516
295.4095, 101.2816
295.8916, 102.3906
296.3737, 102.8854
296.8558, 102.6459
297.3380, 101.8016
297.8201, 100.4147
298.3022, 98.51824
298.7843, 96.38460
299.2664, 94.18002
299.7485, 91.82332
300.2307, 89.15434
300.7128, 86.04643
301.1949, 82.90024
301.6770, 79.95837
302.1591, 77.27060
302.6412, 75.05739
303.1234, 73.75687
303.6055, 72.86482
304.0876, 71.50804
304.5697, 69.58183
305.0518, 67.78160
305.5339, 66.82222
306.0161, 66.47502
306.4982, 66.28676
306.9803, 65.89130
307.4624, 65.64303
307.9445, 66.15205
308.4266, 67.43898
308.9088, 68.45724
309.3909, 67.95444
309.8730, 66.81654
310.3551, 66.31706
310.8372, 67.49162
311.3193, 69.05272
311.8015, 70.01346
312.2836, 70.45345
312.7657, 70.96645
313.2478, 71.72969
313.7299, 72.81169
314.2120, 74.31242
314.6942, 76.49750
315.1763, 78.81169
315.6584, 80.97697
316.1405, 83.05056
316.6226, 85.11778
317.1047, 87.26394
317.5869, 89.41485
318.0690, 91.51202
318.5511, 93.49544
319.0332, 95.50571
319.5153, 97.36934
319.9974, 99.28564
320.4796, 101.6702
320.9617, 105.0921
321.4438, 108.6872
321.9259, 111.9252
322.4080, 114.4257
322.8901, 117.5341
323.3723, 121.8463
323.8544, 126.8745
324.3365, 131.9441
324.8186, 136.2628
325.3007, 141.1682
325.7828, 147.3720
326.2650, 155.2458
326.7471, 162.3943
327.2292, 167.8845
327.7113, 172.8701
328.1934, 178.4741
328.6755, 185.5340
329.1577, 192.3311
329.6398, 198.6685
330.1219, 204.5706
330.6040, 209.8111
331.0861, 213.9467
331.5682, 217.7607
332.0504, 221.8173
332.5325, 226.7215
333.0146, 230.7933
333.4967, 233.4439
333.9788, 235.1107
334.4609, 237.8054
334.9431, 242.0979
335.4252, 246.6542
335.9073, 250.6515
336.3894, 253.5964
336.8715, 257.4794
337.3536, 262.7852
337.8358, 268.7764
338.3179, 274.2221
338.8000, 279.3394
339.2821, 283.1956
339.7642, 285.1437
340.2463, 284.9772
340.7285, 285.2164
341.2106, 286.3072
341.6927, 286.9766
342.1748, 285.6264
342.6569, 282.2178
343.1390, 277.0706
343.6212, 270.1387
344.1033, 261.4974
344.5854, 251.7044
345.0675, 240.7131
345.5496, 229.4829
346.0317, 219.1861
346.5139, 209.6623
346.9960, 200.0634
347.4781, 189.7945
347.9602, 179.6017
348.4423, 171.2996
348.9244, 164.8431
349.4066, 158.8166
349.8887, 151.9688
350.3708, 144.7225
350.8529, 138.5941
351.3350, 133.9763
351.8171, 130.0157
352.2993, 125.5965
352.7814, 120.9396
353.2635, 116.7368
353.7456, 113.5158
354.2277, 110.8828
354.7098, 108.1713
355.1920, 105.3095
355.6741, 102.7939
356.1562, 101.5188
356.6383, 100.8751
357.1204, 99.76240
357.6025, 97.22196
358.0847, 94.39539
358.5668, 92.24236
359.0489, 90.70082
359.5310, 89.16621
360.0131, 87.01861
360.4952, 84.79979
360.9774, 83.10963
361.4595, 82.55537
361.9416, 81.97112
362.4237, 80.58195
362.9058, 78.68553
363.3879, 77.22128
363.8701, 76.99554
364.3522, 76.97419
364.8343, 76.50417
365.3164, 75.17767
365.7985, 74.15370
366.2806, 73.72605
366.7628, 73.75837
367.2449, 74.03526
367.7270, 75.24355
368.2091, 76.00816
368.6912, 75.64553
369.1733, 73.79642
369.6555, 72.74422
370.1376, 73.07619
370.6197, 73.95601
371.1018, 74.68675
371.5839, 75.13559
372.0660, 75.63036
372.5482, 76.33784
373.0303, 77.17743
373.5124, 77.47581
373.9945, 76.70216
374.4766, 76.09325
374.9587, 76.52187
375.4409, 78.64077
375.9230, 79.81627
376.4051, 79.46530
376.8872, 78.46536
377.3693, 78.85316
377.8514, 80.95528
378.3336, 83.25600
378.8157, 85.20464
379.2978, 86.81902
379.7799, 87.96944
380.2620, 88.54636
380.7441, 89.00373
381.2263, 89.92454
381.7084, 91.29090
382.1905, 92.70796
382.6726, 94.01883
383.1547, 95.30955
383.6368, 96.79408
384.1190, 98.48537
384.6011, 100.2543
385.0832, 101.8250
385.5653, 103.3739
386.0474, 105.5238
386.5295, 108.5482
387.0117, 111.8030
387.4938, 114.2765
387.9759, 116.2336
388.4580, 118.6847
388.9401, 122.7044
389.4222, 127.2863
389.9044, 130.8798
390.3865, 133.2320
390.8686, 136.3477
391.3507, 142.2741
391.8328, 149.8119
392.3149, 157.1543
392.7971, 162.3958
393.2792, 168.1821
393.7613, 175.9122
394.2434, 185.5619
394.7255, 196.3222
395.2076, 208.0901
395.6898, 220.7048
396.1719, 233.9711
396.6540, 247.1143
397.1361, 262.0529
397.6182, 279.4413
398.1003, 298.9430
398.5825, 319.7970
399.0646, 343.1330
399.5467, 366.6719
400.0288, 389.4369
400.5109, 410.8759
400.9930, 433.5314
401.4752, 458.4257
401.9573, 484.0696
402.4394, 508.7258
402.9215, 529.9855
403.4036, 554.2498
403.8857, 582.9799
404.3678, 615.9495
404.8499, 649.4532
405.3321, 683.1068
405.8142, 718.5697
406.2963, 756.2881
406.7784, 796.2811
407.2605, 839.3179
407.7426, 885.2762
408.2248, 934.5228
408.7069, 987.3251
409.1890, 1042.492
409.6711, 1104.403
410.1532, 1176.120
410.6353, 1256.375
411.1175, 1337.997
411.5996, 1419.911
412.0817, 1505.622
412.5638, 1601.990
413.0459, 1704.740
413.5280, 1805.511
414.0102, 1904.221
414.4923, 1996.882
414.9744, 2084.810
415.4565, 2165.829
415.9386, 2226.205
416.4207, 2263.258
416.9029, 2273.042
417.3850, 2249.544
417.8671, 2190.015
418.3492, 2106.086
418.8313, 1995.933
419.3134, 1868.392
419.7956, 1735.760
420.2777, 1592.426
420.7598, 1454.600
421.2419, 1326.041
421.7240, 1207.705
422.2061, 1101.817
422.6883, 1009.593
423.1704, 928.9811
423.6525, 857.3325
424.1346, 796.2504
424.6167, 742.2222
425.0988, 696.7940
425.5810, 658.8706
426.0631, 625.6722
426.5452, 598.3740
427.0273, 574.7578
427.5094, 554.1803
427.9915, 536.9484
428.4737, 521.8883
428.9558, 509.1714
429.4379, 498.4699
429.9200, 489.4369
430.4021, 482.0099
430.8842, 476.5944
431.3664, 473.6552
431.8485, 472.7392
432.3306, 471.9588
432.8127, 471.1522
433.2948, 471.2336
433.7769, 472.9586
434.2591, 476.2378
434.7412, 479.5543
435.2233, 482.5358
435.7054, 486.4715
436.1875, 494.3244
436.6696, 505.3100
437.1518, 514.6827
437.6339, 518.7598
438.1160, 521.2621
438.5981, 529.8296
439.0802, 543.8776
439.5623, 556.8320
440.0445, 563.1115
440.5266, 565.6064
441.0087, 568.5043
441.4908, 573.4731
441.9729, 576.9529
442.4550, 576.5269
442.9372, 572.8304
443.4193, 567.0751
443.9014, 559.5948
444.3835, 550.3703
444.8656, 539.1340
445.3477, 525.7735
445.8299, 511.9671
446.3120, 498.3099
446.7941, 484.2460
447.2762, 469.5048
447.7583, 451.5600
448.2404, 435.7011
448.7226, 423.3119
449.2047, 413.3879
449.6868, 403.3892
450.1689, 392.4486
450.6510, 382.4486
451.1331, 374.1471
451.6153, 367.6042
452.0974, 362.1280
452.5795, 357.6908
453.0616, 354.3586
453.5437, 352.3397
454.0258, 351.8535
454.5080, 351.1833
454.9901, 349.6495
455.4722, 347.9473
455.9543, 348.0233
456.4364, 349.9016
456.9185, 353.0062
457.4007, 356.9622
457.8828, 361.8475
458.3649, 368.1411
458.8470, 375.8573
459.3291, 384.7055
459.8112, 394.4467
460.2934, 404.9977
460.7755, 416.0977
461.2576, 427.2224
461.7397, 439.3946
462.2218, 453.4616
462.7039, 469.4840
463.1861, 487.0698
463.6682, 507.3953
464.1503, 528.6613
464.6324, 549.2150
465.1145, 568.9568
465.5966, 588.6490
466.0788, 609.1343
466.5609, 629.6317
467.0430, 648.8262
467.5251, 666.9886
468.0072, 683.2968
468.4893, 697.9494
468.9715, 710.8586
469.4536, 720.4012
469.9357, 725.6494
470.4178, 728.5187
470.8999, 729.8473
471.3820, 729.3805
471.8642, 727.8691
472.3463, 724.7667
472.8284, 721.2206
473.3105, 718.9982
473.7926, 718.3113
474.2747, 717.8525
474.7569, 717.4024
475.2390, 716.8431
475.7211, 715.5071
476.2032, 713.3326
476.6853, 711.1846
477.1674, 709.4659
477.6496, 708.2694
478.1317, 707.8899
478.6138, 708.3842
479.0959, 709.6206
479.5780, 712.3903
480.0602, 715.8318
480.5423, 717.8866
481.0244, 717.5491
481.5065, 715.5861
481.9886, 712.2660
482.4707, 707.6878
482.9529, 702.6881
483.4350, 697.3763
483.9171, 691.9268
484.3992, 686.7709
484.8813, 682.9844
485.3634, 677.1903
485.8456, 667.8414
486.3277, 656.2629
486.8098, 644.4757
487.2919, 632.5587
487.7740, 620.4658
488.2561, 608.8579
488.7383, 597.5208
489.2204, 583.9792
489.7025, 567.3024
490.1846, 550.1063
490.6667, 533.6486
491.1488, 517.8776
491.6310, 503.7651
492.1131, 491.0714
492.5952, 480.4823
493.0773, 472.7674
493.5594, 467.9016
494.0415, 464.9324
494.5237, 463.5694
495.0058, 463.8265
495.4879, 465.4303
495.9700, 468.4518
496.4521, 473.8247
496.9342, 483.2352
497.4164, 495.1156
497.8985, 507.0968
498.3806, 519.0637
498.8627, 530.6274
499.3448, 541.7963
499.8269, 552.4373
500.3091, 562.4257
500.7912, 573.2074
501.2733, 581.8512
501.7554, 587.8336
502.2375, 590.8792
502.7196, 589.8728
503.2018, 584.4637
503.6839, 574.9656
504.1660, 561.2926
504.6481, 542.1655
505.1302, 521.8242
505.6123, 499.7069
506.0945, 476.7658
506.5766, 454.4353
507.0587, 433.2292
507.5408, 411.2731
508.0229, 387.3851
508.5050, 362.7381
508.9872, 340.0694
509.4693, 319.3501
509.9514, 300.8128
510.4335, 284.9171
510.9156, 271.3328
511.3977, 259.2520
511.8799, 248.7011
512.3619, 238.9365
512.8441, 228.6456
513.3262, 218.4816
513.8083, 210.0228
514.2904, 204.0891
514.7725, 199.3134
515.2546, 194.9848
515.7368, 190.8692
516.2189, 186.2553
516.7010, 180.0345
517.1831, 173.8461
517.6652, 168.7992
518.1473, 165.0054
518.6295, 161.0942
519.1116, 156.4993
519.5937, 151.7430
520.0758, 147.2494
520.5579, 143.5760
521.0400, 139.3851
521.5222, 134.0353
522.0043, 128.4012
522.4864, 124.1915
522.9685, 122.0449
523.4506, 119.8399
523.9327, 116.9630
524.4149, 113.5273
524.8970, 110.5198
525.3791, 107.9725
525.8612, 105.6481
526.3433, 103.4290
526.8254, 101.2828
527.3076, 98.98112
527.7897, 96.47617
528.2718, 93.99644
528.7539, 91.64754
529.2360, 89.51730
529.7181, 87.78332
530.2003, 86.83231
530.6824, 85.97868
531.1645, 84.60855
531.6466, 82.82567
532.1287, 80.92188
532.6108, 78.62879
533.0930, 76.57423
533.5751, 75.23438
534.0572, 74.84099
534.5393, 74.23076
535.0214, 73.17197
535.5035, 71.79411
535.9857, 70.21165
536.4678, 67.85875
536.9499, 66.20241
537.4320, 65.69390
537.9141, 65.78700
538.3962, 65.11113
538.8784, 63.37993
539.3605, 61.75929
539.8426, 60.70119
540.3247, 60.11807
540.8068, 59.55125
541.2889, 59.00615
541.7711, 58.44073
542.2532, 57.78828
542.7353, 57.09215
543.2174, 56.51512
543.6995, 56.11161
544.1816, 55.67323
544.6638, 54.87425
545.1459, 53.90267
545.6280, 53.11723
546.1101, 52.80884
546.5922, 52.59387
547.0743, 52.24833
547.5565, 51.80787
548.0386, 51.40781
548.5207, 51.13393
549.0028, 50.87471
549.4849, 50.56279
549.9670, 50.16021
550.4492, 49.85143
550.9313, 49.73745
551.4134, 49.63616
551.8955, 49.36776
552.3776, 48.79584
552.8597, 48.44440
553.3419, 48.38820
553.8240, 48.54384
554.3061, 48.78902
554.7882, 49.13350
555.2703, 49.42783
555.7524, 49.62657
556.2346, 49.72634
556.7167, 49.68728
557.1988, 49.51535
557.6809, 49.29355
558.1630, 48.94316
558.6451, 48.63185
559.1273, 48.64680
559.6094, 49.06472
560.0915, 49.52279
560.5736, 49.98687
561.0557, 50.28866
561.5378, 50.23375
562.0200, 49.11875
562.5021, 48.35983
562.9842, 48.54031
563.4663, 49.36208
563.9484, 49.94356
564.4305, 50.03449
564.9127, 50.13171
565.3948, 50.41395
565.8769, 50.88331
566.3590, 51.09621
566.8411, 50.91551
567.3232, 50.78907
567.8054, 51.04729
568.2875, 51.69144
568.7696, 52.55033
569.2517, 53.73587
569.7338, 54.70532
570.2159, 54.53551
570.6981, 53.54092
571.1802, 52.71063
571.6623, 52.17348
572.1444, 52.18925
572.6265, 53.42183
573.1086, 55.50529
573.5908, 57.29298
574.0729, 57.87334
574.5550, 58.29154
575.0371, 59.29278
575.5192, 60.94992
576.0013, 62.27499
576.4835, 62.44272
576.9656, 62.61003
577.4477, 63.54199
577.9298, 65.62564
578.4119, 67.70720
578.8940, 69.59639
579.3762, 71.61346
579.8583, 74.20341
580.3404, 77.45131
580.8225, 81.00384
581.3046, 84.92357
581.7867, 88.97282
582.2689, 92.08205
582.7510, 94.35947
583.2331, 97.33593
583.7152, 102.3187
584.1973, 108.4095
584.6794, 114.0517
585.1616, 119.2258
585.6437, 124.4123
586.1258, 130.1013
586.6079, 135.8668
587.0900, 141.2372
587.5721, 145.8376
588.0543, 150.9752
588.5364, 157.2238
589.0185, 164.2086
589.5006, 171.4553
589.9827, 177.7033
590.4648, 185.8439
