##NAMES=Apuanite
##RRUFFID=R060674
##IDEAL CHEMISTRY=Fe^2+^Fe^3+^_4_Sb^3+^_4_O_12_S^2-^
##LOCALITY=Buca della Vena mine, Stazzema, Apuan Alps, Lucca Province, Tuscany, Italy
##OWNER=RRUFF
##SOURCE=Michael Scott
##DESCRIPTION=Black massive granular
##STATUS=The identification of this mineral has been confirmed by single-crystal X-ray diffraction.
##URL=rruff.info/R060674
142.2540, 2005.992
142.7361, 2003.883
143.2183, 1995.329
143.7004, 1991.754
144.1825, 1993.504
144.6646, 1999.871
145.1467, 2010.854
145.6288, 2033.385
146.1110, 2050.407
146.5931, 2056.043
147.0752, 2045.044
147.5573, 2036.911
148.0394, 2030.065
148.5215, 2026.267
149.0037, 2029.275
149.4858, 2046.827
149.9679, 2064.151
150.4500, 2076.015
150.9321, 2075.384
151.4142, 2079.255
151.8964, 2094.057
152.3785, 2114.966
152.8606, 2125.506
153.3427, 2108.473
153.8248, 2092.383
154.3069, 2091.494
154.7890, 2126.262
155.2712, 2156.030
155.7533, 2173.584
156.2354, 2179.961
156.7175, 2185.331
157.1996, 2180.481
157.6817, 2181.030
158.1639, 2198.671
158.6460, 2263.631
159.1281, 2320.414
159.6102, 2344.214
160.0923, 2333.177
160.5744, 2331.371
161.0566, 2366.089
161.5387, 2413.937
162.0208, 2448.925
162.5029, 2439.572
162.9850, 2432.497
163.4671, 2457.474
163.9493, 2522.699
164.4314, 2580.167
164.9135, 2597.004
165.3956, 2592.002
165.8777, 2595.552
166.3598, 2626.088
166.8420, 2666.920
167.3241, 2707.027
167.8062, 2745.525
168.2883, 2781.934
168.7704, 2819.242
169.2525, 2855.055
169.7346, 2883.528
170.2168, 2900.935
170.6989, 2909.569
171.1810, 2910.018
171.6631, 2898.266
172.1452, 2886.243
172.6273, 2884.273
173.1095, 2890.967
173.5916, 2900.595
174.0737, 2911.652
174.5558, 2922.913
175.0379, 2932.522
175.5201, 2940.476
176.0022, 2946.166
176.4843, 2948.017
176.9664, 2919.126
177.4485, 2949.978
177.9306, 2966.236
178.4128, 2968.683
178.8949, 2915.957
179.3770, 2934.476
179.8591, 2924.444
180.3412, 2913.240
180.8233, 2941.787
181.3055, 2897.085
181.7876, 2925.001
182.2697, 2923.930
182.7518, 2936.125
183.2339, 2919.593
183.7160, 2911.933
184.1981, 2913.578
184.6803, 2891.255
185.1624, 2863.716
185.6445, 2855.189
186.1266, 2862.416
186.6087, 2864.800
187.0908, 2842.942
187.5730, 2806.695
188.0551, 2796.555
188.5372, 2815.761
189.0193, 2852.099
189.5014, 2896.839
189.9835, 2949.469
190.4657, 2990.835
190.9478, 3005.387
191.4299, 2997.347
191.9120, 2995.717
192.3941, 3001.939
192.8762, 3014.805
193.3584, 3032.533
193.8405, 3055.039
194.3226, 3082.297
194.8047, 3116.248
195.2868, 3156.564
195.7689, 3194.539
196.2511, 3230.627
196.7332, 3263.486
197.2153, 3285.890
197.6974, 3295.602
198.1795, 3311.077
198.6616, 3349.305
199.1437, 3412.360
199.6259, 3463.462
200.1080, 3495.417
200.5901, 3514.600
201.0722, 3539.498
201.5543, 3570.154
202.0364, 3606.620
202.5186, 3651.951
203.0007, 3708.049
203.4828, 3757.759
203.9649, 3799.396
204.4470, 3832.558
204.9291, 3851.677
205.4113, 3851.724
205.8934, 3851.173
206.3755, 3866.467
206.8576, 3900.837
207.3397, 3935.706
207.8218, 3970.324
208.3040, 4003.522
208.7861, 4024.266
209.2682, 4030.509
209.7503, 4028.261
210.2324, 4022.776
210.7145, 4014.587
211.1967, 4001.479
211.6788, 3979.023
212.1609, 3948.112
212.6430, 3935.453
213.1251, 3946.438
213.6072, 3968.043
214.0894, 3987.037
214.5715, 4001.606
215.0536, 4018.425
215.5357, 4037.308
216.0178, 4057.897
216.4999, 4091.718
216.9820, 4148.420
217.4642, 4206.265
217.9463, 4233.667
218.4284, 4207.789
218.9105, 4205.195
219.3926, 4254.371
219.8747, 4362.785
220.3569, 4446.731
220.8390, 4497.449
221.3211, 4531.681
221.8032, 4572.827
222.2853, 4623.112
222.7674, 4675.361
223.2496, 4727.389
223.7317, 4779.831
224.2138, 4831.304
224.6959, 4880.083
225.1780, 4929.767
225.6601, 4990.934
226.1423, 5078.011
226.6244, 5148.626
227.1065, 5183.309
227.5886, 5168.825
228.0707, 5176.034
228.5528, 5219.726
229.0350, 5276.336
229.5171, 5304.141
229.9992, 5290.545
230.4813, 5269.846
230.9634, 5252.294
231.4455, 5237.280
231.9276, 5227.181
232.4098, 5224.301
232.8919, 5225.182
233.3740, 5223.952
233.8561, 5222.402
234.3382, 5215.890
234.8203, 5199.506
235.3025, 5162.817
235.7846, 5147.879
236.2667, 5164.333
236.7488, 5198.642
237.2309, 5221.148
237.7130, 5220.197
238.1952, 5225.219
238.6773, 5249.127
239.1594, 5301.458
239.6415, 5347.189
240.1236, 5385.669
240.6057, 5418.166
241.0879, 5447.017
241.5700, 5467.016
242.0521, 5490.840
242.5342, 5525.818
243.0163, 5583.275
243.4984, 5623.676
243.9806, 5642.492
244.4627, 5645.392
244.9448, 5645.733
245.4269, 5644.031
245.9090, 5638.460
246.3911, 5628.624
246.8732, 5616.022
247.3554, 5595.046
247.8375, 5566.374
248.3196, 5528.935
248.8017, 5479.961
249.2838, 5419.335
249.7659, 5348.255
250.2481, 5265.982
250.7302, 5168.959
251.2123, 5069.295
251.6944, 4962.348
252.1765, 4855.043
252.6586, 4762.134
253.1408, 4688.329
253.6229, 4621.530
254.1050, 4557.723
254.5871, 4503.103
255.0692, 4436.653
255.5513, 4353.078
256.0334, 4259.923
256.5156, 4172.616
256.9977, 4089.542
257.4798, 4014.388
257.9619, 3948.694
258.4440, 3891.861
258.9261, 3845.274
259.4083, 3813.532
259.8904, 3789.159
260.3725, 3753.442
260.8546, 3698.896
261.3367, 3646.544
261.8188, 3606.880
262.3010, 3584.376
262.7831, 3558.235
263.2652, 3525.277
263.7473, 3490.193
264.2294, 3463.933
264.7115, 3450.455
265.1937, 3437.335
265.6758, 3418.076
266.1579, 3390.273
266.6400, 3366.801
267.1221, 3346.538
267.6042, 3331.896
268.0864, 3331.086
268.5685, 3350.248
269.0506, 3366.782
269.5327, 3370.429
270.0148, 3359.395
270.4969, 3344.054
270.9791, 3321.751
271.4612, 3298.036
271.9433, 3285.276
272.4254, 3286.039
272.9075, 3288.727
273.3896, 3286.921
273.8718, 3279.215
274.3539, 3280.238
274.8360, 3293.044
275.3181, 3310.539
275.8002, 3320.286
276.2823, 3321.406
276.7645, 3318.913
277.2466, 3314.323
277.7287, 3307.503
278.2108, 3299.331
278.6929, 3289.008
279.1750, 3278.560
279.6572, 3271.063
280.1393, 3266.583
280.6214, 3264.152
281.1035, 3264.741
281.5856, 3268.129
282.0677, 3266.781
282.5499, 3259.098
283.0320, 3250.550
283.5141, 3253.288
283.9962, 3268.178
284.4783, 3272.813
284.9604, 3251.310
285.4425, 3207.896
285.9247, 3181.123
286.4068, 3173.131
286.8889, 3173.891
287.3710, 3172.299
287.8531, 3168.471
288.3352, 3164.160
288.8174, 3160.061
289.2995, 3156.027
289.7816, 3151.438
290.2637, 3146.370
290.7458, 3140.666
291.2279, 3133.635
291.7101, 3125.522
292.1922, 3117.670
292.6743, 3105.574
293.1564, 3095.249
293.6385, 3107.358
294.1206, 3143.362
294.6028, 3182.634
295.0849, 3205.840
295.5670, 3215.773
296.0491, 3222.270
296.5312, 3224.640
297.0133, 3227.814
297.4955, 3242.674
297.9776, 3268.968
298.4597, 3298.824
298.9418, 3321.456
299.4239, 3342.026
299.9060, 3374.002
300.3882, 3429.666
300.8703, 3491.318
301.3524, 3529.990
301.8345, 3547.524
302.3166, 3564.016
302.7987, 3598.912
303.2809, 3642.162
303.7630, 3677.362
304.2451, 3697.998
304.7272, 3710.682
305.2093, 3719.214
305.6914, 3724.452
306.1736, 3730.742
306.6557, 3741.325
307.1378, 3754.611
307.6199, 3768.684
308.1020, 3783.401
308.5841, 3798.797
309.0663, 3821.579
309.5484, 3847.250
310.0305, 3859.116
310.5126, 3831.419
310.9947, 3794.517
311.4768, 3779.131
311.9590, 3800.807
312.4411, 3821.800
312.9232, 3813.560
313.4053, 3786.674
313.8874, 3766.582
314.3695, 3773.198
314.8516, 3784.521
315.3337, 3784.994
315.8159, 3769.486
316.2980, 3752.359
316.7801, 3735.960
317.2622, 3722.421
317.7443, 3715.255
318.2264, 3722.506
318.7086, 3731.170
319.1907, 3735.846
319.6728, 3736.113
320.1549, 3732.000
320.6370, 3715.649
321.1191, 3697.138
321.6013, 3689.211
322.0834, 3707.922
322.5655, 3725.508
323.0476, 3732.500
323.5297, 3727.135
324.0118, 3720.750
324.4940, 3712.303
324.9761, 3704.701
325.4582, 3700.710
325.9403, 3701.430
326.4224, 3704.890
326.9045, 3713.405
327.3867, 3727.423
327.8688, 3734.227
328.3509, 3732.194
328.8330, 3723.658
329.3151, 3709.892
329.7972, 3682.998
330.2794, 3661.450
330.7615, 3649.564
331.2436, 3645.808
331.7257, 3637.667
332.2078, 3626.175
332.6899, 3609.264
333.1721, 3584.699
333.6542, 3547.207
334.1363, 3513.575
334.6184, 3485.959
335.1005, 3462.676
335.5826, 3438.378
336.0648, 3416.257
336.5469, 3387.107
337.0290, 3341.609
337.5111, 3269.981
337.9932, 3219.540
338.4753, 3197.005
338.9575, 3190.828
339.4396, 3181.063
339.9217, 3169.638
340.4038, 3146.351
340.8859, 3099.797
341.3680, 3028.842
341.8502, 2976.686
342.3323, 2947.669
342.8144, 2929.789
343.2965, 2907.022
343.7786, 2878.985
344.2607, 2854.755
344.7429, 2838.785
345.2250, 2829.569
345.7071, 2821.810
346.1892, 2816.791
346.6713, 2804.906
347.1534, 2768.733
347.6355, 2713.280
348.1176, 2666.446
348.5998, 2636.191
349.0819, 2619.465
349.5640, 2613.576
350.0461, 2618.076
350.5282, 2622.286
351.0103, 2616.927
351.4925, 2604.888
351.9746, 2592.451
352.4567, 2581.781
352.9388, 2570.325
353.4209, 2554.297
353.9030, 2534.485
354.3852, 2514.447
354.8673, 2497.434
355.3494, 2481.168
355.8315, 2460.933
356.3136, 2432.427
356.7957, 2410.280
357.2779, 2415.043
357.7600, 2435.397
358.2421, 2445.597
358.7242, 2421.887
359.2063, 2391.605
359.6884, 2375.474
360.1706, 2378.053
360.6527, 2380.245
361.1348, 2373.100
361.6169, 2360.090
362.0990, 2346.035
362.5811, 2327.927
363.0633, 2312.963
363.5454, 2307.215
364.0275, 2280.602
364.5096, 2312.416
364.9917, 2329.245
365.4738, 2331.894
365.9560, 2277.891
366.4381, 2297.041
366.9202, 2286.876
367.4023, 2275.508
367.8844, 2304.954
368.3665, 2259.192
368.8487, 2287.991
369.3308, 2270.125
369.8129, 2266.168
370.2950, 2256.028
370.7771, 2292.220
371.2592, 2313.426
371.7414, 2320.453
372.2235, 2270.828
372.7056, 2294.356
373.1877, 2288.569
373.6698, 2281.578
374.1519, 2315.402
374.6341, 2274.018
375.1162, 2307.195
375.5983, 2310.608
376.0804, 2327.643
376.5625, 2315.181
377.0446, 2311.829
377.5267, 2318.113
378.0089, 2315.738
378.4910, 2328.493
378.9731, 2360.545
379.4552, 2392.832
379.9373, 2403.068
380.4194, 2392.040
380.9016, 2382.394
381.3837, 2380.189
381.8658, 2382.139
382.3479, 2378.885
382.8300, 2370.578
383.3121, 2363.333
383.7943, 2357.898
384.2764, 2356.920
384.7585, 2370.696
385.2406, 2405.299
385.7227, 2444.058
386.2048, 2465.508
386.6870, 2472.166
387.1691, 2472.621
387.6512, 2461.844
388.1333, 2451.682
388.6154, 2460.291
389.0975, 2491.659
389.5797, 2522.269
390.0618, 2534.065
390.5439, 2533.278
391.0260, 2529.106
391.5081, 2521.099
391.9902, 2514.391
392.4724, 2514.382
392.9545, 2520.658
393.4366, 2522.842
393.9187, 2511.801
394.4008, 2497.372
394.8829, 2487.252
395.3651, 2487.442
395.8472, 2487.729
396.3293, 2483.885
396.8114, 2477.733
397.2935, 2475.943
397.7756, 2493.297
398.2578, 2504.289
398.7399, 2495.378
399.2220, 2445.408
399.7041, 2415.172
400.1862, 2421.300
400.6683, 2442.090
401.1505, 2441.592
401.6326, 2395.811
402.1147, 2364.115
402.5968, 2368.637
403.0789, 2414.183
403.5610, 2431.619
404.0432, 2407.101
404.5253, 2373.729
405.0074, 2366.315
405.4895, 2392.948
405.9716, 2412.805
406.4537, 2419.055
406.9359, 2413.261
407.4180, 2397.234
407.9001, 2368.479
408.3822, 2343.472
408.8643, 2335.038
409.3464, 2341.652
409.8285, 2347.420
410.3106, 2349.401
410.7928, 2353.640
411.2749, 2376.706
411.7570, 2414.406
412.2391, 2439.417
412.7212, 2426.611
413.2033, 2395.222
413.6855, 2383.230
414.1676, 2392.194
414.6497, 2404.696
415.1318, 2400.906
415.6139, 2390.868
416.0960, 2392.339
416.5782, 2424.600
417.0603, 2457.887
417.5424, 2464.911
418.0245, 2450.220
418.5066, 2436.806
418.9887, 2439.829
419.4709, 2446.646
419.9530, 2445.831
420.4351, 2427.130
420.9172, 2418.053
421.3993, 2437.750
421.8814, 2472.529
422.3636, 2497.049
422.8457, 2503.128
423.3278, 2500.604
423.8099, 2489.650
424.2920, 2467.342
424.7741, 2452.292
425.2563, 2446.883
425.7384, 2448.098
426.2205, 2454.124
426.7026, 2471.478
427.1847, 2482.711
427.6668, 2482.380
428.1490, 2473.250
428.6311, 2471.996
429.1132, 2481.737
429.5953, 2493.296
430.0774, 2501.397
430.5595, 2505.626
431.0417, 2509.275
431.5238, 2512.709
432.0059, 2515.159
432.4880, 2515.137
432.9701, 2512.603
433.4522, 2508.992
433.9344, 2505.027
434.4165, 2500.475
434.8986, 2493.799
435.3807, 2484.912
435.8628, 2475.643
436.3449, 2462.437
436.8271, 2449.982
437.3092, 2453.022
437.7913, 2485.621
438.2734, 2520.108
438.7555, 2522.151
439.2376, 2497.882
439.7197, 2470.570
440.2018, 2448.661
440.6840, 2432.803
441.1661, 2424.230
441.6482, 2423.916
442.1303, 2427.340
442.6124, 2437.666
443.0945, 2448.920
443.5767, 2452.811
444.0588, 2437.723
444.5409, 2423.746
445.0230, 2420.260
445.5051, 2427.088
445.9872, 2428.281
446.4694, 2416.653
446.9515, 2401.937
447.4336, 2389.852
447.9157, 2380.465
448.3978, 2373.961
448.8799, 2372.437
449.3621, 2373.367
449.8442, 2369.598
450.3263, 2355.004
450.8084, 2347.994
451.2905, 2359.599
451.7726, 2392.020
452.2548, 2404.437
452.7369, 2390.671
453.2190, 2370.486
453.7011, 2367.434
454.1832, 2382.046
454.6653, 2389.953
455.1475, 2383.583
455.6296, 2369.563
456.1117, 2362.397
456.5938, 2361.963
457.0759, 2364.828
457.5580, 2369.752
458.0402, 2376.230
458.5223, 2383.538
459.0044, 2391.942
459.4865, 2399.816
459.9686, 2409.424
460.4507, 2417.201
460.9329, 2416.446
461.4150, 2392.302
461.8971, 2368.123
462.3792, 2359.655
462.8613, 2366.214
463.3434, 2378.323
463.8256, 2399.693
464.3077, 2420.049
464.7898, 2432.142
465.2719, 2432.004
465.7540, 2427.436
466.2361, 2415.784
466.7183, 2401.005
467.2004, 2391.371
467.6825, 2386.137
468.1646, 2387.567
468.6467, 2398.377
469.1288, 2420.035
469.6109, 2437.635
470.0930, 2451.765
470.5752, 2461.169
471.0573, 2463.621
471.5394, 2456.798
472.0215, 2451.947
472.5036, 2451.024
472.9857, 2452.532
473.4679, 2451.860
473.9500, 2448.683
474.4321, 2447.661
474.9142, 2455.181
475.3963, 2467.776
475.8784, 2468.091
476.3606, 2454.388
476.8427, 2439.590
477.3248, 2435.229
477.8069, 2440.320
478.2890, 2453.705
478.7711, 2482.897
479.2533, 2511.398
479.7354, 2520.508
480.2175, 2513.942
480.6996, 2506.608
481.1817, 2507.808
481.6638, 2510.704
482.1460, 2508.155
482.6281, 2495.543
483.1102, 2491.153
483.5923, 2511.607
484.0744, 2540.085
484.5565, 2556.278
485.0387, 2541.269
485.5208, 2529.343
486.0029, 2528.117
486.4850, 2536.645
486.9671, 2546.511
487.4492, 2559.489
487.9314, 2571.626
488.4135, 2582.055
488.8956, 2593.724
489.3777, 2592.765
489.8598, 2573.181
490.3419, 2548.716
490.8241, 2515.331
491.3062, 2551.812
491.7883, 2573.308
492.2704, 2580.624
492.7525, 2531.289
493.2346, 2555.107
493.7168, 2549.609
494.1989, 2542.908
494.6810, 2577.022
495.1631, 2535.927
495.6452, 2569.394
496.1273, 2573.096
496.6095, 2590.422
497.0916, 2578.250
497.5737, 2547.646
498.0558, 2583.600
498.5379, 2604.569
499.0201, 2611.357
499.5022, 2561.495
499.9843, 2584.785
500.4664, 2578.759
500.9485, 2571.531
501.4306, 2605.117
501.9127, 2563.494
502.3948, 2596.433
502.8770, 2599.609
503.3591, 2616.406
503.8412, 2603.707
504.3233, 2600.117
504.8054, 2626.035
505.2875, 2635.615
505.7697, 2619.520
506.2518, 2637.183
506.7339, 2594.530
507.2160, 2604.805
507.6981, 2637.917
508.1802, 2623.305
508.6624, 2641.508
509.1445, 2647.213
509.6266, 2619.374
510.1087, 2625.520
510.5908, 2640.323
511.0729, 2660.641
511.5551, 2670.738
512.0372, 2651.817
512.5193, 2623.940
513.0014, 2615.770
513.4835, 2626.164
513.9656, 2642.327
514.4478, 2662.279
514.9299, 2680.582
515.4120, 2690.782
515.8941, 2686.969
516.3762, 2684.979
516.8583, 2697.509
517.3405, 2714.739
517.8226, 2720.662
518.3047, 2690.997
518.7868, 2670.779
519.2689, 2679.808
519.7510, 2717.730
520.2332, 2736.406
520.7153, 2721.021
521.1974, 2703.822
521.6795, 2707.648
522.1616, 2744.074
522.6437, 2757.516
523.1259, 2738.227
523.6080, 2706.301
524.0901, 2696.503
524.5722, 2709.760
525.0543, 2720.514
525.5364, 2714.933
526.0186, 2703.580
526.5007, 2719.720
526.9828, 2761.356
527.4649, 2798.104
527.9470, 2801.760
528.4291, 2788.051
528.9113, 2779.484
529.3934, 2779.222
529.8755, 2785.307
530.3576, 2802.824
530.8397, 2824.242
531.3218, 2838.918
531.8040, 2836.460
532.2861, 2832.999
532.7682, 2836.139
533.2503, 2844.531
533.7324, 2848.205
534.2145, 2840.364
534.6967, 2832.264
535.1788, 2828.809
535.6609, 2831.824
536.1430, 2834.193
536.6251, 2835.617
537.1072, 2836.746
537.5894, 2839.306
538.0715, 2844.490
538.5536, 2843.350
539.0357, 2829.220
539.5178, 2811.460
539.9999, 2820.202
540.4821, 2854.929
540.9642, 2888.039
541.4463, 2901.035
541.9284, 2901.314
542.4105, 2904.361
542.8926, 2910.855
543.3748, 2919.378
543.8569, 2931.604
544.3390, 2944.063
544.8211, 2952.327
545.3032, 2955.192
545.7853, 2953.614
546.2675, 2945.982
546.7495, 2934.291
547.2316, 2923.113
547.7137, 2915.348
548.1959, 2906.817
548.6780, 2894.221
549.1601, 2876.552
549.6422, 2865.764
550.1243, 2863.089
550.6064, 2866.009
551.0886, 2874.525
551.5707, 2892.269
552.0528, 2902.894
552.5349, 2905.254
553.0170, 2900.278
553.4991, 2884.644
553.9813, 2858.392
554.4634, 2842.471
554.9455, 2851.592
555.4276, 2872.064
555.9097, 2870.349
556.3918, 2848.526
556.8740, 2825.427
557.3561, 2813.194
557.8382, 2807.568
558.3203, 2805.261
558.8024, 2807.256
559.2845, 2804.999
559.7667, 2786.102
560.2488, 2762.977
560.7309, 2750.145
561.2130, 2772.304
561.6951, 2782.078
562.1772, 2753.901
562.6594, 2701.116
563.1415, 2679.599
563.6236, 2713.365
564.1057, 2747.974
564.5878, 2765.377
565.0699, 2764.497
565.5521, 2756.495
566.0342, 2738.502
566.5163, 2720.055
566.9984, 2710.033
567.4805, 2708.199
567.9626, 2709.063
568.4448, 2713.266
568.9269, 2716.308
569.4090, 2708.637
569.8911, 2693.595
570.3732, 2682.328
570.8553, 2685.252
571.3375, 2691.019
571.8196, 2686.798
572.3017, 2674.128
572.7838, 2663.981
573.2659, 2668.862
573.7480, 2673.175
574.2302, 2664.146
574.7123, 2632.120
575.1944, 2609.456
575.6765, 2606.395
576.1586, 2612.913
576.6407, 2619.440
577.1229, 2631.560
577.6050, 2632.536
578.0871, 2614.520
578.5692, 2586.294
579.0513, 2577.613
579.5334, 2592.571
580.0156, 2604.698
580.4977, 2598.143
580.9798, 2578.214
581.4619, 2569.796
581.9440, 2573.050
582.4261, 2580.972
582.9083, 2591.014
583.3904, 2600.653
583.8725, 2605.333
584.3546, 2603.301
584.8367, 2599.015
585.3188, 2595.611
585.8010, 2591.919
586.2831, 2586.140
586.7652, 2570.779
587.2473, 2560.368
587.7294, 2566.152
588.2115, 2583.915
588.6937, 2585.483
589.1758, 2552.379
589.6579, 2523.797
590.1400, 2517.229
590.6221, 2537.104
591.1042, 2544.384
591.5864, 2535.466
592.0685, 2522.156
592.5506, 2515.571
593.0327, 2515.409
593.5148, 2515.006
593.9969, 2512.909
594.4791, 2511.383
594.9612, 2514.785
595.4433, 2521.619
595.9254, 2527.381
596.4075, 2530.409
596.8896, 2531.251
597.3718, 2527.560
597.8539, 2520.934
598.3360, 2519.671
598.8181, 2535.672
599.3002, 2551.841
599.7823, 2557.974
600.2645, 2551.001
600.7466, 2541.659
601.2287, 2522.650
601.7108, 2507.712
602.1929, 2510.975
602.6750, 2544.250
603.1572, 2562.367
603.6393, 2556.198
604.1214, 2538.736
604.6035, 2536.997
605.0856, 2551.383
605.5677, 2563.779
606.0499, 2567.121
606.5320, 2564.092
607.0141, 2558.701
607.4962, 2551.467
607.9783, 2546.175
608.4604, 2542.698
608.9425, 2543.982
609.4246, 2557.980
609.9067, 2588.784
610.3889, 2607.166
610.8710, 2580.784
611.3531, 2545.774
611.8352, 2534.681
612.3173, 2589.124
612.7994, 2620.456
613.2816, 2611.434
613.7637, 2581.564
614.2458, 2568.847
614.7279, 2580.644
615.2100, 2589.459
615.6921, 2586.463
616.1743, 2575.006
616.6564, 2570.200
617.1385, 2572.271
617.6206, 2575.778
618.1027, 2579.443
618.5848, 2581.566
619.0670, 2574.347
619.5491, 2556.730
620.0312, 2547.152
620.5133, 2569.986
620.9954, 2604.315
621.4775, 2625.603
621.9597, 2622.647
622.4418, 2615.719
622.9239, 2609.158
623.4060, 2603.553
623.8881, 2599.683
624.3702, 2590.558
624.8524, 2592.853
625.3345, 2615.323
625.8166, 2652.101
626.2987, 2674.817
626.7808, 2683.023
627.2629, 2679.264
627.7451, 2656.535
628.2272, 2619.940
628.7093, 2610.157
629.1914, 2628.532
629.6735, 2649.497
630.1556, 2647.019
630.6378, 2632.688
631.1199, 2626.440
631.6020, 2633.533
632.0841, 2641.595
632.5662, 2640.020
633.0483, 2635.199
633.5305, 2635.456
634.0126, 2640.265
634.4947, 2653.717
634.9768, 2687.094
635.4589, 2730.399
635.9410, 2752.674
636.4232, 2741.947
636.9053, 2731.504
637.3874, 2733.040
637.8695, 2744.800
638.3516, 2746.536
638.8337, 2736.494
639.3159, 2727.988
639.7980, 2728.756
