##NAMES=Aqualite
##RRUFFID=R070413
##IDEAL CHEMISTRY=(H_3_O)_8_(Na,K,Sr)_5_Ca_6_Zr^4+^_3_Si_26_O_66_(OH)_9_Cl
##LOCALITY=Kovdor Phlogopite mine (Mica mine; Slyuda mine; Kovdorslyuda Shaft), Kovdor Massif, Kola Peninsula, Murmanskaja Oblast', Northern Region, Russia
##OWNER=RRUFF
##SOURCE=Michael Scott
##DESCRIPTION=Pink gemmy massive inclusions in matrix of fine-grained white undetermined zeolite
##STATUS=The identification of this mineral has been confirmed only by single crystal X-ray diffraction.
##URL=rruff.info/R070413
165.8563, 4772.539
166.3384, 4815.424
166.8205, 4858.087
167.3026, 4902.286
167.7847, 4949.864
168.2668, 4999.246
168.7490, 5048.108
169.2311, 5098.637
169.7132, 5143.769
170.1953, 5174.058
170.6774, 5197.801
171.1595, 5228.898
171.6417, 5279.199
172.1238, 5338.645
172.6059, 5380.899
173.0880, 5399.361
173.5701, 5413.106
174.0522, 5424.500
174.5344, 5438.389
175.0165, 5463.411
175.4986, 5509.116
175.9807, 5565.515
176.4628, 5603.021
176.9449, 5607.729
177.4271, 5619.228
177.9092, 5659.707
178.3913, 5713.433
178.8734, 5758.039
179.3555, 5780.088
179.8376, 5788.893
180.3197, 5813.634
180.8019, 5865.058
181.2840, 5913.808
181.7661, 5956.067
182.2482, 5989.406
182.7303, 6008.552
183.2124, 6008.493
183.6946, 5996.659
184.1767, 5994.525
184.6588, 6006.982
185.1409, 6021.260
185.6230, 6030.475
186.1051, 6040.291
186.5873, 6059.372
187.0694, 6093.514
187.5515, 6134.158
188.0336, 6157.468
188.5157, 6149.081
188.9978, 6147.582
189.4800, 6166.294
189.9621, 6192.864
190.4442, 6214.445
190.9263, 6224.997
191.4084, 6229.072
191.8905, 6237.926
192.3727, 6255.435
192.8548, 6270.977
193.3369, 6278.210
193.8190, 6285.039
194.3011, 6300.307
194.7832, 6327.641
195.2654, 6361.204
195.7475, 6387.763
196.2296, 6402.284
196.7117, 6419.472
197.1938, 6442.911
197.6759, 6468.487
198.1581, 6494.207
198.6402, 6519.248
199.1223, 6540.674
199.6044, 6551.257
200.0865, 6540.738
200.5686, 6540.204
201.0508, 6558.620
201.5329, 6582.265
202.0150, 6601.600
202.4971, 6613.771
202.9792, 6620.516
203.4613, 6623.060
203.9435, 6615.269
204.4256, 6617.671
204.9077, 6639.321
205.3898, 6664.158
205.8719, 6683.794
206.3540, 6695.532
206.8362, 6698.843
207.3183, 6689.782
207.8004, 6657.328
208.2825, 6641.486
208.7646, 6650.896
209.2467, 6668.108
209.7289, 6687.528
210.2110, 6706.127
210.6931, 6719.519
211.1752, 6720.652
211.6573, 6704.090
212.1395, 6695.342
212.6216, 6703.554
213.1037, 6711.271
213.5858, 6705.970
214.0679, 6690.312
214.5500, 6678.440
215.0322, 6687.042
215.5143, 6721.409
215.9964, 6740.609
216.4785, 6731.474
216.9606, 6719.719
217.4427, 6713.545
217.9249, 6713.034
218.4070, 6714.647
218.8891, 6714.950
219.3712, 6713.738
219.8533, 6718.815
220.3354, 6739.188
220.8176, 6757.361
221.2997, 6771.894
221.7818, 6780.501
222.2639, 6777.946
222.7460, 6757.789
223.2281, 6723.137
223.7103, 6709.515
224.1924, 6745.672
224.6745, 6772.447
225.1566, 6770.937
225.6387, 6753.688
226.1208, 6740.018
226.6030, 6741.248
227.0851, 6753.963
227.5672, 6764.369
228.0493, 6776.747
228.5314, 6780.020
229.0135, 6762.670
229.4957, 6739.396
229.9778, 6727.393
230.4599, 6734.590
230.9420, 6754.482
231.4241, 6772.250
231.9062, 6791.840
232.3884, 6801.239
232.8705, 6798.976
233.3526, 6787.708
233.8347, 6764.284
234.3168, 6728.660
234.7989, 6694.182
235.2811, 6686.802
235.7632, 6722.095
236.2453, 6747.771
236.7274, 6750.647
237.2095, 6749.920
237.6916, 6762.544
238.1738, 6789.861
238.6559, 6815.273
239.1380, 6813.402
239.6201, 6771.924
240.1022, 6749.121
240.5843, 6761.790
241.0665, 6781.419
241.5486, 6796.310
242.0307, 6805.315
242.5128, 6812.505
242.9949, 6822.574
243.4770, 6836.185
243.9592, 6844.787
244.4413, 6845.730
244.9234, 6843.697
245.4055, 6835.980
245.8876, 6826.198
246.3697, 6823.225
246.8519, 6837.217
247.3340, 6865.044
247.8161, 6876.645
248.2982, 6857.054
248.7803, 6840.762
249.2624, 6841.721
249.7446, 6853.265
250.2267, 6864.385
250.7088, 6869.140
251.1909, 6869.771
251.6730, 6872.347
252.1551, 6876.175
252.6373, 6883.704
253.1194, 6903.400
253.6015, 6923.710
254.0836, 6929.771
254.5657, 6914.062
255.0478, 6890.608
255.5300, 6882.321
256.0121, 6892.845
256.4942, 6904.908
256.9763, 6914.056
257.4584, 6922.668
257.9406, 6931.314
258.4227, 6939.967
258.9048, 6952.360
259.3869, 6977.909
259.8690, 7017.846
260.3511, 7042.043
260.8333, 7033.337
261.3154, 7016.678
261.7975, 7009.446
262.2796, 7012.153
262.7617, 7017.470
263.2438, 7023.243
263.7260, 7028.310
264.2081, 7023.919
264.6902, 7000.969
265.1723, 6981.360
265.6544, 6980.344
266.1365, 6994.953
266.6187, 7016.563
267.1008, 7049.406
267.5829, 7085.024
268.0650, 7102.927
268.5471, 7097.920
269.0292, 7090.599
269.5114, 7098.835
269.9935, 7114.145
270.4756, 7121.409
270.9577, 7110.011
271.4398, 7094.491
271.9219, 7093.068
272.4041, 7106.201
272.8862, 7117.461
273.3683, 7115.723
273.8504, 7108.472
274.3325, 7110.926
274.8146, 7129.702
275.2968, 7147.437
275.7789, 7149.427
276.2610, 7139.638
276.7431, 7134.614
277.2252, 7140.995
277.7073, 7153.775
278.1895, 7165.485
278.6716, 7176.769
279.1537, 7184.852
279.6358, 7186.596
280.1179, 7184.930
280.6000, 7186.670
281.0822, 7194.346
281.5643, 7198.883
282.0464, 7183.970
282.5285, 7146.652
283.0106, 7128.893
283.4927, 7158.960
283.9749, 7195.675
284.4570, 7195.006
284.9391, 7156.170
285.4212, 7118.554
285.9033, 7115.536
286.3854, 7146.961
286.8676, 7168.379
287.3497, 7172.417
287.8318, 7174.626
288.3139, 7187.088
288.7960, 7204.354
289.2781, 7210.014
289.7603, 7193.596
290.2424, 7161.058
290.7245, 7137.709
291.2066, 7123.946
291.6887, 7117.986
292.1708, 7127.347
292.6530, 7141.668
293.1351, 7146.533
293.6172, 7137.066
294.0993, 7121.929
294.5814, 7116.766
295.0635, 7129.570
295.5457, 7137.599
296.0278, 7138.167
296.5099, 7136.253
296.9920, 7137.320
297.4741, 7140.731
297.9562, 7138.789
298.4384, 7119.873
298.9205, 7077.341
299.4026, 7065.087
299.8847, 7117.103
300.3668, 7164.497
300.8489, 7181.869
301.3310, 7176.040
301.8131, 7165.314
302.2953, 7161.523
302.7774, 7162.809
303.2595, 7160.294
303.7416, 7158.382
304.2237, 7144.886
304.7058, 7102.223
305.1880, 7054.563
305.6701, 7031.656
306.1522, 7045.216
306.6343, 7072.454
307.1164, 7072.742
307.5985, 7035.736
308.0807, 7010.407
308.5628, 7010.309
309.0449, 7021.528
309.5270, 7043.246
310.0091, 7072.921
310.4912, 7095.258
310.9734, 7092.436
311.4555, 7067.099
311.9376, 7048.785
312.4197, 7043.116
312.9018, 7039.695
313.3839, 7029.346
313.8661, 7015.581
314.3482, 7007.897
314.8303, 7012.360
315.3124, 7024.719
315.7945, 7040.815
316.2766, 7062.718
316.7588, 7076.090
317.2409, 7070.177
317.7230, 7051.142
318.2051, 7027.658
318.6872, 6994.903
319.1693, 6968.266
319.6515, 6963.529
320.1336, 6976.318
320.6157, 6986.666
321.0978, 6987.048
321.5799, 6983.339
322.0620, 6986.018
322.5442, 6996.567
323.0263, 7003.235
323.5084, 6994.347
323.9905, 6983.284
324.4726, 6993.284
324.9547, 7028.101
325.4369, 7059.627
325.9190, 7057.616
326.4011, 7017.735
326.8832, 6996.488
327.3653, 7008.718
327.8474, 7025.064
328.3296, 7028.310
328.8117, 7021.579
329.2938, 7015.064
329.7759, 7013.387
330.2580, 7018.801
330.7401, 7041.714
331.2223, 7112.273
331.7044, 7163.086
332.1865, 7178.229
332.6686, 7174.467
333.1507, 7166.543
333.6328, 7159.922
334.1150, 7156.831
334.5971, 7161.493
335.0792, 7178.343
335.5613, 7190.877
336.0434, 7199.586
336.5255, 7204.157
337.0077, 7198.863
337.4898, 7188.172
337.9719, 7184.725
338.4540, 7200.103
338.9361, 7231.945
339.4182, 7259.359
339.9004, 7282.450
340.3825, 7300.058
340.8646, 7315.744
341.3467, 7325.304
341.8288, 7320.048
342.3109, 7294.170
342.7931, 7264.697
343.2752, 7259.679
343.7573, 7282.966
344.2394, 7303.581
344.7215, 7315.234
345.2036, 7320.448
345.6858, 7318.688
346.1679, 7310.363
346.6500, 7304.984
347.1321, 7312.266
347.6142, 7327.016
348.0963, 7333.724
348.5785, 7328.653
349.0606, 7322.500
349.5427, 7324.933
350.0248, 7333.197
350.5069, 7339.235
350.9890, 7346.517
351.4712, 7347.210
351.9533, 7329.906
352.4354, 7298.189
352.9175, 7269.769
353.3996, 7251.351
353.8817, 7243.231
354.3639, 7249.482
354.8460, 7280.146
355.3281, 7301.083
355.8102, 7297.067
356.2923, 7282.790
356.7744, 7274.607
357.2566, 7276.168
357.7387, 7283.890
358.2208, 7295.341
358.7029, 7313.368
359.1850, 7318.017
359.6671, 7288.654
360.1493, 7268.265
360.6314, 7291.261
361.1135, 7337.813
361.5956, 7360.612
362.0777, 7329.259
362.5598, 7262.558
363.0420, 7230.653
363.5241, 7262.659
364.0062, 7283.712
364.4883, 7271.146
364.9704, 7253.706
365.4525, 7260.907
365.9347, 7296.684
366.4168, 7333.978
366.8989, 7339.938
367.3810, 7312.538
367.8631, 7287.285
368.3452, 7258.975
368.8274, 7241.585
369.3095, 7249.850
369.7916, 7273.525
370.2737, 7287.325
370.7558, 7271.479
371.2379, 7245.534
371.7201, 7245.402
372.2022, 7273.805
372.6843, 7302.160
373.1664, 7322.103
373.6485, 7332.351
374.1306, 7330.092
374.6128, 7310.783
375.0949, 7294.988
375.5770, 7295.469
376.0591, 7306.701
376.5412, 7320.078
377.0233, 7334.758
377.5055, 7344.468
377.9876, 7341.697
378.4697, 7324.868
378.9518, 7308.499
379.4339, 7292.132
379.9160, 7276.851
380.3982, 7259.245
380.8803, 7242.985
381.3624, 7240.176
381.8445, 7258.943
382.3266, 7289.964
382.8087, 7304.987
383.2909, 7281.604
383.7730, 7271.133
384.2551, 7288.472
384.7372, 7310.005
385.2193, 7318.911
385.7014, 7311.277
386.1836, 7289.175
386.6657, 7248.163
387.1478, 7185.730
387.6299, 7156.515
388.1120, 7188.987
388.5941, 7223.400
389.0763, 7245.146
389.5584, 7254.850
390.0405, 7253.521
390.5226, 7240.163
391.0047, 7220.307
391.4868, 7200.910
391.9690, 7181.621
392.4511, 7166.844
392.9332, 7157.951
393.4153, 7154.397
393.8974, 7157.278
394.3795, 7166.410
394.8617, 7173.092
395.3438, 7176.762
395.8259, 7174.053
396.3080, 7153.656
396.7901, 7113.316
397.2722, 7079.436
397.7544, 7074.024
398.2365, 7091.079
398.7186, 7095.443
399.2007, 7068.624
399.6828, 7049.995
400.1649, 7066.214
400.6471, 7098.004
401.1292, 7110.635
401.6113, 7092.618
402.0934, 7063.256
402.5755, 7051.729
403.0576, 7067.777
403.5398, 7072.153
404.0219, 7059.107
404.5040, 7041.515
404.9861, 7021.445
405.4682, 7002.301
405.9503, 6991.101
406.4325, 6993.451
406.9146, 7004.308
407.3967, 7005.405
407.8788, 6992.320
408.3609, 6978.332
408.8430, 6958.665
409.3252, 6943.852
409.8073, 6945.854
410.2894, 6965.334
410.7715, 6986.139
411.2536, 6996.245
411.7357, 6996.279
412.2179, 6986.281
412.7000, 6960.434
413.1821, 6938.660
413.6642, 6944.393
414.1463, 6963.469
414.6284, 6966.263
415.1106, 6932.441
415.5927, 6899.082
416.0748, 6899.503
416.5569, 6923.276
417.0390, 6937.750
417.5211, 6931.215
418.0033, 6913.460
418.4854, 6897.493
418.9675, 6881.922
419.4496, 6874.254
419.9317, 6884.890
420.4138, 6895.281
420.8960, 6889.733
421.3781, 6872.114
421.8602, 6858.291
422.3423, 6859.217
422.8244, 6870.237
423.3065, 6871.426
423.7887, 6860.397
424.2708, 6842.265
424.7529, 6798.064
425.2350, 6760.558
425.7171, 6766.170
426.1992, 6814.756
426.6814, 6864.313
427.1635, 6872.088
427.6456, 6841.745
428.1277, 6815.983
428.6098, 6795.197
429.0919, 6778.425
429.5741, 6763.620
430.0562, 6752.626
430.5383, 6749.859
431.0204, 6759.565
431.5025, 6770.719
431.9846, 6777.815
432.4668, 6779.398
432.9489, 6766.601
433.4310, 6733.139
433.9131, 6698.705
434.3952, 6690.050
434.8773, 6710.896
435.3595, 6717.912
435.8416, 6699.546
436.3237, 6675.083
436.8058, 6651.296
437.2879, 6631.101
437.7701, 6620.648
438.2522, 6623.778
438.7343, 6634.120
439.2164, 6634.965
439.6985, 6616.897
440.1806, 6606.146
440.6628, 6610.470
441.1449, 6615.342
441.6270, 6608.143
442.1091, 6591.657
442.5912, 6580.334
443.0733, 6588.714
443.5555, 6609.336
444.0376, 6610.527
444.5197, 6583.607
445.0018, 6561.631
445.4839, 6566.014
445.9660, 6576.908
446.4482, 6571.560
446.9303, 6544.441
447.4124, 6523.388
447.8945, 6532.663
448.3766, 6558.682
448.8587, 6575.527
449.3409, 6580.151
449.8230, 6570.307
450.3051, 6537.887
450.7872, 6486.947
451.2693, 6457.811
451.7514, 6465.447
452.2336, 6475.617
452.7157, 6477.521
453.1978, 6475.117
453.6799, 6474.341
454.1620, 6476.853
454.6441, 6479.895
455.1263, 6479.224
455.6084, 6473.193
456.0905, 6472.798
456.5726, 6490.604
457.0547, 6501.100
457.5368, 6493.087
458.0190, 6473.375
458.5011, 6451.002
458.9832, 6428.151
459.4653, 6411.803
459.9474, 6416.483
460.4295, 6442.592
460.9117, 6460.730
461.3938, 6462.840
461.8759, 6458.628
462.3580, 6456.978
462.8401, 6457.045
463.3222, 6453.917
463.8044, 6436.290
464.2865, 6422.705
464.7686, 6437.652
465.2507, 6473.150
465.7328, 6496.399
466.2149, 6492.208
466.6971, 6471.726
467.1792, 6456.280
467.6613, 6447.890
468.1434, 6440.739
468.6255, 6432.611
469.1076, 6427.572
469.5898, 6430.397
470.0719, 6438.755
470.5540, 6445.733
471.0361, 6446.631
471.5182, 6444.198
472.0003, 6447.181
472.4825, 6458.362
472.9646, 6467.318
473.4467, 6478.350
473.9288, 6481.369
474.4109, 6461.747
474.8930, 6422.565
475.3752, 6392.539
475.8573, 6393.427
476.3394, 6411.813
476.8215, 6426.147
477.3036, 6435.868
477.7857, 6445.190
478.2679, 6459.464
478.7500, 6471.960
479.2321, 6463.102
479.7142, 6420.993
480.1963, 6390.750
480.6784, 6388.881
481.1606, 6397.199
481.6427, 6400.427
482.1248, 6397.121
482.6069, 6392.045
483.0890, 6388.354
483.5711, 6386.317
484.0533, 6387.814
484.5354, 6397.454
485.0175, 6402.926
485.4996, 6400.090
485.9817, 6394.638
486.4638, 6390.057
486.9460, 6387.190
487.4281, 6386.706
487.9102, 6387.900
488.3923, 6391.919
488.8744, 6405.425
489.3565, 6431.254
489.8387, 6449.910
490.3208, 6448.430
490.8029, 6434.781
491.2850, 6426.683
491.7671, 6426.326
492.2492, 6425.035
492.7314, 6419.943
493.2135, 6412.402
493.6956, 6399.855
494.1777, 6384.355
494.6598, 6378.325
495.1419, 6392.880
495.6241, 6423.941
496.1062, 6445.674
496.5883, 6459.486
497.0704, 6460.557
497.5525, 6437.627
498.0346, 6409.888
498.5168, 6389.688
498.9989, 6380.291
499.4810, 6383.382
499.9631, 6408.269
500.4452, 6446.494
500.9273, 6465.084
501.4095, 6461.559
501.8916, 6447.380
502.3737, 6412.554
502.8558, 6379.169
503.3379, 6385.922
503.8200, 6445.523
504.3022, 6493.996
504.7843, 6497.640
505.2664, 6483.104
505.7485, 6479.800
506.2306, 6489.703
506.7127, 6503.234
507.1949, 6515.574
507.6770, 6524.294
508.1591, 6518.304
508.6412, 6480.259
509.1233, 6452.671
509.6054, 6441.854
510.0876, 6438.587
510.5697, 6436.339
511.0518, 6434.944
511.5339, 6438.211
512.0161, 6450.117
512.4982, 6467.833
512.9803, 6486.455
513.4624, 6507.858
513.9445, 6516.970
514.4266, 6500.362
514.9088, 6475.721
515.3909, 6467.802
515.8730, 6478.120
516.3551, 6484.617
516.8372, 6477.658
517.3193, 6466.175
517.8015, 6457.345
518.2836, 6451.487
518.7657, 6446.604
519.2478, 6441.428
519.7299, 6437.706
520.2120, 6440.319
520.6942, 6456.948
521.1763, 6465.074
521.6584, 6457.153
522.1405, 6448.821
522.6226, 6451.161
523.1047, 6460.055
523.5869, 6463.128
524.0690, 6452.182
524.5511, 6436.027
525.0332, 6429.199
525.5153, 6431.647
525.9974, 6434.564
526.4796, 6434.425
526.9617, 6436.531
527.4438, 6450.251
527.9259, 6473.738
528.4080, 6489.005
528.8901, 6494.402
529.3723, 6490.063
529.8544, 6465.789
530.3365, 6433.772
530.8186, 6417.984
531.3007, 6426.383
531.7828, 6448.054
532.2650, 6469.733
532.7471, 6493.032
533.2292, 6506.645
533.7113, 6503.486
534.1934, 6498.347
534.6755, 6488.820
535.1577, 6482.647
535.6398, 6493.273
536.1219, 6526.321
536.6040, 6559.711
537.0861, 6568.898
537.5682, 6561.731
538.0504, 6565.041
538.5325, 6583.221
539.0146, 6601.331
539.4967, 6606.833
539.9788, 6603.628
540.4609, 6611.045
540.9431, 6641.470
541.4252, 6664.446
541.9073, 6672.048
542.3894, 6670.652
542.8715, 6659.055
543.3536, 6642.283
543.8358, 6639.050
544.3179, 6667.996
544.8000, 6718.821
545.2821, 6743.688
545.7642, 6730.931
546.2463, 6724.176
546.7285, 6739.968
547.2106, 6761.765
547.6926, 6774.852
548.1747, 6780.010
548.6569, 6792.557
549.1390, 6832.004
549.6211, 6872.995
550.1032, 6883.747
550.5853, 6869.824
551.0674, 6854.952
551.5496, 6847.249
552.0317, 6849.857
552.5138, 6870.373
552.9959, 6920.675
553.4780, 6948.327
553.9601, 6928.408
554.4423, 6915.951
554.9244, 6946.188
555.4065, 6994.406
555.8886, 7015.636
556.3707, 6992.615
556.8528, 6964.049
557.3350, 6985.392
557.8171, 7048.466
558.2992, 7083.876
558.7813, 7079.191
559.2634, 7065.745
559.7455, 7058.892
560.2277, 7059.894
560.7098, 7071.573
561.1919, 7105.547
561.6740, 7129.911
562.1561, 7123.078
562.6382, 7108.781
563.1204, 7118.377
563.6025, 7149.654
564.0846, 7170.928
564.5667, 7156.660
565.0488, 7118.953
565.5309, 7107.816
566.0131, 7137.454
566.4952, 7157.756
566.9773, 7154.842
567.4594, 7143.979
567.9415, 7132.879
568.4236, 7121.882
568.9058, 7109.838
569.3879, 7092.949
569.8700, 7077.707
570.3521, 7074.367
570.8342, 7078.600
571.3163, 7076.908
571.7985, 7065.486
572.2806, 7042.959
572.7627, 7004.461
573.2448, 6945.935
573.7269, 6909.101
574.2090, 6911.329
574.6912, 6912.896
575.1733, 6905.725
575.6554, 6891.834
576.1375, 6874.010
576.6196, 6852.837
577.1017, 6827.239
577.5839, 6791.733
578.0660, 6751.034
578.5481, 6720.624
579.0302, 6700.938
579.5123, 6691.464
579.9944, 6698.805
580.4766, 6710.363
580.9587, 6700.679
581.4408, 6667.445
581.9229, 6628.664
582.4050, 6581.552
582.8871, 6534.589
583.3693, 6493.374
583.8514, 6456.995
584.3335, 6419.352
584.8156, 6377.834
585.2977, 6342.305
585.7798, 6333.291
586.2620, 6354.191
586.7441, 6362.882
587.2262, 6360.143
587.7083, 6340.253
588.1904, 6281.201
588.6725, 6207.855
589.1547, 6163.449
589.6368, 6163.084
590.1189, 6166.319
590.6010, 6156.225
591.0831, 6137.377
591.5652, 6110.916
592.0474, 6079.934
592.5295, 6056.326
593.0116, 6048.459
593.4937, 6052.504
593.9758, 6058.526
594.4579, 6074.196
594.9401, 6073.502
595.4222, 6035.792
595.9043, 5997.953
596.3864, 5979.029
596.8685, 5974.732
597.3506, 5972.109
597.8328, 5966.080
598.3149, 5960.928
598.7970, 5964.727
599.2791, 5972.062
599.7612, 5964.470
600.2433, 5938.292
600.7255, 5917.758
601.2076, 5925.552
601.6897, 5957.149
602.1718, 5975.640
602.6539, 5975.806
603.1360, 5969.051
603.6182, 5946.097
604.1003, 5924.612
604.5824, 5923.015
605.0645, 5936.641
605.5466, 5942.282
606.0287, 5922.866
606.5109, 5893.394
606.9930, 5875.500
607.4751, 5868.192
607.9572, 5862.001
608.4393, 5852.507
608.9214, 5852.533
609.4036, 5880.186
609.8857, 5935.607
610.3678, 5966.760
610.8499, 5959.684
611.3320, 5948.474
611.8141, 5940.758
612.2963, 5932.768
612.7784, 5915.885
613.2605, 5892.476
613.7426, 5878.472
614.2247, 5887.380
614.7068, 5912.996
615.1890, 5944.169
615.6711, 5981.589
616.1532, 6009.434
616.6353, 6023.940
617.1174, 6025.422
617.5995, 6007.859
618.0817, 5970.735
618.5638, 5950.475
619.0459, 5962.184
619.5280, 5975.114
620.0101, 5975.883
620.4922, 5971.977
620.9744, 5976.655
621.4565, 5990.252
621.9386, 5996.118
622.4207, 5972.265
622.9028, 5931.677
623.3849, 5932.056
623.8671, 5982.363
624.3492, 6021.042
624.8313, 6026.485
625.3134, 6016.029
625.7955, 6007.267
626.2776, 6000.091
626.7598, 5995.812
627.2419, 5995.101
627.7240, 5996.820
628.2061, 5999.438
628.6882, 6004.541
629.1703, 6016.258
629.6525, 6034.502
630.1346, 6052.845
630.6167, 6066.779
631.0988, 6075.064
631.5809, 6067.312
632.0630, 6036.752
632.5452, 6017.286
633.0273, 6027.124
633.5094, 6044.693
633.9915, 6043.771
634.4736, 6025.560
634.9557, 6013.664
635.4379, 6019.557
635.9200, 6025.797
636.4021, 6018.051
636.8842, 6005.923
637.3663, 6007.676
637.8484, 6025.992
638.3306, 6043.475
638.8127, 6039.058
639.2948, 6019.357
639.7769, 6030.685
640.2590, 6087.092
640.7411, 6123.635
641.2233, 6107.923
641.7054, 6077.862
642.1875, 6075.172
642.6696, 6097.248
643.1517, 6111.845
643.6339, 6111.060
644.1160, 6102.527
644.5981, 6083.424
645.0802, 6062.044
645.5623, 6051.923
646.0444, 6055.131
646.5266, 6062.042
647.0087, 6063.175
647.4908, 6060.833
647.9729, 6066.140
648.4550, 6079.962
648.9371, 6098.574
649.4193, 6126.762
649.9014, 6153.138
650.3835, 6164.988
650.8656, 6164.368
651.3477, 6165.788
651.8298, 6181.252
652.3120, 6188.410
652.7941, 6165.492
653.2762, 6133.521
653.7583, 6122.411
654.2404, 6135.182
654.7225, 6153.534
655.2047, 6164.126
655.6868, 6167.091
656.1689, 6160.077
656.6510, 6140.365
657.1331, 6127.538
657.6152, 6126.705
658.0974, 6132.430
658.5795, 6145.707
659.0616, 6163.022
