##NAMES=Aqualite
##RRUFFID=R070413
##IDEAL CHEMISTRY=(H_3_O)_8_(Na,K,Sr)_5_Ca_6_Zr^4+^_3_Si_26_O_66_(OH)_9_Cl
##LOCALITY=Kovdor Phlogopite mine (Mica mine; Slyuda mine; Kovdorslyuda Shaft), Kovdor Massif, Kola Peninsula, Murmanskaja Oblast', Northern Region, Russia
##OWNER=RRUFF
##SOURCE=Michael Scott
##DESCRIPTION=Pink gemmy massive inclusions in matrix of fine-grained white undetermined zeolite
##STATUS=The identification of this mineral has been confirmed only by single crystal X-ray diffraction.
##URL=rruff.info/R070413
157.3757, 10163.37
157.8578, 10191.97
158.3399, 10190.22
158.8221, 10186.66
159.3042, 10199.94
159.7863, 10255.68
160.2684, 10308.20
160.7505, 10343.02
161.2326, 10361.55
161.7148, 10372.06
162.1969, 10368.17
162.6790, 10361.79
163.1611, 10364.42
163.6432, 10389.07
164.1253, 10416.34
164.6075, 10433.41
165.0896, 10439.72
165.5717, 10451.37
166.0538, 10479.85
166.5359, 10518.96
167.0180, 10559.76
167.5002, 10600.11
167.9823, 10640.12
168.4644, 10684.22
168.9465, 10735.15
169.4286, 10773.41
169.9107, 10770.10
170.3929, 10742.89
170.8750, 10728.91
171.3571, 10761.28
171.8392, 10810.51
172.3213, 10844.88
172.8034, 10858.19
173.2856, 10862.92
173.7677, 10865.37
174.2498, 10867.32
174.7319, 10874.79
175.2140, 10894.69
175.6961, 10921.63
176.1783, 10948.58
176.6604, 10976.42
177.1425, 10999.53
177.6246, 11004.51
178.1067, 10994.50
178.5888, 10990.33
179.0710, 11021.10
179.5531, 11068.79
180.0352, 11088.84
180.5173, 11053.84
180.9994, 11003.34
181.4815, 11011.21
181.9637, 11075.82
182.4458, 11143.12
182.9279, 11154.59
183.4100, 11127.00
183.8921, 11125.50
184.3742, 11182.45
184.8564, 11271.39
185.3385, 11331.79
185.8206, 11363.49
186.3027, 11375.13
186.7848, 11362.96
187.2669, 11331.72
187.7491, 11317.32
188.2312, 11341.54
188.7133, 11392.62
189.1954, 11427.03
189.6775, 11442.73
190.1596, 11449.80
190.6418, 11458.31
191.1239, 11468.28
191.6060, 11481.19
192.0881, 11498.18
192.5702, 11518.96
193.0524, 11542.79
193.5345, 11571.66
194.0166, 11598.27
194.4987, 11604.95
194.9808, 11589.76
195.4629, 11583.92
195.9451, 11608.46
196.4272, 11662.89
196.9093, 11703.97
197.3914, 11729.08
197.8735, 11742.83
198.3556, 11749.89
198.8378, 11748.22
199.3199, 11752.58
199.8020, 11775.97
200.2841, 11820.34
200.7662, 11851.05
201.2483, 11863.00
201.7305, 11863.10
202.2126, 11870.06
202.6947, 11887.01
203.1768, 11899.08
203.6589, 11888.29
204.1410, 11847.00
204.6232, 11842.23
205.1053, 11894.35
205.5874, 11980.48
206.0695, 12019.95
206.5516, 11999.21
207.0337, 11967.32
207.5159, 11956.57
207.9980, 11970.13
208.4801, 11991.21
208.9622, 12020.62
209.4443, 12055.94
209.9264, 12087.37
210.4086, 12118.73
210.8907, 12138.51
211.3728, 12131.17
211.8549, 12082.91
212.3370, 12055.92
212.8191, 12066.75
213.3013, 12109.29
213.7834, 12129.11
214.2655, 12112.21
214.7476, 12095.11
215.2297, 12115.60
215.7118, 12195.42
216.1940, 12252.41
216.6761, 12267.59
217.1582, 12243.01
217.6403, 12218.39
218.1224, 12188.30
218.6045, 12165.75
219.0867, 12167.38
219.5688, 12207.90
220.0509, 12237.40
220.5330, 12241.94
221.0151, 12220.90
221.4972, 12207.75
221.9794, 12206.87
222.4615, 12208.89
222.9436, 12201.56
223.4257, 12174.37
223.9078, 12160.05
224.3899, 12170.45
224.8721, 12208.50
225.3542, 12234.00
225.8363, 12243.36
226.3184, 12243.80
226.8005, 12243.07
227.2827, 12239.02
227.7648, 12238.02
228.2469, 12242.57
228.7290, 12253.64
229.2111, 12262.69
229.6932, 12269.95
230.1754, 12274.89
230.6575, 12276.96
231.1396, 12276.25
231.6217, 12272.26
232.1038, 12263.02
232.5859, 12246.08
233.0681, 12237.92
233.5502, 12243.72
234.0323, 12254.59
234.5144, 12256.07
234.9965, 12237.57
235.4786, 12227.88
235.9608, 12239.60
236.4429, 12280.50
236.9250, 12304.97
237.4071, 12304.36
237.8892, 12292.47
238.3713, 12291.54
238.8535, 12307.70
239.3356, 12324.47
239.8177, 12335.30
240.2998, 12336.37
240.7819, 12348.00
241.2640, 12381.02
241.7462, 12418.50
242.2283, 12428.49
242.7104, 12389.99
243.1925, 12358.69
243.6746, 12356.77
244.1567, 12398.22
244.6389, 12420.50
245.1210, 12415.94
245.6031, 12396.83
246.0852, 12383.06
246.5673, 12370.42
247.0494, 12370.47
247.5316, 12390.84
248.0137, 12441.38
248.4958, 12478.94
248.9779, 12500.48
249.4600, 12510.53
249.9421, 12514.61
250.4243, 12503.70
250.9064, 12503.20
251.3885, 12528.64
251.8706, 12598.00
252.3527, 12630.97
252.8348, 12612.63
253.3170, 12567.29
253.7991, 12540.64
254.2812, 12538.75
254.7633, 12544.41
255.2454, 12551.46
255.7275, 12558.76
256.2097, 12571.27
256.6918, 12588.65
257.1739, 12611.32
257.6560, 12643.36
258.1381, 12694.50
258.6202, 12734.95
259.1024, 12751.13
259.5845, 12735.99
260.0666, 12725.10
260.5487, 12718.85
261.0308, 12716.60
261.5129, 12717.96
261.9951, 12725.19
262.4772, 12730.55
262.9593, 12728.70
263.4414, 12715.74
263.9235, 12716.03
264.4056, 12736.25
264.8878, 12763.50
265.3699, 12772.85
265.8520, 12756.74
266.3341, 12744.64
266.8162, 12750.40
267.2983, 12777.98
267.7805, 12796.97
268.2626, 12804.23
268.7447, 12806.20
269.2268, 12814.38
269.7089, 12830.52
270.1910, 12846.66
270.6732, 12860.63
271.1553, 12872.54
271.6374, 12878.92
272.1195, 12876.70
272.6016, 12873.44
273.0837, 12882.84
273.5659, 12907.37
274.0480, 12932.19
274.5301, 12953.55
275.0122, 12971.47
275.4943, 12978.51
275.9764, 12970.28
276.4586, 12959.41
276.9407, 12969.06
277.4228, 13002.25
277.9049, 13028.49
278.3870, 13028.75
278.8691, 13005.06
279.3513, 13008.40
279.8334, 13045.85
280.3155, 13092.16
280.7976, 13112.78
281.2798, 13106.68
281.7619, 13094.78
282.2440, 13081.53
282.7261, 13067.94
283.2082, 13063.26
283.6903, 13069.11
284.1725, 13077.83
284.6546, 13077.42
285.1367, 13068.45
285.6188, 13066.31
286.1009, 13083.48
286.5830, 13112.58
287.0652, 13118.77
287.5473, 13099.37
288.0294, 13072.65
288.5115, 13055.08
288.9936, 13046.68
289.4757, 13048.27
289.9579, 13065.19
290.4400, 13091.00
290.9221, 13110.40
291.4042, 13123.57
291.8863, 13127.77
292.3684, 13112.96
292.8506, 13084.35
293.3327, 13063.50
293.8148, 13052.45
294.2969, 13055.86
294.7790, 13094.96
295.2611, 13170.01
295.7433, 13236.46
296.2254, 13249.19
296.7075, 13222.31
297.1896, 13195.10
297.6717, 13177.37
298.1538, 13165.94
298.6360, 13155.59
299.1181, 13146.55
299.6002, 13142.84
300.0823, 13152.75
300.5644, 13169.53
301.0465, 13180.28
301.5287, 13179.76
302.0108, 13174.19
302.4929, 13173.94
302.9750, 13176.78
303.4571, 13169.92
303.9392, 13129.13
304.4214, 13078.10
304.9035, 13050.63
305.3856, 13067.43
305.8677, 13090.39
306.3498, 13081.18
306.8319, 13048.49
307.3141, 13022.88
307.7962, 13031.70
308.2783, 13052.25
308.7604, 13062.35
309.2425, 13055.45
309.7246, 13041.69
310.2068, 13019.39
310.6889, 12994.23
311.1710, 12980.61
311.6531, 12989.78
312.1352, 13010.49
312.6173, 13040.45
313.0995, 13089.58
313.5816, 13116.59
314.0637, 13076.84
314.5458, 13003.01
315.0279, 12956.34
315.5100, 12982.80
315.9922, 13025.65
316.4743, 13060.50
316.9564, 13088.58
317.4385, 13091.64
317.9206, 13028.30
318.4027, 12944.33
318.8849, 12903.70
319.3670, 12958.85
319.8491, 13029.22
320.3312, 13092.88
320.8133, 13151.55
321.2954, 13182.56
321.7776, 13156.22
322.2597, 13110.13
322.7418, 13084.37
323.2239, 13093.25
323.7060, 13114.45
324.1881, 13148.92
324.6703, 13198.48
325.1524, 13236.70
325.6345, 13258.09
326.1166, 13268.95
326.5987, 13274.25
327.0808, 13253.05
327.5630, 13233.29
328.0451, 13281.64
328.5272, 13318.90
329.0093, 13345.67
329.4914, 13330.54
329.9735, 13369.52
330.4557, 13386.81
330.9378, 13403.22
331.4199, 13449.81
331.9020, 13440.78
332.3841, 13486.89
332.8662, 13510.99
333.3484, 13545.17
333.8305, 13557.53
334.3126, 13576.62
334.7947, 13617.54
335.2768, 13646.38
335.7589, 13656.22
336.2411, 13691.04
336.7232, 13681.88
337.2053, 13714.35
337.6874, 13745.93
338.1695, 13767.71
338.6516, 13778.09
339.1338, 13791.83
339.6159, 13810.78
340.0980, 13830.39
340.5801, 13843.47
341.0622, 13850.19
341.5443, 13849.90
342.0265, 13837.84
342.5086, 13816.25
342.9907, 13806.86
343.4728, 13811.74
343.9549, 13820.97
344.4370, 13823.88
344.9192, 13820.64
345.4013, 13812.30
345.8834, 13794.81
346.3655, 13773.76
346.8476, 13768.41
347.3297, 13779.35
347.8119, 13788.89
348.2940, 13779.25
348.7761, 13754.58
349.2582, 13726.77
349.7403, 13693.79
350.2225, 13664.06
350.7046, 13652.97
351.1867, 13658.41
351.6688, 13664.83
352.1509, 13662.37
352.6331, 13653.39
353.1152, 13641.62
353.5973, 13628.59
354.0794, 13611.65
354.5615, 13583.03
355.0436, 13547.40
355.5258, 13518.96
356.0079, 13510.00
356.4900, 13509.16
356.9721, 13509.14
357.4542, 13512.00
357.9363, 13504.94
358.4185, 13473.99
358.9006, 13428.97
359.3827, 13386.92
359.8648, 13351.93
360.3469, 13323.62
360.8290, 13303.47
361.3112, 13292.61
361.7933, 13281.88
362.2754, 13272.70
362.7575, 13260.43
363.2396, 13239.98
363.7217, 13199.35
364.2039, 13161.51
364.6860, 13130.48
365.1681, 13106.35
365.6502, 13092.53
366.1323, 13108.14
366.6144, 13122.73
367.0966, 13115.05
367.5787, 13050.10
368.0608, 13005.36
368.5429, 12996.28
369.0250, 13014.57
369.5071, 13017.52
369.9893, 12993.62
370.4714, 12967.83
370.9535, 12953.35
371.4356, 12959.79
371.9177, 12954.88
372.3998, 12931.50
372.8820, 12899.90
373.3641, 12883.93
373.8462, 12888.32
374.3283, 12896.35
374.8104, 12905.10
375.2925, 12916.12
375.7747, 12906.50
376.2568, 12869.21
376.7389, 12825.07
377.2210, 12807.36
377.7031, 12818.63
378.1852, 12818.62
378.6674, 12787.76
379.1495, 12736.14
379.6316, 12706.96
380.1137, 12701.86
380.5958, 12706.58
381.0779, 12712.50
381.5601, 12718.42
382.0422, 12717.30
382.5243, 12704.50
383.0064, 12687.86
383.4885, 12685.55
383.9706, 12694.71
384.4528, 12694.44
384.9349, 12655.95
385.4170, 12602.37
385.8991, 12572.48
386.3812, 12575.11
386.8633, 12590.96
387.3455, 12608.22
387.8276, 12625.11
388.3097, 12637.79
388.7918, 12643.57
389.2739, 12644.66
389.7560, 12639.85
390.2382, 12628.08
390.7203, 12622.34
391.2024, 12642.42
391.6845, 12668.04
392.1666, 12676.00
392.6487, 12636.41
393.1309, 12598.34
393.6130, 12586.46
394.0951, 12598.15
394.5772, 12600.48
395.0593, 12566.81
395.5414, 12532.68
396.0236, 12520.67
396.5057, 12552.97
396.9878, 12584.89
397.4699, 12615.89
397.9520, 12644.00
398.4341, 12662.81
398.9163, 12667.77
399.3984, 12668.15
399.8805, 12667.12
400.3626, 12665.18
400.8447, 12660.69
401.3268, 12655.64
401.8090, 12646.57
402.2911, 12625.10
402.7732, 12581.73
403.2553, 12551.36
403.7374, 12544.46
404.2195, 12560.14
404.7017, 12583.81
405.1838, 12618.21
405.6659, 12653.52
406.1480, 12684.06
406.6301, 12710.14
407.1122, 12720.45
407.5944, 12709.22
408.0765, 12684.83
408.5586, 12662.57
409.0407, 12642.48
409.5228, 12634.13
410.0049, 12651.27
410.4871, 12685.22
410.9692, 12713.13
411.4513, 12733.27
411.9334, 12745.08
412.4155, 12744.13
412.8976, 12733.88
413.3798, 12724.43
413.8619, 12729.76
414.3440, 12732.73
414.8261, 12707.23
415.3082, 12652.98
415.7903, 12608.69
416.2725, 12608.33
416.7546, 12628.34
417.2367, 12642.02
417.7188, 12632.74
418.2009, 12624.29
418.6830, 12629.02
419.1652, 12643.95
419.6473, 12657.96
420.1294, 12670.20
420.6115, 12678.51
421.0937, 12681.46
421.5758, 12676.89
422.0579, 12671.08
422.5400, 12662.51
423.0221, 12653.65
423.5042, 12648.55
423.9864, 12659.88
424.4685, 12660.82
424.9506, 12640.47
425.4327, 12596.45
425.9148, 12565.43
426.3969, 12550.04
426.8791, 12544.64
427.3612, 12545.86
427.8433, 12556.03
428.3254, 12565.57
428.8075, 12573.19
429.2896, 12579.26
429.7718, 12586.72
430.2539, 12597.17
430.7360, 12600.95
431.2181, 12587.68
431.7002, 12559.04
432.1823, 12539.65
432.6645, 12531.21
433.1466, 12530.40
433.6287, 12539.14
434.1108, 12554.14
434.5929, 12558.24
435.0750, 12531.80
435.5572, 12495.43
436.0393, 12488.04
436.5214, 12508.57
437.0035, 12535.01
437.4856, 12564.84
437.9677, 12585.41
438.4499, 12574.28
438.9320, 12504.62
439.4141, 12437.96
439.8962, 12422.18
440.3783, 12444.07
440.8604, 12469.11
441.3426, 12494.54
441.8247, 12509.13
442.3068, 12501.31
442.7889, 12463.30
443.2710, 12434.51
443.7531, 12428.68
444.2353, 12436.19
444.7174, 12446.27
445.1995, 12468.82
445.6816, 12481.29
446.1637, 12475.85
446.6458, 12454.44
447.1280, 12436.26
447.6101, 12418.52
448.0922, 12407.08
448.5743, 12406.78
449.0564, 12424.20
449.5385, 12434.57
450.0207, 12434.24
450.5028, 12429.29
450.9849, 12432.66
451.4670, 12446.66
451.9491, 12457.04
452.4312, 12456.74
452.9134, 12447.40
453.3955, 12441.54
453.8776, 12439.29
454.3597, 12439.60
454.8418, 12446.00
455.3239, 12455.37
455.8061, 12452.42
456.2882, 12427.37
456.7703, 12398.38
457.2524, 12395.11
457.7345, 12412.00
458.2166, 12426.31
458.6988, 12420.12
459.1809, 12406.42
459.6630, 12397.91
460.1451, 12395.59
460.6272, 12400.21
461.1093, 12419.87
461.5915, 12444.38
462.0736, 12460.66
462.5557, 12458.39
463.0378, 12453.08
463.5199, 12455.20
464.0020, 12462.09
464.4842, 12453.20
464.9663, 12394.30
465.4484, 12340.79
465.9305, 12323.53
466.4126, 12373.50
466.8947, 12406.78
467.3769, 12418.37
467.8590, 12415.45
468.3411, 12408.04
468.8232, 12390.48
469.3053, 12379.85
469.7874, 12381.35
470.2696, 12394.46
470.7517, 12411.28
471.2338, 12433.19
471.7159, 12454.39
472.1980, 12474.00
472.6801, 12491.64
473.1623, 12485.95
473.6444, 12444.93
474.1265, 12397.01
474.6086, 12403.70
475.0907, 12455.34
475.5728, 12489.50
476.0550, 12445.74
476.5371, 12372.90
477.0192, 12357.88
477.5013, 12404.08
477.9834, 12455.31
478.4655, 12471.39
478.9477, 12465.52
479.4298, 12453.47
479.9119, 12424.93
480.3940, 12410.21
480.8761, 12440.44
481.3582, 12499.16
481.8404, 12538.62
482.3225, 12518.56
482.8046, 12496.05
483.2867, 12502.22
483.7688, 12554.45
484.2509, 12583.94
484.7331, 12559.36
485.2152, 12522.62
485.6973, 12514.22
486.1794, 12560.95
486.6615, 12589.05
487.1436, 12579.06
487.6258, 12542.23
488.1079, 12534.18
488.5900, 12563.15
489.0721, 12598.44
489.5542, 12621.39
490.0363, 12631.89
490.5185, 12655.32
491.0006, 12695.52
491.4827, 12737.34
491.9648, 12755.96
492.4470, 12756.16
492.9291, 12764.09
493.4112, 12792.37
493.8933, 12829.76
494.3754, 12860.25
494.8575, 12884.41
495.3397, 12904.01
495.8218, 12915.27
496.3039, 12925.36
496.7860, 12943.77
497.2681, 12975.15
497.7502, 13002.90
498.2324, 13013.26
498.7145, 13016.21
499.1966, 13025.52
499.6787, 13050.54
500.1608, 13077.10
500.6429, 13098.20
501.1251, 13114.68
501.6072, 13141.14
502.0893, 13188.60
502.5714, 13237.74
503.0535, 13281.58
503.5356, 13327.04
504.0178, 13347.65
504.4999, 13328.42
504.9820, 13297.84
505.4641, 13301.68
505.9462, 13346.20
506.4283, 13393.69
506.9105, 13439.72
507.3926, 13478.79
507.8747, 13480.36
508.3568, 13442.29
508.8389, 13405.87
509.3210, 13405.66
509.8032, 13430.44
510.2853, 13449.95
510.7674, 13460.47
511.2495, 13465.39
511.7316, 13464.63
512.2137, 13461.01
512.6959, 13460.23
513.1780, 13470.52
513.6601, 13479.59
514.1422, 13476.00
514.6243, 13462.03
515.1064, 13453.64
515.5886, 13460.99
516.0707, 13473.13
516.5528, 13483.64
517.0349, 13491.79
517.5170, 13498.26
517.9991, 13499.18
518.4813, 13499.93
518.9634, 13507.80
519.4455, 13528.04
519.9276, 13547.20
520.4097, 13567.50
520.8918, 13585.49
521.3740, 13574.36
521.8561, 13524.31
522.3382, 13477.60
522.8203, 13464.32
523.3024, 13482.66
523.7845, 13500.07
524.2667, 13514.95
524.7488, 13528.68
525.2309, 13540.04
525.7130, 13551.46
526.1951, 13572.00
526.6772, 13615.31
527.1594, 13659.51
527.6415, 13670.92
528.1236, 13657.33
528.6057, 13653.17
529.0878, 13687.91
529.5699, 13733.17
530.0521, 13769.41
530.5342, 13795.09
531.0163, 13808.57
531.4984, 13771.27
531.9805, 13698.20
532.4626, 13777.32
532.9448, 13834.32
533.4269, 13870.35
533.9090, 13822.71
534.3911, 13883.13
534.8732, 13900.24
535.3553, 13915.57
535.8375, 13991.20
536.3196, 13955.73
536.8017, 14030.40
537.2838, 14061.10
537.7659, 14111.92
538.2480, 14119.17
538.7302, 14139.89
539.2123, 14203.52
539.6944, 14245.49
540.1765, 14249.75
540.6586, 14240.68
541.1407, 14250.33
541.6229, 14275.77
542.1050, 14306.39
542.5871, 14338.09
543.0692, 14371.39
543.5513, 14408.78
544.0334, 14449.96
544.5156, 14485.82
544.9977, 14500.33
545.4798, 14514.50
545.9619, 14545.35
546.4440, 14610.24
546.9261, 14670.84
547.4083, 14721.90
547.8904, 14765.60
548.3725, 14804.81
548.8546, 14836.74
549.3367, 14868.94
549.8188, 14901.64
550.3010, 14935.44
550.7831, 14980.83
551.2652, 15042.76
551.7473, 15099.93
552.2294, 15129.46
552.7115, 15135.54
553.1937, 15161.58
553.6758, 15213.83
554.1579, 15274.32
554.6400, 15320.74
555.1221, 15357.51
555.6042, 15396.57
556.0864, 15446.84
556.5685, 15497.24
557.0506, 15540.01
557.5327, 15574.47
558.0148, 15597.12
558.4969, 15594.33
558.9791, 15588.23
559.4612, 15592.60
559.9433, 15610.55
560.4254, 15630.03
560.9075, 15649.11
561.3896, 15668.65
561.8718, 15690.60
562.3539, 15726.83
562.8360, 15743.67
563.3181, 15728.36
563.8002, 15696.94
564.2823, 15692.53
564.7645, 15723.33
565.2466, 15744.13
565.7287, 15733.29
566.2108, 15697.48
566.6929, 15673.16
567.1750, 15661.45
567.6572, 15640.04
568.1393, 15574.15
568.6214, 15488.16
569.1035, 15438.98
569.5856, 15443.67
570.0677, 15449.96
570.5499, 15408.19
571.0320, 15340.49
571.5141, 15281.67
571.9962, 15257.06
572.4783, 15231.23
572.9604, 15184.62
573.4426, 15122.76
573.9247, 15073.68
574.4068, 15070.69
574.8889, 15054.83
575.3710, 14997.20
575.8531, 14885.40
576.3353, 14802.92
576.8174, 14762.18
577.2995, 14733.54
577.7816, 14689.84
578.2637, 14630.50
578.7458, 14562.35
579.2280, 14483.88
579.7101, 14401.59
580.1922, 14324.91
580.6743, 14254.00
581.1564, 14189.88
581.6385, 14139.85
582.1207, 14093.07
582.6028, 14033.29
583.0849, 13962.79
583.5670, 13895.50
584.0491, 13843.92
584.5313, 13796.23
585.0134, 13740.16
585.4955, 13666.64
585.9776, 13609.06
586.4597, 13593.96
586.9418, 13591.89
587.4240, 13569.17
587.9061, 13507.23
588.3882, 13452.26
588.8703, 13412.44
589.3524, 13381.85
589.8345, 13343.13
590.3167, 13295.10
590.7988, 13242.73
591.2809, 13185.26
591.7630, 13125.23
592.2451, 13077.70
592.7272, 13042.72
593.2094, 13019.16
593.6915, 13015.51
594.1736, 13020.72
594.6557, 13011.79
595.1378, 12982.43
595.6199, 12950.81
596.1021, 12936.02
596.5842, 12926.17
597.0663, 12904.17
597.5485, 12837.16
598.0306, 12786.14
598.5127, 12778.14
598.9948, 12804.43
599.4769, 12826.44
599.9590, 12850.03
600.4412, 12858.82
600.9233, 12839.03
601.4054, 12786.57
601.8875, 12775.61
602.3696, 12823.08
602.8517, 12870.73
603.3339, 12856.91
603.8160, 12787.95
604.2981, 12749.78
604.7802, 12755.51
605.2623, 12782.29
605.7444, 12808.68
606.2266, 12833.20
606.7087, 12850.40
607.1908, 12852.82
607.6729, 12853.42
608.1550, 12868.23
608.6371, 12890.83
609.1193, 12900.95
609.6014, 12871.69
610.0835, 12844.01
610.5656, 12840.74
611.0477, 12867.23
611.5298, 12886.67
612.0120, 12897.37
612.4941, 12901.02
612.9762, 12895.04
613.4583, 12871.15
613.9404, 12869.63
614.4225, 12897.99
614.9047, 12938.81
615.3868, 12971.67
615.8689, 12996.50
616.3510, 13007.31
616.8331, 12996.46
617.3152, 12978.55
617.7974, 12971.50
618.2795, 12975.84
618.7616, 12992.88
619.2437, 13038.19
619.7258, 13085.34
620.2079, 13115.52
620.6901, 13127.49
621.1722, 13130.85
621.6543, 13116.95
622.1364, 13103.87
622.6185, 13103.91
623.1006, 13122.69
623.5828, 13144.52
624.0649, 13177.57
624.5470, 13206.16
625.0291, 13205.84
625.5112, 13168.22
625.9933, 13147.17
626.4755, 13154.56
626.9576, 13180.96
627.4397, 13212.78
627.9218, 13248.63
628.4039, 13277.76
628.8860, 13296.77
629.3682, 13305.04
629.8503, 13292.37
630.3324, 13262.82
630.8145, 13246.71
631.2966, 13272.87
631.7787, 13311.18
632.2609, 13339.88
632.7430, 13352.85
633.2251, 13369.46
633.7072, 13398.19
634.1893, 13428.92
634.6714, 13453.13
635.1536, 13466.80
635.6357, 13483.08
636.1178, 13503.75
636.5999, 13526.33
637.0820, 13544.60
637.5641, 13558.10
638.0463, 13575.39
638.5284, 13593.11
639.0105, 13621.79
639.4926, 13707.85
639.9747, 13836.93
640.4568, 13924.01
640.9390, 13882.80
641.4211, 13799.53
641.9032, 13749.84
642.3853, 13739.30
642.8674, 13743.89
643.3495, 13757.74
643.8317, 13781.00
644.3138, 13815.88
644.7959, 13878.48
645.2780, 13921.00
645.7601, 13935.42
646.2422, 13936.77
646.7244, 13939.59
647.2065, 13941.53
647.6886, 13958.61
648.1707, 13997.68
648.6528, 14047.28
649.1349, 14089.03
649.6171, 14122.29
650.0992, 14144.04
650.5813, 14140.96
