##NAMES=Aragonite
##RRUFFID=R040078
##IDEAL CHEMISTRY=CaCO_3_
##LOCALITY=Molina, Aragon, Spain
##OWNER=RRUFF
##SOURCE=University of Arizona Mineral Museum
##DESCRIPTION=Orange pseudohexagonal prisms
##STATUS=The identification of this mineral has been confirmed by X-ray diffraction and chemical analysis
##URL=rruff.info/R040078
##MEASURED CHEMISTRY=Ca_1.00_CO_3_
134.6465, 203.2178
135.1286, 208.6942
135.6108, 215.1337
136.0929, 222.2392
136.5750, 229.3518
137.0571, 234.5183
137.5392, 243.5130
138.0213, 255.5788
138.5035, 271.4829
138.9856, 290.0645
139.4677, 311.2054
139.9498, 339.1867
140.4319, 382.2498
140.9140, 463.8044
141.3962, 528.1556
141.8783, 576.4559
142.3604, 606.0050
142.8425, 609.8128
143.3246, 584.5256
143.8067, 541.1628
144.2889, 503.9268
144.7710, 472.9948
145.2531, 447.6670
145.7352, 424.4910
146.2173, 402.7058
146.6994, 387.4402
147.1816, 385.3800
147.6637, 392.4785
148.1458, 400.1449
148.6279, 409.8436
149.1100, 417.9791
149.5921, 422.8634
150.0743, 425.7567
150.5564, 429.4596
151.0385, 435.7074
151.5206, 442.6404
152.0027, 444.9019
152.4848, 440.4347
152.9670, 435.2230
153.4491, 431.5064
153.9312, 428.7125
154.4133, 425.2060
154.8954, 419.8848
155.3775, 413.4888
155.8597, 408.1499
156.3418, 401.7878
156.8239, 398.7037
157.3060, 402.0539
157.7881, 410.8138
158.2702, 420.8748
158.7524, 430.2645
159.2345, 439.5078
159.7166, 450.2809
160.1987, 467.2891
160.6808, 480.2158
161.1629, 482.0739
161.6451, 473.7783
162.1272, 460.6732
162.6093, 443.3805
163.0914, 423.9417
163.5735, 407.0655
164.0556, 394.4521
164.5378, 382.6579
165.0199, 367.7983
165.5020, 350.1239
165.9841, 335.9733
166.4662, 330.0565
166.9483, 329.3887
167.4305, 327.9247
167.9126, 324.5052
168.3947, 320.9048
168.8768, 317.4174
169.3589, 313.8779
169.8410, 314.7903
170.3232, 326.1498
170.8053, 342.3172
171.2874, 353.7954
171.7695, 355.9408
172.2516, 356.4948
172.7337, 363.8548
173.2159, 378.5337
173.6980, 394.7283
174.1801, 409.2009
174.6622, 423.6995
175.1443, 440.9354
175.6264, 462.9605
176.1086, 486.2814
176.5907, 506.1477
177.0728, 521.7632
177.5549, 539.1185
178.0370, 563.2220
178.5191, 590.2104
179.0013, 615.9027
179.4834, 640.5980
179.9655, 662.1089
180.4476, 675.8536
180.9297, 680.1044
181.4118, 685.7346
181.8940, 697.1744
182.3761, 713.4201
182.8582, 733.8719
183.3403, 757.2856
183.8224, 786.0376
184.3046, 823.1284
184.7867, 868.5494
185.2688, 921.7200
185.7509, 990.7749
186.2330, 1064.582
186.7151, 1131.726
187.1973, 1187.802
187.6794, 1237.754
188.1615, 1293.904
188.6436, 1361.666
189.1257, 1410.696
189.6078, 1420.798
190.0900, 1407.338
190.5721, 1382.526
191.0542, 1350.471
191.5363, 1307.551
192.0184, 1244.236
192.5005, 1155.598
192.9827, 1068.963
193.4648, 993.8398
193.9469, 926.6786
194.4290, 865.1959
194.9111, 809.0396
195.3932, 757.6476
195.8754, 709.5305
196.3575, 663.5363
196.8396, 625.0390
197.3217, 600.8298
197.8038, 583.2780
198.2859, 564.9469
198.7681, 542.0031
199.2502, 522.6342
199.7323, 518.5926
200.2144, 532.0229
200.6965, 549.4473
201.1786, 567.5741
201.6608, 586.9842
202.1429, 607.3001
202.6250, 627.7781
203.1071, 651.9082
203.5892, 683.9947
204.0713, 724.5059
204.5535, 770.3162
205.0356, 821.1061
205.5177, 876.6887
205.9998, 937.1859
206.4819, 1002.910
206.9640, 1073.512
207.4462, 1149.134
207.9283, 1229.938
208.4104, 1313.998
208.8925, 1400.769
209.3746, 1491.118
209.8567, 1585.867
210.3388, 1685.845
210.8210, 1786.756
211.3031, 1888.750
211.7852, 1992.779
212.2673, 2079.834
212.7494, 2151.674
213.2315, 2196.154
213.7137, 2201.749
214.1958, 2166.623
214.6779, 2105.782
215.1600, 2030.107
215.6421, 1939.904
216.1242, 1835.456
216.6064, 1707.156
217.0885, 1573.093
217.5706, 1445.446
218.0527, 1325.259
218.5348, 1212.293
219.0169, 1104.495
219.4991, 1002.506
219.9812, 913.9437
220.4633, 843.2107
220.9454, 783.8572
221.4275, 728.7977
221.9096, 677.9294
222.3918, 633.8082
222.8739, 599.8008
223.3560, 574.3824
223.8381, 549.2897
224.3202, 522.5078
224.8023, 497.0644
225.2845, 475.4241
225.7666, 457.1489
226.2487, 439.5094
226.7308, 419.9497
227.2129, 399.8314
227.6950, 383.6832
228.1772, 373.3228
228.6593, 364.6662
229.1414, 353.9865
229.6235, 341.9714
230.1056, 331.6193
230.5877, 325.2364
231.0699, 321.2527
231.5520, 316.1609
232.0341, 309.2705
232.5162, 302.6064
232.9983, 297.9778
233.4804, 294.7850
233.9626, 291.6620
234.4447, 288.2159
234.9268, 284.5948
235.4089, 280.9454
235.8910, 277.2449
236.3731, 273.6190
236.8553, 269.3001
237.3374, 265.1174
237.8195, 263.1564
238.3016, 266.6403
238.7837, 270.8848
239.2658, 270.4094
239.7480, 265.0630
240.2301, 259.1251
240.7122, 254.6338
241.1943, 251.5194
241.6764, 249.3029
242.1585, 247.7169
242.6407, 247.2353
243.1228, 249.8175
243.6049, 254.8520
244.0870, 256.6586
244.5691, 250.8864
245.0512, 240.6734
245.5334, 234.5282
246.0155, 233.1118
246.4976, 234.6273
246.9797, 240.8996
247.4618, 249.9112
247.9439, 254.2759
248.4261, 249.2046
248.9082, 239.8802
249.3903, 238.2842
249.8724, 247.4452
250.3545, 255.9499
250.8366, 259.8258
251.3188, 260.2256
251.8009, 258.7212
252.2830, 255.3627
252.7651, 251.8174
253.2472, 251.1284
253.7293, 253.6022
254.2115, 257.2392
254.6936, 262.8098
255.1757, 268.9345
255.6578, 274.1170
256.1399, 277.9916
256.6220, 280.4076
257.1042, 280.7054
257.5863, 277.5631
258.0684, 276.9945
258.5505, 279.0774
259.0326, 283.8622
259.5147, 291.2986
259.9969, 301.4370
260.4790, 314.7122
260.9611, 332.4829
261.4432, 355.8931
261.9253, 375.1037
262.4074, 387.6887
262.8896, 398.6014
263.3717, 407.8125
263.8538, 417.1376
264.3359, 432.1709
264.8180, 458.1441
265.3001, 495.0402
265.7823, 525.1974
266.2644, 539.6956
266.7465, 558.0971
267.2286, 588.5098
267.7107, 627.2831
268.1928, 667.8103
268.6750, 706.5975
269.1571, 743.1548
269.6392, 773.7894
270.1213, 795.2120
270.6034, 813.8431
271.0855, 832.0464
271.5677, 847.1329
272.0498, 855.5438
272.5319, 855.7343
273.0140, 849.6512
273.4961, 841.7486
273.9782, 833.1636
274.4604, 820.2614
274.9425, 798.7161
275.4246, 775.8950
275.9067, 757.8444
276.3888, 745.8456
276.8709, 736.8735
277.3531, 725.8996
277.8352, 710.4334
278.3173, 701.3013
278.7994, 703.3527
279.2815, 708.0335
279.7636, 711.4706
280.2458, 713.3716
280.7279, 715.4155
281.2100, 719.3998
281.6921, 725.4203
282.1742, 730.9319
282.6563, 738.0643
283.1385, 742.1052
283.6206, 744.9336
284.1027, 743.5557
284.5848, 730.8019
285.0669, 698.1091
285.5490, 651.3179
286.0312, 612.4416
286.5133, 584.2372
286.9954, 558.5521
287.4775, 531.7727
287.9596, 505.0260
288.4417, 479.6638
288.9239, 455.3572
289.4060, 433.9158
289.8881, 419.5453
290.3702, 413.3477
290.8523, 405.7626
291.3344, 392.2762
291.8166, 375.5774
292.2987, 358.4937
292.7808, 340.8519
293.2629, 324.3615
293.7450, 309.8097
294.2271, 297.4329
294.7093, 288.7344
295.1914, 285.6205
295.6735, 284.5346
296.1556, 280.3737
296.6377, 272.7877
297.1198, 265.8625
297.6020, 262.5660
298.0841, 260.6274
298.5662, 255.3457
299.0483, 245.2955
299.5304, 234.9998
300.0125, 229.3401
300.4947, 228.4209
300.9768, 228.3110
301.4589, 229.6075
301.9410, 230.9013
302.4231, 230.7983
302.9052, 229.3537
303.3874, 227.8857
303.8695, 227.6124
304.3516, 228.3597
304.8337, 226.9905
305.3158, 221.3802
305.7979, 216.2188
306.2801, 213.5330
306.7622, 212.6243
307.2443, 212.0553
307.7264, 211.1729
308.2085, 209.8467
308.6906, 207.6693
309.1728, 204.7925
309.6549, 200.7391
310.1370, 193.2341
310.6191, 185.5956
311.1012, 181.8638
311.5833, 182.9688
312.0655, 185.8287
312.5476, 185.5378
313.0297, 180.2487
313.5118, 176.1758
313.9939, 172.7450
314.4760, 170.7491
314.9582, 171.8742
315.4403, 175.3292
315.9224, 177.9679
316.4045, 176.5087
316.8866, 170.9241
317.3687, 167.2485
317.8509, 167.8188
318.3330, 167.6918
318.8151, 164.5999
319.2972, 159.7737
319.7793, 155.3970
320.2614, 152.6110
320.7436, 150.9935
321.2257, 149.1691
321.7078, 146.2720
322.1899, 145.7027
322.6720, 151.1360
323.1541, 158.3216
323.6363, 163.6455
324.1184, 166.4167
324.6005, 166.6922
325.0826, 162.6015
325.5647, 154.6153
326.0468, 150.8977
326.5290, 155.9798
327.0111, 163.1326
327.4932, 165.0696
327.9753, 161.8195
328.4574, 157.4436
328.9395, 152.3739
329.4217, 147.6816
329.9038, 145.2513
330.3859, 145.3731
330.8680, 147.4983
331.3501, 152.2707
331.8322, 159.3014
332.3144, 163.7583
332.7965, 163.5499
333.2786, 162.0979
333.7607, 161.3130
334.2428, 161.2706
334.7249, 161.8345
335.2070, 162.9599
335.6891, 164.5956
336.1713, 166.5540
336.6534, 169.4906
337.1355, 171.8957
337.6176, 174.0097
338.0997, 175.2435
338.5818, 174.2569
339.0640, 170.6996
339.5461, 166.5413
340.0282, 165.0863
340.5103, 168.0372
340.9924, 169.9427
341.4745, 170.7805
341.9567, 170.7685
342.4388, 169.8018
342.9209, 168.0450
343.4030, 165.9306
343.8851, 163.7757
344.3672, 161.5848
344.8494, 159.4552
345.3315, 156.2324
345.8136, 154.6423
346.2957, 156.7234
346.7778, 160.4985
347.2599, 162.8646
347.7421, 162.1333
348.2242, 160.1954
348.7063, 160.8810
349.1884, 164.9690
349.6705, 168.3167
350.1526, 169.0480
350.6348, 168.9620
351.1169, 169.6262
351.5990, 171.2760
352.0811, 172.6053
352.5632, 171.5422
353.0453, 169.1454
353.5275, 170.1972
354.0096, 176.8200
354.4917, 183.7927
354.9738, 185.0274
355.4559, 181.7994
355.9380, 179.5726
356.4202, 180.3283
356.9023, 182.1047
357.3844, 182.9223
357.8665, 182.8380
358.3486, 183.3125
358.8307, 185.6446
359.3129, 189.0484
359.7950, 189.8958
360.2771, 184.7959
360.7592, 181.5974
361.2413, 184.1442
361.7234, 189.2707
362.2056, 192.4326
362.6877, 192.1583
363.1698, 190.1879
363.6519, 189.3232
364.1340, 190.6001
364.6161, 190.3582
365.0983, 186.4056
365.5804, 182.9991
366.0625, 184.0735
366.5446, 188.3625
367.0267, 190.8093
367.5089, 186.7801
367.9910, 177.2393
368.4731, 171.8005
368.9552, 172.4839
369.4373, 174.7257
369.9194, 179.4654
370.4016, 184.0758
370.8837, 185.1191
371.3658, 181.0950
371.8479, 174.7560
372.3300, 169.2002
372.8121, 164.3457
373.2943, 161.6250
373.7764, 163.1666
374.2585, 165.2731
374.7406, 164.6028
375.2227, 161.2387
375.7048, 157.6243
376.1870, 154.8921
376.6691, 152.7519
377.1512, 150.4700
377.6333, 147.8754
378.1154, 146.1954
378.5975, 146.9347
379.0797, 149.5255
379.5618, 150.4042
380.0439, 147.9780
380.5260, 145.3908
381.0081, 144.1656
381.4902, 143.9496
381.9724, 144.1015
382.4545, 144.4491
382.9366, 144.4991
383.4187, 143.1968
383.9008, 138.7277
384.3829, 136.1777
384.8651, 138.1679
385.3472, 140.1031
385.8293, 137.6592
386.3114, 131.3361
386.7935, 125.5313
387.2756, 124.4546
387.7578, 127.9388
388.2399, 129.3496
388.7220, 126.7729
389.2041, 124.4087
389.6862, 123.7175
390.1683, 123.7075
390.6505, 122.7807
391.1326, 120.1713
391.6147, 117.4936
392.0968, 117.6689
392.5789, 121.1253
393.0610, 123.1437
393.5432, 121.7823
394.0253, 119.5793
394.5074, 118.4628
394.9895, 118.4507
395.4716, 119.1629
395.9537, 121.6170
396.4359, 124.2639
396.9180, 123.9463
397.4001, 120.2927
397.8822, 116.5193
398.3643, 114.2402
398.8464, 113.6977
399.3286, 115.1784
399.8107, 122.5532
400.2928, 127.6026
400.7749, 124.7543
401.2570, 118.0061
401.7391, 114.4359
402.2213, 116.3830
402.7034, 120.7580
403.1855, 122.7928
403.6676, 121.4052
404.1497, 120.4937
404.6318, 120.8545
405.1140, 120.9145
405.5961, 119.5186
406.0782, 117.0380
406.5603, 114.6315
407.0424, 113.0640
407.5245, 112.2193
408.0067, 111.5309
408.4888, 110.3536
408.9709, 110.6693
409.4530, 115.1490
409.9351, 119.9875
410.4172, 121.2416
410.8994, 118.0417
411.3815, 113.9821
411.8636, 112.3139
412.3457, 112.6356
412.8278, 112.7337
413.3099, 112.2870
413.7921, 111.6699
414.2742, 111.2033
414.7563, 110.8317
415.2384, 110.3386
415.7205, 109.8114
416.2026, 109.0455
416.6848, 107.7856
417.1669, 106.1306
417.6490, 104.2638
418.1311, 102.0772
418.6132, 100.1726
419.0953, 99.95207
419.5775, 102.6746
420.0596, 104.9488
420.5417, 106.7547
421.0238, 108.0248
421.5059, 108.4748
421.9880, 108.2485
422.4702, 107.9331
422.9523, 107.9896
423.4344, 108.4176
423.9165, 109.3059
424.3986, 111.7310
424.8807, 113.0460
425.3629, 112.0416
425.8450, 109.9447
426.3271, 107.7740
426.8092, 105.7719
427.2913, 104.8712
427.7734, 107.0585
428.2556, 112.0461
428.7377, 114.9507
429.2198, 114.2154
429.7019, 112.4669
430.1840, 112.0464
430.6661, 112.6113
431.1483, 112.6926
431.6304, 110.6492
432.1125, 108.9015
432.5946, 110.7559
433.0767, 115.2925
433.5588, 117.7461
434.0410, 115.4549
434.5231, 110.4976
435.0052, 107.9205
435.4873, 108.6817
435.9694, 110.1885
436.4515, 112.9825
436.9337, 116.0118
437.4158, 118.9373
437.8979, 121.4006
438.3800, 122.4796
438.8621, 121.2803
439.3442, 117.9516
439.8264, 114.2095
440.3085, 108.7866
440.7906, 104.9101
441.2727, 104.0404
441.7548, 104.5830
442.2369, 104.9431
442.7191, 104.6978
443.2012, 104.0980
443.6833, 103.2915
444.1654, 102.3091
444.6475, 101.1277
445.1296, 99.14919
445.6118, 98.25143
446.0939, 101.6267
446.5760, 107.8487
447.0581, 111.3341
447.5402, 108.4922
448.0223, 105.0123
448.5045, 104.6917
448.9866, 106.8683
449.4687, 110.1214
449.9508, 114.0988
450.4329, 117.4249
450.9150, 117.3136
451.3972, 111.0909
451.8793, 107.2586
452.3614, 107.3772
452.8435, 108.3984
453.3256, 109.0492
453.8077, 109.0307
454.2899, 108.0145
454.7720, 105.4594
455.2541, 102.2408
455.7362, 101.5205
456.2183, 104.2473
456.7004, 106.9997
457.1826, 109.4889
457.6647, 111.2536
458.1468, 111.3770
458.6289, 109.8237
459.1110, 108.7950
459.5931, 110.5573
460.0753, 113.6191
460.5574, 114.4956
461.0395, 112.7527
461.5216, 111.1059
462.0037, 111.6150
462.4858, 113.6562
462.9680, 114.1876
463.4501, 111.2857
463.9322, 109.4038
464.4143, 110.4196
464.8964, 112.8624
465.3785, 115.3878
465.8607, 117.5004
466.3428, 118.4579
466.8249, 117.1278
467.3070, 113.1834
467.7891, 110.6901
468.2712, 111.6927
468.7534, 111.9209
469.2355, 108.5731
469.7176, 104.3586
470.1997, 103.5843
470.6818, 108.1960
471.1639, 113.8338
471.6461, 114.6618
472.1282, 111.0485
472.6103, 108.4740
473.0924, 108.0081
473.5745, 108.4331
474.0566, 109.4178
474.5388, 110.6224
475.0209, 110.1568
475.5030, 104.5838
475.9851, 100.0315
476.4672, 101.9027
476.9493, 108.1999
477.4315, 113.9618
477.9136, 117.2998
478.3957, 118.3306
478.8778, 117.0387
479.3599, 112.2226
479.8420, 108.0579
480.3242, 103.7599
480.8063, 100.7410
481.2884, 100.0767
481.7705, 101.2774
482.2526, 103.4663
482.7347, 106.4865
483.2169, 109.3080
483.6990, 109.3923
484.1811, 106.2360
484.6632, 103.3571
485.1453, 101.1467
485.6274, 99.98703
486.1096, 100.5874
486.5917, 102.8158
487.0738, 104.5305
487.5559, 104.6518
488.0380, 104.0758
488.5201, 102.9907
489.0023, 101.7984
489.4844, 103.0196
489.9665, 108.6432
490.4486, 115.9303
490.9307, 118.1354
491.4128, 110.2609
491.8950, 104.9864
492.3771, 103.8272
492.8592, 104.0119
493.3413, 103.7937
493.8234, 103.1443
494.3055, 103.0506
494.7877, 104.6163
495.2698, 106.7163
495.7519, 105.0241
496.2340, 97.72195
496.7161, 92.64131
497.1982, 92.66888
497.6804, 95.49166
498.1625, 99.86105
498.6446, 105.7012
499.1267, 110.3590
499.6088, 111.9725
500.0909, 112.0490
500.5730, 112.5337
501.0551, 113.4681
501.5373, 114.1744
502.0194, 114.4467
502.5015, 113.9734
502.9836, 111.7631
503.4657, 106.1776
503.9478, 101.1420
504.4300, 95.32025
504.9121, 91.16528
505.3942, 92.11600
505.8763, 96.90530
506.3584, 100.0885
506.8405, 96.70583
507.3227, 89.44814
507.8048, 88.87598
508.2869, 97.59402
508.7690, 104.3270
509.2511, 105.1463
509.7332, 102.7229
510.2154, 98.15646
510.6975, 91.42725
511.1796, 87.97673
511.6617, 93.51894
512.1439, 101.7460
512.6260, 104.5520
513.1081, 102.0208
513.5902, 98.54895
514.0723, 96.46060
514.5544, 95.35351
515.0366, 94.10591
515.5187, 93.06581
516.0008, 91.32166
516.4829, 86.39140
516.9650, 82.77370
517.4471, 85.26294
517.9293, 92.29525
518.4114, 97.61944
518.8935, 96.33060
519.3756, 91.44499
519.8577, 91.73379
520.3398, 98.59394
520.8220, 102.8520
521.3041, 100.2870
521.7862, 95.36157
522.2683, 92.66913
522.7504, 92.22116
523.2325, 92.93168
523.7147, 96.20780
524.1968, 99.17789
524.6789, 98.44009
525.1610, 94.80052
525.6431, 91.63680
526.1252, 90.51669
526.6074, 91.11902
527.0895, 93.02991
527.5716, 98.53406
528.0537, 100.5311
528.5358, 96.25493
529.0179, 91.53580
529.5001, 89.03535
529.9822, 88.52284
530.4643, 88.99151
530.9464, 90.36050
531.4285, 91.49586
531.9106, 90.14540
532.3928, 86.39452
532.8749, 83.55889
533.3570, 82.63896
533.8391, 82.43728
534.3212, 80.93405
534.8033, 78.29588
535.2855, 79.07215
535.7676, 88.14077
536.2497, 96.33587
536.7318, 97.68159
537.2139, 94.74403
537.6960, 92.49847
538.1782, 92.69041
538.6603, 93.28025
539.1424, 90.95043
539.6245, 84.88383
540.1066, 81.27954
540.5887, 81.51055
541.0709, 82.66933
541.5530, 84.08208
542.0351, 85.51973
542.5172, 86.65262
542.9993, 87.31237
543.4814, 87.92781
543.9636, 89.41829
544.4457, 91.08326
544.9278, 90.45108
545.4099, 86.97215
545.8920, 84.47769
546.3741, 86.74941
546.8563, 92.92648
547.3384, 94.71306
547.8205, 86.96377
548.3026, 81.91512
548.7847, 84.05226
549.2668, 88.22340
549.7490, 89.79126
550.2311, 88.08315
550.7132, 84.81798
551.1953, 80.50903
551.6774, 76.08669
552.1595, 75.92060
552.6417, 80.83099
553.1238, 86.68141
553.6059, 93.39285
554.0880, 99.14980
554.5701, 101.5892
555.0522, 100.4000
555.5344, 98.65579
556.0165, 97.46116
556.4986, 95.99128
556.9807, 93.00423
557.4628, 88.99836
557.9449, 85.59379
558.4271, 83.55950
558.9092, 82.81495
559.3913, 83.42529
559.8734, 86.42591
560.3555, 88.05296
560.8376, 87.75185
561.3198, 86.46035
561.8019, 83.79943
562.2840, 80.50294
562.7661, 78.00540
563.2482, 76.79945
563.7303, 76.61378
564.2125, 77.60844
564.6946, 79.43467
565.1767, 80.92635
565.6588, 81.86855
566.1409, 82.24557
566.6230, 81.96824
567.1052, 81.04493
567.5873, 80.03629
568.0694, 78.44983
568.5515, 77.39793
569.0336, 77.04328
569.5157, 77.39542
569.9979, 78.87211
570.4800, 81.28768
570.9621, 83.40561
571.4442, 83.99169
571.9263, 83.38210
572.4084, 82.78444
572.8906, 82.13361
573.3727, 81.82110
573.8548, 81.85555
574.3369, 82.45229
574.8190, 84.43953
575.3011, 88.28822
575.7833, 90.11536
576.2654, 86.98518
576.7475, 83.25089
577.2296, 82.42708
577.7117, 83.78288
578.1938, 84.80939
578.6760, 84.32899
579.1581, 83.41310
579.6402, 84.37270
580.1223, 88.00801
580.6044, 89.54134
581.0865, 88.17779
581.5686, 85.41954
582.0507, 80.25069
582.5328, 74.72950
583.0150, 72.76540
583.4971, 75.98964
583.9792, 81.09532
584.4613, 88.20580
584.9434, 94.97886
585.4255, 96.52156
585.9077, 92.46123
586.3898, 87.20563
586.8719, 84.10421
587.3540, 82.73466
587.8361, 80.62953
588.3182, 75.18368
588.8004, 73.35048
589.2825, 78.80601
589.7646, 85.27372
590.2467, 88.70511
590.7288, 89.04636
591.2109, 88.05660
591.6931, 86.23095
592.1752, 84.05693
592.6573, 81.94972
593.1394, 80.01411
593.6215, 78.76153
594.1036, 78.26846
594.5858, 78.89340
595.0679, 81.58315
595.5500, 86.81683
596.0321, 88.90490
596.5142, 85.21416
596.9963, 81.91738
597.4785, 80.91785
597.9606, 81.21085
598.4427, 81.74419
598.9248, 82.20883
599.4069, 82.55161
599.8890, 82.47150
600.3712, 82.22734
600.8533, 83.14951
601.3354, 85.48695
601.8175, 86.62771
602.2996, 85.01732
602.7817, 82.05020
603.2639, 80.06985
603.7460, 79.13589
604.2281, 78.71352
604.7102, 79.18877
605.1923, 79.74303
605.6744, 79.13060
606.1566, 78.38888
606.6387, 80.06887
607.1208, 85.18405
607.6029, 90.65590
608.0850, 92.38150
608.5671, 90.40227
609.0493, 86.19904
609.5314, 78.18571
610.0135, 72.17757
610.4956, 72.29051
610.9777, 76.49293
611.4598, 80.44864
611.9420, 84.76090
612.4241, 87.12595
612.9062, 85.60121
613.3883, 82.78450
613.8704, 81.07055
614.3525, 80.28880
614.8347, 78.52363
615.3168, 74.44073
615.7989, 70.49046
616.2810, 73.02226
616.7631, 83.59769
617.2452, 89.94276
617.7274, 89.33042
618.2095, 86.37538
618.6916, 82.69613
619.1737, 79.07375
619.6558, 77.43466
620.1379, 78.71275
620.6201, 80.89365
621.1022, 83.56404
621.5843, 86.34532
622.0664, 89.23060
622.5485, 91.88905
623.0306, 92.82201
623.5128, 90.68385
623.9949, 86.71432
624.4770, 85.26447
624.9591, 87.59229
625.4412, 88.14530
625.9233, 84.79382
626.4055, 80.83216
626.8876, 77.51289
627.3697, 75.32807
627.8518, 76.08314
628.3339, 84.03871
628.8160, 90.00826
629.2982, 86.22334
629.7803, 77.71616
630.2624, 72.06751
630.7445, 70.70353
631.2266, 71.82294
631.7087, 74.33370
632.1909, 77.68484
