##NAMES=Aragonite
##RRUFFID=R060195
##IDEAL CHEMISTRY=CaCO_3_
##LOCALITY=Cicov Hill, Horenec, Czech Republic
##OWNER=RRUFF
##SOURCE=Marcus Origlieri
##DESCRIPTION=Colorless transparent elongated prismatic crystal
##STATUS=The identification of this mineral has been confirmed by X-ray diffraction and chemical analysis
##URL=rruff.info/R060195
##MEASURED CHEMISTRY=Ca_1.00_CO_3_
92.07813, 108.1881
92.56024, 108.8378
93.04236, 109.0950
93.52448, 108.7720
94.00659, 107.1771
94.48871, 102.0373
94.97083, 95.24505
95.45294, 92.08268
95.93506, 93.84732
96.41718, 98.08949
96.89929, 100.9779
97.38141, 102.4799
97.86353, 103.2158
98.34564, 103.6932
98.82776, 103.8794
99.30988, 102.9160
99.79199, 99.88656
100.2741, 95.86856
100.7562, 95.31396
101.2383, 99.05706
101.7205, 103.9635
102.2026, 107.6948
102.6847, 110.4466
103.1668, 110.9944
103.6489, 108.1852
104.1310, 101.9125
104.6132, 98.35798
105.0953, 98.56767
105.5774, 100.5453
106.0595, 101.8236
106.5416, 101.7812
107.0237, 102.0207
107.5059, 103.1344
107.9880, 105.6787
108.4701, 107.3376
108.9522, 107.7857
109.4343, 107.4176
109.9164, 106.9539
110.3986, 107.6485
110.8807, 107.1891
111.3628, 104.4295
111.8449, 95.33680
112.3270, 90.53020
112.8091, 92.67663
113.2913, 99.84868
113.7734, 106.5756
114.2555, 113.4336
114.7376, 118.7641
115.2197, 121.5390
115.7018, 117.8400
116.1840, 115.8697
116.6661, 118.7560
117.1482, 125.6583
117.6303, 132.1787
118.1124, 133.5579
118.5945, 135.3239
119.0767, 142.1671
119.5588, 160.2536
120.0409, 179.9366
120.5230, 195.0617
121.0051, 205.8807
121.4872, 219.4194
121.9694, 238.3954
122.4515, 262.8363
122.9336, 292.9174
123.4157, 328.8812
123.8978, 370.0894
124.3799, 417.3746
124.8621, 471.1524
125.3442, 526.0219
125.8263, 577.5722
126.3084, 626.6432
126.7905, 675.4987
127.2726, 725.8279
127.7548, 776.1249
128.2369, 822.6473
128.7190, 864.2477
129.2011, 905.5021
129.6832, 951.6242
130.1653, 1002.034
130.6474, 1055.818
131.1296, 1107.096
131.6117, 1159.913
132.0938, 1231.627
132.5759, 1326.531
133.0580, 1437.468
133.5401, 1547.875
134.0223, 1657.909
134.5044, 1777.997
134.9865, 1915.831
135.4686, 2072.588
135.9507, 2238.804
136.4328, 2415.923
136.9150, 2603.389
137.3971, 2793.591
137.8792, 2985.633
138.3613, 3187.585
138.8434, 3405.653
139.3255, 3638.435
139.8077, 3888.188
140.2898, 4155.782
140.7719, 4455.228
141.2540, 4757.214
141.7361, 5114.828
142.2182, 5487.635
142.7004, 5872.610
143.1825, 6320.156
143.6646, 6646.250
144.1467, 6787.327
144.6288, 6735.011
145.1109, 6655.984
145.5931, 6503.341
146.0752, 6360.774
146.5573, 6326.067
147.0394, 6427.062
147.5215, 6597.674
148.0036, 6819.467
148.4858, 7093.250
148.9679, 7428.297
149.4500, 7826.408
149.9321, 8286.279
150.4142, 8796.988
150.8963, 9408.203
151.3785, 10033.36
151.8606, 10656.86
152.3427, 11340.78
152.8248, 11906.01
153.3069, 12418.20
153.7890, 12804.50
154.2712, 12891.25
154.7533, 12555.08
155.2354, 12014.42
155.7175, 11294.30
156.1996, 10304.85
156.6817, 9344.598
157.1639, 8414.484
157.6460, 7534.015
158.1281, 6770.696
158.6102, 6149.207
159.0923, 5632.935
159.5744, 5203.183
160.0566, 4873.093
160.5387, 4606.239
161.0208, 4419.138
161.5029, 4292.953
161.9850, 4173.960
162.4671, 4060.896
162.9493, 3938.295
163.4314, 3794.753
163.9135, 3612.967
164.3956, 3428.681
164.8777, 3245.605
165.3598, 3067.597
165.8420, 2911.883
166.3241, 2787.923
166.8062, 2688.501
167.2883, 2607.335
167.7704, 2543.490
168.2525, 2495.864
168.7346, 2466.483
169.2168, 2453.730
169.6989, 2448.091
170.1810, 2440.670
170.6631, 2437.946
171.1452, 2447.923
171.6273, 2479.733
172.1095, 2519.823
172.5916, 2557.035
173.0737, 2591.881
173.5558, 2630.348
174.0379, 2676.116
174.5201, 2728.254
175.0022, 2786.070
175.4843, 2848.172
175.9664, 2916.903
176.4485, 2992.483
176.9306, 3075.405
177.4128, 3166.828
177.8949, 3271.128
178.3770, 3384.294
178.8591, 3499.936
179.3412, 3627.676
179.8233, 3752.323
180.3055, 3857.266
180.7876, 3944.633
181.2697, 3996.610
181.7518, 3985.818
182.2339, 3923.712
182.7160, 3846.266
183.1982, 3753.829
183.6803, 3658.984
184.1624, 3586.323
184.6445, 3535.251
185.1266, 3513.910
185.6087, 3530.751
186.0909, 3585.103
186.5730, 3672.971
187.0551, 3800.340
187.5372, 3960.287
188.0193, 4138.928
188.5014, 4338.713
188.9836, 4543.938
189.4657, 4754.904
189.9478, 4966.600
190.4299, 5142.831
190.9120, 5273.290
191.3941, 5355.407
191.8763, 5371.631
192.3584, 5316.567
192.8405, 5209.997
193.3226, 5060.987
193.8047, 4869.944
194.2868, 4686.271
194.7690, 4528.585
195.2511, 4397.002
195.7332, 4282.562
196.2153, 4184.646
196.6974, 4104.688
197.1795, 4049.245
197.6617, 4018.456
198.1438, 4004.800
198.6259, 4004.617
199.1080, 4017.761
199.5901, 4048.115
200.0722, 4096.106
200.5544, 4160.777
201.0365, 4236.929
201.5186, 4322.996
202.0007, 4431.445
202.4828, 4568.460
202.9649, 4734.436
203.4471, 4922.221
203.9292, 5135.426
204.4113, 5368.400
204.8934, 5621.280
205.3755, 5900.689
205.8576, 6163.396
206.3398, 6405.497
206.8219, 6639.429
207.3040, 6769.250
207.7861, 6787.438
208.2682, 6706.578
208.7503, 6530.010
209.2325, 6230.446
209.7146, 5928.169
210.1967, 5669.695
210.6788, 5451.503
211.1609, 5295.884
211.6430, 5211.584
212.1252, 5183.166
212.6073, 5184.223
213.0894, 5226.375
213.5715, 5267.553
214.0536, 5295.254
214.5357, 5318.108
215.0179, 5295.818
215.5000, 5228.496
215.9821, 5116.133
216.4642, 4953.167
216.9463, 4727.605
217.4284, 4480.014
217.9105, 4219.528
218.3927, 3938.566
218.8748, 3677.550
219.3569, 3435.282
219.8390, 3213.991
220.3211, 3013.161
220.8032, 2831.332
221.2854, 2671.509
221.7675, 2532.952
222.2496, 2420.394
222.7317, 2318.548
223.2138, 2227.577
223.6959, 2147.398
224.1781, 2076.050
224.6602, 2015.767
225.1423, 1961.224
225.6244, 1911.838
226.1065, 1867.604
226.5886, 1826.342
227.0708, 1787.640
227.5529, 1751.760
228.0350, 1719.156
228.5171, 1690.204
228.9992, 1663.297
229.4813, 1637.652
229.9635, 1612.834
230.4456, 1590.838
230.9277, 1572.042
231.4098, 1556.095
231.8919, 1542.243
232.3740, 1531.232
232.8562, 1521.286
233.3383, 1511.634
233.8204, 1501.735
234.3025, 1493.938
234.7846, 1488.666
235.2667, 1485.253
235.7489, 1482.264
236.2310, 1477.814
236.7131, 1476.888
237.1952, 1482.129
237.6773, 1495.913
238.1594, 1506.879
238.6416, 1514.219
239.1237, 1519.262
239.6058, 1523.895
240.0879, 1527.311
240.5700, 1531.700
241.0521, 1537.588
241.5343, 1544.729
242.0164, 1554.173
242.4985, 1566.154
242.9806, 1580.249
243.4627, 1595.834
243.9448, 1612.688
244.4270, 1631.436
244.9091, 1653.266
245.3912, 1679.661
245.8733, 1701.267
246.3554, 1717.240
246.8375, 1729.229
247.3197, 1739.356
247.8018, 1747.818
248.2839, 1754.028
248.7660, 1757.650
249.2481, 1758.514
249.7302, 1758.225
250.2124, 1756.597
250.6945, 1754.051
251.1766, 1750.742
251.6587, 1745.466
252.1408, 1741.867
252.6229, 1740.966
253.1051, 1742.929
253.5872, 1745.361
254.0693, 1747.473
254.5514, 1750.960
255.0335, 1757.336
255.5156, 1765.925
255.9978, 1778.853
256.4799, 1797.820
256.9620, 1822.835
257.4441, 1845.090
257.9262, 1862.461
258.4083, 1879.748
258.8904, 1901.077
259.3726, 1927.782
259.8547, 1955.740
260.3368, 1984.914
260.8189, 2015.180
261.3010, 2042.227
261.7831, 2065.558
262.2653, 2086.420
262.7474, 2104.457
263.2295, 2117.429
263.7116, 2134.626
264.1937, 2158.078
264.6758, 2186.828
265.1580, 2216.138
265.6401, 2243.723
266.1222, 2275.874
266.6043, 2316.970
267.0864, 2368.614
267.5685, 2425.136
268.0507, 2487.995
268.5328, 2555.291
269.0149, 2620.306
269.4970, 2682.905
269.9791, 2745.310
270.4612, 2812.889
270.9434, 2889.050
271.4255, 2952.813
271.9076, 3004.724
272.3897, 3042.755
272.8718, 3061.512
273.3539, 3059.319
273.8361, 3043.231
274.3182, 3016.012
274.8003, 2977.512
275.2824, 2929.161
275.7645, 2868.927
276.2466, 2801.645
276.7288, 2734.981
277.2109, 2668.167
277.6930, 2606.441
278.1751, 2552.847
278.6572, 2507.095
279.1393, 2470.127
279.6215, 2442.799
280.1036, 2422.667
280.5857, 2406.339
281.0678, 2393.862
281.5499, 2385.439
282.0320, 2383.370
282.5142, 2386.921
282.9963, 2386.391
283.4784, 2381.943
283.9605, 2372.995
284.4426, 2358.725
284.9247, 2339.122
285.4069, 2315.059
285.8890, 2287.450
286.3711, 2255.796
286.8532, 2215.038
287.3353, 2164.247
287.8174, 2109.209
288.2996, 2056.140
288.7817, 2004.642
289.2638, 1952.597
289.7459, 1898.302
290.2280, 1843.763
290.7101, 1791.970
291.1923, 1742.581
291.6744, 1698.673
292.1565, 1664.556
292.6386, 1638.548
293.1207, 1611.788
293.6028, 1580.936
294.0850, 1550.044
294.5671, 1525.935
295.0492, 1508.363
295.5313, 1493.411
296.0134, 1479.543
296.4955, 1466.254
296.9777, 1451.668
297.4598, 1434.739
297.9419, 1418.399
298.4240, 1408.629
298.9061, 1404.274
299.3882, 1399.021
299.8704, 1386.798
300.3525, 1371.521
300.8346, 1361.026
301.3167, 1356.933
301.7988, 1354.620
302.2809, 1348.773
302.7631, 1340.550
303.2452, 1333.176
303.7273, 1329.293
304.2094, 1326.890
304.6915, 1323.373
305.1736, 1318.526
305.6558, 1313.142
306.1379, 1307.639
306.6200, 1302.087
307.1021, 1296.650
307.5842, 1289.598
308.0663, 1283.717
308.5485, 1282.403
309.0306, 1285.535
309.5127, 1289.038
309.9948, 1291.275
310.4769, 1291.866
310.9590, 1290.207
311.4412, 1283.330
311.9233, 1276.799
312.4054, 1275.647
312.8875, 1278.807
313.3696, 1280.787
313.8517, 1278.164
314.3339, 1273.229
314.8160, 1267.688
315.2981, 1260.916
315.7802, 1255.377
316.2623, 1252.263
316.7444, 1251.361
317.2266, 1252.047
317.7087, 1256.230
318.1908, 1260.484
318.6729, 1262.662
319.1550, 1262.003
319.6371, 1260.422
320.1193, 1258.338
320.6014, 1255.777
321.0835, 1252.750
321.5656, 1247.752
322.0477, 1243.564
322.5298, 1241.893
323.0120, 1243.581
323.4941, 1243.802
323.9762, 1239.534
324.4583, 1234.048
324.9404, 1230.885
325.4225, 1233.720
325.9047, 1235.811
326.3868, 1234.936
326.8689, 1230.964
327.3510, 1228.194
327.8331, 1227.910
328.3152, 1228.374
328.7974, 1228.393
329.2795, 1228.093
329.7616, 1227.164
330.2437, 1224.729
330.7258, 1221.334
331.2079, 1220.049
331.6901, 1222.587
332.1722, 1225.514
332.6543, 1227.131
333.1364, 1226.428
333.6185, 1226.179
334.1006, 1226.473
334.5828, 1227.184
335.0649, 1228.207
335.5470, 1230.336
336.0291, 1231.356
336.5112, 1230.138
336.9933, 1226.103
337.4755, 1222.829
337.9576, 1220.560
338.4397, 1218.833
338.9218, 1216.759
339.4039, 1213.915
339.8860, 1212.325
340.3681, 1212.560
340.8503, 1214.590
341.3324, 1218.822
341.8145, 1226.652
342.2966, 1232.885
342.7787, 1230.944
343.2608, 1220.287
343.7430, 1213.605
344.2251, 1214.643
344.7072, 1220.401
345.1893, 1221.815
345.6714, 1218.582
346.1535, 1214.915
346.6357, 1213.579
347.1178, 1214.359
347.5999, 1216.360
348.0820, 1220.022
348.5641, 1223.588
349.0462, 1223.442
349.5284, 1220.129
350.0105, 1217.788
350.4926, 1220.054
350.9747, 1224.647
351.4568, 1226.190
351.9389, 1224.254
352.4211, 1221.336
352.9032, 1220.501
353.3853, 1220.719
353.8674, 1219.441
354.3495, 1213.168
354.8316, 1206.462
355.3138, 1205.758
355.7959, 1210.518
356.2780, 1214.993
356.7601, 1214.271
357.2422, 1211.250
357.7243, 1209.626
358.2065, 1210.660
358.6886, 1212.958
359.1707, 1217.546
359.6528, 1223.008
360.1349, 1225.075
360.6170, 1216.756
361.0992, 1207.429
361.5813, 1204.301
362.0634, 1210.151
362.5455, 1216.544
363.0276, 1220.429
363.5097, 1222.662
363.9919, 1224.520
364.4740, 1226.839
364.9561, 1228.419
365.4382, 1228.477
365.9203, 1226.833
366.4024, 1225.514
366.8846, 1224.879
367.3667, 1224.740
367.8488, 1224.944
368.3309, 1226.901
368.8130, 1227.613
369.2951, 1225.944
369.7773, 1222.336
370.2594, 1219.869
370.7415, 1218.828
371.2236, 1218.672
371.7057, 1219.166
372.1878, 1220.313
372.6700, 1222.338
373.1521, 1226.831
373.6342, 1231.507
374.1163, 1231.251
374.5984, 1222.750
375.0805, 1215.806
375.5627, 1213.959
376.0448, 1217.694
376.5269, 1220.798
377.0090, 1223.764
377.4911, 1225.266
377.9732, 1222.578
378.4554, 1214.515
378.9375, 1210.345
379.4196, 1213.303
379.9017, 1221.021
380.3838, 1224.705
380.8659, 1223.944
381.3481, 1222.193
381.8302, 1222.172
382.3123, 1223.556
382.7944, 1223.720
383.2765, 1222.102
383.7586, 1219.947
384.2408, 1219.191
384.7229, 1219.667
385.2050, 1220.254
385.6871, 1220.005
386.1692, 1219.584
386.6513, 1220.343
387.1335, 1222.338
387.6156, 1224.869
388.0977, 1228.195
388.5798, 1231.472
389.0619, 1233.097
389.5440, 1231.401
390.0262, 1228.901
390.5083, 1227.297
390.9904, 1226.648
391.4725, 1227.365
391.9546, 1231.693
392.4367, 1236.348
392.9189, 1238.213
393.4010, 1235.621
393.8831, 1232.898
394.3652, 1232.061
394.8473, 1232.510
395.3294, 1233.269
395.8116, 1234.603
396.2937, 1235.681
396.7758, 1236.148
397.2579, 1235.953
397.7400, 1235.470
398.2221, 1234.186
398.7043, 1232.960
399.1864, 1232.492
399.6685, 1232.585
400.1506, 1233.756
400.6327, 1237.577
401.1148, 1242.974
401.5970, 1244.613
402.0791, 1238.866
402.5612, 1233.549
403.0433, 1232.542
403.5254, 1238.451
404.0075, 1241.227
404.4897, 1239.457
404.9718, 1235.829
405.4539, 1234.560
405.9360, 1236.387
406.4181, 1238.348
406.9002, 1239.721
407.3824, 1240.530
407.8645, 1240.996
408.3466, 1241.034
408.8287, 1241.022
409.3108, 1241.603
409.7929, 1242.686
410.2751, 1242.406
410.7572, 1239.879
411.2393, 1236.802
411.7214, 1236.948
412.2035, 1239.953
412.6856, 1242.565
413.1678, 1242.221
413.6499, 1240.268
414.1320, 1239.886
414.6141, 1241.358
415.0962, 1242.940
415.5783, 1242.255
416.0605, 1240.616
416.5426, 1240.581
417.0247, 1245.381
417.5068, 1250.079
417.9889, 1249.433
418.4710, 1244.514
418.9532, 1240.216
419.4353, 1238.776
419.9174, 1239.317
420.3995, 1241.422
420.8816, 1245.618
421.3637, 1249.750
421.8459, 1252.673
422.3280, 1255.025
422.8101, 1257.830
423.2922, 1262.098
423.7743, 1266.066
424.2564, 1269.916
424.7386, 1273.815
425.2207, 1274.379
425.7028, 1267.950
426.1849, 1260.308
426.6670, 1255.168
427.1491, 1253.307
427.6313, 1252.833
428.1134, 1254.198
428.5955, 1256.831
429.0776, 1259.411
429.5597, 1262.807
430.0418, 1264.475
430.5240, 1262.751
431.0061, 1257.234
431.4882, 1254.215
431.9703, 1254.448
432.4524, 1255.545
432.9345, 1254.132
433.4167, 1250.079
433.8988, 1248.387
434.3809, 1251.067
434.8630, 1256.104
435.3451, 1258.694
435.8272, 1258.879
436.3094, 1258.032
436.7915, 1256.498
437.2736, 1254.655
437.7557, 1253.458
438.2378, 1253.008
438.7199, 1253.051
439.2020, 1253.571
439.6841, 1254.390
440.1663, 1255.142
440.6484, 1255.350
441.1305, 1255.673
441.6126, 1256.999
442.0947, 1259.113
442.5768, 1260.667
443.0590, 1260.528
443.5411, 1259.789
444.0232, 1259.159
444.5053, 1258.398
444.9874, 1258.570
445.4695, 1261.099
445.9517, 1264.559
446.4338, 1266.679
446.9159, 1265.678
447.3980, 1264.634
447.8801, 1264.384
448.3622, 1264.991
448.8444, 1265.742
449.3265, 1267.531
449.8086, 1268.689
450.2907, 1267.939
450.7728, 1263.879
451.2549, 1261.066
451.7371, 1259.896
452.2192, 1260.043
452.7013, 1261.201
453.1834, 1263.886
453.6655, 1265.633
454.1476, 1264.972
454.6298, 1262.211
455.1119, 1261.069
455.5940, 1261.832
456.0761, 1262.710
456.5582, 1260.920
457.0403, 1257.282
457.5225, 1256.854
458.0046, 1261.850
458.4867, 1268.208
458.9688, 1269.367
459.4509, 1266.348
459.9330, 1263.349
460.4152, 1262.549
460.8973, 1263.097
461.3794, 1264.300
461.8615, 1266.147
462.3436, 1267.689
462.8257, 1268.829
463.3079, 1269.140
463.7900, 1268.041
464.2721, 1262.959
464.7542, 1259.369
465.2363, 1259.880
465.7184, 1263.615
466.2006, 1268.070
466.6827, 1276.347
467.1648, 1281.991
467.6469, 1280.942
468.1290, 1270.043
468.6111, 1264.261
469.0933, 1267.381
469.5754, 1273.344
470.0575, 1277.099
470.5396, 1278.886
471.0217, 1277.647
471.5038, 1271.319
471.9860, 1262.335
472.4681, 1259.418
472.9502, 1263.988
473.4323, 1269.886
473.9144, 1274.893
474.3965, 1278.979
474.8787, 1279.885
475.3608, 1277.121
475.8429, 1273.445
476.3250, 1272.190
476.8071, 1272.842
477.2892, 1272.487
477.7714, 1269.246
478.2535, 1266.324
478.7356, 1270.347
479.2177, 1279.565
479.6998, 1286.330
480.1819, 1283.586
480.6641, 1277.690
481.1462, 1275.629
481.6283, 1278.190
482.1104, 1280.643
482.5925, 1279.579
483.0746, 1277.305
483.5568, 1276.197
484.0389, 1278.873
484.5210, 1280.721
485.0031, 1280.107
485.4852, 1277.639
485.9673, 1275.196
486.4495, 1271.934
486.9316, 1269.805
487.4137, 1269.446
487.8958, 1271.006
488.3779, 1273.715
488.8600, 1278.701
489.3422, 1283.637
489.8243, 1286.349
490.3064, 1286.193
490.7885, 1285.959
491.2706, 1286.214
491.7527, 1286.402
492.2349, 1284.200
492.7170, 1279.234
493.1991, 1276.439
493.6812, 1280.000
494.1633, 1287.974
494.6454, 1292.042
495.1276, 1292.022
495.6097, 1291.293
496.0918, 1294.302
496.5739, 1298.755
497.0560, 1299.067
497.5381, 1292.006
498.0203, 1284.887
498.5024, 1285.368
498.9845, 1290.740
499.4666, 1295.008
499.9487, 1293.817
500.4308, 1291.995
500.9130, 1293.489
501.3951, 1298.387
501.8772, 1299.944
502.3593, 1291.278
502.8414, 1281.730
503.3235, 1277.474
503.8057, 1284.703
504.2878, 1289.314
504.7699, 1289.400
505.2520, 1287.208
505.7341, 1286.695
506.2162, 1289.531
506.6984, 1290.446
507.1805, 1286.464
507.6626, 1278.667
508.1447, 1278.911
508.6268, 1289.419
509.1089, 1299.653
509.5911, 1301.049
510.0732, 1294.486
510.5553, 1289.785
511.0374, 1287.755
511.5195, 1287.546
512.0016, 1289.062
512.4838, 1291.689
512.9659, 1293.289
513.4480, 1292.486
513.9301, 1290.958
514.4122, 1290.383
514.8943, 1290.700
515.3765, 1291.636
515.8586, 1293.185
516.3407, 1295.199
516.8228, 1297.791
517.3049, 1301.204
517.7870, 1303.935
518.2692, 1306.209
518.7513, 1307.176
519.2334, 1306.005
519.7155, 1299.230
520.1976, 1294.334
520.6797, 1292.815
521.1619, 1293.660
521.6440, 1294.039
522.1261, 1293.651
522.6082, 1293.365
523.0903, 1293.709
523.5724, 1294.721
524.0546, 1294.401
524.5367, 1292.362
525.0188, 1290.238
525.5009, 1289.333
525.9830, 1289.620
526.4651, 1290.773
526.9473, 1292.825
527.4294, 1295.502
527.9115, 1299.455
528.3936, 1303.879
528.8757, 1306.171
529.3578, 1303.627
529.8400, 1299.291
530.3221, 1295.196
530.8042, 1291.675
531.2863, 1290.617
531.7684, 1295.496
532.2505, 1301.688
532.7327, 1305.603
533.2148, 1306.101
533.6969, 1306.320
534.1790, 1307.386
534.6611, 1308.473
535.1432, 1308.630
535.6254, 1306.341
536.1075, 1305.020
536.5896, 1305.528
537.0717, 1307.264
537.5538, 1308.079
538.0359, 1307.761
538.5181, 1307.074
539.0002, 1306.199
539.4823, 1305.158
539.9644, 1304.469
540.4465, 1304.123
540.9286, 1304.200
541.4108, 1305.043
541.8929, 1306.441
542.3750, 1307.304
542.8571, 1307.193
543.3392, 1307.208
543.8214, 1309.451
544.3035, 1312.876
544.7856, 1315.017
545.2677, 1313.809
545.7498, 1311.673
546.2319, 1309.627
546.7141, 1307.919
547.1962, 1307.842
547.6783, 1312.183
548.1604, 1316.562
548.6425, 1318.608
549.1246, 1317.659
549.6068, 1315.483
550.0889, 1310.214
550.5710, 1305.020
551.0531, 1302.912
551.5352, 1305.205
552.0173, 1307.908
552.4995, 1310.938
552.9816, 1313.858
553.4637, 1315.169
553.9458, 1314.565
554.4279, 1314.565
554.9100, 1316.701
555.3922, 1320.277
555.8743, 1322.663
556.3564, 1323.846
556.8385, 1324.025
557.3206, 1323.191
557.8027, 1321.496
558.2849, 1318.666
558.7670, 1314.177
559.2491, 1310.906
559.7312, 1312.049
560.2133, 1315.504
560.6954, 1318.425
561.1776, 1320.142
561.6597, 1320.802
562.1418, 1319.555
562.6239, 1317.084
563.1060, 1315.887
563.5881, 1318.176
564.0703, 1319.867
564.5524, 1319.345
565.0345, 1316.339
565.5166, 1314.706
565.9987, 1314.515
566.4808, 1315.597
566.9630, 1318.615
567.4451, 1323.880
567.9272, 1326.390
568.4093, 1325.287
568.8914, 1322.682
569.3735, 1321.328
569.8557, 1321.073
570.3378, 1321.136
570.8199, 1321.441
571.3020, 1321.733
571.7841, 1321.576
572.2662, 1321.087
572.7484, 1320.715
573.2305, 1319.688
573.7126, 1319.605
574.1947, 1322.808
574.6768, 1329.718
575.1589, 1333.689
575.6411, 1328.836
576.1232, 1322.635
576.6053, 1320.537
577.0874, 1327.706
577.5695, 1330.978
578.0516, 1327.930
578.5338, 1322.535
579.0159, 1320.846
579.4980, 1324.142
579.9801, 1326.774
580.4622, 1327.646
580.9443, 1326.917
581.4265, 1323.896
581.9086, 1318.600
582.3907, 1315.433
582.8728, 1319.317
583.3549, 1326.519
583.8370, 1328.417
584.3192, 1324.965
584.8013, 1321.428
585.2834, 1321.200
585.7655, 1323.248
586.2476, 1327.118
586.7297, 1334.301
587.2118, 1338.718
587.6939, 1335.956
588.1760, 1329.635
588.6581, 1324.371
589.1403, 1318.596
