##NAMES=Aragonite
##RRUFFID=R150021
##IDEAL CHEMISTRY=CaCO_3_
##LOCALITY=Gallo river, Molina de Arag√≥n, Guadalajara, Castile-La Mancha, Spain
##OWNER=RRUFF
##SOURCE=Canan D'Avela
##DESCRIPTION=Twinned crystals shaped like hexagonal prisms
##STATUS=The identification of this mineral has been confirmed by X-ray diffraction and chemical analysis
##URL=rruff.info/R150021
##MEASURED CHEMISTRY=(Ca_0.987_Sr_0.0096_)CO_3_
9.059570e+001, 6.104197e+002
9.107782e+001, 5.832584e+002
9.155994e+001, 5.736298e+002
9.204205e+001, 5.930452e+002
9.252417e+001, 6.222574e+002
9.300629e+001, 6.558260e+002
9.348840e+001, 6.877962e+002
9.397052e+001, 7.118655e+002
9.445264e+001, 7.232486e+002
9.493475e+001, 7.300087e+002
9.541687e+001, 7.351423e+002
9.589898e+001, 7.388728e+002
9.638110e+001, 7.421205e+002
9.686321e+001, 7.458968e+002
9.734533e+001, 7.501562e+002
9.782745e+001, 7.529109e+002
9.830956e+001, 7.543422e+002
9.879168e+001, 7.538511e+002
9.927380e+001, 7.536207e+002
9.975591e+001, 7.538822e+002
1.002380e+002, 7.545813e+002
1.007201e+002, 7.558043e+002
1.012023e+002, 7.576449e+002
1.016844e+002, 7.600628e+002
1.021665e+002, 7.625630e+002
1.026486e+002, 7.653114e+002
1.031307e+002, 7.679503e+002
1.036128e+002, 7.699435e+002
1.040950e+002, 7.711060e+002
1.045771e+002, 7.724391e+002
1.050592e+002, 7.746256e+002
1.055413e+002, 7.771888e+002
1.060234e+002, 7.794821e+002
1.065055e+002, 7.812556e+002
1.069877e+002, 7.825150e+002
1.074698e+002, 7.831472e+002
1.079519e+002, 7.814452e+002
1.084340e+002, 7.812678e+002
1.089161e+002, 7.851500e+002
1.093982e+002, 7.918685e+002
1.098804e+002, 7.984506e+002
1.103625e+002, 8.022628e+002
1.108446e+002, 8.028694e+002
1.113267e+002, 8.027530e+002
1.118088e+002, 8.004092e+002
1.122909e+002, 7.985782e+002
1.127731e+002, 7.987303e+002
1.132552e+002, 8.009691e+002
1.137373e+002, 8.043466e+002
1.142194e+002, 8.076133e+002
1.147015e+002, 8.117877e+002
1.151836e+002, 8.136887e+002
1.156658e+002, 8.119825e+002
1.161479e+002, 8.087492e+002
1.166300e+002, 8.060347e+002
1.171121e+002, 8.045831e+002
1.175942e+002, 8.037040e+002
1.180763e+002, 8.016799e+002
1.185584e+002, 7.979908e+002
1.190406e+002, 7.945146e+002
1.195227e+002, 7.920743e+002
1.200048e+002, 7.903104e+002
1.204869e+002, 7.880331e+002
1.209690e+002, 7.841131e+002
1.214511e+002, 7.799366e+002
1.219333e+002, 7.780491e+002
1.224154e+002, 7.791623e+002
1.228975e+002, 7.813110e+002
1.233796e+002, 7.829700e+002
1.238617e+002, 7.841074e+002
1.243438e+002, 7.850215e+002
1.248260e+002, 7.852325e+002
1.253081e+002, 7.854971e+002
1.257902e+002, 7.868080e+002
1.262723e+002, 7.899921e+002
1.267544e+002, 7.937911e+002
1.272365e+002, 7.950212e+002
1.277187e+002, 7.915025e+002
1.282008e+002, 7.890483e+002
1.286829e+002, 7.893496e+002
1.291650e+002, 7.915858e+002
1.296471e+002, 7.947686e+002
1.301292e+002, 7.984070e+002
1.306114e+002, 8.024532e+002
1.310935e+002, 8.061507e+002
1.315756e+002, 8.088403e+002
1.320577e+002, 8.118378e+002
1.325398e+002, 8.156301e+002
1.330219e+002, 8.200412e+002
1.335041e+002, 8.244924e+002
1.339862e+002, 8.284056e+002
1.344683e+002, 8.315486e+002
1.349504e+002, 8.360242e+002
1.354325e+002, 8.429901e+002
1.359146e+002, 8.501008e+002
1.363968e+002, 8.557195e+002
1.368789e+002, 8.598010e+002
1.373610e+002, 8.637242e+002
1.378431e+002, 8.690090e+002
1.383252e+002, 8.759906e+002
1.388073e+002, 8.830375e+002
1.392895e+002, 8.897181e+002
1.397716e+002, 8.965706e+002
1.402537e+002, 9.039200e+002
1.407358e+002, 9.115827e+002
1.412179e+002, 9.206335e+002
1.417000e+002, 9.333531e+002
1.421821e+002, 9.493557e+002
1.426643e+002, 9.649583e+002
1.431464e+002, 9.784459e+002
1.436285e+002, 9.902628e+002
1.441106e+002, 1.002192e+003
1.445927e+002, 1.015031e+003
1.450748e+002, 1.027516e+003
1.455570e+002, 1.037802e+003
1.460391e+002, 1.045910e+003
1.465212e+002, 1.055244e+003
1.470033e+002, 1.068466e+003
1.474854e+002, 1.085716e+003
1.479675e+002, 1.105789e+003
1.484497e+002, 1.128045e+003
1.489318e+002, 1.153826e+003
1.494139e+002, 1.184585e+003
1.498960e+002, 1.220427e+003
1.503781e+002, 1.260317e+003
1.508602e+002, 1.302879e+003
1.513424e+002, 1.350373e+003
1.518245e+002, 1.396457e+003
1.523066e+002, 1.444959e+003
1.527887e+002, 1.489980e+003
1.532708e+002, 1.529314e+003
1.537529e+002, 1.561576e+003
1.542351e+002, 1.584071e+003
1.547172e+002, 1.589778e+003
1.551993e+002, 1.572658e+003
1.556814e+002, 1.542554e+003
1.561635e+002, 1.495079e+003
1.566456e+002, 1.436619e+003
1.571278e+002, 1.372901e+003
1.576099e+002, 1.306221e+003
1.580920e+002, 1.238705e+003
1.585741e+002, 1.180085e+003
1.590562e+002, 1.130469e+003
1.595383e+002, 1.087787e+003
1.600205e+002, 1.053266e+003
1.605026e+002, 1.025656e+003
1.609847e+002, 1.002412e+003
1.614668e+002, 9.826589e+002
1.619489e+002, 9.662475e+002
1.624310e+002, 9.517663e+002
1.629131e+002, 9.397278e+002
1.633953e+002, 9.289432e+002
1.638774e+002, 9.193565e+002
1.643595e+002, 9.108232e+002
1.648416e+002, 9.020382e+002
1.653237e+002, 8.917405e+002
1.658058e+002, 8.807493e+002
1.662880e+002, 8.708821e+002
1.667701e+002, 8.622056e+002
1.672522e+002, 8.547764e+002
1.677343e+002, 8.488901e+002
1.682164e+002, 8.447316e+002
1.686985e+002, 8.412888e+002
1.691807e+002, 8.377026e+002
1.696628e+002, 8.345428e+002
1.701449e+002, 8.326716e+002
1.706270e+002, 8.325405e+002
1.711091e+002, 8.338321e+002
1.715912e+002, 8.359804e+002
1.720734e+002, 8.394861e+002
1.725555e+002, 8.429603e+002
1.730376e+002, 8.453261e+002
1.735197e+002, 8.474235e+002
1.740018e+002, 8.503712e+002
1.744839e+002, 8.546263e+002
1.749661e+002, 8.602775e+002
1.754482e+002, 8.679443e+002
1.759303e+002, 8.796677e+002
1.764124e+002, 8.913048e+002
1.768945e+002, 9.004680e+002
1.773766e+002, 9.087900e+002
1.778588e+002, 9.190706e+002
1.783409e+002, 9.335263e+002
1.788230e+002, 9.522224e+002
1.793051e+002, 9.714055e+002
1.797872e+002, 9.942653e+002
1.802693e+002, 1.014542e+003
1.807515e+002, 1.032497e+003
1.812336e+002, 1.046526e+003
1.817157e+002, 1.053256e+003
1.821978e+002, 1.049470e+003
1.826799e+002, 1.034267e+003
1.831620e+002, 1.015942e+003
1.836441e+002, 9.916078e+002
1.841263e+002, 9.674414e+002
1.846084e+002, 9.459132e+002
1.850905e+002, 9.273512e+002
1.855726e+002, 9.112679e+002
1.860547e+002, 8.971534e+002
1.865368e+002, 8.851898e+002
1.870190e+002, 8.772012e+002
1.875011e+002, 8.747262e+002
1.879832e+002, 8.749590e+002
1.884653e+002, 8.765665e+002
1.889474e+002, 8.792850e+002
1.894296e+002, 8.821147e+002
1.899117e+002, 8.838886e+002
1.903938e+002, 8.846612e+002
1.908759e+002, 8.862747e+002
1.913580e+002, 8.895808e+002
1.918401e+002, 8.935160e+002
1.923223e+002, 8.968128e+002
1.928044e+002, 8.992277e+002
1.932865e+002, 9.015711e+002
1.937686e+002, 9.045259e+002
1.942507e+002, 9.080010e+002
1.947328e+002, 9.119741e+002
1.952150e+002, 9.161699e+002
1.956971e+002, 9.209105e+002
1.961792e+002, 9.268349e+002
1.966613e+002, 9.340242e+002
1.971434e+002, 9.424229e+002
1.976255e+002, 9.517254e+002
1.981077e+002, 9.620354e+002
1.985898e+002, 9.736977e+002
1.990719e+002, 9.864174e+002
1.995540e+002, 1.000569e+003
2.000361e+002, 1.017549e+003
2.005182e+002, 1.037465e+003
2.010004e+002, 1.060713e+003
2.014825e+002, 1.085778e+003
2.019646e+002, 1.113500e+003
2.024467e+002, 1.145598e+003
2.029288e+002, 1.182730e+003
2.034109e+002, 1.225018e+003
2.038930e+002, 1.273900e+003
2.043752e+002, 1.331696e+003
2.048573e+002, 1.394467e+003
2.053394e+002, 1.464019e+003
2.058215e+002, 1.537251e+003
2.063036e+002, 1.609195e+003
2.067857e+002, 1.679313e+003
2.072679e+002, 1.748939e+003
2.077500e+002, 1.790407e+003
2.082321e+002, 1.800515e+003
2.087142e+002, 1.782969e+003
2.091963e+002, 1.729111e+003
2.096784e+002, 1.645903e+003
2.101606e+002, 1.547990e+003
2.106427e+002, 1.445632e+003
2.111248e+002, 1.337371e+003
2.116069e+002, 1.243530e+003
2.120890e+002, 1.165846e+003
2.125711e+002, 1.099323e+003
2.130533e+002, 1.043395e+003
2.135354e+002, 9.972640e+002
2.140175e+002, 9.591074e+002
2.144996e+002, 9.277284e+002
2.149817e+002, 9.036663e+002
2.154638e+002, 8.834933e+002
2.159460e+002, 8.681036e+002
2.164281e+002, 8.547581e+002
2.169102e+002, 8.420364e+002
2.173923e+002, 8.300021e+002
2.178744e+002, 8.194523e+002
2.183565e+002, 8.113050e+002
2.188387e+002, 8.058934e+002
2.193208e+002, 8.007497e+002
2.198029e+002, 7.960251e+002
2.202850e+002, 7.913879e+002
2.207671e+002, 7.863876e+002
2.212492e+002, 7.811194e+002
2.217314e+002, 7.763223e+002
2.222135e+002, 7.726551e+002
2.226956e+002, 7.702488e+002
2.231777e+002, 7.681338e+002
2.236598e+002, 7.665954e+002
2.241419e+002, 7.651319e+002
2.246240e+002, 7.632747e+002
2.251062e+002, 7.610223e+002
2.255883e+002, 7.589011e+002
2.260704e+002, 7.574099e+002
2.265525e+002, 7.564869e+002
2.270346e+002, 7.554176e+002
2.275167e+002, 7.542191e+002
2.279989e+002, 7.528243e+002
2.284810e+002, 7.510032e+002
2.289631e+002, 7.487288e+002
2.294452e+002, 7.466765e+002
2.299273e+002, 7.453898e+002
2.304094e+002, 7.447390e+002
2.308916e+002, 7.443420e+002
2.313737e+002, 7.443763e+002
2.318558e+002, 7.445125e+002
2.323379e+002, 7.443318e+002
2.328200e+002, 7.437860e+002
2.333021e+002, 7.432501e+002
2.337843e+002, 7.427395e+002
2.342664e+002, 7.424389e+002
2.347485e+002, 7.426995e+002
2.352306e+002, 7.436988e+002
2.357127e+002, 7.452228e+002
2.361948e+002, 7.471124e+002
2.366770e+002, 7.494908e+002
2.371591e+002, 7.517674e+002
2.376412e+002, 7.535213e+002
2.381233e+002, 7.550500e+002
2.386054e+002, 7.566817e+002
2.390875e+002, 7.585358e+002
2.395697e+002, 7.605110e+002
2.400518e+002, 7.624601e+002
2.405339e+002, 7.644161e+002
2.410160e+002, 7.662641e+002
2.414981e+002, 7.671906e+002
2.419802e+002, 7.683057e+002
2.424624e+002, 7.708234e+002
2.429445e+002, 7.752707e+002
2.434266e+002, 7.808955e+002
2.439087e+002, 7.866613e+002
2.443908e+002, 7.929293e+002
2.448729e+002, 7.982662e+002
2.453550e+002, 8.012402e+002
2.458372e+002, 8.037038e+002
2.463193e+002, 8.074696e+002
2.468014e+002, 8.132240e+002
2.472835e+002, 8.196171e+002
2.477656e+002, 8.244134e+002
2.482477e+002, 8.272001e+002
2.487299e+002, 8.292177e+002
2.492120e+002, 8.311208e+002
2.496941e+002, 8.322223e+002
2.501762e+002, 8.317132e+002
2.506583e+002, 8.293865e+002
2.511404e+002, 8.261163e+002
2.516226e+002, 8.234676e+002
2.521047e+002, 8.222574e+002
2.525868e+002, 8.197768e+002
2.530689e+002, 8.143175e+002
2.535510e+002, 8.086680e+002
2.540331e+002, 8.049502e+002
2.545153e+002, 8.036385e+002
2.549974e+002, 8.034711e+002
2.554795e+002, 8.025765e+002
2.559616e+002, 8.007538e+002
2.564437e+002, 7.985773e+002
2.569258e+002, 7.954010e+002
2.574080e+002, 7.924158e+002
2.578901e+002, 7.901624e+002
2.583722e+002, 7.888546e+002
2.588543e+002, 7.886429e+002
2.593364e+002, 7.899372e+002
2.598185e+002, 7.937946e+002
2.603007e+002, 7.964656e+002
2.607828e+002, 7.979762e+002
2.612649e+002, 7.985911e+002
2.617470e+002, 7.985275e+002
2.622291e+002, 7.977756e+002
2.627112e+002, 7.961186e+002
2.631934e+002, 7.932740e+002
2.636755e+002, 7.890718e+002
2.641576e+002, 7.841160e+002
2.646397e+002, 7.779412e+002
2.651218e+002, 7.715756e+002
2.656039e+002, 7.650505e+002
2.660861e+002, 7.587205e+002
2.665682e+002, 7.535320e+002
2.670503e+002, 7.505804e+002
2.675324e+002, 7.503373e+002
2.680145e+002, 7.494449e+002
2.684966e+002, 7.478884e+002
2.689788e+002, 7.458551e+002
2.694609e+002, 7.427452e+002
2.699430e+002, 7.390537e+002
2.704251e+002, 7.363541e+002
2.709072e+002, 7.361208e+002
2.713893e+002, 7.384814e+002
2.718715e+002, 7.395961e+002
2.723536e+002, 7.386010e+002
2.728357e+002, 7.374953e+002
2.733178e+002, 7.372698e+002
2.737999e+002, 7.376635e+002
2.742820e+002, 7.378711e+002
2.747642e+002, 7.373858e+002
2.752463e+002, 7.362176e+002
2.757284e+002, 7.344388e+002
2.762105e+002, 7.314359e+002
2.766926e+002, 7.286289e+002
2.771747e+002, 7.264044e+002
2.776568e+002, 7.247217e+002
2.781389e+002, 7.236063e+002
2.786211e+002, 7.232055e+002
2.791032e+002, 7.231896e+002
2.795853e+002, 7.220458e+002
2.800674e+002, 7.180519e+002
2.805495e+002, 7.151603e+002
2.810316e+002, 7.155051e+002
2.815138e+002, 7.174845e+002
2.819959e+002, 7.180765e+002
2.824780e+002, 7.158367e+002
2.829601e+002, 7.119694e+002
2.834422e+002, 7.096453e+002
2.839243e+002, 7.095801e+002
2.844065e+002, 7.094073e+002
2.848886e+002, 7.084600e+002
2.853707e+002, 7.071723e+002
2.858528e+002, 7.062713e+002
2.863349e+002, 7.060386e+002
2.868170e+002, 7.059710e+002
2.872992e+002, 7.050674e+002
2.877813e+002, 7.029019e+002
2.882634e+002, 7.014182e+002
2.887455e+002, 7.017166e+002
2.892276e+002, 7.025432e+002
2.897097e+002, 7.020592e+002
2.901919e+002, 6.997918e+002
2.906740e+002, 6.974239e+002
2.911561e+002, 6.973777e+002
2.916382e+002, 7.001251e+002
2.921203e+002, 7.013837e+002
2.926024e+002, 6.994240e+002
2.930846e+002, 6.965273e+002
2.935667e+002, 6.948500e+002
2.940488e+002, 6.946658e+002
2.945309e+002, 6.951855e+002
2.950130e+002, 6.958455e+002
2.954951e+002, 6.966384e+002
2.959773e+002, 6.972287e+002
2.964594e+002, 6.980173e+002
2.969415e+002, 6.982958e+002
2.974236e+002, 6.969672e+002
2.979057e+002, 6.941969e+002
2.983878e+002, 6.919249e+002
2.988700e+002, 6.915997e+002
2.993521e+002, 6.930385e+002
2.998342e+002, 6.943043e+002
3.003163e+002, 6.960057e+002
3.007984e+002, 6.969854e+002
3.012805e+002, 6.958517e+002
3.017627e+002, 6.931306e+002
3.022448e+002, 6.913272e+002
3.027269e+002, 6.920743e+002
3.032090e+002, 6.944085e+002
3.036911e+002, 6.953184e+002
3.041732e+002, 6.939793e+002
3.046554e+002, 6.927297e+002
3.051375e+002, 6.929380e+002
3.056196e+002, 6.940580e+002
3.061017e+002, 6.945476e+002
3.065838e+002, 6.936302e+002
3.070659e+002, 6.921930e+002
3.075481e+002, 6.921314e+002
3.080302e+002, 6.938049e+002
3.085123e+002, 6.951132e+002
3.089944e+002, 6.954681e+002
3.094765e+002, 6.950056e+002
3.099586e+002, 6.936166e+002
3.104408e+002, 6.910509e+002
3.109229e+002, 6.885475e+002
3.114050e+002, 6.882789e+002
3.118871e+002, 6.903571e+002
3.123692e+002, 6.912648e+002
3.128513e+002, 6.887325e+002
3.133335e+002, 6.853967e+002
3.138156e+002, 6.850358e+002
3.142977e+002, 6.883092e+002
3.147798e+002, 6.914709e+002
3.152619e+002, 6.906088e+002
3.157440e+002, 6.859893e+002
3.162262e+002, 6.826666e+002
3.167083e+002, 6.819285e+002
3.171904e+002, 6.820050e+002
3.176725e+002, 6.815131e+002
3.181546e+002, 6.804202e+002
3.186367e+002, 6.792488e+002
3.191188e+002, 6.782781e+002
3.196010e+002, 6.775338e+002
3.200831e+002, 6.769840e+002
3.205652e+002, 6.768943e+002
3.210473e+002, 6.767302e+002
3.215294e+002, 6.759615e+002
3.220115e+002, 6.748157e+002
3.224937e+002, 6.741422e+002
3.229758e+002, 6.744542e+002
3.234579e+002, 6.753515e+002
3.239400e+002, 6.757977e+002
3.244221e+002, 6.756599e+002
3.249042e+002, 6.754708e+002
3.253864e+002, 6.756068e+002
3.258685e+002, 6.757978e+002
3.263506e+002, 6.754039e+002
3.268327e+002, 6.741171e+002
3.273148e+002, 6.725912e+002
3.277969e+002, 6.718812e+002
3.282791e+002, 6.720617e+002
3.287612e+002, 6.723695e+002
3.292433e+002, 6.730434e+002
3.297254e+002, 6.736019e+002
3.302075e+002, 6.733283e+002
3.306896e+002, 6.720992e+002
3.311718e+002, 6.706611e+002
3.316539e+002, 6.696650e+002
3.321360e+002, 6.691611e+002
3.326181e+002, 6.690735e+002
3.331002e+002, 6.698354e+002
3.335823e+002, 6.706838e+002
3.340645e+002, 6.711553e+002
3.345466e+002, 6.712100e+002
3.350287e+002, 6.708096e+002
3.355108e+002, 6.697098e+002
3.359929e+002, 6.681345e+002
3.364750e+002, 6.676459e+002
3.369572e+002, 6.692770e+002
3.374393e+002, 6.707659e+002
3.379214e+002, 6.713384e+002
3.384035e+002, 6.710492e+002
3.388856e+002, 6.699798e+002
3.393677e+002, 6.681005e+002
3.398499e+002, 6.656234e+002
3.403320e+002, 6.629680e+002
3.408141e+002, 6.590511e+002
3.412962e+002, 6.568617e+002
3.417783e+002, 6.583766e+002
3.422604e+002, 6.614268e+002
3.427426e+002, 6.630385e+002
3.432247e+002, 6.623558e+002
3.437068e+002, 6.609356e+002
3.441889e+002, 6.610095e+002
3.446710e+002, 6.634512e+002
3.451531e+002, 6.648590e+002
3.456353e+002, 6.644199e+002
3.461174e+002, 6.634877e+002
3.465995e+002, 6.633152e+002
3.470816e+002, 6.638773e+002
3.475637e+002, 6.639537e+002
3.480458e+002, 6.622140e+002
3.485280e+002, 6.584988e+002
3.490101e+002, 6.567903e+002
3.494922e+002, 6.583601e+002
3.499743e+002, 6.602858e+002
3.504564e+002, 6.617606e+002
3.509385e+002, 6.626180e+002
3.514207e+002, 6.625922e+002
3.519028e+002, 6.614362e+002
3.523849e+002, 6.594789e+002
3.528670e+002, 6.581227e+002
3.533491e+002, 6.575325e+002
3.538312e+002, 6.573370e+002
3.543134e+002, 6.581741e+002
3.547955e+002, 6.591198e+002
3.552776e+002, 6.586952e+002
3.557597e+002, 6.564524e+002
3.562418e+002, 6.538854e+002
3.567239e+002, 6.536085e+002
3.572061e+002, 6.572895e+002
3.576882e+002, 6.599571e+002
3.581703e+002, 6.615539e+002
3.586524e+002, 6.622933e+002
3.591345e+002, 6.620588e+002
3.596166e+002, 6.609994e+002
3.600987e+002, 6.596035e+002
3.605808e+002, 6.582736e+002
3.610630e+002, 6.569578e+002
3.615451e+002, 6.562200e+002
3.620272e+002, 6.568992e+002
3.625093e+002, 6.572481e+002
3.629914e+002, 6.564157e+002
3.634735e+002, 6.548392e+002
3.639557e+002, 6.534172e+002
3.644378e+002, 6.527028e+002
3.649199e+002, 6.525286e+002
3.654020e+002, 6.521607e+002
3.658841e+002, 6.511508e+002
3.663662e+002, 6.505944e+002
3.668484e+002, 6.510123e+002
3.673305e+002, 6.517239e+002
3.678126e+002, 6.520680e+002
3.682947e+002, 6.518344e+002
3.687768e+002, 6.512800e+002
3.692589e+002, 6.507816e+002
3.697411e+002, 6.503638e+002
3.702232e+002, 6.499410e+002
3.707053e+002, 6.494573e+002
3.711874e+002, 6.490091e+002
3.716695e+002, 6.487952e+002
3.721516e+002, 6.487122e+002
3.726338e+002, 6.483210e+002
3.731159e+002, 6.469139e+002
3.735980e+002, 6.445650e+002
3.740801e+002, 6.439241e+002
3.745622e+002, 6.470209e+002
3.750443e+002, 6.493464e+002
3.755265e+002, 6.489529e+002
3.760086e+002, 6.469725e+002
3.764907e+002, 6.451254e+002
3.769728e+002, 6.441978e+002
3.774549e+002, 6.439680e+002
3.779370e+002, 6.439324e+002
3.784192e+002, 6.440200e+002
3.789013e+002, 6.445195e+002
3.793834e+002, 6.468274e+002
3.798655e+002, 6.487843e+002
3.803476e+002, 6.481089e+002
3.808297e+002, 6.443949e+002
3.813119e+002, 6.404352e+002
3.817940e+002, 6.392947e+002
3.822761e+002, 6.409086e+002
3.827582e+002, 6.421796e+002
3.832403e+002, 6.426569e+002
3.837224e+002, 6.427530e+002
3.842046e+002, 6.428182e+002
3.846867e+002, 6.428010e+002
3.851688e+002, 6.425015e+002
3.856509e+002, 6.414441e+002
3.861330e+002, 6.400939e+002
3.866151e+002, 6.396249e+002
3.870973e+002, 6.402658e+002
3.875794e+002, 6.409618e+002
3.880615e+002, 6.411457e+002
3.885436e+002, 6.409914e+002
3.890257e+002, 6.406758e+002
3.895078e+002, 6.401025e+002
3.899900e+002, 6.396016e+002
3.904721e+002, 6.395118e+002
3.909542e+002, 6.397870e+002
3.914363e+002, 6.401241e+002
3.919184e+002, 6.405660e+002
3.924005e+002, 6.408397e+002
3.928827e+002, 6.404897e+002
3.933648e+002, 6.394740e+002
3.938469e+002, 6.385521e+002
3.943290e+002, 6.382031e+002
3.948111e+002, 6.380790e+002
3.952932e+002, 6.374842e+002
3.957754e+002, 6.362567e+002
3.962575e+002, 6.352419e+002
3.967396e+002, 6.353839e+002
3.972217e+002, 6.365588e+002
3.977038e+002, 6.371196e+002
3.981859e+002, 6.363830e+002
3.986681e+002, 6.355587e+002
3.991501e+002, 6.356824e+002
3.996323e+002, 6.364568e+002
4.001144e+002, 6.367060e+002
4.005965e+002, 6.357552e+002
4.010786e+002, 6.340380e+002
4.015607e+002, 6.328297e+002
4.020428e+002, 6.324421e+002
4.025250e+002, 6.319188e+002
4.030071e+002, 6.304318e+002
4.034892e+002, 6.290203e+002
4.039713e+002, 6.291614e+002
4.044534e+002, 6.311097e+002
4.049355e+002, 6.335704e+002
4.054177e+002, 6.350232e+002
4.058998e+002, 6.352042e+002
4.063819e+002, 6.355882e+002
4.068640e+002, 6.369774e+002
4.073461e+002, 6.377923e+002
4.078282e+002, 6.366397e+002
4.083104e+002, 6.342410e+002
4.087925e+002, 6.324396e+002
4.092746e+002, 6.324052e+002
4.097567e+002, 6.337957e+002
4.102388e+002, 6.350328e+002
4.107209e+002, 6.363576e+002
4.112031e+002, 6.371639e+002
4.116852e+002, 6.369081e+002
4.121673e+002, 6.363928e+002
4.126494e+002, 6.366756e+002
4.131315e+002, 6.379034e+002
4.136136e+002, 6.389470e+002
4.140958e+002, 6.379922e+002
4.145779e+002, 6.341778e+002
4.150600e+002, 6.318185e+002
4.155421e+002, 6.324128e+002
