##NAMES=Aragonite
##RRUFFID=R080142
##IDEAL CHEMISTRY=CaCO_3_
##LOCALITY=Miniere di Brosso, Ivrea, Torino, Italy
##OWNER=RRUFF
##SOURCE=Renato and Adriana Pagano
##DESCRIPTION=Sprays of colorless to white acicular crystals
##STATUS=The identification of this mineral is confirmed by single-crystal X-ray diffraction and chemical analysis.
##URL=rruff.info/R080142
##MEASURED CHEMISTRY=(Ca_0.96_Sr_0.02_)_Î£=0.98_CO_3_
90.52570, 0.0000000E+00
91.00781, 43.46239
91.48993, 40.35798
91.97205, 39.11798
92.45416, 41.06104
92.93628, 44.80619
93.41840, 47.08934
93.90051, 46.84029
94.38263, 45.88817
94.86475, 47.73111
95.34686, 52.33913
95.82898, 56.85068
96.31110, 58.12446
96.79321, 56.58420
97.27533, 56.76962
97.75745, 59.99660
98.23956, 65.65453
98.72168, 71.43508
99.20380, 77.44556
99.68591, 83.06492
100.1680, 87.10561
100.6501, 88.96951
101.1323, 92.00264
101.6144, 97.14742
102.0965, 104.4748
102.5786, 113.2128
103.0607, 124.0605
103.5428, 135.7685
104.0250, 146.3035
104.5071, 154.3732
104.9892, 163.2881
105.4713, 174.1986
105.9534, 187.5142
106.4355, 201.9210
106.9177, 218.1331
107.3998, 235.4584
107.8819, 252.3161
108.3640, 268.7568
108.8461, 284.4958
109.3282, 299.6013
109.8104, 311.5747
110.2925, 325.4206
110.7746, 342.4982
111.2567, 362.1992
111.7388, 380.4734
112.2209, 396.0459
112.7031, 410.3110
113.1852, 424.4064
113.6673, 436.8745
114.1494, 450.6208
114.6315, 466.5085
115.1136, 484.7291
115.5958, 504.2197
116.0779, 525.4252
116.5600, 547.5099
117.0421, 569.4426
117.5242, 589.3491
118.0063, 610.3861
118.4885, 634.9638
118.9706, 663.8202
119.4527, 693.2422
119.9348, 720.7639
120.4169, 747.3205
120.8990, 775.0911
121.3812, 806.8226
121.8633, 839.3327
122.3454, 868.9537
122.8275, 894.6045
123.3096, 919.2184
123.7917, 945.0344
124.2739, 971.8859
124.7560, 999.1608
125.2381, 1026.236
125.7202, 1053.630
126.2023, 1081.464
126.6844, 1108.956
127.1666, 1138.283
127.6487, 1171.926
128.1308, 1210.077
128.6129, 1252.691
129.0950, 1301.525
129.5771, 1355.531
130.0593, 1410.782
130.5414, 1463.067
131.0235, 1516.551
131.5056, 1582.239
131.9877, 1654.506
132.4698, 1722.402
132.9520, 1783.070
133.4341, 1836.966
133.9162, 1890.051
134.3983, 1943.564
134.8804, 1997.394
135.3625, 2052.440
135.8447, 2109.125
136.3268, 2166.591
136.8089, 2224.475
137.2910, 2282.988
137.7731, 2342.294
138.2552, 2402.152
138.7374, 2461.591
139.2195, 2527.921
139.7016, 2604.488
140.1837, 2685.530
140.6658, 2757.824
141.1479, 2820.561
141.6301, 2878.176
142.1122, 2932.795
142.5943, 2984.045
143.0764, 3033.360
143.5585, 3078.122
144.0406, 3121.382
144.5228, 3175.541
145.0049, 3238.557
145.4870, 3314.001
145.9691, 3403.041
146.4512, 3510.249
146.9333, 3625.398
147.4155, 3748.202
147.8976, 3879.619
148.3797, 4017.663
148.8618, 4169.604
149.3439, 4324.515
149.8260, 4475.270
150.3082, 4654.915
150.7903, 4795.532
151.2724, 4900.796
151.7545, 4970.805
152.2366, 4981.437
152.7188, 4926.590
153.2009, 4815.680
153.6830, 4656.550
154.1651, 4420.524
154.6472, 4164.854
155.1293, 3896.421
155.6115, 3610.572
156.0936, 3345.628
156.5757, 3105.309
157.0578, 2888.913
157.5399, 2699.184
158.0220, 2541.545
158.5042, 2405.292
158.9863, 2289.858
159.4684, 2196.324
159.9505, 2114.329
160.4326, 2045.090
160.9147, 1985.331
161.3969, 1930.196
161.8790, 1878.189
162.3611, 1830.151
162.8432, 1786.694
163.3253, 1748.946
163.8074, 1713.729
164.2896, 1678.215
164.7717, 1644.174
165.2538, 1615.190
165.7359, 1594.715
166.2180, 1578.751
166.7001, 1563.823
167.1823, 1548.128
167.6644, 1536.338
168.1465, 1533.415
168.6286, 1537.151
169.1107, 1541.376
169.5928, 1541.493
170.0750, 1540.877
170.5571, 1542.971
171.0392, 1548.576
171.5213, 1556.959
172.0034, 1568.904
172.4855, 1583.741
172.9677, 1598.135
173.4498, 1608.011
173.9319, 1616.732
174.4140, 1629.221
174.8961, 1648.015
175.3782, 1669.671
175.8604, 1691.736
176.3425, 1714.199
176.8246, 1736.006
177.3067, 1758.503
177.7888, 1779.994
178.2709, 1796.879
178.7531, 1809.356
179.2352, 1815.984
179.7173, 1813.497
180.1994, 1802.120
180.6815, 1786.463
181.1636, 1767.396
181.6458, 1746.743
182.1279, 1730.626
182.6100, 1721.682
183.0921, 1718.079
183.5742, 1714.982
184.0563, 1712.237
184.5385, 1713.863
185.0206, 1724.858
185.5027, 1744.199
185.9848, 1766.599
186.4669, 1792.170
186.9490, 1819.255
187.4312, 1843.825
187.9133, 1865.315
188.3954, 1885.129
188.8775, 1905.880
189.3596, 1926.943
189.8417, 1942.958
190.3239, 1949.510
190.8060, 1948.661
191.2881, 1950.977
191.7702, 1957.156
192.2523, 1963.738
192.7344, 1965.238
193.2166, 1961.678
193.6987, 1959.719
194.1808, 1960.825
194.6629, 1965.256
195.1450, 1976.752
195.6271, 1996.427
196.1093, 2020.294
196.5914, 2041.375
197.0735, 2059.053
197.5556, 2081.410
198.0377, 2112.327
198.5198, 2152.094
199.0020, 2194.036
199.4841, 2237.542
199.9662, 2284.382
200.4483, 2338.020
200.9304, 2398.509
201.4125, 2465.252
201.8947, 2540.410
202.3768, 2624.988
202.8589, 2706.234
203.3410, 2786.089
203.8231, 2860.302
204.3052, 2923.285
204.7874, 2978.502
205.2695, 3010.325
205.7516, 3012.118
206.2337, 2983.437
206.7158, 2925.807
207.1979, 2832.671
207.6801, 2716.671
208.1622, 2602.685
208.6443, 2487.997
209.1264, 2381.477
209.6085, 2286.830
210.0906, 2204.211
210.5728, 2132.767
211.0549, 2074.500
211.5370, 2026.401
212.0191, 1984.136
212.5012, 1948.906
212.9833, 1915.731
213.4655, 1882.781
213.9476, 1849.766
214.4297, 1817.713
214.9118, 1787.650
215.3939, 1758.109
215.8760, 1723.312
216.3581, 1679.799
216.8403, 1638.732
217.3224, 1606.610
217.8045, 1586.305
218.2866, 1565.352
218.7687, 1543.646
219.2508, 1521.122
219.7330, 1497.503
220.2151, 1470.475
220.6972, 1446.602
221.1793, 1429.857
221.6614, 1422.749
222.1435, 1415.460
222.6257, 1407.096
223.1078, 1398.622
223.5899, 1393.012
224.0720, 1392.746
224.5541, 1391.367
225.0362, 1385.352
225.5184, 1372.052
226.0005, 1360.735
226.4826, 1351.104
226.9647, 1343.670
227.4468, 1340.144
227.9289, 1343.338
228.4111, 1346.223
228.8932, 1345.237
229.3753, 1337.957
229.8574, 1332.675
230.3395, 1330.086
230.8216, 1329.479
231.3038, 1328.748
231.7859, 1327.014
232.2680, 1326.444
232.7501, 1327.897
233.2322, 1331.181
233.7143, 1337.276
234.1965, 1349.001
234.6786, 1362.977
235.1607, 1369.248
235.6428, 1362.590
236.1249, 1355.777
236.6070, 1354.558
237.0892, 1361.488
237.5713, 1368.401
238.0534, 1375.481
238.5355, 1382.477
239.0176, 1388.646
239.4997, 1393.437
239.9819, 1398.302
240.4640, 1403.594
240.9461, 1408.543
241.4282, 1416.044
241.9103, 1427.794
242.3924, 1441.568
242.8746, 1451.898
243.3567, 1457.189
243.8388, 1461.492
244.3209, 1466.512
244.8030, 1472.907
245.2851, 1478.178
245.7673, 1482.094
246.2494, 1485.008
246.7315, 1487.706
247.2136, 1490.508
247.6957, 1492.608
248.1778, 1493.791
248.6600, 1494.234
249.1421, 1493.051
249.6242, 1489.347
250.1063, 1484.482
250.5884, 1481.151
251.0705, 1480.062
251.5527, 1479.257
252.0348, 1477.834
252.5169, 1475.157
252.9990, 1474.164
253.4811, 1475.402
253.9632, 1477.940
254.4454, 1479.928
254.9275, 1480.402
255.4096, 1482.194
255.8917, 1486.776
256.3738, 1495.139
256.8560, 1501.670
257.3381, 1506.449
257.8202, 1509.394
258.3023, 1510.130
258.7844, 1507.635
259.2665, 1505.203
259.7487, 1504.303
260.2308, 1505.536
260.7129, 1503.797
261.1950, 1497.687
261.6771, 1490.144
262.1592, 1485.275
262.6414, 1484.010
263.1235, 1483.130
263.6056, 1481.484
264.0877, 1478.884
264.5698, 1478.404
265.0519, 1480.886
265.5341, 1484.331
266.0162, 1486.059
266.4983, 1485.014
266.9804, 1485.485
267.4625, 1488.595
267.9446, 1494.296
268.4268, 1501.822
268.9089, 1512.218
269.3910, 1522.334
269.8731, 1529.247
270.3552, 1532.874
270.8373, 1533.167
271.3195, 1528.967
271.8016, 1520.893
272.2837, 1515.680
272.7658, 1514.104
273.2479, 1513.485
273.7300, 1511.435
274.2122, 1507.850
274.6943, 1503.483
275.1764, 1498.023
275.6585, 1491.933
276.1406, 1487.771
276.6227, 1485.854
277.1049, 1484.852
277.5870, 1484.276
278.0691, 1484.330
278.5512, 1482.164
279.0333, 1476.114
279.5154, 1468.158
279.9976, 1465.481
280.4797, 1468.848
280.9618, 1473.543
281.4439, 1476.666
281.9260, 1478.184
282.4081, 1478.811
282.8903, 1478.860
283.3724, 1477.804
283.8545, 1473.887
284.3366, 1466.888
284.8187, 1459.350
285.3008, 1451.960
285.7830, 1444.908
286.2651, 1442.032
286.7472, 1445.016
287.2293, 1449.683
287.7114, 1447.714
288.1935, 1439.155
288.6757, 1430.012
289.1578, 1424.057
289.6399, 1420.549
290.1220, 1415.708
290.6041, 1408.867
291.0862, 1402.033
291.5684, 1398.212
292.0505, 1397.188
292.5326, 1397.047
293.0147, 1398.201
293.4968, 1399.565
293.9789, 1397.158
294.4611, 1390.437
294.9432, 1382.829
295.4253, 1378.140
295.9074, 1375.966
296.3895, 1374.634
296.8716, 1373.878
297.3538, 1373.379
297.8359, 1372.009
298.3180, 1369.682
298.8001, 1368.221
299.2822, 1370.043
299.7643, 1374.141
300.2465, 1377.916
300.7286, 1380.971
301.2107, 1382.862
301.6928, 1382.467
302.1749, 1379.914
302.6570, 1377.087
303.1392, 1375.059
303.6213, 1373.846
304.1034, 1373.638
304.5855, 1375.231
305.0676, 1376.973
305.5497, 1376.771
306.0319, 1375.015
306.5140, 1373.721
306.9961, 1374.935
307.4782, 1377.087
307.9603, 1378.144
308.4424, 1376.937
308.9246, 1375.818
309.4067, 1377.327
309.8888, 1380.512
310.3709, 1382.703
310.8530, 1380.957
311.3351, 1378.380
311.8173, 1377.809
312.2994, 1380.234
312.7815, 1382.979
313.2636, 1385.177
313.7457, 1386.539
314.2278, 1386.532
314.7100, 1382.853
315.1921, 1379.258
315.6742, 1378.820
316.1563, 1382.614
316.6384, 1384.760
317.1205, 1379.409
317.6027, 1371.854
318.0848, 1368.830
318.5669, 1379.055
319.0490, 1388.303
319.5311, 1389.565
320.0132, 1382.169
320.4954, 1376.408
320.9775, 1375.814
321.4596, 1377.793
321.9417, 1380.176
322.4238, 1383.130
322.9059, 1385.801
323.3881, 1388.301
323.8702, 1390.525
324.3523, 1391.581
324.8344, 1390.705
325.3165, 1389.055
325.7986, 1387.315
326.2808, 1383.060
326.7629, 1381.659
327.2450, 1385.198
327.7271, 1392.316
328.2092, 1397.641
328.6913, 1400.715
329.1735, 1402.351
329.6556, 1402.784
330.1377, 1401.182
330.6198, 1399.910
331.1019, 1398.819
331.5840, 1398.085
332.0662, 1398.080
332.5483, 1399.247
333.0304, 1400.473
333.5125, 1401.297
333.9946, 1401.539
334.4767, 1402.362
334.9589, 1404.103
335.4410, 1406.071
335.9231, 1407.310
336.4052, 1407.455
336.8873, 1407.924
337.3694, 1409.667
337.8515, 1412.476
338.3336, 1411.774
338.8158, 1405.974
339.2979, 1400.081
339.7800, 1399.470
340.2621, 1405.227
340.7442, 1408.700
341.2263, 1407.682
341.7085, 1403.704
342.1906, 1401.805
342.6727, 1402.131
343.1548, 1403.523
343.6369, 1405.084
344.1190, 1406.853
344.6012, 1410.341
345.0833, 1416.455
345.5654, 1422.809
346.0475, 1424.458
346.5296, 1421.670
347.0117, 1418.883
347.4939, 1418.453
347.9760, 1419.894
348.4581, 1422.018
348.9402, 1424.931
349.4223, 1427.594
349.9044, 1428.550
350.3866, 1428.241
350.8687, 1428.205
351.3508, 1429.682
351.8329, 1431.548
352.3150, 1431.816
352.7971, 1430.531
353.2793, 1429.128
353.7614, 1429.057
354.2435, 1429.539
354.7256, 1429.143
355.2077, 1426.301
355.6898, 1423.888
356.1720, 1424.748
356.6541, 1428.370
357.1362, 1432.492
357.6183, 1437.548
358.1004, 1441.633
358.5826, 1442.599
359.0647, 1438.868
359.5468, 1435.035
360.0289, 1433.126
360.5110, 1432.873
360.9931, 1433.772
361.4753, 1437.837
361.9574, 1441.232
362.4395, 1441.363
362.9216, 1437.341
363.4037, 1434.371
363.8858, 1435.222
364.3680, 1437.442
364.8501, 1438.457
365.3322, 1436.262
365.8143, 1434.337
366.2964, 1433.418
366.7785, 1433.534
367.2607, 1434.386
367.7428, 1435.940
368.2249, 1438.251
368.7070, 1441.423
369.1891, 1448.156
369.6712, 1452.054
370.1534, 1451.104
370.6355, 1447.130
371.1176, 1446.000
371.5997, 1450.026
372.0818, 1453.850
372.5639, 1455.115
373.0461, 1452.635
373.5282, 1451.300
374.0103, 1451.075
374.4924, 1451.940
374.9745, 1454.231
375.4566, 1458.695
375.9388, 1462.304
376.4209, 1464.234
376.9030, 1464.543
377.3851, 1463.374
377.8672, 1460.327
378.3493, 1457.154
378.8315, 1455.561
379.3136, 1455.580
379.7957, 1456.077
380.2778, 1456.713
380.7599, 1457.866
381.2420, 1461.367
381.7242, 1467.156
382.2063, 1471.699
382.6884, 1471.237
383.1705, 1467.383
383.6526, 1465.711
384.1347, 1466.809
384.6169, 1469.725
385.0990, 1474.513
385.5811, 1480.390
386.0632, 1484.639
386.5453, 1485.183
387.0274, 1483.744
387.5096, 1482.131
387.9917, 1480.406
388.4738, 1479.339
388.9559, 1479.720
389.4380, 1481.113
389.9201, 1483.088
390.4023, 1487.008
390.8844, 1489.761
391.3665, 1488.052
391.8486, 1483.085
392.3307, 1479.318
392.8128, 1479.132
393.2950, 1480.706
393.7771, 1483.238
394.2592, 1487.555
394.7413, 1490.162
395.2234, 1487.849
395.7055, 1483.486
396.1877, 1481.523
396.6698, 1485.588
397.1519, 1489.655
397.6340, 1491.894
398.1161, 1492.070
398.5982, 1491.977
399.0804, 1491.676
399.5625, 1491.220
400.0446, 1490.628
400.5267, 1489.465
401.0088, 1488.900
401.4909, 1489.280
401.9731, 1490.390
402.4552, 1491.224
402.9373, 1491.338
403.4194, 1491.931
403.9015, 1493.775
404.3836, 1497.367
404.8658, 1500.106
405.3479, 1501.628
405.8300, 1502.711
406.3121, 1504.935
406.7942, 1508.635
407.2763, 1510.854
407.7585, 1509.874
408.2406, 1506.498
408.7227, 1505.618
409.2048, 1507.445
409.6869, 1509.809
410.1690, 1510.492
410.6512, 1509.918
411.1333, 1510.445
411.6154, 1513.082
412.0975, 1515.978
412.5796, 1515.552
413.0617, 1512.532
413.5439, 1510.506
414.0260, 1512.499
414.5081, 1516.359
414.9902, 1519.392
415.4723, 1521.493
415.9544, 1522.092
416.4366, 1519.012
416.9187, 1514.485
417.4008, 1511.858
417.8829, 1514.126
418.3650, 1517.131
418.8471, 1518.324
419.3293, 1517.993
419.8114, 1518.015
420.2935, 1519.411
420.7756, 1521.290
421.2577, 1522.938
421.7398, 1523.681
422.2220, 1525.328
422.7041, 1529.864
423.1862, 1535.345
423.6683, 1538.301
424.1504, 1536.253
424.6325, 1533.711
425.1147, 1531.659
425.5968, 1530.049
426.0789, 1529.195
426.5610, 1529.555
427.0431, 1530.259
427.5252, 1530.513
428.0074, 1529.782
428.4895, 1529.869
428.9716, 1531.185
429.4537, 1533.350
429.9358, 1535.353
430.4179, 1537.351
430.9001, 1538.580
431.3822, 1538.358
431.8643, 1536.656
432.3464, 1535.172
432.8285, 1533.785
433.3106, 1533.029
433.7928, 1533.598
434.2749, 1535.438
434.7570, 1538.304
435.2391, 1543.231
435.7212, 1548.268
436.2033, 1548.704
436.6855, 1544.970
437.1676, 1541.354
437.6497, 1541.172
438.1318, 1543.006
438.6139, 1544.930
439.0960, 1546.864
439.5782, 1548.040
440.0603, 1547.073
440.5424, 1544.953
441.0245, 1543.551
441.5066, 1543.286
441.9887, 1544.250
442.4709, 1547.696
442.9530, 1553.430
443.4351, 1556.837
443.9172, 1553.142
444.3993, 1548.190
444.8814, 1546.329
445.3636, 1551.442
445.8457, 1555.372
446.3278, 1556.723
446.8099, 1556.105
447.2920, 1555.040
447.7741, 1552.381
448.2563, 1550.642
448.7384, 1550.804
449.2205, 1553.156
449.7026, 1555.411
450.1847, 1558.471
450.6668, 1560.322
451.1490, 1558.130
451.6311, 1549.957
452.1132, 1545.647
452.5953, 1547.852
453.0774, 1553.882
453.5595, 1555.924
454.0417, 1553.458
454.5238, 1551.864
455.0059, 1555.751
455.4880, 1563.518
455.9701, 1566.115
456.4522, 1562.626
456.9344, 1558.148
457.4165, 1558.794
457.8986, 1562.928
458.3807, 1565.884
458.8628, 1565.455
459.3449, 1564.029
459.8271, 1563.600
460.3092, 1564.335
460.7913, 1566.893
461.2734, 1575.225
461.7555, 1583.391
462.2376, 1585.521
462.7198, 1579.466
463.2019, 1573.643
463.6840, 1572.082
464.1661, 1572.921
464.6482, 1573.907
465.1303, 1574.029
465.6125, 1574.641
466.0946, 1576.782
466.5767, 1580.158
467.0588, 1581.868
467.5409, 1580.269
468.0230, 1578.237
468.5052, 1577.035
468.9873, 1577.093
469.4694, 1576.891
469.9515, 1576.048
470.4336, 1575.302
470.9157, 1575.902
471.3979, 1578.355
471.8800, 1580.379
472.3621, 1580.987
472.8442, 1580.754
473.3263, 1583.143
473.8084, 1588.592
474.2906, 1593.251
474.7727, 1593.688
475.2548, 1590.721
475.7369, 1588.132
476.2190, 1586.149
476.7011, 1585.094
477.1833, 1585.565
477.6654, 1587.279
478.1475, 1589.483
478.6296, 1593.031
479.1117, 1596.113
479.5938, 1596.491
480.0760, 1594.481
480.5581, 1592.192
481.0402, 1589.754
481.5223, 1588.177
482.0044, 1588.618
482.4865, 1592.240
482.9687, 1595.291
483.4508, 1595.917
483.9329, 1595.377
484.4150, 1595.459
484.8971, 1597.769
485.3792, 1599.367
485.8614, 1598.928
486.3435, 1596.673
486.8256, 1596.000
487.3077, 1597.489
487.7898, 1599.876
488.2719, 1602.792
488.7541, 1606.827
489.2362, 1609.301
489.7183, 1609.993
490.2004, 1609.391
490.6825, 1607.889
491.1646, 1605.341
491.6468, 1603.239
492.1289, 1601.897
492.6110, 1601.352
493.0931, 1601.907
493.5752, 1603.550
494.0573, 1605.323
494.5395, 1606.793
495.0216, 1607.858
495.5037, 1608.127
495.9858, 1607.388
496.4679, 1606.772
496.9500, 1607.602
497.4322, 1609.217
497.9143, 1610.507
498.3964, 1610.122
498.8785, 1610.129
499.3606, 1612.370
499.8427, 1616.292
500.3249, 1619.142
500.8070, 1619.858
501.2891, 1619.394
501.7712, 1617.589
502.2533, 1612.712
502.7354, 1611.453
503.2176, 1619.017
503.6997, 1627.985
504.1818, 1630.322
504.6639, 1620.310
505.1460, 1614.452
505.6281, 1616.669
506.1103, 1624.519
506.5924, 1628.111
507.0745, 1626.328
507.5566, 1624.156
508.0387, 1624.624
508.5208, 1627.507
509.0030, 1627.995
509.4851, 1625.733
509.9672, 1623.074
510.4493, 1622.528
510.9314, 1623.688
511.4135, 1625.455
511.8957, 1628.390
512.3778, 1630.401
512.8599, 1627.680
513.3420, 1621.808
513.8242, 1617.378
514.3063, 1617.648
514.7884, 1619.645
515.2705, 1621.225
515.7526, 1622.231
516.2347, 1623.319
516.7169, 1624.631
517.1990, 1626.171
517.6811, 1627.955
518.1632, 1630.543
518.6453, 1632.557
519.1274, 1633.894
519.6096, 1634.524
520.0917, 1634.273
520.5738, 1632.318
521.0559, 1630.765
521.5380, 1629.825
522.0201, 1629.574
522.5023, 1632.013
522.9844, 1638.362
523.4665, 1643.987
523.9486, 1644.602
524.4307, 1640.543
524.9128, 1638.587
525.3950, 1639.389
525.8771, 1641.976
526.3592, 1646.890
526.8413, 1652.887
527.3234, 1655.365
527.8055, 1649.858
528.2877, 1642.631
528.7698, 1641.145
529.2519, 1644.413
529.7340, 1648.187
530.2161, 1651.255
530.6982, 1653.123
531.1804, 1653.032
531.6625, 1650.518
532.1446, 1648.440
532.6267, 1647.938
533.1088, 1648.249
533.5909, 1648.678
534.0731, 1650.234
534.5552, 1650.529
535.0373, 1648.022
535.5194, 1644.373
536.0015, 1643.931
536.4836, 1648.332
536.9658, 1652.603
537.4479, 1654.831
537.9300, 1655.115
538.4121, 1656.492
538.8942, 1659.362
539.3763, 1661.507
539.8585, 1660.141
540.3406, 1656.036
540.8227, 1653.704
541.3048, 1653.788
541.7869, 1655.381
542.2690, 1658.256
542.7512, 1661.786
543.2333, 1664.394
543.7154, 1664.396
544.1975, 1664.077
544.6796, 1666.280
545.1617, 1670.157
545.6439, 1671.855
546.1260, 1665.698
546.6081, 1659.848
547.0902, 1660.213
547.5723, 1669.721
548.0544, 1675.689
548.5366, 1673.647
549.0187, 1668.879
549.5008, 1665.960
549.9829, 1665.393
550.4650, 1665.968
550.9471, 1668.601
551.4293, 1671.787
551.9114, 1671.576
552.3935, 1667.231
552.8756, 1662.993
553.3577, 1659.836
553.8398, 1658.096
554.3220, 1660.845
554.8041, 1668.296
555.2862, 1674.115
555.7683, 1670.313
556.2504, 1661.940
556.7325, 1660.117
557.2147, 1667.369
557.6968, 1675.271
558.1789, 1675.794
558.6610, 1672.636
559.1431, 1671.252
559.6252, 1677.036
560.1074, 1681.416
560.5895, 1679.672
561.0716, 1673.555
561.5537, 1668.991
562.0358, 1666.360
562.5179, 1666.229
563.0001, 1669.950
563.4822, 1678.194
563.9643, 1682.435
564.4464, 1680.381
564.9285, 1677.561
565.4106, 1678.887
565.8928, 1685.536
566.3749, 1687.938
566.8570, 1684.125
567.3391, 1678.666
567.8212, 1679.514
568.3033, 1685.722
568.7855, 1690.132
569.2676, 1689.380
569.7497, 1686.499
570.2318, 1685.793
570.7139, 1686.937
571.1960, 1688.472
571.6782, 1690.261
572.1603, 1691.586
572.6424, 1691.149
573.1245, 1688.640
573.6066, 1687.860
574.0887, 1692.430
574.5709, 1698.017
575.0530, 1701.244
575.5351, 1699.472
576.0172, 1698.581
576.4993, 1699.293
576.9814, 1700.717
577.4636, 1701.468
577.9457, 1701.551
578.4278, 1700.816
578.9099, 1698.604
579.3920, 1695.750
579.8741, 1695.980
580.3563, 1699.516
580.8384, 1703.088
581.3205, 1704.289
581.8026, 1704.045
582.2847, 1705.376
582.7668, 1708.410
583.2490, 1710.828
583.7311, 1710.420
584.2131, 1708.335
584.6953, 1705.810
585.1774, 1702.564
585.6595, 1700.317
586.1416, 1699.782
586.6237, 1700.870
