##NAMES=Aragonite
##RRUFFID=R080142
##IDEAL CHEMISTRY=CaCO_3_
##LOCALITY=Miniere di Brosso, Ivrea, Torino, Italy
##OWNER=RRUFF
##SOURCE=Renato and Adriana Pagano
##DESCRIPTION=Sprays of colorless to white acicular crystals
##STATUS=The identification of this mineral is confirmed by single-crystal X-ray diffraction and chemical analysis.
##URL=rruff.info/R080142
##MEASURED CHEMISTRY=(Ca_0.96_Sr_0.02_)_Î£=0.98_CO_3_
93.30109, 0.0000000E+00
93.78320, 321.6861
94.26532, 318.5155
94.74744, 320.2524
95.22955, 326.1258
95.71167, 333.3662
96.19379, 335.5419
96.67590, 332.1743
97.15802, 328.6643
97.64014, 326.4439
98.12225, 324.5186
98.60437, 320.7433
99.08649, 313.5988
99.56860, 305.8415
100.0507, 301.5649
100.5328, 300.5962
101.0150, 300.6601
101.4971, 300.5680
101.9792, 300.3747
102.4613, 299.6545
102.9434, 297.6670
103.4255, 295.2718
103.9077, 292.7861
104.3898, 290.0753
104.8719, 287.8890
105.3540, 288.0437
105.8361, 292.4313
106.3182, 295.8959
106.8004, 297.3930
107.2825, 297.4511
107.7646, 296.6060
108.2467, 295.1208
108.7288, 293.0279
109.2109, 290.8291
109.6931, 287.2028
110.1752, 284.7331
110.6573, 284.8520
111.1394, 286.8807
111.6215, 289.0209
112.1036, 289.7187
112.5858, 288.7426
113.0679, 287.5041
113.5500, 285.9498
114.0321, 284.2052
114.5142, 282.1602
114.9964, 279.7995
115.4785, 277.6594
115.9606, 276.5026
116.4427, 276.2602
116.9248, 276.1902
117.4069, 276.1374
117.8891, 276.1414
118.3712, 276.2727
118.8533, 276.5133
119.3354, 276.9578
119.8175, 277.1827
120.2996, 277.2775
120.7818, 278.5778
121.2639, 282.8893
121.7460, 290.3679
122.2281, 296.5032
122.7102, 298.9709
123.1923, 300.8211
123.6745, 303.2943
124.1566, 306.6882
124.6387, 310.9339
125.1208, 315.9730
125.6029, 321.8475
126.0850, 328.5709
126.5672, 335.2429
127.0493, 343.0011
127.5314, 352.9391
128.0135, 365.5129
128.4956, 379.9453
128.9777, 394.3936
129.4599, 406.4871
129.9420, 421.2598
130.4241, 440.5323
130.9062, 462.5394
131.3883, 484.9609
131.8704, 506.8025
132.3526, 527.8861
132.8347, 547.4820
133.3168, 564.4998
133.7989, 581.5457
134.2810, 600.6163
134.7632, 621.1797
135.2453, 640.2409
135.7274, 655.2065
136.2095, 667.2156
136.6916, 680.7764
137.1737, 696.2301
137.6559, 713.3035
138.1380, 732.0300
138.6201, 752.5967
139.1022, 774.1071
139.5843, 796.4214
140.0664, 819.4076
140.5486, 842.7604
141.0307, 866.7512
141.5128, 891.0402
141.9949, 914.3849
142.4770, 937.2845
142.9591, 958.3584
143.4413, 977.4039
143.9234, 994.4371
144.4055, 1009.494
144.8876, 1021.962
145.3697, 1031.793
145.8518, 1043.054
146.3340, 1056.327
146.8161, 1070.637
147.2982, 1085.789
147.7803, 1101.772
148.2624, 1118.747
148.7445, 1137.319
149.2267, 1158.349
149.7088, 1176.593
150.1909, 1195.084
150.6730, 1209.294
151.1551, 1217.060
151.6372, 1217.933
152.1194, 1212.570
152.6015, 1202.172
153.0836, 1187.667
153.5657, 1161.335
154.0478, 1119.523
154.5299, 1067.682
155.0121, 1009.292
155.4942, 944.8957
155.9763, 878.5447
156.4584, 815.7690
156.9405, 756.0395
157.4226, 700.5524
157.9048, 648.5094
158.3869, 600.9924
158.8690, 560.7786
159.3511, 529.4883
159.8332, 504.6343
160.3153, 482.8183
160.7975, 463.9918
161.2796, 446.6216
161.7617, 429.6037
162.2438, 412.9474
162.7259, 398.1688
163.2081, 386.4091
163.6902, 376.1255
164.1723, 366.1021
164.6544, 356.1478
165.1365, 347.0858
165.6186, 340.0193
166.1008, 335.4699
166.5829, 330.7158
167.0650, 323.5705
167.5471, 317.1936
168.0292, 314.0667
168.5113, 314.7072
168.9935, 317.2697
169.4756, 318.6110
169.9577, 317.4856
170.4398, 317.5785
170.9219, 319.6360
171.4040, 322.5402
171.8862, 325.4059
172.3683, 327.8977
172.8504, 330.2362
173.3325, 332.9801
173.8146, 336.6528
174.2967, 340.1004
174.7789, 342.9898
175.2610, 345.7397
175.7431, 348.7878
176.2252, 352.3558
176.7073, 356.3813
177.1894, 360.6803
177.6716, 366.0526
178.1537, 370.7267
178.6358, 374.1419
179.1179, 376.6503
179.6000, 379.3440
180.0821, 383.2193
180.5643, 386.8976
181.0464, 386.0881
181.5285, 378.0860
182.0106, 370.3913
182.4927, 366.1274
182.9748, 365.0342
183.4570, 366.0358
183.9391, 368.9912
184.4212, 373.7619
184.9033, 379.5109
185.3854, 386.7152
185.8675, 394.0974
186.3497, 400.4267
186.8318, 405.6642
187.3139, 411.2577
187.7960, 418.4555
188.2781, 426.0983
188.7602, 432.9055
189.2424, 438.6107
189.7245, 443.5249
190.2066, 448.1065
190.6887, 452.4939
191.1708, 456.0150
191.6530, 457.9461
192.1351, 459.1685
192.6172, 460.0338
193.0993, 460.4526
193.5814, 461.3808
194.0635, 464.8719
194.5457, 471.9044
195.0278, 479.7437
195.5099, 488.2810
195.9920, 496.9277
196.4741, 504.6698
196.9562, 510.9503
197.4384, 516.9488
197.9205, 526.3865
198.4026, 543.0919
198.8847, 558.1039
199.3668, 570.4177
199.8489, 580.5103
200.3311, 588.2764
200.8132, 593.5617
201.2953, 597.5792
201.7774, 605.0614
202.2595, 620.5903
202.7416, 634.7374
203.2238, 646.8759
203.7059, 657.0635
204.1880, 666.1661
204.6701, 674.7863
205.1522, 681.9324
205.6343, 682.6969
206.1165, 677.3497
206.5986, 666.2712
207.0807, 647.7209
207.5628, 623.5328
208.0449, 596.4225
208.5270, 567.3284
209.0092, 537.0329
209.4913, 509.2343
209.9734, 483.4064
210.4555, 459.9631
210.9376, 439.5560
211.4197, 421.7646
211.9019, 405.1820
212.3840, 389.1396
212.8661, 374.2252
213.3482, 361.7392
213.8303, 352.5904
214.3124, 344.2297
214.7946, 335.4746
215.2767, 326.3900
215.7588, 317.6013
216.2409, 309.5919
216.7230, 301.8546
217.2052, 293.2964
217.6873, 283.6104
218.1694, 273.8394
218.6515, 264.5526
219.1336, 255.7267
219.6157, 247.7238
220.0979, 240.4422
220.5800, 234.3103
221.0621, 230.0471
221.5442, 228.1192
222.0263, 226.4873
222.5084, 222.8091
222.9906, 216.8091
223.4727, 211.6176
223.9548, 209.0449
224.4369, 207.2061
224.9190, 204.4480
225.4011, 200.3800
225.8833, 196.7062
226.3654, 195.9751
226.8475, 199.0533
227.3296, 200.8948
227.8117, 199.3849
228.2938, 196.9753
228.7760, 194.8375
229.2581, 193.2681
229.7402, 192.3561
230.2223, 192.4421
230.7044, 194.0283
231.1865, 194.9993
231.6687, 194.3910
232.1508, 193.6676
232.6329, 193.8514
233.1150, 195.0797
233.5971, 196.6279
234.0792, 197.3542
234.5614, 196.5518
235.0435, 196.7196
235.5256, 199.1062
236.0077, 201.4692
236.4898, 201.9571
236.9719, 200.4896
237.4541, 198.7763
237.9362, 199.2414
238.4183, 202.9958
238.9004, 206.3201
239.3825, 209.3823
239.8646, 211.9709
240.3468, 213.7973
240.8289, 214.9026
241.3110, 215.6292
241.7931, 216.3446
242.2752, 216.7988
242.7573, 218.0832
243.2395, 220.4288
243.7216, 223.2828
244.2037, 227.1790
244.6858, 231.7289
245.1679, 234.9073
245.6501, 234.0622
246.1322, 227.4552
246.6143, 224.0217
247.0964, 226.0111
247.5785, 229.1035
248.0606, 230.8248
248.5428, 230.8179
249.0249, 229.6028
249.5070, 227.4550
249.9891, 224.1326
250.4712, 221.7937
250.9533, 220.8221
251.4355, 220.4564
251.9176, 220.5172
252.3997, 220.8642
252.8818, 220.8545
253.3639, 219.8481
253.8460, 217.8061
254.3282, 216.1347
254.8103, 214.8986
255.2924, 213.9654
255.7745, 213.3238
256.2566, 212.9512
256.7387, 212.6755
257.2209, 212.2677
257.7030, 211.8765
258.1851, 212.1427
258.6672, 214.3481
259.1493, 216.1718
259.6314, 215.5662
260.1136, 212.7719
260.5957, 210.0963
261.0778, 208.8866
261.5599, 208.8414
262.0420, 208.7115
262.5241, 208.8551
263.0063, 208.4786
263.4884, 206.5197
263.9705, 203.2030
264.4526, 200.4846
264.9347, 199.2730
265.4168, 199.3320
265.8990, 199.9800
266.3811, 201.4524
266.8632, 202.9924
267.3453, 204.0939
267.8274, 204.7886
268.3095, 205.3423
268.7917, 205.8879
269.2738, 206.2702
269.7559, 206.1892
270.2380, 205.5090
270.7201, 205.0914
271.2022, 206.0959
271.6844, 208.1857
272.1665, 208.9442
272.6486, 207.0998
273.1307, 204.3547
273.6128, 202.3481
274.0949, 201.0736
274.5771, 200.2302
275.0592, 200.2214
275.5413, 200.7173
276.0234, 199.5639
276.5055, 195.1162
276.9876, 190.7044
277.4698, 189.0822
277.9519, 189.8153
278.4340, 190.6800
278.9161, 190.0343
279.3982, 188.3257
279.8803, 187.7139
280.3625, 189.1165
280.8446, 190.3757
281.3267, 190.2796
281.8088, 189.0898
282.2909, 187.3623
282.7730, 185.0670
283.2552, 182.4781
283.7373, 180.5419
284.2194, 179.4827
284.7015, 178.6926
285.1836, 178.3445
285.6658, 177.9564
286.1479, 176.6718
286.6300, 173.7726
287.1121, 170.0770
287.5942, 167.4063
288.0764, 165.8978
288.5585, 165.1619
289.0406, 166.5213
289.5227, 167.9320
290.0048, 166.7586
290.4869, 161.6259
290.9691, 155.1079
291.4512, 151.7352
291.9333, 152.4158
292.4154, 153.4013
292.8975, 153.9902
293.3796, 154.3296
293.8618, 154.5240
294.3439, 154.6005
294.8260, 154.4720
295.3081, 154.0133
295.7902, 153.1983
296.2723, 152.1814
296.7545, 150.8741
297.2366, 149.4402
297.7187, 147.7425
298.2008, 145.8672
298.6829, 144.3462
299.1650, 143.7020
299.6472, 143.9501
300.1293, 144.9156
300.6114, 147.7421
301.0935, 150.2701
301.5756, 151.6841
302.0577, 151.9683
302.5399, 151.3744
303.0220, 149.7982
303.5041, 147.3106
303.9862, 145.4729
304.4683, 144.7573
304.9504, 144.2009
305.4326, 143.3124
305.9147, 142.3306
306.3968, 141.7461
306.8789, 141.9406
307.3610, 142.7121
307.8431, 143.2446
308.3253, 143.7904
308.8074, 143.6171
309.2895, 141.6096
309.7716, 139.1918
310.2537, 138.3144
310.7358, 139.9761
311.2180, 142.8692
311.7001, 144.0118
312.1822, 142.6027
312.6643, 141.1753
313.1464, 139.7765
313.6285, 138.8069
314.1107, 138.9014
314.5928, 140.1771
315.0749, 141.6188
315.5570, 141.5325
316.0391, 139.2607
316.5212, 137.8713
317.0034, 138.5446
317.4855, 139.5064
317.9676, 139.8897
318.4497, 139.5910
318.9318, 138.9320
319.4139, 138.1171
319.8961, 137.1053
320.3782, 136.3592
320.8603, 136.0299
321.3424, 135.8583
321.8245, 135.8500
322.3066, 135.9272
322.7888, 135.9366
323.2709, 135.7706
323.7530, 135.4404
324.2351, 135.0086
324.7172, 134.2545
325.1993, 133.7219
325.6815, 133.6975
326.1636, 133.9368
326.6457, 134.1944
327.1278, 134.4339
327.6099, 134.4034
328.0920, 133.1716
328.5742, 129.4747
329.0563, 127.3844
329.5384, 129.1032
330.0205, 131.9366
330.5026, 133.4743
330.9847, 133.0346
331.4669, 131.9403
331.9490, 132.2454
332.4311, 134.4697
332.9132, 135.8044
333.3953, 135.2878
333.8774, 134.1470
334.3596, 132.5741
334.8417, 130.7944
335.3238, 129.5660
335.8059, 130.0008
336.2880, 132.1359
336.7701, 133.3279
337.2523, 133.0715
337.7344, 132.2832
338.2165, 130.4550
338.6986, 128.4146
339.1807, 128.1644
339.6628, 132.1289
340.1450, 138.5144
340.6271, 140.0227
341.1092, 133.5994
341.5913, 128.1567
342.0735, 127.8895
342.5556, 130.1391
343.0377, 131.7403
343.5198, 131.4406
344.0019, 130.2850
344.4840, 129.9935
344.9662, 130.7956
345.4483, 131.4403
345.9304, 131.1187
346.4125, 130.7597
346.8946, 131.1796
347.3767, 132.5012
347.8589, 133.8483
348.3410, 134.3825
348.8231, 134.1211
349.3052, 133.6770
349.7873, 133.1547
350.2694, 132.4094
350.7516, 131.1584
351.2337, 129.5528
351.7158, 128.2384
352.1979, 127.7578
352.6800, 127.8716
353.1621, 127.8377
353.6443, 127.6936
354.1264, 127.2807
354.6085, 126.2545
355.0906, 124.9545
355.5727, 123.8612
356.0548, 122.8970
356.5370, 122.4881
357.0191, 123.7317
357.5012, 126.8547
357.9833, 129.0017
358.4654, 128.1218
358.9475, 126.1318
359.4297, 125.4380
359.9118, 126.4938
360.3939, 127.6545
360.8760, 127.4510
361.3581, 126.2047
361.8402, 125.6732
362.3224, 126.6543
362.8045, 127.8370
363.2866, 127.8352
363.7687, 126.7601
364.2508, 125.4269
364.7329, 123.3551
365.2151, 121.4676
365.6972, 121.7528
366.1793, 124.7258
366.6614, 127.7299
367.1435, 128.4626
367.6256, 127.6163
368.1078, 127.3588
368.5899, 128.8481
369.0720, 130.2858
369.5541, 129.8050
370.0362, 127.7188
370.5183, 126.2166
371.0005, 126.6505
371.4826, 127.9917
371.9647, 127.7944
372.4468, 125.4067
372.9289, 123.3237
373.4110, 122.8104
373.8932, 123.1996
374.3753, 123.2976
374.8574, 122.7830
375.3395, 121.9880
375.8216, 121.1858
376.3037, 120.3072
376.7859, 120.1165
377.2680, 121.3131
377.7501, 122.8032
378.2322, 123.8125
378.7143, 124.2464
379.1964, 124.0686
379.6786, 123.0903
380.1607, 121.4272
380.6428, 120.3986
381.1249, 120.4017
381.6070, 120.5039
382.0891, 120.2611
382.5713, 119.8997
383.0534, 119.9844
383.5355, 120.8030
384.0176, 121.8597
384.4997, 122.0566
384.9818, 120.4024
385.4640, 119.5020
385.9461, 119.8718
386.4282, 120.7325
386.9103, 121.6506
387.3924, 122.4450
387.8745, 122.7922
388.3567, 122.2113
388.8388, 120.4382
389.3209, 119.6900
389.8030, 120.7022
390.2851, 121.8060
390.7672, 122.8525
391.2494, 123.4701
391.7315, 122.7836
392.2136, 120.1378
392.6957, 116.3917
393.1778, 114.9974
393.6599, 118.6930
394.1421, 120.9092
394.6242, 120.1364
395.1063, 118.2652
395.5884, 116.9177
396.0706, 116.5235
396.5527, 116.5654
397.0348, 116.3304
397.5169, 115.6659
397.9990, 115.3389
398.4811, 115.6064
398.9633, 115.9909
399.4454, 116.4150
399.9275, 116.8073
400.4096, 117.0726
400.8917, 117.1690
401.3738, 117.0739
401.8560, 116.5723
402.3381, 115.1230
402.8202, 114.3317
403.3023, 115.3980
403.7844, 116.9438
404.2665, 117.3180
404.7487, 115.9527
405.2308, 114.3911
405.7129, 114.7018
406.1950, 116.9986
406.6771, 119.1558
407.1592, 121.5592
407.6414, 122.8346
408.1235, 121.1620
408.6056, 117.1716
409.0877, 114.2486
409.5698, 115.4284
410.0519, 118.8934
410.5341, 120.0569
411.0162, 118.1997
411.4983, 116.4044
411.9804, 117.0511
412.4625, 118.8755
412.9446, 119.7895
413.4268, 119.2719
413.9089, 118.1078
414.3910, 116.4122
414.8731, 114.4344
415.3552, 113.5437
415.8373, 114.5449
416.3195, 116.2016
416.8016, 116.5530
417.2837, 115.5441
417.7658, 114.8373
418.2479, 115.3425
418.7300, 116.1299
419.2122, 115.9171
419.6943, 114.6222
420.1764, 113.4234
420.6585, 113.1990
421.1406, 113.9345
421.6227, 115.0204
422.1049, 117.7204
422.5870, 119.3853
423.0691, 118.0693
423.5512, 115.1459
424.0333, 113.1295
424.5154, 113.0435
424.9976, 114.0924
425.4797, 114.8700
425.9618, 115.6518
426.4439, 115.4699
426.9260, 112.9550
427.4081, 110.5643
427.8903, 110.2645
428.3724, 111.9123
428.8545, 114.0015
429.3366, 115.3700
429.8187, 116.0295
430.3008, 116.1061
430.7830, 114.9534
431.2651, 113.8978
431.7472, 113.4371
432.2293, 113.0715
432.7114, 111.7458
433.1935, 109.1373
433.6757, 106.8153
434.1578, 108.0968
434.6399, 114.8560
435.1220, 118.5521
435.6041, 115.1460
436.0862, 111.3723
436.5684, 110.4001
437.0505, 111.9298
437.5326, 114.0920
438.0147, 116.0383
438.4968, 117.5146
438.9789, 117.2573
439.4611, 114.2746
439.9432, 112.0741
440.4253, 112.9679
440.9074, 114.9981
441.3895, 116.0778
441.8716, 115.6371
442.3538, 115.0569
442.8359, 115.8229
443.3180, 117.6522
443.8001, 118.8155
444.2822, 118.9424
444.7643, 118.4059
445.2465, 117.0440
445.7286, 115.1308
446.2107, 114.1555
446.6928, 115.7958
447.1749, 117.7001
447.6570, 117.0573
448.1392, 114.0992
448.6213, 111.3611
449.1034, 110.0913
449.5855, 110.0183
450.0677, 110.5621
450.5498, 112.4592
451.0319, 113.3554
451.5140, 111.6420
451.9961, 109.0632
452.4782, 107.8513
452.9604, 108.3857
453.4425, 109.4248
453.9246, 109.5993
454.4067, 108.7051
454.8888, 109.2090
455.3709, 112.7084
455.8531, 115.6152
456.3352, 116.6243
456.8173, 116.1546
457.2994, 114.7775
457.7815, 112.7472
458.2636, 110.6176
458.7458, 109.6301
459.2279, 110.5193
459.7100, 111.0356
460.1921, 110.7483
460.6742, 110.4270
461.1563, 110.8109
461.6385, 111.6560
462.1206, 111.9163
462.6027, 110.4811
463.0848, 107.8543
463.5669, 106.8023
464.0490, 108.1463
464.5312, 109.4214
465.0133, 109.8019
465.4954, 109.7004
465.9775, 109.4509
466.4596, 109.1147
466.9417, 108.7939
467.4239, 108.5146
467.9060, 108.3053
468.3881, 108.4826
468.8702, 109.4477
469.3523, 110.1081
469.8344, 108.8790
470.3166, 106.5040
470.7987, 105.2400
471.2808, 106.9329
471.7629, 108.9661
472.2450, 108.5677
472.7271, 106.2443
473.2093, 104.6788
473.6914, 105.1556
474.1735, 106.6701
474.6556, 107.2258
475.1377, 106.4748
475.6198, 106.1087
476.1020, 106.4494
476.5841, 107.2267
477.0662, 108.5101
477.5483, 110.1165
478.0304, 111.2978
478.5125, 111.4059
478.9947, 110.5955
479.4768, 110.2307
479.9589, 111.5043
480.4410, 111.7446
480.9231, 109.6792
481.4052, 106.8960
481.8874, 104.8869
482.3695, 104.0668
482.8516, 104.1524
483.3337, 105.0456
483.8158, 106.9441
484.2979, 107.9386
484.7801, 107.1820
485.2622, 106.4416
485.7443, 106.4617
486.2264, 106.8704
486.7085, 107.0069
487.1906, 106.5463
487.6728, 105.8894
488.1549, 105.7793
488.6370, 106.2838
489.1191, 106.1240
489.6012, 104.4657
490.0833, 102.6761
490.5655, 102.0755
491.0476, 102.5010
491.5297, 102.8390
492.0118, 102.4259
492.4939, 101.8055
492.9760, 101.7147
493.4582, 102.1457
493.9403, 102.6353
494.4224, 102.9866
494.9045, 103.2115
495.3866, 103.2543
495.8687, 102.8129
496.3509, 102.9352
496.8330, 104.7681
497.3151, 106.7682
497.7972, 106.9866
498.2793, 105.3848
498.7614, 103.5840
499.2436, 102.9507
499.7257, 103.4311
500.2078, 104.0259
500.6899, 105.3945
501.1720, 106.0712
501.6541, 105.1263
502.1363, 103.7145
502.6184, 103.1125
503.1005, 103.6337
503.5826, 104.6375
504.0647, 105.5507
504.5468, 106.4692
505.0290, 106.2758
505.5111, 103.8850
505.9932, 101.7069
506.4753, 100.7184
506.9575, 100.5386
507.4396, 100.5431
507.9217, 100.4983
508.4038, 100.5859
508.8859, 101.2942
509.3680, 102.5534
509.8502, 102.9620
510.3323, 101.7406
510.8144, 100.3457
511.2965, 100.3119
511.7786, 101.4158
512.2607, 102.5814
512.7429, 104.1221
513.2250, 105.1595
513.7071, 104.8617
514.1892, 103.3683
514.6713, 101.0133
515.1534, 97.61285
515.6356, 94.37691
516.1177, 93.84663
516.5998, 97.75976
517.0819, 100.5485
517.5640, 101.5741
518.0461, 101.8425
518.5283, 101.9507
519.0104, 101.9272
519.4925, 101.4414
519.9746, 100.1750
520.4567, 98.56486
520.9388, 98.32713
521.4210, 100.3568
521.9031, 102.1128
522.3852, 103.9188
522.8673, 104.9273
523.3494, 104.0199
523.8315, 101.4862
524.3137, 99.04929
524.7958, 98.04459
525.2779, 98.18403
525.7600, 98.55972
526.2421, 99.23576
526.7242, 99.91426
527.2064, 100.6780
527.6885, 101.2412
528.1706, 101.1373
528.6527, 100.1975
529.1348, 99.35905
529.6169, 99.20809
530.0991, 99.42650
530.5812, 99.43894
531.0633, 99.18100
531.5454, 99.08789
532.0275, 99.58096
532.5096, 100.5160
532.9918, 100.8679
533.4739, 100.2000
533.9560, 99.60912
534.4381, 99.26433
534.9202, 99.13602
535.4023, 99.43520
535.8845, 100.0643
536.3666, 100.2872
536.8487, 99.18803
537.3308, 96.77098
537.8129, 95.52908
538.2950, 96.66203
538.7772, 97.42766
539.2593, 97.18652
539.7414, 96.29515
540.2235, 94.77299
540.7056, 92.69031
541.1877, 91.21809
541.6699, 91.95299
542.1520, 94.54143
542.6341, 96.65939
543.1162, 98.36832
543.5983, 99.03845
544.0804, 97.09254
544.5626, 94.04279
545.0447, 92.85952
545.5268, 94.78279
546.0089, 96.99165
546.4910, 97.63129
546.9731, 97.46677
547.4553, 98.41142
547.9374, 100.8964
548.4195, 102.5462
548.9016, 100.5871
549.3837, 94.87282
549.8658, 92.40443
550.3480, 95.50719
550.8301, 98.45705
551.3122, 100.0563
551.7943, 100.4652
552.2764, 99.72654
552.7585, 97.96761
553.2407, 95.78067
553.7228, 93.58151
554.2049, 91.27283
554.6870, 90.85103
555.1691, 93.59625
555.6512, 96.47440
556.1334, 98.95123
556.6155, 100.6781
557.0976, 100.9314
557.5797, 99.33852
558.0618, 97.65834
558.5439, 97.91344
559.0261, 99.45708
559.5082, 99.60233
559.9903, 97.65045
560.4724, 95.86540
560.9545, 96.50261
561.4366, 98.83775
561.9188, 99.16812
562.4009, 95.36818
562.8830, 92.19296
563.3651, 91.69643
563.8472, 92.75140
564.3293, 94.05795
564.8115, 95.24273
565.2936, 96.13561
565.7757, 96.54987
566.2578, 96.48579
566.7399, 96.27405
567.2220, 95.78430
567.7042, 95.29554
568.1863, 94.44596
568.6684, 93.84542
569.1505, 94.50354
569.6326, 96.46407
570.1147, 98.16969
570.5969, 97.78464
571.0790, 95.68268
571.5611, 94.24337
572.0432, 93.64782
572.5253, 93.25738
573.0074, 92.39140
573.4896, 91.71520
573.9717, 92.52806
574.4538, 95.57153
574.9359, 97.77367
575.4180, 97.11076
575.9001, 95.00607
576.3823, 93.15865
576.8644, 91.83707
577.3465, 91.24447
577.8286, 91.62537
578.3107, 92.77345
578.7928, 93.67281
579.2750, 94.02251
579.7571, 94.51635
580.2392, 95.59969
580.7213, 96.53297
581.2034, 96.61432
581.6855, 95.92009
582.1677, 95.08975
582.6498, 94.58325
583.1319, 94.32706
583.6140, 94.15025
584.0961, 94.17783
584.5782, 93.82314
585.0604, 92.17370
585.5425, 90.68468
586.0246, 90.76556
586.5067, 92.33960
586.9889, 93.96214
587.4710, 95.42731
587.9531, 96.34131
588.4352, 95.70126
588.9174, 93.85812
589.3995, 92.98637
