##NAMES=Arakiite
##RRUFFID=R060812
##IDEAL CHEMISTRY=Zn^2+^Mn^2+^_12_Fe^3+^_2_(As^3+^O_3_)(As^5+^O_4_)_2_(OH)_23_
##LOCALITY=Nordmark, Sweden
##OWNER=RRUFF
##SOURCE=Michael Scott
##DESCRIPTION=Deep red massive between grains
##STATUS=The identification of this mineral has been confirmed by single-crystal X-ray diffraction.
##URL=rruff.info/R060812
166.842, 3956.573
167.324, 3961.570
167.806, 3966.792
168.288, 3970.145
168.770, 3968.539
169.253, 3964.894
169.735, 3963.133
170.217, 3966.896
170.699, 3972.137
171.181, 3975.011
171.663, 3975.213
172.145, 3976.030
172.627, 3980.071
173.109, 3986.564
173.592, 3994.034
174.074, 4006.217
174.556, 4017.228
175.038, 4016.693
175.520, 4001.162
176.002, 3986.764
176.484, 3993.118
176.966, 4014.860
177.449, 4035.652
177.931, 4041.298
178.413, 4040.866
178.895, 4053.039
179.377, 4085.075
179.859, 4117.946
180.341, 4123.321
180.823, 4105.305
181.305, 4087.470
181.788, 4083.952
182.270, 4092.118
182.752, 4106.679
183.234, 4129.642
183.716, 4154.052
184.198, 4168.557
184.680, 4173.288
185.162, 4171.419
185.645, 4162.093
186.127, 4147.210
186.609, 4132.864
187.091, 4115.722
187.573, 4103.460
188.055, 4122.307
188.537, 4174.719
189.019, 4225.412
189.501, 4242.385
189.984, 4228.544
190.466, 4206.021
190.948, 4173.661
191.430, 4138.335
191.912, 4129.001
192.394, 4148.863
192.876, 4176.476
193.358, 4187.839
193.840, 4183.384
194.323, 4183.247
194.805, 4197.005
195.287, 4221.477
195.769, 4235.086
196.251, 4236.392
196.733, 4231.934
197.215, 4229.583
197.697, 4229.546
198.180, 4229.170
198.662, 4227.265
199.144, 4223.937
199.626, 4222.056
200.108, 4222.351
200.590, 4222.707
201.072, 4217.682
201.554, 4205.345
202.036, 4199.087
202.519, 4206.892
203.001, 4229.972
203.483, 4248.352
203.965, 4262.815
204.447, 4271.157
204.929, 4265.322
205.411, 4239.991
205.893, 4220.733
206.376, 4222.482
206.858, 4249.988
207.340, 4268.430
207.822, 4276.041
208.304, 4275.508
208.786, 4271.092
209.268, 4260.514
209.750, 4252.985
210.232, 4255.599
210.714, 4272.792
211.197, 4280.657
211.679, 4275.750
212.161, 4262.614
212.643, 4253.193
213.125, 4247.630
213.607, 4245.969
214.089, 4249.167
214.572, 4259.249
215.054, 4267.418
215.536, 4272.801
216.018, 4275.787
216.500, 4277.920
216.982, 4279.343
217.464, 4279.150
217.946, 4275.648
218.428, 4265.771
218.911, 4260.981
219.393, 4263.155
219.875, 4271.104
220.357, 4280.211
220.839, 4292.953
221.321, 4303.209
221.803, 4305.715
222.285, 4294.508
222.767, 4291.137
223.250, 4301.196
223.732, 4322.232
224.214, 4336.050
224.696, 4341.687
225.178, 4341.846
225.660, 4337.139
226.142, 4322.792
226.624, 4314.583
227.107, 4316.091
227.589, 4326.371
228.071, 4334.108
228.553, 4334.814
229.035, 4338.225
229.517, 4353.589
229.999, 4391.957
230.481, 4419.566
230.963, 4428.960
231.445, 4421.140
231.928, 4416.213
232.410, 4414.292
232.892, 4415.163
233.374, 4419.296
233.856, 4429.804
234.338, 4437.380
234.820, 4439.269
235.303, 4435.633
235.785, 4436.719
236.267, 4446.364
236.749, 4456.870
237.231, 4461.638
237.713, 4460.273
238.195, 4453.494
238.677, 4437.309
239.159, 4411.688
239.641, 4401.282
240.124, 4412.713
240.606, 4432.965
241.088, 4450.209
241.570, 4462.697
242.052, 4475.557
242.534, 4492.830
243.016, 4514.907
243.498, 4519.912
243.981, 4496.006
244.463, 4466.199
244.945, 4453.235
245.427, 4464.975
245.909, 4479.023
246.391, 4493.247
246.873, 4507.789
247.355, 4513.643
247.837, 4506.474
248.320, 4494.641
248.802, 4486.342
249.284, 4483.326
249.766, 4480.495
250.248, 4475.841
250.730, 4469.166
251.212, 4470.269
251.694, 4488.048
252.176, 4504.887
252.659, 4500.684
253.141, 4460.915
253.623, 4430.296
254.105, 4418.668
254.587, 4426.589
255.069, 4438.375
255.551, 4455.613
256.033, 4475.121
256.516, 4495.469
256.998, 4521.614
257.480, 4536.917
257.962, 4532.645
258.444, 4508.307
258.926, 4503.658
259.408, 4529.545
259.890, 4561.288
260.372, 4570.602
260.855, 4544.407
261.337, 4528.513
261.819, 4536.530
262.301, 4567.960
262.783, 4585.407
263.265, 4583.284
263.747, 4575.091
264.229, 4575.567
264.711, 4589.951
265.194, 4597.590
265.676, 4593.029
266.158, 4576.993
266.640, 4557.541
267.122, 4529.738
267.604, 4507.377
268.086, 4507.975
268.569, 4540.126
269.051, 4565.192
269.533, 4574.716
270.015, 4569.893
270.497, 4561.678
270.979, 4547.598
271.461, 4535.634
271.943, 4534.857
272.425, 4547.750
272.908, 4559.694
273.390, 4566.732
273.872, 4570.101
274.354, 4579.835
274.836, 4598.490
275.318, 4616.994
275.800, 4626.080
276.282, 4624.255
276.764, 4624.187
277.247, 4630.262
277.729, 4639.761
278.211, 4636.873
278.693, 4618.235
279.175, 4599.483
279.657, 4595.251
280.139, 4606.383
280.621, 4616.605
281.103, 4623.276
281.586, 4626.688
282.068, 4626.448
282.550, 4621.550
283.032, 4618.465
283.514, 4624.660
283.996, 4639.922
284.478, 4651.441
284.960, 4658.089
285.443, 4658.895
285.925, 4647.719
286.407, 4623.699
286.889, 4601.005
287.371, 4590.151
287.853, 4590.347
288.335, 4594.777
288.817, 4602.917
289.299, 4614.132
289.782, 4630.627
290.264, 4652.050
290.746, 4667.164
291.228, 4664.142
291.710, 4646.861
292.192, 4632.449
292.674, 4623.175
293.156, 4617.971
293.638, 4617.249
294.121, 4620.531
294.603, 4622.185
295.085, 4614.817
295.567, 4603.010
296.049, 4601.415
296.531, 4614.744
297.013, 4631.105
297.496, 4630.728
297.978, 4617.241
298.460, 4608.465
298.942, 4625.180
299.424, 4651.990
299.906, 4654.770
300.388, 4624.735
300.870, 4591.572
301.352, 4591.264
301.835, 4616.212
302.317, 4642.350
302.799, 4656.646
303.281, 4664.698
303.763, 4674.833
304.245, 4687.917
304.727, 4699.624
305.209, 4703.753
305.691, 4703.220
306.174, 4704.462
306.656, 4713.578
307.138, 4724.250
307.620, 4730.056
308.102, 4730.594
308.584, 4729.175
309.066, 4724.356
309.548, 4719.944
310.030, 4722.000
310.513, 4740.048
310.995, 4760.537
311.477, 4774.789
311.959, 4782.520
312.441, 4784.597
312.923, 4775.357
313.405, 4762.575
313.887, 4755.488
314.370, 4762.353
314.852, 4771.104
315.334, 4775.261
315.816, 4775.158
316.298, 4775.781
316.780, 4787.768
317.262, 4797.495
317.744, 4793.138
318.226, 4746.249
318.709, 4709.946
319.191, 4708.458
319.673, 4735.851
320.155, 4759.395
320.637, 4767.702
321.119, 4770.032
321.601, 4772.225
322.083, 4777.309
322.565, 4779.676
323.048, 4773.379
323.530, 4762.383
324.012, 4760.209
324.494, 4770.743
324.976, 4789.148
325.458, 4815.291
325.940, 4869.404
326.422, 4898.522
326.905, 4878.125
327.387, 4830.452
327.869, 4807.505
328.351, 4838.919
328.833, 4869.171
329.315, 4878.981
329.797, 4853.451
330.279, 4843.904
330.762, 4860.999
331.244, 4890.075
331.726, 4907.460
332.208, 4905.373
332.690, 4903.140
333.172, 4907.804
333.654, 4922.190
334.136, 4925.229
334.618, 4906.996
335.100, 4887.069
335.583, 4892.143
336.065, 4938.557
336.547, 4970.190
337.029, 4968.604
337.511, 4934.736
337.993, 4920.031
338.475, 4929.951
338.957, 4948.019
339.440, 4961.225
339.922, 4970.215
340.404, 4968.652
340.886, 4949.503
341.368, 4920.087
341.850, 4914.074
342.332, 4935.339
342.814, 4961.965
343.297, 4977.566
343.779, 4982.600
344.261, 4985.839
344.743, 4988.415
345.225, 4990.441
345.707, 4992.646
346.189, 4995.157
346.671, 4995.774
347.153, 4986.980
347.635, 4973.843
348.118, 4979.013
348.600, 5008.179
349.082, 5044.785
349.564, 5068.084
350.046, 5079.286
350.528, 5083.778
351.010, 5078.228
351.492, 5069.360
351.975, 5071.862
352.457, 5087.903
352.939, 5102.136
353.421, 5095.540
353.903, 5076.237
354.385, 5061.538
354.867, 5064.061
355.349, 5071.709
355.832, 5070.526
356.314, 5060.984
356.796, 5055.633
357.278, 5068.735
357.760, 5089.479
358.242, 5104.135
358.724, 5103.242
359.206, 5100.338
359.688, 5104.907
360.171, 5114.995
360.653, 5120.986
361.135, 5110.755
361.617, 5099.102
362.099, 5098.045
362.581, 5118.799
363.063, 5136.104
363.545, 5138.444
364.027, 5131.199
364.510, 5127.810
364.992, 5135.418
365.474, 5144.555
365.956, 5151.380
366.438, 5155.612
366.920, 5157.300
367.402, 5154.967
367.884, 5150.622
368.366, 5147.222
368.849, 5144.909
369.331, 5143.709
369.813, 5143.779
370.295, 5145.229
370.777, 5147.277
371.259, 5150.061
371.741, 5153.318
372.224, 5157.337
372.706, 5165.022
373.188, 5166.943
373.670, 5155.946
374.152, 5135.279
374.634, 5137.552
375.116, 5173.162
375.598, 5211.571
376.080, 5231.681
376.562, 5231.404
377.045, 5220.160
377.527, 5192.967
378.009, 5160.315
378.491, 5154.410
378.973, 5179.074
379.455, 5203.340
379.937, 5205.182
380.419, 5187.414
380.902, 5186.706
381.384, 5208.708
381.866, 5236.141
382.348, 5241.254
382.830, 5227.282
383.312, 5217.118
383.794, 5223.862
384.276, 5240.893
384.759, 5253.470
385.241, 5261.280
385.723, 5267.575
386.205, 5275.406
386.687, 5283.597
387.169, 5289.392
387.651, 5286.923
388.133, 5286.162
388.615, 5301.976
389.098, 5331.078
389.580, 5355.866
390.062, 5363.518
390.544, 5361.920
391.026, 5358.134
391.508, 5352.633
391.990, 5347.654
392.472, 5343.139
392.954, 5340.255
393.437, 5341.305
393.919, 5351.421
394.401, 5362.646
394.883, 5371.545
395.365, 5377.798
395.847, 5381.646
396.329, 5384.222
396.811, 5384.067
397.293, 5379.479
397.776, 5346.451
398.258, 5333.289
398.740, 5365.254
399.222, 5444.383
399.704, 5487.190
400.186, 5470.159
400.668, 5434.534
401.151, 5404.875
401.633, 5374.205
402.115, 5362.970
402.597, 5382.089
403.079, 5420.314
403.561, 5439.092
404.043, 5430.051
404.525, 5418.632
405.007, 5418.132
405.490, 5432.069
405.972, 5437.347
406.454, 5431.398
406.936, 5421.264
407.418, 5416.435
407.900, 5416.975
408.382, 5422.687
408.864, 5439.795
409.346, 5462.158
409.828, 5456.645
410.311, 5420.483
410.793, 5383.175
411.275, 5371.903
411.757, 5382.294
412.239, 5399.115
412.721, 5422.216
413.203, 5445.474
413.685, 5460.863
414.168, 5468.569
414.650, 5469.773
415.132, 5460.907
415.614, 5447.517
416.096, 5436.860
416.578, 5430.317
417.060, 5423.809
417.542, 5412.645
418.025, 5399.646
418.507, 5389.672
418.989, 5382.316
419.471, 5380.333
419.953, 5388.570
420.435, 5407.125
420.917, 5421.104
421.399, 5426.269
421.881, 5424.173
422.364, 5416.077
422.846, 5385.749
423.328, 5368.387
423.810, 5380.651
424.292, 5413.438
424.774, 5429.465
425.256, 5405.463
425.738, 5384.667
426.220, 5385.987
426.703, 5422.459
427.185, 5445.662
427.667, 5451.298
428.149, 5446.330
428.631, 5438.631
429.113, 5423.104
429.595, 5418.310
430.077, 5434.542
430.560, 5468.524
431.042, 5481.664
431.524, 5468.924
432.006, 5451.043
432.488, 5445.890
432.970, 5453.151
433.452, 5462.402
433.934, 5473.501
434.417, 5483.748
434.899, 5486.491
435.381, 5482.549
435.863, 5479.837
436.345, 5485.559
436.827, 5495.343
437.309, 5497.837
437.791, 5491.071
438.273, 5488.146
438.755, 5509.126
439.238, 5541.543
439.720, 5562.927
440.202, 5553.689
440.684, 5538.228
441.166, 5533.692
441.648, 5538.978
442.130, 5546.625
442.612, 5557.041
443.095, 5565.948
443.577, 5570.208
444.059, 5569.671
444.541, 5563.753
445.023, 5541.811
445.505, 5515.288
445.987, 5506.731
446.469, 5546.555
446.952, 5578.969
447.434, 5583.721
447.916, 5554.699
448.398, 5536.972
448.880, 5534.552
449.362, 5540.267
449.844, 5548.937
450.326, 5563.076
450.808, 5573.595
451.290, 5577.481
451.773, 5577.274
452.255, 5584.565
452.737, 5602.711
453.219, 5615.826
453.701, 5609.923
454.183, 5585.834
454.665, 5578.800
455.147, 5593.506
455.630, 5612.720
456.112, 5609.152
456.594, 5587.776
457.076, 5577.177
457.558, 5598.079
458.040, 5629.482
458.522, 5633.023
459.004, 5611.166
459.487, 5588.195
459.969, 5571.913
460.451, 5568.277
460.933, 5589.687
461.415, 5650.295
461.897, 5705.976
462.379, 5729.614
462.861, 5728.632
463.343, 5717.592
463.826, 5686.192
464.308, 5659.772
464.790, 5651.934
465.272, 5664.978
465.754, 5678.769
466.236, 5689.335
466.718, 5698.961
467.200, 5709.269
467.682, 5720.875
468.165, 5732.373
468.647, 5743.269
469.129, 5754.015
469.611, 5766.231
470.093, 5780.963
470.575, 5795.105
471.057, 5807.642
471.539, 5818.439
472.022, 5828.055
472.504, 5837.555
472.986, 5843.381
473.468, 5838.038
473.950, 5821.541
474.432, 5811.337
474.914, 5812.703
475.396, 5822.313
475.878, 5832.650
476.361, 5844.044
476.843, 5859.333
477.325, 5890.880
477.807, 5925.116
478.289, 5931.930
478.771, 5903.134
479.253, 5876.465
479.735, 5890.376
480.217, 5927.601
480.700, 5959.260
481.182, 5967.715
481.664, 5971.888
482.146, 5979.769
482.628, 5991.494
483.110, 6008.060
483.592, 6031.224
484.074, 6057.868
484.556, 6086.975
485.039, 6123.586
485.521, 6152.035
486.003, 6167.436
486.485, 6174.866
486.967, 6180.847
487.449, 6179.270
487.931, 6186.230
488.414, 6210.475
488.896, 6250.672
489.378, 6272.297
489.860, 6268.119
490.342, 6263.344
490.824, 6281.579
491.306, 6324.875
491.788, 6350.582
492.270, 6350.230
492.753, 6340.634
493.235, 6353.954
493.717, 6386.524
494.199, 6411.883
494.681, 6409.270
495.163, 6393.988
495.645, 6389.337
496.127, 6395.494
496.609, 6418.291
497.092, 6481.642
497.574, 6556.068
498.056, 6605.254
498.538, 6611.238
499.020, 6608.190
499.502, 6611.333
499.984, 6619.142
500.466, 6628.491
500.948, 6637.955
501.431, 6649.211
501.913, 6664.518
502.395, 6684.780
502.877, 6700.164
503.359, 6701.627
503.841, 6703.715
504.323, 6717.497
504.805, 6757.959
505.288, 6779.258
505.770, 6771.134
506.252, 6746.808
506.734, 6739.556
507.216, 6755.302
507.698, 6763.108
508.180, 6742.606
508.662, 6700.556
509.145, 6697.751
509.627, 6739.364
510.109, 6777.762
510.591, 6757.629
511.073, 6697.398
511.555, 6655.499
512.037, 6647.102
512.519, 6652.831
513.001, 6652.941
513.484, 6649.713
513.966, 6648.895
514.448, 6658.042
514.930, 6667.112
515.412, 6668.497
515.894, 6661.763
516.376, 6652.333
516.858, 6644.657
517.341, 6633.703
517.823, 6615.113
518.305, 6569.086
518.787, 6541.086
519.269, 6551.309
519.751, 6580.191
520.233, 6588.768
520.715, 6561.705
521.197, 6538.907
521.680, 6533.843
522.162, 6546.196
522.644, 6548.754
523.126, 6539.584
523.608, 6526.164
524.090, 6513.548
524.572, 6501.689
525.054, 6491.606
525.536, 6483.937
526.019, 6476.292
526.501, 6467.343
526.983, 6456.015
527.465, 6437.436
527.947, 6395.566
528.429, 6352.922
528.911, 6339.559
529.393, 6352.996
529.875, 6369.758
530.358, 6387.185
530.840, 6394.890
531.322, 6380.617
531.804, 6330.567
532.286, 6287.259
532.768, 6276.307
533.250, 6277.942
533.732, 6264.855
534.214, 6213.360
534.697, 6169.208
535.179, 6141.052
535.661, 6127.971
536.143, 6119.648
536.625, 6119.731
537.107, 6118.868
537.589, 6110.033
538.071, 6091.117
538.554, 6081.947
539.036, 6085.786
539.518, 6092.157
540.000, 6084.348
540.482, 6064.465
540.964, 6051.308
541.446, 6052.440
541.928, 6060.359
542.411, 6062.278
542.893, 6059.558
543.375, 6059.132
543.857, 6075.876
544.339, 6090.709
544.821, 6080.538
545.303, 6040.340
545.785, 6003.421
546.268, 5988.570
546.750, 5984.091
547.232, 5978.668
547.714, 5968.889
548.196, 5959.222
548.678, 5949.317
549.160, 5940.048
549.642, 5934.300
550.124, 5939.867
550.606, 5937.242
551.089, 5916.337
551.571, 5876.526
552.053, 5850.987
552.535, 5840.840
553.017, 5842.399
553.499, 5862.415
553.981, 5898.281
554.463, 5904.778
554.945, 5869.107
555.428, 5821.508
555.910, 5808.760
556.392, 5821.778
556.874, 5831.242
557.356, 5817.446
557.838, 5798.667
558.320, 5795.197
558.802, 5804.586
559.284, 5810.978
559.767, 5799.273
560.249, 5786.537
560.731, 5786.675
561.213, 5808.740
561.695, 5821.711
562.177, 5813.030
562.659, 5795.168
563.141, 5781.882
563.624, 5772.008
564.106, 5768.938
564.588, 5774.571
565.070, 5786.824
565.552, 5801.444
566.034, 5821.680
566.516, 5831.863
566.998, 5818.536
567.481, 5785.949
567.963, 5769.068
568.445, 5768.546
568.927, 5775.433
569.409, 5783.051
569.891, 5791.714
570.373, 5804.065
570.855, 5824.077
571.338, 5838.685
571.820, 5824.297
572.302, 5797.155
572.784, 5787.856
573.266, 5841.427
573.748, 5884.411
574.230, 5872.284
574.712, 5810.030
575.194, 5767.867
575.677, 5776.978
576.159, 5792.643
576.641, 5792.897
577.123, 5767.388
577.605, 5760.875
578.087, 5780.401
578.569, 5810.009
579.051, 5832.580
579.533, 5848.076
580.016, 5858.013
580.498, 5863.704
580.980, 5862.629
581.462, 5841.697
581.944, 5804.851
582.426, 5779.446
582.908, 5790.360
583.390, 5816.669
583.872, 5832.009
584.355, 5835.831
584.837, 5831.887
585.319, 5813.664
585.801, 5793.582
586.283, 5783.962
586.765, 5794.146
587.247, 5798.214
587.729, 5776.045
588.211, 5748.444
588.694, 5744.910
589.176, 5790.409
589.658, 5824.189
590.140, 5834.054
590.622, 5825.765
591.104, 5823.669
591.586, 5830.583
592.068, 5833.790
592.551, 5823.156
593.033, 5801.435
593.515, 5793.927
593.997, 5801.849
594.479, 5811.604
594.961, 5814.335
595.443, 5809.260
595.925, 5788.219
596.407, 5817.313
596.890, 5834.238
597.372, 5839.647
597.854, 5799.049
598.336, 5817.053
598.818, 5838.617
599.300, 5853.128
599.782, 5862.914
600.265, 5868.585
600.747, 5873.249
601.229, 5879.237
601.711, 5881.724
602.193, 5876.404
602.675, 5860.571
603.157, 5858.393
603.639, 5874.856
604.121, 5893.908
604.604, 5898.830
605.086, 5890.302
605.568, 5886.070
606.050, 5889.307
606.532, 5895.728
607.014, 5900.938
607.496, 5904.509
607.978, 5905.240
608.460, 5896.241
608.943, 5889.306
609.425, 5895.384
609.907, 5912.482
610.389, 5931.969
610.871, 5956.188
611.353, 5976.887
611.835, 5988.390
612.317, 5988.070
612.799, 5990.403
613.282, 6001.069
613.764, 6010.331
614.246, 6008.570
614.728, 5988.352
615.210, 5985.271
615.692, 6008.387
616.174, 6039.042
616.656, 6041.748
617.138, 6018.320
617.621, 6001.527
618.103, 6003.895
618.585, 6017.206
619.067, 6031.723
619.549, 6046.171
620.031, 6054.897
620.513, 6041.827
620.995, 6030.437
621.477, 6047.511
621.960, 6096.333
622.442, 6129.666
622.924, 6110.411
623.406, 6083.560
623.888, 6082.205
624.370, 6141.779
624.852, 6168.076
625.334, 6143.137
625.817, 6098.885
626.299, 6080.196
626.781, 6092.458
627.263, 6103.508
627.745, 6107.899
628.227, 6105.929
628.709, 6097.189
629.191, 6082.071
629.674, 6063.917
630.156, 6037.331
630.638, 6012.888
631.120, 6011.574
631.602, 6031.221
632.084, 6043.751
632.566, 6024.823
633.048, 5997.184
633.531, 5977.361
634.013, 5968.608
634.495, 5966.795
634.977, 5972.988
635.459, 5985.022
635.941, 6002.138
636.423, 6034.205
636.905, 6049.961
637.387, 6043.448
637.870, 6021.564
638.352, 5992.321
638.834, 5954.099
639.316, 5934.703
639.798, 5952.963
640.280, 5990.669
640.762, 6006.100
641.244, 6002.131
641.726, 5996.834
642.209, 6010.785
642.691, 6023.521
643.173, 6008.661
643.655, 5962.191
644.137, 5927.739
644.619, 5927.248
645.101, 5943.094
645.583, 5962.637
646.065, 5990.909
646.548, 6012.031
647.030, 6025.050
647.512, 6031.248
647.994, 6030.438
648.476, 6020.174
648.958, 6012.621
649.440, 6009.155
649.922, 6010.452
650.404, 6021.013
650.887, 6039.441
651.369, 6054.807
651.851, 6059.615
652.333, 6059.447
652.815, 6064.001
653.297, 6071.690
653.779, 6071.418
654.261, 6044.286
654.744, 6016.854
655.226, 6007.270
655.708, 6020.247
656.190, 6038.118
656.672, 6073.628
657.154, 6101.928
657.636, 6101.818
658.118, 6058.575
658.601, 6032.627
659.083, 6031.663
659.565, 6041.466
660.047, 6040.186
660.529, 6028.683
661.011, 6019.512
661.493, 6015.253
661.975, 6016.711
662.458, 6030.024
662.940, 6051.035
663.422, 6066.725
663.904, 6067.061
664.386, 6063.154
664.868, 6061.691
665.350, 6062.716
665.832, 6063.450
666.314, 6070.237
666.797, 6069.839
667.279, 6050.784
667.761, 6004.053
668.243, 5990.446
668.725, 6023.927
669.207, 6064.706
669.689, 6073.680
670.171, 6052.104
670.653, 6045.503
671.135, 6060.673
671.618, 6082.795
672.100, 6100.011
672.582, 6109.661
673.064, 6104.173
673.546, 6069.015
674.028, 6036.931
674.510, 6037.547
674.992, 6056.975
675.474, 6065.591
675.957, 6041.544
676.439, 6019.944
676.921, 6011.389
677.403, 6014.412
677.885, 6022.231
678.367, 6040.389
678.849, 6050.844
679.331, 6038.823
679.814, 6007.547
680.296, 6002.248
680.778, 6024.322
681.260, 6052.356
681.742, 6074.331
682.224, 6087.954
682.706, 6083.179
683.188, 6055.363
683.670, 6035.035
684.153, 6052.586
684.635, 6084.072
685.117, 6104.919
685.599, 6103.241
686.081, 6099.670
686.563, 6096.302
687.045, 6093.479
687.528, 6091.667
688.010, 6091.308
688.492, 6091.605
688.974, 6092.961
689.456, 6094.611
689.938, 6092.988
690.420, 6088.409
690.902, 6087.375
691.384, 6093.670
691.867, 6104.790
692.349, 6117.364
