##NAMES=Arakiite
##RRUFFID=R060812
##IDEAL CHEMISTRY=Zn^2+^Mn^2+^_12_Fe^3+^_2_(As^3+^O_3_)(As^5+^O_4_)_2_(OH)_23_
##LOCALITY=Nordmark, Sweden
##OWNER=RRUFF
##SOURCE=Michael Scott
##DESCRIPTION=Deep red massive between grains
##STATUS=The identification of this mineral has been confirmed by single-crystal X-ray diffraction.
##URL=rruff.info/R060812
217.951, 13466.280
218.433, 13476.590
218.915, 13468.020
219.397, 13452.570
219.880, 13452.790
220.362, 13473.090
220.844, 13494.620
221.326, 13502.970
221.808, 13507.730
222.290, 13522.090
222.772, 13554.410
223.254, 13592.910
223.736, 13621.840
224.219, 13640.100
224.701, 13654.630
225.183, 13665.790
225.665, 13675.770
226.147, 13687.350
226.629, 13701.770
227.111, 13716.210
227.593, 13729.810
228.076, 13742.830
228.558, 13747.280
229.040, 13732.420
229.522, 13711.040
230.004, 13696.210
230.486, 13688.110
230.968, 13690.630
231.450, 13713.230
231.932, 13754.530
232.415, 13788.640
232.897, 13800.990
233.379, 13808.030
233.861, 13829.290
234.343, 13866.900
234.825, 13909.080
235.307, 13952.840
235.789, 13996.110
236.271, 14027.370
236.754, 14037.240
237.236, 14042.390
237.718, 14065.260
238.200, 14106.510
238.682, 14140.330
239.164, 14148.480
239.646, 14139.030
240.128, 14134.900
240.611, 14142.100
241.093, 14151.490
241.575, 14154.190
242.057, 14151.080
242.539, 14145.100
243.021, 14139.080
243.503, 14130.620
243.985, 14113.290
244.467, 14084.380
244.950, 14055.780
245.432, 14036.700
245.914, 14026.650
246.396, 14027.390
246.878, 14063.850
247.360, 14098.700
247.842, 14075.880
248.324, 13989.430
248.807, 13908.960
249.289, 13890.520
249.771, 13923.790
250.253, 13948.790
250.735, 13953.220
251.217, 13953.580
251.699, 13962.710
252.181, 13979.790
252.663, 13997.300
253.146, 14011.000
253.628, 14021.190
254.110, 14030.220
254.592, 14026.590
255.074, 14033.660
255.556, 14076.960
256.038, 14142.810
256.520, 14187.200
257.003, 14185.420
257.485, 14155.370
257.967, 14147.350
258.449, 14169.950
258.931, 14194.330
259.413, 14212.330
259.895, 14226.770
260.377, 14243.900
260.859, 14266.650
261.341, 14288.910
261.824, 14298.830
262.306, 14292.120
262.788, 14284.280
263.270, 14277.970
263.752, 14270.870
264.234, 14257.410
264.716, 14236.860
265.198, 14220.080
265.681, 14223.160
266.163, 14259.620
266.645, 14268.920
267.127, 14224.420
267.609, 14174.140
268.091, 14152.320
268.573, 14159.510
269.055, 14175.180
269.538, 14181.590
270.020, 14178.260
270.502, 14169.890
270.984, 14145.860
271.466, 14128.250
271.948, 14132.650
272.430, 14151.480
272.912, 14164.860
273.394, 14158.300
273.877, 14135.210
274.359, 14125.000
274.841, 14140.850
275.323, 14155.060
275.805, 14163.970
276.287, 14168.060
276.769, 14165.350
277.251, 14154.420
277.733, 14142.660
278.216, 14150.310
278.698, 14187.800
279.180, 14230.220
279.662, 14294.460
280.144, 14351.760
280.626, 14371.070
281.108, 14345.970
281.590, 14303.980
282.073, 14285.920
282.555, 14301.260
283.037, 14313.340
283.519, 14317.300
284.001, 14320.520
284.483, 14328.070
284.965, 14339.460
285.447, 14349.640
285.930, 14352.360
286.412, 14347.150
286.894, 14347.340
287.376, 14363.210
287.858, 14373.260
288.340, 14364.750
288.822, 14343.800
289.304, 14324.220
289.786, 14312.940
290.268, 14309.860
290.751, 14316.120
291.233, 14336.930
291.715, 14356.960
292.197, 14377.470
292.679, 14391.590
293.161, 14386.850
293.643, 14352.520
294.125, 14310.600
294.608, 14292.980
295.090, 14302.310
295.572, 14313.060
296.054, 14312.620
296.536, 14311.710
297.018, 14317.590
297.500, 14328.210
297.982, 14359.020
298.465, 14448.670
298.947, 14578.040
299.429, 14645.100
299.911, 14605.370
300.393, 14527.290
300.875, 14480.190
301.357, 14462.050
301.839, 14470.970
302.321, 14538.630
302.804, 14621.870
303.286, 14648.040
303.768, 14603.470
304.250, 14541.760
304.732, 14503.180
305.214, 14488.600
305.696, 14492.050
306.178, 14533.700
306.660, 14577.390
307.143, 14590.430
307.625, 14578.270
308.107, 14575.050
308.589, 14606.000
309.071, 14660.510
309.553, 14679.820
310.035, 14633.770
310.517, 14595.110
311.000, 14587.310
311.482, 14599.080
311.964, 14614.450
312.446, 14627.430
312.928, 14637.790
313.410, 14644.570
313.892, 14640.880
314.374, 14645.560
314.857, 14651.530
315.339, 14670.460
315.821, 14726.870
316.303, 14816.100
316.785, 14894.640
317.267, 14909.780
317.749, 14844.780
318.231, 14811.880
318.713, 14844.510
319.195, 14874.370
319.678, 14873.000
320.160, 14847.820
320.642, 14818.750
321.124, 14796.750
321.606, 14783.340
322.088, 14788.200
322.570, 14829.170
323.052, 14860.860
323.535, 14863.810
324.017, 14856.760
324.499, 14857.990
324.981, 14873.520
325.463, 14902.840
325.945, 14951.950
326.427, 15027.880
326.909, 15085.390
327.392, 15095.210
327.874, 15098.390
328.356, 15123.200
328.838, 15170.750
329.320, 15221.340
329.802, 15266.090
330.284, 15303.120
330.766, 15322.260
331.248, 15318.090
331.731, 15304.850
332.213, 15289.710
332.695, 15273.960
333.177, 15260.710
333.659, 15249.870
334.141, 15242.960
334.623, 15238.420
335.105, 15236.580
335.587, 15251.160
336.070, 15298.340
336.552, 15363.920
337.034, 15407.800
337.516, 15426.500
337.998, 15430.850
338.480, 15420.580
338.962, 15399.800
339.444, 15369.450
339.927, 15326.400
340.409, 15294.990
340.891, 15318.490
341.373, 15432.130
341.855, 15505.080
342.337, 15497.270
342.819, 15471.500
343.301, 15479.610
343.784, 15522.380
344.266, 15565.660
344.748, 15578.710
345.230, 15560.480
345.712, 15551.380
346.194, 15542.280
346.676, 15551.200
347.158, 15597.430
347.640, 15661.760
348.122, 15715.130
348.605, 15743.270
349.087, 15754.280
349.569, 15766.510
350.051, 15777.760
350.533, 15795.100
351.015, 15827.240
351.497, 15859.610
351.979, 15877.770
352.462, 15881.470
352.944, 15886.980
353.426, 15917.570
353.908, 15907.065
354.390, 15936.532
354.872, 15956.298
355.354, 15966.881
355.836, 15940.783
356.319, 15962.051
356.801, 15964.337
357.283, 15965.845
357.765, 15993.779
358.247, 15973.018
358.729, 15997.940
359.211, 15994.360
359.693, 16002.100
360.175, 16015.820
360.658, 16026.210
361.140, 16033.610
361.622, 16036.460
362.104, 16026.570
362.586, 16012.220
363.068, 16013.070
363.550, 16035.220
364.032, 16067.930
364.514, 16101.940
364.997, 16140.120
365.479, 16158.950
365.961, 16135.520
366.443, 16109.390
366.925, 16111.840
367.407, 16139.150
367.889, 16167.910
368.371, 16182.150
368.853, 16183.790
369.336, 16187.390
369.818, 16182.260
370.300, 16191.930
370.782, 16232.090
371.264, 16283.200
371.746, 16324.420
372.228, 16348.830
372.711, 16362.360
373.193, 16372.210
373.675, 16375.740
374.157, 16384.051
374.639, 16407.400
375.121, 16426.779
375.603, 16428.340
376.085, 16417.230
376.567, 16411.369
377.049, 16425.240
377.532, 16452.770
378.014, 16472.600
378.496, 16481.561
378.978, 16491.750
379.460, 16512.410
379.942, 16536.039
380.424, 16553.910
380.906, 16563.859
381.389, 16570.010
381.871, 16571.570
382.353, 16571.170
382.835, 16582.850
383.317, 16615.500
383.799, 16649.270
384.281, 16652.699
384.763, 16625.619
385.246, 16613.971
385.728, 16639.770
386.210, 16674.721
386.692, 16693.461
387.174, 16696.449
387.656, 16697.340
388.138, 16703.990
388.620, 16716.689
389.102, 16737.369
389.585, 16770.400
390.067, 16805.180
390.549, 16837.311
391.031, 16871.439
391.513, 16915.189
391.995, 16969.770
392.477, 17026.949
392.959, 17074.811
393.441, 17111.039
393.924, 17145.850
394.406, 17197.619
394.888, 17229.900
395.370, 17203.641
395.852, 17145.400
396.334, 17119.961
396.816, 17179.529
397.298, 17283.381
397.780, 17320.820
398.263, 17270.279
398.745, 17231.510
399.227, 17262.279
399.709, 17309.721
400.191, 17320.311
400.673, 17284.369
401.155, 17237.961
401.638, 17200.830
402.120, 17171.090
402.602, 17142.230
403.084, 17111.391
403.566, 17090.100
404.048, 17094.529
404.530, 17123.359
405.012, 17138.391
405.494, 17142.039
405.977, 17127.891
406.459, 17081.520
406.941, 17014.199
407.423, 16954.490
407.905, 16916.369
408.387, 16891.211
408.869, 16858.180
409.351, 16797.949
409.833, 16761.461
410.316, 16762.289
410.798, 16775.520
411.280, 16788.529
411.762, 16797.289
412.244, 16798.619
412.726, 16787.150
413.208, 16764.490
413.690, 16752.010
414.172, 16750.410
414.655, 16758.029
415.137, 16787.400
415.619, 16818.660
416.101, 16825.680
416.583, 16798.000
417.065, 16759.150
417.547, 16731.820
418.029, 16715.061
418.512, 16701.971
418.994, 16694.881
419.476, 16684.881
419.958, 16656.061
420.440, 16612.471
420.922, 16584.119
421.404, 16592.391
421.886, 16608.250
422.368, 16603.189
422.851, 16581.070
423.333, 16565.561
423.815, 16571.170
424.297, 16588.920
424.779, 16592.381
425.261, 16567.631
425.743, 16548.650
426.225, 16543.920
426.708, 16541.410
427.190, 16526.320
427.672, 16499.811
428.154, 16479.779
428.636, 16486.061
429.118, 16518.039
429.600, 16530.471
430.082, 16499.410
430.565, 16481.119
431.047, 16498.920
431.529, 16533.930
432.011, 16563.320
432.493, 16579.721
432.975, 16588.600
433.457, 16597.260
433.939, 16605.221
434.421, 16601.529
434.904, 16575.580
435.386, 16551.551
435.868, 16559.320
436.350, 16591.641
436.832, 16610.949
437.314, 16594.301
437.796, 16571.170
438.278, 16562.660
438.760, 16569.561
439.243, 16532.631
439.725, 16568.467
440.207, 16586.643
440.689, 16588.102
441.171, 16522.783
441.653, 16543.695
442.135, 16530.049
442.617, 16514.988
443.099, 16548.035
443.582, 16492.432
444.064, 16524.713
444.546, 16521.914
445.028, 16535.172
445.510, 16513.660
445.992, 16502.889
446.474, 16526.895
446.957, 16492.961
447.439, 16447.740
447.921, 16425.289
448.403, 16424.881
448.885, 16421.730
449.367, 16384.340
449.849, 16323.170
450.331, 16289.300
450.813, 16297.840
451.296, 16307.400
451.778, 16283.350
452.260, 16233.130
452.742, 16186.230
453.224, 16146.240
453.706, 16109.900
454.188, 16069.160
454.670, 16031.610
455.152, 16019.120
455.635, 16040.120
456.117, 16067.720
456.599, 16059.040
457.081, 15993.890
457.563, 15956.550
458.045, 15966.760
458.527, 15980.590
459.009, 15973.300
459.491, 15953.880
459.974, 15944.290
460.456, 15957.010
460.938, 15984.110
461.420, 16009.080
461.902, 16031.340
462.384, 16054.090
462.866, 16084.840
463.348, 16109.920
463.831, 16115.300
464.313, 16102.910
464.795, 16092.760
465.277, 16096.120
465.759, 16106.650
466.241, 16113.710
466.723, 16117.640
467.205, 16130.860
467.687, 16164.210
468.170, 16207.620
468.652, 16230.860
469.134, 16221.900
469.616, 16218.380
470.098, 16225.490
470.580, 16240.190
471.062, 16261.680
471.544, 16288.490
472.026, 16318.370
472.509, 16351.420
472.991, 16385.410
473.473, 16395.240
473.955, 16348.700
474.437, 16330.070
474.919, 16373.920
475.401, 16440.330
475.883, 16495.080
476.366, 16530.760
476.848, 16555.590
477.330, 16569.779
477.812, 16578.199
478.294, 16598.619
478.776, 16633.779
479.258, 16676.240
479.740, 16729.189
480.223, 16785.211
480.705, 16817.250
481.187, 16792.721
481.669, 16788.240
482.151, 16850.240
482.633, 16944.820
483.115, 17024.789
483.597, 17078.711
484.079, 17120.301
484.561, 17161.199
485.044, 17199.600
485.526, 17259.260
486.008, 17363.471
486.490, 17463.471
486.972, 17546.461
487.454, 17619.910
487.936, 17690.939
488.418, 17761.369
488.901, 17840.910
489.383, 17946.539
489.865, 18075.561
490.347, 18198.170
490.829, 18317.369
491.311, 18417.619
491.793, 18457.080
492.275, 18466.020
492.758, 18533.230
493.240, 18739.529
493.722, 18932.080
494.204, 18996.150
494.686, 18988.990
495.168, 19019.650
495.650, 19119.561
496.132, 19266.561
496.614, 19439.119
497.097, 19650.539
497.579, 19813.029
498.061, 19871.510
498.543, 19944.971
499.025, 20081.381
499.507, 20253.090
499.989, 20423.051
500.471, 20578.100
500.953, 20708.391
501.436, 20781.100
501.918, 20797.449
502.400, 20872.500
502.882, 21042.350
503.364, 21233.330
503.846, 21401.820
504.328, 21549.289
504.810, 21674.510
505.293, 21767.189
505.775, 21849.230
506.257, 21924.449
506.739, 22000.971
507.221, 22100.869
507.703, 22230.350
508.185, 22371.670
508.667, 22506.730
509.150, 22643.070
509.632, 22728.561
510.114, 22739.381
510.596, 22729.160
511.078, 22692.881
511.560, 22652.740
512.042, 22645.590
512.524, 22685.551
513.006, 22728.000
513.489, 22714.061
513.971, 22646.561
514.453, 22568.080
514.935, 22461.561
515.417, 22389.551
515.899, 22269.723
516.381, 22149.896
516.863, 22030.086
517.346, 21910.230
517.828, 21790.420
518.310, 21670.594
518.792, 21550.770
519.274, 21348.801
519.756, 21159.189
520.238, 20988.270
520.720, 20846.801
521.202, 20737.340
521.685, 20616.930
522.167, 20462.160
522.649, 20324.160
523.131, 20231.539
523.613, 20152.410
524.095, 20044.000
524.577, 19895.760
525.059, 19744.250
525.541, 19632.510
526.024, 19549.260
526.506, 19439.650
526.988, 19293.180
527.470, 19148.990
527.952, 19036.740
528.434, 18945.650
528.916, 18838.211
529.398, 18703.250
529.880, 18571.010
530.363, 18446.971
530.845, 18332.381
531.327, 18230.119
531.809, 18139.590
532.291, 18053.189
532.773, 17964.869
533.255, 17875.520
533.737, 17792.939
534.219, 17728.039
534.702, 17649.750
535.184, 17530.910
535.666, 17411.170
536.148, 17332.480
536.630, 17294.891
537.112, 17245.070
537.594, 17131.260
538.076, 16991.369
538.559, 16889.779
539.041, 16827.199
539.523, 16782.400
540.005, 16753.189
540.487, 16723.080
540.969, 16652.070
541.451, 16508.869
541.933, 16395.510
542.416, 16330.980
542.898, 16283.620
543.380, 16245.480
543.862, 16206.550
544.344, 16147.280
544.826, 16055.370
545.308, 15945.860
545.790, 15850.380
546.273, 15770.990
546.755, 15692.110
547.237, 15604.510
547.719, 15525.730
548.201, 15474.520
548.683, 15443.890
549.165, 15406.930
549.647, 15348.630
550.129, 15289.270
550.612, 15243.340
551.094, 15207.320
551.576, 15174.070
552.058, 15141.550
552.540, 15108.010
553.022, 15070.880
553.504, 15029.560
553.986, 14991.330
554.468, 14969.360
554.951, 14935.480
555.433, 14866.720
555.915, 14790.460
556.397, 14737.230
556.879, 14714.940
557.361, 14713.860
557.843, 14749.050
558.325, 14798.330
558.807, 14778.370
559.290, 14675.160
559.772, 14580.920
560.254, 14553.790
560.736, 14572.290
561.218, 14570.060
561.700, 14535.770
562.182, 14505.570
562.664, 14478.390
563.146, 14462.160
563.629, 14479.880
564.111, 14517.410
564.593, 14525.130
565.075, 14466.150
565.557, 14370.900
566.039, 14322.530
566.521, 14333.790
567.003, 14331.310
567.486, 14292.880
567.968, 14246.280
568.450, 14208.760
568.932, 14181.360
569.414, 14169.240
569.896, 14189.620
570.378, 14211.060
570.860, 14204.100
571.343, 14182.210
571.825, 14177.220
572.307, 14198.240
572.789, 14225.960
573.271, 14238.960
573.753, 14237.130
574.235, 14221.470
574.717, 14171.210
575.200, 14134.240
575.682, 14130.800
576.164, 14140.720
576.646, 14142.190
577.128, 14130.840
577.610, 14116.230
578.092, 14100.580
578.574, 14087.970
579.056, 14090.270
579.539, 14107.560
580.021, 14119.860
580.503, 14112.830
580.985, 14100.210
581.467, 14116.320
581.949, 14197.800
582.431, 14235.990
582.913, 14192.100
583.395, 14140.730
583.878, 14125.190
584.360, 14137.090
584.842, 14150.380
585.324, 14152.860
585.806, 14149.710
586.288, 14148.460
586.770, 14148.900
587.252, 14148.490
587.734, 14149.460
588.217, 14142.420
588.699, 14111.540
589.181, 14065.280
589.663, 14042.310
590.145, 14061.320
590.627, 14080.820
591.109, 14091.830
591.591, 14095.000
592.073, 14085.460
592.556, 14066.670
593.038, 14056.280
593.520, 14072.270
594.002, 14102.830
594.484, 14094.960
594.966, 14031.720
595.448, 13990.440
595.930, 14000.020
596.413, 14028.040
596.895, 14044.880
597.377, 14052.300
597.859, 14067.060
598.341, 14112.890
598.823, 14149.740
599.305, 14134.570
599.787, 14091.420
600.269, 14074.360
600.752, 14098.690
601.234, 14130.490
601.716, 14127.580
602.198, 14088.660
602.680, 14071.910
603.162, 14096.560
603.644, 14113.300
604.127, 14092.960
604.609, 14068.060
605.091, 14074.400
605.573, 14116.200
606.055, 14160.200
606.537, 14186.190
607.019, 14206.040
607.501, 14240.700
607.983, 14285.190
608.466, 14308.980
608.948, 14296.670
609.430, 14271.030
609.912, 14273.140
610.394, 14314.950
610.876, 14340.000
611.358, 14320.820
611.840, 14314.550
612.322, 14349.090
612.805, 14403.820
613.287, 14450.610
613.769, 14482.200
614.251, 14504.640
614.733, 14518.980
615.215, 14528.880
615.697, 14540.160
616.179, 14553.600
616.661, 14575.510
617.144, 14612.040
617.626, 14654.550
618.108, 14680.900
618.590, 14685.250
619.072, 14684.490
619.554, 14670.380
620.036, 14659.760
620.518, 14662.220
621.000, 14674.200
621.483, 14689.400
621.965, 14706.300
622.447, 14719.850
622.929, 14719.260
623.411, 14710.550
623.893, 14718.000
624.375, 14745.870
624.857, 14770.860
625.340, 14778.150
625.822, 14770.040
626.304, 14755.220
626.786, 14732.050
627.268, 14704.080
627.750, 14669.780
628.232, 14632.450
628.714, 14595.800
629.196, 14558.000
629.679, 14511.520
630.161, 14449.190
630.643, 14389.590
631.125, 14360.800
631.607, 14357.540
632.089, 14354.230
632.571, 14349.210
633.054, 14328.470
633.536, 14275.150
634.018, 14197.550
634.500, 14140.990
634.982, 14112.670
635.464, 14094.290
635.946, 14092.110
636.428, 14092.980
636.910, 14091.720
637.393, 14084.870
637.875, 14065.560
638.357, 14027.710
638.839, 13981.870
639.321, 13941.220
639.803, 13905.710
640.285, 13879.940
640.767, 13866.880
641.250, 13850.970
641.732, 13814.950
642.214, 13763.890
642.696, 13737.820
643.178, 13774.380
643.660, 13782.460
644.142, 13725.560
644.624, 13657.920
645.106, 13620.360
645.589, 13611.790
646.071, 13612.810
646.553, 13617.550
647.035, 13615.830
647.517, 13580.200
647.999, 13519.470
648.481, 13497.040
648.963, 13531.490
649.445, 13568.710
649.928, 13562.460
650.410, 13518.880
650.892, 13486.380
651.374, 13451.430
651.856, 13445.650
652.338, 13501.940
652.820, 13564.210
653.302, 13591.380
653.784, 13585.500
654.267, 13566.790
654.749, 13539.150
655.231, 13517.700
655.713, 13532.960
656.195, 13574.460
656.677, 13591.400
657.159, 13572.360
657.641, 13546.870
658.123, 13537.920
658.606, 13543.090
659.088, 13547.860
659.570, 13555.200
660.052, 13557.850
660.534, 13555.880
661.016, 13548.970
661.498, 13533.070
661.981, 13512.070
662.463, 13496.770
662.945, 13493.720
663.427, 13494.120
663.909, 13487.140
664.391, 13476.160
664.873, 13469.920
665.355, 13469.930
665.837, 13478.110
666.320, 13499.090
666.802, 13526.070
667.284, 13529.410
667.766, 13484.210
668.248, 13460.740
668.730, 13480.170
669.212, 13503.400
669.694, 13512.370
670.177, 13508.490
670.659, 13497.810
671.141, 13480.710
671.623, 13461.670
672.105, 13435.030
672.587, 13411.860
673.069, 13421.720
673.551, 13462.520
674.033, 13492.010
674.516, 13483.130
674.998, 13447.240
675.480, 13411.340
675.962, 13367.560
676.444, 13348.320
676.926, 13375.910
677.408, 13404.080
677.890, 13410.630
678.372, 13402.650
678.855, 13394.380
679.337, 13392.060
679.819, 13377.250
680.301, 13316.700
680.783, 13254.970
681.265, 13252.580
681.747, 13297.970
682.229, 13338.820
682.711, 13349.390
683.194, 13338.820
683.676, 13318.060
684.158, 13285.080
684.640, 13266.050
685.122, 13268.960
685.604, 13269.170
686.086, 13245.930
686.568, 13217.060
687.050, 13214.560
687.533, 13245.460
688.015, 13272.750
688.497, 13292.120
688.979, 13301.440
689.461, 13295.100
689.943, 13278.820
690.425, 13258.130
690.907, 13236.170
691.390, 13226.040
691.872, 13256.460
692.354, 13314.160
692.836, 13319.040
693.318, 13262.920
693.800, 13232.880
694.282, 13270.220
694.764, 13336.370
695.247, 13381.400
695.729, 13405.520
696.211, 13401.450
696.693, 13330.660
697.175, 13278.850
697.657, 13285.860
698.139, 13317.680
698.621, 13336.650
699.104, 13337.770
699.586, 13339.990
700.068, 13360.370
700.550, 13385.990
701.032, 13401.130
701.514, 13405.120
701.996, 13387.770
702.478, 13344.940
702.960, 13311.170
703.443, 13325.090
703.925, 13380.030
704.407, 13401.550
704.889, 13366.720
705.371, 13339.630
705.853, 13328.460
706.335, 13328.620
706.817, 13340.850
707.299, 13362.540
707.782, 13385.660
708.264, 13408.650
708.746, 13431.070
709.228, 13452.250
709.710, 13472.910
710.192, 13497.320
710.674, 13523.250
711.156, 13537.490
711.638, 13530.160
712.121, 13514.300
712.603, 13519.550
713.085, 13547.940
713.567, 13571.210
714.049, 13579.130
714.531, 13600.370
715.013, 13663.340
715.495, 13747.650
715.977, 13802.880
