##NAMES=Arakiite
##RRUFFID=R070172
##IDEAL CHEMISTRY=Zn^2+^Mn^2+^_12_Fe^3+^_2_(As^3+^O_3_)(As^5+^O_4_)_2_(OH)_23_
##LOCALITY=Langban, Filipstad, Varmland, Sweden
##OWNER=RRUFF
##SOURCE=Michael Scott
##DESCRIPTION=Reddish brown platey crystals associated with colorless calcite
##STATUS=The identification of this mineral is confirmed by single-crystal X-ray diffraction and chemical analysis.
##URL=rruff.info/R070172
##MEASURED CHEMISTRY=(Zn_0.83_Mn^2+^_0.17_)_Σ=1_(Mn^2+^_9.20_Mg_2.80_)_Σ=12_(Fe^3+^_1.97_Mn^3+^_0.03_)_Σ=2_As_1.00_O_3_(As_1.00_O_4_)_2_(OH)_23_; OH estimated by difference and charge balance
183.3885, 18.71525
183.8706, 18.53351
184.3528, 18.37956
184.8349, 18.32850
185.3170, 18.37552
185.7991, 18.47121
186.2812, 18.65364
186.7633, 18.87086
187.2455, 18.91824
187.7276, 18.70941
188.2097, 18.38939
188.6918, 18.21399
189.1739, 18.18405
189.6560, 18.22880
190.1382, 18.33574
190.6203, 18.48945
191.1024, 18.59289
191.5845, 18.62674
192.0666, 18.60259
192.5487, 18.51216
193.0309, 18.34692
193.5130, 18.22668
193.9951, 18.29550
194.4772, 18.54113
194.9593, 18.70881
195.4414, 18.73358
195.9236, 18.65584
196.4057, 18.58795
196.8878, 18.52356
197.3699, 18.50401
197.8520, 18.61283
198.3341, 18.85777
198.8163, 18.98456
199.2984, 18.89405
199.7805, 18.65058
200.2626, 18.56262
200.7447, 18.65844
201.2268, 18.80115
201.7090, 18.82933
202.1911, 18.71961
202.6732, 18.73577
203.1553, 19.01458
203.6374, 19.48440
204.1195, 19.62319
204.6017, 19.34968
205.0838, 18.96367
205.5659, 18.77464
206.0480, 18.82304
206.5301, 18.83777
207.0122, 18.75017
207.4944, 18.56962
207.9765, 18.37898
208.4586, 18.14465
208.9407, 17.96810
209.4228, 17.96689
209.9049, 18.17138
210.3871, 18.44223
210.8692, 18.80410
211.3513, 19.24321
211.8334, 19.42698
212.3155, 19.29565
212.7976, 19.00821
213.2798, 18.70241
213.7619, 18.33405
214.2440, 18.08551
214.7261, 18.02509
215.2082, 18.15509
215.6903, 18.25510
216.1725, 18.30911
216.6546, 18.35409
217.1367, 18.45511
217.6188, 18.68149
218.1009, 18.77465
218.5830, 18.60540
219.0651, 18.14547
219.5473, 17.96246
220.0294, 18.16352
220.5115, 18.50551
220.9936, 18.69535
221.4757, 18.64807
221.9578, 18.64947
222.4400, 18.78078
222.9221, 19.05633
223.4042, 19.31048
223.8863, 19.57819
224.3684, 19.79227
224.8505, 19.84828
225.3327, 19.62122
225.8148, 19.50908
226.2969, 19.67370
226.7790, 20.16529
227.2611, 20.35275
227.7432, 20.06373
228.2254, 19.64916
228.7075, 19.52444
229.1896, 19.83777
229.6717, 20.14654
230.1538, 20.35969
230.6359, 20.47082
231.1181, 20.53338
231.6002, 20.49905
232.0823, 20.46175
232.5644, 20.55216
233.0465, 20.91380
233.5286, 21.12305
234.0108, 20.99852
234.4929, 20.48198
234.9750, 20.32531
235.4571, 20.71079
235.9392, 21.28086
236.4213, 21.66333
236.9035, 21.79972
237.3856, 21.84592
237.8677, 21.79737
238.3498, 21.63900
238.8319, 21.60044
239.3140, 21.74937
239.7962, 21.95542
240.2783, 22.07179
240.7604, 21.99872
241.2425, 22.02974
241.7246, 22.27199
242.2067, 22.74735
242.6889, 23.05299
243.1710, 23.10286
243.6531, 23.06521
244.1352, 23.10491
244.6173, 23.25165
245.0994, 23.42296
245.5816, 23.63829
246.0637, 23.90098
246.5458, 23.98999
247.0279, 23.75862
247.5100, 23.50436
247.9921, 23.52682
248.4743, 23.98694
248.9564, 24.40088
249.4385, 24.67660
249.9206, 24.81750
250.4027, 24.98121
250.8848, 25.19148
251.3670, 25.39848
251.8491, 25.55536
252.3312, 25.64757
252.8133, 25.72271
253.2954, 25.78104
253.7775, 25.82438
254.2597, 25.88151
254.7418, 25.94124
255.2239, 26.02918
255.7060, 26.16119
256.1881, 26.32976
256.6702, 26.57210
257.1523, 26.95161
257.6345, 27.43388
258.1166, 27.71863
258.5987, 27.76735
259.0808, 27.67264
259.5629, 27.46770
260.0450, 27.08207
260.5272, 26.79233
261.0093, 26.65376
261.4914, 26.64122
261.9735, 26.63750
262.4556, 26.68034
262.9377, 26.66646
263.4199, 26.51673
263.9020, 26.19571
264.3841, 25.84439
264.8662, 25.42926
265.3483, 25.00084
265.8304, 24.75602
266.3126, 24.75781
266.7947, 24.81340
267.2768, 24.82888
267.7589, 24.82231
268.2410, 24.68680
268.7231, 24.34521
269.2053, 23.90349
269.6874, 23.70214
270.1695, 23.83306
270.6516, 23.95482
271.1337, 23.84230
271.6158, 23.41888
272.0980, 23.16252
272.5801, 23.14041
273.0622, 23.25089
273.5443, 23.25617
274.0264, 23.13114
274.5085, 22.99130
274.9907, 22.89926
275.4728, 22.86307
275.9549, 22.79301
276.4370, 22.66541
276.9191, 22.53302
277.4012, 22.50682
277.8834, 22.60547
278.3655, 22.70900
278.8476, 22.79660
279.3297, 22.87354
279.8118, 22.77807
280.2939, 22.45858
280.7761, 22.07793
281.2582, 21.89631
281.7403, 21.93027
282.2224, 21.97605
282.7045, 21.94067
283.1866, 21.83579
283.6688, 21.81635
284.1509, 21.90283
284.6330, 22.00888
285.1151, 22.03797
285.5972, 21.98983
286.0793, 21.88526
286.5615, 21.70291
287.0436, 21.46685
287.5257, 21.28757
288.0078, 21.16562
288.4899, 21.09492
288.9720, 21.09794
289.4542, 21.16492
289.9363, 21.18835
290.4184, 21.11214
290.9005, 20.98168
291.3826, 20.92323
291.8647, 20.93921
292.3469, 20.99024
292.8290, 21.06915
293.3111, 21.16194
293.7932, 21.20420
294.2753, 21.16929
294.7574, 21.08682
295.2396, 20.99125
295.7217, 20.88499
296.2038, 20.82422
296.6859, 20.90256
297.1680, 21.06365
297.6501, 21.15007
298.1323, 21.12025
298.6144, 21.02737
299.0965, 20.89958
299.5786, 20.75209
300.0607, 20.68755
300.5428, 20.82073
301.0250, 21.07043
301.5071, 21.30902
301.9892, 21.54047
302.4713, 21.69236
302.9534, 21.59539
303.4355, 21.32937
303.9177, 21.15505
304.3998, 21.35456
304.8819, 21.68103
305.3640, 21.77520
305.8461, 21.57227
306.3282, 21.34601
306.8104, 21.37247
307.2925, 21.55515
307.7746, 21.69295
308.2567, 21.60980
308.7388, 21.48772
309.2209, 21.53380
309.7031, 21.76698
310.1852, 21.95454
310.6673, 21.88097
311.1494, 21.67422
311.6315, 21.51712
312.1136, 21.46097
312.5958, 21.49116
313.0779, 21.65487
313.5600, 21.93551
314.0421, 22.14672
314.5242, 22.13706
315.0063, 22.02501
315.4885, 21.92701
315.9706, 21.85302
316.4527, 21.82443
316.9348, 21.86018
317.4169, 21.95253
317.8990, 22.06729
318.3812, 22.24283
318.8633, 22.40511
319.3454, 22.49481
319.8275, 22.43962
320.3096, 22.40560
320.7917, 22.45583
321.2739, 22.56641
321.7560, 22.67663
322.2381, 22.81812
322.7202, 22.91943
323.2023, 22.91864
323.6844, 22.70943
324.1666, 22.64083
324.6487, 22.92163
325.1308, 23.35230
325.6129, 23.62041
326.0950, 23.48764
326.5771, 23.36907
327.0593, 23.41614
327.5414, 23.70106
328.0235, 23.87153
328.5056, 23.76667
328.9877, 23.59679
329.4698, 23.58353
329.9520, 23.95988
330.4341, 24.21752
330.9162, 24.21602
331.3983, 23.94314
331.8804, 23.80741
332.3625, 23.90913
332.8447, 24.06303
333.3268, 24.11878
333.8089, 23.93260
334.2910, 23.91912
334.7731, 24.20948
335.2552, 24.72576
335.7374, 25.03118
336.2195, 25.04868
336.7016, 24.98357
337.1837, 24.94583
337.6658, 24.94425
338.1479, 24.94060
338.6301, 24.93099
339.1122, 24.91941
339.5943, 24.89746
340.0764, 24.83829
340.5585, 24.85840
341.0406, 25.04945
341.5227, 25.43176
342.0049, 25.70540
342.4870, 25.86397
342.9691, 25.93231
343.4512, 25.92281
343.9333, 25.83007
344.4154, 25.73848
344.8976, 25.65064
345.3797, 25.58521
345.8618, 25.67076
346.3439, 25.92723
346.8260, 26.20753
347.3081, 26.36530
347.7903, 26.41428
348.2724, 26.45049
348.7545, 26.48895
349.2366, 26.53740
349.7187, 26.60724
350.2008, 26.69950
350.6830, 26.81948
351.1651, 27.04835
351.6472, 27.30554
352.1293, 27.34132
352.6114, 27.02075
353.0935, 26.71620
353.5757, 26.98752
354.0578, 27.67681
354.5399, 28.23702
355.0220, 28.26978
355.5041, 28.04542
355.9862, 27.85640
356.4684, 27.72383
356.9505, 27.67882
357.4326, 27.81946
357.9147, 28.05333
358.3968, 28.23035
358.8789, 28.18639
359.3611, 28.14246
359.8432, 28.32043
360.3253, 28.70852
360.8074, 28.97361
361.2895, 28.81521
361.7716, 28.51735
362.2538, 28.34028
362.7359, 28.38144
363.2180, 28.52716
363.7001, 28.86348
364.1822, 29.30637
364.6643, 29.53880
365.1465, 29.19382
365.6286, 28.81863
366.1107, 28.72326
366.5928, 29.12599
367.0749, 29.45818
367.5570, 29.59162
368.0392, 29.60885
368.5213, 29.65246
369.0034, 29.75351
369.4855, 29.86417
369.9676, 30.03259
370.4497, 30.32848
370.9319, 30.30125
371.4140, 29.59936
371.8961, 28.79678
372.3782, 28.46800
372.8603, 28.86194
373.3424, 29.31113
373.8246, 29.81566
374.3067, 30.32824
374.7888, 30.43277
375.2709, 29.90083
375.7530, 29.33976
376.2351, 29.17164
376.7173, 29.51706
377.1994, 29.77193
377.6815, 29.91047
378.1636, 29.92860
378.6457, 29.74988
379.1278, 29.31648
379.6100, 28.99902
380.0921, 29.03097
380.5742, 29.39505
381.0563, 29.62948
381.5384, 29.71924
382.0205, 29.73472
382.5027, 29.82048
382.9848, 29.94929
383.4669, 29.83786
383.9490, 29.19200
384.4311, 28.34983
384.9132, 28.20674
385.3954, 28.73851
385.8775, 29.29780
386.3596, 29.30632
386.8417, 28.95955
387.3238, 28.66866
387.8059, 28.53849
388.2881, 28.45440
388.7702, 28.20807
389.2523, 27.88551
389.7344, 27.75024
390.2165, 28.17557
390.6986, 28.72972
391.1808, 28.98455
391.6629, 28.88011
392.1450, 28.64468
392.6271, 28.27945
393.1092, 27.91210
393.5913, 27.71407
394.0735, 27.97092
394.5556, 28.20629
395.0377, 28.14025
395.5198, 27.80281
396.0019, 27.55407
396.4840, 27.62527
396.9662, 27.75451
397.4483, 27.76684
397.9304, 27.53537
398.4125, 27.32065
398.8946, 27.11637
399.3767, 26.95318
399.8589, 26.90698
400.3410, 27.16643
400.8231, 27.36991
401.3052, 27.38601
401.7873, 27.14380
402.2694, 26.98841
402.7516, 26.95846
403.2337, 26.98628
403.7158, 27.00945
404.1979, 27.06867
404.6800, 27.02640
405.1621, 26.80254
405.6443, 26.43961
406.1264, 26.27691
406.6085, 26.37132
407.0906, 26.51315
407.5727, 26.57547
408.0548, 26.55836
408.5370, 26.43765
409.0191, 26.16986
409.5012, 25.87433
409.9833, 25.80850
410.4654, 25.96979
410.9475, 26.10547
411.4297, 26.06440
411.9118, 25.90021
412.3939, 25.78101
412.8760, 25.70664
413.3581, 25.70385
413.8402, 25.92062
414.3224, 26.23372
414.8045, 26.31134
415.2866, 25.89409
415.7687, 25.39955
416.2508, 25.40576
416.7329, 25.79933
417.2151, 26.07638
417.6972, 25.77051
418.1793, 25.29247
418.6614, 25.03705
419.1435, 25.09153
419.6256, 25.26293
420.1078, 25.57100
420.5899, 25.89849
421.0720, 26.08350
421.5541, 25.90455
422.0362, 25.72078
422.5183, 25.69220
423.0005, 25.82138
423.4826, 25.92933
423.9647, 25.95235
424.4468, 25.95415
424.9289, 25.97553
425.4110, 25.96563
425.8932, 26.04504
426.3753, 26.31116
426.8574, 26.66110
427.3395, 26.84286
427.8216, 26.68626
428.3037, 26.58957
428.7859, 26.72437
429.2680, 27.14947
429.7501, 27.37869
430.2322, 27.33349
430.7143, 27.20422
431.1964, 27.18888
431.6786, 27.29814
432.1607, 27.47925
432.6428, 27.76731
433.1249, 28.09566
433.6070, 28.23802
434.0891, 28.18527
434.5713, 28.05745
435.0534, 27.88161
435.5355, 27.68421
436.0176, 27.58747
436.4997, 27.60542
436.9818, 27.71066
437.4640, 27.97034
437.9461, 28.30896
438.4282, 28.48144
438.9103, 28.23169
439.3924, 27.86258
439.8745, 27.76691
440.3566, 27.91929
440.8387, 28.10403
441.3209, 28.23073
441.8030, 28.29331
442.2851, 28.26276
442.7672, 28.06532
443.2493, 27.92831
443.7314, 28.07968
444.2136, 28.36320
444.6957, 28.49234
445.1778, 28.20672
445.6599, 27.90362
446.1420, 27.73942
446.6241, 27.73209
447.1063, 27.75508
447.5884, 27.81845
448.0705, 27.88814
448.5526, 27.94072
449.0347, 28.04348
449.5168, 28.03025
449.9990, 27.83689
450.4811, 27.52810
450.9632, 27.28347
451.4453, 27.08594
451.9274, 26.98517
452.4095, 27.06086
452.8917, 27.34498
453.3738, 27.34097
453.8559, 26.95352
454.3380, 26.50469
454.8201, 26.36487
455.3022, 26.53786
455.7844, 26.74726
456.2665, 26.96716
456.7486, 27.14799
457.2307, 27.14462
457.7128, 26.97013
458.1949, 26.79560
458.6771, 26.74496
459.1592, 26.76802
459.6413, 26.75438
460.1234, 26.68867
460.6055, 26.64952
461.0876, 26.71656
461.5698, 26.85625
462.0519, 27.01242
462.5340, 27.20765
463.0161, 27.37391
463.4982, 27.46172
463.9803, 27.48110
464.4625, 27.47799
464.9446, 27.37381
465.4267, 27.32425
465.9088, 27.45181
466.3909, 27.86683
466.8730, 28.19556
467.3552, 28.32263
467.8373, 28.33841
468.3194, 28.35635
468.8015, 28.37345
469.2836, 28.40559
469.7657, 28.47285
470.2479, 28.56676
470.7300, 28.58452
471.2121, 28.43458
471.6942, 28.35078
472.1763, 28.51249
472.6584, 29.00116
473.1406, 29.29024
473.6227, 29.31159
474.1048, 29.22345
474.5869, 29.26956
475.0690, 29.45269
475.5511, 29.62637
476.0333, 29.74922
476.5154, 29.82834
476.9975, 29.88679
477.4796, 29.92420
477.9617, 29.92677
478.4438, 29.82025
478.9260, 29.68567
479.4081, 29.68639
479.8902, 29.86556
480.3723, 30.09271
480.8544, 30.20661
481.3365, 30.29774
481.8187, 30.52237
482.3008, 31.16630
482.7829, 31.76811
483.2650, 31.99177
483.7471, 31.89266
484.2292, 31.90803
484.7114, 32.38621
485.1935, 32.88169
485.6756, 33.09535
486.1577, 32.75204
486.6398, 32.62734
487.1219, 32.92600
487.6041, 33.42979
488.0862, 33.84522
488.5683, 34.06629
489.0504, 34.39271
489.5325, 34.93758
490.0146, 35.65779
490.4968, 36.14878
490.9789, 36.29081
491.4610, 36.50436
491.9431, 37.13258
492.4252, 38.17505
492.9073, 39.02342
493.3895, 39.62114
493.8716, 40.10450
494.3537, 40.60398
494.8358, 41.13472
495.3179, 41.82412
495.8000, 42.79595
496.2822, 43.87528
496.7643, 44.73129
497.2464, 45.41990
497.7285, 46.21262
498.2106, 47.32212
498.6927, 48.61201
499.1749, 50.00054
499.6570, 51.49898
500.1391, 52.92823
500.6212, 54.11395
501.1033, 55.19711
501.5854, 56.35905
502.0676, 57.63461
502.5497, 58.99213
503.0318, 60.54638
503.5139, 62.23145
503.9960, 63.66844
504.4781, 64.52930
504.9603, 65.47304
505.4424, 66.76724
505.9245, 68.52850
506.4066, 70.21928
506.8887, 71.85091
507.3708, 73.39409
507.8530, 74.81180
508.3351, 76.05317
508.8172, 77.36674
509.2993, 78.83878
509.7814, 80.36377
510.2635, 81.70614
510.7457, 82.87650
511.2278, 83.86977
511.7099, 84.65034
512.1920, 85.25466
512.6741, 85.78373
513.1563, 86.23959
513.6384, 86.61979
514.1205, 87.03292
514.6026, 87.33767
515.0847, 87.31104
515.5668, 86.80922
516.0490, 86.12773
516.5311, 85.43446
517.0132, 84.69551
517.4953, 83.84159
517.9774, 82.79218
518.4595, 81.67645
518.9417, 80.48914
519.4238, 79.21800
519.9059, 78.11617
520.3880, 77.42908
520.8701, 76.74175
521.3522, 75.81560
521.8344, 74.51450
522.3165, 73.24644
522.7986, 72.00620
523.2807, 70.79655
523.7628, 69.65874
524.2449, 68.58560
524.7271, 67.57290
525.2092, 66.67638
525.6913, 65.82336
526.1734, 64.63980
526.6555, 63.11818
527.1376, 61.64255
527.6198, 60.51958
528.1019, 59.65520
528.5840, 58.83280
529.0661, 58.04460
529.5482, 57.26563
530.0303, 56.51936
530.5125, 55.76162
530.9946, 54.90199
531.4767, 53.88047
531.9588, 52.81082
532.4409, 51.69083
532.9230, 50.56995
533.4052, 49.55666
533.8873, 48.75242
534.3694, 48.01430
534.8515, 47.28727
535.3336, 46.54718
535.8157, 45.90357
536.2979, 45.54597
536.7800, 45.10957
537.2621, 44.27490
537.7442, 42.75194
538.2263, 41.61230
538.7084, 41.03366
539.1906, 40.74799
539.6727, 40.21827
540.1548, 39.41484
540.6369, 38.66083
541.1190, 38.09935
541.6011, 37.65844
542.0833, 37.12663
542.5654, 36.50877
543.0475, 35.91100
543.5296, 35.40383
544.0117, 34.96862
544.4938, 34.60601
544.9760, 34.33037
545.4581, 34.00625
545.9402, 33.48535
546.4223, 32.87025
546.9044, 32.29227
547.3865, 31.80362
547.8687, 31.34826
548.3508, 30.88137
548.8329, 30.42925
549.3150, 30.07637
549.7971, 29.95641
550.2792, 29.81834
550.7614, 29.57100
551.2435, 29.20477
551.7256, 28.88939
552.2077, 28.64957
552.6898, 28.42820
553.1719, 28.16371
553.6541, 27.83954
554.1362, 27.64039
554.6183, 27.63886
555.1004, 27.64367
555.5825, 27.26537
556.0646, 26.56946
556.5468, 26.00764
557.0289, 25.79727
557.5110, 25.76695
557.9931, 25.69890
558.4752, 25.59039
558.9573, 25.43211
559.4395, 25.08341
559.9216, 24.76733
560.4037, 24.74661
560.8858, 25.09683
561.3679, 25.30337
561.8500, 25.02151
562.3322, 24.57545
562.8143, 24.24289
563.2964, 24.18799
563.7785, 24.10349
564.2606, 23.92561
564.7427, 23.71975
565.2249, 23.63138
565.7070, 23.74869
566.1891, 23.78994
566.6712, 23.63576
567.1533, 23.33314
567.6354, 23.19740
568.1176, 23.25161
568.5997, 23.32917
569.0818, 23.33537
569.5639, 23.27235
570.0460, 23.10200
570.5281, 22.80459
571.0103, 22.57384
571.4924, 22.69422
571.9745, 22.99892
572.4566, 23.19823
572.9387, 23.18387
573.4208, 23.07528
573.9030, 22.86185
574.3851, 22.61364
574.8672, 22.48197
575.3493, 22.72821
575.8314, 22.89490
576.3135, 22.71475
576.7957, 22.18236
577.2778, 21.92951
577.7599, 22.19197
578.2420, 22.49249
578.7241, 22.57397
579.2062, 22.36804
579.6884, 22.23045
580.1705, 22.17940
580.6526, 22.15842
581.1347, 22.07789
581.6168, 21.94203
582.0989, 21.90467
582.5811, 22.03855
583.0632, 22.21236
583.5453, 22.17617
584.0274, 21.98869
584.5095, 21.86636
584.9916, 22.04608
585.4738, 22.25359
585.9559, 22.14931
586.4380, 21.77902
586.9201, 21.55012
587.4022, 21.83260
587.8843, 22.18583
588.3664, 22.29763
588.8485, 22.01770
589.3306, 21.85380
589.8127, 22.01534
590.2949, 22.22680
590.7770, 22.23779
591.2591, 21.94287
591.7412, 21.68466
592.2233, 21.47449
592.7054, 21.33758
593.1876, 21.37816
593.6697, 21.61668
594.1518, 21.77194
594.6339, 21.68605
595.1160, 21.47001
595.5981, 21.39956
596.0803, 21.46416
596.5624, 21.56280
597.0445, 21.62839
597.5266, 21.68913
598.0087, 21.79660
598.4908, 21.96207
598.9730, 22.08023
599.4551, 22.05563
599.9372, 21.97573
600.4193, 21.92143
600.9014, 21.92487
601.3835, 21.93015
601.8657, 21.89826
602.3478, 21.87350
602.8299, 21.93140
603.3120, 22.13894
603.7941, 22.30413
604.2762, 22.40709
604.7584, 22.43552
605.2405, 22.28202
605.7226, 21.90623
606.2047, 21.63830
606.6868, 21.71750
607.1689, 22.04183
607.6511, 22.27481
608.1332, 22.41564
608.6153, 22.51517
609.0974, 22.60416
609.5795, 22.68306
610.0616, 22.75541
610.5438, 22.82517
611.0259, 22.87504
611.5080, 22.89927
611.9901, 22.89618
612.4722, 22.86382
612.9543, 22.68833
613.4365, 22.61806
613.9186, 22.76180
614.4007, 23.02917
614.8828, 23.22345
615.3649, 23.34127
615.8470, 23.38501
616.3292, 23.33085
616.8113, 23.19806
617.2934, 23.12476
617.7755, 23.11479
618.2576, 23.12573
618.7397, 23.16740
619.2219, 23.20521
619.7040, 23.10025
620.1861, 22.83570
620.6682, 22.61196
621.1503, 22.68822
621.6324, 22.86967
622.1146, 22.90699
622.5967, 22.69187
623.0788, 22.43827
623.5609, 22.19007
624.0430, 21.97425
624.5251, 21.82930
625.0073, 21.87944
625.4894, 21.85701
625.9715, 21.67763
626.4536, 21.40330
626.9357, 21.24129
627.4178, 21.22683
627.9000, 21.23673
628.3821, 21.27166
628.8642, 21.29874
629.3463, 21.04693
629.8284, 20.50909
630.3105, 19.98083
630.7927, 19.67588
631.2748, 19.53575
631.7569, 19.47835
632.2390, 19.50307
632.7211, 19.51544
633.2032, 19.40823
633.6854, 19.26851
634.1675, 19.19940
634.6496, 19.29892
635.1317, 19.33923
635.6138, 19.26153
636.0959, 19.08810
636.5781, 18.84172
637.0602, 18.33180
637.5423, 18.07897
638.0244, 18.27319
638.5065, 18.73788
638.9886, 18.90091
639.4708, 18.71921
639.9529, 18.51449
640.4350, 18.44989
640.9171, 18.46459
641.3992, 18.31317
641.8813, 18.01384
642.3635, 17.80674
642.8456, 17.99424
643.3277, 18.30485
643.8098, 18.41279
644.2919, 18.27183
644.7740, 18.07074
645.2562, 17.80715
645.7383, 17.58553
646.2204, 17.50531
646.7025, 17.70778
647.1846, 17.83504
647.6667, 17.78899
648.1489, 17.71000
648.6310, 17.81846
649.1131, 18.23488
649.5952, 18.40291
650.0773, 18.15460
650.5594, 17.69407
651.0416, 17.47199
651.5237, 17.47451
652.0058, 17.49150
652.4879, 17.42966
652.9700, 17.32995
653.4521, 17.22263
653.9343, 17.12034
654.4164, 17.08801
654.8985, 17.29983
655.3806, 17.48892
655.8627, 17.40273
656.3448, 16.99751
656.8270, 16.76224
657.3091, 16.98851
657.7912, 17.26544
658.2733, 17.34085
658.7554, 17.09964
659.2375, 17.03701
659.7197, 17.24029
660.2018, 17.47313
660.6839, 17.45465
661.1660, 17.19130
661.6481, 16.93502
662.1302, 16.68981
662.6124, 16.56801
663.0945, 16.87135
663.5766, 17.42221
664.0587, 17.77252
664.5408, 17.66648
665.0229, 17.40418
665.5051, 17.08689
665.9872, 16.76929
666.4693, 16.58631
666.9514, 16.75750
667.4335, 16.88850
667.9156, 16.77576
668.3978, 16.46904
668.8799, 16.36949
669.3620, 16.57857
669.8441, 16.80138
670.3262, 16.92150
670.8083, 16.93969
671.2905, 16.81127
671.7726, 16.51228
672.2547, 16.29688
672.7368, 16.52327
673.2189, 16.96085
673.7010, 17.09490
674.1832, 16.84048
674.6653, 16.56186
