##NAMES=Arakiite
##RRUFFID=R070172
##IDEAL CHEMISTRY=Zn^2+^Mn^2+^_12_Fe^3+^_2_(As^3+^O_3_)(As^5+^O_4_)_2_(OH)_23_
##LOCALITY=Langban, Filipstad, Varmland, Sweden
##OWNER=RRUFF
##SOURCE=Michael Scott
##DESCRIPTION=Reddish brown platey crystals associated with colorless calcite
##STATUS=The identification of this mineral is confirmed by single-crystal X-ray diffraction and chemical analysis.
##URL=rruff.info/R070172
##MEASURED CHEMISTRY=(Zn_0.83_Mn^2+^_0.17_)_Σ=1_(Mn^2+^_9.20_Mg_2.80_)_Σ=12_(Fe^3+^_1.97_Mn^3+^_0.03_)_Σ=2_As_1.00_O_3_(As_1.00_O_4_)_2_(OH)_23_; OH estimated by difference and charge balance
171.5908, 38.33282
172.0729, 37.92907
172.5550, 37.74358
173.0371, 37.87388
173.5193, 38.13974
174.0014, 38.21210
174.4835, 37.90309
174.9656, 37.81759
175.4477, 38.21430
175.9298, 38.75636
176.4120, 39.15025
176.8941, 39.27319
177.3762, 39.22022
177.8583, 39.24686
178.3404, 39.33751
178.8225, 39.55028
179.3047, 40.03220
179.7868, 40.58744
180.2689, 40.97669
180.7510, 41.06922
181.2331, 40.94522
181.7152, 40.96318
182.1974, 41.36506
182.6795, 41.63470
183.1616, 41.57514
183.6437, 41.33446
184.1258, 41.18098
184.6079, 41.27917
185.0900, 41.57810
185.5722, 41.74595
186.0543, 41.67221
186.5364, 41.61535
187.0185, 41.74277
187.5006, 41.98250
187.9827, 42.09339
188.4649, 41.88533
188.9470, 41.43852
189.4291, 41.16037
189.9112, 41.08010
190.3933, 41.12674
190.8754, 41.31297
191.3576, 41.62812
191.8397, 41.91756
192.3218, 42.08031
192.8039, 42.15141
193.2860, 42.22222
193.7681, 42.30175
194.2503, 42.38424
194.7324, 42.47200
195.2145, 42.57002
195.6966, 42.64311
196.1787, 42.63424
196.6608, 42.59743
197.1430, 42.59015
197.6251, 42.61139
198.1072, 42.68789
198.5893, 42.89923
199.0714, 43.32634
199.5535, 43.67597
200.0357, 43.72266
200.5178, 43.66085
200.9999, 43.74439
201.4820, 44.14562
201.9641, 44.69172
202.4462, 44.86824
202.9284, 44.40596
203.4105, 44.00908
203.8926, 43.94151
204.3747, 44.02848
204.8568, 44.05916
205.3389, 43.92054
205.8211, 43.63707
206.3032, 43.31548
206.7853, 42.86485
207.2674, 42.49033
207.7495, 42.21627
208.2316, 42.04076
208.7138, 41.98582
209.1959, 42.08121
209.6780, 42.28481
210.1601, 42.28514
210.6422, 41.73775
211.1243, 41.34266
211.6065, 41.34626
212.0886, 41.57145
212.5707, 41.71096
213.0528, 41.55981
213.5349, 41.15766
214.0170, 40.89381
214.4992, 40.75030
214.9813, 40.74560
215.4634, 41.03436
215.9455, 41.47163
216.4276, 41.74708
216.9097, 41.63497
217.3919, 41.19560
217.8740, 41.00826
218.3561, 41.24060
218.8382, 41.48863
219.3203, 41.56539
219.8024, 41.52741
220.2845, 41.55988
220.7667, 41.79570
221.2488, 42.18861
221.7309, 42.46449
222.2130, 42.44904
222.6951, 42.49613
223.1772, 42.86353
223.6594, 43.48275
224.1415, 44.02856
224.6236, 44.32682
225.1057, 44.39918
225.5878, 44.39499
226.0699, 44.17500
226.5521, 44.03424
227.0342, 44.25543
227.5163, 44.80104
227.9984, 45.26925
228.4805, 45.43548
228.9626, 45.39598
229.4448, 45.35976
229.9269, 45.31869
230.4090, 45.31268
230.8911, 45.39031
231.3732, 45.55172
231.8553, 45.72656
232.3375, 45.97009
232.8196, 46.15740
233.3017, 46.11842
233.7838, 45.78024
234.2659, 45.33910
234.7480, 44.98571
235.2302, 44.72617
235.7123, 44.49665
236.1944, 44.30195
236.6765, 44.11410
237.1586, 43.93349
237.6407, 43.77273
238.1229, 43.54673
238.6050, 43.06270
239.0871, 42.22764
239.5692, 41.64619
240.0513, 41.71648
240.5334, 41.96886
241.0156, 42.09980
241.4977, 42.03880
241.9798, 41.92402
242.4619, 41.95552
242.9440, 42.19268
243.4261, 42.34740
243.9083, 42.25660
244.3904, 42.14563
244.8725, 42.16554
245.3546, 42.34258
245.8367, 42.58357
246.3188, 42.79118
246.8010, 43.00616
247.2831, 43.04975
247.7652, 42.69088
248.2473, 42.32628
248.7294, 42.22578
249.2115, 42.41481
249.6937, 42.70104
250.1758, 42.82495
250.6579, 42.69843
251.1400, 42.64789
251.6221, 42.73912
252.1042, 42.84710
252.5864, 42.88216
253.0685, 42.84629
253.5506, 42.82193
254.0327, 42.93113
254.5148, 43.27230
254.9969, 43.42225
255.4790, 43.22066
255.9612, 42.99599
256.4433, 42.90191
256.9254, 42.95866
257.4075, 43.12770
257.8896, 43.39836
258.3718, 43.85417
258.8539, 44.01904
259.3360, 43.68652
259.8181, 43.30936
260.3002, 43.11702
260.7823, 43.10544
261.2645, 43.13843
261.7466, 43.08855
262.2287, 42.94123
262.7108, 42.81780
263.1929, 42.67247
263.6750, 42.58579
264.1572, 42.64484
264.6393, 42.80992
265.1214, 42.94868
265.6035, 42.95465
266.0856, 42.82351
266.5677, 42.67255
267.0499, 42.44281
267.5320, 42.25311
268.0141, 42.19571
268.4962, 42.22810
268.9783, 42.21960
269.4604, 42.07337
269.9426, 41.80359
270.4247, 41.60203
270.9068, 41.44419
271.3889, 41.35999
271.8710, 41.39314
272.3531, 41.51102
272.8352, 41.64183
273.3174, 41.75011
273.7995, 41.83503
274.2816, 41.89008
274.7637, 41.96587
275.2458, 41.96537
275.7279, 41.82286
276.2101, 41.58337
276.6922, 41.32290
277.1743, 41.05767
277.6564, 40.82581
278.1385, 40.76242
278.6206, 40.97007
279.1028, 41.11767
279.5849, 41.09605
280.0670, 40.95565
280.5491, 40.77390
281.0312, 40.57038
281.5133, 40.35980
281.9955, 40.14789
282.4776, 39.88309
282.9597, 39.62452
283.4418, 39.80779
283.9239, 39.90837
284.4060, 39.93071
284.8882, 39.64042
285.3703, 39.75381
285.8524, 39.70543
286.3345, 39.65041
286.8166, 39.82063
287.2987, 39.57581
287.7809, 39.74244
288.2630, 39.74484
288.7451, 39.82240
289.2272, 39.73719
289.7093, 39.70225
290.1914, 39.83015
290.6736, 39.86788
291.1557, 39.76393
291.6378, 39.84627
292.1199, 39.59576
292.6020, 39.80416
293.0841, 39.92946
293.5663, 39.93028
294.0484, 39.82896
294.5305, 39.75404
295.0126, 39.71741
295.4947, 39.71236
295.9768, 39.75891
296.4590, 39.85344
296.9411, 39.90079
297.4232, 39.78040
297.9053, 39.58476
298.3874, 39.59169
298.8695, 40.01974
299.3517, 40.41727
299.8338, 40.34749
300.3159, 39.88998
300.7980, 39.60584
301.2801, 39.81769
301.7622, 40.31649
302.2444, 40.65949
302.7265, 40.83611
303.2086, 40.89347
303.6907, 40.77833
304.1728, 40.54718
304.6549, 40.40751
305.1371, 40.43333
305.6192, 40.57216
306.1013, 40.76561
306.5834, 41.02574
307.0655, 41.23957
307.5476, 41.33170
308.0298, 41.34404
308.5119, 41.38084
308.9940, 41.47687
309.4761, 41.56673
309.9582, 41.56852
310.4403, 41.49450
310.9225, 41.40263
311.4046, 41.20435
311.8867, 41.03376
312.3688, 41.16071
312.8509, 41.66229
313.3330, 42.18709
313.8152, 42.41951
314.2973, 42.42619
314.7794, 42.39763
315.2615, 42.36324
315.7436, 42.31521
316.2257, 42.22772
316.7079, 42.09781
317.1900, 41.99829
317.6721, 41.97215
318.1542, 42.01329
318.6363, 42.09640
319.1184, 42.23720
319.6006, 42.39848
320.0827, 42.56022
320.5648, 42.72121
321.0469, 42.87379
321.5290, 43.02293
322.0111, 43.15325
322.4933, 43.24755
322.9754, 43.30861
323.4575, 43.32876
323.9396, 43.18978
324.4217, 42.99149
324.9038, 43.10657
325.3860, 43.77302
325.8681, 44.53356
326.3502, 44.68409
326.8323, 44.23156
327.3144, 43.88310
327.7965, 44.03922
328.2787, 44.41921
328.7608, 44.49578
329.2429, 44.13485
329.7250, 43.73872
330.2071, 43.76134
330.6892, 44.12646
331.1714, 44.40570
331.6535, 44.43089
332.1356, 44.38776
332.6177, 44.47523
333.0998, 44.70342
333.5819, 44.95492
334.0641, 45.12826
334.5462, 45.26723
335.0283, 45.53233
335.5104, 46.06448
335.9925, 46.58980
336.4746, 46.92706
336.9568, 47.10085
337.4389, 47.21278
337.9210, 47.30207
338.4031, 47.36312
338.8852, 47.37160
339.3673, 47.27519
339.8495, 47.25360
340.3316, 47.38030
340.8137, 47.63093
341.2958, 47.99774
341.7779, 48.50919
342.2600, 49.02050
342.7421, 49.27257
343.2242, 49.22884
343.7064, 49.29737
344.1885, 49.80342
344.6706, 50.33454
345.1527, 50.27098
345.6348, 49.53212
346.1169, 48.86641
346.5991, 49.02866
347.0812, 50.07536
347.5633, 50.80538
348.0454, 51.01329
348.5275, 51.07930
349.0096, 51.22463
349.4918, 51.44975
349.9739, 51.69305
350.4560, 51.92606
350.9381, 52.14382
351.4202, 52.32446
351.9023, 52.44494
352.3845, 52.56044
352.8666, 52.65997
353.3487, 52.77010
353.8308, 52.96572
354.3129, 53.28843
354.7950, 53.63694
355.2772, 53.80383
355.7593, 53.69394
356.2414, 53.61076
356.7235, 53.58815
357.2056, 53.59992
357.6877, 53.60595
358.1699, 53.60391
358.6520, 53.64766
359.1341, 53.80390
359.6162, 54.09937
360.0983, 54.37844
360.5804, 54.74592
361.0626, 55.00792
361.5447, 54.94507
362.0268, 54.65963
362.5089, 54.50148
362.9910, 54.73500
363.4731, 55.30376
363.9553, 55.67392
364.4374, 55.64432
364.9195, 55.67109
365.4016, 55.88639
365.8837, 56.20264
366.3658, 56.53185
366.8480, 56.83760
367.3301, 57.05891
367.8122, 57.04535
368.2943, 56.44564
368.7764, 56.16459
369.2585, 56.39751
369.7407, 56.78791
370.2228, 57.08771
370.7049, 57.25296
371.1870, 57.37237
371.6691, 57.54842
372.1512, 57.79979
372.6334, 57.98817
373.1155, 57.97966
373.5976, 58.04271
374.0797, 58.36841
374.5618, 58.84174
375.0439, 59.19820
375.5261, 59.24279
376.0082, 59.06304
376.4903, 59.10933
376.9724, 59.52689
377.4545, 59.98333
377.9366, 60.52105
378.4188, 61.02261
378.9009, 61.34965
379.3830, 61.45882
379.8651, 61.46165
380.3472, 61.51969
380.8293, 61.62966
381.3115, 61.80892
381.7936, 62.15033
382.2757, 62.48694
382.7578, 62.75254
383.2399, 62.93435
383.7220, 63.03251
384.2042, 63.01304
384.6863, 62.88820
385.1684, 62.86180
385.6505, 63.10033
386.1326, 63.19104
386.6147, 62.83284
387.0969, 62.26465
387.5790, 61.88801
388.0611, 61.92466
388.5432, 62.14583
389.0253, 62.13398
389.5074, 61.84699
389.9896, 61.51048
390.4717, 61.14117
390.9538, 60.78658
391.4359, 60.48485
391.9180, 60.24105
392.4001, 60.05309
392.8823, 59.94439
393.3644, 59.90089
393.8465, 59.84568
394.3286, 59.80227
394.8107, 59.68380
395.2928, 59.36222
395.7750, 58.89610
396.2571, 58.49877
396.7392, 58.26968
397.2213, 58.14727
397.7034, 58.07552
398.1855, 58.06129
398.6677, 57.99274
399.1498, 57.80613
399.6319, 57.51321
400.1140, 57.14905
400.5961, 56.63902
401.0782, 56.19048
401.5604, 55.97187
402.0425, 55.91319
402.5246, 55.81057
403.0067, 55.60232
403.4888, 55.32272
403.9709, 55.00787
404.4531, 54.65269
404.9352, 54.30276
405.4173, 53.90151
405.8994, 53.54728
406.3815, 53.39562
406.8636, 53.43673
407.3458, 53.45145
407.8279, 53.26211
408.3100, 52.87841
408.7921, 52.51369
409.2742, 52.05398
409.7563, 51.73409
410.2385, 51.74796
410.7206, 51.94614
411.2027, 52.06284
411.6848, 51.98510
412.1669, 51.78795
412.6490, 51.62127
413.1311, 51.48106
413.6133, 51.38673
414.0954, 51.45381
414.5775, 51.48184
415.0596, 51.24455
415.5417, 50.77728
416.0238, 50.36420
416.5060, 50.29593
416.9881, 50.58611
417.4702, 50.69300
417.9523, 50.30171
418.4344, 50.06520
418.9165, 50.28795
419.3987, 50.71821
419.8808, 50.98360
420.3629, 50.91042
420.8450, 50.63953
421.3271, 50.46850
421.8092, 50.45235
422.2914, 50.39883
422.7735, 50.20300
423.2556, 50.02899
423.7377, 50.01609
424.2198, 50.14931
424.7019, 50.26876
425.1841, 50.15580
425.6662, 49.85521
426.1483, 49.90171
426.6304, 50.56768
427.1125, 51.13685
427.5946, 51.22034
428.0768, 51.02950
428.5589, 50.87522
429.0410, 50.88561
429.5231, 50.92731
430.0052, 50.79107
430.4873, 50.47104
430.9695, 50.24647
431.4516, 50.22007
431.9337, 50.31217
432.4158, 50.42142
432.8979, 50.54759
433.3800, 50.71209
433.8622, 51.02498
434.3443, 51.35442
434.8264, 51.43380
435.3085, 51.21555
435.7906, 50.92905
436.2727, 50.70710
436.7549, 50.55746
437.2370, 50.48568
437.7191, 50.67942
438.2012, 50.75903
438.6833, 50.32216
439.1654, 49.61312
439.6476, 49.30898
440.1297, 49.71760
440.6118, 50.38660
441.0939, 50.52494
441.5760, 49.89107
442.0581, 49.37600
442.5403, 49.07315
443.0224, 48.86404
443.5045, 48.71415
443.9866, 48.58710
444.4687, 48.37059
444.9508, 47.94789
445.4330, 47.35939
445.9151, 47.04426
446.3972, 47.24370
446.8793, 47.43773
447.3614, 47.60640
447.8435, 47.70576
448.3257, 47.66365
448.8078, 47.46785
449.2899, 47.21858
449.7720, 47.07574
450.2541, 47.09558
450.7362, 47.02706
451.2184, 46.73676
451.7005, 46.48164
452.1826, 46.43005
452.6647, 46.49877
453.1468, 46.45699
453.6289, 46.10799
454.1111, 45.62597
454.5932, 45.53545
455.0753, 45.99006
455.5574, 46.37125
456.0395, 46.36164
456.5216, 46.25789
457.0038, 46.31219
457.4859, 46.56175
457.9680, 46.80495
458.4501, 46.88473
458.9322, 46.83205
459.4143, 46.73511
459.8965, 46.56510
460.3786, 46.45909
460.8607, 46.56175
461.3428, 46.81556
461.8249, 47.08645
462.3070, 47.35265
462.7892, 47.62746
463.2713, 47.98670
463.7534, 48.37860
464.2355, 48.57561
464.7176, 48.45530
465.1997, 48.19951
465.6819, 48.13636
466.1640, 48.33654
466.6461, 48.44575
467.1282, 48.28669
467.6103, 48.12099
468.0924, 48.18011
468.5746, 48.45575
469.0567, 48.80828
469.5388, 49.15376
470.0209, 49.47462
470.5030, 49.65260
470.9851, 49.33191
471.4673, 49.30635
471.9494, 49.99670
472.4315, 50.84868
472.9136, 51.25674
473.3957, 51.09778
473.8778, 50.75747
474.3600, 50.70747
474.8421, 50.99278
475.3242, 51.23502
475.8063, 51.42971
476.2884, 51.58187
476.7705, 51.63104
477.2527, 51.65256
477.7348, 51.77858
478.2169, 52.08333
478.6990, 52.46773
479.1811, 52.76544
479.6632, 52.96768
480.1454, 53.15749
480.6275, 53.26094
481.1096, 53.45665
481.5917, 53.95641
482.0738, 54.72227
482.5559, 55.40617
483.0380, 55.80614
483.5201, 56.04036
484.0023, 56.28442
484.4844, 56.54550
484.9665, 56.79396
485.4486, 56.98647
485.9307, 57.17099
486.4128, 57.46504
486.8950, 57.86615
487.3771, 58.36805
487.8592, 58.97356
488.3413, 59.67601
488.8234, 60.52065
489.3055, 61.50665
489.7877, 62.46081
490.2698, 63.18711
490.7519, 63.66854
491.2340, 64.31394
491.7161, 65.15350
492.1982, 66.09653
492.6804, 67.21124
493.1625, 68.38512
493.6446, 69.45489
494.1267, 70.36481
494.6088, 71.20181
495.0909, 72.08572
495.5731, 72.99155
496.0552, 74.02513
496.5373, 75.26836
497.0194, 76.56783
497.5015, 77.93420
497.9836, 79.30293
498.4658, 80.52783
498.9479, 81.47679
499.4300, 82.33682
499.9121, 83.55108
500.3942, 85.19439
500.8763, 86.67497
501.3585, 87.69361
501.8406, 88.59206
502.3227, 89.71257
502.8048, 91.05488
503.2869, 92.37980
503.7690, 93.49623
504.2512, 94.56078
504.7333, 95.86009
505.2154, 97.41823
505.6975, 98.87996
506.1796, 100.0170
506.6617, 100.9201
507.1439, 101.8931
507.6260, 103.0448
508.1081, 104.0716
508.5902, 104.8923
509.0723, 105.5461
509.5544, 105.9948
510.0366, 106.2686
510.5187, 106.6283
511.0008, 107.3587
511.4829, 108.4576
511.9650, 109.2052
512.4471, 109.5103
512.9293, 109.5694
513.4114, 109.2254
513.8935, 108.7418
514.3756, 108.4694
514.8577, 108.4878
515.3398, 108.4908
515.8220, 108.0578
516.3041, 107.1492
516.7862, 106.2510
517.2683, 105.4433
517.7504, 104.5440
518.2325, 103.4836
518.7147, 102.2877
519.1968, 100.9973
519.6789, 99.60678
520.1610, 98.17831
520.6431, 96.79208
521.1252, 95.44138
521.6074, 94.05345
522.0895, 92.58107
522.5716, 91.14344
523.0537, 89.88425
523.5358, 88.78101
524.0179, 87.72274
524.5001, 86.81782
524.9822, 85.83591
525.4643, 84.52372
525.9464, 82.98682
526.4285, 81.55550
526.9106, 80.36784
527.3928, 79.33065
527.8749, 78.27265
528.3570, 77.16573
528.8391, 76.08053
529.3212, 75.00994
529.8033, 73.96783
530.2855, 73.04172
530.7676, 72.14490
531.2497, 71.06266
531.7318, 69.64758
532.2139, 68.05083
532.6960, 66.69099
533.1782, 65.68032
533.6603, 64.58766
534.1424, 63.14114
534.6245, 61.75383
535.1066, 60.72417
535.5887, 60.00622
536.0709, 59.28627
536.5530, 58.41619
537.0351, 57.41834
537.5172, 56.24861
537.9993, 54.89587
538.4814, 53.71383
538.9636, 52.90404
539.4457, 52.29800
539.9278, 51.61966
540.4099, 50.87029
540.8920, 50.07277
541.3741, 49.17661
541.8563, 48.26896
542.3384, 47.39350
542.8205, 46.57320
543.3026, 45.92259
543.7847, 45.54891
544.2668, 45.33690
544.7490, 44.87474
545.2311, 43.90331
545.7132, 43.02865
546.1953, 42.27972
546.6774, 41.61617
547.1595, 41.02124
547.6417, 40.48377
548.1238, 39.98484
548.6059, 39.49557
549.0880, 39.04159
549.5701, 38.74867
550.0522, 38.72682
550.5344, 38.58558
551.0165, 38.01411
551.4986, 37.40121
551.9807, 37.10195
552.4628, 37.12733
552.9449, 37.10693
553.4271, 36.82967
553.9092, 36.36543
554.3913, 35.75310
554.8734, 34.99493
555.3555, 34.38918
555.8376, 34.11927
556.3198, 34.08841
556.8019, 34.05959
557.2840, 34.04039
557.7661, 34.00581
558.2482, 33.94126
558.7303, 33.86649
559.2125, 33.86344
559.6946, 33.88778
560.1767, 33.71370
560.6588, 33.14153
561.1409, 32.32404
561.6230, 31.94533
562.1052, 32.40586
562.5873, 32.61576
563.0694, 32.22671
563.5515, 31.77245
564.0336, 31.65410
564.5157, 31.85469
564.9979, 32.09015
565.4800, 32.18709
565.9621, 32.16515
566.4442, 32.04213
566.9263, 31.79554
567.4084, 31.60818
567.8906, 31.60140
568.3727, 31.64141
568.8548, 31.54537
569.3369, 31.30593
569.8190, 31.06785
570.3011, 30.83633
570.7833, 30.66019
571.2654, 30.64896
571.7475, 30.76156
572.2296, 30.77984
572.7117, 30.57051
573.1938, 30.25317
573.6760, 30.12493
574.1581, 30.41471
574.6402, 30.46781
575.1223, 30.06247
575.6044, 29.63669
576.0865, 29.47805
576.5687, 29.51792
577.0508, 29.50721
577.5329, 29.28839
578.0150, 29.00031
578.4971, 28.97353
578.9792, 29.26309
579.4614, 29.50343
579.9435, 29.61393
580.4256, 29.67330
580.9077, 29.75675
581.3898, 29.84544
581.8719, 29.86495
582.3541, 29.74427
582.8362, 29.58412
583.3183, 29.47154
583.8004, 29.40106
584.2825, 29.35901
584.7646, 29.34419
585.2468, 29.33857
585.7289, 29.31653
586.2110, 29.27199
586.6931, 29.25064
587.1752, 29.20522
587.6573, 29.23221
588.1394, 29.46754
588.6215, 29.76983
589.1036, 29.90317
589.5858, 29.79271
590.0679, 29.60069
590.5500, 29.55236
591.0321, 29.66412
591.5142, 29.74592
591.9963, 29.79634
592.4785, 29.81622
592.9606, 29.77469
593.4427, 29.71728
593.9248, 29.73977
594.4069, 29.89950
594.8890, 29.96564
595.3712, 29.59117
595.8533, 29.02419
596.3354, 28.91905
596.8175, 29.37996
597.2996, 29.86035
597.7817, 29.95093
598.2639, 29.73390
598.7460, 29.65102
599.2281, 29.77244
599.7102, 29.91125
600.1923, 30.06592
600.6744, 30.20956
601.1566, 30.31655
601.6387, 30.38623
602.1208, 30.43256
602.6029, 30.46493
603.0850, 30.48407
603.5671, 30.48277
604.0493, 30.43084
604.5314, 30.43970
605.0135, 30.57873
605.4956, 30.75369
605.9777, 30.91433
606.4598, 31.05552
606.9420, 31.17762
607.4241, 31.23407
607.9062, 31.30220
608.3883, 31.53631
608.8704, 31.89101
609.3525, 32.09747
609.8347, 32.04488
610.3168, 31.86389
610.7989, 31.71417
611.2810, 31.58505
611.7631, 31.56384
612.2452, 31.67326
612.7274, 31.86039
613.2095, 32.21841
613.6916, 32.60106
614.1737, 32.75579
614.6558, 32.61049
615.1379, 32.38735
615.6201, 32.41060
616.1022, 32.69231
616.5843, 32.76165
617.0664, 32.48182
617.5485, 32.23259
618.0306, 32.19918
618.5128, 32.29081
618.9949, 32.42733
619.4770, 32.61265
619.9591, 32.74565
620.4412, 32.74895
620.9233, 32.67353
621.4055, 32.59674
621.8876, 32.52320
622.3697, 32.41898
622.8518, 32.26180
623.3339, 32.06226
623.8160, 31.85036
624.2982, 31.60366
624.7803, 31.38227
625.2624, 31.16508
625.7445, 30.99107
626.2266, 30.94329
626.7087, 30.95537
627.1909, 30.87104
627.6730, 30.60040
628.1551, 30.23527
628.6372, 29.91291
629.1193, 29.63178
629.6014, 29.43040
630.0836, 29.35446
630.5657, 29.29258
631.0478, 29.16604
631.5299, 28.98690
632.0120, 28.77000
632.4941, 28.45320
632.9763, 28.19332
633.4584, 28.12312
633.9405, 28.13628
634.4226, 28.06646
634.9047, 27.89175
635.3868, 27.71850
635.8690, 27.50854
636.3511, 27.62187
636.8332, 27.65250
637.3153, 27.60487
637.7974, 27.24463
638.2795, 27.28807
638.7617, 27.16971
639.2438, 27.04475
639.7259, 27.14500
640.2080, 26.83023
640.6901, 26.92691
641.1722, 26.85935
641.6544, 26.86694
642.1365, 26.71178
642.6186, 26.60689
643.1007, 26.66482
643.5828, 26.38722
644.0649, 26.29727
644.5471, 26.24522
645.0292, 26.17093
645.5113, 26.08926
645.9934, 25.96850
646.4755, 25.70580
646.9576, 25.44119
647.4398, 25.40381
647.9219, 25.60632
648.4040, 25.79973
648.8861, 25.71344
649.3682, 25.41283
649.8503, 25.13894
650.3325, 25.32228
650.8146, 25.42293
651.2967, 25.44532
651.7788, 25.15510
652.2609, 25.26856
652.7430, 25.22025
653.2252, 25.16529
653.7073, 25.33557
654.1894, 25.09081
654.6715, 25.25752
655.1536, 25.25998
655.6357, 25.33761
656.1179, 25.25246
656.6000, 25.21759
657.0821, 25.30408
657.5642, 25.34682
658.0463, 25.31319
658.5284, 25.08637
659.0106, 24.92088
659.4927, 24.82079
659.9748, 24.83221
660.4569, 24.91134
660.9390, 25.12357
661.4211, 25.25311
661.9033, 25.30440
662.3854, 25.04307
662.8675, 25.18542
