##NAMES=Aramayoite
##RRUFFID=R061071
##IDEAL CHEMISTRY=Ag^1+^_3_Sb^3+^_2_(Bi^3+^,Sb^3+^)S^2-^_6_
##LOCALITY=Animas mine, Potosi, Bolivia
##OWNER=RRUFF
##SOURCE=Michael Scott
##DESCRIPTION=Black platy submetallic
##STATUS=The identification of this mineral has been confirmed only by single crystal X-ray diffraction.
##URL=rruff.info/R061071
134.6465, 2856.133
135.1286, 2829.160
135.6108, 2787.107
136.0929, 2786.438
136.5750, 2869.418
137.0571, 3017.230
137.5392, 3135.139
138.0213, 3177.760
138.5035, 3233.874
138.9856, 3343.523
139.4677, 3506.750
139.9498, 3718.317
140.4319, 3965.791
140.9140, 4271.097
141.3961, 4665.871
141.8783, 5311.519
142.3604, 5926.142
142.8425, 6233.096
143.3246, 6232.728
143.8067, 6228.852
144.2888, 6416.437
144.7710, 6738.692
145.2531, 7055.156
145.7352, 7305.552
146.2173, 7449.973
146.6994, 7500.977
147.1815, 7515.082
147.6637, 7513.012
148.1458, 7492.052
148.6279, 7466.357
149.1100, 7459.194
149.5921, 7499.548
150.0742, 7546.458
150.5564, 7534.194
151.0385, 7450.250
151.5206, 7352.357
152.0027, 7251.684
152.4848, 7158.954
152.9669, 7096.507
153.4491, 7087.402
153.9312, 7104.474
154.4133, 7089.918
154.8954, 7026.452
155.3775, 6968.279
155.8596, 6940.462
156.3418, 6933.642
156.8239, 6936.739
157.3060, 6949.667
157.7881, 6966.481
158.2702, 6967.575
158.7523, 6936.035
159.2345, 6920.681
159.7166, 6948.575
160.1987, 7002.477
160.6808, 7056.860
161.1629, 7099.758
161.6451, 7133.717
162.1272, 7166.315
162.6093, 7199.495
163.0914, 7230.750
163.5735, 7267.875
164.0556, 7303.213
164.5378, 7321.936
165.0199, 7308.732
165.5020, 7273.992
165.9841, 7270.031
166.4662, 7326.980
166.9483, 7375.574
167.4305, 7390.195
167.9126, 7383.201
168.3947, 7375.266
168.8768, 7379.480
169.3589, 7393.764
169.8410, 7403.224
170.3232, 7398.915
170.8053, 7400.142
171.2874, 7421.853
171.7695, 7451.342
172.2516, 7464.559
172.7337, 7439.277
173.2159, 7382.503
173.6980, 7363.486
174.1801, 7430.625
174.6622, 7483.021
175.1443, 7476.556
175.6264, 7438.168
176.1085, 7417.304
176.5907, 7450.844
177.0728, 7532.405
177.5549, 7589.797
178.0370, 7596.729
178.5191, 7604.445
179.0012, 7626.726
179.4834, 7657.570
179.9655, 7683.791
180.4476, 7694.891
180.9297, 7693.612
181.4118, 7710.653
181.8939, 7778.423
182.3761, 7832.512
182.8582, 7845.164
183.3403, 7836.674
183.8224, 7843.734
184.3045, 7893.024
184.7866, 7977.948
185.2688, 8040.099
185.7509, 8056.564
186.2330, 8072.086
186.7151, 8097.116
187.1972, 8126.515
187.6793, 8150.936
188.1615, 8164.885
188.6436, 8168.986
189.1257, 8168.054
189.6078, 8153.383
190.0899, 8142.839
190.5720, 8129.967
191.0542, 8156.197
191.5363, 8173.595
192.0184, 8182.637
192.5005, 8158.296
192.9826, 8177.063
193.4647, 8178.555
193.9469, 8179.339
194.4290, 8204.174
194.9111, 8179.867
195.3932, 8177.752
195.8753, 8171.120
196.3574, 8158.573
196.8396, 8133.167
197.3217, 8072.909
197.8038, 8023.560
198.2859, 7992.813
198.7680, 7975.673
199.2501, 7969.489
199.7323, 7973.884
200.2144, 7981.842
200.6965, 7967.084
201.1786, 7911.106
201.6607, 7850.348
202.1428, 7772.832
202.6250, 7696.387
203.1071, 7646.271
203.5892, 7634.360
204.0713, 7646.088
204.5534, 7637.955
205.0355, 7581.574
205.5177, 7538.044
205.9998, 7523.750
206.4819, 7518.367
206.9640, 7498.962
207.4461, 7456.161
207.9282, 7398.332
208.4104, 7344.718
208.8925, 7284.285
209.3746, 7244.673
209.8567, 7239.931
210.3388, 7249.223
210.8209, 7254.852
211.3030, 7250.353
211.7852, 7237.156
212.2673, 7217.231
212.7494, 7182.942
213.2315, 7153.457
213.7136, 7127.025
214.1957, 7106.258
214.6779, 7097.873
215.1600, 7102.239
215.6421, 7107.831
216.1242, 7095.091
216.6063, 7047.436
217.0884, 7013.894
217.5706, 7002.542
218.0527, 6997.928
218.5348, 6991.192
219.0169, 6979.751
219.4990, 6963.302
219.9811, 6939.196
220.4633, 6896.249
220.9454, 6877.507
221.4275, 6907.526
221.9096, 6938.144
222.3917, 6933.169
222.8738, 6893.759
223.3560, 6851.912
223.8381, 6845.463
224.3202, 6888.339
224.8023, 6907.784
225.2844, 6880.417
225.7665, 6853.909
226.2487, 6858.094
226.7308, 6887.342
227.2129, 6913.063
227.6950, 6906.746
228.1771, 6863.673
228.6592, 6836.101
229.1414, 6828.153
229.6235, 6830.494
230.1056, 6841.063
230.5877, 6859.368
231.0698, 6887.320
231.5519, 6929.375
232.0341, 6984.631
232.5162, 7016.559
232.9983, 6992.807
233.4804, 6978.490
233.9625, 6989.799
234.4446, 7021.183
234.9268, 7061.094
235.4089, 7102.232
235.8910, 7145.735
236.3731, 7198.420
236.8552, 7282.667
237.3373, 7349.288
237.8195, 7381.945
238.3016, 7395.087
238.7837, 7405.668
239.2658, 7421.596
239.7479, 7425.416
240.2300, 7476.038
240.7122, 7517.836
241.1943, 7551.271
241.6764, 7551.322
242.1585, 7594.480
242.6406, 7620.363
243.1227, 7645.538
243.6049, 7694.771
244.0870, 7699.678
244.5691, 7748.522
245.0512, 7779.827
245.5333, 7819.159
246.0154, 7841.109
246.4975, 7868.428
246.9797, 7913.141
247.4618, 7925.495
247.9439, 7944.488
248.4260, 7955.393
248.9081, 7964.357
249.3902, 7965.493
249.8724, 7969.487
250.3545, 7982.974
250.8366, 8005.894
251.3187, 8033.027
251.8008, 8061.446
252.2829, 8091.934
252.7651, 8114.335
253.2472, 8113.661
253.7293, 8118.813
254.2114, 8151.595
254.6935, 8203.222
255.1756, 8245.360
255.6578, 8250.839
256.1399, 8224.647
256.6220, 8212.186
257.1041, 8216.599
257.5862, 8232.088
258.0684, 8259.283
258.5505, 8293.911
259.0326, 8329.311
259.5147, 8366.976
259.9968, 8400.351
260.4789, 8407.946
260.9611, 8378.909
261.4432, 8349.259
261.9253, 8337.529
262.4074, 8333.328
262.8895, 8326.034
263.3716, 8316.097
263.8537, 8294.742
264.3358, 8241.925
264.8180, 8151.047
265.3001, 8068.242
265.7822, 8014.073
266.2643, 7975.744
266.7464, 7944.833
267.2285, 7922.938
267.7107, 7896.905
268.1928, 7843.599
268.6749, 7766.305
269.1570, 7717.785
269.6391, 7727.937
270.1212, 7760.093
270.6034, 7771.654
271.0855, 7761.231
271.5676, 7744.305
272.0497, 7722.089
272.5318, 7699.458
273.0139, 7695.412
273.4961, 7721.119
273.9782, 7749.656
274.4603, 7747.409
274.9424, 7718.562
275.4245, 7697.180
275.9066, 7710.199
276.3888, 7730.591
276.8709, 7717.426
277.3530, 7664.544
277.8351, 7597.102
278.3172, 7531.859
278.7993, 7468.827
279.2815, 7409.206
279.7636, 7358.602
280.2457, 7307.241
280.7278, 7247.293
281.2099, 7179.023
281.6920, 7105.708
282.1742, 7028.110
282.6563, 6947.353
283.1384, 6868.838
283.6205, 6802.313
284.1026, 6727.730
284.5847, 6629.967
285.0669, 6518.560
285.5490, 6411.240
286.0311, 6316.288
286.5132, 6231.668
286.9953, 6154.827
287.4774, 6094.868
287.9596, 6026.532
288.4417, 5930.422
288.9238, 5831.201
289.4059, 5760.494
289.8880, 5725.979
290.3701, 5707.487
290.8523, 5675.785
291.3344, 5622.291
291.8165, 5576.831
292.2986, 5546.730
292.7807, 5518.348
293.2628, 5478.355
293.7450, 5428.745
294.2271, 5383.303
294.7092, 5354.182
295.1913, 5341.208
295.6734, 5346.215
296.1555, 5395.193
296.6377, 5434.333
297.1198, 5435.002
297.6019, 5413.147
298.0840, 5399.859
298.5661, 5414.341
299.0482, 5453.088
299.5304, 5500.239
300.0125, 5566.452
300.4946, 5626.517
300.9767, 5672.459
301.4588, 5712.781
301.9409, 5757.252
302.4231, 5809.545
302.9052, 5864.485
303.3873, 5909.903
303.8694, 5937.256
304.3515, 5982.900
304.8336, 6080.484
305.3158, 6177.072
305.7979, 6236.017
306.2800, 6255.341
306.7621, 6264.846
307.2442, 6295.879
307.7263, 6347.427
308.2085, 6382.890
308.6906, 6401.607
309.1727, 6399.466
309.6548, 6376.650
310.1369, 6333.899
310.6190, 6273.728
311.1012, 6195.552
311.5833, 6101.091
312.0654, 5993.966
312.5475, 5875.642
313.0296, 5740.255
313.5117, 5571.812
313.9939, 5387.084
314.4760, 5209.719
314.9581, 5044.954
315.4402, 4888.945
315.9223, 4738.588
316.4044, 4593.982
316.8866, 4455.190
317.3687, 4319.762
317.8508, 4193.510
318.3329, 4086.923
318.8150, 4004.209
319.2971, 3923.949
319.7793, 3829.041
320.2614, 3732.790
320.7435, 3660.275
321.2256, 3619.205
321.7077, 3588.829
322.1898, 3543.667
322.6720, 3478.531
323.1541, 3429.369
323.6362, 3412.550
324.1183, 3401.303
324.6004, 3373.832
325.0826, 3331.468
325.5647, 3289.987
326.0468, 3261.637
326.5289, 3245.637
327.0110, 3227.178
327.4931, 3206.285
327.9753, 3183.375
328.4574, 3156.020
328.9395, 3127.326
329.4216, 3104.427
329.9037, 3090.659
330.3858, 3078.544
330.8680, 3048.097
331.3501, 2969.958
331.8322, 2923.289
332.3143, 2931.624
332.7964, 2954.705
333.2785, 2965.391
333.7606, 2958.351
334.2427, 2942.292
334.7249, 2926.238
335.2070, 2910.412
335.6891, 2892.046
336.1712, 2867.082
336.6533, 2843.334
337.1354, 2822.755
337.6176, 2805.628
338.0997, 2792.212
338.5818, 2783.641
339.0639, 2778.232
339.5460, 2772.747
340.0281, 2769.535
340.5103, 2759.606
340.9924, 2730.765
341.4745, 2696.871
341.9566, 2673.010
342.4387, 2663.923
342.9208, 2659.631
343.4030, 2649.280
343.8851, 2634.130
344.3672, 2626.857
344.8493, 2634.492
345.3314, 2646.094
345.8135, 2650.480
346.2957, 2648.094
346.7778, 2639.524
347.2599, 2620.300
347.7420, 2597.040
348.2241, 2576.740
348.7062, 2560.144
349.1884, 2552.586
349.6705, 2563.542
350.1526, 2590.478
350.6347, 2597.649
351.1168, 2569.875
351.5989, 2538.150
352.0811, 2515.312
352.5632, 2500.218
353.0453, 2489.424
353.5274, 2481.514
354.0095, 2476.011
354.4916, 2471.632
354.9738, 2470.538
355.4559, 2467.677
355.9380, 2461.040
356.4201, 2453.853
356.9022, 2450.913
357.3843, 2451.876
357.8665, 2449.545
358.3486, 2434.147
358.8307, 2402.398
359.3128, 2381.365
359.7949, 2380.680
360.2770, 2381.285
360.7592, 2376.018
361.2413, 2367.691
361.7234, 2362.427
362.2055, 2363.792
362.6876, 2370.066
363.1697, 2378.433
363.6519, 2392.706
364.1340, 2398.686
364.6161, 2382.450
365.0982, 2362.001
365.5803, 2353.663
366.0624, 2360.834
366.5446, 2369.132
367.0267, 2366.687
367.5088, 2354.699
367.9909, 2337.442
368.4730, 2309.703
368.9551, 2288.072
369.4373, 2294.255
369.9194, 2321.168
370.4015, 2340.667
370.8836, 2339.761
371.3657, 2331.145
371.8478, 2327.656
372.3300, 2329.177
372.8121, 2330.281
373.2942, 2328.481
373.7763, 2323.714
374.2584, 2315.625
374.7405, 2301.636
375.2227, 2288.671
375.7048, 2276.946
376.1869, 2267.717
376.6690, 2262.711
377.1511, 2262.365
377.6332, 2266.115
378.1154, 2274.620
378.5975, 2293.020
379.0796, 2296.769
379.5617, 2273.063
380.0438, 2249.447
380.5259, 2240.167
381.0081, 2241.867
381.4902, 2243.395
381.9723, 2237.068
382.4544, 2225.826
382.9365, 2222.445
383.4186, 2234.074
383.9008, 2240.264
384.3829, 2231.877
384.8650, 2219.871
385.3471, 2214.265
385.8292, 2217.264
386.3113, 2222.940
386.7935, 2226.042
387.2756, 2226.624
387.7577, 2224.881
388.2398, 2219.596
388.7219, 2213.896
389.2040, 2211.157
389.6862, 2210.143
390.1683, 2206.812
390.6504, 2199.286
391.1325, 2189.142
391.6146, 2173.229
392.0967, 2152.883
392.5789, 2147.250
393.0610, 2171.378
393.5431, 2211.040
394.0252, 2229.114
394.5073, 2218.929
394.9894, 2205.466
395.4716, 2191.446
395.9537, 2179.103
396.4358, 2172.599
396.9179, 2172.195
397.4000, 2171.950
397.8821, 2164.667
398.3643, 2148.381
398.8464, 2140.971
399.3285, 2151.647
399.8106, 2160.133
400.2927, 2154.418
400.7748, 2142.542
401.2570, 2140.926
401.7391, 2158.385
402.2212, 2183.106
402.7033, 2186.728
403.1854, 2159.406
403.6675, 2137.770
404.1497, 2126.501
404.6317, 2123.031
405.1139, 2131.836
405.5960, 2150.320
406.0781, 2163.029
406.5602, 2154.048
407.0423, 2130.206
407.5244, 2115.136
408.0066, 2111.560
408.4887, 2109.675
408.9708, 2100.276
409.4529, 2089.405
409.9350, 2090.297
410.4171, 2114.777
410.8993, 2135.595
411.3814, 2128.078
411.8635, 2103.673
412.3456, 2092.554
412.8277, 2105.013
413.3098, 2126.332
413.7920, 2137.661
414.2741, 2136.875
414.7562, 2130.630
415.2383, 2117.044
415.7204, 2099.652
416.2025, 2073.252
416.6847, 2044.286
417.1668, 2030.747
417.6489, 2045.488
418.1310, 2079.659
418.6131, 2097.367
419.0952, 2086.550
419.5774, 2078.409
420.0595, 2076.013
420.5416, 2077.690
421.0237, 2084.360
421.5058, 2095.093
421.9879, 2104.028
422.4701, 2104.379
422.9522, 2097.034
423.4343, 2091.020
423.9164, 2085.651
424.3985, 2083.328
424.8806, 2090.488
425.3628, 2100.650
425.8449, 2101.535
426.3270, 2084.050
426.8091, 2065.978
427.2912, 2063.942
427.7733, 2074.333
428.2555, 2083.090
428.7376, 2085.734
429.2197, 2086.091
429.7018, 2090.535
430.1839, 2101.228
430.6660, 2104.580
431.1482, 2092.394
431.6303, 2078.596
432.1124, 2072.761
432.5945, 2074.038
433.0766, 2077.457
433.5587, 2080.315
434.0409, 2082.193
434.5230, 2081.372
435.0051, 2075.771
435.4872, 2070.659
435.9693, 2062.842
436.4514, 2058.081
436.9336, 2065.508
437.4157, 2083.626
437.8978, 2096.988
438.3799, 2088.251
438.8620, 2060.459
439.3441, 2037.995
439.8263, 2018.286
440.3084, 2009.315
440.7905, 2024.252
441.2726, 2049.863
441.7547, 2068.070
442.2368, 2073.842
442.7190, 2074.816
443.2011, 2077.022
443.6832, 2078.865
444.1653, 2073.972
444.6474, 2059.393
445.1295, 2045.129
445.6117, 2043.485
446.0938, 2057.299
446.5759, 2064.482
447.0580, 2060.504
447.5401, 2054.271
448.0222, 2048.679
448.5044, 2044.520
448.9865, 2044.010
449.4686, 2048.493
449.9507, 2053.291
450.4328, 2045.311
450.9149, 2010.111
451.3971, 1995.935
451.8792, 2029.820
452.3613, 2063.132
452.8434, 2062.642
453.3255, 2035.231
453.8076, 2013.619
454.2898, 2022.969
454.7719, 2050.271
455.2540, 2062.664
455.7361, 2057.676
456.2182, 2052.467
456.7003, 2055.495
457.1825, 2060.846
457.6646, 2059.388
458.1467, 2049.584
458.6288, 2039.407
459.1109, 2027.932
459.5930, 2019.817
460.0752, 2025.366
460.5573, 2044.452
461.0394, 2061.033
461.5215, 2062.220
462.0036, 2049.503
462.4857, 2039.017
462.9679, 2026.335
463.4500, 2021.229
463.9321, 2030.711
464.4142, 2045.816
464.8963, 2058.513
465.3784, 2066.328
465.8606, 2069.779
466.3427, 2069.265
466.8248, 2064.767
467.3069, 2056.412
467.7890, 2039.639
468.2711, 2025.806
468.7533, 2019.526
469.2354, 2019.129
469.7175, 2023.381
470.1996, 2034.440
470.6817, 2043.601
471.1638, 2040.300
471.6460, 2027.977
472.1281, 2018.468
472.6102, 2013.554
473.0923, 2015.780
473.5744, 2030.815
474.0565, 2060.455
474.5387, 2079.531
475.0208, 2086.305
475.5029, 2084.165
475.9850, 2070.653
476.4671, 2050.134
476.9492, 2028.485
477.4313, 2008.222
477.9135, 1992.139
478.3956, 1986.502
478.8777, 1995.822
479.3598, 2002.431
479.8419, 2002.644
480.3240, 2003.409
480.8062, 2010.047
481.2883, 2019.496
481.7704, 2023.519
482.2525, 2015.041
482.7346, 2004.234
483.2167, 2008.036
483.6989, 2026.101
484.1810, 2042.713
484.6631, 2054.500
485.1452, 2061.250
485.6273, 2063.016
486.1094, 2060.414
486.5916, 2049.671
487.0737, 2016.801
487.5558, 1986.450
488.0379, 1980.432
488.5200, 1993.736
489.0021, 2007.993
489.4843, 2013.785
489.9664, 2014.472
490.4485, 2018.333
490.9306, 2028.226
491.4127, 2035.858
491.8948, 2044.190
492.3770, 2047.874
492.8591, 2041.532
493.3412, 2027.557
493.8233, 2012.985
494.3054, 2000.755
494.7875, 1992.183
495.2697, 1991.810
495.7518, 2000.515
496.2339, 2008.423
496.7160, 2015.878
497.1981, 2017.300
497.6802, 2000.428
498.1624, 1963.448
498.6445, 1940.990
499.1266, 1955.661
499.6087, 1979.237
500.0908, 1982.067
500.5729, 1968.636
501.0551, 1965.788
501.5372, 1990.196
502.0193, 2028.214
502.5014, 2042.144
502.9835, 2011.392
503.4656, 1992.151
503.9478, 1989.863
504.4299, 1994.285
504.9120, 2003.683
505.3941, 2014.667
505.8762, 2020.058
506.3583, 2014.670
506.8405, 2001.611
507.3226, 1984.670
507.8047, 1962.610
508.2868, 1950.433
508.7689, 1958.256
509.2510, 1972.680
509.7332, 1974.975
510.2153, 1964.419
510.6974, 1960.082
511.1795, 1973.305
511.6616, 1989.863
512.1437, 1997.443
512.6259, 1997.118
513.1080, 1994.949
513.5901, 1993.819
514.0722, 1994.058
514.5543, 1997.716
515.0364, 2014.894
515.5186, 2014.921
516.0007, 1977.724
516.4828, 1943.310
516.9649, 1936.008
517.4470, 1949.828
517.9291, 1964.711
518.4113, 1970.829
518.8934, 1970.620
519.3755, 1963.616
519.8576, 1949.730
520.3397, 1951.586
520.8218, 1984.556
521.3040, 2021.841
521.7861, 2027.031
522.2682, 2001.816
522.7503, 1981.564
523.2324, 1974.567
523.7145, 1971.288
524.1967, 1965.267
524.6788, 1958.141
525.1609, 1954.231
525.6430, 1955.368
526.1251, 1960.226
526.6072, 1968.005
527.0894, 1965.399
527.5715, 1984.701
528.0536, 1995.172
528.5357, 1997.288
529.0178, 1966.019
529.4999, 1977.859
529.9821, 1972.423
530.4642, 1966.278
530.9463, 1984.185
531.4284, 1957.772
531.9105, 1975.298
532.3926, 1975.284
532.8748, 1983.298
533.3569, 1973.929
533.8390, 1969.929
534.3211, 1983.317
534.8032, 1987.077
535.2853, 1975.707
535.7675, 1984.231
536.2496, 1957.211
536.7317, 1961.381
537.2138, 1979.009
537.6959, 1968.513
538.1780, 1977.354
538.6602, 1954.068
539.1423, 1928.853
539.6244, 1913.941
540.1065, 1913.483
540.5886, 1915.902
541.0707, 1915.162
541.5529, 1915.262
542.0350, 1923.479
542.5171, 1943.359
542.9992, 1956.809
543.4813, 1947.371
543.9634, 1927.497
544.4456, 1915.980
544.9277, 1914.558
545.4098, 1918.344
545.8919, 1925.555
546.3740, 1933.919
546.8561, 1934.140
547.3383, 1919.173
547.8204, 1905.658
548.3025, 1889.758
548.7846, 1878.892
549.2667, 1883.296
549.7488, 1898.680
550.2310, 1908.968
550.7131, 1901.922
551.1952, 1885.065
551.6773, 1874.060
552.1594, 1869.174
552.6415, 1865.018
553.1237, 1857.724
553.6058, 1853.660
554.0879, 1866.894
554.5700, 1896.980
555.0521, 1910.708
555.5342, 1887.999
556.0164, 1862.289
556.4985, 1858.482
556.9806, 1866.306
557.4627, 1858.659
557.9448, 1826.152
558.4269, 1793.892
558.9091, 1805.533
559.3912, 1872.748
559.8733, 1909.180
560.3554, 1898.650
560.8375, 1877.786
561.3196, 1853.116
561.8018, 1831.305
562.2839, 1825.032
562.7660, 1841.300
563.2481, 1855.767
563.7302, 1847.151
564.2123, 1825.564
564.6945, 1810.864
565.1766, 1805.541
565.6587, 1802.300
566.1408, 1796.137
566.6229, 1787.671
567.1050, 1779.974
567.5872, 1769.383
568.0693, 1764.844
568.5514, 1773.280
569.0335, 1782.847
569.5156, 1782.069
569.9977, 1773.286
570.4799, 1769.116
570.9620, 1779.240
571.4441, 1797.309
571.9262, 1812.812
572.4083, 1825.882
572.8904, 1828.878
573.3726, 1815.098
573.8547, 1798.082
574.3368, 1795.455
574.8189, 1807.552
575.3010, 1813.809
575.7831, 1805.649
576.2653, 1798.656
576.7474, 1804.324
577.2295, 1815.150
577.7116, 1817.135
578.1937, 1806.623
578.6758, 1794.328
579.1580, 1795.478
579.6401, 1810.162
580.1222, 1813.644
580.6042, 1799.186
581.0864, 1786.744
581.5685, 1789.134
582.0506, 1796.519
582.5327, 1796.158
583.0148, 1784.709
583.4969, 1777.647
583.9791, 1787.082
584.4612, 1801.434
584.9433, 1807.708
585.4254, 1805.775
585.9075, 1800.583
586.3896, 1794.625
586.8718, 1788.036
587.3539, 1780.412
587.8360, 1768.422
588.3181, 1763.491
588.8002, 1775.116
589.2823, 1784.972
589.7645, 1786.373
590.2466, 1779.613
590.7287, 1763.763
591.2108, 1732.091
591.6929, 1707.432
592.1750, 1720.225
592.6572, 1756.468
593.1393, 1776.266
593.6214, 1772.218
594.1035, 1761.051
594.5856, 1755.047
595.0677, 1754.086
595.5499, 1757.138
596.0320, 1771.296
596.5141, 1780.121
596.9962, 1780.731
597.4783, 1776.592
597.9604, 1767.801
598.4426, 1756.368
598.9247, 1748.028
599.4068, 1747.228
599.8889, 1750.928
600.3710, 1754.914
600.8531, 1759.043
601.3353, 1760.293
601.8174, 1757.497
602.2995, 1752.367
602.7816, 1746.500
603.2637, 1739.850
603.7458, 1733.067
604.2280, 1722.087
604.7101, 1715.684
605.1922, 1722.600
605.6743, 1732.888
606.1564, 1731.518
606.6385, 1717.000
607.1207, 1705.001
607.6028, 1715.051
608.0849, 1739.684
608.5670, 1742.214
609.0491, 1717.296
609.5313, 1700.533
610.0134, 1710.228
610.4955, 1729.807
610.9776, 1733.757
611.4597, 1720.645
611.9418, 1711.726
612.4240, 1713.617
612.9061, 1717.287
613.3882, 1715.835
613.8703, 1712.572
614.3524, 1715.948
614.8345, 1728.489
615.3167, 1740.710
615.7988, 1738.507
616.2809, 1722.091
616.7630, 1712.427
617.2451, 1712.904
617.7272, 1711.565
618.2094, 1698.549
618.6915, 1682.863
619.1736, 1679.374
619.6557, 1691.910
620.1378, 1700.924
620.6199, 1697.290
621.1021, 1690.476
621.5842, 1688.351
622.0663, 1690.024
622.5484, 1691.762
623.0305, 1691.884
623.5126, 1690.019
623.9948, 1684.531
624.4769, 1674.523
624.9590, 1668.035
625.4411, 1664.679
625.9232, 1665.889
626.4053, 1677.887
626.8875, 1693.139
627.3696, 1699.660
627.8517, 1693.934
628.3338, 1687.294
628.8159, 1683.870
629.2980, 1682.252
629.7802, 1682.606
630.2623, 1683.637
630.7444, 1679.490
631.2265, 1666.225
631.7086, 1652.801
632.1907, 1661.069
632.6729, 1698.489
