##NAMES=Aramayoite
##RRUFFID=R061071
##IDEAL CHEMISTRY=Ag^1+^_3_Sb^3+^_2_(Bi^3+^,Sb^3+^)S^2-^_6_
##LOCALITY=Animas mine, Potosi, Bolivia
##OWNER=RRUFF
##SOURCE=Michael Scott
##DESCRIPTION=Black platy submetallic
##STATUS=The identification of this mineral has been confirmed only by single crystal X-ray diffraction.
##URL=rruff.info/R061071
109.0298, 116.7062
109.5119, 139.3703
109.9940, 160.7097
110.4761, 173.8542
110.9582, 159.2174
111.4403, 157.7397
111.9225, 180.0404
112.4046, 222.8363
112.8867, 260.9157
113.3688, 288.8575
113.8509, 309.9026
114.3330, 326.7097
114.8152, 330.1362
115.2973, 337.6545
115.7794, 355.0831
116.2615, 382.9070
116.7436, 418.5751
117.2257, 466.4364
117.7079, 520.3654
118.1900, 571.0298
118.6721, 617.2076
119.1542, 657.0671
119.6363, 686.5560
120.1184, 697.8674
120.6006, 715.3941
121.0827, 766.0124
121.5648, 839.3531
122.0469, 901.5977
122.5290, 923.4396
123.0111, 925.0555
123.4933, 917.0383
123.9754, 936.6330
124.4575, 948.2599
124.9396, 952.3473
125.4217, 926.3134
125.9038, 939.1749
126.3860, 936.4492
126.8681, 933.0839
127.3502, 951.4198
127.8323, 929.7670
128.3144, 947.7587
128.7965, 949.9250
129.2787, 959.3345
129.7608, 953.0599
130.2429, 951.6296
130.7250, 965.8881
131.2071, 971.4595
131.6892, 963.3794
132.1714, 973.2493
132.6535, 951.0486
133.1356, 956.9901
133.6177, 975.0736
134.0998, 967.7820
134.5819, 977.9384
135.0640, 981.4497
135.5462, 954.7621
136.0283, 997.8637
136.5104, 1021.982
136.9925, 1034.340
137.4746, 1035.875
137.9567, 1027.907
138.4389, 1006.669
138.9210, 985.3260
139.4031, 978.1691
139.8852, 988.4017
140.3673, 1000.553
140.8494, 1011.694
141.3316, 1022.192
141.8137, 1030.705
142.2958, 1039.568
142.7779, 1045.070
143.2600, 1039.181
143.7421, 1011.381
144.2243, 990.1102
144.7064, 986.7404
145.1885, 1012.167
145.6706, 1030.870
146.1527, 1041.774
146.6348, 1046.073
147.1170, 1047.205
147.5991, 1041.709
148.0812, 1036.089
148.5633, 1033.579
149.0454, 1036.737
149.5275, 1039.600
150.0097, 1042.576
150.4918, 1045.470
150.9739, 1045.586
151.4560, 1037.701
151.9381, 1029.857
152.4202, 1027.514
152.9024, 1038.515
153.3845, 1047.431
153.8666, 1051.773
154.3487, 1051.196
154.8308, 1047.510
155.3129, 1037.282
155.7950, 1025.295
156.2772, 1017.069
156.7593, 1013.791
157.2414, 1014.335
157.7235, 1018.562
158.2056, 1026.783
158.6877, 1037.392
159.1699, 1058.138
159.6520, 1080.563
160.1341, 1089.206
160.6162, 1062.377
161.0983, 1031.479
161.5804, 1015.079
162.0626, 1023.661
162.5447, 1035.425
163.0268, 1043.533
163.5089, 1048.223
163.9910, 1050.245
164.4731, 1045.239
164.9553, 1039.879
165.4374, 1039.994
165.9195, 1051.901
166.4016, 1065.136
166.8837, 1075.991
167.3658, 1084.095
167.8480, 1086.077
168.3301, 1071.298
168.8122, 1051.265
169.2943, 1040.662
169.7764, 1058.513
170.2585, 1079.810
170.7407, 1079.541
171.2228, 1056.317
171.7049, 1034.366
172.1870, 1034.158
172.6691, 1048.630
173.1512, 1063.512
173.6334, 1075.968
174.1155, 1083.868
174.5976, 1082.311
175.0797, 1069.218
175.5618, 1055.405
176.0439, 1052.827
176.5260, 1058.760
177.0082, 1064.094
177.4903, 1063.349
177.9724, 1058.635
178.4545, 1052.845
178.9366, 1044.899
179.4187, 1039.038
179.9009, 1042.073
180.3830, 1053.091
180.8651, 1065.871
181.3472, 1078.777
181.8293, 1090.500
182.3114, 1097.005
182.7936, 1081.995
183.2757, 1100.472
183.7578, 1110.981
184.2399, 1113.951
184.7220, 1086.799
185.2041, 1098.543
185.6863, 1094.699
186.1684, 1090.216
186.6505, 1107.434
187.1326, 1084.663
187.6147, 1101.537
188.0968, 1102.586
188.5790, 1110.877
189.0611, 1103.485
189.5432, 1100.937
190.0253, 1114.078
190.5074, 1118.531
190.9895, 1109.334
191.4717, 1118.086
191.9538, 1094.767
192.4359, 1099.591
192.9180, 1088.158
193.4001, 1065.043
193.8822, 1051.190
194.3644, 1059.146
194.8465, 1087.355
195.3286, 1108.928
195.8107, 1123.402
196.2928, 1131.670
196.7749, 1135.328
197.2570, 1134.499
197.7392, 1128.062
198.2213, 1110.942
198.7034, 1082.218
199.1855, 1066.508
199.6676, 1067.584
200.1497, 1079.211
200.6319, 1088.391
201.1140, 1095.301
201.5961, 1099.092
202.0782, 1098.558
202.5603, 1093.272
203.0424, 1087.440
203.5246, 1081.517
204.0067, 1075.421
204.4888, 1067.068
204.9709, 1053.744
205.4530, 1045.833
205.9352, 1054.225
206.4173, 1083.828
206.8994, 1105.448
207.3815, 1111.727
207.8636, 1106.157
208.3457, 1109.591
208.8279, 1126.467
209.3100, 1143.260
209.7921, 1146.019
210.2742, 1129.119
210.7563, 1118.050
211.2384, 1120.453
211.7206, 1135.081
212.2027, 1139.761
212.6848, 1130.684
213.1669, 1117.254
213.6490, 1110.024
214.1311, 1112.014
214.6133, 1111.188
215.0954, 1101.417
215.5775, 1081.815
216.0596, 1078.492
216.5417, 1098.543
217.0238, 1126.905
217.5059, 1145.638
217.9881, 1152.908
218.4702, 1154.616
218.9523, 1151.145
219.4344, 1141.453
219.9165, 1134.122
220.3986, 1130.036
220.8808, 1127.550
221.3629, 1122.959
221.8450, 1111.665
222.3271, 1107.315
222.8092, 1118.156
223.2913, 1152.817
223.7735, 1167.454
224.2556, 1151.559
224.7377, 1121.770
225.2198, 1111.108
225.7019, 1129.366
226.1840, 1149.992
226.6662, 1162.590
227.1483, 1162.453
227.6304, 1167.584
228.1125, 1183.521
228.5946, 1202.617
229.0767, 1205.428
229.5589, 1178.965
230.0410, 1155.946
230.5231, 1152.193
231.0052, 1182.102
231.4873, 1198.911
231.9694, 1197.263
232.4516, 1183.376
232.9337, 1175.728
233.4158, 1175.441
233.8979, 1179.806
234.3800, 1189.183
234.8621, 1211.463
235.3443, 1221.334
235.8264, 1212.004
236.3085, 1189.520
236.7906, 1177.170
237.2727, 1176.685
237.7548, 1183.991
238.2369, 1198.144
238.7191, 1224.676
239.2012, 1246.717
239.6833, 1261.819
240.1654, 1271.223
240.6475, 1281.308
241.1296, 1295.002
241.6118, 1305.574
242.0939, 1308.476
242.5760, 1300.715
243.0581, 1290.886
243.5402, 1277.597
244.0223, 1262.210
244.5045, 1253.294
244.9866, 1253.460
245.4687, 1256.951
245.9508, 1259.865
246.4329, 1261.290
246.9150, 1264.509
247.3972, 1272.422
247.8793, 1283.701
248.3614, 1285.039
248.8435, 1269.411
249.3256, 1252.372
249.8077, 1245.849
250.2899, 1253.603
250.7720, 1264.313
251.2541, 1280.871
251.7362, 1301.538
252.2183, 1303.474
252.7004, 1274.075
253.1826, 1241.592
253.6647, 1230.004
254.1468, 1249.844
254.6289, 1267.659
255.1110, 1278.771
255.5931, 1283.418
256.0753, 1286.330
256.5574, 1289.175
257.0395, 1288.233
257.5216, 1278.054
258.0037, 1250.678
258.4858, 1233.730
258.9680, 1234.830
259.4501, 1253.098
259.9322, 1267.783
260.4143, 1280.494
260.8964, 1287.469
261.3785, 1284.027
261.8607, 1266.433
262.3428, 1248.056
262.8249, 1228.576
263.3070, 1208.698
263.7891, 1202.596
264.2712, 1215.926
264.7534, 1234.251
265.2355, 1243.758
265.7176, 1242.291
266.1997, 1238.745
266.6818, 1233.673
267.1639, 1227.382
267.6461, 1225.729
268.1282, 1230.906
268.6103, 1236.749
269.0924, 1235.714
269.5745, 1224.643
270.0566, 1219.000
270.5387, 1223.234
271.0208, 1236.565
271.5030, 1249.715
271.9851, 1264.320
272.4672, 1275.227
272.9493, 1275.156
273.4314, 1261.535
273.9135, 1251.113
274.3957, 1248.680
274.8778, 1253.203
275.3599, 1254.787
275.8420, 1251.979
276.3241, 1250.066
276.8062, 1257.151
277.2884, 1275.198
277.7705, 1284.763
278.2526, 1277.292
278.7347, 1257.051
279.2168, 1252.125
279.6989, 1266.490
280.1811, 1282.686
280.6632, 1280.710
281.1453, 1259.513
281.6274, 1245.006
282.1095, 1245.890
282.5916, 1258.078
283.0738, 1262.427
283.5559, 1257.545
284.0380, 1251.675
284.5201, 1256.874
285.0022, 1272.389
285.4843, 1275.405
285.9665, 1253.864
286.4486, 1217.886
286.9307, 1204.489
287.4128, 1215.881
287.8949, 1231.367
288.3770, 1229.328
288.8592, 1198.518
289.3413, 1215.690
289.8234, 1224.896
290.3055, 1226.561
290.7876, 1198.106
291.2697, 1208.545
291.7519, 1203.397
292.2340, 1197.610
292.7161, 1213.525
293.1982, 1189.450
293.6803, 1205.020
294.1624, 1204.764
294.6446, 1211.752
295.1267, 1203.055
295.6088, 1199.203
296.0909, 1211.040
296.5730, 1214.190
297.0551, 1216.559
297.5373, 1237.836
298.0194, 1253.800
298.5015, 1249.399
298.9836, 1226.943
299.4657, 1207.201
299.9478, 1209.200
300.4300, 1224.609
300.9121, 1237.916
301.3942, 1244.820
301.8763, 1249.472
302.3584, 1257.784
302.8405, 1268.774
303.3227, 1277.007
303.8048, 1278.975
304.2869, 1276.005
304.7690, 1268.929
305.2511, 1254.941
305.7332, 1242.619
306.2154, 1243.927
306.6975, 1254.771
307.1796, 1260.783
307.6617, 1245.579
308.1438, 1224.602
308.6259, 1215.599
309.1081, 1227.780
309.5901, 1238.923
310.0723, 1229.721
310.5544, 1206.638
311.0365, 1186.766
311.5186, 1189.275
312.0007, 1192.318
312.4828, 1175.695
312.9650, 1129.986
313.4471, 1082.865
313.9292, 1050.018
314.4113, 1026.626
314.8934, 1003.011
315.3755, 967.6779
315.8577, 936.0002
316.3398, 921.5192
316.8219, 932.4379
317.3040, 935.8558
317.7861, 909.1125
318.2682, 868.6632
318.7504, 840.4136
319.2325, 847.2142
319.7146, 855.1917
320.1967, 845.3152
320.6788, 809.4529
321.1609, 786.4408
321.6431, 797.5376
322.1252, 822.9304
322.6073, 837.8325
323.0894, 831.7939
323.5715, 820.1265
324.0536, 803.8290
324.5358, 780.8422
325.0179, 767.7628
325.5000, 774.7035
325.9821, 788.7641
326.4642, 797.1923
326.9464, 796.7659
327.4285, 793.3139
327.9106, 788.2137
328.3927, 781.7490
328.8748, 770.1967
329.3569, 745.2477
329.8391, 721.0173
330.3212, 709.1848
330.8033, 718.8212
331.2854, 727.8162
331.7675, 734.8394
332.2496, 739.6612
332.7318, 737.1700
333.2139, 723.7433
333.6960, 707.2526
334.1781, 692.2429
334.6602, 676.7640
335.1423, 667.6000
335.6245, 667.1056
336.1066, 673.4690
336.5887, 678.1080
337.0708, 680.8113
337.5529, 682.4001
338.0350, 683.8555
338.5172, 685.8492
338.9993, 683.8346
339.4814, 675.8647
339.9635, 664.9374
340.4456, 659.4279
340.9277, 660.4872
341.4099, 661.0829
341.8920, 655.3521
342.3741, 643.3619
342.8562, 638.6780
343.3383, 643.9363
343.8204, 653.0864
344.3026, 656.2852
344.7847, 653.5062
345.2668, 648.3248
345.7489, 641.5441
346.2310, 633.5319
346.7131, 625.1489
347.1953, 615.6447
347.6774, 609.3923
348.1595, 616.7203
348.6416, 633.9921
349.1237, 645.1422
349.6058, 637.1886
350.0880, 619.8732
350.5700, 613.0897
351.0522, 617.3956
351.5343, 622.9729
352.0164, 622.0925
352.4985, 615.7538
352.9806, 605.7913
353.4627, 586.8433
353.9449, 568.9461
354.4270, 564.5928
354.9091, 572.7394
355.3912, 583.5278
355.8733, 593.9016
356.3554, 601.6714
356.8376, 603.9315
357.3197, 595.9959
357.8018, 587.0551
358.2839, 583.3041
358.7660, 583.7247
359.2481, 584.3219
359.7303, 581.9963
360.2124, 579.7618
360.6945, 579.8445
361.1766, 583.2120
361.6587, 588.0155
362.1408, 596.1293
362.6230, 605.1822
363.1051, 609.8694
363.5872, 604.9643
364.0693, 598.1978
364.5514, 592.5389
365.0335, 587.3258
365.5157, 585.8067
365.9978, 596.0649
366.4799, 608.6003
366.9620, 609.4064
367.4441, 576.5029
367.9262, 551.6758
368.4084, 548.7495
368.8905, 572.7286
369.3726, 589.7835
369.8547, 597.2024
370.3368, 599.3237
370.8189, 600.5278
371.3011, 604.2962
371.7832, 601.0518
372.2653, 584.3483
372.7474, 555.7927
373.2295, 544.5889
373.7116, 560.4572
374.1938, 579.0976
374.6759, 579.8605
375.1580, 555.8721
375.6401, 539.4802
376.1222, 534.5531
376.6043, 539.7537
377.0865, 554.0175
377.5686, 580.3179
378.0507, 602.1600
378.5328, 606.5316
379.0149, 593.6953
379.4970, 585.4451
379.9792, 584.9922
380.4613, 586.4081
380.9434, 577.0682
381.4255, 557.5490
381.9076, 541.5295
382.3897, 537.1933
382.8719, 541.6744
383.3540, 547.1063
383.8361, 553.6370
384.3182, 559.0704
384.8003, 559.2514
385.2824, 556.1572
385.7646, 555.4988
386.2467, 561.7156
386.7288, 570.3188
387.2109, 576.5477
387.6930, 580.4051
388.1751, 580.7664
388.6573, 573.1614
389.1394, 562.7681
389.6215, 556.8559
390.1036, 562.1171
390.5857, 566.5237
391.0678, 558.1233
391.5499, 541.0368
392.0320, 530.3983
392.5142, 539.8998
392.9963, 554.2590
393.4784, 563.0587
393.9605, 561.9578
394.4426, 560.6557
394.9247, 564.5001
395.4069, 569.9719
395.8890, 570.6887
396.3711, 556.9435
396.8532, 545.6199
397.3353, 529.9117
397.8174, 548.1040
398.2996, 558.3287
398.7817, 561.0138
399.2638, 533.5776
399.7459, 545.0368
400.2280, 540.9084
400.7101, 536.1410
401.1923, 553.0746
401.6744, 530.0195
402.1565, 546.6089
402.6386, 547.3729
403.1207, 555.3799
403.6028, 547.7031
404.0850, 544.8704
404.5671, 557.7266
405.0492, 561.8958
405.5313, 552.4135
406.0134, 560.8808
406.4955, 537.4472
406.9777, 530.7932
407.4598, 532.2195
407.9419, 541.2651
408.4240, 542.4568
408.9061, 533.2061
409.3882, 522.3594
409.8704, 525.1332
410.3525, 539.6484
410.8346, 549.7990
411.3167, 544.6928
411.7988, 531.8271
412.2809, 529.1425
412.7631, 536.5543
413.2452, 546.0033
413.7273, 551.6578
414.2094, 554.2079
414.6915, 554.9807
415.1736, 555.3516
415.6558, 552.8285
416.1379, 539.4863
416.6200, 519.4030
417.1021, 508.8159
417.5842, 528.6484
418.0663, 554.7117
418.5485, 565.6786
419.0306, 553.2464
419.5127, 538.4532
419.9948, 528.2114
420.4769, 521.9246
420.9590, 518.2551
421.4412, 514.1941
421.9233, 515.0018
422.4054, 526.4896
422.8875, 551.8779
423.3696, 566.1934
423.8517, 553.9750
424.3339, 535.7115
424.8160, 529.4124
425.2981, 550.3873
425.7802, 562.7085
426.2623, 558.9270
426.7444, 542.1583
427.2266, 531.5667
427.7087, 530.1519
428.1908, 530.2626
428.6729, 526.0298
429.1550, 513.7150
429.6371, 514.2410
430.1193, 533.9828
430.6014, 560.2787
431.0835, 567.8219
431.5656, 554.4874
432.0477, 540.3414
432.5298, 531.5809
433.0119, 528.4304
433.4940, 536.3165
433.9762, 557.2259
434.4583, 574.6038
434.9404, 565.6561
435.4225, 537.5410
435.9046, 516.5782
436.3867, 510.7895
436.8689, 515.1146
437.3510, 529.4448
437.8331, 550.8320
438.3152, 563.4521
438.7973, 547.2950
439.2794, 521.0699
439.7616, 506.6570
440.2437, 510.2118
440.7258, 517.4530
441.2079, 518.3950
441.6900, 517.1205
442.1721, 520.5242
442.6543, 541.2202
443.1364, 558.5236
443.6185, 560.8895
444.1006, 547.0039
444.5827, 533.5668
445.0648, 518.8700
445.5470, 509.2028
446.0291, 509.3316
446.5112, 533.7258
446.9933, 551.3280
447.4754, 558.8527
447.9576, 557.7839
448.4397, 553.3495
448.9218, 543.2644
449.4039, 533.0771
449.8860, 524.9572
450.3681, 519.0824
450.8503, 514.6500
451.3324, 511.0809
451.8145, 509.7184
452.2966, 514.2338
452.7787, 525.9979
453.2608, 533.0606
453.7430, 528.9979
454.2251, 518.1210
454.7072, 519.8495
455.1893, 535.2047
455.6714, 550.4130
456.1535, 551.9868
456.6357, 543.9588
457.1178, 539.4926
457.5999, 542.0974
458.0820, 546.1629
458.5641, 543.9030
459.0462, 537.1400
459.5284, 531.5513
460.0105, 531.0526
460.4926, 532.6335
460.9747, 533.8496
461.4568, 534.5563
461.9389, 534.7520
462.4211, 532.9464
462.9032, 531.2285
463.3853, 531.8273
463.8674, 539.5707
464.3495, 545.3606
464.8316, 544.4947
465.3138, 538.7255
465.7959, 536.0605
466.2780, 543.5759
466.7601, 549.8011
467.2422, 549.0605
467.7243, 536.5784
468.2065, 527.7773
468.6886, 522.9586
469.1707, 521.5515
469.6528, 523.2831
470.1349, 529.8087
470.6170, 535.8380
471.0992, 541.3148
471.5813, 545.6144
472.0634, 541.0623
472.5455, 525.0524
473.0276, 510.4681
473.5097, 508.4940
473.9918, 518.2861
474.4739, 529.2255
474.9561, 540.6618
475.4382, 551.2025
475.9203, 559.4714
476.4024, 565.1734
476.8845, 566.6486
477.3666, 562.1784
477.8488, 553.3381
478.3309, 539.6049
478.8130, 520.9230
479.2951, 506.8616
479.7772, 508.1415
480.2593, 516.4141
480.7415, 521.8141
481.2236, 517.8477
481.7057, 515.4678
482.1878, 523.8934
482.6699, 538.3522
483.1520, 545.3026
483.6342, 529.9922
484.1163, 515.6462
484.5984, 513.0963
485.0805, 527.3419
485.5626, 538.9514
486.0447, 549.2800
486.5269, 555.5248
487.0090, 554.3220
487.4911, 540.9161
487.9732, 528.8804
488.4553, 518.8716
488.9374, 511.7305
489.4196, 512.1931
489.9017, 522.4934
490.3838, 533.2493
490.8659, 540.2500
491.3480, 543.4079
491.8301, 539.5769
492.3123, 526.5745
492.7944, 513.8444
493.2765, 515.2131
493.7586, 528.0241
494.2407, 540.6306
494.7228, 551.9612
495.2050, 558.1733
495.6871, 548.0826
496.1692, 524.7203
496.6513, 507.8755
497.1334, 516.8035
497.6155, 535.0359
498.0977, 547.5352
498.5798, 552.3325
499.0619, 548.8878
499.5440, 526.8965
500.0261, 498.9473
500.5082, 482.9904
500.9904, 494.8660
501.4725, 508.4868
501.9546, 515.4845
502.4367, 515.6113
502.9188, 520.5165
503.4009, 538.5959
503.8831, 553.8763
504.3652, 556.9308
504.8473, 542.0051
505.3294, 528.0406
505.8115, 512.5722
506.2936, 500.9604
506.7758, 507.1847
507.2579, 535.6981
507.7400, 554.3192
508.2221, 548.4315
508.7042, 524.2977
509.1863, 507.2957
509.6685, 497.5081
510.1506, 493.0182
510.6327, 494.5346
511.1148, 500.0350
511.5969, 504.7823
512.0790, 508.0374
512.5612, 510.2010
513.0433, 509.5949
513.5254, 508.2096
514.0075, 510.3226
514.4896, 524.2886
514.9717, 537.1504
515.4539, 538.5703
515.9360, 528.9383
516.4181, 522.7574
516.9002, 531.9663
517.3823, 541.8831
517.8644, 526.6938
518.3466, 544.1415
518.8287, 553.6218
519.3108, 555.5624
519.7929, 527.3818
520.2750, 538.0965
520.7571, 533.2238
521.2393, 527.7117
521.7214, 543.9009
522.2035, 520.1013
522.6856, 535.9462
523.1677, 535.9658
523.6498, 543.2283
524.1320, 534.8068
524.6141, 531.2297
525.0962, 543.3414
525.5783, 546.7661
526.0604, 536.5393
526.5425, 544.2623
527.0247, 519.9146
527.5068, 523.7093
527.9889, 539.6461
528.4710, 530.2078
528.9531, 534.4780
529.4352, 531.9850
529.9174, 525.5522
530.3995, 517.7526
530.8816, 508.7259
531.3637, 496.9393
531.8458, 476.6501
532.3279, 466.1432
532.8101, 477.1640
533.2922, 499.1588
533.7743, 516.0915
534.2564, 529.3815
534.7385, 534.0240
535.2206, 524.8757
535.7027, 503.9990
536.1848, 493.2927
536.6669, 495.2678
537.1490, 502.2934
537.6312, 512.4563
538.1133, 526.6839
538.5954, 530.3857
539.0775, 520.4282
539.5596, 507.1015
540.0417, 505.6988
540.5239, 514.2151
541.0060, 520.9692
541.4881, 523.1977
541.9702, 520.5541
542.4523, 507.8360
542.9344, 487.7479
543.4166, 474.0009
543.8987, 480.1612
544.3808, 493.3522
544.8629, 502.1753
545.3450, 504.5083
545.8271, 506.3741
546.3093, 512.6934
546.7914, 518.7607
547.2735, 519.8424
547.7556, 506.6393
548.2377, 498.0685
548.7198, 499.7361
549.2020, 508.3677
549.6841, 513.3563
550.1662, 514.5799
550.6483, 512.2018
551.1304, 504.2710
551.6125, 490.1833
552.0947, 485.1503
552.5768, 491.0471
553.0589, 500.1432
553.5410, 506.4111
554.0231, 509.6678
554.5052, 506.6306
554.9874, 493.7398
555.4695, 480.9226
555.9516, 485.0194
556.4337, 501.8182
556.9158, 517.0563
557.3979, 525.3285
557.8801, 527.8971
558.3622, 523.0877
558.8443, 511.5813
559.3264, 502.7480
559.8085, 505.5733
560.2906, 509.9189
560.7728, 507.4686
561.2549, 487.4801
561.7370, 478.1130
562.2191, 492.8518
562.7012, 516.7214
563.1833, 529.7388
563.6655, 528.1671
564.1476, 521.9234
564.6297, 510.7476
565.1118, 496.3205
565.5939, 488.0152
566.0760, 486.7293
566.5582, 487.6691
567.0403, 485.4727
567.5224, 482.0166
568.0045, 493.0141
568.4866, 521.4093
568.9688, 546.9343
569.4509, 542.8287
569.9330, 520.3804
570.4151, 503.1353
570.8972, 500.1320
571.3793, 501.7627
571.8615, 503.1258
572.3436, 503.4756
572.8257, 500.8798
573.3078, 488.0385
573.7899, 477.7826
574.2720, 477.5594
574.7542, 488.5779
575.2363, 498.7399
575.7184, 511.7377
576.2005, 519.6099
576.6826, 515.5927
577.1647, 490.4004
577.6469, 477.5232
578.1290, 482.7456
578.6111, 495.3138
579.0932, 496.2690
579.5753, 484.4546
580.0574, 478.0532
580.5396, 485.2113
581.0217, 499.8210
581.5038, 506.6095
581.9859, 506.1859
582.4680, 504.8607
582.9501, 508.3626
583.4323, 512.6152
583.9144, 510.7812
584.3965, 501.4275
584.8786, 494.8442
585.3607, 501.3515
585.8428, 511.8391
586.3250, 517.1345
586.8071, 508.9639
587.2892, 502.7435
587.7713, 502.8502
588.2534, 506.7332
588.7355, 508.1073
589.2177, 504.9608
589.6998, 502.4782
590.1819, 502.7139
590.6640, 505.3039
591.1461, 503.6315
591.6282, 496.0120
592.1104, 490.4799
592.5925, 495.7820
593.0746, 509.6310
593.5567, 517.2996
594.0388, 517.5436
594.5209, 511.7091
595.0031, 494.3176
595.4852, 472.5449
595.9673, 461.5738
596.4494, 473.4863
596.9315, 489.0938
597.4136, 493.9479
597.8958, 491.5770
598.3779, 491.6003
598.8600, 503.3436
599.3421, 512.7593
599.8242, 511.4894
600.3063, 497.3013
600.7885, 491.5784
601.2706, 504.5797
601.7527, 515.3224
602.2348, 507.4934
602.7169, 472.8841
603.1990, 453.7673
603.6812, 454.6807
604.1633, 466.0244
604.6454, 476.3536
605.1275, 485.4479
605.6096, 490.9260
606.0917, 490.9169
606.5739, 488.3698
607.0560, 487.2083
