##NAMES=Aravaipaite
##RRUFFID=R100032
##IDEAL CHEMISTRY=Pb^2+^_3_AlF_9_&#183;H_2_O
##LOCALITY=Grand Reef mine, Klondyke, Aravaipa District, Graham County, Arizona, USA
##OWNER=RRUFF
##SOURCE=William W. Pinch
##DESCRIPTION=Transparent sheets, associated with laurelite R100011 and scotlandite R100043
##STATUS=The identification of this mineral has been confirmed by single-crystal X-ray diffraction.
##URL=rruff.info/R100032
123.7582, 110.6905
124.2404, 115.9510
124.7225, 120.6176
125.2046, 125.3994
125.6867, 131.2444
126.1688, 138.6007
126.6509, 146.3721
127.1331, 153.0120
127.6152, 158.8273
128.0973, 165.3443
128.5794, 173.1863
129.0615, 182.4935
129.5436, 193.7253
130.0258, 207.4292
130.5079, 222.6241
130.9900, 237.0503
131.4721, 250.5862
131.9542, 266.5442
132.4363, 287.8565
132.9185, 314.2091
133.4006, 343.3417
133.8827, 374.4008
134.3648, 407.6114
134.8469, 446.5217
135.3290, 491.6317
135.8112, 540.4644
136.2933, 590.4807
136.7754, 642.0313
137.2575, 692.9051
137.7396, 743.0108
138.2217, 791.4847
138.7039, 838.6788
139.1860, 885.4720
139.6681, 929.6915
140.1502, 968.6325
140.6323, 1001.148
141.1144, 1030.922
141.5966, 1058.436
142.0787, 1082.323
142.5608, 1109.193
143.0429, 1138.267
143.5250, 1170.648
144.0071, 1208.854
144.4893, 1253.139
144.9714, 1302.328
145.4535, 1355.666
145.9356, 1415.757
146.4177, 1476.049
146.8998, 1537.730
147.3820, 1599.869
147.8641, 1661.227
148.3462, 1720.123
148.8283, 1779.043
149.3104, 1840.074
149.7925, 1906.085
150.2747, 1970.067
150.7568, 2031.604
151.2389, 2090.552
151.7210, 2144.566
152.2031, 2190.347
152.6852, 2232.691
153.1674, 2275.073
153.6495, 2320.620
154.1316, 2362.656
154.6137, 2398.877
155.0958, 2429.161
155.5779, 2460.367
156.0601, 2492.011
156.5422, 2525.555
157.0243, 2561.897
157.5064, 2601.698
157.9885, 2643.866
158.4706, 2687.541
158.9528, 2732.396
159.4349, 2781.478
159.9170, 2837.034
160.3991, 2896.799
160.8812, 2958.158
161.3633, 3017.302
161.8455, 3080.329
162.3276, 3151.348
162.8097, 3231.148
163.2918, 3312.120
163.7739, 3389.970
164.2560, 3462.834
164.7382, 3511.735
165.2203, 3558.468
165.7024, 3605.173
166.1845, 3647.766
166.6666, 3684.575
167.1487, 3721.969
167.6309, 3764.948
168.1130, 3811.580
168.5951, 3856.995
169.0772, 3900.872
169.5593, 3942.078
170.0414, 3979.219
170.5236, 4011.183
171.0057, 4041.515
171.4878, 4072.433
171.9699, 4104.104
172.4520, 4136.379
172.9341, 4169.624
173.4163, 4203.549
173.8984, 4238.031
174.3805, 4273.970
174.8626, 4309.030
175.3447, 4344.160
175.8268, 4378.306
176.3090, 4406.520
176.7911, 4423.240
177.2732, 4432.071
177.7553, 4438.814
178.2374, 4446.106
178.7195, 4450.628
179.2017, 4448.509
179.6838, 4439.877
180.1659, 4425.836
180.6480, 4404.514
181.1301, 4378.396
181.6122, 4352.827
182.0944, 4329.860
182.5765, 4307.924
183.0586, 4283.526
183.5407, 4257.110
184.0228, 4229.981
184.5049, 4202.922
184.9871, 4176.111
185.4692, 4151.275
185.9513, 4128.542
186.4334, 4108.069
186.9155, 4089.438
187.3976, 4072.665
187.8798, 4058.440
188.3619, 4047.854
188.8440, 4040.571
189.3261, 4035.205
189.8082, 4031.862
190.2903, 4030.010
190.7725, 4027.607
191.2546, 4024.511
191.7367, 4021.429
192.2188, 4019.185
192.7009, 4017.711
193.1830, 4016.394
193.6652, 4015.841
194.1473, 4015.525
194.6294, 4011.764
195.1115, 4004.058
195.5936, 3994.608
196.0757, 3986.488
196.5579, 3979.775
197.0400, 3972.182
197.5221, 3963.083
198.0042, 3952.521
198.4863, 3939.640
198.9684, 3924.025
199.4506, 3907.182
199.9327, 3891.180
200.4148, 3875.871
200.8969, 3861.973
201.3790, 3851.199
201.8611, 3843.863
202.3433, 3830.533
202.8254, 3809.910
203.3075, 3785.179
203.7896, 3761.577
204.2717, 3738.907
204.7538, 3717.356
205.2360, 3697.561
205.7181, 3679.864
206.2002, 3660.364
206.6823, 3638.691
207.1644, 3615.653
207.6465, 3592.613
208.1287, 3569.872
208.6108, 3546.981
209.0929, 3522.988
209.5750, 3496.856
210.0571, 3475.614
210.5392, 3460.798
211.0214, 3449.443
211.5035, 3434.730
211.9856, 3415.122
212.4677, 3397.001
212.9498, 3383.345
213.4319, 3374.985
213.9140, 3368.148
214.3962, 3362.782
214.8783, 3358.873
215.3604, 3356.276
215.8425, 3354.461
216.3246, 3354.920
216.8067, 3358.661
217.2889, 3366.493
217.7710, 3374.377
218.2531, 3381.937
218.7352, 3389.551
219.2173, 3398.171
219.6994, 3407.297
220.1816, 3418.363
220.6637, 3432.304
221.1458, 3449.772
221.6279, 3468.544
222.1100, 3489.424
222.5921, 3511.393
223.0743, 3532.531
223.5564, 3552.988
224.0385, 3572.322
224.5206, 3589.690
225.0027, 3604.400
225.4848, 3619.823
225.9670, 3635.801
226.4491, 3652.499
226.9312, 3670.817
227.4133, 3691.386
227.8954, 3712.384
228.3775, 3732.473
228.8597, 3751.561
229.3418, 3770.667
229.8239, 3790.246
230.3060, 3809.627
230.7881, 3826.270
231.2702, 3838.881
231.7524, 3850.772
232.2345, 3863.394
232.7166, 3877.957
233.1987, 3890.710
233.6808, 3901.399
234.1629, 3910.295
234.6451, 3918.185
235.1272, 3924.660
235.6093, 3930.835
236.0914, 3937.120
236.5735, 3943.142
237.0556, 3950.642
237.5378, 3960.918
238.0199, 3972.473
238.5020, 3981.074
238.9841, 3984.696
239.4662, 3988.668
239.9483, 3995.465
240.4305, 4006.482
240.9126, 4016.742
241.3947, 4025.476
241.8768, 4033.609
242.3589, 4043.622
242.8410, 4056.543
243.3232, 4069.547
243.8053, 4081.049
244.2874, 4089.495
244.7695, 4100.235
245.2516, 4114.184
245.7337, 4130.103
246.2159, 4144.960
246.6980, 4156.975
247.1801, 4170.864
247.6622, 4189.495
248.1443, 4216.541
248.6264, 4237.928
249.1086, 4251.146
249.5907, 4260.150
250.0728, 4273.015
250.5549, 4290.927
251.0370, 4310.697
251.5191, 4331.358
252.0013, 4352.837
252.4834, 4374.687
252.9655, 4396.653
253.4476, 4418.825
253.9297, 4441.682
254.4118, 4466.359
254.8940, 4488.977
255.3761, 4507.505
255.8582, 4520.504
256.3403, 4535.390
256.8224, 4552.238
257.3046, 4570.958
257.7867, 4591.894
258.2688, 4618.122
258.7509, 4640.607
259.2330, 4655.448
259.7151, 4661.370
260.1973, 4668.502
260.6794, 4677.786
261.1615, 4687.361
261.6436, 4694.507
262.1257, 4699.501
262.6078, 4701.656
263.0900, 4701.421
263.5721, 4699.215
264.0542, 4689.931
264.5363, 4672.338
265.0184, 4648.917
265.5005, 4622.157
265.9827, 4592.573
266.4648, 4558.534
266.9469, 4519.093
267.4290, 4474.310
267.9111, 4428.694
268.3932, 4383.025
268.8754, 4335.758
269.3575, 4284.979
269.8396, 4229.424
270.3217, 4173.220
270.8038, 4117.216
271.2859, 4061.026
271.7681, 4005.879
272.2502, 3951.630
272.7323, 3898.801
273.2144, 3850.019
273.6965, 3805.940
274.1786, 3761.109
274.6608, 3713.249
275.1429, 3663.262
275.6250, 3615.917
276.1071, 3571.301
276.5892, 3529.246
277.0714, 3491.134
277.5535, 3457.090
278.0356, 3424.226
278.5177, 3392.270
278.9998, 3361.052
279.4819, 3329.489
279.9641, 3296.848
280.4462, 3265.782
280.9283, 3238.679
281.4104, 3215.896
281.8925, 3193.409
282.3746, 3170.305
282.8568, 3147.354
283.3389, 3127.116
283.8210, 3109.837
284.3031, 3093.156
284.7852, 3075.356
285.2673, 3056.609
285.7495, 3037.835
286.2316, 3019.128
286.7137, 3000.348
287.1958, 2981.872
287.6779, 2963.733
288.1600, 2943.650
288.6422, 2919.570
289.1243, 2891.712
289.6064, 2863.943
290.0885, 2836.538
290.5706, 2808.564
291.0527, 2778.108
291.5349, 2745.344
292.0170, 2712.272
292.4991, 2679.415
292.9812, 2647.102
293.4633, 2618.250
293.9454, 2593.360
294.4276, 2569.713
294.9097, 2542.698
295.3918, 2513.293
295.8739, 2487.198
296.3560, 2467.945
296.8381, 2453.954
297.3203, 2442.804
297.8024, 2434.674
298.2845, 2427.335
298.7666, 2418.218
299.2487, 2407.981
299.7308, 2398.392
300.2130, 2389.638
300.6951, 2382.185
301.1772, 2377.461
301.6593, 2375.491
302.1414, 2373.534
302.6235, 2368.706
303.1057, 2362.228
303.5878, 2356.752
304.0699, 2354.492
304.5520, 2352.569
305.0341, 2347.560
305.5162, 2339.699
305.9984, 2330.620
306.4805, 2319.960
306.9626, 2309.236
307.4447, 2300.913
307.9268, 2296.531
308.4089, 2293.346
308.8911, 2288.838
309.3732, 2283.356
309.8553, 2278.401
310.3374, 2274.077
310.8195, 2271.038
311.3016, 2270.349
311.7838, 2273.266
312.2659, 2276.336
312.7480, 2277.132
313.2301, 2276.346
313.7122, 2275.695
314.1943, 2275.952
314.6765, 2276.694
315.1586, 2278.067
315.6407, 2280.738
316.1228, 2281.814
316.6049, 2279.085
317.0870, 2273.933
317.5692, 2268.679
318.0513, 2266.282
318.5334, 2262.160
319.0155, 2253.936
319.4976, 2241.035
319.9797, 2226.000
320.4619, 2208.673
320.9440, 2189.850
321.4261, 2170.671
321.9082, 2152.077
322.3903, 2132.305
322.8724, 2110.325
323.3546, 2086.088
323.8367, 2062.246
324.3188, 2039.922
324.8009, 2017.808
325.2830, 1995.174
325.7651, 1969.486
326.2473, 1945.848
326.7294, 1925.968
327.2115, 1909.364
327.6936, 1891.947
328.1757, 1872.096
328.6578, 1852.625
329.1400, 1834.869
329.6221, 1820.157
330.1042, 1805.610
330.5863, 1790.637
331.0684, 1775.713
331.5505, 1762.625
332.0327, 1752.566
332.5148, 1742.747
332.9969, 1731.884
333.4790, 1719.490
333.9611, 1707.827
334.4432, 1696.505
334.9254, 1686.082
335.4075, 1678.030
335.8896, 1673.924
336.3717, 1668.818
336.8538, 1660.488
337.3359, 1648.255
337.8180, 1639.879
338.3001, 1636.652
338.7823, 1635.343
339.2644, 1632.520
339.7465, 1628.016
340.2286, 1622.584
340.7107, 1615.911
341.1928, 1608.315
341.6750, 1602.793
342.1571, 1599.496
342.6392, 1597.349
343.1213, 1595.857
343.6034, 1595.042
344.0855, 1593.221
344.5677, 1589.759
345.0498, 1585.496
345.5319, 1582.100
346.0140, 1579.534
346.4961, 1578.841
346.9782, 1581.992
347.4604, 1588.031
347.9425, 1591.783
348.4246, 1592.355
348.9067, 1592.002
349.3888, 1593.918
349.8709, 1597.849
350.3531, 1602.299
350.8352, 1606.540
351.3173, 1610.783
351.7994, 1615.582
352.2815, 1620.971
352.7636, 1626.501
353.2458, 1630.724
353.7279, 1634.758
354.2100, 1641.069
354.6921, 1652.668
355.1742, 1665.514
355.6563, 1675.090
356.1385, 1681.631
356.6206, 1688.194
357.1027, 1697.195
357.5848, 1707.235
358.0669, 1716.777
358.5490, 1725.141
359.0312, 1733.237
359.5133, 1740.847
359.9954, 1748.520
360.4775, 1758.049
360.9596, 1772.090
361.4417, 1787.075
361.9239, 1800.420
362.4060, 1810.850
362.8881, 1822.170
363.3702, 1837.516
363.8523, 1854.319
364.3344, 1868.639
364.8166, 1876.727
365.2987, 1884.595
365.7808, 1895.032
366.2629, 1908.854
366.7450, 1920.312
367.2271, 1927.144
367.7093, 1931.939
368.1914, 1936.972
368.6735, 1946.022
369.1556, 1951.400
369.6377, 1950.609
370.1198, 1944.412
370.6020, 1939.174
371.0841, 1936.350
371.5662, 1933.111
372.0483, 1928.017
372.5304, 1920.692
373.0125, 1912.079
373.4947, 1901.954
373.9768, 1890.721
374.4589, 1879.073
374.9410, 1866.692
375.4231, 1854.512
375.9052, 1843.228
376.3874, 1833.188
376.8695, 1820.478
377.3516, 1803.836
377.8337, 1786.443
378.3158, 1772.204
378.7979, 1761.553
379.2801, 1750.259
379.7622, 1736.059
380.2443, 1720.384
380.7264, 1709.527
381.2085, 1703.948
381.6906, 1700.310
382.1728, 1695.509
382.6549, 1689.945
383.1370, 1686.675
383.6191, 1686.632
384.1012, 1688.275
384.5833, 1689.161
385.0655, 1689.392
385.5476, 1689.757
386.0297, 1690.451
386.5118, 1691.659
386.9939, 1693.986
387.4760, 1697.616
387.9582, 1701.367
388.4403, 1704.266
388.9224, 1706.497
389.4045, 1708.424
389.8866, 1710.336
390.3687, 1711.949
390.8509, 1712.190
391.3330, 1711.305
391.8151, 1712.042
392.2972, 1717.333
392.7793, 1724.419
393.2614, 1730.641
393.7436, 1734.528
394.2257, 1738.446
394.7078, 1742.454
395.1899, 1747.131
395.6720, 1753.999
396.1541, 1765.585
396.6363, 1777.865
397.1184, 1789.178
397.6005, 1799.548
398.0826, 1808.372
398.5647, 1816.396
399.0468, 1822.559
399.5290, 1825.568
400.0111, 1825.668
400.4932, 1822.205
400.9753, 1814.731
401.4574, 1803.194
401.9395, 1789.586
402.4217, 1774.478
402.9038, 1756.572
403.3859, 1734.490
403.8680, 1705.849
404.3501, 1678.473
404.8322, 1653.012
405.3144, 1629.180
405.7965, 1607.277
406.2786, 1587.673
406.7607, 1568.331
407.2428, 1547.563
407.7249, 1525.141
408.2071, 1506.860
408.6892, 1493.121
409.1713, 1481.982
409.6534, 1471.331
410.1355, 1461.216
410.6176, 1451.592
411.0998, 1442.087
411.5819, 1433.214
412.0640, 1426.811
412.5461, 1422.834
413.0282, 1418.702
413.5103, 1412.010
413.9925, 1403.865
414.4746, 1396.378
414.9567, 1389.797
415.4388, 1384.191
415.9209, 1379.627
416.4030, 1376.047
416.8852, 1373.172
417.3673, 1371.900
417.8494, 1370.647
418.3315, 1367.699
418.8136, 1362.958
419.2957, 1358.568
419.7779, 1355.642
420.2600, 1353.728
420.7421, 1352.425
421.2242, 1352.471
421.7063, 1352.209
422.1884, 1350.296
422.6706, 1347.445
423.1527, 1346.254
423.6348, 1349.988
424.1169, 1353.414
424.5990, 1353.776
425.0811, 1348.516
425.5633, 1345.652
426.0454, 1347.528
426.5275, 1351.064
427.0096, 1352.239
427.4917, 1348.683
427.9738, 1346.398
428.4560, 1347.074
428.9381, 1350.541
429.4202, 1352.793
429.9023, 1353.427
430.3844, 1353.527
430.8665, 1353.933
431.3487, 1354.788
431.8308, 1354.649
432.3129, 1352.591
432.7950, 1350.492
433.2771, 1353.077
433.7592, 1360.507
434.2414, 1367.637
434.7235, 1371.344
435.2056, 1372.694
435.6877, 1376.675
436.1698, 1383.508
436.6519, 1389.933
437.1341, 1391.895
437.6162, 1390.790
438.0983, 1390.465
438.5804, 1392.706
439.0625, 1395.105
439.5446, 1394.829
440.0268, 1392.324
440.5089, 1389.178
440.9910, 1385.039
441.4731, 1381.452
441.9552, 1380.152
442.4373, 1381.785
442.9195, 1383.292
443.4016, 1382.130
443.8837, 1380.292
444.3658, 1380.204
444.8479, 1383.656
445.3300, 1387.888
445.8122, 1392.014
446.2943, 1396.076
446.7764, 1400.939
447.2585, 1407.578
447.7406, 1414.383
448.2227, 1420.590
448.7049, 1425.904
449.1870, 1431.074
449.6691, 1436.228
450.1512, 1441.153
450.6333, 1445.363
451.1154, 1448.633
451.5976, 1451.740
452.0797, 1454.886
452.5618, 1458.054
453.0439, 1460.777
453.5260, 1462.824
454.0081, 1464.969
454.4903, 1467.450
454.9724, 1470.262
455.4545, 1474.834
455.9366, 1481.383
456.4187, 1489.588
456.9008, 1499.037
457.3830, 1509.771
457.8651, 1520.977
458.3472, 1532.134
458.8293, 1543.711
459.3114, 1557.505
459.7935, 1573.380
460.2757, 1588.746
460.7578, 1601.477
461.2399, 1612.251
461.7220, 1621.935
462.2041, 1630.787
462.6862, 1638.737
463.1684, 1647.061
463.6505, 1654.547
464.1326, 1658.182
464.6147, 1657.469
465.0968, 1652.012
465.5789, 1640.260
466.0611, 1621.269
466.5432, 1603.099
467.0253, 1588.835
467.5074, 1575.364
467.9895, 1560.138
468.4716, 1540.575
468.9538, 1522.000
469.4359, 1504.583
469.9180, 1488.526
470.4001, 1474.558
470.8822, 1463.504
471.3643, 1453.285
471.8465, 1442.862
472.3286, 1432.041
472.8107, 1423.319
473.2928, 1417.079
473.7749, 1412.295
474.2570, 1408.310
474.7392, 1405.126
475.2213, 1401.585
475.7034, 1397.027
476.1855, 1392.470
476.6676, 1390.329
477.1497, 1390.396
477.6319, 1390.807
478.1140, 1389.997
478.5961, 1388.914
479.0782, 1389.456
479.5603, 1391.847
480.0424, 1394.260
480.5246, 1394.902
481.0067, 1394.709
481.4888, 1395.036
481.9709, 1396.841
482.4530, 1398.658
482.9352, 1399.721
483.4173, 1400.181
483.8994, 1400.523
484.3815, 1400.661
484.8636, 1400.920
485.3457, 1401.509
485.8279, 1402.561
486.3100, 1403.488
486.7921, 1403.841
487.2742, 1404.273
487.7563, 1405.419
488.2384, 1407.940
488.7206, 1410.074
489.2027, 1411.632
489.6848, 1412.673
490.1669, 1413.142
490.6490, 1412.643
491.1311, 1412.801
491.6133, 1414.748
492.0954, 1418.456
492.5775, 1421.034
493.0596, 1422.155
493.5417, 1423.518
494.0238, 1427.390
494.5060, 1433.266
494.9881, 1438.759
495.4702, 1443.153
495.9523, 1446.999
496.4344, 1450.922
496.9165, 1454.886
497.3987, 1458.738
497.8808, 1461.504
498.3629, 1464.686
498.8450, 1470.211
499.3271, 1478.367
499.8092, 1486.135
500.2914, 1491.193
500.7735, 1495.459
501.2556, 1500.913
501.7377, 1509.335
502.2198, 1517.313
502.7019, 1523.458
503.1841, 1528.607
503.6662, 1535.096
504.1483, 1544.852
504.6304, 1554.226
505.1125, 1561.593
505.5946, 1566.612
506.0768, 1574.359
506.5589, 1585.926
507.0410, 1598.569
507.5231, 1609.988
508.0052, 1619.884
508.4873, 1630.416
508.9695, 1641.699
509.4516, 1653.612
509.9337, 1665.583
510.4158, 1677.671
510.8979, 1690.954
511.3800, 1706.405
511.8622, 1723.319
512.3443, 1740.414
512.8264, 1757.546
513.3085, 1774.913
513.7906, 1792.208
514.2728, 1809.938
514.7549, 1828.882
515.2370, 1849.439
515.7191, 1870.455
516.2012, 1891.735
516.6833, 1912.836
517.1655, 1933.429
517.6476, 1951.695
518.1297, 1971.138
518.6118, 1993.494
519.0939, 2018.540
519.5760, 2043.444
520.0582, 2068.269
520.5403, 2092.358
521.0224, 2114.598
521.5045, 2133.120
521.9866, 2156.007
522.4688, 2185.790
522.9509, 2217.125
523.4330, 2243.470
523.9151, 2263.871
524.3972, 2284.585
524.8793, 2306.997
525.3615, 2330.212
525.8436, 2352.641
526.3257, 2374.355
526.8078, 2394.375
527.2899, 2412.289
527.7720, 2428.347
528.2542, 2443.700
528.7363, 2458.469
529.2184, 2469.449
529.7005, 2471.533
530.1826, 2468.796
530.6647, 2466.942
531.1469, 2469.347
531.6290, 2469.962
532.1111, 2465.454
532.5932, 2456.728
533.0753, 2445.688
533.5574, 2431.711
534.0396, 2416.531
534.5217, 2400.825
535.0038, 2384.800
535.4859, 2366.382
535.9680, 2343.193
536.4501, 2320.042
536.9323, 2300.139
537.4144, 2285.388
537.8965, 2267.793
538.3786, 2246.471
538.8607, 2223.341
539.3428, 2201.302
539.8250, 2180.145
540.3071, 2160.555
540.7892, 2143.198
541.2713, 2127.369
541.7534, 2111.785
542.2355, 2096.547
542.7177, 2082.658
543.1998, 2070.812
543.6819, 2060.533
544.1640, 2051.715
544.6461, 2044.432
545.1282, 2036.448
545.6104, 2024.243
546.0925, 2011.347
546.5746, 2001.807
547.0567, 1998.591
547.5388, 1996.255
548.0209, 1993.521
548.5031, 1990.393
548.9852, 1986.826
549.4673, 1982.806
549.9494, 1978.316
550.4315, 1972.910
550.9136, 1966.599
551.3958, 1962.142
551.8779, 1960.753
552.3600, 1959.170
552.8421, 1955.179
553.3242, 1948.557
553.8063, 1941.523
554.2885, 1933.976
554.7706, 1926.567
555.2527, 1920.870
555.7348, 1916.429
556.2169, 1910.237
556.6990, 1900.875
557.1812, 1890.112
557.6633, 1880.452
558.1454, 1871.604
558.6275, 1862.424
559.1096, 1851.913
559.5917, 1841.124
560.0739, 1831.319
560.5560, 1822.562
561.0381, 1813.187
561.5202, 1802.730
562.0023, 1791.372
562.4844, 1779.199
562.9666, 1764.899
563.4487, 1751.717
563.9308, 1740.037
564.4129, 1729.434
564.8950, 1719.404
565.3771, 1710.352
565.8593, 1701.114
566.3414, 1691.199
566.8235, 1680.952
567.3056, 1671.479
567.7877, 1662.830
568.2698, 1654.895
568.7520, 1648.007
569.2341, 1641.814
569.7162, 1634.264
570.1983, 1625.254
570.6804, 1616.731
571.1625, 1611.233
571.6447, 1607.373
572.1268, 1602.852
572.6089, 1596.678
573.0910, 1590.635
573.5731, 1585.949
574.0552, 1582.150
574.5374, 1578.300
575.0195, 1574.807
575.5016, 1570.579
575.9837, 1564.232
576.4658, 1556.174
576.9479, 1550.922
577.4301, 1550.373
577.9122, 1550.566
578.3943, 1549.900
578.8764, 1548.277
579.3585, 1546.230
579.8406, 1543.482
580.3228, 1540.914
580.8049, 1539.299
581.2870, 1538.633
581.7691, 1539.150
582.2512, 1541.239
582.7333, 1543.648
583.2155, 1544.072
583.6975, 1543.142
584.1796, 1542.908
584.6617, 1545.271
585.1439, 1548.018
585.6260, 1548.565
586.1081, 1547.449
586.5902, 1547.446
587.0723, 1552.094
587.5544, 1556.464
588.0366, 1557.212
588.5187, 1552.784
589.0008, 1550.062
589.4829, 1550.243
589.9650, 1552.217
590.4471, 1555.376
590.9293, 1560.468
591.4114, 1565.112
591.8935, 1569.230
592.3756, 1572.837
592.8577, 1575.612
593.3398, 1577.439
593.8220, 1580.109
594.3041, 1584.340
594.7862, 1589.670
595.2683, 1595.171
595.7504, 1600.804
596.2325, 1606.636
596.7147, 1613.088
597.1968, 1619.541
597.6789, 1624.972
598.1610, 1629.286
598.6431, 1634.536
599.1252, 1642.361
599.6074, 1651.270
600.0895, 1660.158
600.5716, 1669.083
601.0537, 1677.583
601.5358, 1684.459
602.0179, 1691.267
602.5001, 1700.134
602.9822, 1712.162
603.4643, 1723.904
603.9464, 1734.886
604.4285, 1745.163
604.9106, 1755.123
605.3928, 1764.586
605.8749, 1774.389
606.3570, 1784.862
606.8391, 1795.965
607.3212, 1807.905
607.8033, 1820.595
608.2855, 1833.479
608.7676, 1846.568
609.2497, 1859.282
609.7318, 1870.421
610.2139, 1879.639
610.6960, 1888.729
611.1782, 1899.170
611.6603, 1909.765
612.1424, 1919.371
612.6245, 1927.925
613.1066, 1935.098
613.5887, 1941.078
614.0709, 1945.661
614.5530, 1948.162
615.0351, 1947.122
615.5172, 1947.167
615.9993, 1950.271
616.4814, 1955.491
616.9636, 1957.751
617.4457, 1956.965
617.9278, 1954.456
618.4099, 1950.811
618.8920, 1946.132
619.3741, 1940.229
619.8563, 1933.029
