##NAMES=Aravaipaite
##RRUFFID=R100004
##IDEAL CHEMISTRY=Pb^2+^_3_AlF_9_&#183;H_2_O
##LOCALITY=Grand Reef mine, Klondyke, Aravaipa District, Graham County, Arizona, USA
##OWNER=RRUFF
##SOURCE=William W. Pinch
##DESCRIPTION=Colorless thin plates. Same sample as used in Kampf (2001) and Kampf et al (2011).
##STATUS=The identification of this mineral has been confirmed by single-crystal X-ray diffraction.
##URL=rruff.info/R100004
90.01007, 0.0000000E+00
90.49219, 46.06191
90.97430, 44.85852
91.45642, 44.43211
91.93854, 45.40411
92.42065, 46.97371
92.90277, 48.10093
93.38489, 48.78048
93.86700, 48.80634
94.34912, 47.60246
94.83124, 45.34202
95.31335, 43.04315
95.79547, 40.75599
96.27759, 38.79408
96.75970, 38.78417
97.24182, 41.81549
97.72394, 45.85063
98.20605, 45.71402
98.68817, 40.89460
99.17029, 36.03149
99.65240, 35.44116
100.1345, 39.50031
100.6166, 42.18672
101.0988, 42.07041
101.5809, 39.47524
102.0630, 36.74688
102.5451, 33.11894
103.0272, 30.67211
103.5093, 32.44409
103.9915, 40.56760
104.4736, 47.35093
104.9557, 50.58392
105.4378, 49.74879
105.9199, 48.13653
106.4020, 45.08051
106.8842, 41.56634
107.3663, 39.25686
107.8484, 38.65944
108.3305, 38.70891
108.8126, 39.11895
109.2947, 40.34667
109.7769, 41.17565
110.2590, 41.55144
110.7411, 41.51954
111.2232, 41.21164
111.7053, 40.70769
112.1874, 39.87408
112.6696, 38.65300
113.1517, 35.78144
113.6338, 33.87526
114.1159, 34.06961
114.5980, 35.97921
115.0801, 36.83179
115.5623, 34.50081
116.0444, 31.57116
116.5265, 30.04694
117.0086, 31.99951
117.4907, 34.07115
117.9728, 34.59403
118.4550, 33.45990
118.9371, 33.11569
119.4192, 35.99365
119.9013, 39.99878
120.3834, 42.41302
120.8655, 40.72880
121.3477, 37.94613
121.8298, 36.05670
122.3119, 35.23949
122.7940, 35.18158
123.2761, 36.09076
123.7582, 37.63159
124.2404, 39.05709
124.7225, 39.81932
125.2046, 40.29986
125.6867, 40.89988
126.1688, 41.61231
126.6509, 42.62500
127.1331, 44.21038
127.6152, 46.31213
128.0973, 48.65007
128.5794, 51.01332
129.0615, 53.46984
129.5436, 56.11922
130.0258, 58.81731
130.5079, 61.90304
130.9900, 66.07816
131.4721, 71.30627
131.9542, 77.27361
132.4363, 83.44590
132.9185, 89.96432
133.4006, 97.81121
133.8827, 107.4109
134.3648, 118.4488
134.8469, 130.4766
135.3290, 143.4782
135.8112, 157.6056
136.2933, 173.2129
136.7754, 190.4691
137.2575, 207.6808
137.7396, 224.7822
138.2217, 241.4496
138.7039, 256.3283
139.1860, 269.1230
139.6681, 280.6216
140.1502, 292.3701
140.6323, 304.5317
141.1144, 316.0103
141.5966, 326.0785
142.0787, 334.1100
142.5608, 343.2450
143.0429, 353.3578
143.5250, 364.6068
144.0071, 377.4497
144.4893, 392.3014
144.9714, 407.8971
145.4535, 423.3830
145.9356, 438.1963
146.4177, 454.4050
146.8998, 472.6771
147.3820, 492.4826
147.8641, 512.5368
148.3462, 533.5571
148.8283, 553.9000
149.3104, 572.8782
149.7925, 589.2571
150.2747, 605.7441
150.7568, 622.7348
151.2389, 640.0875
151.7210, 655.9560
152.2031, 669.5069
152.6852, 681.9329
153.1674, 694.1210
153.6495, 705.3111
154.1316, 716.9773
154.6137, 730.3691
155.0958, 745.5621
155.5779, 757.8459
156.0601, 763.3030
156.5422, 767.1555
157.0243, 773.8060
157.5064, 786.1916
157.9885, 799.4505
158.4706, 812.2807
158.9528, 824.5292
159.4349, 837.0397
159.9170, 848.9257
160.3991, 861.5133
160.8812, 876.3352
161.3633, 896.8985
161.8455, 917.3344
162.3276, 934.9347
162.8097, 948.7398
163.2918, 962.0876
163.7739, 975.4057
164.2560, 984.6924
164.7382, 994.3726
165.2203, 1000.999
165.7024, 1007.969
166.1845, 1014.030
166.6666, 1019.021
167.1487, 1023.283
167.6309, 1027.044
168.1130, 1030.294
168.5951, 1032.938
169.0772, 1033.800
169.5593, 1034.679
170.0414, 1037.394
170.5236, 1043.041
171.0057, 1048.686
171.4878, 1051.891
171.9699, 1053.328
172.4520, 1054.960
172.9341, 1058.205
173.4163, 1062.156
173.8984, 1065.637
174.3805, 1067.964
174.8626, 1070.452
175.3447, 1075.133
175.8268, 1081.459
176.3090, 1086.918
176.7911, 1089.620
177.2732, 1090.342
177.7553, 1090.260
178.2374, 1089.555
178.7195, 1088.292
179.2017, 1086.407
179.6838, 1083.926
180.1659, 1081.290
180.6480, 1078.851
181.1301, 1076.505
181.6122, 1073.976
182.0944, 1071.311
182.5765, 1068.337
183.0586, 1064.300
183.5407, 1059.282
184.0228, 1054.560
184.5049, 1051.767
184.9871, 1050.378
185.4692, 1048.699
185.9513, 1046.838
186.4334, 1044.107
186.9155, 1037.401
187.3976, 1026.321
187.8798, 1016.222
188.3619, 1013.636
188.8440, 1017.516
189.3261, 1021.349
189.8082, 1022.854
190.2903, 1022.641
190.7725, 1022.804
191.2546, 1023.335
191.7367, 1024.280
192.2188, 1026.301
192.7009, 1029.298
193.1830, 1030.988
193.6652, 1029.752
194.1473, 1026.210
194.6294, 1024.534
195.1115, 1025.034
195.5936, 1026.343
196.0757, 1026.590
196.5579, 1025.736
197.0400, 1025.074
197.5221, 1025.373
198.0042, 1026.528
198.4863, 1026.815
198.9684, 1026.066
199.4506, 1024.832
199.9327, 1023.983
200.4148, 1023.576
200.8969, 1022.994
201.3790, 1021.462
201.8611, 1018.884
202.3433, 1018.782
202.8254, 1022.136
203.3075, 1026.376
203.7896, 1026.497
204.2717, 1021.590
204.7538, 1017.130
205.2360, 1015.810
205.7181, 1018.065
206.2002, 1019.239
206.6823, 1018.964
207.1644, 1018.045
207.6465, 1018.149
208.1287, 1019.649
208.6108, 1020.883
209.0929, 1020.827
209.5750, 1019.033
210.0571, 1018.595
210.5392, 1020.007
211.0214, 1022.377
211.5035, 1023.632
211.9856, 1023.176
212.4677, 1023.282
212.9498, 1025.070
213.4319, 1028.840
213.9140, 1032.980
214.3962, 1037.542
214.8783, 1042.433
215.3604, 1047.111
215.8425, 1050.976
216.3246, 1056.012
216.8067, 1063.530
217.2889, 1074.389
217.7710, 1084.405
218.2531, 1093.283
218.7352, 1101.351
219.2173, 1109.531
219.6994, 1117.673
220.1816, 1126.243
220.6637, 1135.586
221.1458, 1145.814
221.6279, 1156.695
222.1100, 1168.886
222.5921, 1181.531
223.0743, 1192.524
223.5564, 1200.757
224.0385, 1209.232
224.5206, 1219.204
225.0027, 1231.360
225.4848, 1243.532
225.9670, 1255.354
226.4491, 1267.185
226.9312, 1280.411
227.4133, 1295.941
227.8954, 1311.276
228.3775, 1324.988
228.8597, 1337.122
229.3418, 1347.958
229.8239, 1357.135
230.3060, 1365.084
230.7881, 1372.720
231.2702, 1380.050
231.7524, 1387.115
232.2345, 1393.990
232.7166, 1401.421
233.1987, 1407.108
233.6808, 1410.861
234.1629, 1412.908
234.6451, 1413.885
235.1272, 1413.857
235.6093, 1412.713
236.0914, 1410.286
236.5735, 1405.953
237.0556, 1401.927
237.5378, 1398.562
238.0199, 1395.465
238.5020, 1391.594
238.9841, 1386.655
239.4662, 1381.365
239.9483, 1376.131
240.4305, 1371.697
240.9126, 1365.677
241.3947, 1357.779
241.8768, 1348.358
242.3589, 1338.034
242.8410, 1325.596
243.3232, 1314.061
243.8053, 1305.080
244.2874, 1300.307
244.7695, 1293.933
245.2516, 1285.394
245.7337, 1275.442
246.2159, 1265.683
246.6980, 1255.934
247.1801, 1246.660
247.6622, 1237.908
248.1443, 1229.484
248.6264, 1222.221
249.1086, 1216.731
249.5907, 1212.074
250.0728, 1206.021
250.5549, 1196.947
251.0370, 1189.224
251.5191, 1185.027
252.0013, 1186.133
252.4834, 1184.746
252.9655, 1179.823
253.4476, 1173.025
253.9297, 1167.458
254.4118, 1163.731
254.8940, 1160.157
255.3761, 1155.919
255.8582, 1150.432
256.3403, 1146.717
256.8224, 1145.580
257.3046, 1145.607
257.7867, 1144.414
258.2688, 1141.441
258.7509, 1138.470
259.2330, 1136.311
259.7151, 1135.297
260.1973, 1133.053
260.6794, 1129.074
261.1615, 1124.443
261.6436, 1120.941
262.1257, 1119.108
262.6078, 1117.025
263.0900, 1114.078
263.5721, 1110.141
264.0542, 1106.313
264.5363, 1102.751
265.0184, 1099.038
265.5005, 1094.549
265.9827, 1089.321
266.4648, 1083.273
266.9469, 1076.376
267.4290, 1068.655
267.9111, 1060.123
268.3932, 1050.448
268.8754, 1040.555
269.3575, 1031.680
269.8396, 1024.121
270.3217, 1016.158
270.8038, 1007.197
271.2859, 997.2537
271.7681, 988.1719
272.2502, 980.2470
272.7323, 972.5881
273.2144, 964.6364
273.6965, 956.4269
274.1786, 947.5108
274.6608, 937.3094
275.1429, 926.1836
275.6250, 916.4016
276.1071, 908.0914
276.5892, 900.7881
277.0714, 894.6649
277.5535, 889.8987
278.0356, 884.3903
278.5177, 877.5346
278.9998, 869.7054
279.4819, 862.5336
279.9641, 856.1042
280.4462, 849.7255
280.9283, 842.3906
281.4104, 834.0918
281.8925, 827.2916
282.3746, 822.7665
282.8568, 819.6790
283.3389, 815.4566
283.8210, 809.9088
284.3031, 804.6489
284.7852, 801.3089
285.2673, 799.7434
285.7495, 796.7897
286.2316, 791.6709
286.7137, 785.5090
287.1958, 780.8156
287.6779, 777.6312
288.1600, 774.3517
288.6422, 769.6888
289.1243, 763.8450
289.6064, 758.7281
290.0885, 754.5448
290.5706, 750.8352
291.0527, 747.0403
291.5349, 743.1515
292.0170, 738.9214
292.4991, 734.3154
292.9812, 729.2857
293.4633, 723.5870
293.9454, 717.0035
294.4276, 710.4885
294.9097, 705.2748
295.3918, 701.2585
295.8739, 698.0223
296.3560, 695.5499
296.8381, 693.7010
297.3203, 692.4071
297.8024, 691.7302
298.2845, 690.9974
298.7666, 689.2115
299.2487, 686.7383
299.7308, 684.6627
300.2130, 684.0646
300.6951, 683.8990
301.1772, 682.1740
301.6593, 678.9092
302.1414, 675.6191
302.6235, 673.8942
303.1057, 673.1185
303.5878, 672.0711
304.0699, 669.9814
304.5520, 667.7057
305.0341, 666.3867
305.5162, 665.9235
305.9984, 665.3972
306.4805, 663.9396
306.9626, 662.0639
307.4447, 660.5251
307.9268, 659.6329
308.4089, 658.9514
308.8911, 657.9757
309.3732, 656.8231
309.8553, 655.9964
310.3374, 656.1484
310.8195, 656.5989
311.3016, 656.6738
311.7838, 656.1779
312.2659, 655.4092
312.7480, 654.4301
313.2301, 653.3297
313.7122, 652.3011
314.1943, 651.2989
314.6765, 650.4924
315.1586, 650.0908
315.6407, 650.2773
316.1228, 650.3450
316.6049, 649.9117
317.0870, 649.1431
317.5692, 648.3197
318.0513, 647.7772
318.5334, 646.9914
319.0155, 645.7953
319.4976, 644.1915
319.9797, 641.8835
320.4619, 638.2061
320.9440, 633.9368
321.4261, 629.9983
321.9082, 627.1403
322.3903, 624.0837
322.8724, 620.3861
323.3546, 616.0260
323.8367, 611.5720
324.3188, 606.7242
324.8009, 602.0417
325.2830, 598.0073
325.7651, 595.3572
326.2473, 592.5861
326.7294, 589.4796
327.2115, 586.0731
327.6936, 582.5965
328.1757, 579.1047
328.6578, 575.5627
329.1400, 571.9218
329.6221, 567.4025
330.1042, 563.9012
330.5863, 561.8605
331.0684, 560.8425
331.5505, 559.6634
332.0327, 558.7897
332.5148, 557.1682
332.9969, 553.9914
333.4790, 547.8998
333.9611, 544.2751
334.4432, 544.3459
334.9254, 546.1668
335.4075, 546.4037
335.8896, 544.4398
336.3717, 542.1298
336.8538, 539.9366
337.3359, 537.8135
337.8180, 536.2298
338.3001, 535.3885
338.7823, 534.7897
339.2644, 533.7283
339.7465, 531.9382
340.2286, 530.8841
340.7107, 531.2177
341.1928, 532.6516
341.6750, 532.9854
342.1571, 531.9569
342.6392, 530.8097
343.1213, 530.7088
343.6034, 531.6696
344.0855, 532.3475
344.5677, 532.4793
345.0498, 532.2310
345.5319, 531.8392
346.0140, 531.2865
346.4961, 531.0781
346.9782, 531.5953
347.4604, 532.7626
347.9425, 534.3669
348.4246, 536.6191
348.9067, 538.6824
349.3888, 538.9395
349.8709, 537.7310
350.3531, 536.9188
350.8352, 537.3342
351.3173, 538.8063
351.7994, 541.1210
352.2815, 544.2885
352.7636, 548.0322
353.2458, 552.5778
353.7279, 557.4982
354.2100, 561.8644
354.6921, 564.9328
355.1742, 567.5211
355.6563, 570.6348
356.1385, 574.1884
356.6206, 577.4728
357.1027, 578.9457
357.5848, 580.2517
358.0669, 583.5142
358.5490, 590.4470
359.0312, 597.7045
359.5133, 603.4768
359.9954, 607.9259
360.4775, 611.6595
360.9596, 613.8680
361.4417, 616.1685
361.9239, 619.7823
362.4060, 625.2309
362.8881, 630.9978
363.3702, 637.1740
363.8523, 643.1857
364.3344, 648.1542
364.8166, 651.6802
365.2987, 654.2850
365.7808, 655.9469
366.2629, 656.6241
366.7450, 657.0781
367.2271, 657.7658
367.7093, 658.1307
368.1914, 657.6837
368.6735, 655.5364
369.1556, 653.5203
369.6377, 652.4090
370.1198, 651.9631
370.6020, 650.0430
371.0841, 646.1981
371.5662, 641.2799
372.0483, 635.7322
372.5304, 629.1833
373.0125, 622.5558
373.4947, 615.5746
373.9768, 608.6887
374.4589, 603.0319
374.9410, 599.2678
375.4231, 595.3289
375.9052, 590.1190
376.3874, 583.2890
376.8695, 577.8998
377.3516, 574.1873
377.8337, 571.4316
378.3158, 568.6438
378.7979, 565.7692
379.2801, 563.1865
379.7622, 560.8337
380.2443, 558.8581
380.7264, 558.3600
381.2085, 559.6310
381.6906, 560.2952
382.1728, 557.1688
382.6549, 551.0765
383.1370, 547.7089
383.6191, 548.5804
384.1012, 551.5333
384.5833, 553.1000
385.0655, 553.4467
385.5476, 553.8389
386.0297, 555.1286
386.5118, 556.9433
386.9939, 558.8434
387.4760, 560.8796
387.9582, 562.3254
388.4403, 562.0580
388.9224, 560.7115
389.4045, 559.6125
389.8866, 559.4415
390.3687, 559.6506
390.8509, 559.7295
391.3330, 559.7062
391.8151, 559.9703
392.2972, 561.5323
392.7793, 563.1277
393.2614, 563.3782
393.7436, 560.2747
394.2257, 558.1352
394.7078, 559.7777
395.1899, 563.8830
395.6720, 566.9863
396.1541, 566.8435
396.6363, 566.3723
397.1184, 567.0226
397.6005, 569.3389
398.0826, 571.5484
398.5647, 573.5605
399.0468, 575.2712
399.5290, 576.5532
400.0111, 577.6168
400.4932, 578.0182
400.9753, 577.9278
401.4574, 577.3305
401.9395, 575.0508
402.4217, 570.3958
402.9038, 564.7670
403.3859, 558.8252
403.8680, 551.6691
404.3501, 546.4943
404.8322, 544.4125
405.3144, 544.0395
405.7965, 541.7580
406.2786, 537.2247
406.7607, 531.8858
407.2428, 525.8843
407.7249, 519.1302
408.2071, 514.2029
408.6892, 511.2903
409.1713, 509.5406
409.6534, 508.4689
410.1355, 507.9930
410.6176, 506.2529
411.0998, 501.7983
411.5819, 496.2978
412.0640, 494.3780
412.5461, 495.9199
413.0282, 497.4444
413.5103, 495.5180
413.9925, 491.7484
414.4746, 489.6666
414.9567, 490.2783
415.4388, 491.4007
415.9209, 490.6731
416.4030, 488.6654
416.8852, 486.7710
417.3673, 485.6479
417.8494, 484.9814
418.3315, 484.3603
418.8136, 483.7589
419.2957, 483.8707
419.7779, 486.6670
420.2600, 489.7089
420.7421, 490.5069
421.2242, 485.3289
421.7063, 480.9785
422.1884, 480.2635
422.6706, 482.2931
423.1527, 483.6602
423.6348, 483.4742
424.1169, 482.5443
424.5990, 480.9970
425.0811, 477.9442
425.5633, 476.4054
426.0454, 477.5074
426.5275, 479.7280
427.0096, 481.1502
427.4917, 481.1653
427.9738, 481.3073
428.4560, 482.0573
428.9381, 483.3633
429.4202, 483.8350
429.9023, 483.1364
430.3844, 482.2096
430.8665, 481.7466
431.3487, 481.8223
431.8308, 481.8245
432.3129, 481.5623
432.7950, 481.3705
433.2771, 482.2080
433.7592, 484.1175
434.2414, 485.6860
434.7235, 486.0252
435.2056, 485.4533
435.6877, 485.2962
436.1698, 485.5787
436.6519, 485.9282
437.1341, 486.0089
437.6162, 485.8642
438.0983, 485.5966
438.5804, 485.1793
439.0625, 484.7350
439.5446, 484.5190
440.0268, 484.4348
440.5089, 484.1212
440.9910, 482.8602
441.4731, 481.5834
441.9552, 481.3124
442.4373, 482.3920
442.9195, 483.2157
443.4016, 482.2802
443.8837, 480.8535
444.3658, 480.4765
444.8479, 483.2981
445.3300, 485.5346
445.8122, 485.6360
446.2943, 483.8347
446.7764, 482.4041
447.2585, 481.6514
447.7406, 481.3624
448.2227, 481.5114
448.7049, 482.6567
449.1870, 483.1070
449.6691, 482.2581
450.1512, 481.0128
450.6333, 480.8991
451.1154, 482.5277
451.5976, 483.9769
452.0797, 484.7232
452.5618, 484.8100
453.0439, 484.7799
453.5260, 484.6126
454.0081, 484.3926
454.4903, 484.2034
454.9724, 484.0451
455.4545, 483.7697
455.9366, 483.3249
456.4187, 482.8353
456.9008, 482.3445
457.3830, 481.9088
457.8651, 481.9941
458.3472, 483.2160
458.8293, 484.9773
459.3114, 486.3509
459.7935, 487.3135
460.2757, 487.7660
460.7578, 487.2260
461.2399, 486.2355
461.7220, 485.5109
462.2041, 485.1159
462.6862, 485.2221
463.1684, 486.2451
463.6505, 487.8626
464.1326, 489.3076
464.6147, 490.9454
465.0968, 491.7814
465.5789, 490.7746
466.0611, 487.4993
466.5432, 485.3105
467.0253, 485.6443
467.5074, 486.9383
467.9895, 487.8842
468.4716, 487.8151
468.9538, 488.1808
469.4359, 489.3629
469.9180, 491.0333
470.4001, 492.1913
470.8822, 492.9137
471.3643, 492.9581
471.8465, 491.8011
472.3286, 489.1590
472.8107, 488.7796
473.2928, 491.4493
473.7749, 494.4846
474.2570, 494.1313
474.7392, 490.4312
475.2213, 488.6684
475.7034, 490.5153
476.1855, 494.3094
476.6676, 496.9027
477.1497, 498.3506
477.6319, 499.1160
478.1140, 499.1490
478.5961, 498.7901
479.0782, 498.5307
479.5603, 498.3878
480.0424, 498.5031
480.5246, 499.1944
481.0067, 500.1592
481.4888, 500.9747
481.9709, 501.5270
482.4530, 501.8766
482.9352, 501.9190
483.4173, 501.7580
483.8994, 501.7225
484.3815, 502.3764
484.8636, 502.8077
485.3457, 502.4180
485.8279, 500.8111
486.3100, 499.7417
486.7921, 499.4326
487.2742, 499.6902
487.7563, 500.4604
488.2384, 502.6840
488.7206, 503.7139
489.2027, 502.6155
489.6848, 500.2184
490.1669, 499.5494
490.6490, 500.9464
491.1311, 503.0807
491.6133, 505.7021
492.0954, 508.8019
492.5775, 510.5624
493.0596, 510.7951
493.5417, 510.4515
494.0238, 510.3419
494.5060, 510.4919
494.9881, 511.1434
495.4702, 512.6724
495.9523, 514.2173
496.4344, 514.2009
496.9165, 513.0151
497.3987, 512.1376
497.8808, 512.3881
498.3629, 513.3321
498.8450, 514.4869
499.3271, 515.8060
499.8092, 517.7339
500.2914, 521.6210
500.7735, 525.6907
501.2556, 528.3524
501.7377, 528.2745
502.2198, 527.8236
502.7019, 527.1877
503.1841, 526.5276
503.6662, 526.2698
504.1483, 525.6667
504.6304, 526.3448
505.1125, 529.3973
505.5946, 535.1857
506.0768, 538.5650
506.5589, 538.2983
507.0410, 537.4344
507.5231, 538.4272
508.0052, 541.4650
508.4873, 545.3342
508.9695, 550.3372
509.4516, 555.3361
509.9337, 557.5779
510.4158, 557.2311
510.8979, 557.4833
511.3800, 560.1010
511.8622, 564.1570
512.3443, 567.5602
512.8264, 570.3206
513.3085, 573.2296
513.7906, 577.0226
514.2728, 581.2600
514.7549, 585.4120
515.2370, 589.4199
515.7191, 593.2036
516.2012, 596.3241
516.6833, 599.2632
517.1655, 602.8117
517.6476, 607.5953
518.1297, 612.6653
518.6118, 617.4470
519.0939, 622.0447
519.5760, 627.6927
520.0582, 636.0228
520.5403, 644.1210
521.0224, 650.5944
521.5045, 654.8893
521.9866, 659.2560
522.4688, 663.6933
522.9509, 668.1945
523.4330, 672.7871
523.9151, 677.4408
524.3972, 682.3714
524.8793, 687.6644
525.3615, 693.1600
525.8436, 698.7955
526.3257, 704.5764
526.8078, 709.5555
527.2899, 712.7537
527.7720, 714.8890
528.2542, 717.7421
528.7363, 721.4174
529.2184, 724.7137
529.7005, 726.1016
530.1826, 726.6172
530.6647, 727.7910
531.1469, 730.9012
531.6290, 733.3026
532.1111, 733.1373
532.5932, 731.2136
533.0753, 729.1880
533.5574, 727.6238
534.0396, 725.9377
534.5217, 723.8344
535.0038, 721.2907
535.4859, 718.8672
535.9680, 717.1296
536.4501, 714.9836
536.9323, 711.6252
537.4144, 706.1563
537.8965, 701.9197
538.3786, 699.1824
538.8607, 697.4119
539.3428, 695.9872
539.8250, 694.9208
540.3071, 693.9531
540.7892, 693.1067
541.2713, 692.2575
541.7534, 690.9158
542.2355, 689.1600
542.7177, 687.7883
543.1998, 687.6744
543.6819, 688.1219
544.1640, 687.9423
544.6461, 687.0120
545.1282, 686.2249
545.6104, 686.2274
546.0925, 686.7142
546.5746, 687.3571
547.0567, 688.2002
547.5388, 688.9889
548.0209, 688.9825
548.5031, 688.8808
548.9852, 690.2207
549.4673, 695.6918
549.9494, 700.0179
550.4315, 701.5963
550.9136, 700.4407
551.3958, 699.5449
551.8779, 699.0020
552.3600, 698.5638
552.8421, 698.1862
553.3242, 697.9340
553.8063, 696.9806
554.2885, 695.0791
554.7706, 693.0631
555.2527, 692.4257
555.7348, 692.8660
556.2169, 692.4940
556.6990, 690.6843
557.1812, 687.8773
557.6633, 684.2203
558.1454, 679.9743
558.6275, 676.1087
559.1096, 673.9245
559.5917, 671.8697
560.0739, 668.6343
560.5560, 664.1035
561.0381, 659.3583
561.5202, 654.7553
562.0023, 650.2103
562.4844, 645.6176
562.9666, 639.8826
563.4487, 635.7822
563.9308, 634.7728
564.4129, 634.8664
564.8950, 632.9699
565.3771, 628.3064
565.8593, 623.4051
566.3414, 618.6912
566.8235, 614.1977
567.3056, 609.7288
567.7877, 605.2134
568.2698, 601.4012
568.7520, 599.3037
569.2341, 598.3351
569.7162, 595.9030
570.1983, 591.8690
570.6804, 587.7485
571.1625, 585.1025
571.6447, 583.3236
572.1268, 581.4779
572.6089, 579.3898
573.0910, 577.0595
573.5731, 574.2396
574.0552, 571.2122
574.5374, 568.4048
575.0195, 565.9300
575.5016, 563.7658
575.9837, 561.9631
576.4658, 560.5174
576.9479, 559.2184
577.4301, 558.2946
577.9122, 557.2628
578.3943, 555.8447
578.8764, 553.9327
579.3585, 552.2535
579.8406, 550.7792
580.3228, 549.5938
580.8049, 548.8520
581.2870, 548.5325
581.7691, 548.2746
582.2512, 548.0103
582.7333, 547.7862
583.2155, 547.6181
583.6975, 547.5333
584.1796, 547.6284
584.6617, 548.1711
585.1439, 548.7384
585.6260, 548.6488
