##NAMES=Aravaipaite
##RRUFFID=R100032
##IDEAL CHEMISTRY=Pb^2+^_3_AlF_9_&#183;H_2_O
##LOCALITY=Grand Reef mine, Klondyke, Aravaipa District, Graham County, Arizona, USA
##OWNER=RRUFF
##SOURCE=William W. Pinch
##DESCRIPTION=Transparent sheets, associated with laurelite R100011 and scotlandite R100043
##STATUS=The identification of this mineral has been confirmed by single-crystal X-ray diffraction.
##URL=rruff.info/R100032
91.53320, 1371.590
92.01532, 1353.747
92.49744, 1343.621
92.97955, 1365.068
93.46167, 1395.664
93.94379, 1411.813
94.42590, 1420.768
94.90802, 1425.867
95.39014, 1427.168
95.87225, 1424.275
96.35437, 1420.103
96.83649, 1416.940
97.31860, 1414.346
97.80072, 1411.618
98.28284, 1406.678
98.76495, 1398.826
99.24707, 1391.584
99.72919, 1385.895
100.2113, 1380.405
100.6934, 1373.724
101.1755, 1366.603
101.6577, 1360.769
102.1398, 1357.779
102.6219, 1358.076
103.1040, 1358.525
103.5861, 1359.789
104.0682, 1360.427
104.5504, 1358.976
105.0325, 1355.443
105.5146, 1351.565
105.9967, 1349.734
106.4788, 1351.012
106.9609, 1351.264
107.4431, 1349.704
107.9252, 1347.066
108.4073, 1344.237
108.8894, 1341.380
109.3715, 1338.616
109.8536, 1335.944
110.3358, 1332.975
110.8179, 1331.113
111.3000, 1331.834
111.7821, 1334.840
112.2642, 1337.206
112.7463, 1337.499
113.2285, 1336.766
113.7106, 1335.943
114.1927, 1335.091
114.6748, 1334.404
115.1569, 1334.285
115.6390, 1335.071
116.1212, 1335.520
116.6033, 1335.165
117.0854, 1334.370
117.5675, 1333.296
118.0496, 1331.885
118.5317, 1330.431
119.0139, 1330.438
119.4960, 1334.375
119.9781, 1337.174
120.4602, 1337.324
120.9423, 1335.698
121.4244, 1333.891
121.9066, 1333.130
122.3887, 1333.507
122.8708, 1333.615
123.3529, 1333.124
123.8350, 1332.716
124.3171, 1332.875
124.7993, 1333.538
125.2814, 1334.073
125.7635, 1333.637
126.2456, 1331.844
126.7277, 1331.595
127.2098, 1334.863
127.6920, 1338.820
128.1741, 1340.131
128.6562, 1337.803
129.1383, 1334.412
129.6204, 1333.151
130.1025, 1333.736
130.5847, 1334.674
131.0668, 1335.655
131.5489, 1336.576
132.0310, 1337.003
132.5131, 1336.469
132.9952, 1335.827
133.4774, 1336.012
133.9595, 1337.031
134.4416, 1337.888
134.9237, 1337.439
135.4058, 1335.416
135.8879, 1334.012
136.3701, 1334.099
136.8522, 1334.683
137.3343, 1335.371
137.8164, 1336.051
138.2985, 1336.642
138.7806, 1337.006
139.2628, 1337.098
139.7449, 1337.024
140.2270, 1336.364
140.7091, 1335.765
141.1912, 1335.861
141.6733, 1336.934
142.1555, 1338.724
142.6376, 1340.345
143.1197, 1342.443
143.6018, 1343.579
144.0839, 1342.884
144.5660, 1341.178
145.0482, 1339.756
145.5303, 1339.385
146.0124, 1339.915
146.4945, 1340.232
146.9766, 1339.154
147.4587, 1339.014
147.9409, 1341.868
148.4230, 1346.994
148.9051, 1351.071
149.3872, 1351.575
149.8693, 1348.850
150.3514, 1346.626
150.8336, 1344.974
151.3157, 1343.839
151.7978, 1343.379
152.2799, 1343.700
152.7620, 1343.952
153.2441, 1342.854
153.7263, 1341.253
154.2084, 1340.714
154.6905, 1343.105
155.1726, 1346.726
155.6547, 1347.353
156.1368, 1343.023
156.6190, 1339.229
157.1011, 1339.325
157.5832, 1342.011
158.0653, 1344.820
158.5474, 1346.166
159.0295, 1346.161
159.5117, 1346.336
159.9938, 1346.879
160.4759, 1347.424
160.9580, 1347.852
161.4401, 1348.167
161.9222, 1348.390
162.4044, 1348.471
162.8865, 1348.307
163.3686, 1348.622
163.8507, 1349.947
164.3328, 1351.256
164.8149, 1352.261
165.2971, 1352.862
165.7792, 1352.954
166.2613, 1352.341
166.7434, 1350.582
167.2255, 1349.436
167.7076, 1349.107
168.1898, 1349.154
168.6719, 1349.583
169.1540, 1350.305
169.6361, 1350.685
170.1182, 1349.636
170.6003, 1346.018
171.0825, 1344.007
171.5646, 1344.630
172.0467, 1346.639
172.5288, 1348.947
173.0109, 1351.365
173.4930, 1353.357
173.9752, 1353.462
174.4573, 1351.280
174.9394, 1350.223
175.4215, 1352.768
175.9036, 1357.141
176.3857, 1359.022
176.8679, 1356.250
177.3500, 1351.985
177.8321, 1350.770
178.3142, 1352.845
178.7963, 1354.735
179.2784, 1353.786
179.7606, 1350.417
180.2427, 1348.150
180.7248, 1348.414
181.2069, 1349.790
181.6890, 1351.314
182.1711, 1352.955
182.6533, 1353.997
183.1354, 1353.403
183.6175, 1350.909
184.0996, 1348.903
184.5817, 1347.949
185.0638, 1347.679
185.5460, 1348.309
186.0281, 1349.834
186.5102, 1351.352
186.9923, 1351.336
187.4744, 1348.800
187.9565, 1347.378
188.4387, 1348.343
188.9208, 1349.920
189.4029, 1350.723
189.8850, 1350.363
190.3671, 1349.615
190.8492, 1350.038
191.3314, 1352.722
191.8135, 1354.834
192.2956, 1356.407
192.7777, 1357.310
193.2598, 1357.318
193.7419, 1356.357
194.2241, 1354.699
194.7062, 1352.994
195.1883, 1350.304
195.6704, 1348.744
196.1525, 1349.507
196.6346, 1351.058
197.1168, 1351.280
197.5989, 1349.184
198.0810, 1345.976
198.5631, 1345.266
199.0452, 1350.029
199.5273, 1353.203
200.0095, 1352.647
200.4916, 1349.919
200.9737, 1347.347
201.4558, 1345.795
201.9379, 1345.356
202.4200, 1346.541
202.9022, 1350.474
203.3843, 1353.744
203.8664, 1355.026
204.3485, 1354.709
204.8306, 1353.633
205.3127, 1351.695
205.7949, 1349.741
206.2770, 1349.587
206.7591, 1351.853
207.2412, 1354.368
207.7233, 1356.646
208.2054, 1358.456
208.6876, 1357.948
209.1697, 1352.381
209.6518, 1345.617
210.1339, 1343.525
210.6160, 1347.497
211.0981, 1352.772
211.5803, 1355.713
212.0624, 1356.313
212.5445, 1356.322
213.0266, 1356.298
213.5087, 1355.917
213.9908, 1354.579
214.4730, 1352.001
214.9551, 1349.598
215.4372, 1349.378
215.9193, 1351.822
216.4014, 1353.465
216.8836, 1352.471
217.3657, 1350.770
217.8478, 1349.359
218.3299, 1348.468
218.8120, 1348.299
219.2941, 1349.368
219.7763, 1352.151
220.2584, 1354.578
220.7405, 1356.297
221.2226, 1357.545
221.7047, 1358.321
222.1868, 1358.648
222.6690, 1358.821
223.1511, 1359.499
223.6332, 1361.497
224.1153, 1362.035
224.5974, 1358.917
225.0795, 1355.694
225.5617, 1355.255
226.0438, 1358.307
226.5259, 1363.061
227.0080, 1366.506
227.4901, 1368.278
227.9722, 1369.208
228.4544, 1369.133
228.9365, 1368.513
229.4186, 1367.501
229.9007, 1366.214
230.3828, 1364.955
230.8649, 1364.307
231.3471, 1365.048
231.8292, 1365.129
232.3113, 1363.330
232.7934, 1361.617
233.2755, 1362.121
233.7576, 1365.266
234.2398, 1369.171
234.7219, 1370.649
235.2040, 1367.707
235.6861, 1365.701
236.1682, 1364.987
236.6503, 1364.976
237.1325, 1365.280
237.6146, 1365.771
238.0967, 1366.340
238.5788, 1366.947
239.0609, 1368.189
239.5430, 1367.805
240.0252, 1363.886
240.5073, 1359.202
240.9894, 1356.926
241.4715, 1357.793
241.9536, 1359.469
242.4357, 1358.601
242.9179, 1354.342
243.4000, 1351.373
243.8821, 1350.621
244.3642, 1351.155
244.8463, 1352.217
245.3284, 1353.697
245.8106, 1355.189
246.2927, 1356.476
246.7748, 1357.628
247.2569, 1357.345
247.7390, 1353.900
248.2211, 1349.570
248.7033, 1347.312
249.1854, 1347.731
249.6675, 1348.869
250.1496, 1348.745
250.6317, 1347.556
251.1138, 1346.594
251.5960, 1346.090
252.0781, 1345.964
252.5602, 1346.575
253.0423, 1348.248
253.5244, 1348.991
254.0065, 1345.759
254.4887, 1340.011
254.9708, 1335.818
255.4529, 1335.283
255.9350, 1336.441
256.4171, 1336.440
256.8992, 1334.921
257.3813, 1333.529
257.8635, 1333.455
258.3456, 1334.310
258.8277, 1335.672
259.3098, 1338.175
259.7919, 1340.662
260.2740, 1341.079
260.7562, 1338.888
261.2383, 1336.907
261.7204, 1337.387
262.2025, 1338.874
262.6846, 1339.621
263.1667, 1339.007
263.6489, 1337.584
264.1310, 1335.878
264.6131, 1333.692
265.0952, 1332.086
265.5773, 1332.353
266.0594, 1333.138
266.5416, 1333.164
267.0237, 1332.032
267.5058, 1330.223
267.9879, 1328.147
268.4700, 1325.648
268.9521, 1323.690
269.4343, 1323.013
269.9164, 1322.825
270.3985, 1322.564
270.8806, 1322.083
271.3627, 1321.644
271.8448, 1321.748
272.3270, 1322.604
272.8091, 1322.884
273.2912, 1321.589
273.7733, 1320.015
274.2554, 1318.979
274.7375, 1318.601
275.2197, 1318.377
275.7018, 1317.576
276.1839, 1316.010
276.6660, 1315.072
277.1481, 1317.055
277.6302, 1318.136
278.1124, 1315.038
278.5945, 1308.193
279.0766, 1301.957
279.5587, 1301.433
280.0408, 1307.454
280.5229, 1311.675
281.0051, 1312.545
281.4872, 1312.464
281.9693, 1312.303
282.4514, 1312.056
282.9335, 1311.323
283.4156, 1309.532
283.8978, 1306.645
284.3799, 1304.460
284.8620, 1303.509
285.3441, 1302.783
285.8262, 1302.095
286.3083, 1301.356
286.7905, 1300.342
287.2726, 1298.626
287.7547, 1296.426
288.2368, 1296.081
288.7189, 1300.137
289.2010, 1303.028
289.6832, 1302.577
290.1653, 1300.167
290.6474, 1297.942
291.1295, 1297.177
291.6116, 1297.451
292.0938, 1297.011
292.5759, 1294.987
293.0580, 1293.516
293.5401, 1293.631
294.0222, 1294.243
294.5043, 1293.965
294.9865, 1292.146
295.4686, 1289.603
295.9507, 1288.408
296.4328, 1289.571
296.9149, 1290.326
297.3970, 1289.782
297.8792, 1289.047
298.3613, 1289.486
298.8434, 1291.403
299.3255, 1293.377
299.8076, 1292.673
300.2897, 1287.147
300.7719, 1283.829
301.2540, 1283.983
301.7361, 1285.370
302.2182, 1287.105
302.7003, 1288.774
303.1824, 1289.845
303.6646, 1289.479
304.1467, 1287.086
304.6288, 1285.385
305.1109, 1284.162
305.5930, 1283.744
306.0751, 1284.973
306.5573, 1287.363
307.0394, 1289.343
307.5215, 1289.279
308.0036, 1286.950
308.4857, 1285.821
308.9678, 1287.676
309.4500, 1289.011
309.9321, 1288.637
310.4142, 1286.958
310.8963, 1284.885
311.3784, 1282.943
311.8605, 1281.181
312.3427, 1280.035
312.8248, 1280.011
313.3069, 1280.063
313.7890, 1279.967
314.2711, 1279.845
314.7532, 1279.973
315.2354, 1280.512
315.7175, 1281.169
316.1996, 1281.054
316.6817, 1279.600
317.1638, 1278.240
317.6459, 1276.904
318.1281, 1275.844
318.6102, 1275.502
319.0923, 1275.957
319.5744, 1276.577
320.0565, 1276.198
320.5386, 1274.078
321.0208, 1272.670
321.5029, 1272.751
321.9850, 1272.940
322.4671, 1272.016
322.9492, 1270.052
323.4313, 1268.367
323.9135, 1268.637
324.3956, 1271.445
324.8777, 1273.208
325.3598, 1273.933
325.8419, 1273.597
326.3240, 1270.992
326.8062, 1267.132
327.2883, 1264.569
327.7704, 1265.651
328.2525, 1270.084
328.7346, 1272.566
329.2167, 1271.681
329.6989, 1270.288
330.1810, 1268.485
330.6631, 1266.770
331.1452, 1265.994
331.6273, 1266.755
332.1094, 1268.296
332.5916, 1268.035
333.0737, 1264.063
333.5558, 1261.608
334.0379, 1262.366
334.5200, 1264.383
335.0021, 1266.176
335.4843, 1267.218
335.9664, 1267.270
336.4485, 1265.426
336.9306, 1260.312
337.4127, 1257.429
337.8948, 1259.793
338.3770, 1262.526
338.8591, 1262.262
339.3412, 1259.016
339.8233, 1255.629
340.3055, 1255.378
340.7876, 1258.714
341.2697, 1260.633
341.7518, 1260.166
342.2339, 1259.093
342.7160, 1257.661
343.1982, 1256.161
343.6803, 1255.090
344.1624, 1254.775
344.6445, 1255.164
345.1266, 1256.202
345.6087, 1259.094
346.0909, 1260.581
346.5730, 1258.597
347.0551, 1255.183
347.5372, 1252.952
348.0193, 1253.043
348.5014, 1254.440
348.9836, 1255.483
349.4657, 1256.286
349.9478, 1256.319
350.4299, 1254.141
350.9120, 1251.936
351.3941, 1251.598
351.8763, 1253.440
352.3584, 1255.744
352.8405, 1256.784
353.3226, 1256.534
353.8047, 1256.035
354.2868, 1255.192
354.7690, 1254.352
355.2511, 1253.460
355.7332, 1252.667
356.2153, 1252.547
356.6974, 1254.523
357.1795, 1257.647
357.6617, 1257.514
358.1438, 1251.856
358.6259, 1247.620
359.1080, 1250.527
359.5901, 1257.023
360.0722, 1261.419
360.5544, 1261.006
361.0365, 1258.409
361.5186, 1257.277
362.0007, 1257.791
362.4828, 1258.386
362.9649, 1258.539
363.4471, 1258.372
363.9292, 1257.983
364.4113, 1257.334
364.8934, 1256.657
365.3755, 1256.313
365.8576, 1256.169
366.3398, 1255.348
366.8219, 1253.109
367.3040, 1250.953
367.7861, 1250.606
368.2682, 1251.895
368.7503, 1253.294
369.2325, 1254.276
369.7146, 1254.965
370.1967, 1255.822
370.6788, 1257.057
371.1609, 1257.398
371.6430, 1255.301
372.1252, 1251.441
372.6073, 1248.145
373.0894, 1245.500
373.5715, 1243.697
374.0536, 1243.300
374.5357, 1244.092
375.0179, 1244.830
375.5000, 1245.102
375.9821, 1244.751
376.4642, 1243.324
376.9463, 1240.217
377.4284, 1237.582
377.9106, 1236.752
378.3927, 1236.804
378.8748, 1235.800
379.3569, 1233.073
379.8390, 1230.487
380.3211, 1230.898
380.8033, 1235.143
381.2854, 1237.385
381.7675, 1236.128
382.2496, 1233.499
382.7317, 1230.189
383.2138, 1226.696
383.6960, 1225.066
384.1781, 1227.306
384.6602, 1233.002
385.1423, 1236.095
385.6244, 1235.397
386.1065, 1233.959
386.5887, 1232.039
387.0708, 1230.174
387.5529, 1229.324
388.0350, 1229.942
388.5171, 1231.386
388.9992, 1232.272
389.4814, 1232.609
389.9635, 1232.256
390.4456, 1230.813
390.9277, 1228.968
391.4098, 1227.273
391.8919, 1225.809
392.3741, 1224.203
392.8562, 1221.846
393.3383, 1218.336
393.8204, 1217.245
394.3025, 1220.990
394.7846, 1224.479
395.2668, 1226.584
395.7489, 1227.106
396.2310, 1225.596
396.7131, 1221.552
397.1952, 1216.157
397.6773, 1213.633
398.1595, 1215.897
398.6416, 1217.980
399.1237, 1219.610
399.6058, 1220.586
400.0879, 1220.568
400.5700, 1219.548
401.0522, 1218.103
401.5343, 1216.843
402.0164, 1215.768
402.4985, 1214.907
402.9806, 1213.861
403.4627, 1213.463
403.9449, 1214.476
404.4270, 1216.457
404.9091, 1218.286
405.3912, 1219.264
405.8733, 1219.591
406.3554, 1219.831
406.8376, 1219.866
407.3197, 1220.104
407.8018, 1221.412
408.2839, 1222.679
408.7660, 1222.564
409.2481, 1220.585
409.7303, 1218.111
410.2124, 1216.473
410.6945, 1215.631
411.1766, 1214.872
411.6587, 1214.274
412.1408, 1213.409
412.6230, 1211.295
413.1051, 1208.230
413.5872, 1206.580
414.0693, 1208.674
414.5514, 1212.301
415.0335, 1213.918
415.5157, 1213.233
415.9978, 1211.536
416.4799, 1208.899
416.9620, 1206.002
417.4441, 1204.847
417.9262, 1206.910
418.4084, 1208.851
418.8905, 1208.156
419.3726, 1205.849
419.8547, 1204.987
420.3368, 1207.005
420.8189, 1209.513
421.3011, 1207.979
421.7832, 1200.765
422.2653, 1196.741
422.7474, 1199.932
423.2295, 1204.629
423.7116, 1205.312
424.1938, 1202.036
424.6759, 1199.174
425.1580, 1200.393
425.6401, 1205.363
426.1222, 1207.983
426.6043, 1207.161
427.0865, 1205.646
427.5686, 1203.289
428.0507, 1200.888
428.5328, 1199.630
429.0149, 1199.943
429.4970, 1201.022
429.9792, 1201.350
430.4613, 1199.893
430.9434, 1200.012
431.4255, 1203.690
431.9076, 1206.939
432.3897, 1207.171
432.8719, 1204.823
433.3540, 1201.979
433.8361, 1200.127
434.3182, 1199.245
434.8003, 1199.328
435.2824, 1201.847
435.7646, 1203.014
436.2467, 1201.319
436.7288, 1198.264
437.2109, 1195.059
437.6930, 1192.064
438.1751, 1190.001
438.6573, 1190.532
439.1394, 1193.976
439.6215, 1195.351
440.1036, 1192.290
440.5857, 1188.859
441.0678, 1187.608
441.5500, 1188.236
442.0321, 1189.417
442.5142, 1190.930
442.9963, 1192.396
443.4784, 1193.038
443.9605, 1192.769
444.4427, 1192.350
444.9248, 1192.210
445.4069, 1192.115
445.8890, 1191.619
446.3711, 1190.529
446.8532, 1189.538
447.3354, 1189.315
447.8175, 1189.440
448.2996, 1188.661
448.7817, 1186.505
449.2638, 1184.734
449.7459, 1185.706
450.2281, 1189.635
450.7102, 1191.883
451.1923, 1191.242
451.6744, 1189.797
452.1565, 1188.570
452.6386, 1187.608
453.1208, 1186.778
453.6029, 1185.989
454.0850, 1185.355
454.5671, 1185.221
455.0492, 1187.085
455.5313, 1187.333
456.0135, 1184.869
456.4956, 1181.495
456.9777, 1178.019
457.4598, 1174.935
457.9419, 1173.190
458.4240, 1173.914
458.9062, 1177.157
459.3883, 1179.581
459.8704, 1180.595
460.3525, 1181.411
460.8346, 1182.768
461.3167, 1183.901
461.7989, 1183.472
462.2810, 1180.937
462.7631, 1177.939
463.2452, 1177.327
463.7273, 1179.644
464.2094, 1181.081
464.6916, 1180.611
465.1737, 1179.603
465.6558, 1178.568
466.1379, 1177.631
466.6200, 1177.073
467.1021, 1177.347
467.5843, 1177.963
468.0664, 1178.029
468.5485, 1177.555
469.0306, 1176.343
469.5127, 1173.206
469.9948, 1169.975
470.4770, 1169.977
470.9591, 1174.499
471.4412, 1177.817
471.9233, 1175.472
472.4054, 1170.386
472.8875, 1168.062
473.3697, 1169.563
473.8518, 1172.517
474.3339, 1175.276
474.8160, 1177.728
475.2981, 1178.550
475.7802, 1176.897
476.2624, 1174.549
476.7445, 1171.612
477.2266, 1168.633
477.7087, 1166.641
478.1908, 1166.027
478.6729, 1166.306
479.1551, 1166.663
479.6372, 1167.342
480.1193, 1167.464
480.6014, 1166.801
481.0835, 1165.859
481.5656, 1164.806
482.0478, 1163.716
482.5299, 1162.503
483.0120, 1160.953
483.4941, 1159.550
483.9762, 1160.625
484.4583, 1166.705
484.9405, 1170.032
485.4226, 1166.987
485.9047, 1162.295
486.3868, 1159.303
486.8689, 1158.534
487.3510, 1158.931
487.8332, 1159.929
488.3153, 1161.417
488.7974, 1163.021
489.2795, 1165.017
489.7616, 1166.400
490.2437, 1166.636
490.7259, 1165.825
491.2080, 1163.661
491.6901, 1159.058
492.1722, 1155.159
492.6543, 1154.821
493.1364, 1157.033
493.6186, 1159.107
494.1007, 1160.527
494.5828, 1160.929
495.0649, 1159.384
495.5470, 1155.600
496.0291, 1153.717
496.5113, 1155.838
496.9934, 1158.056
497.4755, 1157.910
497.9576, 1156.025
498.4397, 1154.223
498.9218, 1153.405
499.4040, 1152.986
499.8861, 1151.624
500.3682, 1148.492
500.8503, 1145.940
501.3324, 1143.744
501.8145, 1142.224
502.2967, 1141.972
502.7788, 1142.620
503.2609, 1143.010
503.7430, 1142.184
504.2251, 1140.662
504.7072, 1140.555
505.1894, 1142.401
505.6715, 1144.446
506.1536, 1147.602
506.6357, 1149.893
507.1178, 1149.014
507.5999, 1144.883
508.0821, 1140.818
508.5642, 1139.234
509.0463, 1139.609
509.5284, 1140.754
510.0105, 1142.931
510.4926, 1144.403
510.9748, 1143.614
511.4569, 1141.458
511.9390, 1140.102
512.4211, 1139.945
512.9032, 1140.072
513.3853, 1140.428
513.8674, 1140.660
514.3495, 1139.834
514.8317, 1137.739
515.3138, 1135.855
515.7959, 1135.910
516.2780, 1138.126
516.7601, 1138.707
517.2422, 1135.941
517.7244, 1133.729
518.2065, 1133.939
518.6886, 1135.341
519.1707, 1136.187
519.6528, 1135.844
520.1349, 1134.743
520.6171, 1133.460
521.0992, 1131.932
521.5813, 1130.512
522.0634, 1129.146
522.5455, 1127.970
523.0276, 1126.994
523.5098, 1126.257
523.9919, 1125.968
524.4740, 1126.428
524.9561, 1126.767
525.4382, 1124.987
525.9203, 1121.023
526.4025, 1119.420
526.8846, 1122.754
527.3667, 1126.746
527.8488, 1126.649
528.3309, 1123.165
528.8130, 1120.849
529.2952, 1122.255
529.7773, 1124.451
530.2594, 1124.600
530.7415, 1123.051
531.2236, 1121.620
531.7057, 1121.072
532.1879, 1121.182
532.6700, 1121.589
533.1521, 1122.633
533.6342, 1123.172
534.1163, 1122.471
534.5984, 1121.871
535.0806, 1122.404
535.5627, 1123.828
536.0448, 1125.324
536.5269, 1126.413
537.0090, 1127.091
537.4911, 1127.393
537.9733, 1127.604
538.4554, 1126.760
538.9375, 1123.280
539.4196, 1119.968
539.9017, 1118.995
540.3839, 1119.972
540.8660, 1120.610
541.3481, 1119.109
541.8302, 1116.468
542.3123, 1114.963
542.7944, 1114.711
543.2766, 1114.649
543.7587, 1114.574
544.2408, 1114.315
544.7229, 1113.628
545.2050, 1112.485
545.6871, 1111.259
546.1693, 1109.788
546.6514, 1108.483
547.1335, 1107.965
547.6156, 1108.144
548.0977, 1108.130
548.5798, 1107.242
549.0620, 1105.982
549.5441, 1106.043
550.0262, 1108.374
550.5083, 1110.832
550.9904, 1115.162
551.4725, 1118.273
551.9547, 1116.628
552.4368, 1111.214
552.9189, 1106.496
553.4010, 1106.068
553.8831, 1108.635
554.3652, 1108.656
554.8474, 1104.509
555.3295, 1101.932
555.8116, 1104.645
556.2937, 1107.911
556.7758, 1108.072
557.2579, 1105.060
557.7401, 1101.794
558.2222, 1099.628
558.7043, 1098.444
559.1864, 1098.349
559.6685, 1099.347
560.1506, 1100.008
560.6328, 1099.425
561.1149, 1098.277
561.5970, 1098.154
562.0791, 1099.381
562.5612, 1100.334
563.0433, 1101.175
563.5255, 1101.275
564.0076, 1099.657
564.4897, 1096.675
564.9718, 1093.700
565.4539, 1091.565
565.9360, 1090.218
566.4182, 1089.569
566.9003, 1090.167
567.3824, 1090.443
567.8645, 1090.464
568.3466, 1090.045
568.8287, 1088.631
569.3109, 1086.591
569.7930, 1085.164
570.2751, 1085.299
570.7572, 1086.328
571.2393, 1086.924
571.7214, 1087.078
572.2036, 1086.939
572.6857, 1086.710
573.1678, 1086.006
573.6499, 1083.848
574.1320, 1080.284
574.6141, 1078.127
575.0963, 1079.262
575.5784, 1081.229
576.0605, 1081.894
576.5426, 1081.517
577.0247, 1081.413
577.5068, 1082.236
577.9890, 1083.254
578.4711, 1083.042
578.9532, 1080.972
579.4353, 1079.257
579.9174, 1077.861
580.3995, 1076.812
580.8817, 1076.052
581.3638, 1075.666
581.8459, 1076.005
582.3280, 1077.326
582.8101, 1078.722
583.2922, 1078.684
583.7744, 1077.141
584.2565, 1075.063
584.7386, 1071.785
585.2207, 1069.094
585.7029, 1068.423
586.1850, 1069.254
586.6671, 1070.399
587.1492, 1072.045
587.6313, 1073.286
