##NAMES=Aravaipaite
##RRUFFID=R100004
##IDEAL CHEMISTRY=Pb^2+^_3_AlF_9_&#183;H_2_O
##LOCALITY=Grand Reef mine, Klondyke, Aravaipa District, Graham County, Arizona, USA
##OWNER=RRUFF
##SOURCE=William W. Pinch
##DESCRIPTION=Colorless thin plates. Same sample as used in Kampf (2001) and Kampf et al (2011).
##STATUS=The identification of this mineral has been confirmed by single-crystal X-ray diffraction.
##URL=rruff.info/R100004
91.53320, 474.1880
92.01532, 470.2881
92.49744, 467.5844
92.97955, 473.4411
93.46167, 481.2493
93.94379, 485.0111
94.42590, 487.5883
94.90802, 489.3871
95.39014, 489.5541
95.87225, 487.7930
96.35437, 485.8983
96.83649, 485.1070
97.31860, 484.8700
97.80072, 484.5669
98.28284, 483.3114
98.76495, 480.8931
99.24707, 478.6352
99.72919, 476.7604
100.2113, 475.0234
100.6934, 473.3002
101.1755, 471.5658
101.6577, 469.8563
102.1398, 468.1866
102.6219, 466.5582
103.1040, 464.8565
103.5861, 462.6666
104.0682, 460.6420
104.5504, 459.2798
105.0325, 458.5815
105.5146, 457.9894
105.9967, 456.7023
106.4788, 454.5295
106.9609, 451.9092
107.4431, 448.7300
107.9252, 445.1150
108.4073, 441.1871
108.8894, 436.9142
109.3715, 432.4512
109.8536, 428.1425
110.3358, 424.0139
110.8179, 419.7729
111.3000, 415.0608
111.7821, 409.9516
112.2642, 405.2090
112.7463, 401.3583
113.2285, 397.8971
113.7106, 394.2065
114.1927, 390.0537
114.6748, 386.0619
115.1569, 383.3116
115.6390, 382.3685
116.1212, 381.1585
116.6033, 378.6438
117.0854, 375.7322
117.5675, 373.3102
118.0496, 371.8226
118.5317, 371.1134
119.0139, 370.4529
119.4960, 369.4083
119.9781, 368.9248
120.4602, 369.5146
120.9423, 370.7730
121.4244, 371.9967
121.9066, 372.6281
122.3887, 372.6074
122.8708, 372.8329
123.3529, 373.4055
123.8350, 374.0674
124.3171, 374.7525
124.7993, 375.4338
125.2814, 376.0488
125.7635, 376.5162
126.2456, 376.7880
126.7277, 377.1630
127.2098, 377.5572
127.6920, 378.0923
128.1741, 378.9505
128.6562, 380.1962
129.1383, 381.5960
129.6204, 382.8629
130.1025, 384.0129
130.5847, 385.1896
131.0668, 386.6299
131.5489, 388.1826
132.0310, 389.3151
132.5131, 389.8566
132.9952, 389.9588
133.4774, 389.6488
133.9595, 388.9444
134.4416, 388.3863
134.9237, 388.6096
135.4058, 389.7727
135.8879, 390.6427
136.3701, 390.8032
136.8522, 390.7226
137.3343, 390.6078
137.8164, 390.5188
138.2985, 390.4513
138.7806, 390.4485
139.2628, 390.7977
139.7449, 390.6346
140.2270, 389.4296
140.7091, 387.9742
141.1912, 387.0390
141.6733, 386.9727
142.1555, 387.4719
142.6376, 387.5022
143.1197, 386.6227
143.6018, 385.7194
144.0839, 384.7052
144.5660, 383.7398
145.0482, 383.1325
145.5303, 383.1276
146.0124, 383.5802
146.4945, 383.3932
146.9766, 382.2073
147.4587, 380.8951
147.9409, 379.6953
148.4230, 378.6396
148.9051, 377.8377
149.3872, 377.4834
149.8693, 377.4697
150.3514, 377.1186
150.8336, 376.0635
151.3157, 374.8874
151.7978, 374.0960
152.2799, 373.7188
152.7620, 373.5667
153.2441, 373.6865
153.7263, 373.9305
154.2084, 374.0396
154.6905, 373.9014
155.1726, 373.5746
155.6547, 373.1093
156.1368, 372.2811
156.6190, 371.7555
157.1011, 371.9875
157.5832, 372.7285
158.0653, 373.5091
158.5474, 374.0119
159.0295, 374.2634
159.5117, 374.6321
159.9938, 375.3633
160.4759, 375.9644
160.9580, 376.1562
161.4401, 376.0484
161.9222, 375.9414
162.4044, 376.1250
162.8865, 376.6678
163.3686, 377.0986
163.8507, 377.7528
164.3328, 378.0317
164.8149, 377.4078
165.2971, 376.0065
165.7792, 374.4986
166.2613, 373.6748
166.7434, 373.8441
167.2255, 373.8775
167.7076, 373.6380
168.1898, 373.3791
168.6719, 373.2759
169.1540, 373.3647
169.6361, 373.5677
170.1182, 373.7635
170.6003, 373.8696
171.0825, 374.2263
171.5646, 375.3504
172.0467, 376.5412
172.5288, 376.8255
173.0109, 375.8404
173.4930, 374.4334
173.9752, 374.0729
174.4573, 374.8262
174.9394, 375.5956
175.4215, 376.2328
175.9036, 376.6564
176.3857, 376.6529
176.8679, 376.0844
177.3500, 375.1524
177.8321, 374.1173
178.3142, 372.9635
178.7963, 371.8353
179.2784, 370.8400
179.7606, 369.9542
180.2427, 369.0738
180.7248, 368.2899
181.2069, 367.3800
181.6890, 366.1113
182.1711, 364.4493
182.6533, 362.7294
183.1354, 361.2577
183.6175, 360.0545
184.0996, 358.9466
184.5817, 358.1953
185.0638, 357.3409
185.5460, 356.0490
186.0281, 354.2565
186.5102, 352.2426
186.9923, 350.2998
187.4744, 348.2507
187.9565, 346.7951
188.4387, 346.2250
188.9208, 346.0556
189.4029, 346.0744
189.8850, 346.1877
190.3671, 346.2555
190.8492, 345.9711
191.3314, 344.9277
191.8135, 344.2001
192.2956, 343.8290
192.7777, 343.7685
193.2598, 344.1778
193.7419, 345.0903
194.2241, 346.1006
194.7062, 346.2303
195.1883, 344.2448
195.6704, 342.7455
196.1525, 342.1381
196.6346, 341.9350
197.1168, 341.5192
197.5989, 340.6118
198.0810, 339.4621
198.5631, 338.8103
199.0452, 339.0429
199.5273, 339.2217
200.0095, 339.2356
200.4916, 339.0971
200.9737, 338.8369
201.4558, 338.4746
201.9379, 337.9789
202.4200, 337.1659
202.9022, 335.5571
203.3843, 334.4806
203.8664, 334.8496
204.3485, 336.1783
204.8306, 337.1057
205.3127, 336.9773
205.7949, 336.1620
206.2770, 335.5439
206.7591, 335.2071
207.2412, 334.8606
207.7233, 334.2847
208.2054, 333.5207
208.6876, 332.8324
209.1697, 332.2859
209.6518, 331.9191
210.1339, 331.7578
210.6160, 331.8400
211.0981, 332.0246
211.5803, 332.1954
212.0624, 332.3521
212.5445, 332.5800
213.0266, 332.8882
213.5087, 333.3060
213.9908, 333.8902
214.4730, 334.6684
214.9551, 335.4990
215.4372, 336.1602
215.9193, 336.5965
216.4014, 337.2333
216.8836, 338.1715
217.3657, 339.3854
217.8478, 340.9852
218.3299, 342.9971
218.8120, 345.1385
219.2941, 346.9847
219.7763, 348.4212
220.2584, 349.9299
220.7405, 351.8490
221.2226, 353.7187
221.7047, 355.0868
222.1868, 355.8558
222.6690, 356.5008
223.1511, 357.7919
223.6332, 359.9833
224.1153, 362.3011
224.5974, 364.8310
225.0795, 367.3300
225.5617, 369.6387
226.0438, 371.7076
226.5259, 373.5678
227.0080, 375.2588
227.4901, 376.6717
227.9722, 378.0946
228.4544, 379.5854
228.9365, 381.0624
229.4186, 382.4809
229.9007, 383.8166
230.3828, 385.0318
230.8649, 386.0387
231.3471, 386.6980
231.8292, 387.3575
232.3113, 387.9517
232.7934, 388.5785
233.2755, 389.4511
233.7576, 390.5847
234.2398, 391.6412
234.7219, 392.0238
235.2040, 391.1295
235.6861, 390.5978
236.1682, 391.0742
236.6503, 391.5594
237.1325, 390.9293
237.6146, 388.9346
238.0967, 386.5201
238.5788, 385.1620
239.0609, 385.6870
239.5430, 385.3475
240.0252, 383.4612
240.5073, 380.9675
240.9894, 378.7830
241.4715, 377.1170
241.9536, 375.6803
242.4357, 374.1234
242.9179, 372.4774
243.4000, 370.5605
243.8821, 367.9701
244.3642, 365.2838
244.8463, 363.2617
245.3284, 362.0750
245.8106, 361.0396
246.2927, 359.3138
246.7748, 356.8745
247.2569, 354.4450
247.7390, 352.1110
248.2211, 349.8395
248.7033, 347.5361
249.1854, 345.1607
249.6675, 342.9296
250.1496, 341.1371
250.6317, 339.7083
251.1138, 338.2777
251.5960, 336.6678
252.0781, 335.0545
252.5602, 333.7038
253.0423, 332.6892
253.5244, 331.6940
254.0065, 330.3512
254.4887, 328.8060
254.9708, 327.4742
255.4529, 326.6253
255.9350, 325.9854
256.4171, 325.0918
256.8992, 323.8319
257.3813, 322.7792
257.8635, 322.7415
258.3456, 323.1683
258.8277, 323.0891
259.3098, 321.8081
259.7919, 320.1244
260.2740, 319.3478
260.7562, 319.7346
261.2383, 319.9137
261.7204, 318.8605
262.2025, 317.1796
262.6846, 315.5492
263.1667, 314.2110
263.6489, 312.9443
264.1310, 311.3230
264.6131, 309.2041
265.0952, 307.3524
265.5773, 306.5201
266.0594, 305.9789
266.5416, 305.0133
267.0237, 303.3619
267.5058, 301.4238
267.9879, 299.7574
268.4700, 298.4625
268.9521, 297.0063
269.4343, 294.9403
269.9164, 292.7772
270.3985, 290.9790
270.8806, 289.6828
271.3627, 288.4854
271.8448, 286.8343
272.3270, 284.6118
272.8091, 282.5101
273.2912, 280.7156
273.7733, 279.0803
274.2554, 277.5362
274.7375, 276.0588
275.2197, 274.6483
275.7018, 273.3320
276.1839, 272.1476
276.6660, 270.8361
277.1481, 268.8950
277.6302, 267.1725
278.1124, 266.3291
278.5945, 266.3008
279.0766, 266.3327
279.5587, 265.6252
280.0408, 264.0857
280.5229, 262.6509
281.0051, 261.5575
281.4872, 260.4096
281.9693, 258.8123
282.4514, 256.9503
282.9335, 255.4322
283.4156, 254.9859
283.8978, 255.6477
284.3799, 255.6624
284.8620, 254.3420
285.3441, 253.0212
285.8262, 252.0996
286.3083, 251.5346
286.7905, 251.1987
287.2726, 251.1146
287.7547, 251.2038
288.2368, 250.6698
288.7189, 248.7262
289.2010, 247.0752
289.6832, 246.4261
290.1653, 246.3134
290.6474, 245.9637
291.1295, 244.8798
291.6116, 243.3319
292.0938, 242.4891
292.5759, 243.2190
293.0580, 243.4110
293.5401, 242.3642
294.0222, 240.7275
294.5043, 239.1838
294.9865, 238.0317
295.4686, 237.1963
295.9507, 236.4909
296.4328, 235.8495
296.9149, 235.4929
297.3970, 235.5667
297.8792, 235.8204
298.3613, 236.0787
298.8434, 236.2780
299.3255, 236.4014
299.8076, 236.4010
300.2897, 236.1882
300.7719, 236.0501
301.2540, 236.2440
301.7361, 236.3305
302.2182, 235.9262
302.7003, 235.0258
303.1824, 234.0095
303.6646, 233.3540
304.1467, 233.1962
304.6288, 232.9122
305.1109, 232.3033
305.5930, 231.7453
306.0751, 231.4613
306.5573, 231.4110
307.0394, 231.3714
307.5215, 231.0805
308.0036, 230.4870
308.4857, 230.3958
308.9678, 231.5680
309.4500, 232.5108
309.9321, 232.6833
310.4142, 232.2937
310.8963, 231.8051
311.3784, 231.5060
311.8605, 231.3923
312.3427, 231.4486
312.8248, 232.1510
313.3069, 232.4481
313.7890, 231.7858
314.2711, 230.7257
314.7532, 230.0322
315.2354, 230.1010
315.7175, 230.6335
316.1996, 230.7687
316.6817, 230.2670
317.1638, 229.7165
317.6459, 229.2121
318.1281, 228.6824
318.6102, 228.0643
319.0923, 227.3379
319.5744, 226.5288
320.0565, 225.6884
320.5386, 224.8680
321.0208, 223.8863
321.5029, 222.5033
321.9850, 221.1568
322.4671, 220.1717
322.9492, 219.5466
323.4313, 219.0116
323.9135, 218.3117
324.3956, 217.4834
324.8777, 216.2795
325.3598, 213.8811
325.8419, 211.8598
326.3240, 211.0915
326.8062, 211.2642
327.2883, 211.4057
327.7704, 210.7149
328.2525, 209.2570
328.7346, 208.1846
329.2167, 208.0200
329.6989, 207.6568
330.1810, 206.5982
330.6631, 205.2246
331.1452, 204.1446
331.6273, 203.7115
332.1094, 203.6921
332.5916, 203.3804
333.0737, 202.7753
333.5558, 201.8342
334.0379, 200.0123
334.5200, 198.1789
335.0021, 197.3150
335.4843, 197.7081
335.9664, 198.5923
336.4485, 198.6864
336.9306, 197.6496
337.4127, 196.8352
337.8948, 196.6196
338.3770, 196.4624
338.8591, 195.9710
339.3412, 195.1546
339.8233, 194.3788
340.3055, 193.9669
340.7876, 193.9235
341.2697, 194.2304
341.7518, 195.6215
342.2339, 196.6286
342.7160, 196.3059
343.1982, 195.1217
343.6803, 194.2605
344.1624, 194.6728
344.6445, 196.0285
345.1266, 196.6199
345.6087, 195.9559
346.0909, 195.2996
346.5730, 194.9586
347.0551, 194.9008
347.5372, 195.1538
348.0193, 195.7894
348.5014, 196.5371
348.9836, 196.9147
349.4657, 196.8667
349.9478, 196.6257
350.4299, 195.9578
350.9120, 195.2989
351.3941, 194.9193
351.8763, 194.8753
352.3584, 195.1864
352.8405, 196.0434
353.3226, 197.4723
353.8047, 198.6025
354.2868, 199.1981
354.7690, 199.5713
355.2511, 199.8335
355.7332, 200.0325
356.2153, 200.3188
356.6974, 200.9253
357.1795, 201.7204
357.6617, 202.0865
358.1438, 201.6871
358.6259, 201.5525
359.1080, 202.5666
359.5901, 204.1539
360.0722, 205.4109
360.5544, 205.9678
361.0365, 206.1098
361.5186, 206.0834
362.0007, 205.8197
362.4828, 205.9596
362.9649, 207.1194
363.4471, 208.6316
363.9292, 209.7474
364.4113, 210.3525
364.8934, 210.7409
365.3755, 211.1777
365.8576, 211.6127
366.3398, 211.7393
366.8219, 211.3881
367.3040, 210.8460
367.7861, 210.3540
368.2682, 209.9145
368.7503, 209.6320
369.2325, 209.8681
369.7146, 210.1934
370.1967, 209.7169
370.6788, 208.2369
371.1609, 206.7417
371.6430, 206.1169
372.1252, 206.1036
372.6073, 205.8421
373.0894, 205.3249
373.5715, 204.4420
374.0536, 202.7822
374.5357, 200.5247
375.0179, 198.7759
375.5000, 198.2856
375.9821, 198.4663
376.4642, 197.8241
376.9463, 195.8823
377.4284, 194.3284
377.9106, 194.0019
378.3927, 194.4261
378.8748, 194.8337
379.3569, 195.0329
379.8390, 195.0949
380.3211, 195.0816
380.8033, 194.9714
381.2854, 194.9203
381.7675, 195.1428
382.2496, 195.2839
382.7317, 194.8755
383.2138, 193.9959
383.6960, 193.3184
384.1781, 193.3630
384.6602, 194.0872
385.1423, 194.8297
385.6244, 195.7886
386.1065, 196.5439
386.5887, 196.7299
387.0708, 196.6552
387.5529, 196.9211
388.0350, 197.8094
388.5171, 198.9522
388.9992, 199.5363
389.4814, 199.0014
389.9635, 198.7396
390.4456, 198.8886
390.9277, 199.2152
391.4098, 199.5122
391.8919, 199.7638
392.3741, 200.1396
392.8562, 200.8763
393.3383, 202.0929
393.8204, 202.7672
394.3025, 202.3024
394.7846, 201.9556
395.2668, 202.2141
395.7489, 202.8994
396.2310, 203.5988
396.7131, 204.0587
397.1952, 204.4180
397.6773, 205.2252
398.1595, 207.1281
398.6416, 208.3801
399.1237, 208.6101
399.6058, 208.2785
400.0879, 207.7237
400.5700, 207.0444
401.0522, 206.2206
401.5343, 205.1463
402.0164, 203.7502
402.4985, 202.5746
402.9806, 202.4502
403.4627, 201.7402
403.9449, 199.1319
404.4270, 195.3157
404.9091, 192.1077
405.3912, 190.8316
405.8733, 190.8734
406.3554, 190.3527
406.8376, 189.1374
407.3197, 187.6645
407.8018, 185.8190
408.2839, 183.9431
408.7660, 182.3980
409.2481, 181.2600
409.7303, 180.4259
410.2124, 179.9701
410.6945, 179.8493
411.1766, 179.3033
411.6587, 177.8387
412.1408, 176.3326
412.6230, 175.7240
413.1051, 175.8885
413.5872, 175.9119
414.0693, 175.1275
414.5514, 174.0707
415.0335, 173.7543
415.5157, 174.3127
415.9978, 174.7178
416.4799, 174.1656
416.9620, 172.9657
417.4441, 172.1341
417.9262, 171.8109
418.4084, 171.7211
418.8905, 171.7260
419.3726, 171.8447
419.8547, 172.2661
420.3368, 173.1782
420.8189, 173.9978
421.3011, 173.6208
421.7832, 171.6788
422.2653, 170.1911
422.7474, 169.4549
423.2295, 169.2040
423.7116, 169.4462
424.1938, 170.0559
424.6759, 170.4573
425.1580, 170.1431
425.6401, 169.1704
426.1222, 168.5999
426.6043, 168.6451
427.0865, 168.7745
427.5686, 168.8880
428.0507, 168.9961
428.5328, 169.1600
429.0149, 169.3982
429.4970, 169.6010
429.9792, 169.5631
430.4613, 169.1392
430.9434, 168.7817
431.4255, 168.5343
431.9076, 168.3017
432.3897, 167.9552
432.8719, 167.5587
433.3540, 167.3384
433.8361, 167.5277
434.3182, 168.0377
434.8003, 168.2035
435.2824, 167.8000
435.7646, 167.3826
436.2467, 167.0345
436.7288, 166.7720
437.2109, 166.6621
437.6930, 166.7285
438.1751, 166.7838
438.6573, 166.4881
439.1394, 165.7933
439.6215, 165.4592
440.1036, 165.9003
440.5857, 166.3804
441.0678, 166.3689
441.5500, 165.9723
442.0321, 165.6230
442.5142, 165.6245
442.9963, 165.7767
443.4784, 165.6375
443.9605, 165.1469
444.4427, 164.8530
444.9248, 165.2574
445.4069, 165.9125
445.8890, 165.9944
446.3711, 165.2578
446.8532, 164.5440
447.3354, 164.2827
447.8175, 164.3836
448.2996, 164.7792
448.7817, 165.5224
449.2638, 166.1128
449.7459, 165.8988
450.2281, 164.8173
450.7102, 164.0560
451.1923, 163.7215
451.6744, 163.6613
452.1565, 163.8758
452.6386, 164.2978
453.1208, 164.8001
453.6029, 165.3458
454.0850, 165.8379
454.5671, 166.0029
455.0492, 165.4332
455.5313, 165.0839
456.0135, 165.3088
456.4956, 165.5288
456.9777, 165.0624
457.4598, 163.9689
457.9419, 163.0581
458.4240, 163.1731
458.9062, 164.3345
459.3883, 165.0824
459.8704, 165.2584
460.3525, 165.1589
460.8346, 164.4798
461.3167, 163.6978
461.7989, 163.4924
462.2810, 164.1312
462.7631, 165.0557
463.2452, 165.3783
463.7273, 164.9948
464.2094, 164.6189
464.6916, 164.2957
465.1737, 164.0429
465.6558, 163.9379
466.1379, 163.9249
466.6200, 163.8046
467.1021, 163.2912
467.5843, 162.6786
468.0664, 162.6469
468.5485, 163.2815
469.0306, 163.8823
469.5127, 164.1513
469.9948, 164.1874
470.4770, 164.1934
470.9591, 164.2270
471.4412, 164.0401
471.9233, 163.1222
472.4054, 161.9941
472.8875, 161.8547
473.3697, 162.9808
473.8518, 164.0382
474.3339, 163.6306
474.8160, 161.7869
475.2981, 160.9686
475.7802, 162.0582
476.2624, 163.2147
476.7445, 163.6072
477.2266, 163.4820
477.7087, 163.3157
478.1908, 163.2944
478.6729, 163.3853
479.1551, 163.5491
479.6372, 163.9171
480.1193, 164.0313
480.6014, 163.7512
481.0835, 163.3788
481.5656, 162.9317
482.0478, 162.5307
482.5299, 162.4680
483.0120, 163.0010
483.4941, 163.8905
483.9762, 164.1701
484.4583, 163.4838
484.9405, 162.9105
485.4226, 162.6126
485.9047, 162.5300
486.3868, 162.6930
486.8689, 163.0779
487.3510, 163.4941
487.8332, 163.8944
488.3153, 164.2182
488.7974, 164.0803
489.2795, 163.2416
489.7616, 162.4956
490.2437, 162.2839
490.7259, 162.4908
491.2080, 163.0695
491.6901, 164.2677
492.1722, 165.3237
492.6543, 165.5503
493.1364, 165.1862
493.6186, 164.9103
494.1007, 164.8931
494.5828, 165.0061
495.0649, 165.1390
495.5470, 165.2991
496.0291, 165.3395
496.5113, 165.0167
496.9934, 164.7959
497.4755, 165.0354
497.9576, 165.5952
498.4397, 166.1388
498.9218, 166.5070
499.4040, 166.7228
499.8861, 166.8207
500.3682, 166.6986
500.8503, 166.6435
501.3324, 166.6574
501.8145, 166.7269
502.2967, 166.8812
502.7788, 167.0882
503.2609, 167.2352
503.7430, 167.1953
504.2251, 167.0933
504.7072, 167.5056
505.1894, 168.8313
505.6715, 169.7536
506.1536, 169.3981
506.6357, 168.8724
507.1178, 169.0368
507.5999, 169.9941
508.0821, 171.2846
508.5642, 172.9459
509.0463, 174.6708
509.5284, 175.3816
510.0105, 174.7939
510.4926, 174.1725
510.9748, 174.2551
511.4569, 174.8781
511.9390, 175.6163
512.4211, 176.4656
512.9032, 177.3910
513.3853, 178.4431
513.8674, 179.5391
514.3495, 180.4546
514.8317, 181.1484
515.3138, 181.9435
515.7959, 183.2298
516.2780, 185.0682
516.7601, 186.4978
517.2422, 187.4202
517.7244, 188.1220
518.2065, 188.4057
518.6886, 188.6272
519.1707, 189.3909
519.6528, 190.8796
520.1349, 192.5620
520.6171, 193.5168
521.0992, 193.4220
521.5813, 193.9216
522.0634, 195.5947
522.5455, 197.3183
523.0276, 198.7616
523.5098, 199.9549
523.9919, 200.9737
524.4740, 201.8281
524.9561, 202.6062
525.4382, 203.4986
525.9203, 204.5054
526.4025, 205.2849
526.8846, 205.6145
527.3667, 205.8725
527.8488, 206.5621
528.3309, 207.5823
528.8130, 208.2583
529.2952, 208.1076
529.7773, 207.7460
530.2594, 207.8351
530.7415, 208.2559
531.2236, 208.4353
531.7057, 208.1301
532.1879, 207.4191
532.6700, 206.4160
533.1521, 204.8842
533.6342, 203.5880
534.1163, 202.7393
534.5984, 201.9673
535.0806, 201.0585
535.5627, 200.0149
536.0448, 198.9150
536.5269, 197.8108
537.0090, 196.6907
537.4911, 195.5549
537.9733, 194.4702
538.4554, 193.1911
538.9375, 191.4794
539.4196, 189.7477
539.9017, 188.1449
540.3839, 186.7294
540.8660, 185.6252
541.3481, 185.0292
541.8302, 184.7314
542.3123, 184.2766
542.7944, 183.6562
543.2766, 182.9735
543.7587, 182.2831
544.2408, 181.5370
544.7229, 180.6359
545.2050, 179.5495
545.6871, 178.5833
546.1693, 177.7997
546.6514, 177.2191
547.1335, 176.8996
547.6156, 176.8206
548.0977, 176.8880
548.5798, 177.0940
549.0620, 177.3246
549.5441, 177.1970
550.0262, 176.2599
550.5083, 175.5534
550.9904, 175.2126
551.4725, 175.0012
551.9547, 174.8719
552.4368, 174.7245
552.9189, 174.2892
553.4010, 173.2852
553.8831, 171.9328
554.3652, 171.1960
554.8474, 171.3718
555.3295, 171.4233
555.8116, 171.0332
556.2937, 170.4603
556.7758, 169.8267
557.2579, 169.1615
557.7401, 168.5428
558.2222, 168.0590
558.7043, 167.6371
559.1864, 167.1280
559.6685, 166.5301
560.1506, 165.9709
560.6328, 165.5789
561.1149, 165.2042
561.5970, 164.4018
562.0791, 162.9068
562.5612, 161.9032
563.0433, 161.9447
563.5255, 162.3096
564.0076, 162.5444
564.4897, 162.5476
564.9718, 162.2067
565.4539, 161.4146
565.9360, 160.3420
566.4182, 159.5604
566.9003, 159.0719
567.3824, 158.8857
567.8645, 159.4373
568.3466, 159.8889
568.8287, 159.5351
569.3109, 158.5590
569.7930, 157.7596
570.2751, 157.7119
570.7572, 158.0634
571.2393, 158.1193
571.7214, 157.8768
572.2036, 157.3415
572.6857, 156.2530
573.1678, 155.1625
573.6499, 154.8206
574.1320, 155.2040
574.6141, 155.4157
575.0963, 155.0906
575.5784, 154.5912
576.0605, 154.2210
576.5426, 153.9516
577.0247, 153.6098
577.5068, 153.1067
577.9890, 152.5689
578.4711, 152.2293
578.9532, 152.1100
579.4353, 152.1537
579.9174, 152.5549
580.3995, 152.9056
580.8817, 153.0791
581.3638, 153.0439
581.8459, 152.6949
582.3280, 151.9463
582.8101, 151.1582
583.2922, 150.9783
583.7744, 151.4541
584.2565, 151.8771
584.7386, 152.3001
585.2207, 152.4431
585.7029, 151.7416
586.1850, 150.6182
586.6671, 150.2207
587.1492, 151.3245
587.6313, 152.5510
