##NAMES=Ardennite-(As)
##RRUFFID=R060669
##IDEAL CHEMISTRY=Mn^2+^_4_Al_4_(AlMg)(As^5+^O_4_)(SiO_4_)_2_(Si_3_O_10_)(OH)_6_
##LOCALITY=Ardennes, Salm Chateau, Belgium
##OWNER=RRUFF
##SOURCE=Michael Scott
##DESCRIPTION=Yellowish-brown prismatic single crystal associated with white quartz
##STATUS=The identification of this mineral has been confirmed by single-crystal X-ray diffraction.
##URL=rruff.info/R060669
143.705, 8509.649
144.187, 8913.173
144.669, 9274.245
145.151, 9570.671
145.633, 9850.802
146.115, 10149.290
146.598, 10435.800
147.080, 10656.700
147.562, 10778.350
148.044, 10813.930
148.526, 10834.600
149.008, 10848.030
149.490, 10843.060
149.972, 10816.070
150.454, 10768.330
150.936, 10700.980
151.419, 10613.270
151.901, 10506.610
152.383, 10400.000
152.865, 10283.490
153.347, 10176.040
153.829, 10087.040
154.311, 10014.160
154.794, 9949.875
155.276, 9890.364
155.758, 9835.988
156.240, 9785.395
156.722, 9694.871
157.204, 9644.851
157.686, 9712.947
158.168, 9879.972
158.650, 10032.910
159.133, 10091.450
159.615, 10060.780
160.097, 10046.630
160.579, 10040.130
161.061, 10056.040
161.543, 10112.950
162.025, 10208.420
162.507, 10311.600
162.990, 10400.480
163.472, 10477.760
163.954, 10564.150
164.436, 10667.710
164.918, 10775.660
165.400, 10882.320
165.882, 10986.970
166.364, 11079.360
166.846, 11149.820
167.329, 11200.170
167.811, 11245.130
168.293, 11283.000
168.775, 11317.750
169.257, 11354.990
169.739, 11395.400
170.221, 11431.070
170.703, 11452.420
171.185, 11463.880
171.668, 11481.070
172.150, 11515.490
172.632, 11552.260
173.114, 11568.300
173.596, 11559.270
174.078, 11559.890
174.560, 11603.370
175.042, 11678.060
175.525, 11752.360
176.007, 11823.130
176.489, 11888.900
176.971, 11943.020
177.453, 11982.400
177.935, 12027.290
178.417, 12101.390
178.899, 12193.320
179.381, 12274.780
179.863, 12350.140
180.346, 12406.240
180.828, 12420.970
181.310, 12388.730
181.792, 12336.470
182.274, 12280.450
182.756, 12218.470
183.238, 12143.200
183.721, 12045.830
184.203, 11936.450
184.685, 11826.520
185.167, 11715.120
185.649, 11609.930
186.131, 11512.670
186.613, 11425.300
187.095, 11355.580
187.577, 11315.800
188.059, 11291.600
188.542, 11260.700
189.024, 11221.230
189.506, 11181.500
189.988, 11137.740
190.470, 11097.620
190.952, 11078.250
191.434, 11099.260
191.917, 11138.130
192.399, 11158.070
192.881, 11154.890
193.363, 11148.780
193.845, 11149.460
194.327, 11156.200
194.809, 11169.780
195.291, 11199.830
195.773, 11232.330
196.255, 11243.160
196.738, 11228.280
197.220, 11208.160
197.702, 11190.720
198.184, 11176.600
198.666, 11168.290
199.148, 11170.130
199.630, 11175.660
200.112, 11177.630
200.595, 11177.490
201.077, 11167.570
201.559, 11133.470
202.041, 11088.350
202.523, 11049.340
203.005, 11026.390
203.487, 11007.280
203.969, 10971.570
204.452, 10914.690
204.934, 10864.970
205.416, 10846.010
205.898, 10841.300
206.380, 10830.820
206.862, 10810.660
207.344, 10781.530
207.826, 10738.410
208.308, 10678.010
208.790, 10628.620
209.273, 10619.200
209.755, 10624.300
210.237, 10609.520
210.719, 10559.400
211.201, 10500.420
211.683, 10460.400
212.165, 10440.290
212.648, 10428.270
213.130, 10417.710
213.612, 10414.080
214.094, 10427.240
214.576, 10467.450
215.058, 10507.890
215.540, 10517.630
216.022, 10496.440
216.504, 10483.110
216.986, 10495.530
217.469, 10523.380
217.951, 10555.330
218.433, 10595.500
218.915, 10627.020
219.397, 10631.210
219.879, 10610.010
220.361, 10589.520
220.844, 10573.300
221.326, 10567.550
221.808, 10583.450
222.290, 10630.260
222.772, 10667.030
223.254, 10654.680
223.736, 10602.070
224.218, 10562.440
224.700, 10555.820
225.182, 10565.310
225.665, 10570.430
226.147, 10572.760
226.629, 10562.570
227.111, 10521.880
227.593, 10461.640
228.075, 10421.020
228.557, 10413.780
229.040, 10424.750
229.522, 10438.340
230.004, 10455.540
230.486, 10464.460
230.968, 10457.390
231.450, 10438.300
231.932, 10412.090
232.414, 10373.790
232.896, 10342.960
233.378, 10354.730
233.861, 10406.790
234.343, 10439.920
234.825, 10422.630
235.307, 10378.260
235.789, 10344.210
236.271, 10327.130
236.753, 10315.630
237.235, 10296.720
237.718, 10271.140
238.200, 10251.580
238.682, 10237.670
239.164, 10232.240
239.646, 10245.320
240.128, 10279.160
240.610, 10307.350
241.092, 10302.970
241.574, 10267.540
242.057, 10238.690
242.539, 10220.590
243.021, 10209.400
243.503, 10205.190
243.985, 10207.170
244.467, 10207.000
244.949, 10198.170
245.431, 10181.030
245.913, 10165.180
246.396, 10143.660
246.878, 10129.430
247.360, 10133.560
247.842, 10153.250
248.324, 10176.400
248.806, 10197.010
249.288, 10214.600
249.770, 10227.320
250.253, 10231.070
250.735, 10234.800
251.217, 10239.720
251.699, 10246.930
252.181, 10259.920
252.663, 10281.340
253.145, 10307.750
253.627, 10327.410
254.109, 10330.800
254.592, 10339.500
255.074, 10348.150
255.556, 10366.660
256.038, 10351.663
256.520, 10397.104
257.002, 10427.872
257.484, 10444.760
257.966, 10406.188
258.449, 10439.230
258.931, 10450.190
259.413, 10475.930
259.895, 10521.560
260.377, 10579.370
260.859, 10638.930
261.341, 10685.360
261.823, 10714.170
262.306, 10738.320
262.788, 10752.630
263.270, 10766.750
263.752, 10790.760
264.234, 10823.650
264.716, 10853.670
265.198, 10866.830
265.680, 10858.540
266.162, 10855.120
266.645, 10856.090
267.127, 10861.620
267.609, 10874.270
268.091, 10892.080
268.573, 10909.770
269.055, 10922.560
269.537, 10930.540
270.019, 10942.890
270.501, 10975.710
270.984, 10996.520
271.466, 10985.120
271.948, 10957.750
272.430, 10943.350
272.912, 10960.770
273.394, 11001.130
273.876, 11029.700
274.358, 11045.800
274.841, 11048.650
275.323, 11030.940
275.805, 11004.530
276.287, 10977.760
276.769, 10952.610
277.251, 10939.280
277.733, 10964.540
278.215, 11048.600
278.698, 11112.130
279.180, 11114.190
279.662, 11104.360
280.144, 11112.720
280.626, 11146.380
281.108, 11145.478
281.590, 11229.049
282.072, 11292.110
282.554, 11335.770
283.036, 11301.902
283.519, 11368.142
284.001, 11394.271
284.483, 11418.750
284.965, 11499.079
285.447, 11476.489
285.929, 11555.933
286.411, 11594.646
286.893, 11652.009
287.376, 11668.999
287.858, 11698.455
288.340, 11768.292
288.822, 11815.770
289.304, 11828.110
289.786, 11886.658
290.268, 11862.659
290.750, 11911.088
291.233, 11954.530
291.715, 11949.380
292.197, 11966.460
292.679, 11970.860
293.161, 11941.950
293.643, 11912.280
294.125, 11907.220
294.607, 11925.160
295.089, 11956.200
295.572, 12000.820
296.054, 12051.860
296.536, 12088.130
297.018, 12097.050
297.500, 12112.810
297.982, 12154.320
298.464, 12211.310
298.946, 12266.970
299.428, 12316.790
299.911, 12355.650
300.393, 12371.420
300.875, 12349.490
301.357, 12340.610
301.839, 12359.550
302.321, 12388.400
302.803, 12411.410
303.285, 12425.390
303.767, 12433.650
304.250, 12438.830
304.732, 12438.620
305.214, 12447.460
305.696, 12453.460
306.178, 12477.610
306.660, 12531.700
307.142, 12614.010
307.625, 12649.659
308.107, 12685.308
308.589, 12720.957
309.071, 12756.604
309.553, 12792.253
310.035, 12827.909
310.517, 12863.560
310.999, 12874.200
311.481, 12889.720
311.964, 12891.030
312.446, 12879.970
312.928, 12860.460
313.410, 12831.630
313.892, 12795.660
314.374, 12759.830
314.856, 12714.300
315.338, 12647.850
315.820, 12559.040
316.303, 12462.020
316.785, 12371.670
317.267, 12288.630
317.749, 12207.290
318.231, 12122.380
318.713, 12044.140
319.195, 11983.930
319.677, 11937.640
320.159, 11884.760
320.642, 11794.500
321.124, 11685.320
321.606, 11628.440
322.088, 11642.050
322.570, 11667.050
323.052, 11664.560
323.534, 11646.960
324.016, 11636.610
324.499, 11640.250
324.981, 11652.890
325.463, 11670.990
325.945, 11694.330
326.427, 11718.200
326.909, 11739.170
327.391, 11760.290
327.873, 11788.170
328.355, 11826.980
328.838, 11863.600
329.320, 11888.380
329.802, 11907.320
330.284, 11936.490
330.766, 11982.990
331.248, 12028.210
331.730, 12041.450
332.212, 12007.310
332.694, 11997.870
333.177, 12036.650
333.659, 12089.250
334.141, 12126.530
334.623, 12147.340
335.105, 12170.180
335.587, 12212.850
336.069, 12276.610
336.552, 12326.290
337.034, 12341.970
337.516, 12367.130
337.998, 12415.730
338.480, 12483.590
338.962, 12563.490
339.444, 12652.130
339.926, 12747.460
340.408, 12839.130
340.891, 12898.490
341.373, 13007.160
341.855, 13222.860
342.337, 13453.730
342.819, 13617.320
343.301, 13698.590
343.783, 13754.400
344.265, 13850.150
344.747, 13989.780
345.230, 14135.710
345.712, 14282.760
346.194, 14440.750
346.676, 14623.930
347.158, 14823.630
347.640, 15010.260
348.122, 15166.850
348.604, 15298.810
349.086, 15421.870
349.569, 15539.190
350.051, 15638.560
350.533, 15721.470
351.015, 15779.070
351.497, 15790.250
351.979, 15733.290
352.461, 15658.730
352.944, 15616.790
353.426, 15595.090
353.908, 15535.030
354.390, 15412.000
354.872, 15250.190
355.354, 15082.200
355.836, 14904.120
356.318, 14741.120
356.800, 14608.450
357.283, 14489.920
357.765, 14367.120
358.247, 14237.570
358.729, 14115.180
359.211, 14014.170
359.693, 13937.560
360.175, 13849.520
360.657, 13717.700
361.139, 13610.040
361.622, 13576.310
362.104, 13584.190
362.586, 13567.620
363.068, 13490.110
363.550, 13372.970
364.032, 13280.410
364.514, 13228.110
364.996, 13175.550
365.478, 13116.710
365.961, 13057.570
366.443, 13007.160
366.925, 12965.170
367.407, 12917.350
367.889, 12839.080
368.371, 12726.330
368.853, 12646.070
369.335, 12622.240
369.818, 12605.590
370.300, 12567.110
370.782, 12515.620
371.264, 12474.460
371.746, 12461.920
372.228, 12460.990
372.710, 12441.260
373.192, 12400.640
373.674, 12358.400
374.157, 12317.930
374.639, 12284.420
375.121, 12265.320
375.603, 12264.280
376.085, 12269.270
376.567, 12275.610
377.049, 12283.290
377.531, 12291.910
378.013, 12301.170
378.496, 12312.860
378.978, 12330.680
379.460, 12357.250
379.942, 12374.860
380.424, 12376.920
380.906, 12375.370
381.388, 12373.740
381.871, 12374.710
382.353, 12382.730
382.835, 12399.980
383.317, 12427.730
383.799, 12472.250
384.281, 12555.530
384.763, 12629.550
385.245, 12686.730
385.727, 12734.650
386.210, 12774.070
386.692, 12807.540
387.174, 12850.470
387.656, 12925.170
388.138, 13036.780
388.620, 13150.540
389.102, 13276.860
389.584, 13392.660
390.066, 13473.540
390.549, 13534.650
391.031, 13616.360
391.513, 13755.230
391.995, 13918.480
392.477, 14045.970
392.959, 14134.830
393.441, 14203.820
393.923, 14253.990
394.405, 14291.540
394.888, 14332.370
395.370, 14387.090
395.852, 14416.100
396.334, 14397.110
396.816, 14338.390
397.298, 14244.650
397.780, 14113.880
398.263, 13985.520
398.745, 13910.290
399.227, 13903.800
399.709, 13839.010
400.191, 13663.780
400.673, 13482.030
401.155, 13342.270
401.637, 13240.340
402.119, 13151.710
402.602, 13062.410
403.084, 12981.550
403.566, 12941.270
404.048, 12974.980
404.530, 12996.070
405.012, 12981.670
405.494, 12965.100
405.976, 12978.380
406.458, 13022.350
406.941, 13065.880
407.423, 13073.810
407.905, 13048.270
408.387, 13036.960
408.869, 13048.520
409.351, 13060.610
409.833, 13053.110
410.315, 13039.720
410.797, 13047.150
411.280, 13097.020
411.762, 13150.120
412.244, 13162.210
412.726, 13138.260
413.208, 13115.310
413.690, 13106.790
414.172, 13102.400
414.654, 13086.750
415.137, 13060.620
415.619, 13024.540
416.101, 12966.950
416.583, 12906.940
417.065, 12863.900
417.547, 12837.070
418.029, 12811.270
418.511, 12775.000
418.993, 12729.690
419.476, 12688.630
419.958, 12645.120
420.440, 12614.280
420.922, 12603.630
421.404, 12604.240
421.886, 12606.920
422.368, 12609.050
422.850, 12613.790
423.332, 12628.780
423.815, 12656.890
424.297, 12669.980
424.779, 12646.080
425.261, 12631.770
425.743, 12654.070
426.225, 12702.720
426.707, 12753.250
427.190, 12798.330
427.672, 12836.860
428.154, 12861.660
428.636, 12873.290
429.118, 12895.960
429.600, 12947.240
430.082, 13004.840
430.564, 13030.900
431.046, 13021.860
431.529, 13005.810
432.011, 12977.670
432.493, 12953.460
432.975, 12957.730
433.457, 12988.850
433.939, 13017.610
434.421, 13021.360
434.903, 13001.500
435.385, 12975.820
435.868, 12958.868
436.350, 12970.371
436.832, 12974.966
437.314, 12973.025
437.796, 12944.975
438.278, 12950.641
438.760, 12942.793
439.242, 12934.393
439.724, 12944.804
440.207, 12920.550
440.689, 12930.663
441.171, 12927.058
441.653, 12929.729
442.135, 12918.807
442.617, 12912.084
443.099, 12918.960
443.581, 12903.180
444.064, 12881.170
444.546, 12883.300
445.028, 12895.230
445.510, 12921.850
445.992, 12940.750
446.474, 12903.540
446.956, 12797.560
447.438, 12716.570
447.921, 12682.620
448.403, 12674.370
448.885, 12683.740
449.367, 12704.520
449.849, 12720.480
450.331, 12719.700
450.813, 12706.630
451.295, 12703.210
451.777, 12707.050
452.259, 12726.060
452.742, 12771.780
453.224, 12825.160
453.706, 12869.480
454.188, 12902.430
454.670, 12935.890
455.152, 12975.910
455.634, 13024.020
456.116, 13100.720
456.599, 13225.570
457.081, 13338.960
457.563, 13398.870
458.045, 13427.900
458.527, 13461.170
459.009, 13518.540
459.491, 13554.840
459.973, 13528.000
460.456, 13457.120
460.938, 13388.630
461.420, 13335.070
461.902, 13281.210
462.384, 13211.260
462.866, 13124.080
463.348, 13024.660
463.830, 12903.400
464.312, 12781.460
464.795, 12662.900
465.277, 12551.920
465.759, 12457.020
466.241, 12381.940
466.723, 12316.460
467.205, 12236.880
467.687, 12132.690
468.169, 12051.870
468.651, 12017.140
469.134, 11991.430
469.616, 11963.240
470.098, 11928.860
470.580, 11879.410
471.062, 11798.070
471.544, 11708.020
472.026, 11648.780
472.508, 11619.230
472.991, 11581.970
473.473, 11521.780
473.955, 11446.480
474.437, 11368.740
474.919, 11286.740
475.401, 11208.720
475.883, 11143.830
476.365, 11077.740
476.848, 10987.780
477.330, 10881.320
477.812, 10792.250
478.294, 10745.110
478.776, 10731.800
479.258, 10716.620
479.740, 10706.890
480.222, 10682.320
480.704, 10632.730
481.186, 10575.100
481.669, 10517.050
482.151, 10462.240
482.633, 10419.920
483.115, 10399.060
483.597, 10396.650
484.079, 10405.860
484.561, 10430.180
485.043, 10448.990
485.526, 10448.720
486.008, 10436.460
486.490, 10429.400
486.972, 10431.750
487.454, 10429.610
487.936, 10407.530
488.418, 10382.590
488.900, 10382.610
489.383, 10408.770
489.865, 10431.890
490.347, 10424.340
490.829, 10388.390
491.311, 10371.560
491.793, 10387.950
492.275, 10407.670
492.757, 10433.140
493.239, 10456.480
493.722, 10468.750
494.204, 10468.480
494.686, 10463.430
495.168, 10457.910
495.650, 10453.160
496.132, 10459.130
496.614, 10479.780
497.096, 10501.530
497.578, 10515.330
498.061, 10524.740
498.543, 10536.240
499.025, 10546.680
499.507, 10565.860
499.989, 10611.020
500.471, 10663.690
500.953, 10689.760
501.435, 10683.760
501.918, 10673.740
502.400, 10688.170
502.882, 10727.540
503.364, 10756.210
503.846, 10775.840
504.328, 10782.050
504.810, 10759.470
505.292, 10730.050
505.775, 10714.660
506.257, 10719.590
506.739, 10744.390
507.221, 10803.920
507.703, 10890.000
508.185, 10933.910
508.667, 10915.950
509.149, 10897.690
509.631, 10925.790
510.114, 10980.190
510.596, 11012.650
511.078, 11004.570
511.560, 10998.430
512.042, 11011.510
512.524, 11039.730
513.006, 11084.990
513.488, 11144.840
513.971, 11195.920
514.453, 11213.900
514.935, 11198.940
515.417, 11182.040
515.899, 11152.340
516.381, 11134.600
516.863, 11139.140
517.345, 11154.570
517.827, 11173.710
518.310, 11193.570
518.792, 11202.870
519.274, 11187.030
519.756, 11150.880
520.238, 11114.160
520.720, 11078.000
521.202, 11039.860
521.684, 10984.530
522.166, 10930.690
522.649, 10900.429
523.131, 10900.978
523.613, 10894.047
524.095, 10880.040
524.577, 10837.766
525.059, 10831.500
525.541, 10798.060
526.023, 10775.050
526.505, 10725.960
526.988, 10655.280
527.470, 10597.220
527.952, 10550.920
528.434, 10520.490
528.916, 10524.650
529.398, 10531.270
529.880, 10504.630
530.362, 10443.630
530.844, 10393.570
531.327, 10394.690
531.809, 10424.500
532.291, 10436.090
532.773, 10427.700
533.255, 10421.670
533.737, 10431.620
534.219, 10448.810
534.701, 10450.040
535.184, 10423.520
535.666, 10407.740
536.148, 10408.150
536.630, 10419.100
537.112, 10445.600
537.594, 10479.770
538.076, 10502.920
538.558, 10504.630
539.041, 10483.550
539.523, 10425.850
540.005, 10312.510
540.487, 10236.740
540.969, 10243.490
541.451, 10268.090
541.933, 10261.450
542.415, 10227.380
542.898, 10194.020
543.380, 10169.770
543.862, 10152.260
544.344, 10135.620
544.826, 10123.390
545.308, 10131.590
545.790, 10168.140
546.272, 10210.570
546.754, 10222.570
547.237, 10189.430
547.719, 10182.550
548.201, 10201.510
548.683, 10244.370
549.165, 10321.450
549.647, 10418.710
550.129, 10512.500
550.611, 10593.120
551.093, 10682.690
551.576, 10812.840
552.058, 10977.700
552.540, 11142.420
553.022, 11300.860
553.504, 11462.760
553.986, 11638.900
554.468, 11825.080
554.950, 12003.280
555.432, 12164.120
555.915, 12328.430
556.397, 12506.430
556.879, 12688.890
557.361, 12878.690
557.843, 13068.260
558.325, 13226.680
558.807, 13325.770
559.289, 13370.520
559.771, 13397.180
560.254, 13422.350
560.736, 13392.450
561.218, 13296.010
561.700, 13133.880
562.182, 12882.850
562.664, 12545.460
563.146, 12202.580
563.628, 11877.310
564.111, 11577.660
564.593, 11322.170
565.075, 11104.950
565.557, 10901.240
566.039, 10698.830
566.521, 10503.230
567.003, 10321.970
567.485, 10142.000
567.968, 10011.360
568.450, 9966.796
568.932, 9927.522
569.414, 9852.316
569.896, 9758.539
570.378, 9681.328
570.860, 9635.791
571.342, 9607.491
571.825, 9584.622
572.307, 9565.737
572.789, 9539.701
573.271, 9502.850
573.753, 9467.348
574.235, 9441.342
574.717, 9424.783
575.199, 9414.294
575.681, 9419.352
576.164, 9418.008
576.646, 9395.090
577.128, 9369.643
577.610, 9363.251
578.092, 9376.137
578.574, 9390.662
579.056, 9392.426
579.538, 9384.667
580.020, 9381.279
580.503, 9385.445
580.985, 9379.984
581.467, 9344.505
581.949, 9311.947
582.431, 9322.157
582.913, 9373.204
583.395, 9412.269
583.877, 9411.676
584.360, 9405.306
584.842, 9420.853
585.324, 9450.952
585.806, 9477.725
586.288, 9494.380
586.770, 9502.200
587.252, 9500.054
587.734, 9484.481
588.216, 9485.539
588.699, 9520.429
589.181, 9549.422
589.663, 9542.366
590.145, 9529.479
590.627, 9557.831
591.109, 9643.471
591.591, 9717.963
592.073, 9722.038
592.555, 9691.850
593.038, 9688.294
593.520, 9714.225
594.002, 9739.010
594.484, 9743.521
594.966, 9736.412
595.448, 9742.088
595.930, 9772.683
596.412, 9794.891
596.895, 9809.356
597.377, 9815.827
597.859, 9804.036
598.341, 9785.058
598.823, 9785.574
599.305, 9823.500
599.787, 9867.102
600.269, 9876.791
600.752, 9859.343
601.234, 9841.313
601.716, 9825.677
602.198, 9824.067
602.680, 9853.891
603.162, 9908.911
603.644, 9928.606
604.126, 9887.319
604.609, 9848.174
605.091, 9816.325
605.573, 9793.342
606.055, 9782.796
606.537, 9782.992
607.019, 9786.239
607.501, 9787.184
607.983, 9787.626
608.465, 9793.673
608.948, 9805.409
609.430, 9809.842
609.912, 9802.310
610.394, 9787.947
610.876, 9768.509
611.358, 9743.590
611.840, 9732.505
612.322, 9749.090
612.804, 9764.198
613.287, 9759.685
613.769, 9750.737
614.251, 9755.242
614.733, 9777.917
615.215, 9815.404
615.697, 9866.924
616.179, 9930.504
616.661, 9998.406
617.143, 10072.280
617.626, 10141.810
618.108, 10204.600
618.590, 10259.670
619.072, 10295.150
619.554, 10306.650
620.036, 10353.960
620.518, 10492.400
621.000, 10624.310
621.482, 10685.240
621.965, 10697.790
622.447, 10705.080
622.929, 10722.150
623.411, 10739.600
623.893, 10744.680
624.375, 10737.850
624.857, 10736.360
625.339, 10745.510
625.822, 10745.820
626.304, 10731.410
626.786, 10701.020
627.268, 10650.390
627.750, 10574.500
628.232, 10506.890
628.714, 10462.900
629.196, 10424.580
629.679, 10383.840
630.161, 10336.410
630.643, 10273.230
631.125, 10190.430
631.607, 10098.760
632.089, 10013.960
632.571, 9936.298
633.053, 9859.791
633.536, 9780.375
634.018, 9709.711
634.500, 9660.563
634.982, 9621.404
635.464, 9572.898
635.946, 9510.046
636.428, 9453.474
636.910, 9389.773
637.392, 9351.041
637.875, 9302.543
638.357, 9287.959
638.839, 9265.146
639.321, 9234.531
639.803, 9172.808
640.285, 9150.721
640.767, 9163.315
641.249, 9161.882
641.731, 9139.346
642.214, 9106.652
642.696, 9052.014
643.178, 8997.040
643.660, 8986.168
