##NAMES=Ardealite
##RRUFFID=R060233
##IDEAL CHEMISTRY=Ca_2_(PO_3_OH)(S^6+^O_4_)&#183;4H_2_O
##LOCALITY=Moorba Cave, Jurien Bay, Western Australia, Australia
##OWNER=RRUFF
##SOURCE=Michael Scott
##DESCRIPTION=Tan colored powder
##STATUS=The identification of this mineral has been confirmed by X-ray diffraction and chemical analysis
##URL=rruff.info/R060233
##MEASURED CHEMISTRY=(Ca_1.98_Fe_0.02_)_Σ=2_(HP_1.00_O_4_)(S_1.00_O_4_)·4H_2_O ; H not measured but assumed
215.9821, 27266.16
216.4642, 27278.11
216.9463, 27309.13
217.4284, 27342.44
217.9105, 27372.31
218.3927, 27399.71
218.8748, 27417.96
219.3569, 27422.16
219.8390, 27419.69
220.3211, 27427.01
220.8032, 27446.38
221.2854, 27471.34
221.7675, 27500.51
222.2496, 27535.38
222.7317, 27569.13
223.2138, 27603.68
223.6959, 27635.88
224.1781, 27658.44
224.6602, 27665.21
225.1423, 27672.68
225.6244, 27687.85
226.1065, 27714.43
226.5886, 27737.71
227.0708, 27756.24
227.5529, 27772.31
228.0350, 27791.69
228.5171, 27819.43
228.9992, 27842.50
229.4813, 27855.37
229.9635, 27854.76
230.4456, 27854.58
230.9277, 27856.04
231.4098, 27857.60
231.8919, 27855.35
232.3740, 27844.64
232.8562, 27838.16
233.3383, 27840.98
233.8204, 27855.55
234.3025, 27872.24
234.7846, 27893.28
235.2667, 27915.54
235.7489, 27932.26
236.2310, 27939.05
236.7131, 27947.76
237.1952, 27962.91
237.6773, 27986.00
238.1594, 28010.66
238.6416, 28040.36
239.1237, 28069.88
239.6058, 28089.06
240.0879, 28087.63
240.5700, 28093.10
241.0521, 28116.10
241.5343, 28161.51
242.0164, 28200.72
242.4985, 28228.73
242.9806, 28253.39
243.4627, 28287.02
243.9448, 28336.21
244.4270, 28381.88
244.9091, 28417.66
245.3912, 28441.30
245.8733, 28464.81
246.3554, 28488.71
246.8375, 28511.34
247.3197, 28530.22
247.8018, 28542.53
248.2839, 28556.04
248.7660, 28575.00
249.2481, 28601.72
249.7302, 28616.30
250.2124, 28610.51
250.6945, 28601.17
251.1766, 28608.91
251.6587, 28644.21
252.1408, 28677.41
252.6229, 28701.94
253.1051, 28717.68
253.5872, 28732.48
254.0693, 28744.48
254.5514, 28758.23
255.0335, 28779.70
255.5156, 28814.31
255.9978, 28843.67
256.4799, 28862.22
256.9620, 28869.87
257.4441, 28880.95
257.9262, 28894.59
258.4083, 28911.93
258.8904, 28935.59
259.3726, 28971.57
259.8547, 28998.15
260.3368, 29006.97
260.8189, 29000.59
261.3010, 29008.97
261.7831, 29039.56
262.2653, 29073.13
262.7474, 29093.54
263.2295, 29096.42
263.7116, 29099.92
264.1937, 29106.76
264.6758, 29116.54
265.1580, 29126.03
265.6401, 29133.82
266.1222, 29144.55
266.6043, 29163.62
267.0864, 29196.24
267.5685, 29218.54
268.0507, 29223.06
268.5328, 29217.17
269.0149, 29232.49
269.4970, 29280.40
269.9791, 29323.38
270.4612, 29333.25
270.9434, 29297.98
271.4255, 29288.39
271.9076, 29315.54
272.3897, 29366.24
272.8718, 29407.61
273.3539, 29438.10
273.8361, 29462.87
274.3182, 29482.94
274.8003, 29497.19
275.2824, 29512.53
275.7645, 29528.91
276.2466, 29545.91
276.7288, 29562.39
277.2109, 29577.59
277.6930, 29594.81
278.1751, 29617.04
278.6572, 29644.96
279.1393, 29668.13
279.6215, 29687.21
280.1036, 29701.35
280.5857, 29706.65
281.0678, 29702.27
281.5499, 29701.37
282.0320, 29712.69
282.5142, 29734.96
282.9963, 29745.32
283.4784, 29741.33
283.9605, 29733.54
284.4426, 29733.84
284.9247, 29742.22
285.4069, 29756.81
285.8890, 29779.79
286.3711, 29808.47
286.8532, 29828.27
287.3353, 29836.96
287.8174, 29848.27
288.2996, 29881.33
288.7817, 29933.93
289.2638, 29979.16
289.7459, 30008.73
290.2280, 30026.76
290.7101, 30042.45
291.1923, 30055.54
291.6744, 30072.84
292.1565, 30102.05
292.6386, 30141.27
293.1207, 30181.99
293.6028, 30224.70
294.0850, 30264.58
294.5671, 30291.35
295.0492, 30305.43
295.5313, 30319.00
296.0134, 30343.10
296.4955, 30373.30
296.9777, 30397.26
297.4598, 30412.62
297.9419, 30420.94
298.4240, 30419.20
298.9061, 30410.03
299.3882, 30406.92
299.8704, 30424.82
300.3525, 30453.86
300.8346, 30474.19
301.3167, 30482.74
301.7988, 30488.79
302.2809, 30502.04
302.7631, 30521.34
303.2452, 30543.03
303.7273, 30565.84
304.2094, 30589.93
304.6915, 30615.18
305.1736, 30641.93
305.6558, 30668.95
306.1379, 30695.47
306.6200, 30721.28
307.1021, 30745.93
307.5842, 30764.68
308.0663, 30784.30
308.5485, 30814.96
309.0306, 30855.63
309.5127, 30891.14
309.9948, 30904.07
310.4769, 30907.17
310.9590, 30916.98
311.4412, 30946.10
311.9233, 30976.33
312.4054, 30994.22
312.8875, 31001.70
313.3696, 31008.01
313.8517, 31017.74
314.3339, 31029.22
314.8160, 31040.92
315.2981, 31050.64
315.7802, 31064.65
316.2623, 31091.74
316.7444, 31127.00
317.2266, 31156.90
317.7087, 31169.56
318.1908, 31179.69
318.6729, 31198.79
319.1550, 31235.33
319.6371, 31262.63
320.1193, 31261.17
320.6014, 31245.85
321.0835, 31241.11
321.5656, 31261.17
322.0477, 31286.24
322.5298, 31307.99
323.0120, 31324.39
323.4941, 31342.06
323.9762, 31364.34
324.4583, 31387.27
324.9404, 31406.71
325.4225, 31412.90
325.9047, 31424.97
326.3868, 31451.85
326.8689, 31494.89
327.3510, 31529.83
327.8331, 31551.93
328.3152, 31568.33
328.7974, 31583.97
329.2795, 31595.02
329.7616, 31610.74
330.2437, 31633.98
330.7258, 31663.13
331.2079, 31690.00
331.6901, 31713.99
332.1722, 31735.79
332.6543, 31755.59
333.1364, 31772.75
333.6185, 31786.98
334.1006, 31793.72
334.5828, 31798.06
335.0649, 31812.38
335.5470, 31839.30
336.0291, 31871.20
336.5112, 31907.18
336.9933, 31950.33
337.4755, 31981.88
337.9576, 31996.62
338.4397, 32005.93
338.9218, 32025.95
339.4039, 32059.24
339.8860, 32094.71
340.3681, 32132.35
340.8503, 32171.42
341.3324, 32193.21
341.8145, 32194.19
342.2966, 32189.17
342.7787, 32190.03
343.2608, 32196.76
343.7430, 32211.87
344.2251, 32239.07
344.7072, 32272.63
345.1893, 32294.04
345.6714, 32302.74
346.1535, 32308.34
346.6357, 32313.13
347.1178, 32318.95
347.5999, 32340.03
348.0820, 32382.38
348.5641, 32429.94
349.0462, 32453.48
349.5284, 32456.33
350.0105, 32465.35
350.4926, 32502.60
350.9747, 32554.87
351.4568, 32591.65
351.9389, 32610.54
352.4211, 32624.20
352.9032, 32645.97
353.3853, 32672.49
353.8674, 32695.47
354.3495, 32710.29
354.8316, 32721.17
355.3138, 32731.76
355.7959, 32742.43
356.2780, 32755.20
356.7601, 32776.61
357.2422, 32799.70
357.7243, 32814.34
358.2065, 32810.45
358.6886, 32808.86
359.1707, 32824.00
359.6528, 32853.07
360.1349, 32887.63
360.6170, 32929.97
361.0992, 32971.76
361.5813, 33006.22
362.0634, 33029.70
362.5455, 33052.45
363.0276, 33076.60
363.5097, 33102.45
363.9919, 33130.66
364.4740, 33168.25
364.9561, 33201.52
365.4382, 33223.27
365.9203, 33232.18
366.4024, 33241.99
366.8846, 33259.14
367.3667, 33276.43
367.8488, 33288.10
368.3309, 33287.98
368.8130, 33288.86
369.2951, 33298.93
369.7773, 33314.95
370.2594, 33312.97
370.7415, 33263.61
371.2236, 33224.18
371.7057, 33223.08
372.1878, 33292.23
372.6700, 33338.72
373.1521, 33352.63
373.6342, 33348.05
374.1163, 33352.49
374.5984, 33372.35
375.0805, 33387.85
375.5627, 33388.99
376.0448, 33373.12
376.5269, 33373.63
377.0090, 33393.57
377.4911, 33423.65
377.9732, 33456.83
378.4554, 33494.18
378.9375, 33524.87
379.4196, 33546.38
379.9017, 33559.80
380.3838, 33568.29
380.8659, 33571.25
381.3481, 33574.80
381.8302, 33584.85
382.3123, 33600.55
382.7944, 33612.93
383.2765, 33620.07
383.7586, 33627.50
384.2408, 33645.66
384.7229, 33673.05
385.2050, 33700.25
385.6871, 33721.16
386.1692, 33738.83
386.6513, 33760.24
387.1335, 33785.54
387.6156, 33811.02
388.0977, 33829.44
388.5798, 33845.44
389.0619, 33868.46
389.5440, 33906.79
390.0262, 33947.25
390.5083, 33977.09
390.9904, 33998.11
391.4725, 34018.59
391.9546, 34042.05
392.4367, 34067.24
392.9189, 34095.01
393.4010, 34129.07
393.8831, 34155.68
394.3652, 34159.64
394.8473, 34152.91
395.3294, 34155.34
395.8116, 34179.40
396.2937, 34209.13
396.7758, 34240.00
397.2579, 34272.24
397.7400, 34300.84
398.2221, 34319.45
398.7043, 34336.68
399.1864, 34359.41
399.6685, 34402.73
400.1506, 34434.42
400.6327, 34446.49
401.1148, 34442.86
401.5970, 34442.02
402.0791, 34442.08
402.5612, 34447.08
403.0433, 34460.88
403.5254, 34491.37
404.0075, 34508.48
404.4897, 34505.02
404.9718, 34495.66
405.4539, 34504.43
405.9360, 34538.33
406.4181, 34570.62
406.9002, 34593.82
407.3824, 34608.88
407.8645, 34624.38
408.3466, 34639.55
408.8287, 34657.39
409.3108, 34680.63
409.7929, 34708.70
410.2751, 34738.34
410.7572, 34767.89
411.2393, 34799.62
411.7214, 34839.90
412.2035, 34887.48
412.6856, 34932.67
413.1678, 34970.03
413.6499, 35000.92
414.1320, 35030.43
414.6141, 35059.90
415.0962, 35082.13
415.5783, 35083.28
416.0605, 35074.02
416.5426, 35074.46
417.0247, 35102.62
417.5068, 35134.54
417.9889, 35147.86
418.4710, 35145.97
418.9532, 35144.35
419.4353, 35144.98
419.9174, 35152.57
420.3995, 35172.13
420.8816, 35208.46
421.3637, 35244.89
421.8459, 35271.67
422.3280, 35293.97
422.8101, 35320.45
423.2922, 35369.10
423.7743, 35405.63
424.2564, 35413.91
424.7386, 35391.41
425.2207, 35373.19
425.7028, 35365.62
426.1849, 35361.92
426.6670, 35357.87
427.1491, 35351.30
427.6313, 35349.56
428.1134, 35353.36
428.5955, 35363.21
429.0776, 35381.61
429.5597, 35416.94
430.0418, 35445.86
430.5240, 35458.24
431.0061, 35452.87
431.4882, 35447.33
431.9703, 35439.69
432.4524, 35435.82
432.9345, 35442.79
433.4167, 35460.38
433.8988, 35482.73
434.3809, 35509.29
434.8630, 35537.87
435.3451, 35563.27
435.8272, 35585.44
436.3094, 35606.36
436.7915, 35628.06
437.2736, 35649.59
437.7557, 35665.66
438.2378, 35674.29
438.7199, 35688.02
439.2020, 35728.82
439.6841, 35783.87
440.1663, 35826.77
440.6484, 35830.21
441.1305, 35829.20
441.6126, 35855.34
442.0947, 35904.73
442.5768, 35953.36
443.0590, 35994.20
443.5411, 36025.52
444.0232, 36043.09
444.5053, 36035.91
444.9874, 36036.91
445.4695, 36065.73
445.9517, 36107.37
446.4338, 36138.06
446.9159, 36140.94
447.3980, 36144.67
447.8801, 36159.66
448.3622, 36187.34
448.8444, 36205.87
449.3265, 36207.23
449.8086, 36206.89
450.2907, 36215.71
450.7728, 36240.68
451.2549, 36260.21
451.7371, 36271.05
452.2192, 36277.81
452.7013, 36290.54
453.1834, 36310.58
453.6655, 36332.26
454.1476, 36355.05
454.6298, 36378.14
455.1119, 36391.88
455.5940, 36394.25
456.0761, 36396.26
456.5582, 36405.11
457.0403, 36421.49
457.5225, 36453.13
458.0046, 36506.48
458.4867, 36564.36
458.9688, 36598.57
459.4509, 36613.29
459.9330, 36625.17
460.4152, 36647.07
460.8973, 36669.57
461.3794, 36677.82
461.8615, 36670.88
462.3436, 36667.93
462.8257, 36684.17
463.3079, 36710.51
463.7900, 36736.95
464.2721, 36766.38
464.7542, 36789.05
465.2363, 36797.48
465.7184, 36795.96
466.2006, 36796.44
466.6827, 36801.51
467.1648, 36809.82
467.6469, 36821.70
468.1290, 36838.50
468.6111, 36854.13
469.0933, 36867.92
469.5754, 36881.17
470.0575, 36895.16
470.5396, 36909.88
471.0217, 36925.65
471.5038, 36943.07
471.9860, 36961.64
472.4681, 36979.69
472.9502, 36996.89
473.4323, 37014.45
473.9144, 37030.54
474.3965, 37045.35
474.8787, 37071.63
475.3608, 37110.98
475.8429, 37151.96
476.3250, 37180.81
476.8071, 37199.14
477.2892, 37216.44
477.7714, 37235.90
478.2535, 37253.73
478.7356, 37259.98
479.2177, 37258.12
479.6998, 37262.89
480.1819, 37293.61
480.6641, 37329.80
481.1462, 37345.64
481.6283, 37337.92
482.1104, 37337.18
482.5925, 37369.86
483.0746, 37415.58
483.5568, 37453.43
484.0389, 37476.68
484.5210, 37492.31
485.0031, 37492.30
485.4852, 37484.74
485.9673, 37494.64
486.4495, 37541.14
486.9316, 37590.60
487.4137, 37631.04
487.8958, 37659.73
488.3779, 37691.05
488.8600, 37727.21
489.3422, 37762.59
489.8243, 37791.71
490.3064, 37811.29
490.7885, 37833.78
491.2706, 37863.20
491.7527, 37893.89
492.2349, 37909.64
492.7170, 37908.83
493.1991, 37911.52
493.6812, 37932.91
494.1633, 37966.99
494.6454, 37988.18
495.1276, 37996.25
495.6097, 37999.34
496.0918, 38002.51
496.5739, 38006.59
497.0560, 38012.42
497.5381, 38019.19
498.0203, 38030.58
498.5024, 38053.68
498.9845, 38084.04
499.4666, 38112.28
499.9487, 38133.68
500.4308, 38151.83
500.9130, 38168.36
501.3951, 38183.33
501.8772, 38197.68
502.3593, 38207.57
502.8414, 38219.45
503.3235, 38237.95
503.8057, 38272.77
504.2878, 38300.68
504.7699, 38319.26
505.2520, 38331.06
505.7341, 38338.92
506.2162, 38336.63
506.6984, 38341.79
507.1805, 38361.27
507.6626, 38392.63
508.1447, 38414.57
508.6268, 38424.67
509.1089, 38432.88
509.5911, 38443.25
510.0732, 38456.39
510.5553, 38484.32
511.0374, 38532.09
511.5195, 38579.11
512.0016, 38596.98
512.4838, 38592.00
512.9659, 38584.04
513.4480, 38577.18
513.9301, 38574.24
514.4122, 38580.52
514.8943, 38594.46
515.3765, 38608.73
515.8586, 38622.29
516.3407, 38632.54
516.8228, 38636.23
517.3049, 38631.81
517.7870, 38627.16
518.2692, 38616.45
518.7513, 38610.59
519.2334, 38620.24
519.7155, 38668.07
520.1976, 38706.14
520.6797, 38729.11
521.1619, 38739.20
521.6440, 38739.93
522.1261, 38720.33
522.6082, 38711.80
523.0903, 38730.19
523.5724, 38776.50
524.0546, 38807.18
524.5367, 38819.01
525.0188, 38825.79
525.5009, 38837.30
525.9830, 38853.94
526.4651, 38879.57
526.9473, 38916.52
527.4294, 38957.78
527.9115, 38995.85
528.3936, 39029.48
528.8757, 39055.71
529.3578, 39065.94
529.8400, 39071.62
530.3221, 39080.21
530.8042, 39092.50
531.2863, 39115.98
531.7684, 39173.48
532.2505, 39230.84
532.7327, 39256.89
533.2148, 39234.13
533.6969, 39223.29
534.1790, 39252.95
534.6611, 39297.96
535.1432, 39329.79
535.6254, 39343.68
536.1075, 39348.20
536.5896, 39338.25
537.0717, 39320.53
537.5538, 39319.78
538.0359, 39345.19
538.5181, 39367.51
539.0002, 39372.19
539.4823, 39359.94
539.9644, 39357.83
540.4465, 39366.64
540.9286, 39382.18
541.4108, 39401.95
541.8929, 39425.35
542.3750, 39449.07
542.8571, 39471.81
543.3392, 39495.75
543.8214, 39525.36
544.3035, 39558.21
544.7856, 39589.65
545.2677, 39626.38
545.7498, 39653.68
546.2319, 39650.52
546.7141, 39623.10
547.1962, 39608.65
547.6783, 39633.77
548.1604, 39667.18
548.6425, 39690.38
549.1246, 39694.81
549.6068, 39708.68
550.0889, 39744.27
550.5710, 39784.29
551.0531, 39813.70
551.5352, 39832.52
552.0173, 39839.42
552.4995, 39828.32
552.9816, 39809.11
553.4637, 39808.13
553.9458, 39827.90
554.4279, 39849.54
554.9100, 39866.68
555.3922, 39879.70
555.8743, 39888.03
556.3564, 39891.77
556.8385, 39896.20
557.3206, 39907.68
557.8027, 39922.10
558.2849, 39930.23
558.7670, 39928.25
559.2491, 39931.88
559.7312, 39959.45
560.2133, 39998.12
560.6954, 40030.36
561.1776, 40047.55
561.6597, 40059.27
562.1418, 40062.24
562.6239, 40060.64
563.1060, 40069.80
563.5881, 40104.96
564.0703, 40137.65
564.5524, 40157.96
565.0345, 40164.40
565.5166, 40177.48
565.9987, 40202.96
566.4808, 40225.57
566.9630, 40229.20
567.4451, 40211.41
567.9272, 40209.87
568.4093, 40229.78
568.8914, 40261.20
569.3735, 40295.18
569.8557, 40330.07
570.3378, 40357.93
570.8199, 40370.48
571.3020, 40380.55
571.7841, 40409.31
572.2662, 40450.93
572.7484, 40483.97
573.2305, 40485.23
573.7126, 40482.45
574.1947, 40497.45
574.6768, 40532.65
575.1589, 40564.38
575.6411, 40581.62
576.1232, 40594.08
576.6053, 40607.87
577.0874, 40619.54
577.5695, 40638.96
578.0516, 40673.99
578.5338, 40710.99
579.0159, 40725.48
579.4980, 40705.02
579.9801, 40708.26
580.4622, 40757.62
580.9443, 40833.93
581.4265, 40874.13
581.9086, 40878.45
582.3907, 40876.89
582.8728, 40882.48
583.3549, 40895.45
583.8370, 40923.45
584.3192, 40966.02
584.8013, 40996.59
585.2834, 40975.96
585.7655, 40941.95
586.2476, 40938.00
586.7297, 40979.05
587.2118, 41032.50
587.6939, 41109.81
588.1760, 41182.90
588.6581, 41216.02
589.1403, 41150.91
589.6224, 41106.30
590.1045, 41103.98
590.5866, 41133.77
591.0687, 41164.59
591.5508, 41199.80
592.0330, 41227.06
592.5151, 41240.00
592.9972, 41239.83
593.4793, 41238.29
593.9614, 41234.54
594.4435, 41237.55
594.9257, 41262.43
595.4078, 41300.57
595.8899, 41324.77
596.3720, 41331.14
596.8541, 41331.93
597.3362, 41333.50
597.8184, 41338.62
598.3005, 41351.15
598.7826, 41370.34
599.2647, 41400.07
599.7468, 41453.34
600.2289, 41517.90
600.7111, 41566.88
601.1932, 41571.48
601.6753, 41581.91
602.1574, 41614.96
602.6395, 41667.95
603.1216, 41711.36
603.6038, 41742.00
604.0859, 41767.41
604.5680, 41790.38
605.0501, 41810.31
605.5322, 41833.51
606.0143, 41861.79
606.4965, 41884.71
606.9786, 41882.75
607.4607, 41865.83
607.9428, 41870.81
608.4249, 41912.65
608.9070, 41956.21
609.3892, 41959.01
609.8713, 41939.30
610.3534, 41930.88
610.8355, 41968.96
611.3176, 42001.42
611.7997, 41994.95
612.2819, 41961.07
612.7640, 41943.20
613.2461, 41970.56
613.7282, 41994.80
614.2103, 41995.32
614.6924, 41969.85
615.1746, 41965.43
615.6567, 41992.33
616.1388, 42020.17
616.6209, 42024.21
617.1030, 42003.32
617.5851, 41999.21
618.0673, 42016.35
618.5494, 42040.70
619.0315, 42058.31
619.5136, 42070.09
619.9957, 42076.66
620.4778, 42076.42
620.9600, 42075.83
621.4421, 42081.40
621.9242, 42091.07
622.4063, 42100.48
622.8884, 42102.23
623.3705, 42108.21
623.8527, 42123.88
624.3348, 42147.80
624.8169, 42172.65
625.2990, 42197.75
625.7811, 42222.15
626.2632, 42246.91
626.7454, 42272.68
627.2275, 42283.49
627.7096, 42273.96
628.1917, 42264.01
628.6738, 42274.35
629.1559, 42302.82
629.6381, 42315.79
630.1202, 42308.10
630.6023, 42300.61
631.0844, 42322.22
631.5665, 42361.48
632.0486, 42393.52
632.5308, 42407.74
633.0129, 42418.79
633.4950, 42435.81
633.9771, 42456.73
634.4592, 42477.86
634.9413, 42490.44
635.4235, 42509.95
635.9056, 42543.16
636.3877, 42587.80
636.8698, 42632.59
637.3519, 42685.67
637.8340, 42722.54
638.3162, 42723.70
638.7983, 42690.09
639.2804, 42695.65
639.7625, 42746.27
640.2446, 42800.86
640.7267, 42822.37
641.2089, 42820.21
641.6910, 42826.45
642.1731, 42845.70
642.6552, 42862.61
643.1373, 42858.57
643.6194, 42845.63
644.1016, 42840.64
644.5837, 42855.41
645.0658, 42867.77
645.5479, 42860.19
646.0300, 42846.84
646.5121, 42850.59
646.9943, 42895.32
647.4764, 42933.45
647.9585, 42958.26
648.4406, 42971.87
648.9227, 42982.00
649.4048, 42987.67
649.8870, 42990.66
650.3691, 42985.60
650.8512, 42978.08
651.3333, 43000.97
651.8154, 43053.18
652.2975, 43100.16
652.7797, 43103.87
653.2618, 43092.47
653.7439, 43110.30
654.2260, 43161.63
654.7081, 43216.33
655.1902, 43268.63
655.6724, 43308.93
656.1545, 43327.22
656.6366, 43305.39
657.1187, 43294.64
657.6008, 43311.24
658.0829, 43337.30
658.5651, 43352.98
659.0472, 43349.21
659.5293, 43361.02
660.0114, 43398.43
660.4935, 43446.77
660.9756, 43477.89
661.4578, 43491.85
661.9399, 43494.78
662.4220, 43479.00
662.9041, 43463.15
663.3862, 43483.13
663.8683, 43530.75
664.3505, 43574.04
664.8326, 43589.90
665.3147, 43599.29
665.7968, 43618.95
666.2789, 43648.85
666.7610, 43668.68
667.2432, 43658.54
667.7253, 43650.64
668.2074, 43660.42
668.6895, 43690.46
669.1716, 43727.29
669.6537, 43775.01
670.1359, 43821.64
670.6180, 43860.45
671.1001, 43890.68
671.5822, 43899.15
672.0643, 43881.69
672.5464, 43855.47
673.0286, 43831.59
673.5107, 43815.39
673.9928, 43820.72
674.4749, 43862.65
674.9570, 43904.37
675.4391, 43919.81
675.9213, 43918.23
676.4034, 43914.55
676.8855, 43911.79
677.3676, 43909.13
677.8497, 43905.73
678.3318, 43902.55
678.8140, 43902.10
679.2961, 43904.52
679.7782, 43909.74
680.2603, 43919.71
680.7424, 43932.32
681.2245, 43936.52
681.7067, 43932.41
682.1888, 43930.40
682.6709, 43937.39
683.1530, 43951.01
683.6351, 43973.13
684.1172, 44002.35
684.5994, 44019.37
685.0815, 43994.69
685.5636, 43964.96
686.0457, 43959.53
686.5278, 43988.27
687.0099, 44018.21
687.4921, 44042.65
687.9742, 44067.27
688.4563, 44095.13
688.9384, 44124.04
689.4205, 44163.27
689.9026, 44217.13
690.3848, 44272.92
690.8669, 44311.99
691.3490, 44336.21
691.8311, 44361.13
692.3132, 44389.54
692.7953, 44419.63
693.2775, 44458.60
693.7596, 44496.70
694.2417, 44514.86
694.7238, 44476.15
695.2059, 44445.63
695.6880, 44461.09
696.1702, 44507.56
696.6523, 44543.12
697.1344, 44549.50
697.6165, 44561.15
698.0986, 44591.00
698.5807, 44633.44
699.0629, 44652.21
699.5450, 44641.91
700.0271, 44634.89
700.5092, 44650.65
700.9913, 44681.58
701.4734, 44703.76
701.9556, 44717.20
702.4377, 44721.90
702.9198, 44710.30
703.4019, 44694.54
703.8840, 44686.80
704.3661, 44688.26
704.8483, 44694.13
705.3304, 44705.64
705.8125, 44718.82
706.2946, 44731.31
706.7767, 44743.50
707.2589, 44753.88
707.7410, 44760.18
708.2231, 44768.21
708.7052, 44785.93
709.1873, 44813.70
709.6694, 44831.50
710.1516, 44835.23
710.6337, 44836.50
711.1158, 44851.67
