##NAMES=Ardealite
##RRUFFID=R060233
##IDEAL CHEMISTRY=Ca_2_(PO_3_OH)(S^6+^O_4_)&#183;4H_2_O
##LOCALITY=Moorba Cave, Jurien Bay, Western Australia, Australia
##OWNER=RRUFF
##SOURCE=Michael Scott
##DESCRIPTION=Tan colored powder
##STATUS=The identification of this mineral has been confirmed by X-ray diffraction and chemical analysis
##URL=rruff.info/R060233
##MEASURED CHEMISTRY=(Ca_1.98_Fe_0.02_)_Σ=2_(HP_1.00_O_4_)(S_1.00_O_4_)·4H_2_O ; H not measured but assumed
107.2549, 7156.570
107.7370, 7157.521
108.2191, 7159.033
108.7012, 7160.096
109.1833, 7160.369
109.6655, 7163.123
110.1476, 7171.177
110.6297, 7181.180
111.1118, 7187.727
111.5939, 7188.550
112.0760, 7187.840
112.5582, 7189.847
113.0403, 7194.308
113.5224, 7200.050
114.0045, 7206.767
114.4866, 7214.391
114.9688, 7221.681
115.4509, 7229.333
115.9330, 7235.682
116.4151, 7239.917
116.8972, 7241.844
117.3793, 7241.617
117.8615, 7238.433
118.3436, 7229.346
118.8257, 7224.721
119.3078, 7226.479
119.7899, 7231.737
120.2720, 7238.532
120.7542, 7246.040
121.2363, 7254.435
121.7184, 7264.386
122.2005, 7281.599
122.6826, 7293.755
123.1647, 7298.957
123.6468, 7298.714
124.1290, 7294.655
124.6111, 7287.315
125.0932, 7277.227
125.5753, 7269.053
126.0574, 7261.999
126.5395, 7256.963
127.0217, 7254.921
127.5038, 7255.524
127.9859, 7257.272
128.4680, 7259.962
128.9501, 7262.950
129.4323, 7263.373
129.9144, 7258.714
130.3965, 7252.778
130.8786, 7250.092
131.3607, 7251.583
131.8428, 7252.753
132.3250, 7248.724
132.8071, 7241.918
133.2892, 7236.716
133.7713, 7235.213
134.2534, 7236.781
134.7355, 7239.344
135.2177, 7243.261
135.6998, 7247.752
136.1819, 7252.110
136.6640, 7256.565
137.1461, 7261.748
137.6282, 7269.148
138.1104, 7279.319
138.5925, 7285.343
139.0746, 7282.907
139.5567, 7279.724
140.0388, 7278.997
140.5209, 7280.600
141.0031, 7282.163
141.4852, 7280.413
141.9673, 7272.297
142.4494, 7269.343
142.9315, 7275.460
143.4136, 7283.074
143.8958, 7287.088
144.3779, 7286.318
144.8600, 7283.337
145.3421, 7282.257
145.8242, 7284.502
146.3063, 7286.193
146.7885, 7286.134
147.2706, 7285.803
147.7527, 7287.404
148.2348, 7291.984
148.7169, 7297.743
149.1990, 7300.915
149.6812, 7301.292
150.1633, 7300.991
150.6454, 7300.077
151.1275, 7298.919
151.6096, 7298.821
152.0917, 7300.603
152.5739, 7303.375
153.0560, 7305.564
153.5381, 7306.914
154.0202, 7308.327
154.5023, 7311.087
154.9844, 7315.292
155.4665, 7318.000
155.9487, 7316.580
156.4308, 7313.813
156.9129, 7311.609
157.3950, 7310.328
157.8771, 7310.006
158.3592, 7311.104
158.8414, 7314.660
159.3235, 7316.954
159.8056, 7317.030
160.2877, 7315.708
160.7698, 7312.960
161.2519, 7308.604
161.7341, 7304.081
162.2162, 7303.793
162.6983, 7311.728
163.1804, 7318.936
163.6625, 7325.712
164.1446, 7330.694
164.6268, 7331.855
165.1089, 7327.883
165.5910, 7319.719
166.0731, 7313.265
166.5552, 7309.164
167.0373, 7306.042
167.5195, 7303.980
168.0016, 7302.705
168.4837, 7301.737
168.9658, 7300.748
169.4479, 7299.780
169.9300, 7299.502
170.4122, 7300.480
170.8943, 7301.461
171.3764, 7301.682
171.8585, 7301.318
172.3406, 7301.374
172.8227, 7303.072
173.3049, 7305.903
173.7870, 7306.276
174.2691, 7301.658
174.7512, 7296.362
175.2333, 7293.804
175.7154, 7294.133
176.1976, 7295.842
176.6797, 7299.056
177.1618, 7302.815
177.6439, 7304.644
178.1260, 7302.592
178.6081, 7298.829
179.0903, 7296.365
179.5724, 7295.268
180.0545, 7295.331
180.5366, 7297.063
181.0187, 7299.724
181.5008, 7302.127
181.9830, 7303.288
182.4651, 7303.866
182.9472, 7306.282
183.4293, 7312.597
183.9114, 7317.511
184.3935, 7318.499
184.8757, 7316.826
185.3578, 7314.586
185.8399, 7312.983
186.3220, 7311.993
186.8041, 7311.354
187.2862, 7312.741
187.7684, 7312.620
188.2505, 7308.790
188.7326, 7302.660
189.2147, 7296.975
189.6968, 7293.906
190.1789, 7293.505
190.6611, 7293.581
191.1432, 7294.575
191.6253, 7295.540
192.1074, 7295.644
192.5895, 7295.331
193.0716, 7296.006
193.5538, 7299.265
194.0359, 7305.905
194.5180, 7308.001
195.0001, 7301.370
195.4822, 7295.029
195.9643, 7294.098
196.4465, 7297.907
196.9286, 7302.057
197.4107, 7302.602
197.8928, 7299.023
198.3749, 7294.295
198.8570, 7287.688
199.3392, 7280.630
199.8213, 7273.079
200.3034, 7265.343
200.7855, 7259.637
201.2676, 7258.393
201.7497, 7262.016
202.2319, 7265.610
202.7140, 7270.380
203.1961, 7274.299
203.6782, 7274.852
204.1603, 7271.662
204.6424, 7267.854
205.1246, 7265.783
205.6067, 7265.375
206.0888, 7266.510
206.5709, 7271.322
207.0530, 7276.888
207.5351, 7279.442
208.0173, 7278.721
208.4994, 7275.107
208.9815, 7266.426
209.4636, 7254.962
209.9457, 7245.562
210.4278, 7239.891
210.9100, 7237.459
211.3921, 7237.759
211.8742, 7242.190
212.3563, 7246.330
212.8384, 7246.946
213.3205, 7245.466
213.8027, 7244.464
214.2848, 7245.511
214.7669, 7248.000
215.2490, 7249.857
215.7311, 7251.187
216.2132, 7251.547
216.6954, 7250.837
217.1775, 7249.202
217.6596, 7246.704
218.1417, 7242.828
218.6238, 7238.133
219.1059, 7236.148
219.5881, 7239.526
220.0702, 7242.546
220.5523, 7243.950
221.0344, 7243.841
221.5165, 7242.320
221.9986, 7239.163
222.4808, 7234.688
222.9629, 7231.773
223.4450, 7230.796
223.9271, 7231.306
224.4092, 7234.253
224.8913, 7238.535
225.3735, 7242.498
225.8556, 7245.110
226.3377, 7246.390
226.8198, 7246.688
227.3019, 7245.135
227.7840, 7243.410
228.2662, 7241.375
228.7483, 7239.410
229.2304, 7238.280
229.7125, 7238.583
230.1946, 7240.053
230.6767, 7239.936
231.1589, 7236.890
231.6410, 7233.814
232.1231, 7231.352
232.6052, 7229.368
233.0873, 7227.721
233.5694, 7226.502
234.0516, 7225.415
234.5337, 7222.081
235.0158, 7213.278
235.4979, 7206.233
235.9800, 7203.207
236.4621, 7203.588
236.9443, 7206.460
237.4264, 7211.995
237.9085, 7218.991
238.3906, 7221.737
238.8727, 7220.451
239.3548, 7215.868
239.8370, 7205.822
240.3191, 7192.458
240.8012, 7180.706
241.2833, 7172.497
241.7654, 7168.198
242.2475, 7168.899
242.7297, 7178.484
243.2118, 7185.950
243.6939, 7184.322
244.1760, 7176.392
244.6581, 7170.612
245.1402, 7170.711
245.6224, 7174.651
246.1045, 7178.242
246.5866, 7181.567
247.0687, 7184.339
247.5508, 7186.631
248.0329, 7188.290
248.5151, 7188.839
248.9972, 7188.139
249.4793, 7186.067
249.9614, 7181.968
250.4435, 7175.240
250.9256, 7170.128
251.4078, 7170.469
251.8899, 7174.872
252.3720, 7177.269
252.8541, 7176.041
253.3362, 7172.171
253.8183, 7165.822
254.3005, 7156.982
254.7826, 7150.470
255.2647, 7151.406
255.7468, 7158.017
256.2289, 7160.907
256.7110, 7156.333
257.1931, 7150.418
257.6753, 7148.537
258.1574, 7150.159
258.6395, 7151.860
259.1216, 7150.509
259.6037, 7147.007
260.0858, 7146.865
260.5680, 7153.711
261.0501, 7159.717
261.5322, 7159.604
262.0143, 7154.737
262.4964, 7149.303
262.9785, 7145.659
263.4607, 7143.626
263.9428, 7142.305
264.4249, 7142.919
264.9070, 7142.402
265.3891, 7138.000
265.8712, 7131.571
266.3534, 7126.914
266.8355, 7126.760
267.3176, 7130.086
267.7997, 7132.566
268.2818, 7133.854
268.7639, 7134.727
269.2461, 7136.436
269.7282, 7137.818
270.2103, 7136.899
270.6924, 7132.147
271.1745, 7124.958
271.6566, 7120.080
272.1388, 7119.095
272.6209, 7117.883
273.1030, 7115.354
273.5851, 7112.013
274.0672, 7108.198
274.5493, 7103.913
275.0315, 7099.800
275.5136, 7097.776
275.9957, 7099.647
276.4778, 7100.159
276.9599, 7097.810
277.4420, 7094.237
277.9242, 7090.459
278.4063, 7086.863
278.8884, 7084.235
279.3705, 7084.731
279.8526, 7091.838
280.3347, 7094.492
280.8169, 7088.558
281.2990, 7080.594
281.7811, 7075.762
282.2632, 7075.188
282.7453, 7075.938
283.2274, 7073.552
283.7096, 7066.544
284.1917, 7060.073
284.6738, 7052.990
285.1559, 7047.307
285.6380, 7044.533
286.1201, 7044.636
286.6023, 7046.249
287.0844, 7047.895
287.5665, 7049.454
288.0486, 7051.331
288.5307, 7054.111
289.0128, 7056.568
289.4950, 7057.869
289.9771, 7058.209
290.4592, 7058.518
290.9413, 7059.861
291.4234, 7062.468
291.9055, 7062.877
292.3877, 7060.182
292.8698, 7056.255
293.3519, 7051.307
293.8340, 7045.591
294.3161, 7039.155
294.7982, 7031.790
295.2804, 7023.768
295.7625, 7018.855
296.2446, 7019.498
296.7267, 7020.868
297.2088, 7023.433
297.6909, 7025.923
298.1731, 7026.555
298.6552, 7024.315
299.1373, 7019.754
299.6194, 7014.938
300.1015, 7009.743
300.5836, 7004.423
301.0658, 6998.058
301.5479, 6992.000
302.0300, 6987.408
302.5121, 6984.790
302.9942, 6984.263
303.4763, 6986.401
303.9585, 6995.729
304.4406, 7000.681
304.9227, 6998.367
305.4048, 6993.726
305.8869, 6990.535
306.3690, 6989.722
306.8512, 6989.915
307.3333, 6989.234
307.8154, 6987.338
308.2975, 6985.411
308.7796, 6983.850
309.2617, 6981.952
309.7439, 6979.148
310.2260, 6975.515
310.7081, 6971.646
311.1902, 6968.173
311.6723, 6965.163
312.1544, 6961.852
312.6366, 6957.162
313.1187, 6953.250
313.6008, 6951.032
314.0829, 6950.304
314.5650, 6950.319
315.0471, 6950.474
315.5293, 6950.882
316.0114, 6953.092
316.4935, 6962.087
316.9756, 6967.323
317.4577, 6964.107
317.9398, 6956.226
318.4220, 6949.161
318.9041, 6945.681
319.3862, 6944.994
319.8683, 6944.615
320.3504, 6945.307
320.8326, 6945.297
321.3147, 6942.752
321.7968, 6940.315
322.2789, 6941.831
322.7610, 6948.183
323.2431, 6955.227
323.7253, 6955.403
324.2074, 6942.795
324.6895, 6934.856
325.1716, 6934.527
325.6537, 6935.944
326.1358, 6935.229
326.6180, 6931.905
327.1001, 6927.817
327.5822, 6924.998
328.0643, 6923.833
328.5464, 6921.923
329.0285, 6919.110
329.5107, 6915.826
329.9928, 6912.147
330.4749, 6908.132
330.9570, 6903.913
331.4391, 6899.601
331.9212, 6895.182
332.4034, 6890.373
332.8855, 6884.291
333.3676, 6878.772
333.8497, 6873.579
334.3318, 6869.348
334.8139, 6866.522
335.2961, 6865.282
335.7782, 6866.327
336.2603, 6872.178
336.7424, 6889.904
337.2245, 6901.786
337.7066, 6905.624
338.1888, 6904.236
338.6709, 6898.756
339.1530, 6889.986
339.6351, 6880.337
340.1172, 6873.430
340.5993, 6870.202
341.0815, 6867.469
341.5636, 6866.033
342.0457, 6864.362
342.5278, 6861.144
343.0099, 6856.683
343.4920, 6852.567
343.9742, 6850.518
344.4563, 6850.721
344.9384, 6849.483
345.4205, 6845.083
345.9026, 6840.834
346.3847, 6836.456
346.8669, 6832.966
347.3490, 6832.347
347.8311, 6836.213
348.3132, 6843.074
348.7953, 6846.990
349.2774, 6847.438
349.7596, 6845.365
350.2417, 6839.271
350.7238, 6831.916
351.2059, 6825.838
351.6880, 6821.899
352.1701, 6819.662
352.6523, 6818.756
353.1344, 6819.864
353.6165, 6820.204
354.0986, 6818.025
354.5807, 6816.141
355.0628, 6816.253
355.5450, 6818.430
356.0271, 6821.609
356.5092, 6825.567
356.9913, 6830.416
357.4734, 6832.579
357.9555, 6831.206
358.4377, 6827.788
358.9198, 6821.073
359.4019, 6812.988
359.8840, 6807.454
360.3661, 6807.557
360.8482, 6811.229
361.3304, 6812.105
361.8125, 6809.332
362.2946, 6805.588
362.7767, 6801.153
363.2588, 6796.606
363.7409, 6792.504
364.2231, 6788.987
364.7052, 6785.983
365.1873, 6783.569
365.6694, 6781.818
366.1515, 6779.747
366.6336, 6776.292
367.1158, 6773.118
367.5979, 6771.142
368.0800, 6770.440
368.5621, 6771.150
369.0442, 6775.065
369.5263, 6780.957
370.0085, 6782.658
370.4906, 6778.421
370.9727, 6772.116
371.4548, 6766.239
371.9369, 6760.447
372.4190, 6753.749
372.9012, 6744.491
373.3833, 6735.000
373.8654, 6729.120
374.3475, 6727.245
374.8296, 6725.917
375.3117, 6723.449
375.7939, 6720.615
376.2760, 6718.678
376.7581, 6718.172
377.2402, 6717.488
377.7223, 6715.097
378.2044, 6711.430
378.6866, 6708.451
379.1687, 6706.940
379.6508, 6705.831
380.1329, 6703.966
380.6150, 6701.411
381.0971, 6697.900
381.5793, 6691.838
382.0614, 6685.332
382.5435, 6681.746
383.0256, 6681.537
383.5077, 6681.990
383.9898, 6681.021
384.4720, 6678.797
384.9541, 6676.901
385.4362, 6676.512
385.9183, 6675.462
386.4004, 6671.687
386.8825, 6666.005
387.3647, 6661.241
387.8468, 6658.919
388.3289, 6658.083
388.8110, 6656.334
389.2931, 6653.609
389.7752, 6650.396
390.2574, 6645.573
390.7395, 6640.861
391.2216, 6638.930
391.7037, 6640.253
392.1858, 6642.103
392.6679, 6641.220
393.1501, 6636.858
393.6322, 6633.386
394.1143, 6630.632
394.5964, 6628.800
395.0785, 6628.467
395.5606, 6629.230
396.0428, 6630.135
396.5249, 6630.656
397.0070, 6630.689
397.4891, 6629.635
397.9712, 6625.104
398.4533, 6622.388
398.9355, 6623.085
399.4176, 6625.386
399.8997, 6627.757
400.3818, 6629.579
400.8639, 6630.408
401.3460, 6629.370
401.8282, 6625.434
402.3103, 6622.472
402.7924, 6620.875
403.2745, 6619.711
403.7566, 6617.675
404.2387, 6615.522
404.7209, 6615.800
405.2030, 6621.224
405.6851, 6630.597
406.1672, 6634.311
406.6493, 6628.561
407.1314, 6622.250
407.6136, 6617.717
408.0957, 6613.672
408.5778, 6607.986
409.0599, 6599.883
409.5420, 6592.186
410.0241, 6589.798
410.5063, 6594.023
410.9884, 6596.656
411.4705, 6595.085
411.9526, 6592.787
412.4347, 6591.479
412.9168, 6591.208
413.3990, 6591.398
413.8811, 6591.625
414.3632, 6592.013
414.8453, 6593.549
415.3274, 6597.500
415.8095, 6599.446
416.2917, 6596.062
416.7738, 6589.521
417.2559, 6582.050
417.7380, 6573.386
418.2201, 6565.630
418.7022, 6560.460
419.1844, 6557.867
419.6665, 6558.207
420.1486, 6563.048
420.6307, 6568.964
421.1128, 6571.707
421.5949, 6571.398
422.0771, 6569.972
422.5592, 6567.101
423.0413, 6563.949
423.5234, 6562.720
424.0055, 6563.657
424.4876, 6563.648
424.9698, 6560.104
425.4519, 6553.438
425.9340, 6547.377
426.4161, 6541.771
426.8982, 6536.891
427.3803, 6533.170
427.8625, 6530.256
428.3446, 6527.521
428.8267, 6524.753
429.3088, 6521.873
429.7909, 6518.631
430.2730, 6514.319
430.7552, 6511.515
431.2373, 6511.297
431.7194, 6511.857
432.2015, 6512.588
432.6836, 6513.032
433.1657, 6512.016
433.6479, 6508.338
434.1300, 6502.326
434.6121, 6498.199
435.0942, 6498.175
435.5763, 6497.498
436.0584, 6495.269
436.5406, 6492.049
437.0227, 6488.322
437.5048, 6484.308
437.9869, 6480.284
438.4690, 6476.741
438.9511, 6473.868
439.4333, 6470.852
439.9154, 6466.918
440.3975, 6463.516
440.8796, 6461.160
441.3617, 6459.915
441.8438, 6459.923
442.3260, 6461.794
442.8081, 6464.655
443.2902, 6465.354
443.7723, 6463.127
444.2544, 6460.676
444.7365, 6458.201
445.2187, 6456.318
445.7008, 6456.065
446.1829, 6457.735
446.6650, 6459.328
447.1471, 6458.821
447.6292, 6456.580
448.1114, 6454.722
448.5935, 6453.666
449.0756, 6452.744
449.5577, 6451.556
450.0398, 6450.058
450.5219, 6448.031
451.0041, 6444.371
451.4862, 6440.896
451.9683, 6439.873
452.4504, 6440.926
452.9325, 6441.533
453.4146, 6440.550
453.8968, 6438.500
454.3789, 6436.699
454.8610, 6435.873
455.3431, 6433.279
455.8252, 6426.619
456.3073, 6418.836
456.7895, 6412.813
457.2716, 6409.048
457.7537, 6407.021
458.2358, 6406.528
458.7179, 6407.589
459.2000, 6407.835
459.6822, 6407.701
460.1643, 6406.441
460.6464, 6403.108
461.1285, 6398.763
461.6106, 6394.744
462.0927, 6391.565
462.5748, 6389.119
463.0569, 6387.552
463.5391, 6388.120
464.0212, 6386.045
464.5033, 6378.432
464.9854, 6371.023
465.4675, 6366.843
465.9496, 6365.137
466.4318, 6363.351
466.9139, 6359.660
467.3960, 6354.970
467.8781, 6352.613
468.3602, 6354.302
468.8423, 6353.838
469.3245, 6348.040
469.8066, 6340.261
470.2887, 6331.835
470.7708, 6323.132
471.2529, 6317.370
471.7350, 6318.356
472.2172, 6324.518
472.6993, 6330.469
473.1814, 6336.481
473.6635, 6340.093
474.1456, 6338.039
474.6277, 6332.287
475.1099, 6327.010
475.5920, 6322.587
476.0741, 6319.084
476.5562, 6316.853
477.0383, 6315.596
477.5204, 6314.578
478.0026, 6313.695
478.4847, 6312.490
478.9668, 6310.334
479.4489, 6307.143
479.9310, 6303.291
480.4131, 6297.306
480.8953, 6291.980
481.3774, 6289.750
481.8595, 6289.997
482.3416, 6290.532
482.8237, 6290.144
483.3058, 6288.919
483.7880, 6287.080
484.2701, 6283.930
484.7522, 6281.191
485.2343, 6279.897
485.7164, 6278.304
486.1985, 6274.326
486.6807, 6268.261
487.1628, 6262.739
487.6449, 6260.144
488.1270, 6260.295
488.6091, 6260.782
489.0912, 6262.546
489.5734, 6263.040
490.0555, 6260.410
490.5376, 6256.778
491.0197, 6254.863
491.5018, 6255.506
491.9839, 6256.212
492.4661, 6253.629
492.9482, 6248.290
493.4303, 6245.159
493.9124, 6245.331
494.3945, 6246.986
494.8766, 6249.717
495.3588, 6252.849
495.8409, 6254.388
496.3230, 6253.859
496.8051, 6251.542
497.2872, 6246.701
497.7693, 6240.057
498.2515, 6234.658
498.7336, 6232.078
499.2157, 6229.951
499.6978, 6224.034
500.1799, 6212.750
500.6620, 6203.885
501.1442, 6198.422
501.6263, 6195.173
502.1084, 6193.704
502.5905, 6193.771
503.0726, 6195.389
503.5547, 6198.866
504.0369, 6202.981
504.5190, 6203.452
505.0011, 6198.832
505.4832, 6192.556
505.9653, 6182.490
506.4474, 6172.679
506.9296, 6166.013
507.4117, 6162.586
507.8938, 6160.836
508.3759, 6159.906
508.8580, 6159.490
509.3401, 6157.979
509.8223, 6155.057
510.3044, 6151.591
510.7865, 6147.444
511.2686, 6143.115
511.7507, 6139.170
512.2328, 6135.740
512.7150, 6132.221
513.1971, 6126.605
513.6792, 6120.575
514.1613, 6120.358
514.6434, 6128.151
515.1255, 6134.904
515.6077, 6133.623
516.0898, 6125.515
516.5719, 6117.102
517.0540, 6108.359
517.5361, 6099.685
518.0182, 6090.148
518.5004, 6081.099
518.9825, 6075.163
519.4646, 6072.997
519.9467, 6072.631
520.4288, 6071.772
520.9109, 6070.281
521.3931, 6069.194
521.8752, 6069.528
522.3573, 6069.036
522.8394, 6066.287
523.3215, 6062.373
523.8036, 6058.997
524.2858, 6056.848
524.7679, 6055.151
525.2500, 6052.001
525.7321, 6046.294
526.2142, 6044.800
526.6964, 6052.601
527.1785, 6059.692
527.6606, 6060.932
528.1427, 6057.959
528.6248, 6054.756
529.1069, 6053.209
529.5891, 6051.779
530.0712, 6048.192
530.5533, 6042.571
531.0354, 6037.242
531.5175, 6033.272
531.9996, 6029.169
532.4818, 6022.102
532.9639, 6012.410
533.4460, 6005.143
533.9281, 6002.011
534.4102, 6001.123
534.8923, 6002.998
535.3745, 6006.111
535.8566, 6005.226
536.3387, 5997.479
536.8208, 5986.759
537.3029, 5981.289
537.7850, 5985.338
538.2672, 5985.824
538.7493, 5979.908
539.2314, 5973.344
539.7135, 5969.080
540.1956, 5966.973
540.6777, 5965.942
541.1599, 5965.563
541.6420, 5965.025
542.1241, 5961.873
542.6062, 5954.926
543.0883, 5949.078
543.5704, 5945.850
544.0526, 5943.507
544.5347, 5941.075
545.0168, 5938.557
545.4989, 5936.424
545.9810, 5935.816
546.4631, 5935.203
546.9453, 5931.330
547.4274, 5924.306
547.9095, 5919.055
548.3916, 5918.434
548.8737, 5919.557
549.3558, 5916.623
549.8380, 5908.704
550.3201, 5903.498
550.8022, 5903.911
551.2843, 5906.452
551.7664, 5909.078
552.2485, 5911.327
552.7307, 5912.776
553.2128, 5913.219
553.6949, 5912.570
554.1770, 5910.510
554.6591, 5905.880
555.1412, 5901.890
555.6234, 5899.184
556.1055, 5896.551
556.5876, 5893.339
557.0697, 5889.534
557.5518, 5885.275
558.0339, 5880.394
558.5161, 5875.517
558.9982, 5872.203
559.4803, 5870.689
559.9624, 5869.608
560.4445, 5869.711
560.9266, 5869.030
561.4088, 5865.541
561.8909, 5859.458
562.3730, 5853.135
562.8551, 5846.721
563.3372, 5841.010
563.8193, 5837.441
564.3015, 5835.596
564.7836, 5832.946
565.2657, 5828.027
565.7478, 5822.798
566.2299, 5821.051
566.7120, 5824.885
567.1942, 5827.119
567.6763, 5826.194
568.1584, 5825.042
568.6405, 5825.537
569.1226, 5827.110
569.6047, 5828.196
570.0869, 5827.948
570.5690, 5826.904
571.0511, 5826.411
571.5332, 5827.008
572.0153, 5825.949
572.4974, 5820.782
572.9796, 5816.123
573.4617, 5815.722
573.9438, 5817.803
574.4259, 5817.521
574.9080, 5812.063
575.3901, 5804.764
575.8723, 5798.830
576.3544, 5794.279
576.8365, 5791.431
577.3186, 5790.859
577.8007, 5790.591
578.2828, 5788.054
578.7650, 5783.072
579.2471, 5779.755
579.7292, 5778.557
580.2113, 5778.641
580.6934, 5781.474
581.1755, 5784.749
581.6577, 5784.477
582.1398, 5779.429
582.6219, 5772.046
583.1040, 5764.912
583.5861, 5757.417
584.0682, 5755.120
584.5504, 5762.166
585.0325, 5769.696
585.5146, 5777.142
585.9967, 5782.702
586.4788, 5783.900
586.9609, 5779.974
587.4431, 5773.446
587.9252, 5765.832
588.4073, 5757.507
588.8894, 5749.717
589.3715, 5742.393
589.8536, 5736.307
590.3358, 5731.865
590.8179, 5729.109
591.3000, 5727.869
591.7821, 5728.922
592.2642, 5729.958
592.7463, 5731.345
593.2285, 5731.681
593.7106, 5728.475
594.1927, 5722.101
594.6748, 5715.865
595.1569, 5712.431
595.6390, 5711.323
596.1212, 5710.006
596.6033, 5707.750
597.0854, 5706.610
597.5675, 5709.366
598.0496, 5711.231
598.5317, 5707.307
599.0139, 5698.724
599.4960, 5691.684
599.9781, 5690.433
600.4602, 5692.989
600.9423, 5696.340
601.4244, 5700.515
601.9066, 5703.648
602.3887, 5705.638
