##NAMES=Arfvedsonite
##RRUFFID=R110049
##IDEAL CHEMISTRY=NaNa_2_(Fe^2+^_4_Fe^3+^)Si_8_O_22_(OH)_2_
##LOCALITY=Mount Malosa, Zomba District, Malawi
##OWNER=RRUFF
##SOURCE=Donald M Doell
##DESCRIPTION=Black prismatic crystal
##STATUS=The identification of this mineral has been confirmed only by single crystal X-ray diffraction.
##URL=rruff.info/R110049
129.2086, 2618.734
129.6907, 2623.238
130.1729, 2626.526
130.6550, 2626.642
131.1371, 2623.792
131.6192, 2620.469
132.1013, 2620.146
132.5834, 2624.142
133.0656, 2628.915
133.5477, 2632.286
134.0298, 2637.400
134.5119, 2646.336
134.9940, 2659.832
135.4761, 2677.731
135.9583, 2699.732
136.4404, 2728.308
136.9225, 2758.164
137.4046, 2788.532
137.8867, 2820.259
138.3688, 2854.446
138.8510, 2892.044
139.3331, 2932.019
139.8152, 2971.132
140.2973, 3013.578
140.7794, 3050.147
141.2615, 3080.773
141.7437, 3103.724
142.2258, 3111.248
142.7079, 3096.245
143.1900, 3062.483
143.6721, 3022.153
144.1542, 2972.089
144.6364, 2919.928
145.1185, 2871.277
145.6006, 2825.549
146.0827, 2787.087
146.5648, 2759.232
147.0469, 2739.435
147.5291, 2726.926
148.0112, 2722.773
148.4933, 2724.364
148.9754, 2725.574
149.4575, 2724.269
149.9396, 2726.769
150.4218, 2734.206
150.9039, 2746.046
151.3860, 2761.598
151.8681, 2780.564
152.3502, 2802.993
152.8323, 2828.108
153.3145, 2858.574
153.7966, 2889.489
154.2787, 2918.914
154.7608, 2948.129
155.2429, 2979.720
155.7250, 3015.858
156.2072, 3056.575
156.6893, 3100.638
157.1714, 3149.878
157.6535, 3200.165
158.1356, 3249.923
158.6177, 3299.172
159.0999, 3349.585
159.5820, 3403.480
160.0641, 3462.135
160.5462, 3513.234
161.0283, 3558.959
161.5104, 3596.102
161.9926, 3623.262
162.4747, 3640.164
162.9568, 3644.849
163.4389, 3633.694
163.9210, 3607.070
164.4031, 3568.251
164.8853, 3511.604
165.3674, 3444.707
165.8495, 3378.612
166.3316, 3313.973
166.8137, 3251.848
167.2958, 3192.577
167.7780, 3135.940
168.2601, 3083.063
168.7422, 3035.520
169.2243, 2992.432
169.7064, 2950.955
170.1885, 2909.804
170.6707, 2872.104
171.1528, 2839.973
171.6349, 2812.686
172.1170, 2786.900
172.5991, 2758.715
173.0812, 2727.744
173.5634, 2702.652
174.0455, 2687.301
174.5276, 2675.680
175.0097, 2665.926
175.4918, 2657.793
175.9739, 2651.769
176.4561, 2648.620
176.9382, 2648.898
177.4203, 2650.263
177.9024, 2652.122
178.3845, 2655.329
178.8666, 2660.249
179.3488, 2666.958
179.8309, 2675.508
180.3130, 2685.854
180.7951, 2697.948
181.2772, 2712.428
181.7593, 2729.789
182.2415, 2748.802
182.7236, 2768.927
183.2057, 2789.914
183.6878, 2811.130
184.1699, 2831.441
184.6520, 2848.993
185.1342, 2869.798
185.6163, 2896.382
186.0984, 2925.216
186.5805, 2952.973
187.0626, 2978.736
187.5447, 3002.686
188.0269, 3025.132
188.5090, 3046.740
188.9911, 3065.237
189.4732, 3079.630
189.9553, 3090.603
190.4374, 3099.382
190.9196, 3106.706
191.4017, 3111.031
191.8838, 3109.743
192.3659, 3102.895
192.8480, 3094.340
193.3301, 3086.686
193.8123, 3078.934
194.2944, 3067.225
194.7765, 3049.705
195.2586, 3028.561
195.7407, 3007.373
196.2228, 2986.243
196.7050, 2962.261
197.1871, 2932.579
197.6692, 2897.409
198.1513, 2861.173
198.6334, 2822.708
199.1155, 2785.249
199.5977, 2750.729
200.0798, 2719.251
200.5619, 2690.309
201.0440, 2663.351
201.5261, 2638.234
202.0082, 2615.183
202.4904, 2593.381
202.9725, 2574.349
203.4546, 2559.450
203.9367, 2548.631
204.4188, 2540.284
204.9009, 2532.335
205.3831, 2524.053
205.8652, 2518.630
206.3473, 2518.759
206.8294, 2519.550
207.3115, 2517.895
207.7936, 2513.472
208.2758, 2508.334
208.7579, 2505.333
209.2400, 2505.123
209.7221, 2505.880
210.2042, 2507.571
210.6863, 2510.030
211.1685, 2513.243
211.6506, 2517.164
212.1327, 2521.620
212.6148, 2526.378
213.0969, 2531.168
213.5790, 2536.933
214.0612, 2543.758
214.5433, 2551.380
215.0254, 2559.937
215.5075, 2569.327
215.9896, 2579.039
216.4717, 2588.276
216.9539, 2596.919
217.4360, 2605.364
217.9181, 2614.281
218.4002, 2622.688
218.8823, 2630.036
219.3644, 2636.173
219.8466, 2640.519
220.3287, 2642.603
220.8108, 2642.977
221.2929, 2638.092
221.7750, 2625.013
222.2571, 2607.333
222.7393, 2589.112
223.2214, 2571.141
223.7035, 2553.138
224.1856, 2534.828
224.6677, 2516.297
225.1498, 2497.727
225.6320, 2477.730
226.1141, 2458.075
226.5962, 2441.680
227.0783, 2429.144
227.5604, 2419.535
228.0425, 2412.441
228.5247, 2407.487
229.0068, 2403.739
229.4889, 2400.927
229.9710, 2399.107
230.4531, 2398.516
230.9352, 2399.457
231.4174, 2401.099
231.8995, 2402.712
232.3816, 2404.423
232.8637, 2406.666
233.3458, 2409.244
233.8279, 2412.469
234.3101, 2417.659
234.7922, 2425.772
235.2743, 2434.283
235.7564, 2441.646
236.2385, 2448.277
236.7206, 2455.074
237.2028, 2462.640
237.6849, 2470.744
238.1670, 2478.759
238.6491, 2487.816
239.1312, 2494.851
239.6133, 2498.362
240.0955, 2499.417
240.5776, 2499.831
241.0597, 2500.599
241.5418, 2501.582
242.0239, 2502.284
242.5060, 2504.200
242.9882, 2503.468
243.4703, 2498.810
243.9524, 2491.140
244.4345, 2481.854
244.9166, 2471.844
245.3987, 2460.727
245.8809, 2446.858
246.3630, 2429.036
246.8451, 2409.612
247.3272, 2388.250
247.8093, 2365.904
248.2914, 2343.857
248.7736, 2322.786
249.2557, 2302.431
249.7378, 2281.890
250.2199, 2258.946
250.7020, 2238.697
251.1841, 2222.754
251.6663, 2209.555
252.1484, 2197.454
252.6305, 2185.585
253.1126, 2174.257
253.5947, 2164.162
254.0768, 2156.415
254.5590, 2148.825
255.0411, 2140.800
255.5232, 2133.028
256.0053, 2126.170
256.4874, 2120.533
256.9695, 2116.007
257.4517, 2112.330
257.9338, 2109.322
258.4159, 2107.553
258.8980, 2107.522
259.3801, 2108.501
259.8622, 2109.792
260.3444, 2111.143
260.8265, 2112.638
261.3086, 2114.444
261.7907, 2116.799
262.2728, 2119.107
262.7549, 2121.392
263.2371, 2123.610
263.7192, 2125.520
264.2013, 2127.092
264.6834, 2128.845
265.1655, 2131.654
265.6476, 2136.257
266.1298, 2140.112
266.6119, 2142.651
267.0940, 2144.738
267.5761, 2147.142
268.0582, 2150.033
268.5403, 2153.125
269.0225, 2156.139
269.5046, 2159.106
269.9867, 2161.797
270.4688, 2164.812
270.9509, 2167.179
271.4330, 2167.161
271.9152, 2164.767
272.3973, 2163.182
272.8794, 2166.021
273.3615, 2173.683
273.8436, 2178.819
274.3257, 2179.048
274.8079, 2178.323
275.2900, 2179.553
275.7721, 2182.888
276.2542, 2187.249
276.7363, 2192.105
277.2184, 2197.370
277.7006, 2202.447
278.1827, 2206.538
278.6648, 2211.031
279.1469, 2217.427
279.6290, 2225.441
280.1111, 2232.732
280.5933, 2237.320
281.0754, 2240.329
281.5575, 2245.707
282.0396, 2255.381
282.5217, 2265.052
283.0038, 2271.936
283.4860, 2276.442
283.9681, 2280.748
284.4502, 2285.767
284.9323, 2291.232
285.4144, 2296.355
285.8965, 2300.577
286.3787, 2305.765
286.8608, 2314.047
287.3429, 2324.389
287.8250, 2332.901
288.3071, 2337.554
288.7892, 2340.849
289.2714, 2346.635
289.7535, 2355.151
290.2356, 2363.554
290.7177, 2370.519
291.1998, 2376.368
291.6819, 2382.089
292.1641, 2388.016
292.6462, 2393.600
293.1283, 2398.857
293.6104, 2403.733
294.0925, 2406.392
294.5746, 2405.625
295.0568, 2402.214
295.5389, 2397.693
296.0210, 2392.286
296.5031, 2385.615
296.9852, 2377.079
297.4673, 2367.013
297.9495, 2355.791
298.4316, 2343.393
298.9137, 2330.007
299.3958, 2315.398
299.8779, 2299.132
300.3600, 2283.742
300.8422, 2271.545
301.3243, 2261.339
301.8064, 2251.472
302.2885, 2241.808
302.7706, 2231.987
303.2527, 2221.185
303.7349, 2209.235
304.2170, 2198.128
304.6991, 2189.211
305.1812, 2181.553
305.6633, 2173.749
306.1454, 2165.305
306.6276, 2157.599
307.1097, 2152.401
307.5918, 2149.555
308.0739, 2146.051
308.5560, 2140.456
309.0381, 2134.219
309.5203, 2128.729
310.0024, 2123.950
310.4845, 2120.374
310.9666, 2119.227
311.4487, 2119.877
311.9308, 2118.975
312.4130, 2114.860
312.8951, 2110.512
313.3772, 2108.905
313.8593, 2109.655
314.3414, 2110.463
314.8235, 2109.917
315.3057, 2108.588
315.7878, 2108.110
316.2699, 2109.016
316.7520, 2109.806
317.2341, 2108.660
317.7162, 2106.540
318.1984, 2105.649
318.6805, 2107.709
319.1626, 2111.036
319.6447, 2112.655
320.1268, 2112.119
320.6089, 2112.169
321.0911, 2115.179
321.5732, 2119.549
322.0553, 2123.207
322.5374, 2125.960
323.0195, 2127.567
323.5016, 2127.362
323.9838, 2125.328
324.4659, 2123.237
324.9480, 2121.103
325.4301, 2119.801
325.9122, 2120.695
326.3943, 2124.315
326.8765, 2127.718
327.3586, 2128.368
327.8407, 2126.781
328.3228, 2125.817
328.8049, 2126.325
329.2870, 2127.392
329.7692, 2128.477
330.2513, 2129.519
330.7334, 2129.470
331.2155, 2126.526
331.6976, 2122.239
332.1797, 2120.820
332.6619, 2123.804
333.1440, 2126.563
333.6261, 2124.098
334.1082, 2118.383
334.5903, 2113.994
335.0724, 2111.881
335.5546, 2112.051
336.0367, 2115.599
336.5188, 2122.909
337.0009, 2129.264
337.4830, 2130.831
337.9651, 2129.990
338.4473, 2131.218
338.9294, 2135.554
339.4115, 2141.162
339.8936, 2146.865
340.3757, 2152.671
340.8578, 2158.444
341.3400, 2164.137
341.8221, 2169.816
342.3042, 2175.132
342.7863, 2179.667
343.2684, 2186.032
343.7505, 2196.839
344.2327, 2210.374
344.7148, 2222.152
345.1969, 2230.621
345.6790, 2238.806
346.1611, 2250.163
346.6432, 2264.233
347.1254, 2279.919
347.6075, 2298.046
348.0896, 2317.082
348.5717, 2335.326
349.0538, 2352.751
349.5359, 2368.379
350.0181, 2380.777
350.5002, 2390.671
350.9823, 2401.698
351.4644, 2414.087
351.9465, 2427.570
352.4286, 2443.505
352.9108, 2460.968
353.3929, 2475.893
353.8750, 2486.200
354.3571, 2492.640
354.8392, 2497.318
355.3214, 2500.516
355.8035, 2501.818
356.2856, 2501.046
356.7677, 2498.274
357.2498, 2493.620
357.7319, 2487.095
358.2141, 2478.749
358.6962, 2468.250
359.1783, 2455.410
359.6604, 2441.696
360.1425, 2425.980
360.6246, 2410.192
361.1068, 2396.494
361.5889, 2384.881
362.0710, 2373.616
362.5531, 2360.880
363.0352, 2346.797
363.5173, 2335.800
363.9995, 2329.821
364.4816, 2324.630
364.9637, 2318.026
365.4458, 2310.603
365.9279, 2303.989
366.4100, 2298.994
366.8922, 2295.460
367.3743, 2293.050
367.8564, 2291.298
368.3385, 2291.180
368.8206, 2295.048
369.3027, 2299.664
369.7849, 2300.893
370.2670, 2297.672
370.7491, 2292.537
371.2312, 2288.999
371.7133, 2287.921
372.1954, 2285.891
372.6776, 2282.775
373.1597, 2278.927
373.6418, 2275.092
374.1239, 2270.883
374.6060, 2264.769
375.0881, 2255.217
375.5703, 2242.388
376.0524, 2230.662
376.5345, 2221.575
377.0166, 2211.767
377.4987, 2199.726
377.9808, 2186.654
378.4630, 2174.138
378.9451, 2162.908
379.4272, 2152.857
379.9093, 2143.966
380.3914, 2138.379
380.8735, 2130.143
381.3557, 2116.887
381.8378, 2102.737
382.3199, 2090.770
382.8020, 2081.299
383.2841, 2072.611
383.7662, 2062.877
384.2484, 2051.915
384.7305, 2040.861
385.2126, 2029.613
385.6947, 2018.286
386.1768, 2006.280
386.6589, 1994.251
387.1411, 1983.508
387.6232, 1974.980
388.1053, 1967.988
388.5874, 1960.112
389.0695, 1950.657
389.5516, 1941.652
390.0338, 1933.201
390.5159, 1925.479
390.9980, 1918.998
391.4801, 1913.862
391.9622, 1908.993
392.4443, 1902.908
392.9265, 1895.469
393.4086, 1888.324
393.8907, 1882.015
394.3728, 1875.763
394.8549, 1868.871
395.3370, 1861.584
395.8192, 1854.890
396.3013, 1849.402
396.7834, 1844.984
397.2655, 1841.437
397.7476, 1839.213
398.2297, 1836.706
398.7119, 1832.611
399.1940, 1827.857
399.6761, 1823.630
400.1582, 1820.275
400.6403, 1817.390
401.1224, 1814.632
401.6046, 1811.976
402.0867, 1809.456
402.5688, 1807.077
403.0509, 1804.843
403.5330, 1802.684
404.0151, 1800.586
404.4973, 1798.784
404.9794, 1797.892
405.4615, 1797.220
405.9436, 1795.351
406.4257, 1792.005
406.9078, 1788.492
407.3900, 1785.538
407.8721, 1783.332
408.3542, 1782.436
408.8363, 1784.540
409.3184, 1786.507
409.8005, 1785.718
410.2827, 1782.961
410.7648, 1781.000
411.2469, 1781.089
411.7290, 1782.575
412.2111, 1784.093
412.6932, 1785.620
413.1754, 1787.209
413.6575, 1788.950
414.1396, 1790.701
414.6217, 1792.328
415.1038, 1793.798
415.5859, 1795.228
416.0681, 1796.889
416.5502, 1798.918
417.0323, 1799.248
417.5144, 1795.938
417.9965, 1793.226
418.4786, 1793.031
418.9608, 1794.674
419.4429, 1796.520
419.9250, 1797.694
420.4071, 1798.876
420.8892, 1802.150
421.3713, 1811.306
421.8535, 1816.638
422.3356, 1815.876
422.8177, 1812.915
423.2998, 1810.244
423.7819, 1808.457
424.2640, 1807.289
424.7462, 1806.590
425.2283, 1806.412
425.7104, 1805.830
426.1925, 1804.823
426.6746, 1803.371
427.1567, 1801.421
427.6389, 1799.034
428.1210, 1796.189
428.6031, 1792.788
429.0852, 1789.279
429.5673, 1786.700
430.0494, 1785.351
430.5316, 1783.839
431.0137, 1782.144
431.4958, 1779.969
431.9779, 1777.118
432.4600, 1773.571
432.9421, 1769.408
433.4243, 1764.372
433.9064, 1758.705
434.3885, 1753.389
434.8706, 1748.413
435.3527, 1743.881
435.8348, 1740.222
436.3170, 1736.975
436.7991, 1733.283
437.2812, 1728.649
437.7633, 1723.928
438.2454, 1720.103
438.7275, 1717.002
439.2097, 1713.411
439.6918, 1708.567
440.1739, 1703.604
440.6560, 1700.429
441.1381, 1699.094
441.6202, 1697.749
442.1024, 1696.092
442.5845, 1694.053
443.0666, 1691.373
443.5487, 1688.084
444.0308, 1684.811
444.5129, 1681.912
444.9951, 1679.451
445.4772, 1677.768
445.9593, 1678.280
446.4414, 1677.834
446.9235, 1674.755
447.4056, 1670.331
447.8878, 1666.387
448.3699, 1663.557
448.8520, 1661.509
449.3341, 1659.683
449.8162, 1658.713
450.2983, 1657.055
450.7805, 1658.256
451.2626, 1659.591
451.7447, 1660.640
452.2268, 1661.033
452.7089, 1659.877
453.1910, 1656.269
453.6732, 1651.267
454.1553, 1649.494
454.6374, 1652.793
455.1195, 1656.340
455.6016, 1660.281
456.0837, 1663.515
456.5659, 1664.680
457.0480, 1663.711
457.5301, 1662.316
458.0122, 1662.011
458.4943, 1662.793
458.9764, 1664.768
459.4586, 1669.000
459.9407, 1672.818
460.4228, 1674.436
460.9049, 1674.798
461.3870, 1675.663
461.8691, 1678.003
462.3513, 1680.494
462.8334, 1681.321
463.3155, 1680.551
463.7976, 1679.868
464.2797, 1679.706
464.7618, 1679.971
465.2440, 1680.763
465.7261, 1682.117
466.2082, 1682.868
466.6903, 1682.580
467.1724, 1681.511
467.6545, 1679.620
468.1367, 1676.998
468.6188, 1674.846
469.1009, 1674.316
469.5830, 1674.825
470.0651, 1673.386
470.5472, 1668.712
471.0294, 1664.029
471.5115, 1659.191
471.9936, 1655.189
472.4757, 1654.326
472.9578, 1656.865
473.4399, 1658.974
473.9221, 1655.571
474.4042, 1645.031
474.8863, 1638.458
475.3684, 1637.844
475.8505, 1638.501
476.3326, 1639.855
476.8148, 1641.070
477.2969, 1640.573
477.7790, 1637.514
478.2611, 1633.834
478.7432, 1634.584
479.2253, 1642.947
479.7075, 1646.645
480.1896, 1639.388
480.6717, 1631.213
481.1538, 1627.400
481.6359, 1627.797
482.1180, 1629.451
482.6002, 1630.692
483.0823, 1631.648
483.5644, 1632.768
484.0465, 1634.174
484.5286, 1635.277
485.0107, 1635.730
485.4929, 1635.766
485.9750, 1635.521
486.4571, 1634.894
486.9392, 1634.582
487.4213, 1634.830
487.9034, 1635.723
488.3856, 1637.883
488.8677, 1641.635
489.3498, 1644.875
489.8319, 1645.384
490.3140, 1643.421
490.7961, 1642.959
491.2783, 1644.735
491.7604, 1647.210
492.2425, 1650.422
492.7246, 1653.719
493.2067, 1655.594
493.6888, 1655.513
494.1710, 1655.019
494.6531, 1656.577
495.1352, 1661.128
495.6173, 1664.807
496.0994, 1667.802
496.5815, 1669.887
497.0637, 1669.454
497.5458, 1668.118
498.0279, 1669.688
498.5100, 1676.651
498.9921, 1686.028
499.4742, 1689.752
499.9564, 1684.615
500.4385, 1681.930
500.9206, 1685.375
501.4027, 1690.061
501.8848, 1693.505
502.3669, 1695.464
502.8491, 1696.394
503.3312, 1695.723
503.8133, 1694.458
504.2954, 1695.800
504.7775, 1700.395
505.2596, 1704.529
505.7418, 1706.128
506.2239, 1706.451
506.7060, 1707.467
507.1881, 1709.551
507.6702, 1711.141
508.1523, 1710.334
508.6345, 1708.890
509.1166, 1709.942
509.5987, 1713.967
510.0808, 1719.136
510.5629, 1724.285
511.0450, 1729.310
511.5272, 1733.426
512.0093, 1735.203
512.4914, 1737.898
512.9735, 1743.236
513.4556, 1749.724
513.9377, 1755.063
514.4199, 1758.746
514.9020, 1762.795
515.3841, 1770.117
515.8662, 1781.635
516.3483, 1790.018
516.8304, 1791.601
517.3126, 1793.854
517.7947, 1798.704
518.2768, 1805.567
518.7589, 1813.633
519.2410, 1822.627
519.7231, 1831.973
520.2053, 1840.532
520.6874, 1848.120
521.1695, 1857.392
521.6516, 1869.098
522.1337, 1882.134
522.6158, 1896.210
523.0980, 1910.921
523.5801, 1925.167
524.0622, 1938.790
524.5443, 1951.499
525.0264, 1961.560
525.5085, 1969.833
525.9907, 1981.307
526.4728, 1998.572
526.9549, 2018.088
527.4370, 2034.465
527.9191, 2047.277
528.4012, 2060.931
528.8834, 2077.028
529.3655, 2093.122
529.8476, 2107.589
530.3297, 2120.624
530.8118, 2133.032
531.2939, 2145.278
531.7761, 2157.005
532.2582, 2167.283
532.7403, 2175.561
533.2224, 2183.227
533.7045, 2190.847
534.1866, 2197.415
534.6688, 2203.220
535.1509, 2207.539
535.6330, 2208.457
536.1151, 2204.148
536.5972, 2196.360
537.0793, 2190.219
537.5615, 2186.873
538.0436, 2180.590
538.5257, 2167.979
539.0078, 2153.074
539.4899, 2139.313
539.9720, 2126.763
540.4542, 2114.037
540.9363, 2101.060
541.4184, 2087.285
541.9005, 2071.354
542.3826, 2053.373
542.8647, 2035.763
543.3469, 2019.526
543.8290, 2004.605
544.3111, 1990.986
544.7932, 1979.241
545.2753, 1967.325
545.7574, 1954.670
546.2396, 1941.831
546.7217, 1928.523
547.2038, 1915.278
547.6859, 1904.212
548.1680, 1896.982
548.6501, 1892.624
549.1323, 1886.799
549.6144, 1878.247
550.0965, 1870.445
550.5786, 1863.797
551.0607, 1857.882
551.5428, 1852.250
552.0250, 1847.001
552.5071, 1842.831
552.9892, 1840.770
553.4713, 1839.977
553.9534, 1837.864
554.4355, 1834.191
554.9177, 1830.322
555.3998, 1826.115
555.8819, 1822.516
556.3640, 1820.855
556.8461, 1821.375
557.3282, 1822.004
557.8104, 1821.610
558.2925, 1821.093
558.7746, 1821.594
559.2567, 1823.106
559.7388, 1824.880
560.2209, 1826.493
560.7031, 1828.023
561.1852, 1829.713
561.6673, 1831.230
562.1494, 1833.456
562.6315, 1837.039
563.1136, 1840.841
563.5958, 1843.938
564.0779, 1846.450
564.5600, 1848.917
565.0421, 1851.543
565.5242, 1854.717
566.0063, 1860.163
566.4885, 1868.995
566.9706, 1876.733
567.4527, 1881.342
567.9348, 1885.170
568.4169, 1889.909
568.8990, 1895.459
569.3812, 1900.594
569.8633, 1904.740
570.3454, 1908.021
570.8275, 1910.675
571.3096, 1912.675
571.7917, 1913.773
572.2739, 1914.059
572.7560, 1913.088
573.2381, 1909.731
573.7202, 1903.346
574.2023, 1897.292
574.6844, 1893.637
575.1666, 1888.860
575.6487, 1880.139
576.1308, 1868.248
576.6129, 1855.562
577.0950, 1843.255
577.5771, 1830.871
578.0593, 1817.083
578.5414, 1800.763
579.0235, 1786.110
579.5056, 1774.193
579.9877, 1763.178
580.4698, 1753.264
580.9520, 1743.582
581.4341, 1732.098
581.9162, 1717.347
582.3983, 1701.570
582.8804, 1687.322
583.3625, 1674.591
583.8447, 1664.163
584.3268, 1656.871
584.8089, 1650.490
585.2910, 1643.088
585.7731, 1634.704
586.2552, 1625.720
586.7374, 1615.152
587.2195, 1605.066
587.7016, 1597.065
588.1837, 1590.182
588.6658, 1582.444
589.1479, 1573.330
589.6301, 1564.397
590.1122, 1557.614
590.5943, 1553.233
591.0764, 1548.654
591.5585, 1544.222
592.0406, 1539.112
592.5228, 1532.148
593.0049, 1524.854
593.4870, 1519.066
593.9691, 1515.219
594.4512, 1512.344
594.9333, 1509.893
595.4155, 1507.682
595.8976, 1504.790
596.3797, 1500.975
596.8618, 1497.400
597.3439, 1495.124
597.8260, 1493.418
598.3082, 1490.423
598.7903, 1485.404
599.2724, 1480.984
599.7545, 1478.920
600.2366, 1477.312
600.7188, 1473.557
601.2009, 1467.926
601.6830, 1463.337
602.1651, 1461.922
602.6472, 1462.594
603.1293, 1461.174
603.6115, 1455.502
604.0936, 1451.732
604.5757, 1452.032
605.0578, 1452.606
605.5399, 1450.870
606.0220, 1447.300
606.5042, 1444.046
606.9863, 1442.468
607.4684, 1441.614
607.9505, 1439.975
608.4326, 1437.561
608.9147, 1434.891
609.3969, 1431.917
609.8790, 1429.072
610.3611, 1427.024
610.8432, 1425.680
611.3253, 1423.909
611.8074, 1420.451
612.2896, 1417.735
612.7717, 1417.904
613.2538, 1419.435
613.7359, 1419.477
614.2180, 1417.270
614.7001, 1414.679
615.1823, 1414.047
615.6644, 1415.517
616.1465, 1415.825
616.6286, 1414.221
617.1107, 1412.429
617.5928, 1411.049
618.0750, 1409.632
618.5571, 1407.501
619.0392, 1404.584
619.5213, 1401.927
620.0034, 1400.272
620.4855, 1399.463
620.9677, 1399.378
621.4498, 1400.047
621.9319, 1400.607
622.4140, 1401.002
622.8961, 1400.656
623.3782, 1397.833
623.8604, 1391.270
624.3425, 1386.563
624.8246, 1385.070
625.3067, 1384.992
625.7888, 1386.032
626.2709, 1387.416
626.7531, 1387.627
627.2352, 1385.896
