##NAMES=Arfvedsonite
##RRUFFID=R040127
##IDEAL CHEMISTRY=NaNa_2_(Fe^2+^_4_Fe^3+^)Si_8_O_22_(OH)_2_
##LOCALITY=Mont Saint-Hilaire, Rouville County, Quebec, Canada
##OWNER=RRUFF
##SOURCE=Bob Downs
##DESCRIPTION=Black prismatic crystal associated with white analcime, R040128
##STATUS=The identification of this mineral has been confirmed by X-ray diffraction and chemical analysis
##URL=rruff.info/R040127
##MEASURED CHEMISTRY=(Na_0.61_K_0.39_)Na_2.00_(Fe^2+^_2.40_Mg_0.80_Mn_0.75_Ca_0.05_)_&#931;=4_(Fe^3+^_0.60_Al_0.25_Mn_0.15_)(Si_0.99_Ti_0.01_)_8_O_22_((OH)_0.67_F_0.33_)_2_
151.5903, 663.9064
152.0724, 678.7995
152.5545, 691.0506
153.0366, 696.6844
153.5188, 699.2285
154.0009, 705.5882
154.4830, 723.1302
154.9651, 740.0081
155.4472, 750.9878
155.9293, 752.0350
156.4115, 752.0961
156.8936, 750.9233
157.3757, 749.6241
157.8578, 751.9584
158.3399, 764.0235
158.8221, 777.1802
159.3042, 785.8986
159.7863, 784.1797
160.2684, 782.4019
160.7505, 783.1157
161.2326, 786.3519
161.7148, 792.3590
162.1969, 804.6619
162.6790, 818.5204
163.1611, 829.2134
163.6432, 833.3433
164.1253, 835.5132
164.6075, 838.0692
165.0896, 841.0917
165.5717, 843.4030
166.0538, 843.8735
166.5359, 843.2972
167.0180, 842.8186
167.5002, 841.9343
167.9823, 841.9271
168.4644, 844.6329
168.9465, 850.7110
169.4286, 855.8442
169.9107, 857.6530
170.3929, 856.2124
170.8750, 851.7146
171.3571, 841.7524
171.8392, 829.9048
172.3213, 819.6589
172.8034, 811.3474
173.2856, 805.3249
173.7677, 803.2811
174.2498, 804.2452
174.7319, 804.9178
175.2140, 803.6805
175.6961, 800.8155
176.1783, 796.0118
176.6604, 787.6716
177.1425, 780.2557
177.6246, 782.4250
178.1067, 792.4394
178.5888, 799.1125
179.0710, 788.1495
179.5531, 767.8273
180.0352, 757.4537
180.5173, 765.5101
180.9994, 781.7844
181.4815, 789.0067
181.9637, 787.5008
182.4458, 785.4130
182.9279, 789.7690
183.4100, 799.3958
183.8921, 810.1124
184.3742, 821.9913
184.8564, 833.6625
185.3385, 840.0948
185.8206, 840.8655
186.3027, 842.2025
186.7848, 853.7574
187.2669, 873.6163
187.7491, 887.5634
188.2312, 888.3765
188.7133, 879.3445
189.1954, 871.4727
189.6775, 864.4672
190.1596, 860.2219
190.6418, 862.0970
191.1239, 869.9680
191.6060, 878.5876
192.0881, 885.6213
192.5702, 891.3726
193.0524, 899.1500
193.5345, 909.7224
194.0166, 920.2802
194.4987, 925.2193
194.9808, 924.1023
195.4629, 923.9782
195.9451, 929.4072
196.4272, 940.2924
196.9093, 947.2364
197.3914, 948.8839
197.8735, 948.2587
198.3556, 952.6228
198.8378, 963.3069
199.3199, 970.5139
199.8020, 966.0895
200.2841, 948.8491
200.7662, 938.7982
201.2483, 938.6718
201.7305, 944.9003
202.2126, 949.0999
202.6947, 951.0495
203.1768, 951.7944
203.6589, 952.7106
204.1410, 954.4301
204.6232, 951.4799
205.1053, 942.2781
205.5874, 928.5751
206.0695, 915.3181
206.5516, 901.5136
207.0337, 890.7661
207.5159, 887.6259
207.9980, 895.0522
208.4801, 895.6053
208.9622, 884.2240
209.4443, 864.4002
209.9264, 854.0480
210.4086, 856.1394
210.8907, 861.7495
211.3728, 864.1108
211.8549, 862.3693
212.3370, 860.2677
212.8191, 857.9302
213.3013, 855.5557
213.7834, 855.5573
214.2655, 860.5432
214.7476, 863.6965
215.2297, 857.2380
215.7118, 835.2605
216.1940, 820.1123
216.6761, 817.1862
217.1582, 825.8734
217.6403, 833.7218
218.1224, 841.2958
218.6045, 847.1666
219.0867, 850.0190
219.5688, 849.8394
220.0509, 846.3748
220.5330, 838.2889
221.0151, 825.2966
221.4972, 816.6223
221.9794, 814.0081
222.4615, 813.6767
222.9436, 811.4257
223.4257, 805.9491
223.9078, 801.1922
224.3899, 798.0996
224.8721, 796.7048
225.3542, 796.2454
225.8363, 797.9868
226.3184, 799.4653
226.8005, 797.3745
227.2827, 789.5021
227.7648, 782.2263
228.2469, 776.5912
228.7290, 772.3273
229.2111, 772.3365
229.6932, 779.6123
230.1754, 788.7343
230.6575, 792.1278
231.1396, 785.7317
231.6217, 780.7950
232.1038, 781.1075
232.5859, 788.1830
233.0681, 792.2195
233.5502, 791.8544
234.0323, 789.4297
234.5144, 788.9457
234.9965, 794.1682
235.4786, 794.7161
235.9608, 784.5587
236.4429, 758.5887
236.9250, 746.8494
237.4071, 755.5649
237.8892, 774.7770
238.3713, 789.2161
238.8535, 798.2827
239.3356, 803.5214
239.8177, 804.7126
240.2998, 800.5020
240.7819, 797.5356
241.2640, 796.6588
241.7462, 796.4866
242.2283, 794.5015
242.7104, 789.6232
243.1925, 784.6758
243.6746, 780.1200
244.1567, 775.0403
244.6389, 773.8535
245.1210, 778.6895
245.6031, 786.1385
246.0852, 790.1376
246.5673, 789.5416
247.0494, 787.4289
247.5316, 784.6410
248.0137, 780.8557
248.4958, 777.5721
248.9779, 775.4087
249.4600, 773.4130
249.9421, 769.5415
250.4243, 762.0835
250.9064, 755.7809
251.3885, 752.8884
251.8706, 755.1254
252.3527, 754.7859
252.8348, 750.5620
253.3170, 744.5837
253.7991, 741.2119
254.2812, 742.1733
254.7633, 742.4731
255.2454, 739.4880
255.7275, 731.2515
256.2097, 727.5409
256.6918, 730.5735
257.1739, 736.6485
257.6560, 738.4061
258.1381, 733.2251
258.6202, 729.1973
259.1024, 731.0127
259.5845, 742.2161
260.0666, 743.4694
260.5487, 729.8713
261.0308, 710.0400
261.5129, 699.5449
261.9951, 701.0649
262.4772, 705.7792
262.9593, 710.9202
263.4414, 716.9695
263.9235, 721.3156
264.4056, 723.7836
264.8878, 724.7501
265.3699, 725.1228
265.8520, 725.3113
266.3341, 723.7368
266.8162, 719.4424
267.2983, 712.0622
267.7805, 704.4099
268.2626, 696.2548
268.7447, 688.1563
269.2268, 680.5723
269.7089, 672.8865
270.1910, 667.9741
270.6732, 668.0741
271.1553, 674.0012
271.6374, 676.5622
272.1195, 674.6796
272.6016, 671.0110
273.0837, 670.0881
273.5659, 672.4252
274.0480, 674.8512
274.5301, 676.5660
275.0122, 677.5954
275.4943, 676.4433
275.9764, 672.6334
276.4586, 667.5373
276.9407, 663.2985
277.4228, 660.1412
277.9049, 656.3366
278.3870, 650.2384
278.8691, 642.0940
279.3513, 637.6873
279.8334, 637.2903
280.3155, 639.9333
280.7976, 646.7056
281.2798, 657.9431
281.7619, 664.0015
282.2440, 657.7692
282.7261, 641.6750
283.2082, 635.4106
283.6903, 640.5966
284.1725, 649.6503
284.6546, 653.8767
285.1367, 653.3522
285.6188, 650.7775
286.1009, 644.7618
286.5830, 637.2367
287.0652, 638.7264
287.5473, 650.6677
288.0294, 662.9637
288.5115, 662.7145
288.9936, 651.3987
289.4757, 641.2530
289.9579, 635.8146
290.4400, 634.5650
290.9221, 636.9828
291.4042, 643.3199
291.8863, 650.1801
292.3684, 654.8823
292.8506, 657.3928
293.3327, 657.4960
293.8148, 653.4552
294.2969, 647.9301
294.7790, 647.0015
295.2611, 650.6782
295.7433, 654.0630
296.2254, 650.6120
296.7075, 643.2259
297.1896, 640.4517
297.6717, 647.3179
298.1538, 657.7449
298.6360, 663.3519
299.1181, 664.2927
299.6002, 661.7960
300.0823, 651.1588
300.5644, 638.3684
301.0465, 635.7397
301.5287, 652.2863
302.0108, 672.9987
302.4929, 679.9089
302.9750, 674.9645
303.4571, 668.9474
303.9392, 669.5515
304.4214, 673.3381
304.9035, 675.4081
305.3856, 673.2225
305.8677, 671.1874
306.3498, 674.2912
306.8319, 681.1367
307.3141, 686.8635
307.7962, 687.4045
308.2783, 685.9271
308.7604, 686.1346
309.2425, 690.5732
309.7246, 692.7735
310.2068, 684.0114
310.6889, 669.1971
311.1710, 660.9469
311.6531, 671.6323
312.1352, 687.3674
312.6173, 698.2352
313.0995, 702.1161
313.5816, 702.2988
314.0637, 697.3650
314.5458, 689.9653
315.0279, 685.0477
315.5100, 684.8664
315.9922, 687.3954
316.4743, 693.1355
316.9564, 704.0659
317.4385, 710.1874
317.9206, 703.3226
318.4027, 690.7792
318.8849, 682.7704
319.3670, 689.1809
319.8491, 694.3059
320.3312, 690.2434
320.8133, 674.0226
321.2954, 663.3149
321.7776, 665.1105
322.2597, 672.6295
322.7418, 678.6445
323.2239, 683.1910
323.7060, 685.0717
324.1881, 682.6844
324.6703, 675.4907
325.1524, 670.6151
325.6345, 669.7232
326.1166, 670.7667
326.5987, 672.1404
327.0808, 677.3362
327.5630, 678.6642
328.0451, 672.2571
328.5272, 658.7626
329.0093, 652.5737
329.4914, 659.0530
329.9735, 668.0787
330.4557, 672.8480
330.9378, 669.1011
331.4199, 668.7942
331.9020, 675.3148
332.3841, 686.4030
332.8662, 690.3749
333.3484, 683.1328
333.8305, 674.9302
334.3126, 671.3877
334.7947, 673.8662
335.2768, 676.7840
335.7589, 679.3393
336.2411, 682.4720
336.7232, 690.1672
337.2053, 705.2543
337.6874, 716.4514
338.1695, 715.3694
338.6516, 699.4706
339.1338, 694.4692
339.6159, 703.2118
340.0980, 719.1862
340.5801, 733.1959
341.0622, 745.7890
341.5443, 752.4512
342.0265, 747.2815
342.5086, 732.4349
342.9907, 729.0052
343.4728, 738.5800
343.9549, 753.4793
344.4370, 765.0783
344.9192, 773.5687
345.4013, 781.2794
345.8834, 788.9336
346.3655, 796.3021
346.8476, 802.6953
347.3297, 808.1115
347.8119, 812.0958
348.2940, 813.0563
348.7761, 812.0391
349.2582, 812.2255
349.7403, 815.0982
350.2225, 818.9980
350.7046, 822.1652
351.1867, 824.5293
351.6688, 825.3204
352.1509, 821.5964
352.6331, 816.5615
353.1152, 815.6633
353.5973, 822.2739
354.0794, 829.2175
354.5615, 828.4194
355.0436, 822.3253
355.5258, 818.3792
356.0079, 824.8510
356.4900, 832.9428
356.9721, 833.9556
357.4542, 824.3230
357.9363, 815.1836
358.4185, 814.5582
358.9006, 818.4656
359.3827, 820.0180
359.8648, 816.7127
360.3469, 810.2160
360.8290, 799.3930
361.3112, 782.9164
361.7933, 771.2592
362.2754, 771.4261
362.7575, 776.6341
363.2396, 779.5231
363.7217, 777.4806
364.2039, 773.8806
364.6860, 768.2556
365.1681, 760.5925
365.6502, 756.0085
366.1323, 759.0577
366.6144, 762.9218
367.0966, 762.8843
367.5787, 755.4092
368.0608, 748.1312
368.5429, 740.1760
369.0250, 732.3434
369.5071, 729.1916
369.9893, 734.9487
370.4714, 740.4729
370.9535, 741.3569
371.4356, 736.2460
371.9177, 729.1293
372.3998, 717.8954
372.8820, 705.7513
373.3641, 700.4496
373.8462, 704.0438
374.3283, 709.1890
374.8104, 713.5622
375.2925, 717.3148
375.7747, 718.9872
376.2568, 718.6833
376.7389, 716.1301
377.2210, 709.5923
377.7031, 698.6211
378.1852, 690.4565
378.6674, 689.3436
379.1495, 692.6948
379.6316, 686.6257
380.1137, 669.8961
380.5958, 655.4480
381.0779, 658.9469
381.5601, 676.6692
382.0422, 689.9767
382.5243, 694.6970
383.0064, 693.3463
383.4885, 688.4774
383.9706, 680.4995
384.4528, 672.7748
384.9349, 668.3243
385.4170, 665.3821
385.8991, 660.3856
386.3812, 651.9151
386.8633, 644.1130
387.3455, 641.4312
387.8276, 642.3923
388.3097, 643.5902
388.7918, 642.2109
389.2739, 641.0896
389.7560, 644.3995
390.2382, 653.1927
390.7203, 657.4577
391.2024, 646.4655
391.6845, 629.8036
392.1666, 618.3852
392.6487, 621.6761
393.1309, 625.4872
393.6130, 623.3322
394.0951, 615.7547
394.5772, 610.2083
395.0593, 609.9305
395.5414, 611.4245
396.0236, 612.5210
396.5057, 615.0074
396.9878, 614.6030
397.4699, 609.0273
397.9520, 600.0052
398.4341, 593.0710
398.9163, 590.8104
399.3984, 587.9391
399.8805, 581.8572
400.3626, 569.8185
400.8447, 562.9512
401.3268, 563.3268
401.8090, 567.3555
402.2911, 570.5531
402.7732, 573.7112
403.2553, 573.6591
403.7374, 567.9299
404.2195, 557.0999
404.7017, 551.8429
405.1838, 552.8302
405.6659, 557.6273
406.1480, 566.5189
406.6301, 579.7137
407.1122, 585.5986
407.5944, 579.6988
408.0765, 567.7506
408.5586, 563.5886
409.0407, 567.0701
409.5228, 572.5686
410.0049, 578.3292
410.4871, 583.2424
410.9692, 583.0862
411.4513, 576.2860
411.9334, 569.0408
412.4155, 569.7278
412.8976, 575.9137
413.3798, 580.5270
413.8619, 577.7840
414.3440, 573.3904
414.8261, 573.5278
415.3082, 578.3366
415.7903, 584.2557
416.2725, 590.0917
416.7546, 595.3495
417.2367, 599.6649
417.7188, 604.7241
418.2009, 606.6927
418.6830, 600.8807
419.1652, 589.6829
419.6473, 582.1129
420.1294, 583.2393
420.6115, 587.1965
421.0937, 591.2432
421.5758, 596.0576
422.0579, 598.5325
422.5400, 596.8306
423.0221, 592.8590
423.5042, 589.6829
423.9864, 587.0806
424.4685, 585.7094
424.9506, 586.5408
425.4327, 589.9520
425.9148, 590.3164
426.3969, 585.9245
426.8791, 580.4380
427.3612, 577.6369
427.8433, 579.4524
428.3254, 577.4531
428.8075, 568.5753
429.2896, 555.8222
429.7718, 549.7964
430.2539, 551.1837
430.7360, 555.3878
431.2181, 561.4556
431.7002, 569.0023
432.1823, 571.8746
432.6645, 569.1342
433.1466, 563.8173
433.6287, 559.0574
434.1108, 555.0372
434.5929, 552.7704
435.0750, 553.8575
435.5572, 556.4816
436.0393, 558.4061
436.5214, 559.5359
437.0035, 557.8467
437.4856, 546.9421
437.9677, 533.6623
438.4499, 528.3604
438.9320, 537.6943
439.4141, 548.7371
439.8962, 552.9125
440.3783, 551.6618
440.8604, 548.8210
441.3426, 546.4999
441.8247, 542.7723
442.3068, 535.4133
442.7889, 522.7801
443.2710, 513.3389
443.7531, 511.1841
444.2353, 512.6730
444.7174, 513.7412
445.1995, 515.4761
445.6816, 514.9249
446.1637, 509.0978
446.6458, 498.9921
447.1280, 495.3813
447.6101, 503.9305
448.0922, 512.7410
448.5743, 514.3777
449.0564, 503.9542
449.5385, 499.8623
450.0207, 504.7061
450.5028, 514.1255
450.9849, 520.8116
451.4670, 525.0150
451.9491, 524.6947
452.4312, 516.1151
452.9134, 501.2239
453.3955, 496.5760
453.8776, 503.3503
454.3597, 511.9635
454.8418, 512.6622
455.3239, 507.0580
455.8061, 501.4849
456.2882, 496.5548
456.7703, 493.4801
457.2524, 495.7912
457.7345, 502.0769
458.2166, 506.6157
458.6988, 505.5291
459.1809, 501.1050
459.6630, 494.4287
460.1451, 484.8399
460.6272, 478.3854
461.1093, 480.8088
461.5915, 488.0089
462.0736, 494.8698
462.5557, 497.9398
463.0378, 502.1069
463.5199, 512.1442
464.0020, 526.4796
464.4842, 533.7057
464.9663, 523.4256
465.4484, 511.2693
465.9305, 505.7897
466.4126, 513.7767
466.8947, 516.7974
467.3769, 511.3184
467.8590, 502.4281
468.3411, 498.4505
468.8232, 501.1467
469.3053, 505.5420
469.7874, 511.5357
470.2696, 518.8112
470.7517, 520.7601
471.2338, 516.1239
471.7159, 510.0471
472.1980, 507.4869
472.6801, 508.3099
473.1623, 506.5556
473.6444, 500.1164
474.1265, 493.2002
474.6086, 495.3796
475.0907, 505.0017
475.5728, 511.3763
476.0550, 503.8918
476.5371, 491.2672
477.0192, 488.4640
477.5013, 496.0387
477.9834, 506.0800
478.4655, 515.6175
478.9477, 523.0052
479.4298, 525.6845
479.9119, 518.6609
480.3940, 512.1830
480.8761, 512.9446
481.3582, 518.6671
481.8404, 522.8083
482.3225, 523.9678
482.8046, 522.4557
483.2867, 517.0091
483.7688, 504.7204
484.2509, 498.2776
484.7331, 503.4885
485.2152, 512.6049
485.6973, 518.4623
486.1794, 518.4311
486.6615, 519.6361
487.1436, 523.1891
487.6258, 528.7485
488.1079, 535.1607
488.5900, 543.1348
489.0721, 549.8817
489.5542, 552.6913
490.0363, 551.5132
490.5185, 554.5869
491.0006, 563.0789
491.4827, 572.5444
491.9648, 577.6087
492.4470, 578.6054
492.9291, 576.8788
493.4112, 571.2083
493.8933, 564.5411
494.3754, 561.8188
494.8575, 562.5689
495.3397, 563.9781
495.8218, 561.1151
496.3039, 559.4551
496.7860, 566.2893
497.2681, 585.0666
497.7502, 603.1509
498.2324, 616.7955
498.7145, 624.9752
499.1966, 626.5464
499.6787, 612.2082
500.1608, 600.1402
500.6429, 596.7200
501.1251, 601.5565
501.6072, 606.3779
502.0893, 608.5859
502.5714, 612.5012
503.0535, 621.1674
503.5356, 640.3049
504.0178, 649.7368
504.4999, 644.9317
504.9820, 634.4454
505.4641, 631.6335
505.9462, 637.9634
506.4283, 644.2469
506.9105, 647.3796
507.3926, 648.5420
507.8747, 654.1005
508.3568, 664.4757
508.8389, 671.6107
509.3210, 666.8724
509.8032, 654.3568
510.2853, 644.9993
510.7674, 640.1172
511.2495, 638.6228
511.7316, 639.4598
512.2137, 642.8774
512.6959, 649.3157
513.1780, 662.2241
513.6601, 675.5327
514.1422, 685.9607
514.6243, 693.4929
515.1064, 698.4115
515.5886, 699.1670
516.0707, 698.5086
516.5528, 697.6715
517.0349, 694.9360
517.5170, 695.9376
517.9991, 703.8690
518.4813, 714.7891
518.9634, 723.7910
519.4455, 729.9655
519.9276, 735.8098
520.4097, 742.1033
520.8918, 748.4894
521.3740, 752.9812
521.8561, 755.0035
522.3382, 757.0370
522.8203, 759.9360
523.3024, 763.8067
523.7845, 772.0884
524.2667, 786.1746
524.7488, 800.2643
525.2309, 805.6354
525.7130, 804.9287
526.1951, 807.3519
526.6772, 818.2793
527.1594, 831.8735
527.6415, 841.7809
528.1236, 848.3896
528.6057, 853.6080
529.0878, 855.1279
529.5699, 857.8356
530.0521, 866.8642
530.5342, 885.1638
531.0163, 899.6028
531.4984, 902.3029
531.9805, 900.7277
532.4626, 902.8373
532.9448, 919.2416
533.4269, 927.6659
533.9090, 921.5829
534.3911, 905.2754
534.8732, 895.5298
535.3553, 893.6326
535.8375, 895.8785
536.3196, 902.6456
536.8017, 914.5812
537.2838, 918.1000
537.7659, 911.5203
538.2480, 902.1632
538.7302, 898.8083
539.2123, 900.2921
539.6944, 898.2201
540.1765, 889.2242
540.6586, 878.7350
541.1407, 874.8623
541.6229, 876.0867
542.1050, 876.8613
542.5871, 872.5781
543.0692, 867.5766
543.5513, 866.6161
544.0334, 869.9028
544.5156, 871.9206
544.9977, 869.9545
545.4798, 865.7319
545.9619, 860.5327
546.4440, 853.5765
546.9261, 847.1712
547.4083, 840.4870
547.8904, 834.7861
548.3725, 832.6749
548.8546, 837.1724
549.3367, 840.3052
549.8188, 840.2077
550.3010, 837.0176
550.7831, 831.9091
551.2652, 824.3254
551.7473, 816.6531
552.2294, 810.3441
552.7115, 805.3817
553.1937, 802.4968
553.6758, 802.2488
554.1579, 801.9927
554.6400, 797.8917
555.1221, 791.0435
555.6042, 784.4534
556.0864, 776.5363
556.5685, 771.9371
557.0506, 779.2096
557.5327, 794.7676
558.0148, 805.1376
558.4969, 798.2468
558.9791, 788.2847
559.4612, 784.5886
559.9433, 789.7684
560.4254, 792.6888
560.9075, 790.9481
561.3896, 786.2458
561.8718, 779.7125
562.3539, 766.0617
562.8360, 760.2094
563.3181, 767.4498
563.8002, 781.1874
564.2823, 784.9992
564.7645, 777.0520
565.2466, 767.0826
565.7287, 757.3663
566.2108, 748.6818
566.6929, 746.4519
567.1750, 750.9504
567.6572, 756.1083
568.1393, 756.8511
568.6214, 754.5545
569.1035, 752.1678
569.5856, 750.4947
570.0677, 747.2756
570.5499, 737.5011
571.0320, 725.5496
571.5141, 718.2725
571.9962, 726.1965
572.4783, 731.2899
572.9604, 722.3014
573.4426, 702.6990
573.9247, 690.4955
574.4068, 698.6395
574.8889, 705.5681
575.3710, 702.0312
575.8531, 685.2398
576.3353, 673.0878
576.8174, 667.0704
577.2995, 663.6497
577.7816, 660.0264
578.2637, 656.3507
578.7458, 650.4656
579.2280, 641.0840
579.7101, 631.1485
580.1922, 627.8200
580.6743, 629.5975
581.1564, 628.0056
581.6385, 615.8647
582.1207, 599.8688
582.6028, 588.2978
583.0849, 581.0033
583.5670, 575.9836
584.0491, 573.8552
584.5313, 572.4124
585.0134, 569.9205
585.4955, 565.8783
585.9776, 561.6016
586.4597, 555.5745
586.9418, 550.2949
587.4240, 548.8501
587.9061, 555.2643
588.3882, 559.3791
588.8703, 560.5891
589.3524, 558.6782
589.8345, 551.3033
590.3167, 535.9361
590.7988, 525.0285
591.2809, 527.3199
591.7630, 539.0845
592.2451, 539.3699
592.7272, 527.7470
593.2094, 515.1281
593.6915, 511.1627
594.1736, 512.5433
594.6557, 513.1141
595.1378, 511.8276
595.6199, 509.8980
596.1021, 505.0167
596.5842, 500.9157
597.0663, 502.9297
597.5485, 524.1356
598.0306, 539.7692
598.5127, 538.3250
598.9948, 523.7620
599.4769, 513.6161
599.9590, 511.7708
600.4412, 510.9252
600.9233, 508.3760
601.4054, 503.8064
601.8875, 502.6189
602.3696, 505.6598
602.8517, 510.0428
603.3339, 513.8082
603.8160, 516.9335
604.2981, 518.7010
604.7802, 519.1618
605.2623, 517.7234
605.7444, 512.1528
606.2266, 503.9245
606.7087, 497.3118
607.1908, 495.1936
607.6729, 493.7730
608.1550, 488.4247
608.6371, 480.9684
609.1193, 477.1344
609.6014, 480.6436
610.0835, 487.1661
610.5656, 496.5023
611.0477, 509.7669
611.5298, 516.1335
612.0120, 510.6627
612.4941, 502.8481
612.9762, 499.1912
613.4583, 501.3425
613.9404, 501.4829
614.4225, 498.6288
614.9047, 494.8951
615.3868, 492.8553
615.8689, 492.5060
616.3510, 494.3237
616.8331, 499.6538
617.3152, 505.6259
617.7974, 508.0036
618.2795, 507.1973
618.7616, 504.9803
619.2437, 500.6017
619.7258, 496.4751
620.2079, 495.0602
620.6901, 496.4421
621.1722, 496.6136
621.6543, 492.2742
622.1364, 487.6023
622.6185, 485.5395
623.1006, 487.9780
623.5828, 489.1580
624.0649, 489.0800
624.5470, 487.7425
625.0291, 483.9709
625.5112, 476.3927
625.9933, 474.4737
626.4755, 481.8241
626.9576, 493.1679
627.4397, 496.6346
627.9218, 493.2518
628.4039, 490.8628
628.8860, 495.0355
629.3682, 501.5419
629.8503, 503.5658
630.3324, 501.8726
630.8145, 502.3300
631.2966, 513.4973
631.7787, 524.4440
632.2609, 526.0382
632.7430, 513.9587
633.2251, 505.0717
633.7072, 502.3732
634.1893, 504.4763
634.6714, 511.0599
635.1536, 527.0352
635.6357, 536.3716
636.1178, 536.3823
636.5999, 530.7713
637.0820, 525.2220
637.5641, 519.6899
638.0463, 516.0433
638.5284, 514.6117
639.0105, 515.6354
639.4926, 521.6759
639.9747, 531.6120
640.4568, 538.8079
640.9390, 534.4529
641.4211, 528.7149
641.9032, 533.2915
642.3853, 548.9484
642.8674, 560.6766
643.3495, 560.9720
643.8317, 556.2233
