##NAMES=Arfvedsonite
##RRUFFID=R050514
##IDEAL CHEMISTRY=NaNa_2_(Fe^2+^_4_Fe^3+^)Si_8_O_22_(OH)_2_
##LOCALITY=unknown
##OWNER=RRUFF
##SOURCE=Frank Hawthorne
##DESCRIPTION=Small black fragments
##STATUS=The identification of this mineral has been confirmed by X-ray diffraction and chemical analysis
##URL=rruff.info/R050514
##MEASURED CHEMISTRY=(Na_2.44_K_0.22_Ca_0.17_[box]_0.17_)_Σ=3_(Fe^2+^_2.55_Fe^3+^_0.94_Mg_0.80_Mn_0.55_Ti_0.09_Al_0.07_)_Σ=5_(Si_7.81_Al_0.19_)_8_O_22_((OH)_1.40_F_0.60_)_Σ=2_
92.37695, 852.9938
92.85907, 851.3596
93.34119, 852.0549
93.82330, 847.1185
94.30542, 839.9979
94.78754, 835.1318
95.26965, 833.2575
95.75177, 829.8472
96.23389, 823.2775
96.71600, 815.3757
97.19812, 808.3943
97.68024, 802.9015
98.16235, 798.0663
98.64447, 792.8664
99.12659, 787.4282
99.60870, 779.5515
100.0908, 770.4573
100.5729, 761.3642
101.0551, 752.9962
101.5372, 745.5017
102.0193, 738.8079
102.5014, 733.2630
102.9835, 728.4043
103.4656, 725.0837
103.9478, 724.3444
104.4299, 725.1964
104.9120, 726.0012
105.3941, 725.5306
105.8762, 723.6935
106.3583, 720.5951
106.8405, 714.9987
107.3226, 709.1841
107.8047, 704.3083
108.2868, 700.5168
108.7689, 697.4022
109.2510, 694.6144
109.7332, 692.1389
110.2153, 690.0168
110.6974, 688.0477
111.1795, 686.4716
111.6616, 685.8038
112.1437, 686.4374
112.6259, 687.4102
113.1080, 687.5049
113.5901, 686.7993
114.0722, 686.3671
114.5543, 687.3022
115.0364, 689.5027
115.5185, 690.7859
116.0007, 690.1356
116.4828, 688.7581
116.9649, 687.0006
117.4470, 684.9709
117.9291, 683.3232
118.4112, 683.2280
118.8934, 685.8147
119.3755, 687.1497
119.8576, 685.6179
120.3397, 683.4745
120.8218, 682.7255
121.3039, 684.1561
121.7861, 686.7647
122.2682, 687.6598
122.7503, 684.4172
123.2324, 681.9081
123.7145, 680.8242
124.1966, 680.6154
124.6788, 680.4410
125.1609, 679.7839
125.6430, 678.7526
126.1251, 678.3255
126.6072, 678.9644
127.0893, 679.5858
127.5715, 679.8347
128.0536, 679.7022
128.5357, 679.2213
129.0178, 678.2861
129.4999, 676.9764
129.9821, 675.8799
130.4642, 675.2805
130.9463, 674.7596
131.4284, 673.7479
131.9105, 672.0906
132.3926, 670.5918
132.8748, 670.1968
133.3569, 670.4039
133.8390, 670.3231
134.3211, 669.1760
134.8032, 667.3895
135.2853, 666.4708
135.7674, 666.9037
136.2496, 667.6476
136.7317, 668.5694
137.2138, 669.4170
137.6959, 669.5920
138.1780, 668.2208
138.6601, 665.0417
139.1423, 663.1217
139.6244, 664.4756
140.1065, 665.4598
140.5886, 664.2200
141.0707, 660.9857
141.5528, 657.4412
142.0350, 655.6921
142.5171, 656.8409
142.9992, 656.9584
143.4813, 655.1268
143.9634, 653.0887
144.4455, 651.9564
144.9277, 652.0156
145.4098, 652.8381
145.8919, 653.8263
146.3740, 655.6669
146.8561, 656.2576
147.3382, 654.2833
147.8204, 651.3990
148.3025, 649.8900
148.7846, 650.7508
149.2667, 652.5782
149.7488, 652.1465
150.2309, 648.7379
150.7131, 646.0593
151.1952, 646.2990
151.6773, 648.5328
152.1594, 649.7484
152.6415, 648.4417
153.1236, 645.8702
153.6058, 644.1105
154.0879, 643.2908
154.5700, 642.9141
155.0521, 642.6937
155.5342, 642.6371
156.0163, 642.5787
156.4985, 642.6946
156.9806, 642.6415
157.4627, 641.9370
157.9448, 640.3318
158.4269, 638.6274
158.9090, 638.1973
159.3912, 639.7369
159.8733, 640.7966
160.3554, 640.8802
160.8375, 640.2444
161.3196, 638.9143
161.8017, 636.8529
162.2839, 634.3954
162.7660, 632.5427
163.2481, 631.4301
163.7302, 630.8543
164.2123, 631.4441
164.6944, 632.3385
165.1766, 632.3722
165.6587, 630.8243
166.1408, 628.0414
166.6229, 626.2836
167.1050, 625.7996
167.5871, 626.0551
168.0693, 627.7905
168.5514, 630.2044
169.0335, 631.8258
169.5156, 631.6563
169.9977, 629.7711
170.4798, 627.7153
170.9620, 624.8006
171.4441, 622.3886
171.9262, 621.4501
172.4083, 621.7243
172.8904, 621.9668
173.3725, 621.2708
173.8547, 619.6774
174.3368, 618.1998
174.8189, 616.6223
175.3010, 615.2949
175.7831, 614.6445
176.2652, 614.7018
176.7474, 614.8139
177.2295, 614.3177
177.7116, 613.5118
178.1937, 613.1601
178.6758, 614.0466
179.1579, 615.2524
179.6401, 615.2813
180.1222, 613.7770
180.6043, 612.1184
181.0864, 610.9764
181.5685, 610.2797
182.0506, 610.0255
182.5328, 610.4225
183.0149, 611.2377
183.4970, 611.7324
183.9791, 611.7362
184.4612, 611.6552
184.9433, 611.7879
185.4255, 611.9713
185.9076, 611.9160
186.3897, 611.4051
186.8718, 610.4718
187.3539, 609.4779
187.8360, 608.1052
188.3182, 607.0283
188.8003, 606.5178
189.2824, 606.4515
189.7645, 606.6101
190.2466, 606.9008
190.7287, 607.3542
191.2109, 607.1990
191.6930, 605.5374
192.1751, 604.1299
192.6572, 603.7639
193.1393, 604.1918
193.6214, 604.6533
194.1036, 604.4755
194.5857, 603.5707
195.0678, 602.6989
195.5499, 601.9307
196.0320, 601.1241
196.5141, 600.1031
196.9963, 598.9364
197.4784, 597.8765
197.9605, 597.1315
198.4426, 596.7246
198.9247, 596.7947
199.4068, 597.7594
199.8890, 598.8318
200.3711, 599.5351
200.8532, 599.8224
201.3353, 599.8528
201.8174, 599.7107
202.2995, 599.3832
202.7817, 599.1707
203.2638, 599.2229
203.7459, 599.3145
204.2280, 599.3333
204.7101, 599.2809
205.1922, 598.9040
205.6744, 597.6903
206.1565, 595.8477
206.6386, 594.4017
207.1207, 593.8829
207.6028, 593.7492
208.0849, 593.1446
208.5671, 591.8400
209.0492, 590.7090
209.5313, 590.6965
210.0134, 591.3942
210.4955, 591.9844
210.9776, 591.9202
211.4598, 591.5759
211.9419, 591.9688
212.4240, 593.6450
212.9061, 594.8961
213.3882, 594.4014
213.8703, 592.8287
214.3525, 591.3610
214.8346, 590.6441
215.3167, 590.4955
215.7988, 590.2580
216.2809, 589.8052
216.7630, 589.4620
217.2451, 589.4938
217.7273, 589.7014
218.2094, 589.7300
218.6915, 589.3166
219.1736, 588.5443
219.6557, 587.9199
220.1378, 587.5325
220.6200, 587.2021
221.1021, 587.1447
221.5842, 587.0760
222.0663, 586.4407
222.5484, 584.6978
223.0305, 582.0672
223.5127, 580.6801
223.9948, 581.7433
224.4769, 582.9143
224.9590, 584.0075
225.4411, 584.8453
225.9232, 585.1588
226.4054, 584.7080
226.8875, 583.5922
227.3696, 582.9480
227.8517, 583.2158
228.3338, 583.5213
228.8159, 583.8387
229.2981, 584.0560
229.7802, 583.9844
230.2623, 583.4768
230.7444, 582.5834
231.2265, 581.8884
231.7086, 581.6155
232.1908, 581.2786
232.6729, 580.3972
233.1550, 579.3693
233.6371, 579.1476
234.1192, 580.4738
234.6013, 582.9590
235.0835, 583.5884
235.5656, 580.2183
236.0477, 577.7034
236.5298, 578.0061
237.0119, 580.2631
237.4940, 582.6617
237.9762, 584.3346
238.4583, 585.2190
238.9404, 585.0076
239.4225, 582.6524
239.9046, 580.5853
240.3867, 580.2200
240.8689, 580.8288
241.3510, 580.3859
241.8331, 577.4869
242.3152, 573.3359
242.7973, 571.6185
243.2794, 573.8146
243.7616, 575.6610
244.2437, 574.7647
244.7258, 571.9718
245.2079, 569.8369
245.6900, 569.4904
246.1721, 570.3454
246.6543, 571.1428
247.1364, 571.8636
247.6185, 572.5881
248.1006, 573.4685
248.5827, 574.4124
249.0648, 575.1394
249.5470, 575.6688
250.0291, 575.7556
250.5112, 574.8615
250.9933, 572.7362
251.4754, 571.1478
251.9576, 571.7532
252.4397, 573.9364
252.9218, 574.8811
253.4039, 573.3116
253.8860, 570.9022
254.3681, 569.4270
254.8503, 568.8676
255.3324, 568.7758
255.8145, 569.1129
256.2966, 569.7704
256.7787, 570.1854
257.2608, 570.1826
257.7430, 570.0021
258.2251, 569.8130
258.7072, 569.6285
259.1893, 569.5270
259.6714, 569.6703
260.1535, 569.9866
260.6357, 569.9783
261.1178, 569.1253
261.5999, 568.6239
262.0820, 569.7186
262.5641, 571.8446
263.0462, 573.2610
263.5284, 572.4395
264.0105, 569.7872
264.4926, 567.6500
264.9747, 565.9196
265.4568, 564.9813
265.9389, 565.5664
266.4211, 566.9536
266.9032, 567.6166
267.3853, 566.1721
267.8674, 563.3114
268.3495, 562.2028
268.8316, 564.1312
269.3138, 565.9287
269.7959, 566.2356
270.2780, 565.7054
270.7601, 565.3168
271.2422, 565.6060
271.7243, 566.3740
272.2065, 566.9749
272.6886, 567.4035
273.1707, 567.6455
273.6528, 567.7325
274.1349, 567.6595
274.6170, 567.3463
275.0992, 566.7186
275.5813, 566.0010
276.0634, 565.8221
276.5455, 566.6516
277.0276, 567.1353
277.5097, 566.8561
277.9919, 566.2717
278.4740, 565.8417
278.9561, 565.7266
279.4382, 565.6813
279.9203, 565.1976
280.4024, 563.9808
280.8846, 562.9510
281.3667, 561.9671
281.8488, 561.3128
282.3309, 561.4180
282.8130, 562.3079
283.2951, 563.3724
283.7773, 563.6278
284.2594, 562.5712
284.7415, 561.9566
285.2236, 562.1512
285.7057, 562.4854
286.1878, 562.4488
286.6700, 562.0527
287.1521, 561.7903
287.6342, 562.4149
288.1163, 564.4621
288.5984, 565.2166
289.0805, 562.9232
289.5627, 560.9952
290.0448, 561.3624
290.5269, 563.6840
291.0090, 566.2737
291.4911, 567.6666
291.9732, 567.8215
292.4554, 567.2512
292.9375, 565.3889
293.4196, 563.3762
293.9017, 561.2813
294.3838, 559.3196
294.8659, 557.8261
295.3481, 557.0539
295.8302, 556.9686
296.3123, 557.1522
296.7944, 557.7330
297.2765, 558.4703
297.7586, 559.8220
298.2408, 561.2076
298.7229, 561.5933
299.2050, 560.3466
299.6871, 558.0557
300.1692, 557.0135
300.6513, 558.9806
301.1335, 560.1271
301.6156, 559.7022
302.0977, 558.4798
302.5798, 557.1469
303.0619, 555.9993
303.5440, 555.1649
304.0262, 554.9592
304.5083, 556.2704
304.9904, 556.8663
305.4725, 556.3000
305.9546, 555.3275
306.4367, 554.2843
306.9189, 553.3652
307.4010, 552.9762
307.8831, 553.8309
308.3652, 556.8487
308.8473, 558.6675
309.3294, 558.7755
309.8116, 558.3243
310.2937, 557.9507
310.7758, 557.7170
311.2579, 557.3467
311.7400, 556.5264
312.2221, 555.1365
312.7043, 554.1060
313.1864, 553.3018
313.6685, 552.9141
314.1506, 553.2970
314.6327, 554.1844
315.1148, 554.9319
315.5970, 555.0219
316.0791, 554.5388
316.5612, 554.6426
317.0433, 556.4351
317.5254, 557.5939
318.0075, 557.1719
318.4897, 555.8998
318.9718, 554.8767
319.4539, 554.6693
319.9360, 555.0695
320.4181, 555.4197
320.9002, 555.8509
321.3824, 556.0347
321.8645, 556.0156
322.3466, 555.7178
322.8287, 554.7237
323.3108, 552.9943
323.7929, 551.4053
324.2751, 551.6514
324.7572, 555.7006
325.2393, 557.7444
325.7214, 556.3496
326.2035, 554.3148
326.6856, 553.4283
327.1678, 553.9548
327.6499, 555.1960
328.1320, 556.5014
328.6141, 558.0247
329.0962, 558.8061
329.5783, 558.2780
330.0605, 557.6575
330.5426, 557.3994
331.0247, 557.4845
331.5068, 557.7770
331.9889, 558.2455
332.4710, 558.8373
332.9532, 558.6811
333.4353, 556.9977
333.9174, 555.3656
334.3995, 553.7177
334.8816, 552.3984
335.3637, 551.9662
335.8459, 552.7262
336.3280, 554.2744
336.8101, 555.3991
337.2922, 555.9407
337.7743, 556.2519
338.2564, 556.3634
338.7386, 556.2855
339.2206, 555.8344
339.7028, 555.0295
340.1849, 554.3486
340.6670, 554.5783
341.1491, 556.1464
341.6312, 557.5761
342.1133, 559.4321
342.5955, 560.7094
343.0776, 560.5106
343.5597, 559.0539
344.0418, 557.3917
344.5239, 556.4477
345.0060, 556.2358
345.4882, 556.4928
345.9703, 558.1131
346.4524, 559.3402
346.9345, 559.9891
347.4166, 559.8688
347.8987, 558.3976
348.3809, 554.8983
348.8630, 550.3410
349.3451, 548.9669
349.8272, 553.3871
350.3093, 557.0414
350.7914, 558.7494
351.2736, 559.1474
351.7557, 558.5178
352.2378, 556.9847
352.7199, 555.3633
353.2020, 555.1290
353.6841, 556.7695
354.1663, 558.3182
354.6484, 560.3127
355.1305, 561.5906
355.6126, 560.8958
356.0947, 558.4379
356.5768, 555.9645
357.0590, 555.4477
357.5411, 557.0027
358.0232, 557.6193
358.5053, 556.3519
358.9874, 555.1617
359.4695, 554.9191
359.9517, 555.3665
360.4338, 555.9220
360.9159, 556.2629
361.3980, 556.4639
361.8801, 556.7692
362.3622, 557.2343
362.8444, 557.6781
363.3265, 558.2609
363.8086, 558.6950
364.2907, 558.5654
364.7728, 557.6756
365.2549, 556.5958
365.7371, 556.0854
366.2192, 556.2001
366.7013, 556.3517
367.1834, 556.5870
367.6655, 556.6553
368.1476, 556.2722
368.6298, 555.4592
369.1119, 554.6735
369.5940, 554.3181
370.0761, 554.2949
370.5582, 554.1260
371.0403, 553.7259
371.5225, 553.2651
372.0046, 552.6408
372.4867, 552.0358
372.9688, 551.9310
373.4509, 552.9573
373.9330, 554.3104
374.4152, 554.8005
374.8973, 554.3727
375.3794, 553.4774
375.8615, 551.7723
376.3436, 549.9980
376.8257, 549.3533
377.3079, 550.3171
377.7900, 551.4774
378.2721, 551.8802
378.7542, 551.6271
379.2363, 551.0746
379.7184, 550.1117
380.2006, 549.2272
380.6827, 549.1448
381.1648, 549.8347
381.6469, 550.5172
382.1290, 551.0805
382.6111, 551.4398
383.0933, 551.3176
383.5754, 550.6532
384.0575, 550.1395
384.5396, 550.4912
385.0217, 551.5591
385.5038, 552.0779
385.9860, 551.5515
386.4681, 550.8845
386.9502, 550.6218
387.4323, 550.6833
387.9144, 550.8314
388.3965, 551.0465
388.8787, 551.1283
389.3608, 550.3453
389.8429, 547.7091
390.3250, 546.3653
390.8071, 548.1016
391.2892, 550.9743
391.7714, 552.6968
392.2535, 552.7483
392.7356, 551.9066
393.2177, 551.0418
393.6998, 550.1927
394.1819, 549.0245
394.6641, 546.8812
395.1462, 545.0248
395.6283, 544.0507
396.1104, 543.9728
396.5925, 544.7928
397.0746, 546.6428
397.5568, 549.2095
398.0389, 550.7809
398.5210, 550.4806
399.0031, 550.1953
399.4852, 550.1783
399.9673, 550.2551
400.4495, 550.2486
400.9316, 550.0955
401.4137, 549.8012
401.8958, 549.3146
402.3779, 548.3842
402.8600, 547.9695
403.3422, 548.7693
403.8243, 549.3873
404.3064, 548.8371
404.7885, 547.4175
405.2706, 546.1776
405.7527, 545.9509
406.2349, 546.6076
406.7170, 547.1371
407.1991, 547.3862
407.6812, 547.7228
408.1633, 548.5621
408.6454, 549.3876
409.1276, 549.5200
409.6097, 548.7003
410.0918, 547.5323
410.5739, 546.8291
411.0560, 546.5992
411.5381, 546.8234
412.0203, 548.0786
412.5024, 549.3216
412.9845, 550.0156
413.4666, 550.1534
413.9487, 549.9343
414.4308, 549.2796
414.9130, 548.3517
415.3951, 547.7680
415.8772, 547.5795
416.3593, 547.6136
416.8414, 547.9889
417.3235, 548.4660
417.8057, 548.6673
418.2878, 548.3477
418.7699, 548.0400
419.2520, 548.3607
419.7341, 549.2386
420.2162, 550.0623
420.6984, 550.8601
421.1805, 551.2228
421.6626, 550.2794
422.1447, 547.9968
422.6268, 546.4931
423.1089, 547.3281
423.5911, 549.0286
424.0732, 549.4887
424.5553, 548.4749
425.0374, 547.1439
425.5195, 546.2766
426.0016, 545.8544
426.4838, 545.5358
426.9659, 545.2914
427.4480, 545.1768
427.9301, 545.3126
428.4122, 545.5927
428.8943, 545.7756
429.3765, 545.7636
429.8586, 545.6819
430.3407, 545.7478
430.8228, 546.0433
431.3049, 546.3375
431.7870, 546.6389
432.2692, 546.9362
432.7513, 547.5419
433.2334, 548.2454
433.7155, 548.1308
434.1976, 546.2828
434.6797, 542.9007
435.1619, 540.8873
435.6440, 541.4255
436.1261, 542.0118
436.6082, 542.3531
437.0903, 542.4843
437.5724, 542.4268
438.0546, 542.1989
438.5367, 541.9280
439.0188, 541.8645
439.5009, 542.1605
439.9830, 542.1594
440.4651, 541.6078
440.9473, 540.9621
441.4294, 540.2673
441.9115, 539.6398
442.3936, 539.3069
442.8757, 539.4163
443.3578, 539.9369
443.8400, 540.9333
444.3221, 542.8783
444.8042, 544.1204
445.2863, 543.5061
445.7684, 542.2267
446.2505, 541.2975
446.7327, 540.9277
447.2148, 540.7952
447.6969, 540.7642
448.1790, 540.7804
448.6611, 540.4797
449.1432, 539.6658
449.6254, 538.8058
450.1075, 538.2209
450.5896, 537.8948
451.0717, 537.8589
451.5538, 538.1718
452.0359, 538.7438
452.5181, 539.8703
453.0002, 541.3758
453.4823, 541.8750
453.9644, 540.3449
454.4465, 537.9036
454.9286, 537.2278
455.4108, 538.8143
455.8929, 540.2288
456.3750, 541.1759
456.8571, 541.5394
457.3392, 540.9608
457.8214, 539.4855
458.3035, 537.7936
458.7856, 536.3096
459.2677, 535.0203
459.7498, 535.3790
460.2319, 539.8428
460.7141, 542.8687
461.1962, 541.4977
461.6783, 538.1818
462.1604, 536.5532
462.6425, 537.9676
463.1246, 540.8232
463.6068, 542.4044
464.0889, 542.2044
464.5710, 542.0300
465.0531, 541.9502
465.5352, 541.8328
466.0173, 541.4577
466.4995, 540.9826
466.9816, 540.8663
467.4637, 541.5599
467.9458, 542.6470
468.4279, 542.5883
468.9100, 540.6475
469.3922, 539.4811
469.8743, 540.6839
470.3564, 542.4786
470.8385, 543.3900
471.3206, 543.2051
471.8027, 542.9078
472.2849, 543.5822
472.7670, 544.8179
473.2491, 544.8875
473.7312, 543.3047
474.2133, 541.5045
474.6954, 540.4391
475.1776, 539.9285
475.6597, 539.6271
476.1418, 539.5165
476.6239, 539.5597
477.1060, 539.8023
477.5881, 540.1848
478.0703, 540.5500
478.5524, 540.8546
479.0345, 541.0724
479.5166, 541.0374
479.9987, 540.5399
480.4808, 540.8869
480.9630, 543.4330
481.4451, 545.7791
481.9272, 545.8925
482.4093, 544.2701
482.8914, 542.8652
483.3735, 542.8857
483.8557, 543.8640
484.3378, 544.1191
484.8199, 543.0915
485.3020, 542.0883
485.7841, 540.8558
486.2662, 539.8696
486.7484, 539.7057
487.2305, 540.2753
487.7126, 540.7863
488.1947, 540.2997
488.6768, 538.9576
489.1589, 539.1816
489.6411, 542.4818
490.1232, 544.9432
490.6053, 545.0116
491.0874, 543.8676
491.5695, 542.6384
492.0516, 541.5927
492.5338, 541.0626
493.0159, 541.6932
493.4980, 543.3318
493.9801, 544.5515
494.4622, 545.0608
494.9443, 545.2956
495.4265, 545.8583
495.9086, 546.4801
496.3907, 546.2521
496.8728, 543.9444
497.3549, 541.6034
497.8370, 541.1522
498.3192, 542.1710
498.8013, 543.1727
499.2834, 543.6555
499.7655, 543.6732
500.2476, 543.0939
500.7297, 541.3842
501.2119, 541.0599
501.6940, 543.9430
502.1761, 546.8886
502.6582, 547.4105
503.1403, 545.9394
503.6224, 544.3253
504.1045, 543.6445
504.5866, 543.8907
505.0688, 545.1707
505.5509, 549.5945
506.0330, 551.6313
506.5151, 548.8184
506.9972, 545.3381
507.4793, 544.5102
507.9615, 546.3291
508.4436, 548.4159
508.9257, 548.7120
509.4078, 547.5590
509.8899, 547.0919
510.3720, 547.6644
510.8542, 548.1484
511.3363, 547.7677
511.8184, 547.2722
512.3005, 547.7334
512.7827, 549.4813
513.2648, 550.5895
513.7469, 548.6991
514.2290, 545.0383
514.7111, 543.4351
515.1932, 544.6905
515.6754, 546.4457
516.1575, 546.8500
516.6396, 546.2413
517.1217, 546.2941
517.6038, 547.9215
518.0859, 549.2216
518.5681, 548.9813
519.0502, 547.9368
519.5323, 547.4155
520.0144, 547.7817
520.4965, 548.2932
520.9786, 547.9318
521.4608, 546.3649
521.9429, 546.0051
522.4250, 547.7997
522.9071, 549.5654
523.3892, 550.8978
523.8713, 551.5858
524.3535, 551.0311
524.8356, 549.0214
525.3177, 546.8542
525.7998, 547.0829
526.2819, 550.4677
526.7640, 552.4061
527.2462, 551.4860
527.7283, 550.2050
528.2104, 549.4987
528.6925, 549.3784
529.1746, 549.8500
529.6567, 551.2875
530.1389, 552.7216
530.6210, 552.4720
531.1031, 550.6693
531.5852, 549.6932
532.0673, 550.5281
532.5494, 551.9731
533.0316, 552.6699
533.5137, 552.6746
533.9958, 552.2591
534.4779, 550.5985
534.9600, 549.2629
535.4421, 550.0995
535.9243, 552.4300
536.4064, 553.7724
536.8885, 552.8538
537.3706, 550.7337
537.8527, 549.6434
538.3348, 550.0480
538.8170, 550.6217
539.2991, 551.7812
539.7812, 552.7235
540.2633, 552.7234
540.7454, 552.1016
541.2275, 551.8964
541.7097, 552.8664
542.1918, 554.2426
542.6739, 553.7006
543.1560, 550.2990
543.6381, 547.9892
544.1202, 548.3586
544.6024, 549.4305
545.0845, 550.1240
545.5666, 550.4199
546.0487, 550.6367
546.5308, 551.1768
547.0129, 551.6229
547.4951, 550.8748
547.9772, 548.9847
548.4593, 548.1976
548.9414, 549.8378
549.4235, 552.6146
549.9056, 554.2689
550.3878, 554.7859
550.8699, 554.7892
551.3520, 554.2034
551.8341, 553.2838
552.3162, 551.8035
552.7983, 550.1033
553.2805, 549.2409
553.7626, 549.8616
554.2447, 551.6008
554.7268, 553.5143
555.2089, 556.5900
555.6910, 557.9846
556.1732, 556.6188
556.6553, 554.6485
557.1374, 552.8922
557.6195, 551.6762
558.1016, 551.5293
558.5837, 553.1260
559.0659, 555.4977
559.5480, 556.1110
560.0301, 554.5828
560.5122, 553.5916
560.9943, 554.2980
561.4764, 555.4418
561.9586, 555.9146
562.4407, 555.7164
562.9228, 555.0118
563.4049, 552.9324
563.8870, 551.0189
564.3691, 551.6161
564.8513, 554.1825
565.3334, 555.5753
565.8155, 554.2258
566.2976, 551.3947
566.7797, 549.3798
567.2618, 548.2724
567.7440, 547.9642
568.2261, 549.3203
568.7082, 550.6766
569.1903, 550.8227
569.6724, 550.1900
570.1545, 549.9890
570.6367, 550.8877
571.1188, 552.3519
571.6009, 553.1991
572.0830, 553.2197
572.5651, 553.4557
573.0472, 554.5718
573.5294, 555.3525
574.0115, 554.9026
574.4936, 553.5844
574.9757, 552.4044
575.4578, 551.6684
575.9399, 551.3915
576.4221, 551.9525
576.9042, 553.1307
577.3863, 553.5655
577.8684, 552.7200
578.3505, 551.4553
578.8326, 550.6635
579.3148, 550.3752
579.7969, 550.5452
580.2790, 551.8161
580.7611, 552.8829
581.2432, 552.8939
581.7253, 552.3405
582.2075, 552.1140
582.6896, 552.5108
583.1717, 553.0901
583.6538, 553.3421
584.1359, 553.3439
584.6180, 552.4098
585.1002, 548.6982
585.5823, 546.2733
586.0643, 547.1996
586.5464, 549.7819
