##NAMES=Arfvedsonite
##RRUFFID=R110049
##IDEAL CHEMISTRY=NaNa_2_(Fe^2+^_4_Fe^3+^)Si_8_O_22_(OH)_2_
##LOCALITY=Mount Malosa, Zomba District, Malawi
##OWNER=RRUFF
##SOURCE=Donald M Doell
##DESCRIPTION=Black prismatic crystal
##STATUS=The identification of this mineral has been confirmed only by single crystal X-ray diffraction.
##URL=rruff.info/R110049
167.1487, 241.2521
167.6309, 243.9481
168.1130, 246.8369
168.5951, 249.7873
169.0772, 252.8718
169.5593, 256.4702
170.0414, 261.2946
170.5236, 266.6389
171.0057, 271.5863
171.4878, 275.5643
171.9699, 279.3111
172.4520, 283.3551
172.9341, 287.6988
173.4163, 292.1696
173.8984, 296.6364
174.3805, 301.1869
174.8626, 305.8198
175.3447, 309.7492
175.8268, 314.2523
176.3090, 321.3177
176.7911, 330.9070
177.2732, 340.7362
177.7553, 347.2975
178.2374, 350.9760
178.7195, 354.2968
179.2017, 357.8914
179.6838, 361.9881
180.1659, 366.8377
180.6480, 372.4774
181.1301, 378.8254
181.6122, 386.4168
182.0944, 394.8901
182.5765, 402.8477
183.0586, 408.6576
183.5407, 413.7014
184.0228, 421.5975
184.5049, 432.6064
184.9871, 444.7653
185.4692, 455.5377
185.9513, 465.2709
186.4334, 475.2345
186.9155, 486.8453
187.3976, 499.3081
187.8798, 510.1357
188.3619, 519.1481
188.8440, 526.8499
189.3261, 533.8956
189.8082, 540.3026
190.2903, 545.3043
190.7725, 549.0623
191.2546, 551.3612
191.7367, 550.5453
192.2188, 546.4975
192.7009, 539.6672
193.1830, 530.5380
193.6652, 519.1744
194.1473, 506.2608
194.6294, 491.4404
195.1115, 474.9430
195.5936, 459.8786
196.0757, 446.5664
196.5579, 434.4633
197.0400, 422.6265
197.5221, 411.0428
198.0042, 399.8492
198.4863, 388.6773
198.9684, 377.5543
199.4506, 367.9627
199.9327, 360.1493
200.4148, 353.8338
200.8969, 348.7495
201.3790, 344.9863
201.8611, 341.6927
202.3433, 338.1997
202.8254, 334.4018
203.3075, 331.5641
203.7896, 329.7176
204.2717, 328.9415
204.7538, 329.2213
205.2360, 330.2490
205.7181, 333.3812
206.2002, 340.3467
206.6823, 352.0315
207.1644, 361.6895
207.6465, 368.5809
208.1287, 373.2148
208.6108, 377.2643
209.0929, 380.8046
209.5750, 383.5695
210.0571, 385.1302
210.5392, 385.1569
211.0214, 385.6451
211.5035, 386.9967
211.9856, 388.8539
212.4677, 389.9142
212.9498, 389.8820
213.4319, 389.7465
213.9141, 390.2373
214.3962, 391.7028
214.8783, 392.4194
215.3604, 391.5673
215.8425, 389.9512
216.3246, 391.1317
216.8067, 396.2797
217.2889, 401.9671
217.7710, 406.1940
218.2531, 408.6896
218.7352, 410.4099
219.2173, 410.8648
219.6994, 410.6061
220.1816, 412.1977
220.6637, 416.0042
221.1458, 421.0184
221.6279, 427.0686
222.1100, 435.6505
222.5921, 441.4218
223.0743, 443.7190
223.5564, 442.9050
224.0385, 440.4933
224.5206, 435.9639
225.0027, 430.7849
225.4848, 425.8900
225.9670, 421.6795
226.4491, 416.6715
226.9312, 409.3525
227.4133, 401.0033
227.8954, 397.9316
228.3775, 402.4997
228.8597, 408.9584
229.3418, 413.7780
229.8239, 415.9235
230.3060, 418.7154
230.7881, 421.9077
231.2702, 425.8677
231.7524, 432.4938
232.2345, 443.0672
232.7166, 454.3278
233.1987, 464.1625
233.6808, 471.5587
234.1629, 479.6715
234.6451, 488.6807
235.1272, 498.5704
235.6093, 509.4905
236.0914, 521.6661
236.5735, 534.5470
237.0556, 547.9127
237.5378, 562.0744
238.0199, 576.0633
238.5020, 589.8188
238.9841, 603.4402
239.4662, 616.5946
239.9483, 628.3757
240.4305, 640.9834
240.9126, 656.0203
241.3947, 675.4163
241.8768, 693.0650
242.3589, 708.6351
242.8410, 722.2507
243.3232, 734.7585
243.8053, 746.9215
244.2874, 756.8219
244.7695, 763.5991
245.2516, 767.8954
245.7337, 767.7363
246.2159, 762.7482
246.6980, 753.2430
247.1801, 740.4150
247.6622, 724.0443
248.1443, 704.4827
248.6264, 682.0463
249.1086, 656.4222
249.5907, 628.1327
250.0728, 595.6064
250.5549, 560.8791
251.0370, 529.3412
251.5191, 501.5027
252.0013, 475.9919
252.4834, 451.7597
252.9655, 428.3443
253.4476, 408.0856
253.9297, 391.3701
254.4118, 377.6740
254.8940, 365.5933
255.3761, 355.4704
255.8582, 346.3036
256.3403, 337.6935
256.8224, 329.4668
257.3046, 322.4230
257.7867, 316.7331
258.2688, 312.1649
258.7509, 308.3729
259.2330, 305.5125
259.7151, 303.1716
260.1973, 301.1521
260.6794, 299.4016
261.1615, 298.3916
261.6436, 298.3113
262.1257, 298.8182
262.6078, 299.3258
263.0900, 299.7075
263.5721, 300.3990
264.0542, 301.5637
264.5363, 303.2651
265.0184, 305.1815
265.5005, 307.3837
265.9827, 309.7654
266.4648, 312.1892
266.9469, 314.5703
267.4290, 317.2282
267.9111, 320.5662
268.3932, 324.6817
268.8754, 327.4713
269.3575, 328.6527
269.8396, 328.9316
270.3217, 329.2544
270.8038, 329.8229
271.2859, 329.5980
271.7681, 328.0595
272.2502, 325.2675
272.7323, 322.9159
273.2144, 321.1932
273.6965, 319.6047
274.1786, 317.7686
274.6608, 315.7447
275.1429, 313.0098
275.6250, 309.1917
276.1071, 304.5022
276.5892, 300.2738
277.0714, 296.5074
277.5535, 293.3954
278.0356, 291.3417
278.5177, 290.4536
278.9998, 289.4396
279.4819, 287.8448
279.9641, 285.9532
280.4462, 285.2520
280.9283, 285.9661
281.4104, 286.8916
281.8925, 286.9545
282.3746, 286.1412
282.8568, 285.6318
283.3389, 285.7792
283.8210, 286.2375
284.3031, 286.1390
284.7852, 285.4984
285.2673, 284.2238
285.7495, 282.0390
286.2316, 279.0156
286.7137, 276.0202
287.1958, 273.1559
287.6779, 270.3855
288.1600, 267.6991
288.6422, 265.0988
289.1243, 262.3354
289.6064, 259.0215
290.0885, 255.3315
290.5706, 252.3003
291.0527, 249.9774
291.5349, 248.4296
292.0170, 248.3085
292.4991, 249.4512
292.9812, 250.0581
293.4633, 248.4066
293.9454, 245.3765
294.4276, 244.0369
294.9097, 244.8210
295.3918, 246.1482
295.8739, 245.9278
296.3560, 244.4499
296.8381, 243.0686
297.3203, 242.6066
297.8024, 242.6612
298.2845, 242.3587
298.7666, 241.6518
299.2487, 240.8990
299.7308, 240.8006
300.2130, 240.9944
300.6951, 240.4314
301.1772, 238.0016
301.6593, 234.9218
302.1414, 232.8644
302.6235, 231.8346
303.1057, 231.3505
303.5878, 231.4311
304.0699, 231.7467
304.5520, 231.6547
305.0341, 230.5509
305.5162, 229.3190
305.9984, 228.8597
306.4805, 229.1208
306.9626, 229.7175
307.4447, 230.6173
307.9268, 231.6261
308.4089, 232.3907
308.8911, 232.4093
309.3732, 232.7989
309.8553, 234.8213
310.3374, 238.0546
310.8195, 241.1233
311.3016, 242.9878
311.7838, 244.4313
312.2659, 246.1209
312.7480, 248.1131
313.2301, 250.5186
313.7122, 253.6533
314.1943, 257.2774
314.6765, 260.8198
315.1586, 263.9095
315.6407, 266.9099
316.1228, 270.0086
316.6049, 273.1479
317.0870, 276.6821
317.5692, 280.7576
318.0513, 285.2978
318.5334, 290.1754
319.0155, 295.3250
319.4976, 300.8266
319.9797, 306.9290
320.4619, 313.7360
320.9440, 320.0142
321.4261, 324.8935
321.9082, 329.2324
322.3903, 333.8217
322.8724, 338.9323
323.3546, 344.1977
323.8367, 349.6783
324.3188, 355.3483
324.8009, 360.6909
325.2830, 365.4212
325.7651, 369.8747
326.2473, 374.2567
326.7294, 379.1081
327.2115, 383.3043
327.6936, 386.6090
328.1757, 389.1182
328.6578, 391.4457
329.1400, 394.6818
329.6221, 396.8604
330.1042, 397.1074
330.5863, 394.2252
331.0684, 391.3705
331.5505, 388.5573
332.0327, 385.7759
332.5148, 383.1162
332.9969, 381.2588
333.4790, 378.5567
333.9611, 374.2466
334.4432, 367.8596
334.9254, 361.6551
335.4075, 355.7767
335.8896, 350.0129
336.3717, 344.0822
336.8538, 337.9848
337.3359, 331.8313
337.8180, 325.6642
338.3001, 319.5145
338.7823, 313.3925
339.2644, 307.1969
339.7465, 301.3725
340.2286, 296.2605
340.7107, 291.8567
341.1928, 288.5023
341.6750, 286.4734
342.1571, 285.5262
342.6392, 284.9425
343.1213, 284.7697
343.6034, 284.6966
344.0855, 284.4406
344.5677, 284.0204
345.0498, 283.8344
345.5319, 283.9480
346.0140, 284.2912
346.4961, 284.4801
346.9782, 284.5456
347.4604, 285.4283
347.9425, 288.5410
348.4246, 293.0453
348.9067, 295.5718
349.3888, 295.7250
349.8709, 294.9976
350.3531, 294.7856
350.8352, 295.1156
351.3173, 296.0834
351.7994, 298.2561
352.2815, 300.9227
352.7636, 302.7813
353.2458, 303.8293
353.7279, 304.8887
354.2100, 306.8075
354.6921, 309.1850
355.1742, 311.3010
355.6563, 312.7138
356.1385, 314.0350
356.6206, 315.9252
357.1027, 318.2889
357.5848, 320.5986
358.0669, 322.9204
358.5490, 324.8755
359.0312, 326.0738
359.5133, 326.3452
359.9954, 326.1089
360.4775, 325.4188
360.9596, 324.4013
361.4417, 323.3351
361.9239, 322.4284
362.4060, 321.4282
362.8881, 320.3104
363.3702, 319.1682
363.8523, 317.3929
364.3344, 314.6564
364.8166, 311.2298
365.2987, 307.3889
365.7808, 302.3294
366.2629, 297.8346
366.7450, 294.8158
367.2271, 293.2633
367.7093, 290.9125
368.1914, 286.7979
368.6735, 282.2425
369.1556, 278.0677
369.6377, 274.3083
370.1198, 271.0420
370.6020, 268.3577
371.0841, 266.1779
371.5662, 264.2506
372.0483, 262.8675
372.5304, 261.4059
373.0125, 259.6124
373.4947, 257.4519
373.9768, 255.0003
374.4589, 251.8133
374.9410, 248.6626
375.4231, 246.6971
375.9052, 245.7880
376.3874, 246.5349
376.8695, 250.2348
377.3516, 256.7593
377.8337, 258.1631
378.3158, 253.2571
378.7979, 246.6551
379.2801, 243.0078
379.7622, 242.4215
380.2443, 241.7763
380.7264, 240.3460
381.2085, 238.5600
381.6906, 237.6340
382.1728, 237.5810
382.6549, 237.6862
383.1370, 237.9936
383.6191, 238.1618
384.1012, 236.4812
384.5833, 232.3444
385.0655, 227.7387
385.5476, 225.7361
386.0297, 225.6420
386.5118, 225.0495
386.9939, 222.1295
387.4760, 218.2783
387.9582, 215.6952
388.4403, 214.4167
388.9224, 213.1011
389.4045, 210.4247
389.8866, 207.1131
390.3687, 204.1613
390.8509, 201.9499
391.3330, 200.1946
391.8151, 199.0053
392.2972, 198.1982
392.7793, 197.0030
393.2614, 194.8666
393.7436, 192.3193
394.2257, 189.5607
394.7078, 186.3148
395.1899, 183.6826
395.6720, 182.4078
396.1541, 181.9287
396.6363, 181.3436
397.1184, 180.3320
397.6005, 179.2722
398.0826, 178.3161
398.5647, 177.4971
399.0468, 176.5535
399.5290, 175.5460
400.0111, 174.3551
400.4932, 172.8683
400.9753, 170.4705
401.4574, 168.6113
401.9395, 167.6332
402.4217, 167.3418
402.9038, 166.8428
403.3859, 166.0303
403.8680, 165.1675
404.3501, 164.4006
404.8322, 163.8176
405.3144, 162.9394
405.7965, 161.4487
406.2786, 160.0501
406.7607, 160.2565
407.2428, 162.5062
407.7249, 163.9177
408.2071, 163.1335
408.6892, 160.6058
409.1713, 159.3198
409.6534, 159.4152
410.1355, 159.9224
410.6176, 159.9612
411.0998, 159.6190
411.5819, 159.4275
412.0640, 159.5450
412.5461, 159.7629
413.0282, 159.7488
413.5103, 159.5252
413.9925, 159.2321
414.4746, 158.7020
414.9567, 158.2321
415.4388, 158.4068
415.9209, 159.3351
416.4030, 160.3311
416.8852, 160.9654
417.3673, 161.2668
417.8494, 161.2896
418.3315, 160.6490
418.8136, 160.0771
419.2957, 160.2029
419.7779, 160.9098
420.2600, 161.4184
420.7421, 161.1728
421.2242, 160.7171
421.7063, 160.5030
422.1884, 160.9690
422.6706, 161.0009
423.1527, 159.6399
423.6348, 157.7404
424.1169, 156.8983
424.5990, 158.5029
425.0811, 160.0764
425.5633, 160.8342
426.0454, 160.6463
426.5275, 160.5013
427.0096, 160.3503
427.4917, 160.2743
427.9738, 160.3430
428.4560, 160.5941
428.9381, 160.8817
429.4202, 161.0744
429.9023, 161.3091
430.3844, 162.3431
430.8665, 164.6965
431.3487, 166.3447
431.8308, 165.9257
432.3129, 163.3138
432.7950, 161.3351
433.2771, 160.0613
433.7592, 159.3303
434.2414, 159.1556
434.7235, 159.4739
435.2056, 159.5060
435.6877, 158.9872
436.1698, 158.0491
436.6519, 156.6325
437.1341, 154.7961
437.6162, 153.5132
438.0983, 153.9720
438.5804, 155.3460
439.0625, 156.2281
439.5446, 156.3592
440.0268, 156.0704
440.5089, 155.2434
440.9910, 154.2231
441.4731, 153.7242
441.9552, 154.8442
442.4373, 155.9679
442.9195, 155.8405
443.4016, 154.4624
443.8837, 153.3378
444.3658, 153.1807
444.8479, 153.4707
445.3300, 153.8124
445.8122, 154.3320
446.2943, 154.6283
446.7764, 154.4014
447.2585, 153.8943
447.7406, 153.7310
448.2227, 154.3321
448.7049, 154.9064
449.1870, 155.2193
449.6691, 155.2206
450.1512, 155.2713
450.6333, 155.4812
451.1154, 155.6255
451.5976, 155.3826
452.0797, 154.4920
452.5618, 154.1470
453.0439, 154.7248
453.5260, 155.8685
454.0081, 156.4319
454.4903, 156.3232
454.9724, 156.2494
455.4545, 156.5184
455.9366, 157.1342
456.4187, 158.2833
456.9008, 160.0437
457.3830, 161.8835
457.8651, 162.9435
458.3472, 163.5062
458.8293, 164.4560
459.3114, 166.2686
459.7935, 168.4203
460.2757, 170.2301
460.7578, 171.7781
461.2399, 173.5150
461.7220, 176.1124
462.2041, 178.8179
462.6862, 180.8386
463.1684, 181.9530
463.6505, 182.8643
464.1326, 183.9025
464.6147, 184.9459
465.0968, 185.8531
465.5789, 186.2147
466.0611, 186.7870
466.5432, 188.0901
467.0253, 190.0101
467.5074, 191.2959
467.9895, 191.1735
468.4716, 190.8965
468.9538, 191.1134
469.4359, 192.3680
469.9180, 192.8974
470.4001, 192.4381
470.8822, 191.4348
471.3643, 190.5170
471.8465, 189.6769
472.3286, 188.9719
472.8107, 188.5950
473.2928, 188.3858
473.7749, 187.2042
474.2570, 184.8979
474.7392, 182.4359
475.2213, 180.4406
475.7034, 178.8950
476.1855, 177.7546
476.6676, 177.0891
477.1497, 176.5748
477.6319, 175.8622
478.1140, 174.9600
478.5961, 173.8995
479.0782, 172.6384
479.5603, 171.2617
480.0424, 169.6929
480.5246, 167.9889
481.0067, 166.6624
481.4888, 166.1914
481.9709, 166.1474
482.4530, 166.1398
482.9352, 166.0084
483.4173, 166.1199
483.8994, 167.1208
484.3815, 168.3460
484.8636, 168.7737
485.3457, 167.3695
485.8279, 165.9725
486.3100, 165.0902
486.7921, 164.7352
487.2742, 164.2956
487.7563, 163.2554
488.2384, 162.6544
488.7206, 162.9327
489.2027, 163.6867
489.6848, 166.9064
490.1669, 174.5712
490.6490, 182.5973
491.1311, 183.5151
491.6133, 176.1221
492.0954, 169.8322
492.5775, 167.3758
493.0596, 168.2768
493.5417, 171.5419
494.0238, 177.1974
494.5060, 182.5195
494.9881, 185.3971
495.4702, 186.3658
495.9523, 186.6365
496.4344, 186.2092
496.9165, 185.7691
497.3987, 186.1162
497.8808, 186.9298
498.3629, 187.5992
498.8450, 187.9297
499.3271, 187.9880
499.8092, 187.5866
500.2914, 186.8480
500.7735, 186.4550
501.2556, 186.6955
501.7377, 187.3389
502.2198, 188.2590
502.7019, 189.4641
503.1841, 190.9137
503.6662, 192.4231
504.1483, 194.2647
504.6304, 196.8573
505.1125, 201.6362
505.5946, 204.7130
506.0768, 204.7818
506.5589, 202.6184
507.0410, 202.4380
507.5231, 205.0853
508.0052, 207.3327
508.4873, 207.3935
508.9695, 205.2469
509.4516, 202.4507
509.9337, 198.7268
510.4158, 195.5515
510.8979, 195.1402
511.3800, 196.9144
511.8622, 198.2451
512.3443, 198.1668
512.8264, 197.7197
513.3085, 198.3077
513.7906, 199.7346
514.2728, 201.2965
514.7549, 202.6735
515.2370, 203.9668
515.7191, 205.2473
516.2012, 206.5262
516.6833, 207.8228
517.1655, 208.7561
517.6476, 209.9330
518.1297, 211.8789
518.6118, 215.2570
519.0939, 218.7210
519.5760, 222.2616
520.0582, 225.7259
520.5403, 228.8283
521.0224, 230.9330
521.5045, 233.5034
521.9866, 236.9125
522.4688, 241.1775
522.9509, 246.0037
523.4330, 251.5063
523.9151, 257.3561
524.3972, 263.6642
524.8793, 270.4312
525.3615, 275.7612
525.8436, 279.1592
526.3257, 282.0865
526.8078, 286.8051
527.2899, 293.0040
527.7720, 299.1611
528.2542, 304.6157
528.7363, 309.6713
529.2184, 314.9103
529.7005, 320.1988
530.1826, 325.0689
530.6647, 329.2258
531.1469, 332.8248
531.6290, 336.0015
532.1111, 338.7047
532.5932, 341.2460
533.0753, 343.7157
533.5574, 346.1133
534.0396, 348.3969
534.5217, 350.8466
535.0038, 352.8780
535.4859, 354.3249
535.9680, 355.3080
536.4501, 356.2741
536.9323, 357.6323
537.4144, 358.2647
537.8965, 357.5213
538.3786, 355.3605
538.8607, 353.9792
539.3428, 353.7242
539.8250, 353.1992
540.3071, 351.1465
540.7892, 347.6652
541.2713, 343.2664
541.7534, 337.8989
542.2355, 332.0509
542.7177, 326.3529
543.1998, 320.7090
543.6819, 314.9632
544.1640, 308.5121
544.6461, 302.3781
545.1282, 297.7513
545.6104, 294.4413
546.0925, 291.1196
546.5746, 287.0244
547.0567, 282.7509
547.5388, 278.5416
548.0209, 274.2736
548.5031, 270.6809
548.9852, 268.4465
549.4673, 266.6818
549.9494, 264.4138
550.4315, 260.8819
550.9136, 258.0211
551.3958, 256.2248
551.8779, 255.1689
552.3600, 253.8567
552.8421, 252.1009
553.3242, 250.7226
553.8063, 250.2451
554.2885, 250.5161
554.7706, 250.3330
555.2527, 249.6806
555.7348, 248.7488
556.2169, 247.1936
556.6990, 245.5094
557.1812, 245.1086
557.6633, 246.4467
558.1454, 248.1909
558.6275, 249.3088
559.1096, 249.8956
559.5917, 250.1406
560.0739, 249.2297
560.5560, 248.8318
561.0381, 250.0289
561.5202, 252.5252
562.0023, 255.0368
562.4844, 256.8545
562.9666, 258.9541
563.4487, 261.9989
563.9308, 266.3683
564.4129, 269.6675
564.8950, 271.1133
565.3771, 272.3407
565.8593, 274.8456
566.3414, 279.0301
566.8235, 282.7209
567.3056, 285.5232
567.7877, 288.0884
568.2698, 291.8215
568.7520, 296.6722
569.2341, 301.1942
569.7162, 304.5351
570.1983, 307.4581
570.6804, 311.7133
571.1625, 317.0868
571.6447, 322.1838
572.1268, 326.0185
572.6089, 329.1959
573.0910, 332.3818
573.5731, 335.7924
574.0552, 338.3405
574.5374, 339.3526
575.0195, 339.3866
575.5016, 338.9715
575.9837, 338.8784
576.4658, 337.4879
576.9479, 334.3147
577.4301, 329.8203
577.9122, 324.8714
578.3943, 319.4661
578.8764, 313.4790
579.3585, 306.8584
579.8406, 299.6148
580.3228, 291.6029
580.8049, 282.6683
581.2870, 274.0075
581.7691, 266.5932
582.2512, 260.1192
582.7333, 253.1192
583.2155, 245.4339
583.6976, 237.8061
584.1797, 230.2718
584.6617, 223.2685
585.1439, 217.5307
585.6260, 213.6367
586.1081, 210.3679
586.5902, 207.3120
587.0723, 204.3069
587.5544, 201.1030
588.0366, 196.7861
588.5187, 193.0278
589.0008, 190.6722
589.4829, 189.6347
589.9650, 188.0216
590.4471, 185.2716
590.9293, 182.6563
591.4114, 180.8368
591.8935, 179.9128
592.3756, 178.9508
592.8577, 177.8750
593.3398, 176.9587
593.8220, 176.6198
594.3041, 176.7676
594.7862, 176.6789
595.2683, 176.1998
595.7504, 175.5075
596.2325, 174.5339
596.7147, 173.5065
597.1968, 173.0245
597.6789, 174.2561
598.1610, 175.3691
598.6431, 174.5215
599.1252, 172.2146
599.6074, 170.7816
600.0895, 172.3104
600.5716, 173.8295
601.0537, 173.7455
601.5358, 171.5056
602.0179, 169.7255
602.5001, 168.3086
602.9822, 167.4829
603.4643, 167.6166
603.9464, 169.1574
604.4285, 169.7864
604.9106, 169.0843
605.3928, 167.9561
605.8749, 167.8469
606.3570, 168.6832
606.8391, 169.4946
607.3212, 169.9657
607.8033, 170.2804
608.2855, 170.6588
608.7676, 171.1095
609.2497, 171.6829
609.7318, 172.6603
610.2139, 173.5767
610.6960, 173.8613
611.1782, 173.5267
611.6603, 173.5966
612.1424, 174.9523
612.6245, 176.4474
613.1066, 177.3403
613.5887, 177.2439
614.0709, 177.3329
614.5530, 177.6514
615.0351, 178.1231
615.5172, 178.7017
615.9993, 179.4332
616.4814, 180.0860
616.9636, 180.6029
617.4457, 181.0619
617.9278, 181.7016
618.4099, 182.4848
618.8920, 183.0379
619.3741, 183.0178
619.8563, 182.8187
620.3384, 183.1610
620.8205, 183.9090
621.3026, 184.3897
621.7847, 183.7525
622.2668, 183.0313
622.7490, 183.1356
623.2311, 184.2341
623.7132, 185.0804
624.1953, 185.1976
624.6774, 185.0527
625.1595, 184.9662
625.6417, 184.9516
626.1238, 184.9791
626.6059, 184.9815
627.0880, 185.1054
627.5701, 185.7739
628.0522, 187.1286
628.5344, 187.5238
629.0165, 186.2252
629.4986, 184.3655
629.9807, 184.4656
630.4628, 186.1577
630.9449, 187.4539
631.4271, 186.6610
631.9092, 185.4354
632.3913, 185.8493
632.8734, 187.6367
633.3555, 189.0600
633.8376, 188.9253
634.3198, 188.4219
634.8019, 188.2019
635.2840, 188.3333
635.7661, 188.7462
636.2482, 189.7469
636.7303, 190.7654
637.2125, 191.3100
637.6946, 190.9303
638.1767, 191.5582
638.6588, 193.6711
639.1409, 196.1036
639.6230, 196.8059
640.1052, 195.9398
640.5873, 196.0424
641.0694, 198.1416
641.5515, 200.8401
642.0336, 201.7602
642.5157, 201.4692
642.9979, 201.6428
643.4800, 203.5972
643.9621, 205.8953
644.4442, 207.4520
644.9263, 208.3970
645.4084, 209.5680
645.8906, 211.0598
646.3727, 212.9787
646.8548, 215.6236
647.3369, 219.1750
647.8190, 221.9038
648.3011, 223.5803
648.7833, 224.7450
649.2654, 225.6343
649.7475, 226.2117
650.2296, 227.0429
650.7117, 228.0932
651.1938, 229.6473
651.6760, 232.2947
652.1581, 235.7564
652.6402, 239.1443
653.1223, 242.3532
653.6044, 245.1527
654.0865, 246.6595
654.5687, 247.7399
655.0508, 250.0573
655.5329, 255.4545
656.0150, 260.9762
656.4971, 265.8890
656.9792, 270.0974
657.4614, 273.2044
657.9435, 273.9856
658.4256, 275.4088
658.9077, 278.7017
659.3898, 283.7584
659.8719, 288.0708
660.3541, 291.6577
660.8362, 294.4003
661.3183, 295.8050
661.8004, 296.2472
662.2825, 297.6284
662.7646, 300.1407
663.2468, 302.0217
663.7289, 301.1055
664.2110, 298.8649
664.6931, 297.3238
665.1752, 297.3574
