##NAMES=Arfvedsonite
##RRUFFID=R040127
##IDEAL CHEMISTRY=NaNa_2_(Fe^2+^_4_Fe^3+^)Si_8_O_22_(OH)_2_
##LOCALITY=Mont Saint-Hilaire, Rouville County, Quebec, Canada
##OWNER=RRUFF
##SOURCE=Bob Downs
##DESCRIPTION=Black prismatic crystal associated with white analcime, R040128
##STATUS=The identification of this mineral has been confirmed by X-ray diffraction and chemical analysis
##URL=rruff.info/R040127
##MEASURED CHEMISTRY=(Na_0.61_K_0.39_)Na_2.00_(Fe^2+^_2.40_Mg_0.80_Mn_0.75_Ca_0.05_)_&#931;=4_(Fe^3+^_0.60_Al_0.25_Mn_0.15_)(Si_0.99_Ti_0.01_)_8_O_22_((OH)_0.67_F_0.33_)_2_
129.6975, 1003.341
130.1796, 1099.529
130.6617, 1203.549
131.1439, 1309.465
131.6260, 1415.174
132.1081, 1518.352
132.5902, 1600.421
133.0723, 1648.497
133.5544, 1686.902
134.0366, 1726.411
134.5187, 1758.669
135.0008, 1767.144
135.4829, 1738.892
135.9650, 1675.860
136.4471, 1617.563
136.9293, 1565.535
137.4114, 1516.246
137.8935, 1469.539
138.3756, 1424.806
138.8577, 1379.765
139.3398, 1331.945
139.8220, 1281.198
140.3041, 1242.504
140.7862, 1208.568
141.2683, 1189.983
141.7504, 1197.913
142.2325, 1227.547
142.7147, 1261.524
143.1968, 1285.474
143.6789, 1299.422
144.1610, 1331.105
144.6431, 1387.420
145.1252, 1453.071
145.6074, 1520.229
146.0895, 1588.647
146.5716, 1662.244
147.0537, 1747.402
147.5358, 1843.408
148.0179, 1922.514
148.5001, 1960.323
148.9822, 1999.331
149.4643, 2081.594
149.9464, 2207.142
150.4285, 2326.878
150.9106, 2411.546
151.3928, 2454.615
151.8749, 2443.780
152.3570, 2343.043
152.8391, 2209.112
153.3212, 2086.220
153.8033, 1977.478
154.2855, 1882.322
154.7676, 1799.883
155.2497, 1730.997
155.7318, 1680.123
156.2139, 1656.985
156.6960, 1647.906
157.1782, 1635.431
157.6603, 1617.063
158.1424, 1606.849
158.6245, 1619.800
159.1066, 1649.810
159.5887, 1684.438
160.0709, 1726.951
160.5530, 1769.955
161.0351, 1802.845
161.5172, 1824.878
161.9993, 1838.047
162.4814, 1838.059
162.9636, 1830.291
163.4457, 1824.028
163.9278, 1825.070
164.4099, 1828.854
164.8920, 1826.378
165.3741, 1815.642
165.8563, 1804.235
166.3384, 1798.548
166.8205, 1795.350
167.3026, 1789.131
167.7847, 1778.992
168.2668, 1763.972
168.7490, 1738.888
169.2311, 1695.993
169.7132, 1660.803
170.1953, 1651.693
170.6774, 1657.615
171.1595, 1662.195
171.6417, 1658.838
172.1238, 1648.994
172.6059, 1634.595
173.0880, 1610.813
173.5701, 1592.540
174.0522, 1590.568
174.5344, 1596.710
175.0165, 1599.291
175.4986, 1591.894
175.9807, 1577.739
176.4628, 1565.731
176.9449, 1557.523
177.4271, 1548.383
177.9092, 1534.678
178.3913, 1519.513
178.8734, 1506.579
179.3555, 1496.506
179.8376, 1490.757
180.3197, 1495.283
180.8019, 1519.269
181.2840, 1537.087
181.7661, 1537.497
182.2482, 1529.145
182.7303, 1522.156
183.2124, 1521.094
183.6946, 1525.034
184.1767, 1531.693
184.6588, 1542.351
185.1409, 1553.610
185.6230, 1566.272
186.1051, 1578.295
186.5873, 1586.687
187.0694, 1589.444
187.5515, 1589.495
188.0336, 1595.891
188.5157, 1616.658
188.9978, 1629.331
189.4800, 1624.471
189.9621, 1612.366
190.4442, 1602.774
190.9263, 1599.870
191.4084, 1602.789
191.8905, 1610.422
192.3727, 1628.077
192.8548, 1640.847
193.3369, 1646.272
193.8190, 1646.586
194.3011, 1643.010
194.7832, 1635.958
195.2654, 1627.252
195.7475, 1621.161
196.2296, 1620.127
196.7117, 1616.987
197.1938, 1609.851
197.6759, 1601.121
198.1581, 1592.661
198.6402, 1585.108
199.1223, 1578.320
199.6044, 1571.979
200.0865, 1565.728
200.5686, 1560.769
201.0508, 1557.804
201.5329, 1555.520
202.0150, 1553.374
202.4971, 1551.077
202.9792, 1548.017
203.4613, 1543.615
203.9435, 1539.359
204.4256, 1529.986
204.9077, 1510.426
205.3898, 1489.847
205.8719, 1474.837
206.3540, 1466.491
206.8362, 1460.895
207.3183, 1451.872
207.8004, 1435.644
208.2825, 1426.145
208.7646, 1428.122
209.2467, 1432.312
209.7289, 1434.436
210.2110, 1433.474
210.6931, 1430.035
211.1752, 1425.036
211.6573, 1419.202
212.1395, 1408.975
212.6216, 1384.580
213.1037, 1364.376
213.5858, 1359.145
214.0679, 1367.760
214.5500, 1381.588
215.0322, 1393.254
215.5143, 1403.258
215.9964, 1407.219
216.4785, 1402.131
216.9606, 1393.918
217.4427, 1383.281
217.9249, 1371.143
218.4070, 1358.445
218.8891, 1344.867
219.3712, 1330.125
219.8533, 1324.952
220.3354, 1339.947
220.8176, 1354.730
221.2997, 1366.990
221.7818, 1374.774
222.2639, 1374.776
222.7460, 1363.392
223.2281, 1342.112
223.7103, 1328.145
224.1924, 1333.174
224.6745, 1332.892
225.1566, 1315.609
225.6387, 1291.126
226.1208, 1274.989
226.6030, 1277.036
227.0851, 1292.225
227.5672, 1299.105
228.0493, 1289.416
228.5314, 1282.182
229.0135, 1283.894
229.4957, 1288.468
229.9778, 1288.207
230.4599, 1279.500
230.9420, 1266.193
231.4241, 1257.928
231.9062, 1258.298
232.3884, 1257.822
232.8705, 1255.546
233.3526, 1251.907
233.8347, 1246.330
234.3168, 1238.802
234.7989, 1231.659
235.2811, 1229.532
235.7632, 1235.459
236.2453, 1239.204
236.7274, 1237.201
237.2095, 1234.887
237.6916, 1238.112
238.1738, 1247.001
238.6559, 1254.214
239.1380, 1247.818
239.6201, 1221.109
240.1022, 1205.847
240.5843, 1211.367
241.0665, 1221.804
241.5486, 1233.710
242.0307, 1244.690
242.5128, 1249.911
242.9949, 1242.550
243.4770, 1221.146
243.9592, 1204.517
244.4413, 1195.362
244.9234, 1188.778
245.4055, 1181.495
245.8876, 1175.103
246.3697, 1174.227
246.8519, 1184.477
247.3340, 1204.021
247.8161, 1215.749
248.2982, 1216.639
248.7803, 1212.924
249.2624, 1203.902
249.7446, 1192.719
250.2267, 1184.305
250.7088, 1181.462
251.1909, 1182.849
251.6730, 1185.021
252.1551, 1189.165
252.6373, 1191.592
253.1194, 1191.652
253.6015, 1189.432
254.0836, 1184.165
254.5657, 1174.948
255.0478, 1165.002
255.5300, 1159.651
256.0121, 1159.875
256.4942, 1161.079
256.9763, 1160.879
257.4584, 1161.847
257.9406, 1168.118
258.4227, 1180.841
258.9048, 1191.256
259.3869, 1189.249
259.8690, 1174.326
260.3511, 1157.440
260.8333, 1134.495
261.3154, 1115.845
261.7975, 1110.516
262.2796, 1118.083
262.7617, 1127.503
263.2438, 1130.067
263.7260, 1127.305
264.2081, 1128.681
264.6902, 1137.834
265.1723, 1147.110
265.6544, 1152.028
266.1365, 1152.868
266.6187, 1149.999
267.1008, 1140.303
267.5829, 1127.607
268.0650, 1120.190
268.5471, 1119.047
269.0292, 1120.576
269.5114, 1124.942
269.9935, 1130.122
270.4756, 1132.260
270.9577, 1128.326
271.4398, 1122.614
271.9219, 1119.828
272.4041, 1120.022
272.8862, 1121.276
273.3683, 1123.086
273.8504, 1125.203
274.3325, 1127.191
274.8146, 1129.264
275.2968, 1130.783
275.7789, 1131.119
276.2610, 1130.481
276.7431, 1129.659
277.2252, 1128.780
277.7073, 1128.048
278.1895, 1128.167
278.6716, 1129.644
279.1537, 1129.666
279.6358, 1124.710
280.1179, 1118.198
280.6000, 1116.504
281.0822, 1121.372
281.5643, 1128.964
282.0464, 1135.269
282.5285, 1140.220
283.0106, 1144.324
283.4927, 1149.470
283.9749, 1152.615
284.4570, 1148.225
284.9391, 1136.829
285.4212, 1128.507
285.9033, 1132.602
286.3854, 1148.930
286.8676, 1159.674
287.3497, 1163.846
287.8318, 1164.017
288.3139, 1158.632
288.7960, 1149.975
289.2781, 1143.653
289.7603, 1142.851
290.2424, 1146.576
290.7245, 1150.817
291.2066, 1154.708
291.6887, 1160.122
292.1708, 1170.571
292.6530, 1181.554
293.1351, 1186.354
293.6172, 1182.739
294.0993, 1175.653
294.5814, 1173.959
295.0635, 1181.644
295.5457, 1187.460
296.0278, 1189.696
296.5099, 1191.409
296.9920, 1195.354
297.4741, 1201.442
297.9562, 1207.183
298.4384, 1210.346
298.9205, 1211.148
299.4026, 1207.562
299.8847, 1191.163
300.3668, 1178.898
300.8489, 1181.078
301.3311, 1191.956
301.8131, 1198.270
302.2953, 1190.238
302.7774, 1171.747
303.2595, 1163.021
303.7416, 1170.667
304.2237, 1178.963
304.7058, 1186.350
305.1880, 1191.905
305.6701, 1194.061
306.1522, 1192.135
306.6343, 1188.690
307.1164, 1188.984
307.5985, 1195.331
308.0807, 1196.734
308.5628, 1182.490
309.0449, 1168.826
309.5270, 1168.079
310.0091, 1180.316
310.4912, 1192.572
310.9734, 1192.837
311.4555, 1182.198
311.9376, 1172.179
312.4197, 1162.546
312.9018, 1155.279
313.3839, 1153.435
313.8661, 1154.797
314.3482, 1153.485
314.8303, 1144.508
315.3124, 1132.264
315.7945, 1125.373
316.2766, 1124.947
316.7588, 1123.327
317.2409, 1114.651
317.7230, 1102.771
318.2051, 1094.065
318.6872, 1089.937
319.1693, 1088.004
319.6515, 1086.819
320.1336, 1086.443
320.6157, 1087.971
321.0978, 1093.506
321.5799, 1098.332
322.0620, 1093.036
322.5442, 1075.914
323.0263, 1061.985
323.5084, 1055.070
323.9905, 1053.831
324.4726, 1058.564
324.9547, 1069.276
325.4369, 1079.633
325.9190, 1083.654
326.4011, 1080.598
326.8832, 1076.108
327.3653, 1066.602
327.8474, 1058.950
328.3296, 1060.027
328.8117, 1066.654
329.2938, 1067.902
329.7759, 1056.124
330.2580, 1036.185
330.7401, 1030.589
331.2223, 1059.485
331.7044, 1077.761
332.1865, 1072.622
332.6686, 1058.354
333.1507, 1050.580
333.6328, 1053.951
334.1150, 1061.983
334.5971, 1064.817
335.0792, 1059.495
335.5613, 1056.956
336.0434, 1058.144
336.5255, 1060.903
337.0077, 1066.729
337.4898, 1073.606
337.9719, 1075.863
338.4540, 1066.976
338.9361, 1049.123
339.4182, 1042.630
339.9004, 1055.908
340.3825, 1068.582
340.8646, 1073.823
341.3467, 1075.402
341.8288, 1078.311
342.3109, 1084.671
342.7931, 1091.860
343.2752, 1096.411
343.7573, 1098.352
344.2394, 1096.974
344.7215, 1084.726
345.2036, 1075.286
345.6858, 1083.985
346.1679, 1110.765
346.6500, 1132.014
347.1321, 1126.563
347.6142, 1104.316
348.0963, 1093.464
348.5785, 1098.995
349.0606, 1108.913
349.5427, 1113.855
350.0248, 1115.655
350.5069, 1119.809
350.9890, 1130.035
351.4712, 1140.801
351.9533, 1149.221
352.4354, 1154.827
352.9175, 1154.402
353.3996, 1144.585
353.8817, 1129.919
354.3639, 1122.508
354.8460, 1123.353
355.3281, 1127.247
355.8102, 1134.981
356.2923, 1144.310
356.7744, 1153.662
357.2566, 1162.440
357.7387, 1167.940
358.2208, 1166.332
358.7029, 1155.395
359.1850, 1149.877
359.6671, 1155.378
360.1493, 1159.929
360.6314, 1157.373
361.1135, 1149.686
361.5956, 1140.905
362.0777, 1132.854
362.5598, 1127.240
363.0420, 1131.087
363.5241, 1154.537
364.0062, 1171.111
364.4883, 1173.844
364.9704, 1171.653
365.4525, 1171.177
365.9347, 1174.121
366.4168, 1179.304
366.8989, 1186.898
367.3810, 1197.395
367.8631, 1202.765
368.3452, 1200.176
368.8274, 1195.126
369.3095, 1187.099
369.7916, 1178.900
370.2737, 1177.482
370.7558, 1190.029
371.2379, 1207.974
371.7201, 1215.635
372.2022, 1211.856
372.6843, 1208.882
373.1664, 1212.215
373.6485, 1219.132
374.1306, 1226.009
374.6128, 1233.669
375.0949, 1237.932
375.5770, 1233.665
376.0591, 1224.929
376.5412, 1221.130
377.0233, 1224.884
377.5055, 1227.755
377.9876, 1218.432
378.4697, 1195.145
378.9518, 1185.949
379.4339, 1205.479
379.9160, 1226.348
380.3982, 1232.696
380.8803, 1226.779
381.3624, 1216.236
381.8445, 1204.594
382.3266, 1193.320
382.8087, 1186.752
383.2909, 1188.080
383.7730, 1190.468
384.2551, 1196.127
384.7372, 1201.233
385.2193, 1203.789
385.7014, 1202.857
386.1836, 1196.727
386.6657, 1181.244
387.1478, 1155.415
387.6299, 1140.973
388.1120, 1151.573
388.5941, 1157.885
389.0763, 1143.854
389.5584, 1120.961
390.0405, 1109.118
390.5226, 1119.171
391.0047, 1136.514
391.4868, 1136.454
391.9690, 1116.945
392.4511, 1099.423
392.9332, 1089.199
393.4153, 1083.627
393.8974, 1081.281
394.3795, 1081.996
394.8617, 1081.042
395.3438, 1073.855
395.8259, 1064.293
396.3080, 1059.999
396.7901, 1061.998
397.2722, 1062.578
397.7544, 1055.759
398.2365, 1042.859
398.7186, 1031.930
399.2007, 1022.346
399.6828, 1015.450
400.1649, 1012.471
400.6471, 1012.377
401.1292, 1014.202
401.6113, 1017.654
402.0934, 1020.724
402.5755, 1020.131
403.0576, 1013.673
403.5398, 1010.339
404.0219, 1013.393
404.5040, 1016.068
404.9861, 1014.750
405.4682, 1010.102
405.9503, 1004.064
406.4325, 997.4409
406.9146, 991.2887
407.3967, 990.2938
407.8788, 999.0170
408.3609, 1003.427
408.8430, 994.9602
409.3252, 985.3343
409.8073, 985.2913
410.2894, 995.9379
410.7715, 1007.302
411.2536, 1008.796
411.7357, 1002.997
412.2179, 1004.516
412.7000, 1017.880
413.1821, 1029.890
413.6642, 1028.941
414.1463, 1020.246
414.6284, 1013.547
415.1106, 1010.173
415.5927, 1009.807
416.0748, 1013.922
416.5569, 1021.055
417.0390, 1026.670
417.5211, 1029.185
418.0033, 1029.758
418.4854, 1030.349
418.9675, 1031.906
419.4496, 1029.723
419.9317, 1016.842
420.4138, 1005.770
420.8960, 1007.711
421.3781, 1019.509
421.8602, 1028.885
422.3423, 1027.377
422.8244, 1018.523
423.3065, 1017.934
423.7887, 1033.367
424.2708, 1045.126
424.7529, 1052.662
425.2350, 1055.139
425.7171, 1049.702
426.1992, 1037.084
426.6814, 1023.879
427.1635, 1015.309
427.6456, 1011.315
428.1277, 1012.782
428.6098, 1022.765
429.0919, 1032.349
429.5741, 1038.329
430.0562, 1040.698
430.5383, 1038.158
431.0204, 1027.895
431.5025, 1018.115
431.9846, 1017.553
432.4668, 1023.457
432.9489, 1025.426
433.4310, 1020.071
433.9131, 1012.658
434.3952, 1009.723
434.8773, 1011.914
435.3595, 1011.803
435.8416, 1004.686
436.3237, 999.0598
436.8058, 1003.487
437.2879, 1013.761
437.7701, 1018.263
438.2522, 1010.711
438.7343, 995.9836
439.2164, 986.4328
439.6985, 984.3657
440.1806, 983.7144
440.6628, 987.2946
441.1449, 989.6360
441.6270, 985.2017
442.1091, 975.6511
442.5912, 968.3994
443.0733, 970.6256
443.5555, 978.9007
444.0376, 978.6420
444.5197, 965.8069
445.0018, 955.7844
445.4839, 957.9587
445.9660, 964.0362
446.4482, 966.8591
446.9303, 965.7014
447.4124, 960.0523
447.8945, 944.7404
448.3766, 925.6360
448.8587, 916.2366
449.3409, 918.7838
449.8230, 923.9158
450.3051, 924.0595
450.7872, 920.0653
451.2693, 920.4213
451.7514, 930.9663
452.2336, 938.7395
452.7157, 939.2471
453.1978, 934.5048
453.6799, 924.8522
454.1620, 911.1641
454.6441, 900.1323
455.1263, 901.4954
455.6084, 918.2178
456.0905, 930.4914
456.5726, 941.1223
457.0547, 943.8044
457.5368, 929.4300
458.0190, 907.4071
458.5011, 892.7875
458.9832, 892.4445
459.4653, 899.0306
459.9474, 902.8468
460.4295, 903.8490
460.9117, 903.8177
461.3938, 901.5109
461.8759, 900.4646
462.3580, 906.3920
462.8401, 917.3839
463.3222, 922.7919
463.8044, 915.2122
464.2865, 904.4112
464.7686, 898.3534
465.2507, 896.5591
465.7328, 896.1962
466.2149, 895.9037
466.6971, 896.9816
467.1792, 902.6331
467.6613, 919.9073
468.1434, 926.1756
468.6255, 912.3978
469.1076, 895.6965
469.5898, 885.2174
470.0719, 881.2123
470.5540, 881.3629
471.0361, 884.6772
471.5182, 889.8094
472.0003, 893.1945
472.4825, 895.2143
472.9646, 894.3557
473.4467, 883.5291
473.9288, 874.6538
474.4109, 879.6151
474.8930, 896.8584
475.3752, 908.6514
475.8573, 899.2873
476.3394, 880.2217
476.8215, 870.3111
477.3036, 870.0648
477.7857, 875.5803
478.2679, 887.4645
478.7500, 901.8049
479.2321, 908.8741
479.7142, 907.1494
480.1963, 903.4308
480.6784, 896.0533
481.1606, 889.2057
481.6427, 887.4009
482.1248, 890.3405
482.6069, 893.9113
483.0890, 894.7049
483.5711, 893.9269
484.0533, 899.0322
484.5354, 918.1785
485.0175, 929.5492
485.4996, 923.1194
485.9817, 913.5659
486.4638, 912.7791
486.9460, 921.7644
487.4281, 933.3400
487.9102, 944.2479
488.3923, 953.3388
488.8744, 955.3238
489.3565, 948.5161
489.8387, 944.3226
490.3208, 949.8430
490.8029, 961.0261
491.2850, 968.9847
491.7671, 972.6985
492.2492, 976.2579
492.7314, 981.8496
493.2135, 987.5051
493.6956, 990.6683
494.1777, 991.2989
494.6598, 990.9084
495.1419, 990.0109
495.6241, 989.5054
496.1062, 995.5377
496.5883, 1016.587
497.0704, 1032.233
497.5525, 1040.852
498.0346, 1043.387
498.5168, 1037.929
498.9989, 1025.907
499.4810, 1014.632
499.9631, 1010.055
500.4452, 1011.034
500.9273, 1013.935
501.4095, 1019.343
501.8916, 1024.090
502.3737, 1025.240
502.8558, 1025.941
503.3379, 1031.002
503.8200, 1041.111
504.3022, 1052.962
504.7843, 1067.956
505.2664, 1082.515
505.7485, 1092.281
506.2306, 1097.113
506.7127, 1098.646
507.1949, 1097.490
507.6770, 1094.633
508.1591, 1094.575
508.6412, 1102.957
509.1233, 1105.682
509.6054, 1092.285
510.0876, 1080.684
510.5697, 1088.587
511.0518, 1112.852
511.5339, 1132.988
512.0161, 1130.655
512.4982, 1115.941
512.9803, 1118.539
513.4624, 1141.661
513.9445, 1162.486
514.4266, 1171.758
514.9088, 1176.012
515.3909, 1184.960
515.8730, 1199.312
516.3551, 1209.410
516.8372, 1206.731
517.3193, 1202.678
517.8015, 1209.128
518.2836, 1224.419
518.7657, 1239.770
519.2478, 1250.639
519.7299, 1258.044
520.2120, 1264.308
520.6942, 1269.175
521.1763, 1273.366
521.6584, 1274.888
522.1405, 1277.648
522.6226, 1283.174
523.1047, 1291.719
523.5869, 1303.504
524.0690, 1319.282
524.5511, 1337.038
525.0332, 1354.000
525.5153, 1370.163
525.9974, 1384.708
526.4796, 1397.002
526.9617, 1408.364
527.4438, 1421.063
527.9259, 1434.735
528.4080, 1444.422
528.8901, 1447.487
529.3723, 1448.306
529.8544, 1445.327
530.3365, 1442.759
530.8186, 1450.632
531.3007, 1472.059
531.7828, 1496.432
532.2650, 1508.038
532.7471, 1503.663
533.2292, 1506.952
533.7113, 1527.359
534.1934, 1544.722
534.6755, 1551.730
535.1577, 1552.577
535.6398, 1553.753
536.1219, 1557.443
536.6040, 1558.449
537.0861, 1549.755
537.5682, 1534.423
538.0504, 1522.460
538.5325, 1515.298
539.0146, 1509.787
539.4967, 1503.814
539.9788, 1497.747
540.4609, 1493.466
540.9431, 1490.738
541.4252, 1489.813
541.9073, 1492.736
542.3894, 1496.199
542.8715, 1495.870
543.3536, 1492.250
543.8358, 1490.923
544.3179, 1497.735
544.8000, 1509.065
545.2821, 1506.637
545.7642, 1482.179
546.2463, 1466.780
546.7285, 1479.375
547.2106, 1495.756
547.6927, 1497.065
548.1748, 1483.484
548.6569, 1467.240
549.1390, 1447.672
549.6211, 1432.355
550.1032, 1433.446
550.5853, 1447.366
551.0674, 1458.340
551.5496, 1460.054
552.0317, 1456.530
552.5138, 1454.343
552.9959, 1454.721
553.4780, 1452.145
553.9601, 1445.075
554.4423, 1437.139
554.9244, 1428.744
555.4065, 1420.763
555.8886, 1413.167
556.3707, 1405.768
556.8528, 1402.900
557.3350, 1415.366
557.8171, 1439.885
558.2992, 1447.804
558.7813, 1432.648
559.2634, 1412.814
559.7455, 1397.069
560.2277, 1386.469
560.7098, 1383.332
561.1919, 1392.904
561.6740, 1400.731
562.1561, 1400.316
562.6382, 1397.138
563.1204, 1397.728
563.6025, 1402.028
564.0846, 1405.701
564.5667, 1406.135
565.0488, 1402.487
565.5309, 1389.834
566.0131, 1361.638
566.4952, 1341.015
566.9773, 1339.089
567.4594, 1340.256
567.9415, 1333.863
568.4236, 1321.415
568.9058, 1311.959
569.3879, 1310.053
569.8700, 1312.086
570.3521, 1319.056
570.8342, 1327.420
571.3163, 1322.560
571.7985, 1298.975
572.2806, 1271.449
572.7627, 1258.409
573.2448, 1261.858
573.7269, 1260.477
574.2090, 1250.346
574.6912, 1240.295
575.1733, 1232.938
575.6554, 1226.586
576.1375, 1220.589
576.6196, 1214.253
577.1017, 1203.856
577.5839, 1183.031
578.0660, 1155.463
578.5481, 1133.294
579.0302, 1116.890
579.5123, 1104.922
579.9944, 1099.153
580.4766, 1095.490
580.9587, 1084.978
581.4408, 1065.272
581.9229, 1049.676
582.4050, 1046.215
582.8871, 1041.911
583.3693, 1024.663
583.8514, 1000.177
584.3335, 981.1640
584.8156, 973.5706
585.2977, 973.7274
585.7798, 979.2589
586.2620, 991.6670
586.7441, 989.8471
587.2262, 963.1771
587.7083, 938.0020
588.1904, 933.1469
588.6725, 938.5950
589.1547, 937.6276
589.6368, 924.7785
590.1189, 914.0779
590.6010, 914.4049
591.0831, 919.5141
591.5652, 923.3423
592.0474, 924.4047
592.5295, 919.6193
593.0116, 905.9485
593.4937, 887.8704
593.9758, 879.5320
594.4579, 885.0739
594.9401, 890.6016
595.4222, 901.4863
595.9043, 906.0079
596.3864, 891.8166
596.8685, 866.5932
597.3506, 850.0676
597.8328, 851.9733
598.3149, 860.1078
598.7970, 864.4139
599.2791, 866.2731
599.7612, 870.1613
600.2433, 876.9696
600.7255, 881.6738
601.2076, 879.6272
601.6897, 871.7118
602.1718, 865.1029
602.6539, 859.1177
603.1360, 855.5519
603.6182, 854.6639
604.1003, 856.0934
604.5824, 861.7770
605.0645, 869.9707
605.5466, 874.5818
606.0287, 870.9391
606.5109, 863.4684
606.9930, 858.0441
607.4751, 854.6317
607.9572, 853.3476
608.4393, 854.6028
608.9214, 856.5309
609.4036, 857.4989
609.8857, 857.4948
610.3678, 856.2618
610.8499, 852.9903
611.3320, 849.6516
611.8141, 844.7880
612.2963, 841.2661
612.7784, 843.9758
613.2605, 851.9696
613.7426, 857.4719
614.2247, 852.8038
614.7068, 842.9824
615.1890, 840.7444
615.6711, 846.3757
616.1532, 854.2600
616.6353, 865.7568
617.1174, 873.5198
617.5995, 866.6849
618.0817, 844.8665
618.5638, 829.0749
619.0459, 819.7628
619.5280, 816.9963
620.0101, 825.1779
620.4922, 837.7845
620.9744, 847.4481
621.4565, 852.4791
621.9386, 854.8444
