##NAMES=Argentojarosite
##RRUFFID=R060097
##IDEAL CHEMISTRY=Ag^1+^Fe^3+^_3_(S^6+^O_4_)_2_(OH)_6_
##LOCALITY=unknown
##OWNER=RRUFF
##SOURCE=University of Arizona Mineral Museum
##DESCRIPTION=Yellowish-brown flat hexagonal plates
##STATUS=The identification of this mineral has been confirmed by X-ray diffraction and chemical analysis
##URL=rruff.info/R060097
##MEASURED CHEMISTRY=Ag_1.00_Fe^3+^_3.00_(S_1.00_O_4_)_2_(OH)_6_
93.46680, 44.04651
93.94891, 44.03384
94.43103, 44.10234
94.91315, 43.87978
95.39526, 43.43587
95.87738, 42.91087
96.35950, 42.37585
96.84161, 41.78599
97.32373, 41.19436
97.80585, 40.52287
98.28796, 39.71135
98.77008, 38.73521
99.25220, 37.69742
99.73431, 36.72289
100.2164, 35.80825
100.6985, 34.87460
101.1807, 33.96021
101.6628, 33.11536
102.1449, 32.39275
102.6270, 31.81857
103.1091, 31.36517
103.5912, 30.90771
104.0734, 30.33316
104.5555, 29.85441
105.0376, 29.57028
105.5197, 29.41331
106.0018, 29.24224
106.4839, 28.92496
106.9661, 28.41389
107.4482, 28.08392
107.9303, 27.94845
108.4124, 27.92791
108.8945, 28.02902
109.3766, 28.23605
109.8588, 28.43665
110.3409, 28.44458
110.8230, 28.20509
111.3051, 28.19317
111.7872, 28.58305
112.2693, 29.20950
112.7515, 29.80025
113.2336, 30.23164
113.7157, 30.73178
114.1978, 31.58096
114.6799, 32.76006
115.1620, 34.05059
115.6442, 35.38041
116.1263, 36.74767
116.6084, 37.97707
117.0905, 39.01456
117.5726, 39.88926
118.0547, 40.63756
118.5369, 41.25919
119.0190, 41.72606
119.5011, 41.94413
119.9832, 41.73046
120.4653, 41.70660
120.9474, 42.04834
121.4296, 42.54173
121.9117, 43.00757
122.3938, 43.36733
122.8759, 43.67517
123.3580, 44.11332
123.8401, 44.73763
124.3223, 45.45546
124.8044, 46.29432
125.2865, 47.21898
125.7686, 48.17763
126.2507, 49.15036
126.7328, 50.13542
127.2150, 51.11096
127.6971, 52.15020
128.1792, 53.11926
128.6613, 53.90729
129.1434, 54.54607
129.6255, 55.19811
130.1077, 55.99379
130.5898, 56.93175
131.0719, 57.88044
131.5540, 58.79752
132.0361, 59.75020
132.5182, 60.77502
133.0004, 61.85010
133.4825, 63.11246
133.9646, 64.71906
134.4467, 66.59832
134.9288, 68.63485
135.4109, 71.26827
135.8931, 74.10437
136.3752, 75.86950
136.8573, 76.71688
137.3394, 75.94962
137.8215, 73.16975
138.3036, 68.65340
138.7858, 63.26101
139.2679, 57.32429
139.7500, 50.68355
140.2321, 44.79946
140.7142, 39.74128
141.1963, 35.41926
141.6785, 31.90036
142.1606, 29.15587
142.6427, 27.01407
143.1248, 25.31125
143.6069, 24.21316
144.0890, 23.22790
144.5712, 22.33027
145.0533, 21.53884
145.5354, 20.85795
146.0175, 20.29394
146.4996, 19.84390
146.9817, 19.51134
147.4639, 19.40670
147.9460, 19.24857
148.4281, 18.97033
148.9102, 18.64864
149.3923, 18.38318
149.8744, 18.21559
150.3566, 18.10822
150.8387, 17.96881
151.3208, 17.77100
151.8029, 17.60671
152.2850, 17.50587
152.7671, 17.46461
153.2493, 17.47980
153.7314, 17.57688
154.2135, 17.70920
154.6956, 17.79434
155.1777, 17.82383
155.6598, 17.82484
156.1420, 17.78391
156.6241, 17.69459
157.1062, 17.68760
157.5883, 17.86807
158.0704, 18.14033
158.5525, 18.44580
159.0347, 18.78635
159.5168, 19.11008
159.9989, 19.30808
160.4810, 19.28719
160.9631, 19.37389
161.4452, 19.78441
161.9274, 20.28031
162.4095, 20.62185
162.8916, 20.68528
163.3737, 20.56738
163.8558, 20.59064
164.3379, 20.93566
164.8201, 21.18771
165.3022, 21.19057
165.7843, 21.08441
166.2664, 21.05466
166.7485, 21.21622
167.2306, 21.54450
167.7128, 21.83730
168.1949, 22.10659
168.6770, 22.32917
169.1591, 22.43964
169.6412, 22.49710
170.1233, 22.63119
170.6055, 22.94701
171.0876, 23.43858
171.5697, 23.76863
172.0518, 23.85815
172.5339, 23.89775
173.0160, 23.93651
173.4982, 23.99057
173.9803, 24.10782
174.4624, 24.34958
174.9445, 24.70589
175.4266, 24.97453
175.9087, 25.08614
176.3909, 25.15901
176.8730, 25.27541
177.3551, 25.44028
177.8372, 25.65941
178.3193, 26.02606
178.8014, 26.46066
179.2836, 26.70603
179.7657, 26.60897
180.2478, 26.32606
180.7299, 26.09576
181.2120, 25.95519
181.6941, 25.77841
182.1763, 25.48710
182.6584, 25.10368
183.1405, 24.65375
183.6226, 24.11127
184.1047, 23.51051
184.5868, 22.95760
185.0690, 22.45814
185.5511, 22.00958
186.0332, 21.60884
186.5153, 21.24939
186.9974, 20.91339
187.4795, 20.57515
187.9617, 20.24115
188.4438, 20.01369
188.9259, 19.94819
189.4080, 19.94626
189.8901, 19.99560
190.3722, 20.08368
190.8544, 20.18960
191.3365, 20.28934
191.8186, 20.37805
192.3007, 20.54255
192.7828, 20.76283
193.2649, 21.07689
193.7471, 21.48669
194.2292, 22.00076
194.7113, 22.64246
195.1934, 23.43589
195.6755, 24.40311
196.1576, 25.41848
196.6398, 26.40167
197.1219, 27.48771
197.6040, 28.73287
198.0861, 30.14007
198.5682, 31.69722
199.0503, 33.38360
199.5325, 35.20924
200.0146, 37.20096
200.4967, 39.36178
200.9788, 41.66378
201.4609, 44.08826
201.9430, 46.63835
202.4252, 49.32456
202.9073, 52.22453
203.3894, 55.37162
203.8715, 58.33150
204.3536, 61.10882
204.8357, 63.68325
205.3179, 66.01665
205.8000, 68.11053
206.2821, 70.03001
206.7642, 71.77505
207.2463, 73.38078
207.7284, 75.02970
208.2106, 76.77425
208.6927, 78.57691
209.1748, 80.38415
209.6569, 82.19749
210.1390, 84.02457
210.6211, 85.83531
211.1033, 87.65857
211.5854, 89.59389
212.0675, 91.75895
212.5496, 94.05862
213.0317, 96.30689
213.5138, 98.50510
213.9960, 100.6030
214.4781, 102.4747
214.9602, 104.2289
215.4423, 106.1049
215.9244, 108.3345
216.4065, 110.7950
216.8886, 112.9686
217.3708, 114.7881
217.8529, 116.3956
218.3350, 117.8556
218.8171, 119.1886
219.2992, 120.4544
219.7813, 121.7685
220.2635, 123.0651
220.7456, 123.8672
221.2277, 124.0204
221.7098, 123.7809
222.1919, 123.4707
222.6740, 122.8507
223.1562, 121.5177
223.6383, 119.2019
224.1204, 115.9254
224.6025, 111.9348
225.0846, 106.7697
225.5667, 101.3134
226.0489, 95.52939
226.5310, 89.59285
227.0131, 83.74720
227.4952, 78.09470
227.9773, 72.67976
228.4594, 67.69838
228.9416, 63.29014
229.4237, 59.22895
229.9058, 55.52051
230.3879, 52.13244
230.8700, 49.06773
231.3521, 46.32031
231.8343, 43.87769
232.3164, 41.64081
232.7985, 39.62556
233.2806, 37.77712
233.7627, 36.09403
234.2448, 34.56484
234.7270, 33.17527
235.2091, 31.92566
235.6912, 30.80318
236.1733, 29.69465
236.6554, 28.49697
237.1375, 27.40958
237.6197, 26.53979
238.1018, 25.83190
238.5839, 25.14780
239.0660, 24.40576
239.5481, 23.62720
240.0302, 22.92997
240.5124, 22.29664
240.9945, 21.74428
241.4766, 21.32625
241.9587, 21.00074
242.4408, 20.66843
242.9229, 20.28088
243.4051, 19.84582
243.8872, 19.38473
244.3693, 18.83648
244.8514, 18.35022
245.3335, 18.00562
245.8156, 17.77952
246.2978, 17.60885
246.7799, 17.48147
247.2620, 17.37876
247.7441, 17.25994
248.2262, 17.12897
248.7083, 16.97787
249.1905, 16.80318
249.6726, 16.60564
250.1547, 16.37711
250.6368, 16.08869
251.1189, 15.79727
251.6010, 15.58936
252.0832, 15.47280
252.5653, 15.38619
253.0474, 15.28848
253.5295, 15.18915
254.0116, 15.13910
254.4937, 15.19748
254.9759, 15.25373
255.4580, 15.16676
255.9401, 14.93178
256.4222, 14.70436
256.9043, 14.59162
257.3864, 14.57363
257.8686, 14.55169
258.3507, 14.52206
258.8328, 14.46205
259.3149, 14.33176
259.7970, 14.14247
260.2791, 13.99048
260.7613, 13.95345
261.2434, 14.01322
261.7255, 14.06540
262.2076, 14.08391
262.6897, 14.11491
263.1718, 14.18266
263.6540, 14.28464
264.1361, 14.41141
264.6182, 14.59547
265.1003, 14.81443
265.5824, 14.92466
266.0645, 14.84019
266.5467, 14.76109
267.0288, 14.76702
267.5109, 14.85261
267.9930, 15.00864
268.4751, 15.26382
268.9572, 15.58568
269.4394, 15.81795
269.9215, 15.88454
270.4036, 15.97495
270.8857, 16.18328
271.3678, 16.45652
271.8499, 16.71089
272.3321, 16.89632
272.8142, 17.03525
273.2963, 17.19604
273.7784, 17.35444
274.2605, 17.58171
274.7426, 17.88090
275.2248, 18.25254
275.7069, 18.71097
276.1890, 19.27614
276.6711, 19.89393
277.1532, 20.41074
277.6353, 20.75140
278.1175, 21.13210
278.5996, 21.55419
279.0817, 22.04707
279.5638, 22.64896
280.0459, 23.37687
280.5280, 24.18767
281.0102, 25.00880
281.4923, 25.83097
281.9744, 26.67896
282.4565, 27.47268
282.9386, 28.33603
283.4207, 29.40861
283.9029, 30.71029
284.3850, 32.08081
284.8671, 33.26580
285.3492, 34.16829
285.8313, 35.12093
286.3134, 36.18860
286.7956, 37.26409
287.2777, 38.29402
287.7598, 39.26272
288.2419, 40.18248
288.7240, 41.06413
289.2061, 41.88417
289.6883, 42.73114
290.1704, 43.68129
290.6525, 44.58664
291.1346, 45.32355
291.6167, 45.93264
292.0988, 46.57053
292.5810, 47.39845
293.0631, 48.43982
293.5452, 49.40072
294.0273, 50.18126
294.5094, 50.98370
294.9915, 51.90874
295.4737, 52.91222
295.9558, 53.88958
296.4379, 54.76368
296.9200, 55.54229
297.4021, 56.29368
297.8842, 57.00867
298.3664, 57.70656
298.8485, 58.41517
299.3306, 59.10362
299.8127, 59.72736
300.2948, 60.26125
300.7769, 60.70235
301.2591, 61.03645
301.7412, 61.39684
302.2233, 61.45270
302.7054, 61.14447
303.1875, 60.53288
303.6696, 59.68468
304.1518, 58.62840
304.6339, 57.34580
305.1160, 55.77468
305.5981, 53.89803
306.0802, 51.71393
306.5623, 49.09181
307.0445, 46.27754
307.5266, 43.40020
308.0087, 40.52179
308.4908, 37.68580
308.9729, 34.92454
309.4550, 32.09279
309.9372, 29.76641
310.4193, 28.14471
310.9014, 26.76136
311.3835, 25.34569
311.8656, 23.87564
312.3477, 22.48771
312.8299, 21.33340
313.3120, 20.42936
313.7941, 19.60280
314.2762, 18.82955
314.7583, 18.13893
315.2404, 17.54558
315.7226, 17.04341
316.2047, 16.62291
316.6868, 16.28613
317.1689, 16.02658
317.6510, 15.74315
318.1331, 15.39803
318.6153, 15.06862
319.0974, 14.80232
319.5795, 14.55688
320.0616, 14.24678
320.5437, 13.82219
321.0258, 13.34694
321.5080, 13.03169
321.9901, 13.04252
322.4722, 13.02152
322.9543, 12.98062
323.4364, 12.88503
323.9185, 12.66604
324.4007, 12.31146
324.8828, 11.91893
325.3649, 11.66408
325.8470, 11.62138
326.3291, 11.58455
326.8112, 11.56394
327.2934, 11.54082
327.7755, 11.49173
328.2576, 11.42009
328.7397, 11.35854
329.2218, 11.34764
329.7039, 11.40473
330.1861, 11.42742
330.6682, 11.38607
331.1503, 11.34344
331.6324, 11.32287
332.1145, 11.32368
332.5966, 11.33993
333.0788, 11.37149
333.5609, 11.41521
334.0430, 11.41683
334.5251, 11.28129
335.0072, 11.20600
335.4893, 11.25503
335.9715, 11.38233
336.4536, 11.52536
336.9357, 11.65209
337.4178, 11.76748
337.8999, 11.87850
338.3820, 11.93290
338.8642, 12.06846
339.3463, 12.39014
339.8284, 12.73864
340.3105, 12.95005
340.7926, 12.98817
341.2747, 12.96586
341.7568, 13.05655
342.2390, 13.30542
342.7211, 13.55791
343.2032, 13.84601
343.6853, 14.11006
344.1674, 14.29080
344.6495, 14.40512
345.1317, 14.53293
345.6138, 14.75960
346.0959, 15.09437
346.5780, 15.37161
347.0601, 15.53805
347.5422, 15.69474
348.0244, 15.87372
348.5065, 16.06141
348.9886, 16.22425
349.4707, 16.33505
349.9528, 16.41621
350.4349, 16.55520
350.9171, 16.76701
351.3992, 17.02355
351.8813, 17.37792
352.3634, 17.74068
352.8455, 18.02363
353.3276, 18.19709
353.8098, 18.28697
354.2919, 18.30804
354.7740, 18.20165
355.2561, 18.20864
355.7382, 18.48017
356.2203, 18.77367
356.7025, 18.95362
357.1846, 19.00851
357.6667, 19.00435
358.1488, 19.00483
358.6309, 19.01198
359.1130, 18.97494
359.5952, 18.92377
360.0773, 18.78388
360.5594, 18.50197
361.0415, 18.11526
361.5236, 17.69723
362.0057, 17.28419
362.4879, 16.87433
362.9700, 16.45537
363.4521, 16.02686
363.9342, 15.59436
364.4163, 15.14873
364.8984, 14.70482
365.3806, 14.27562
365.8627, 13.86204
366.3448, 13.46937
366.8269, 13.10274
367.3090, 12.76042
367.7911, 12.44809
368.2733, 12.19963
368.7554, 11.95566
369.2375, 11.65665
369.7196, 11.30539
370.2017, 10.98129
370.6838, 10.75191
371.1660, 10.60154
371.6481, 10.46760
372.1302, 10.37155
372.6123, 10.24200
373.0944, 9.984921
373.5765, 9.660951
374.0587, 9.404904
374.5408, 9.295336
375.0229, 9.263833
375.5050, 9.222584
375.9871, 9.173368
376.4692, 9.096890
376.9514, 8.937690
377.4335, 8.769545
377.9156, 8.712106
378.3977, 8.816538
378.8798, 8.923069
379.3619, 8.891550
379.8441, 8.756632
380.3262, 8.673694
380.8083, 8.699784
381.2904, 8.766973
381.7725, 8.806574
382.2546, 8.821712
382.7368, 8.783437
383.2189, 8.625156
383.7010, 8.431163
384.1831, 8.326479
384.6652, 8.327067
385.1473, 8.359681
385.6295, 8.372153
386.1116, 8.367893
386.5937, 8.373632
387.0758, 8.372643
387.5579, 8.397730
388.0400, 8.514286
388.5222, 8.683183
389.0043, 8.756838
389.4864, 8.640685
389.9685, 8.431049
390.4506, 8.385821
390.9327, 8.593053
391.4149, 8.733892
391.8970, 8.661886
392.3791, 8.525177
392.8612, 8.523678
393.3433, 8.696123
393.8254, 8.898978
394.3076, 8.960614
394.7897, 8.841250
395.2718, 8.791443
395.7539, 8.848861
396.2360, 8.934524
396.7181, 9.021626
397.2003, 9.101511
397.6824, 9.154757
398.1645, 9.163241
398.6466, 9.145435
399.1287, 9.197861
399.6108, 9.385293
400.0930, 9.566075
400.5751, 9.731149
401.0572, 9.880616
401.5393, 10.02297
402.0214, 10.15824
402.5035, 10.26779
402.9857, 10.30963
403.4678, 10.21882
403.9499, 10.25297
404.4320, 10.51032
404.9141, 10.78573
405.3962, 10.95824
405.8784, 11.05621
406.3605, 11.18956
406.8426, 11.44472
407.3247, 11.80434
407.8068, 12.13292
408.2889, 12.39901
408.7711, 12.67621
409.2532, 12.99608
409.7353, 13.32715
410.2174, 13.61296
410.6995, 13.83279
411.1816, 14.07589
411.6638, 14.47288
412.1459, 15.03427
412.6280, 15.68617
413.1101, 16.51790
413.5922, 17.35473
414.0743, 18.03646
414.5565, 18.60958
415.0386, 19.29289
415.5207, 20.27148
416.0028, 21.47664
416.4849, 22.62912
416.9670, 23.64129
417.4492, 24.82230
417.9313, 26.40701
418.4134, 28.23266
418.8955, 30.11165
419.3776, 31.98633
419.8597, 33.94046
420.3419, 36.10394
420.8240, 38.45585
421.3061, 40.82159
421.7882, 43.19675
422.2703, 45.48848
422.7524, 47.52808
423.2346, 49.33974
423.7167, 51.18086
424.1988, 53.16707
424.6809, 55.22420
425.1630, 57.32047
425.6451, 59.44574
426.1273, 61.41606
426.6094, 63.00178
427.0915, 64.30058
427.5736, 65.88184
428.0557, 67.93991
428.5378, 70.05972
429.0200, 71.99537
429.5021, 73.86584
429.9842, 75.92727
430.4663, 78.29068
430.9484, 80.78876
431.4305, 83.13772
431.9127, 85.22068
432.3948, 87.45572
432.8769, 90.13445
433.3590, 92.73438
433.8411, 94.91320
434.3232, 96.64616
434.8054, 98.06341
435.2875, 99.23693
435.7696, 100.1793
436.2517, 101.0426
436.7338, 102.1201
437.2159, 102.7585
437.6981, 102.7964
438.1802, 102.3732
438.6623, 101.6945
439.1444, 100.8141
439.6265, 99.54053
440.1086, 97.52951
440.5908, 94.59317
441.0729, 91.53612
441.5550, 88.29881
442.0371, 84.96993
442.5192, 81.38637
443.0013, 77.73666
443.4835, 74.47266
443.9656, 71.96915
444.4477, 69.99352
444.9298, 67.85668
445.4119, 65.39872
445.8940, 63.16884
446.3762, 61.51835
446.8583, 60.06877
447.3404, 58.49797
447.8225, 56.74250
448.3046, 55.05397
448.7867, 53.80000
449.2689, 52.86343
449.7510, 51.57309
450.2331, 49.79148
450.7152, 47.75248
451.1973, 45.56256
451.6794, 43.26482
452.1616, 40.93361
452.6437, 38.48191
453.1258, 36.09503
453.6079, 33.98940
454.0900, 32.13247
454.5721, 30.33728
455.0543, 28.51621
455.5364, 26.72564
456.0185, 25.07744
456.5006, 23.56877
456.9827, 22.17624
457.4648, 20.84097
457.9470, 19.65150
458.4291, 18.76573
458.9112, 18.17336
459.3933, 17.60508
459.8754, 16.81506
460.3575, 15.81348
460.8397, 15.03454
461.3218, 14.57647
461.8039, 14.18446
462.2860, 13.84059
462.7681, 13.50638
463.2502, 13.12791
463.7324, 12.68866
464.2145, 12.23536
464.6966, 11.83735
465.1787, 11.49662
465.6608, 11.21499
466.1429, 11.05946
466.6251, 10.89567
467.1072, 10.64495
467.5893, 10.33638
468.0714, 10.04461
468.5535, 9.813893
469.0356, 9.633346
469.5178, 9.471817
469.9999, 9.329610
470.4820, 9.204385
470.9641, 9.118259
471.4462, 9.033103
471.9283, 8.915435
472.4105, 8.762801
472.8926, 8.608613
473.3747, 8.487523
473.8568, 8.386534
474.3389, 8.253088
474.8210, 8.071643
475.3032, 7.894283
475.7853, 7.750235
476.2674, 7.635706
476.7495, 7.553311
477.2316, 7.537826
477.7137, 7.502568
478.1959, 7.346129
478.6780, 7.119833
479.1601, 6.976776
479.6422, 6.972333
480.1243, 7.030895
480.6064, 7.070732
481.0886, 7.097226
481.5707, 7.051039
482.0528, 6.818886
482.5349, 6.607788
483.0170, 6.608001
483.4991, 6.753866
483.9813, 6.822992
484.4634, 6.683841
484.9455, 6.416446
485.4276, 6.259757
485.9097, 6.321574
486.3918, 6.341729
486.8740, 6.266234
487.3561, 6.186867
487.8382, 6.193296
488.3203, 6.274172
488.8024, 6.332675
489.2845, 6.274683
489.7667, 6.117145
490.2488, 6.035866
490.7309, 6.078137
491.2130, 6.121598
491.6951, 6.136505
492.1772, 6.133790
492.6594, 6.121030
493.1415, 6.100173
493.6236, 6.080038
494.1057, 6.078987
494.5878, 6.091858
495.0699, 6.068073
495.5521, 5.981478
496.0342, 5.898614
496.5163, 5.882189
496.9984, 5.906172
497.4805, 5.913145
497.9626, 5.872264
498.4448, 5.830062
498.9269, 5.823059
499.4090, 5.846555
499.8911, 5.891047
500.3732, 5.960563
500.8553, 6.027122
501.3375, 6.046525
501.8196, 6.007927
502.3017, 5.977503
502.7838, 5.967491
503.2659, 5.959733
503.7480, 5.942571
504.2302, 5.917051
504.7123, 5.882437
505.1944, 5.835089
505.6765, 5.792881
506.1586, 5.812480
506.6407, 5.973620
507.1228, 6.066806
507.6049, 6.046765
508.0871, 5.995636
508.5692, 5.954790
509.0513, 5.935116
509.5334, 5.941564
510.0155, 5.981963
510.4977, 6.050176
510.9798, 6.116194
511.4619, 6.182220
511.9440, 6.241297
512.4261, 6.293051
512.9083, 6.336006
513.3904, 6.364482
513.8725, 6.377611
514.3546, 6.391970
514.8367, 6.442199
515.3188, 6.502395
515.8010, 6.464564
516.2831, 6.285110
516.7652, 6.182750
517.2473, 6.366492
517.7294, 6.739863
518.2115, 6.970652
518.6937, 6.979724
519.1758, 6.946365
519.6579, 6.919009
520.1400, 6.910838
520.6221, 6.956072
521.1042, 7.061435
521.5864, 7.173212
522.0685, 7.227931
522.5506, 7.215478
523.0327, 7.256050
523.5148, 7.363924
523.9969, 7.499866
524.4791, 7.677618
524.9612, 7.866426
525.4433, 8.022924
525.9254, 8.131642
526.4075, 8.219239
526.8896, 8.324881
527.3718, 8.454385
527.8539, 8.569546
528.3360, 8.641581
528.8181, 8.730514
529.3002, 8.878824
529.7823, 9.058064
530.2645, 9.207881
530.7466, 9.288573
531.2287, 9.370716
531.7108, 9.555850
532.1929, 9.837206
532.6750, 10.11215
533.1572, 10.35695
533.6393, 10.58702
534.1214, 10.83976
534.6035, 11.10473
535.0856, 11.29949
535.5677, 11.27507
536.0499, 11.28885
536.5320, 11.57901
537.0141, 12.07433
537.4962, 12.55690
537.9783, 12.93511
538.4604, 13.24746
538.9426, 13.55242
539.4247, 13.83774
539.9068, 14.15727
540.3889, 14.55007
540.8710, 14.93589
541.3531, 15.23870
541.8353, 15.50447
542.3174, 15.86133
542.7995, 16.38823
543.2816, 16.97962
543.7637, 17.37093
544.2458, 17.47360
544.7280, 17.67870
545.2101, 18.13803
545.6922, 18.62650
546.1743, 19.00812
546.6564, 19.31059
547.1385, 19.64773
547.6207, 20.14233
548.1028, 20.64717
548.5849, 20.89565
549.0670, 20.89903
549.5491, 20.94913
550.0313, 21.16059
550.5134, 21.44588
550.9955, 21.66935
551.4776, 21.82604
551.9597, 22.02044
552.4418, 22.36416
552.9240, 22.67579
553.4061, 22.78747
553.8882, 22.73852
554.3703, 22.67377
554.8524, 22.66600
555.3345, 22.68850
555.8167, 22.68152
556.2988, 22.64461
556.7809, 22.57543
557.2630, 22.49740
557.7451, 22.37006
558.2272, 22.16522
558.7094, 21.89164
559.1915, 21.57750
559.6736, 21.23841
560.1557, 20.86506
560.6378, 20.42173
561.1199, 19.89474
561.6021, 19.39405
562.0842, 18.93221
562.5663, 18.52203
563.0484, 18.21967
563.5305, 17.99292
564.0126, 17.66788
564.4948, 17.10788
564.9769, 16.47463
565.4590, 15.91758
565.9411, 15.43189
566.4232, 14.98613
566.9053, 14.56537
567.3875, 14.19219
567.8696, 13.91245
568.3517, 13.77667
568.8338, 13.56371
569.3159, 13.25823
569.7980, 12.89358
570.2802, 12.42503
570.7623, 11.91971
571.2444, 11.50130
571.7265, 11.22926
572.2086, 11.03403
572.6907, 10.79509
573.1729, 10.49844
573.6550, 10.20405
574.1371, 9.869596
574.6192, 9.589309
575.1013, 9.440417
575.5834, 9.369485
576.0656, 9.263590
576.5477, 9.062909
577.0298, 8.854081
577.5119, 8.753733
577.9940, 8.737360
578.4761, 8.667756
578.9583, 8.504240
579.4404, 8.317080
579.9225, 8.173268
580.4046, 8.071384
580.8867, 7.964481
581.3688, 7.842592
581.8510, 7.725744
582.3331, 7.628882
582.8152, 7.540228
583.2973, 7.427614
583.7794, 7.287617
584.2615, 7.171082
584.7437, 7.151732
585.2258, 7.239991
585.7079, 7.236874
586.1900, 7.034253
586.6721, 6.874880
587.1542, 6.820765
587.6363, 6.836370
588.1184, 6.906787
588.6005, 7.024127
589.0826, 7.108553
589.5648, 7.051546
