##NAMES=Argentopyrite
##RRUFFID=R090026
##IDEAL CHEMISTRY=Ag^1+^Fe_2_S^2-^_3_
##LOCALITY=Schaft 209, Aue, Niederschlema, Erzgebirge, Saxony, Germany
##OWNER=RRUFF
##SOURCE=Mark N. Feinglos
##DESCRIPTION=Bronze tarnished rectangular prism. Sample used by Yang et al (2009) for structure determination.
##STATUS=The identification of this mineral is confirmed by single-crystal X-ray diffraction and chemical analysis.
##URL=rruff.info/R090026
##MEASURED CHEMISTRY=Ag_0.96_Fe_2.01_S_3_
92.37695, 149.4062
92.85907, 149.2496
93.34119, 149.4237
93.82330, 148.6092
94.30542, 147.1263
94.78754, 145.5664
95.26965, 144.1228
95.75177, 142.3157
96.23389, 139.8064
96.71600, 137.1341
97.19812, 134.8884
97.68024, 133.2033
98.16235, 131.8102
98.64447, 130.3855
99.12659, 128.9513
99.60870, 127.1345
100.0908, 124.8302
100.5729, 122.6366
101.0551, 121.1633
101.5372, 120.7423
102.0193, 121.1119
102.5014, 121.0161
102.9835, 119.7763
103.4656, 118.7005
103.9478, 118.0756
104.4299, 117.7606
104.9120, 117.4679
105.3941, 116.9690
105.8762, 116.2314
106.3583, 115.5116
106.8405, 114.6912
107.3226, 113.9368
107.8047, 113.3894
108.2868, 113.0473
108.7689, 112.7396
109.2510, 112.2837
109.7332, 111.6676
110.2153, 110.9969
110.6974, 110.0263
111.1795, 109.0676
111.6616, 108.7029
112.1437, 109.2760
112.6259, 109.9946
113.1080, 109.9208
113.5901, 109.1236
114.0722, 108.3226
114.5543, 108.0184
115.0364, 108.1828
115.5185, 108.2615
116.0007, 108.1138
116.4828, 107.8552
116.9649, 107.5231
117.4470, 107.1275
117.9291, 106.7188
118.4112, 106.3475
118.8934, 105.9885
119.3755, 105.7424
119.8576, 105.6476
120.3397, 105.6295
120.8218, 105.6426
121.3039, 105.6674
121.7861, 105.6969
122.2682, 105.7134
122.7503, 106.0348
123.2324, 105.9589
123.7145, 105.0389
124.1966, 103.7499
124.6788, 102.8083
125.1609, 102.6565
125.6430, 103.1792
126.1251, 103.3621
126.6072, 102.9264
127.0893, 102.5154
127.5715, 102.5597
128.0536, 102.9478
128.5357, 103.0632
129.0178, 102.2817
129.4999, 100.7936
129.9821, 99.87649
130.4642, 99.91101
130.9463, 100.3551
131.4284, 100.7037
131.9105, 100.9441
132.3926, 101.0683
132.8748, 101.0322
133.3569, 100.8807
133.8390, 100.6700
134.3211, 100.4019
134.8032, 100.0907
135.2853, 99.77402
135.7674, 99.42336
136.2496, 99.11308
136.7317, 98.79350
137.2138, 98.52306
137.6959, 98.44979
138.1780, 98.84035
138.6601, 99.78822
139.1423, 100.2076
139.6244, 99.58914
140.1065, 98.84389
140.5886, 98.23721
141.0707, 97.82009
141.5528, 97.53894
142.0350, 97.34357
142.5171, 97.27496
142.9992, 97.19132
143.4813, 96.92355
143.9634, 96.75182
144.4455, 96.99391
144.9277, 97.68375
145.4098, 98.44496
145.8919, 98.65463
146.3740, 97.97761
146.8561, 97.30689
147.3382, 96.52947
147.8204, 95.81778
148.3025, 95.46900
148.7846, 95.64413
149.2667, 96.01183
149.7488, 95.81325
150.2309, 94.90447
150.7131, 94.08871
151.1952, 93.65882
151.6773, 93.55595
152.1594, 93.61343
152.6415, 93.81064
153.1236, 94.11633
153.6058, 94.50723
154.0879, 95.05470
154.5700, 95.46471
155.0521, 95.39783
155.5342, 94.82989
156.0163, 94.34851
156.4985, 94.44168
156.9806, 94.57783
157.4627, 94.24238
157.9448, 93.24495
158.4269, 92.05213
158.9090, 91.31155
159.3912, 91.05174
159.8733, 91.23660
160.3554, 92.34518
160.8375, 93.60390
161.3196, 94.29259
161.8017, 94.07344
162.2839, 93.22953
162.7660, 92.60864
163.2481, 92.45519
163.7302, 92.20581
164.2123, 91.50933
164.6944, 90.74500
165.1766, 90.44979
165.6587, 90.95781
166.1408, 92.09862
166.6229, 92.75012
167.1050, 92.48608
167.5871, 92.20219
168.0693, 92.12160
168.5514, 92.15434
169.0335, 92.08375
169.5156, 91.75093
169.9977, 91.17871
170.4798, 90.77907
170.9620, 90.61187
171.4441, 90.51846
171.9262, 90.44913
172.4083, 90.39780
172.8904, 90.35342
173.3725, 90.29763
173.8547, 90.24377
174.3368, 90.25850
174.8189, 90.34355
175.3010, 90.49467
175.7831, 90.77745
176.2652, 91.20154
176.7474, 91.52467
177.2295, 91.53854
177.7116, 91.30699
178.1937, 90.97129
178.6758, 90.36695
179.1579, 89.74187
179.6401, 89.47624
180.1222, 89.63586
180.6043, 89.97795
181.0864, 90.56485
181.5685, 91.20655
182.0506, 91.54622
182.5328, 91.23775
183.0149, 90.52900
183.4970, 90.27205
183.9791, 90.96052
184.4612, 91.31843
184.9433, 90.43687
185.4255, 88.91910
185.9076, 87.84001
186.3897, 88.07705
186.8718, 89.46570
187.3539, 90.17432
187.8360, 89.49218
188.3182, 88.82528
188.8003, 88.52290
189.2824, 88.55105
189.7645, 88.79821
190.2466, 89.22906
190.7287, 89.86572
191.2109, 90.17371
191.6930, 89.88513
192.1751, 89.53138
192.6572, 89.30488
193.1393, 89.16485
193.6214, 88.92943
194.1036, 88.39986
194.5857, 87.48222
195.0678, 87.05572
195.5499, 87.38531
196.0320, 87.83961
196.5141, 88.19047
196.9963, 88.40257
197.4784, 88.48355
197.9605, 88.39598
198.4426, 88.09251
198.9247, 88.12027
199.4068, 89.03548
199.8890, 89.83216
200.3711, 89.66917
200.8532, 88.54343
201.3353, 87.30515
201.8174, 86.74974
202.2995, 86.93541
202.7817, 86.99418
203.2638, 86.67002
203.7459, 86.33727
204.2280, 86.43098
204.7101, 87.01698
205.1922, 87.62523
205.6744, 87.76636
206.1565, 87.53992
206.6386, 87.41139
207.1207, 87.61445
207.6028, 87.91117
208.0849, 87.93631
208.5671, 87.60181
209.0492, 87.23453
209.5313, 87.09196
210.0134, 87.11044
210.4955, 87.18343
210.9776, 87.33472
211.4598, 87.50710
211.9419, 87.59480
212.4240, 87.63514
212.9061, 87.49197
213.3882, 86.83953
213.8703, 85.97092
214.3525, 85.45470
214.8346, 85.75726
215.3167, 86.63555
215.7988, 87.17271
216.2809, 87.12776
216.7630, 87.10398
217.2451, 87.45507
217.7273, 87.99564
218.2094, 88.40882
218.6915, 88.50584
219.1736, 88.31652
219.6557, 87.99318
220.1378, 87.31094
220.6200, 86.78001
221.1021, 86.72958
221.5842, 86.90682
222.0663, 86.86909
222.5484, 86.26663
223.0305, 85.19042
223.5127, 84.51830
223.9948, 84.52602
224.4769, 84.70366
224.9590, 85.19753
225.4411, 85.76540
225.9232, 85.98535
226.4054, 85.52625
226.8875, 84.47977
227.3696, 83.90730
227.8517, 84.30219
228.3338, 84.67641
228.8159, 84.93003
229.2981, 85.00858
229.7802, 84.78645
230.2623, 84.13438
230.7444, 83.13393
231.2265, 82.74581
231.7086, 83.55988
232.1908, 84.28771
232.6729, 84.60664
233.1550, 84.60551
233.6371, 84.48177
234.1192, 84.34134
234.6013, 84.19199
235.0835, 84.09677
235.5656, 84.06965
236.0477, 84.06764
236.5298, 84.05062
237.0119, 84.04810
237.4940, 84.15425
237.9762, 84.45521
238.4583, 84.87003
238.9404, 85.01203
239.4225, 84.57787
239.9046, 84.25951
240.3867, 84.35011
240.8689, 84.73987
241.3510, 85.18435
241.8331, 85.60023
242.3152, 85.94772
242.7973, 86.13383
243.2794, 86.22030
243.7616, 86.09489
244.2437, 85.45920
244.7258, 84.52742
245.2079, 84.01367
245.6900, 84.37910
246.1721, 85.13309
246.6543, 85.23347
247.1364, 84.45639
247.6185, 83.71360
248.1006, 83.48634
248.5827, 83.67538
249.0648, 83.93027
249.5470, 84.15659
250.0291, 84.37640
250.5112, 84.73928
250.9933, 85.34571
251.4754, 85.54838
251.9576, 84.58488
252.4397, 82.78609
252.9218, 81.62305
253.4039, 81.67461
253.8860, 82.28123
254.3681, 82.71468
254.8503, 82.97776
255.3324, 83.17837
255.8145, 83.35185
256.2966, 83.50761
256.7787, 83.72208
257.2608, 84.13919
257.7430, 84.43065
258.2251, 84.27797
258.7072, 83.74184
259.1893, 83.22188
259.6714, 83.02405
260.1535, 83.08171
260.6357, 82.99419
261.1178, 82.57269
261.5999, 82.21456
262.0820, 82.24076
262.5641, 82.54107
263.0462, 82.77384
263.5284, 82.61171
264.0105, 82.15101
264.4926, 81.98738
264.9747, 82.31277
265.4568, 82.67692
265.9389, 82.91608
266.4211, 83.02773
266.9032, 82.99889
267.3853, 82.75568
267.8674, 82.37003
268.3495, 82.18580
268.8316, 82.42524
269.3138, 82.52145
269.7959, 82.16636
270.2780, 81.57536
270.7601, 81.04729
271.2422, 80.71168
271.7243, 80.57652
272.2065, 80.72388
272.6886, 81.43493
273.1707, 81.94626
273.6528, 81.92890
274.1349, 81.67746
274.6170, 81.54636
275.0992, 81.70837
275.5813, 82.01485
276.0634, 82.09013
276.5455, 81.83017
277.0276, 81.51885
277.5097, 80.96253
277.9919, 80.50861
278.4740, 80.56967
278.9561, 81.28846
279.4382, 82.29617
279.9203, 82.94100
280.4024, 83.22124
280.8846, 83.08334
281.3667, 82.03014
281.8488, 80.94488
282.3309, 80.57597
282.8130, 81.07058
283.2951, 81.91496
283.7773, 82.32629
284.2594, 82.04211
284.7415, 81.97579
285.2236, 82.34272
285.7057, 82.75485
286.1878, 82.98767
286.6700, 83.01382
287.1521, 82.94308
287.6342, 82.88635
288.1163, 82.83129
288.5984, 82.84425
289.0805, 82.89444
289.5627, 83.03071
290.0448, 83.28091
290.5269, 83.64216
291.0090, 84.11565
291.4911, 84.75491
291.9732, 85.60471
292.4554, 86.02574
292.9375, 85.62748
293.4196, 85.19793
293.9017, 84.85285
294.3838, 84.67601
294.8659, 84.80251
295.3481, 85.36435
295.8302, 86.31801
296.3123, 87.04276
296.7944, 87.33961
297.2765, 87.60903
297.7586, 87.91484
298.2408, 88.24267
298.7229, 88.55826
299.2050, 88.84142
299.6871, 89.09948
300.1692, 89.35782
300.6513, 89.58960
301.1335, 89.85627
301.6156, 90.33972
302.0977, 90.78726
302.5798, 90.80777
303.0619, 90.26183
303.5440, 89.53207
304.0262, 89.44880
304.5083, 90.66877
304.9904, 91.58009
305.4725, 92.22843
305.9546, 92.54949
306.4367, 92.34437
306.9189, 91.62988
307.4010, 90.78648
307.8831, 90.35123
308.3652, 90.47607
308.8473, 90.64772
309.3294, 90.90191
309.8116, 91.16609
310.2937, 91.37581
310.7758, 91.54105
311.2579, 91.73693
311.7400, 92.05039
312.2221, 92.51839
312.7043, 92.85034
313.1864, 92.98618
313.6685, 93.06924
314.1506, 93.02988
314.6327, 92.97531
315.1148, 93.14791
315.5970, 93.74879
316.0791, 94.73904
316.5612, 95.57972
317.0433, 95.74813
317.5254, 96.35628
318.0075, 97.97782
318.4897, 100.1186
318.9718, 102.0561
319.4539, 103.4194
319.9360, 104.3267
320.4181, 105.1668
320.9002, 106.0103
321.3824, 106.6649
321.8645, 107.0031
322.3466, 107.2077
322.8287, 107.4837
323.3108, 107.8894
323.7929, 108.2986
324.2751, 108.4473
324.7572, 107.9073
325.2393, 107.9705
325.7214, 109.1952
326.2035, 110.5258
326.6856, 111.1186
327.1678, 110.9552
327.6499, 110.7402
328.1320, 111.3113
328.6141, 112.9543
329.0962, 113.9577
329.5783, 114.0984
330.0605, 113.9132
330.5426, 113.4764
331.0247, 112.8892
331.5068, 112.3129
331.9889, 111.8696
332.4710, 111.5511
332.9532, 111.2270
333.4353, 110.9061
333.9174, 110.5662
334.3995, 110.2968
334.8816, 109.9838
335.3637, 109.4643
335.8459, 108.6589
336.3280, 107.6182
336.8101, 106.5184
337.2922, 105.4268
337.7743, 104.1483
338.2564, 102.5424
338.7386, 100.8270
339.2206, 99.23582
339.7028, 97.81268
340.1849, 96.39558
340.6670, 94.69637
341.1491, 92.51024
341.6312, 90.56893
342.1133, 88.72497
342.5955, 87.21519
343.0776, 86.27364
343.5597, 85.83554
344.0418, 85.60889
344.5239, 85.34158
345.0060, 85.03185
345.4882, 84.71263
345.9703, 84.22780
346.4524, 83.89397
346.9345, 83.78196
347.4166, 83.88742
347.8987, 84.24210
348.3809, 84.91492
348.8630, 85.76446
349.3451, 86.14670
349.8272, 85.49275
350.3093, 85.27171
350.7914, 85.96130
351.2736, 87.06577
351.7557, 88.17143
352.2378, 89.13132
352.7199, 89.87467
353.2020, 90.16644
353.6841, 89.71755
354.1663, 89.70785
354.6484, 90.57898
355.1305, 91.67253
355.6126, 92.77835
356.0947, 93.79338
356.5768, 94.51633
357.0590, 94.61946
357.5411, 94.06925
358.0232, 93.77804
358.5053, 93.99357
358.9874, 94.20850
359.4695, 94.15262
359.9517, 93.93887
360.4338, 93.81433
360.9159, 93.93992
361.3980, 94.24472
361.8801, 94.47099
362.3622, 94.46201
362.8444, 94.73164
363.3265, 95.83949
363.8086, 97.12907
364.2907, 97.89524
364.7728, 97.89886
365.2549, 97.51274
365.7371, 97.19862
366.2192, 96.97368
366.7013, 96.65358
367.1834, 96.27171
367.6655, 95.69978
368.1476, 94.71342
368.6298, 93.34212
369.1119, 92.09267
369.5940, 91.37641
370.0761, 91.10779
370.5582, 90.93418
371.0403, 90.95555
371.5225, 90.83008
372.0046, 90.22021
372.4867, 89.29954
372.9688, 88.45513
373.4509, 87.92630
373.9330, 87.50106
374.4152, 86.85657
374.8973, 85.97623
375.3794, 85.02348
375.8615, 83.92663
376.3436, 82.88907
376.8257, 82.28011
377.3079, 82.34219
377.7900, 82.30444
378.2721, 81.33250
378.7542, 79.70105
379.2363, 78.67834
379.7184, 78.79864
380.2006, 79.34624
380.6827, 79.38664
381.1648, 78.93649
381.6469, 78.53331
382.1290, 78.48280
382.6111, 78.52287
383.0933, 78.21671
383.5754, 77.49627
384.0575, 76.79089
384.5396, 76.47433
385.0217, 76.49969
385.5038, 76.38594
385.9860, 76.06815
386.4681, 75.65599
386.9502, 75.13664
387.4323, 74.56276
387.9144, 74.07801
388.3965, 73.72775
388.8787, 73.55027
389.3608, 73.71236
389.8429, 74.44469
390.3250, 74.97308
390.8071, 75.08413
391.2892, 74.93178
391.7714, 74.62762
392.2535, 74.21017
392.7356, 73.82042
393.2177, 73.61295
393.6998, 73.60023
394.1819, 73.79327
394.6641, 74.43947
395.1462, 75.05167
395.6283, 75.47166
396.1104, 75.63393
396.5925, 75.36665
397.0746, 74.49620
397.5568, 73.19167
398.0389, 72.37785
398.5210, 72.41264
399.0031, 72.53353
399.4852, 72.83849
399.9673, 73.10855
400.4495, 73.03368
400.9316, 72.54188
401.4137, 71.94094
401.8958, 71.72509
402.3779, 72.09577
402.8600, 72.30816
403.3422, 72.07971
403.8243, 71.96608
404.3064, 72.36838
404.7885, 73.16000
405.2706, 73.91647
405.7527, 74.31998
406.2349, 74.39952
406.7170, 74.35668
407.1991, 74.13797
407.6812, 73.86216
408.1633, 73.48779
408.6454, 73.10770
409.1276, 72.83033
409.6097, 72.69681
410.0918, 72.64128
410.5739, 72.54494
411.0560, 72.37614
411.5381, 72.34142
412.0203, 72.59879
412.5024, 72.89941
412.9845, 73.14780
413.4666, 73.32227
413.9487, 73.38528
414.4308, 73.24437
414.9130, 72.96260
415.3951, 72.78689
415.8772, 72.75253
416.3593, 72.73806
416.8414, 72.70129
417.3235, 72.63644
417.8057, 72.53298
418.2878, 72.39249
418.7699, 72.20358
419.2520, 71.81900
419.7341, 71.29045
420.2162, 71.18050
420.6984, 71.87178
421.1805, 72.77455
421.6626, 73.11483
422.1447, 72.90481
422.6268, 72.62906
423.1089, 72.45107
423.5911, 72.31336
424.0732, 72.16228
424.5553, 71.99348
425.0374, 71.72189
425.5195, 71.20078
426.0016, 70.50901
426.4838, 70.14648
426.9659, 70.36876
427.4480, 70.63871
427.9301, 70.71810
428.4122, 70.66870
428.8943, 70.64107
429.3765, 70.70010
429.8586, 70.74763
430.3407, 70.59164
430.8228, 70.02852
431.3049, 69.72213
431.7870, 69.90006
432.2692, 70.17105
432.7513, 70.25279
433.2334, 70.14064
433.7155, 69.97836
434.1976, 69.87080
434.6797, 69.81982
435.1619, 69.85696
435.6440, 70.13505
436.1261, 70.32484
436.6082, 70.33948
437.0903, 70.25098
437.5724, 70.13412
438.0546, 70.01757
438.5367, 69.90098
439.0188, 69.76526
439.5009, 69.56376
439.9830, 69.49510
440.4651, 69.92587
440.9473, 70.16471
441.4294, 69.68909
441.9115, 68.72314
442.3936, 67.92767
442.8757, 67.78575
443.3578, 68.11146
443.8400, 68.28870
444.3221, 68.27628
444.8042, 68.21903
445.2863, 68.07222
445.7684, 67.95628
446.2505, 68.00962
446.7327, 68.26754
447.2148, 68.58005
447.6969, 68.89800
448.1790, 69.18535
448.6611, 69.19133
449.1432, 68.74609
449.6254, 68.27187
450.1075, 68.14394
450.5896, 68.28244
451.0717, 68.47932
451.5538, 68.76270
452.0359, 69.02156
452.5181, 69.19035
453.0002, 69.25677
453.4823, 69.10073
453.9644, 68.58706
454.4465, 67.91405
454.9286, 67.54319
455.4108, 67.52666
455.8929, 67.57024
456.3750, 67.67439
456.8571, 67.76989
457.3392, 67.76710
457.8214, 67.65981
458.3035, 67.52764
458.7856, 67.44383
459.2677, 67.40926
459.7498, 67.32173
460.2319, 67.11095
460.7141, 66.93668
461.1962, 66.82004
461.6783, 66.77477
462.1604, 66.86414
462.6425, 67.10413
463.1246, 67.35261
463.6068, 67.31916
464.0889, 66.76574
464.5710, 66.56991
465.0531, 67.16228
465.5352, 67.69045
466.0173, 67.63165
466.4995, 67.15735
466.9816, 66.80198
467.4637, 66.95455
467.9458, 67.42474
468.4279, 67.57138
468.9100, 67.23654
469.3922, 66.98953
469.8743, 67.19054
470.3564, 67.42857
470.8385, 67.27009
471.3206, 66.66171
471.8027, 66.15742
472.2849, 66.29853
472.7670, 66.91343
473.2491, 67.35845
473.7312, 67.56745
474.2133, 67.63114
474.6954, 67.59487
475.1776, 67.45907
475.6597, 67.19302
476.1418, 66.57900
476.6239, 66.09671
477.1060, 66.31001
477.5881, 66.94752
478.0703, 67.10257
478.5524, 66.37875
479.0345, 65.43590
479.5166, 65.30727
479.9987, 66.25949
480.4808, 66.77247
480.9630, 66.38520
481.4451, 65.85378
481.9272, 65.69593
482.4093, 65.85844
482.8914, 66.04396
483.3735, 66.07987
483.8557, 65.99200
484.3378, 65.87065
484.8199, 65.66357
485.3020, 65.49821
485.7841, 65.45843
486.2662, 65.40382
486.7484, 65.14745
487.2305, 64.72282
487.7126, 64.38706
488.1947, 64.37014
488.6768, 64.66136
489.1589, 65.11277
489.6411, 66.01089
490.1232, 66.60081
490.6053, 66.50191
491.0874, 66.08373
491.5695, 65.72826
492.0516, 65.53588
492.5338, 65.48457
493.0159, 65.55769
493.4980, 65.75513
493.9801, 66.16033
494.4622, 67.04073
494.9443, 67.64475
495.4265, 67.03417
495.9086, 65.62351
496.3907, 64.55913
496.8728, 64.30025
497.3549, 64.32368
497.8370, 64.31487
498.3192, 64.24632
498.8013, 63.89406
499.2834, 63.04317
499.7655, 62.25354
500.2476, 62.57775
500.7297, 64.50676
501.2119, 65.77195
501.6940, 65.99520
502.1761, 65.70970
502.6582, 65.01397
503.1403, 64.11369
503.6224, 63.49066
504.1045, 63.47075
504.5866, 63.87058
505.0688, 64.01844
505.5509, 63.63399
506.0330, 63.43888
506.5151, 63.58467
506.9972, 63.83451
507.4793, 64.08400
507.9615, 64.28046
508.4436, 64.33116
508.9257, 64.09856
509.4078, 63.65025
509.8899, 63.40825
510.3720, 63.40850
510.8542, 63.53869
511.3363, 63.98674
511.8184, 64.42303
512.3005, 64.41939
512.7827, 63.85572
513.2648, 63.35086
513.7469, 63.53154
514.2290, 64.13391
514.7111, 64.32027
515.1932, 63.90478
515.6754, 63.46521
516.1575, 63.46761
516.6396, 63.82492
517.1217, 64.07643
517.6038, 64.16944
518.0859, 64.19854
518.5681, 64.17302
519.0502, 64.12057
519.5323, 64.11321
520.0144, 64.16897
520.4965, 64.18129
520.9786, 63.99922
521.4608, 63.56469
521.9429, 63.29250
522.4250, 63.19086
522.9071, 63.21074
523.3892, 63.48397
523.8713, 63.82453
524.3535, 63.93095
524.8356, 63.68221
525.3177, 63.28103
525.7998, 63.04990
526.2819, 63.00581
526.7640, 63.05011
527.2462, 63.26665
527.7283, 63.47857
528.2104, 63.58378
528.6925, 63.61974
529.1746, 63.68506
529.6567, 63.84975
530.1389, 64.01765
530.6210, 64.02528
531.1031, 63.88484
531.5852, 63.82726
532.0673, 63.97446
532.5494, 64.14275
533.0316, 64.10586
533.5137, 63.88033
533.9958, 63.56602
534.4779, 62.95115
534.9600, 62.44631
535.4421, 62.52697
535.9243, 63.02142
536.4064, 63.29628
536.8885, 63.02697
537.3706, 62.48646
537.8527, 62.26395
538.3348, 62.63142
538.8170, 62.77126
539.2991, 62.30224
539.7812, 61.96390
540.2633, 62.37503
540.7454, 63.29172
541.2275, 64.01932
541.7097, 64.13445
542.1918, 63.79414
542.6739, 63.33569
543.1560, 62.63455
543.6381, 62.21020
544.1202, 62.38490
544.6024, 62.69925
545.0845, 62.96994
545.5666, 63.14986
546.0487, 63.10618
546.5308, 62.57218
547.0129, 61.87423
547.4951, 61.50483
547.9772, 61.45955
548.4593, 61.66822
548.9414, 62.23355
549.4235, 62.88029
549.9056, 63.03487
550.3878, 62.61327
550.8699, 62.32911
551.3520, 62.44471
551.8341, 62.64898
552.3162, 62.64356
552.7983, 62.47898
553.2805, 62.45106
553.7626, 62.75835
554.2447, 63.20984
554.7268, 63.21927
555.2089, 62.31160
555.6910, 61.81128
556.1732, 62.01371
556.6553, 62.35340
557.1374, 62.56879
557.6195, 62.61460
558.1016, 62.48150
558.5837, 62.11715
559.0659, 61.63781
559.5480, 61.31438
560.0301, 61.16231
560.5122, 61.08329
560.9943, 61.07137
561.4764, 61.10793
561.9586, 61.16615
562.4407, 61.24737
562.9228, 61.37202
563.4049, 61.66841
563.8870, 61.92897
564.3691, 61.80959
564.8513, 61.40123
565.3334, 61.24329
565.8155, 61.62837
566.2976, 62.24653
566.7797, 62.50301
567.2618, 62.18273
567.7440, 61.97854
568.2261, 61.97951
568.7082, 62.01498
569.1903, 61.99646
569.6724, 61.93041
570.1545, 61.82532
570.6367, 61.67672
571.1188, 61.57779
571.6009, 61.82005
572.0830, 62.60859
572.5651, 62.94838
573.0472, 62.37951
573.5294, 61.67272
574.0115, 61.09406
574.4936, 60.70844
574.9757, 60.66955
575.4578, 61.21079
575.9399, 61.89164
576.4221, 62.20481
576.9042, 62.19905
577.3863, 62.12608
577.8684, 62.02200
578.3505, 61.98193
578.8326, 62.19886
579.3148, 62.70485
579.7969, 62.83146
580.2790, 62.14077
580.7611, 61.50568
581.2432, 61.42846
581.7253, 61.66947
582.2075, 61.75674
582.6896, 61.54005
583.1717, 61.33857
583.6538, 61.68335
584.1359, 62.73162
584.6180, 63.19030
585.1002, 62.57483
585.5823, 61.92500
586.0643, 61.39433
586.5464, 61.08915
587.0286, 61.28542
