##NAMES=Argentojarosite
##RRUFFID=R060098
##IDEAL CHEMISTRY=Ag^1+^Fe^3+^_3_(S^6+^O_4_)_2_(OH)_6_
##LOCALITY=Tintic Standard mine, Dividend, Utah, USA
##OWNER=RRUFF
##SOURCE=University of Arizona Mineral Museum
##DESCRIPTION=Coating of yellowish-brown flat hexagonal plates
##STATUS=The identification of this mineral has been confirmed by X-ray diffraction and chemical analysis
##URL=rruff.info/R060098
##MEASURED CHEMISTRY=Ag_1.00_Fe^3+^_3.00_(S_1.00_O_4_)_2_(OH)_6_
93.46680, 351.6751
93.94891, 348.4472
94.43103, 349.3109
94.91315, 351.8002
95.39526, 352.8731
95.87738, 352.0490
96.35950, 350.0699
96.84161, 347.4753
97.32373, 344.5710
97.80585, 341.3609
98.28796, 338.0691
98.77008, 334.7728
99.25220, 331.5593
99.73431, 328.4960
100.2164, 325.5471
100.6985, 322.0999
101.1807, 318.8810
101.6628, 316.0182
102.1449, 313.5425
102.6270, 311.4281
103.1091, 309.5918
103.5912, 307.8230
104.0734, 306.0302
104.5555, 304.3126
105.0376, 302.6086
105.5197, 300.9508
106.0018, 299.4429
106.4839, 298.1947
106.9661, 297.2426
107.4482, 296.0977
107.9303, 294.2556
108.4124, 292.5471
108.8945, 291.6254
109.3766, 291.5195
109.8588, 291.5465
110.3409, 290.7813
110.8230, 289.0543
111.3051, 287.7538
111.7872, 287.2272
112.2693, 287.1862
112.7515, 287.2155
113.2336, 287.2336
113.7157, 287.2657
114.1978, 287.3922
114.6799, 287.6191
115.1620, 287.7332
115.6442, 287.5922
116.1263, 287.2005
116.6084, 286.6786
117.0905, 285.7552
117.5726, 284.9237
118.0547, 284.6354
118.5369, 284.9769
119.0190, 285.4292
119.5011, 285.1962
119.9832, 283.8707
120.4653, 282.8129
120.9474, 282.3304
121.4296, 282.0930
121.9117, 281.7804
122.3938, 281.2509
122.8759, 280.6675
123.3580, 280.5685
123.8401, 281.8839
124.3223, 282.7103
124.8044, 282.6529
125.2865, 282.0199
125.7686, 281.2491
126.2507, 280.5811
126.7328, 280.0252
127.2150, 279.7036
127.6971, 279.6614
128.1792, 279.7406
128.6613, 279.9036
129.1434, 280.1407
129.6255, 280.4305
130.1077, 280.7948
130.5898, 281.2117
131.0719, 281.5062
131.5540, 281.5555
132.0361, 281.5418
132.5182, 281.6373
133.0004, 281.8512
133.4825, 282.1878
133.9646, 282.7506
134.4467, 283.4507
134.9288, 284.0813
135.4109, 284.6365
135.8931, 285.0682
136.3752, 285.2562
136.8573, 285.3879
137.3394, 284.9298
137.8215, 283.5727
138.3036, 281.4504
138.7858, 278.9898
139.2679, 276.5229
139.7500, 274.0802
140.2321, 271.3846
140.7142, 267.7942
141.1963, 264.4597
141.6785, 261.8363
142.1606, 259.9702
142.6427, 258.6257
143.1248, 257.5777
143.6069, 257.0725
144.0890, 256.2928
144.5712, 254.9426
145.0533, 253.5660
145.5354, 252.5921
146.0175, 252.1258
146.4996, 251.8663
146.9817, 251.2715
147.4639, 249.9900
147.9460, 248.9245
148.4281, 248.0828
148.9102, 247.4787
149.3923, 247.2407
149.8744, 247.4874
150.3566, 247.8860
150.8387, 247.5871
151.3208, 246.4300
151.8029, 245.2129
152.2850, 244.1310
152.7671, 243.1990
153.2493, 242.5042
153.7314, 242.1604
154.2135, 242.0208
154.6956, 241.7814
155.1777, 241.4014
155.6598, 241.0159
156.1420, 240.7493
156.6241, 240.6078
157.1062, 240.4602
157.5883, 240.3066
158.0704, 240.0911
158.5525, 239.7268
159.0347, 239.1573
159.5168, 238.5317
159.9989, 238.0866
160.4810, 237.8900
160.9631, 237.7181
161.4452, 237.5697
161.9274, 237.3880
162.4095, 237.0724
162.8916, 236.5548
163.3737, 235.9538
163.8558, 235.6903
164.3379, 236.2799
164.8201, 236.5251
165.3022, 236.0600
165.7843, 235.1933
166.2664, 234.2881
166.7485, 233.5405
167.2306, 232.9654
167.7128, 232.6818
168.1949, 233.0777
168.6770, 233.3517
169.1591, 233.2648
169.6412, 232.9170
170.1233, 232.5358
170.6055, 232.2799
171.0876, 232.1435
171.5697, 231.9546
172.0518, 231.6773
172.5339, 231.3920
173.0160, 231.0715
173.4982, 230.7492
173.9803, 230.5725
174.4624, 230.7130
174.9445, 231.1497
175.4266, 231.3798
175.9087, 231.3021
176.3909, 231.0903
176.8730, 230.8188
177.3551, 230.4869
177.8372, 230.2705
178.3193, 230.4954
178.8014, 230.9689
179.2836, 231.1032
179.7657, 230.3954
180.2478, 229.4065
180.7299, 228.9920
181.2120, 229.2871
181.6941, 229.8538
182.1763, 230.6786
182.6584, 231.5495
183.1405, 232.0159
183.6226, 231.6585
184.1047, 230.7318
184.5868, 230.0883
185.0690, 229.8955
185.5511, 229.7533
186.0332, 229.4671
186.5153, 229.0853
186.9974, 228.6900
187.4795, 228.2801
187.9617, 227.8743
188.4438, 227.7630
188.9259, 228.3261
189.4080, 228.8093
189.8901, 228.8809
190.3722, 228.6747
190.8544, 228.5093
191.3365, 228.6526
191.8186, 229.1272
192.3007, 229.6091
192.7828, 229.9084
193.2649, 230.3979
193.7471, 231.2868
194.2292, 232.5015
194.7113, 233.8358
195.1934, 235.1116
195.6755, 236.3540
196.1576, 237.3904
196.6398, 237.9928
197.1219, 238.6374
197.6040, 239.4562
198.0861, 240.5040
198.5682, 241.8965
199.0503, 243.8076
199.5325, 246.3842
200.0146, 248.5566
200.4967, 250.1565
200.9788, 251.5170
201.4609, 252.7843
201.9430, 253.9972
202.4252, 255.2391
202.9073, 256.6265
203.3894, 258.1815
203.8715, 259.5977
204.3536, 260.7771
204.8357, 261.8639
205.3179, 262.9888
205.8000, 264.1748
206.2821, 265.3774
206.7642, 266.5612
207.2463, 267.7351
207.7284, 268.9215
208.2106, 270.1976
208.6927, 271.4655
209.1748, 272.5577
209.6569, 273.4255
210.1390, 274.2636
210.6211, 275.2066
211.1033, 276.2430
211.5854, 277.3784
212.0675, 278.7930
212.5496, 280.2933
213.0317, 281.4328
213.5138, 282.1028
213.9960, 282.5720
214.4781, 282.8454
214.9602, 283.0558
215.4423, 283.5058
215.9244, 284.5363
216.4065, 285.9499
216.8886, 286.9802
217.3708, 287.6053
217.8529, 287.8196
218.3350, 287.6376
218.8171, 287.1186
219.2992, 286.3767
219.7813, 285.5009
220.2635, 284.4678
220.7456, 283.1240
221.2277, 281.4701
221.7098, 279.4467
222.1919, 277.0735
222.6740, 274.3551
223.1562, 271.2089
223.6383, 267.4573
224.1204, 263.2004
224.6025, 259.6883
225.0846, 258.1783
225.5667, 256.1642
226.0489, 252.6677
226.5310, 248.2675
227.0131, 244.0484
227.4952, 240.7500
227.9773, 238.3311
228.4594, 235.8100
228.9416, 232.7181
229.4237, 230.0275
229.9058, 228.0387
230.3879, 226.6199
230.8700, 225.6038
231.3521, 224.9286
231.8343, 224.5378
232.3164, 223.5390
232.7985, 221.2618
233.2806, 219.1473
233.7627, 217.5922
234.2448, 216.4805
234.7270, 215.5452
235.2091, 214.6381
235.6912, 213.7475
236.1733, 212.7533
236.6554, 211.4108
237.1375, 210.2384
237.6197, 209.5605
238.1018, 209.1867
238.5839, 208.6128
239.0660, 207.4693
239.5481, 205.9556
240.0302, 205.1976
240.5124, 206.0025
240.9945, 206.5350
241.4766, 205.9317
241.9587, 204.5356
242.4408, 203.2110
242.9229, 202.3905
243.4051, 201.9746
243.8872, 201.5951
244.3693, 201.2740
244.8514, 200.9511
245.3335, 200.5779
245.8156, 200.1793
246.2978, 199.8709
246.7799, 199.7895
247.2620, 199.7229
247.7441, 199.1685
248.2262, 197.8688
248.7083, 196.7160
249.1905, 196.2016
249.6726, 196.2166
250.1547, 196.4182
250.6368, 196.8613
251.1189, 197.2170
251.6010, 196.9417
252.0832, 195.9113
252.5653, 194.9007
253.0474, 194.3616
253.5295, 194.2149
254.0116, 194.0941
254.4937, 193.9041
254.9759, 193.7033
255.4580, 193.5629
255.9401, 193.4842
256.4222, 193.4129
256.9043, 193.3806
257.3864, 193.3520
257.8686, 193.0910
258.3507, 192.3032
258.8328, 191.6031
259.3149, 191.6034
259.7970, 192.2270
260.2791, 192.8186
260.7613, 192.8593
261.2434, 192.4659
261.7255, 192.3131
262.2076, 192.5646
262.6897, 192.9650
263.1718, 193.3755
263.6540, 193.7823
264.1361, 194.1438
264.6182, 194.3875
265.1003, 194.5431
265.5824, 194.8258
266.0645, 195.4061
266.5467, 195.8670
267.0288, 195.9248
267.5109, 195.7210
267.9930, 195.5605
268.4751, 195.6241
268.9572, 195.8797
269.4394, 196.1745
269.9215, 196.4549
270.4036, 196.8759
270.8857, 197.7320
271.3678, 198.7086
271.8499, 199.2761
272.3321, 199.0432
272.8142, 198.2884
273.2963, 197.9905
273.7784, 198.3823
274.2605, 198.8756
274.7426, 199.3346
275.2248, 199.7672
275.7069, 200.1828
276.1890, 200.5905
276.6711, 200.9756
277.1532, 201.2891
277.6353, 201.4767
278.1175, 201.6938
278.5996, 202.0425
279.0817, 202.3965
279.5638, 202.6192
280.0459, 202.6611
280.5280, 202.6114
281.0102, 202.6201
281.4923, 202.6263
281.9744, 202.8431
282.4565, 203.4224
282.9386, 204.1031
283.4207, 204.7573
283.9029, 205.3288
284.3850, 205.7290
284.8671, 205.7469
285.3492, 205.0781
285.8313, 204.7911
286.3134, 205.2087
286.7956, 205.7464
287.2777, 206.1081
287.7598, 206.2267
288.2419, 206.1614
288.7240, 205.9634
289.2061, 205.6044
289.6883, 205.2092
290.1704, 204.6322
290.6525, 204.1465
291.1346, 204.0098
291.6167, 204.1271
292.0988, 204.1400
292.5810, 203.6809
293.0631, 202.6919
293.5452, 201.8589
294.0273, 201.0110
294.5094, 200.4796
294.9915, 200.6860
295.4737, 201.3165
295.9558, 201.6898
296.4379, 201.2774
296.9200, 200.1380
297.4021, 199.2447
297.8842, 198.8678
298.3664, 198.4607
298.8485, 197.7237
299.3306, 196.9230
299.8127, 196.5527
300.2948, 196.9222
300.7769, 197.7760
301.2591, 198.0656
301.7412, 197.1621
302.2233, 196.4079
302.7054, 196.0775
303.1875, 195.8994
303.6696, 195.5617
304.1518, 194.9394
304.6339, 194.1408
305.1160, 193.3971
305.5981, 192.8974
306.0802, 192.1566
306.5623, 191.0394
307.0445, 189.7776
307.5266, 188.5062
308.0087, 187.2807
308.4908, 186.1374
308.9729, 185.1506
309.4550, 184.4577
309.9372, 183.5679
310.4193, 182.2325
310.9014, 180.9249
311.3835, 179.9755
311.8656, 179.3748
312.3477, 178.8735
312.8299, 178.2068
313.3120, 177.3057
313.7941, 176.6799
314.2762, 176.3871
314.7583, 176.2627
315.2404, 176.4832
315.7226, 176.8386
316.2047, 176.8208
316.6868, 175.9891
317.1689, 174.4254
317.6510, 173.4419
318.1331, 173.5729
318.6153, 173.6859
319.0974, 173.5801
319.5795, 173.2973
320.0616, 172.9156
320.5437, 172.4724
321.0258, 171.9846
321.5080, 171.5029
321.9901, 171.0223
322.4722, 170.5623
322.9543, 170.0278
323.4364, 169.5609
323.9185, 169.4043
324.4007, 169.6133
324.8828, 169.8728
325.3649, 169.5749
325.8470, 168.0546
326.3291, 167.2741
326.8112, 167.7348
327.2934, 168.4539
327.7755, 168.8357
328.2576, 168.7671
328.7397, 168.4073
329.2218, 167.8880
329.7039, 167.1284
330.1861, 166.6121
330.6682, 166.4694
331.1503, 166.4087
331.6324, 166.3232
332.1145, 166.2145
332.5966, 166.1253
333.0788, 166.0860
333.5609, 166.0958
334.0430, 166.1493
334.5251, 166.2981
335.0072, 166.4366
335.4893, 166.6977
335.9715, 166.8983
336.4536, 166.6897
336.9357, 165.8786
337.4178, 164.7592
337.8999, 164.2686
338.3820, 165.0506
338.8642, 165.5224
339.3463, 165.3662
339.8284, 164.9814
340.3105, 164.7291
340.7926, 164.7066
341.2747, 164.7569
341.7568, 164.6087
342.2390, 164.0818
342.7211, 163.8151
343.2032, 163.9534
343.6853, 164.1952
344.1674, 164.4006
344.6495, 164.5518
345.1317, 164.6902
345.6138, 164.8563
346.0959, 165.0530
346.5780, 165.2307
347.0601, 165.5555
347.5422, 165.6871
348.0244, 165.4366
348.5065, 164.9328
348.9886, 164.3755
349.4707, 163.8617
349.9528, 163.4333
350.4349, 163.3029
350.9171, 163.7978
351.3992, 164.0786
351.8813, 163.9082
352.3634, 163.5128
352.8455, 163.0338
353.3276, 162.5252
353.8098, 162.1558
354.2919, 162.3277
354.7740, 163.3693
355.2561, 163.9385
355.7382, 163.4832
356.2203, 162.8396
356.7025, 162.4011
357.1846, 162.2390
357.6667, 162.2977
358.1488, 162.6772
358.6309, 163.4048
359.1130, 163.6470
359.5952, 162.9606
360.0773, 162.2544
360.5594, 161.8690
361.0415, 161.7492
361.5236, 161.7774
362.0057, 161.9640
362.4879, 162.1960
362.9700, 162.1118
363.4521, 161.6184
363.9342, 161.0036
364.4163, 160.1732
364.8984, 159.3686
365.3806, 158.8824
365.8627, 158.8270
366.3448, 158.9353
366.8269, 158.8373
367.3090, 158.4968
367.7911, 158.2872
368.2733, 158.4298
368.7554, 158.6230
369.2375, 158.6728
369.7196, 158.5675
370.2017, 158.3511
370.6838, 157.9720
371.1660, 157.4851
371.6481, 157.1581
372.1302, 157.0390
372.6123, 157.0396
373.0944, 157.1884
373.5765, 157.4047
374.0587, 157.4958
374.5408, 157.2615
375.0229, 156.9474
375.5050, 157.0221
375.9871, 157.5559
376.4692, 157.8567
376.9514, 157.3601
377.4335, 156.5329
377.9156, 156.0746
378.3977, 156.1369
378.8798, 156.3265
379.3619, 156.3695
379.8441, 156.3006
380.3262, 156.2777
380.8083, 156.3589
381.2904, 156.4738
381.7725, 156.5115
382.2546, 156.4732
382.7368, 156.5073
383.2189, 156.8492
383.7010, 157.2143
384.1831, 157.0435
384.6652, 156.2417
385.1473, 155.6318
385.6295, 156.0475
386.1116, 157.2911
386.5937, 157.9207
387.0758, 157.3185
387.5579, 156.6155
388.0400, 156.5643
388.5222, 157.0007
389.0043, 157.3277
389.4864, 157.2412
389.9685, 156.9230
390.4506, 156.8289
390.9327, 156.9990
391.4149, 157.2425
391.8970, 157.6526
392.3791, 158.0580
392.8612, 158.2221
393.3433, 158.1000
393.8254, 157.8716
394.3076, 157.7458
394.7897, 157.7573
395.2718, 157.6708
395.7539, 157.3654
396.2360, 157.0798
396.7181, 156.9791
397.2003, 157.0168
397.6824, 157.0034
398.1645, 156.7900
398.6466, 156.4755
399.1287, 156.5696
399.6108, 157.5990
400.0930, 158.4048
400.5751, 158.9059
401.0572, 159.1116
401.5393, 158.9589
402.0214, 158.4563
402.5035, 157.8155
402.9857, 157.3303
403.4678, 156.9861
403.9499, 156.8607
404.4320, 157.1229
404.9141, 157.4191
405.3962, 157.6152
405.8784, 157.6952
406.3605, 157.6766
406.8426, 157.5629
407.3247, 157.3651
407.8068, 157.1560
408.2889, 156.8445
408.7711, 156.6643
409.2532, 156.7809
409.7353, 156.9888
410.2174, 156.9802
410.6995, 156.6467
411.1816, 156.3654
411.6638, 156.8053
412.1459, 158.1513
412.6280, 159.2019
413.1101, 159.6218
413.5922, 159.8345
414.0743, 159.9536
414.5565, 160.0390
415.0386, 160.2451
415.5207, 160.7131
416.0028, 161.3861
416.4849, 162.0438
416.9670, 162.6397
417.4492, 163.3391
417.9313, 164.3118
418.4134, 165.4135
418.8955, 166.4704
419.3776, 167.4385
419.8597, 168.3629
420.3419, 169.2554
420.8240, 170.1280
421.3061, 171.1038
421.7882, 172.2599
422.2703, 173.4706
422.7524, 174.5898
423.2346, 175.6305
423.7167, 176.6033
424.1988, 177.5218
424.6809, 178.3702
425.1630, 179.1073
425.6451, 179.7254
426.1273, 180.3244
426.6094, 180.9495
427.0915, 181.6163
427.5736, 182.3755
428.0557, 183.3812
428.5378, 184.3111
429.0200, 184.8154
429.5021, 185.1600
429.9842, 185.9713
430.4663, 187.5141
430.9484, 189.3298
431.4305, 190.6776
431.9127, 191.4090
432.3948, 191.9514
432.8769, 192.0498
433.3590, 192.1544
433.8411, 192.6646
434.3232, 193.5216
434.8054, 194.3437
435.2875, 194.8183
435.7696, 194.9886
436.2517, 195.3264
436.7338, 196.4340
437.2159, 196.9912
437.6981, 196.6516
438.1802, 195.7299
438.6623, 194.4967
439.1444, 193.0673
439.6265, 191.5437
440.1086, 190.0734
440.5908, 188.6700
441.0729, 187.2816
441.5550, 186.0401
442.0371, 184.6814
442.5192, 182.9359
443.0013, 180.9719
443.4835, 179.2190
443.9656, 178.0029
444.4477, 177.1550
444.9298, 176.1714
445.4119, 174.9726
445.8940, 173.8317
446.3762, 172.8593
446.8583, 171.9684
447.3404, 171.1047
447.8225, 170.2587
448.3046, 169.4406
448.7867, 168.6897
449.2689, 167.9887
449.7510, 167.2578
450.2331, 166.5487
450.7152, 165.6829
451.1973, 164.3276
451.6794, 162.6881
452.1616, 161.3047
452.6437, 160.4969
453.1258, 159.8658
453.6079, 159.0530
454.0900, 158.0789
454.5721, 157.0920
455.0543, 156.1651
455.5364, 155.2464
456.0185, 154.1693
456.5006, 152.8269
456.9827, 151.7562
457.4648, 151.2176
457.9470, 150.9339
458.4291, 150.6802
458.9112, 150.4029
459.3933, 149.9898
459.8754, 149.2911
460.3575, 148.3244
460.8397, 147.7681
461.3218, 148.1784
461.8039, 148.2808
462.2860, 147.4085
462.7681, 146.1491
463.2502, 145.3009
463.7324, 145.1422
464.2145, 145.3936
464.6966, 145.6569
465.1787, 146.0027
465.6608, 146.1343
466.1429, 145.9837
466.6251, 145.6988
467.1072, 145.2886
467.5893, 144.7951
468.0714, 144.2685
468.5535, 143.7098
469.0356, 143.1895
469.5178, 142.9348
469.9999, 143.0350
470.4820, 143.1607
470.9641, 143.3259
471.4462, 143.4187
471.9283, 143.3223
472.4105, 143.0306
472.8926, 142.6875
473.3747, 142.3592
473.8568, 142.0629
474.3389, 141.8817
474.8210, 141.8512
475.3032, 141.8483
475.7853, 141.8232
476.2674, 141.7638
476.7495, 141.6348
477.2316, 141.3919
477.7137, 141.1392
478.1959, 140.9169
478.6780, 140.7404
479.1601, 140.6944
479.6422, 140.8423
480.1243, 140.9718
480.6064, 140.7614
481.0886, 140.1348
481.5707, 139.6798
482.0528, 139.3811
482.5349, 139.3028
483.0170, 139.7140
483.4991, 140.4080
483.9813, 140.7707
484.4634, 140.4322
484.9455, 139.6505
485.4276, 139.1964
485.9097, 139.3859
486.3918, 139.4572
486.8740, 139.3127
487.3561, 139.1171
487.8382, 138.9896
488.3203, 138.9375
488.8024, 138.8923
489.2845, 138.7738
489.7667, 138.6053
490.2488, 138.6421
490.7309, 139.1252
491.2130, 139.4156
491.6951, 139.2475
492.1772, 138.8789
492.6594, 138.5685
493.1415, 138.3820
493.6236, 138.2263
494.1057, 137.9246
494.5878, 137.5230
495.0699, 137.4971
495.5521, 138.1172
496.0342, 138.6841
496.5163, 138.5448
496.9984, 137.9666
497.4805, 137.5271
497.9626, 137.4067
498.4448, 137.4137
498.9269, 137.4470
499.4090, 137.4861
499.8911, 137.4374
500.3732, 137.2458
500.8553, 137.0255
501.3375, 136.9386
501.8196, 137.0026
502.3017, 137.1207
502.7838, 137.4388
503.2659, 137.6802
503.7480, 137.5885
504.2302, 137.2523
504.7123, 136.9450
505.1944, 136.8191
505.6765, 136.8406
506.1586, 136.9138
506.6407, 137.0998
507.1228, 137.2399
507.6049, 137.3886
508.0871, 137.4504
508.5692, 137.3457
509.0513, 137.0859
509.5334, 136.7357
510.0155, 136.3178
510.4977, 135.8606
510.9798, 135.5070
511.4619, 135.2373
511.9440, 135.1169
512.4261, 135.2959
512.9083, 135.5547
513.3904, 135.7044
513.8725, 135.7142
514.3546, 135.6737
514.8367, 135.5954
515.3188, 135.5193
515.8010, 135.6001
516.2831, 135.8943
516.7652, 136.1308
517.2473, 136.0860
517.7294, 135.8403
518.2115, 135.6862
518.6937, 135.7409
519.1758, 135.7278
519.6579, 135.3983
520.1400, 134.9569
520.6221, 134.7531
521.1042, 134.8670
521.5864, 135.1258
522.0685, 135.3661
522.5506, 135.5983
523.0327, 135.6934
523.5148, 135.4787
523.9969, 135.3456
524.4791, 135.5338
524.9612, 135.8384
525.4433, 135.9608
525.9254, 135.7976
526.4075, 135.4942
526.8896, 135.2425
527.3718, 135.0323
527.8539, 134.9275
528.3360, 134.9593
528.8181, 135.0731
529.3002, 135.2857
529.7823, 135.5540
530.2645, 135.8101
530.7466, 136.0369
531.2287, 136.2152
531.7108, 136.2590
532.1929, 136.1855
532.6750, 136.3009
533.1572, 136.8015
533.6393, 137.3040
534.1214, 137.2990
534.6035, 136.8774
535.0856, 136.6126
535.5677, 136.7741
536.0499, 136.9992
536.5320, 136.9685
537.0141, 136.7685
537.4962, 136.6982
537.9783, 136.8925
538.4604, 137.2135
538.9426, 137.4133
539.4247, 137.4095
539.9068, 137.5009
540.3889, 137.7344
540.8710, 138.0095
541.3531, 138.3111
541.8353, 138.6096
542.3174, 138.8730
542.7995, 139.0882
543.2816, 139.2253
543.7637, 139.1671
544.2458, 138.7910
544.7280, 138.6282
545.2101, 138.9286
545.6922, 139.3101
546.1743, 139.6817
546.6564, 139.9751
547.1385, 139.9915
547.6207, 139.4417
548.1028, 138.7332
548.5849, 138.4773
549.0670, 138.6629
549.5491, 139.0724
550.0313, 139.8095
550.5134, 140.4901
550.9955, 140.3523
551.4776, 139.3554
551.9597, 138.7248
552.4418, 138.9836
552.9240, 139.4547
553.4061, 139.6189
553.8882, 139.5280
554.3703, 139.4810
554.8524, 139.6406
555.3345, 139.8641
555.8167, 139.8155
556.2988, 139.3080
556.7809, 138.8843
557.2630, 138.3916
557.7451, 138.1045
558.2272, 138.4304
558.7094, 139.0815
559.1915, 139.3329
559.6736, 138.7160
560.1557, 137.6440
560.6378, 136.9889
561.1199, 136.8223
561.6021, 136.6298
562.0842, 136.2824
562.5663, 135.8999
563.0484, 135.5845
563.5305, 135.3261
564.0126, 135.0621
564.4948, 134.7874
564.9769, 134.4848
565.4590, 134.0813
565.9411, 133.6181
566.4232, 133.3100
566.9053, 133.2671
567.3875, 133.3178
567.8696, 133.1946
568.3517, 132.8358
568.8338, 132.4949
569.3159, 132.0918
569.7980, 131.7868
570.2802, 131.7628
570.7623, 131.8852
571.2444, 131.8736
571.7265, 131.5982
572.2086, 131.1974
572.6907, 130.8978
573.1729, 130.6787
573.6550, 130.6428
574.1371, 131.0773
574.6192, 131.3911
575.1013, 131.2372
575.5834, 130.7820
576.0656, 130.3705
576.5477, 130.1343
577.0298, 129.9796
577.5119, 129.8234
577.9940, 129.6643
578.4761, 129.4791
578.9583, 129.2472
579.4404, 129.0430
579.9225, 128.9564
580.4046, 128.9818
580.8867, 128.9684
581.3688, 128.8833
581.8510, 128.7921
582.3331, 128.6977
582.8152, 128.6242
583.2973, 128.6480
583.7794, 128.7747
584.2615, 128.8438
584.7437, 128.6297
585.2258, 128.1025
585.7079, 127.8242
586.1900, 127.8981
586.6721, 128.1072
587.1542, 128.6653
587.6363, 129.1892
588.1184, 129.1204
