##NAMES=Argentopyrite
##RRUFFID=R090027
##IDEAL CHEMISTRY=Ag^1+^Fe_2_S^2-^_3_
##LOCALITY=Jáchymov, Ostrov, Krušné Hory Mts, Karlovy Vary Region, Bohemia, Czech Republic
##OWNER=RRUFF
##SOURCE=Mark N. Feinglos
##DESCRIPTION=Bronze and blue tarnished rectangular prism.  Co-type specimen. Twinned.
##STATUS=The identification of this mineral is confirmed by single-crystal X-ray diffraction and chemical analysis.
##URL=rruff.info/R090027
##MEASURED CHEMISTRY=Ag_0.97_Fe_1.99_S_3_
90.92609, 0.0000000E+00
91.40820, 12.84801
91.89032, 12.48213
92.37244, 12.82998
92.85455, 13.73291
93.33667, 14.24414
93.81879, 13.33076
94.30090, 11.43607
94.78302, 9.808538
95.26514, 8.579936
95.74725, 7.905084
96.22937, 8.421732
96.71149, 10.21093
97.19360, 12.21749
97.67572, 13.61374
98.15784, 14.37753
98.63995, 14.50953
99.12207, 13.76827
99.60419, 12.29284
100.0863, 11.27397
100.5684, 10.77900
101.0505, 10.60513
101.5327, 10.55212
102.0148, 10.68904
102.4969, 10.71234
102.9790, 10.48003
103.4611, 9.925877
103.9432, 9.453210
104.4253, 8.915440
104.9075, 8.542892
105.3896, 8.905233
105.8717, 10.76042
106.3538, 12.32522
106.8359, 12.86460
107.3180, 11.36671
107.8002, 10.60593
108.2823, 11.06742
108.7644, 12.35676
109.2465, 13.04046
109.7286, 12.82826
110.2107, 12.20472
110.6929, 11.37309
111.1750, 9.524364
111.6571, 8.380611
112.1392, 8.409867
112.6213, 9.453416
113.1034, 10.27240
113.5856, 10.53368
114.0677, 10.58615
114.5498, 10.67792
115.0319, 10.78904
115.5140, 11.01380
115.9961, 11.36026
116.4783, 11.83011
116.9604, 12.47154
117.4425, 13.56799
117.9246, 14.77288
118.4067, 15.69463
118.8888, 15.91820
119.3710, 16.03581
119.8531, 16.33687
120.3352, 16.83554
120.8173, 17.55056
121.2994, 18.70948
121.7815, 20.07801
122.2637, 21.25338
122.7458, 21.77808
123.2279, 22.13443
123.7100, 22.92116
124.1921, 24.34449
124.6742, 25.59799
125.1564, 25.63991
125.6385, 24.81168
126.1206, 24.19249
126.6027, 24.60387
127.0848, 25.62281
127.5669, 26.49169
128.0491, 27.03571
128.5312, 27.52550
129.0133, 28.31080
129.4954, 29.37638
129.9775, 30.64682
130.4596, 32.42752
130.9418, 34.45679
131.4239, 35.72441
131.9060, 35.87877
132.3881, 35.31366
132.8702, 34.85709
133.3523, 34.50506
133.8345, 34.27633
134.3166, 34.25227
134.7987, 34.43031
135.2808, 34.48431
135.7629, 34.16305
136.2450, 33.66811
136.7272, 34.11608
137.2093, 35.69649
137.6914, 37.63728
138.1735, 39.20557
138.6556, 40.36721
139.1377, 41.30292
139.6199, 42.21272
140.1020, 43.08584
140.5841, 42.80225
141.0662, 40.88572
141.5483, 38.45834
142.0304, 36.87674
142.5126, 36.23214
142.9947, 36.25978
143.4768, 36.91831
143.9589, 38.28699
144.4410, 39.42816
144.9231, 40.35551
145.4053, 41.07249
145.8874, 41.58771
146.3695, 41.82959
146.8516, 41.98264
147.3337, 42.15960
147.8158, 42.61200
148.2980, 42.44317
148.7801, 40.91126
149.2622, 38.89079
149.7443, 38.18653
150.2264, 40.17205
150.7085, 42.20703
151.1907, 43.35878
151.6728, 42.87524
152.1549, 42.84143
152.6370, 43.69149
153.1191, 45.03704
153.6012, 45.89674
154.0834, 46.04652
154.5655, 45.82196
155.0476, 45.35042
155.5297, 44.46894
156.0118, 43.59364
156.4939, 42.47255
156.9761, 41.31788
157.4582, 40.89465
157.9403, 42.16564
158.4224, 43.69452
158.9045, 44.64747
159.3866, 44.52283
159.8688, 44.19405
160.3509, 43.55022
160.8330, 42.75898
161.3151, 42.61701
161.7972, 44.43727
162.2793, 46.48095
162.7615, 47.41213
163.2436, 45.59912
163.7257, 43.81104
164.2078, 43.33293
164.6899, 44.00291
165.1720, 44.69715
165.6541, 44.83881
166.1363, 44.74850
166.6184, 44.74242
167.1005, 44.88135
167.5826, 45.16931
168.0647, 45.69087
168.5468, 46.42546
169.0290, 47.11040
169.5111, 47.65692
169.9932, 48.04112
170.4753, 48.23157
170.9574, 48.21943
171.4395, 48.00744
171.9217, 47.55806
172.4038, 46.87364
172.8859, 46.08947
173.3680, 45.24458
173.8501, 44.37957
174.3322, 43.54950
174.8144, 42.61471
175.2965, 41.79604
175.7786, 41.47576
176.2607, 41.66814
176.7428, 41.93211
177.2249, 41.90358
177.7071, 41.64220
178.1892, 41.29356
178.6713, 40.69728
179.1534, 40.11664
179.6355, 40.04729
180.1176, 40.53727
180.5998, 41.21162
181.0819, 41.83933
181.5640, 42.36553
182.0461, 42.61502
182.5282, 42.16691
183.0103, 41.40847
183.4925, 41.37143
183.9746, 42.20717
184.4567, 43.18010
184.9388, 43.32157
185.4209, 42.74581
185.9030, 42.13250
186.3852, 41.80255
186.8673, 41.69653
187.3494, 41.58709
187.8315, 41.45300
188.3136, 41.36194
188.7957, 41.48517
189.2779, 41.79972
189.7600, 41.99489
190.2421, 40.89915
190.7242, 42.07835
191.2063, 42.74347
191.6884, 42.92216
192.1706, 41.15746
192.6527, 41.90224
193.1348, 41.64134
193.6169, 41.33920
194.0990, 42.43717
194.5811, 40.95514
195.0633, 42.03091
195.5454, 42.08566
196.0275, 42.60770
196.5096, 42.11784
196.9917, 41.94054
197.4738, 42.77545
197.9560, 43.04988
198.4381, 42.44355
198.9202, 42.99529
199.4023, 41.47791
199.8844, 41.77622
200.3665, 42.85791
200.8487, 42.12913
201.3308, 42.18491
201.8129, 41.78163
202.2950, 40.84492
202.7771, 40.49445
203.2592, 40.94111
203.7414, 41.80247
204.2235, 42.25798
204.7056, 42.23825
205.1877, 42.06702
205.6698, 41.84431
206.1519, 41.53265
206.6341, 41.43284
207.1162, 41.62123
207.5983, 41.96662
208.0804, 42.17281
208.5625, 42.20686
209.0446, 42.19693
209.5268, 42.22839
210.0089, 42.34253
210.4910, 42.27943
210.9731, 41.95186
211.4552, 41.49866
211.9373, 41.23348
212.4195, 41.14911
212.9016, 41.26802
213.3837, 41.63583
213.8658, 42.32410
214.3479, 43.04698
214.8300, 43.93766
215.3121, 44.78756
215.7943, 44.96906
216.2764, 44.10012
216.7585, 43.36250
217.2406, 43.41773
217.7227, 44.71137
218.2048, 45.29967
218.6870, 44.84764
219.1691, 43.84365
219.6512, 43.46511
220.1333, 44.01599
220.6154, 44.63110
221.0975, 44.89303
221.5797, 44.54860
222.0618, 44.61374
222.5439, 45.29452
223.0260, 46.28758
223.5081, 46.96049
223.9902, 47.33842
224.4724, 47.34349
224.9545, 46.84536
225.4366, 45.51275
225.9187, 44.61477
226.4008, 44.20148
226.8829, 44.19240
227.3651, 44.42554
227.8472, 44.95788
228.3293, 45.64809
228.8114, 46.55950
229.2935, 48.00969
229.7757, 48.63440
230.2578, 47.97346
230.7399, 46.70490
231.2220, 46.20763
231.7041, 46.98010
232.1862, 47.72864
232.6684, 47.92970
233.1505, 47.29982
233.6326, 47.05468
234.1147, 47.36207
234.5968, 47.96291
235.0789, 48.38894
235.5611, 48.59222
236.0432, 48.69533
236.5253, 48.68881
237.0074, 48.47011
237.4895, 48.55143
237.9716, 49.16275
238.4538, 49.93433
238.9359, 50.21390
239.4180, 49.57466
239.9001, 49.15076
240.3822, 49.40708
240.8643, 50.59953
241.3465, 51.22449
241.8286, 50.91828
242.3107, 50.30089
242.7928, 50.28849
243.2749, 51.24537
243.7570, 52.17462
244.2392, 52.75478
244.7213, 52.88655
245.2034, 53.30466
245.6855, 54.15946
246.1676, 55.17800
246.6497, 55.99377
247.1319, 56.41246
247.6140, 56.98108
248.0961, 57.81951
248.5782, 58.93889
249.0603, 60.31422
249.5424, 62.16624
250.0246, 64.07719
250.5067, 65.57221
250.9888, 66.38305
251.4709, 67.31818
251.9530, 68.65038
252.4351, 70.42764
252.9173, 71.76031
253.3994, 72.54017
253.8815, 73.02607
254.3636, 73.55666
254.8457, 74.50362
255.3278, 74.61974
255.8100, 73.37292
256.2921, 70.80750
256.7742, 69.00464
257.2563, 68.29185
257.7384, 67.90229
258.2205, 67.18475
258.7026, 65.95375
259.1848, 64.85507
259.6669, 64.03396
260.1490, 63.44875
260.6311, 62.78282
261.1132, 61.97060
261.5953, 61.18878
262.0775, 60.56329
262.5596, 60.07723
263.0417, 59.81915
263.5238, 59.96603
264.0059, 60.35153
264.4880, 60.03596
264.9702, 58.60227
265.4523, 57.28118
265.9344, 56.93801
266.4165, 57.86158
266.8986, 58.73118
267.3807, 59.55479
267.8629, 60.21963
268.3450, 60.28587
268.8271, 59.53736
269.3092, 58.72549
269.7913, 58.33349
270.2734, 58.52940
270.7556, 58.31524
271.2377, 57.55396
271.7198, 56.43174
272.2019, 55.33407
272.6840, 54.23985
273.1661, 53.24501
273.6483, 52.45396
274.1304, 51.91618
274.6125, 51.16282
275.0946, 50.09914
275.5767, 48.94169
276.0588, 48.08492
276.5410, 47.56942
277.0231, 47.14690
277.5052, 46.75428
277.9873, 46.39034
278.4694, 45.88319
278.9515, 45.10625
279.4337, 44.45333
279.9158, 44.60157
280.3979, 45.62649
280.8800, 46.65429
281.3621, 47.45795
281.8442, 48.02174
282.3264, 47.97187
282.8085, 47.13017
283.2906, 46.29180
283.7727, 46.39861
284.2548, 47.45702
284.7369, 48.85147
285.2191, 50.60318
285.7012, 52.52740
286.1833, 53.82539
286.6654, 54.42135
287.1475, 54.90397
287.6296, 55.80551
288.1118, 57.10174
288.5939, 58.54856
289.0760, 60.18150
289.5581, 61.85867
290.0402, 63.14964
290.5223, 64.04292
291.0045, 65.05473
291.4866, 66.84825
291.9687, 69.20237
292.4508, 71.04588
292.9329, 72.13663
293.4150, 72.72106
293.8972, 72.95415
294.3793, 72.90327
294.8614, 73.35889
295.3435, 75.08794
295.8256, 77.73708
296.3077, 80.33101
296.7899, 82.71030
297.2720, 85.06661
297.7541, 87.67382
298.2362, 90.46304
298.7183, 93.18335
299.2004, 95.50772
299.6826, 97.69402
300.1647, 100.3614
300.6468, 103.6017
301.1289, 106.9206
301.6110, 109.7702
302.0931, 112.2933
302.5753, 114.9565
303.0574, 118.3739
303.5395, 121.8581
304.0216, 124.5251
304.5037, 126.3771
304.9858, 127.4773
305.4680, 128.0764
305.9501, 127.9473
306.4322, 126.6974
306.9143, 123.7333
307.3964, 119.9210
307.8785, 115.8894
308.3607, 111.6560
308.8428, 107.2306
309.3249, 102.3764
309.8070, 97.41818
310.2891, 92.72359
310.7712, 88.14340
311.2534, 84.09705
311.7355, 80.99686
312.2176, 78.68609
312.6997, 76.69161
313.1818, 74.86645
313.6639, 73.21419
314.1461, 71.77753
314.6282, 70.73454
315.1103, 69.56252
315.5924, 67.72301
316.0745, 65.57322
316.5566, 63.82904
317.0388, 62.79966
317.5209, 62.26896
318.0030, 62.32646
318.4851, 63.25745
318.9672, 63.62260
319.4493, 62.20979
319.9315, 60.13818
320.4136, 58.87479
320.8957, 59.53920
321.3778, 60.45533
321.8599, 61.02075
322.3420, 61.16549
322.8242, 61.37906
323.3063, 61.70538
323.7884, 62.17181
324.2705, 62.80222
324.7526, 63.74070
325.2347, 64.70221
325.7169, 65.72009
326.1990, 66.77524
326.6811, 67.51888
327.1632, 67.75437
327.6453, 67.78967
328.1274, 67.79446
328.6096, 67.76635
329.0917, 67.72046
329.5738, 67.86101
330.0559, 68.00777
330.5380, 67.54253
331.0201, 65.88430
331.5023, 64.24723
331.9844, 63.17852
332.4665, 63.14245
332.9486, 62.52227
333.4307, 60.97060
333.9128, 59.01735
334.3950, 57.60700
334.8771, 56.93951
335.3592, 56.41435
335.8413, 55.83046
336.3234, 55.15162
336.8055, 54.81313
337.2877, 55.05194
337.7698, 55.30717
338.2519, 54.86279
338.7340, 53.49922
339.2161, 52.33696
339.6982, 51.77246
340.1803, 51.63049
340.6624, 50.74625
341.1446, 48.90521
341.6267, 46.99726
342.1088, 45.67023
342.5909, 44.94944
343.0730, 44.37511
343.5551, 43.90196
344.0373, 43.53074
344.5194, 43.33881
345.0015, 43.33610
345.4836, 43.26290
345.9657, 42.96350
346.4478, 42.45868
346.9300, 41.82191
347.4121, 41.01595
347.8942, 40.21154
348.3763, 39.53690
348.8584, 39.02113
349.3405, 38.81043
349.8227, 39.11203
350.3048, 39.73510
350.7869, 40.30554
351.2690, 40.82148
351.7511, 41.29966
352.2332, 41.78840
352.7154, 42.24479
353.1975, 42.56623
353.6796, 42.64315
354.1617, 42.65052
354.6438, 42.92315
355.1259, 43.37090
355.6081, 43.51354
356.0902, 42.56374
356.5723, 41.33215
357.0544, 40.80479
357.5365, 41.39197
358.0186, 42.21021
358.5008, 42.79766
358.9829, 43.17051
359.4650, 43.36436
359.9471, 43.09153
360.4292, 42.86485
360.9113, 43.04211
361.3935, 43.69656
361.8756, 44.45807
362.3577, 45.12671
362.8398, 45.83964
363.3219, 46.75283
363.8040, 48.44715
364.2862, 49.82547
364.7683, 50.38489
365.2504, 50.16447
365.7325, 50.02137
366.2146, 50.13751
366.6967, 50.37828
367.1789, 50.66008
367.6610, 50.65418
368.1431, 51.07042
368.6252, 52.10194
369.1073, 53.61872
369.5894, 55.17810
370.0716, 56.97765
370.5537, 58.62954
371.0358, 60.00550
371.5179, 61.05622
372.0000, 61.96273
372.4821, 62.56230
372.9643, 63.11982
373.4464, 64.02262
373.9285, 65.45494
374.4106, 66.82983
374.8927, 68.03539
375.3748, 69.07583
375.8570, 70.08135
376.3391, 71.30910
376.8212, 71.98093
377.3033, 71.24028
377.7854, 68.87833
378.2675, 66.67535
378.7497, 64.88271
379.2318, 63.35938
379.7139, 61.68677
380.1960, 59.86591
380.6781, 58.05719
381.1602, 56.24581
381.6424, 54.49317
382.1245, 53.22841
382.6066, 52.49646
383.0887, 51.18781
383.5708, 51.68312
384.0529, 51.63327
384.5351, 51.06571
385.0172, 48.52381
385.4993, 48.46035
385.9814, 47.36007
386.4635, 46.18751
386.9456, 46.38400
387.4278, 43.96914
387.9099, 44.08117
388.3920, 43.14116
388.8741, 42.63729
389.3562, 41.09050
389.8383, 39.82517
390.3205, 39.54069
390.8026, 38.66486
391.2847, 36.95015
391.7668, 36.58776
392.2489, 36.18066
392.7310, 35.71513
393.2132, 35.12564
393.6953, 34.19912
394.1774, 33.19622
394.6595, 32.42634
395.1416, 32.25523
395.6237, 32.08195
396.1059, 31.59665
396.5880, 30.82859
397.0701, 30.32102
397.5522, 30.52708
398.0343, 30.80256
398.5164, 30.76671
398.9986, 30.13370
399.4807, 29.51592
399.9628, 28.80297
400.4449, 28.12534
400.9270, 27.81266
401.4091, 28.25849
401.8913, 28.55753
402.3734, 28.31990
402.8555, 27.36648
403.3376, 26.93069
403.8197, 27.25461
404.3018, 27.81281
404.7840, 28.03463
405.2661, 27.83265
405.7482, 27.59510
406.2303, 27.39672
406.7124, 27.21751
407.1945, 26.92850
407.6767, 26.49389
408.1588, 26.12461
408.6409, 25.90902
409.1230, 25.85774
409.6051, 26.23461
410.0872, 27.22163
410.5694, 28.18385
411.0515, 27.96000
411.5336, 26.73031
412.0157, 25.61182
412.4978, 25.09917
412.9799, 25.03022
413.4621, 25.15462
413.9442, 25.46948
414.4263, 25.79047
414.9084, 26.04833
415.3905, 26.19720
415.8727, 26.11657
416.3548, 25.57163
416.8369, 25.13223
417.3190, 25.49448
417.8011, 26.36959
418.2832, 26.99604
418.7654, 26.84286
419.2475, 26.40755
419.7296, 25.99981
420.2117, 25.64902
420.6938, 25.33276
421.1759, 24.90411
421.6581, 24.56027
422.1402, 24.50684
422.6223, 25.20415
423.1044, 25.76543
423.5865, 25.81277
424.0686, 25.43951
424.5508, 25.39236
425.0329, 26.29059
425.5150, 27.08087
425.9971, 27.24990
426.4792, 26.34121
426.9613, 25.77268
427.4435, 25.76283
427.9256, 25.97654
428.4077, 25.82288
428.8898, 24.99617
429.3719, 24.50064
429.8540, 24.74694
430.3362, 25.65563
430.8183, 26.02608
431.3004, 25.72011
431.7825, 25.26341
432.2646, 25.15411
432.7467, 25.39443
433.2289, 25.33021
433.7110, 24.76212
434.1931, 24.04928
434.6752, 23.84290
435.1573, 24.11767
435.6394, 24.59921
436.1216, 25.43389
436.6036, 26.32613
437.0858, 26.44818
437.5679, 25.76755
438.0500, 25.07227
438.5321, 25.39859
439.0142, 26.11931
439.4963, 26.08932
439.9785, 24.39697
440.4606, 22.64332
440.9427, 22.25669
441.4248, 22.89191
441.9069, 23.54075
442.3890, 23.64705
442.8712, 23.65521
443.3533, 23.89865
443.8354, 24.48899
444.3175, 24.93668
444.7996, 24.91691
445.2817, 24.73619
445.7639, 24.71474
446.2460, 25.27824
446.7281, 25.60005
447.2102, 25.31815
447.6923, 24.55453
448.1744, 24.20852
448.6566, 24.70883
449.1387, 25.17626
449.6208, 25.19136
450.1029, 24.55170
450.5850, 24.04649
451.0671, 23.62768
451.5493, 23.39779
452.0314, 23.58600
452.5135, 24.31080
452.9956, 24.93039
453.4777, 25.25535
453.9598, 25.34373
454.4420, 25.53544
454.9241, 25.87101
455.4062, 25.92800
455.8883, 25.02432
456.3704, 23.47345
456.8525, 22.86452
457.3347, 23.54471
457.8168, 24.54058
458.2989, 24.57143
458.7810, 23.91098
459.2631, 23.36556
459.7452, 23.36496
460.2274, 23.60771
460.7095, 23.85325
461.1916, 24.08543
461.6737, 24.14999
462.1558, 23.75049
462.6379, 23.24996
463.1201, 22.98252
463.6022, 23.05686
464.0843, 23.25897
464.5664, 23.66314
465.0485, 24.10805
465.5306, 24.33638
466.0128, 23.92919
466.4949, 23.65315
466.9770, 23.95660
467.4591, 24.87913
467.9412, 25.09881
468.4233, 23.76573
468.9055, 22.44409
469.3876, 22.11354
469.8697, 23.59408
470.3518, 24.21718
470.8339, 23.56268
471.3160, 22.28758
471.7982, 21.62852
472.2803, 21.71066
472.7624, 21.90519
473.2445, 21.98393
473.7266, 21.99448
474.2087, 22.30636
474.6909, 22.96280
475.1730, 23.54133
475.6551, 23.66788
476.1372, 23.40320
476.6193, 22.89663
477.1014, 22.05098
477.5836, 21.35946
478.0657, 21.68179
478.5478, 22.69795
479.0299, 23.48232
479.5120, 23.51153
479.9941, 23.17892
480.4763, 22.71044
480.9584, 22.14256
481.4405, 21.77577
481.9226, 21.97963
482.4047, 22.33402
482.8868, 22.48740
483.3690, 22.26302
483.8511, 22.05624
484.3332, 21.95761
484.8153, 21.95096
485.2974, 22.00770
485.7795, 22.44115
486.2617, 22.59255
486.7438, 22.10590
487.2259, 21.00153
487.7080, 20.54313
488.1901, 21.05843
488.6722, 21.78754
489.1544, 22.30812
489.6365, 22.59529
490.1186, 22.75970
490.6007, 22.81816
491.0828, 22.73449
491.5649, 22.36332
492.0471, 21.68888
492.5292, 21.15057
493.0113, 20.90654
493.4934, 20.89551
493.9755, 20.95166
494.4576, 21.07673
494.9398, 21.32694
495.4219, 21.97125
495.9040, 22.71738
496.3861, 22.98785
496.8682, 22.68190
497.3503, 22.11935
497.8325, 21.32935
498.3146, 20.50722
498.7967, 19.93987
499.2788, 19.90415
499.7609, 20.00460
500.2430, 19.95825
500.7252, 19.85065
501.2073, 20.06890
501.6894, 21.36839
502.1715, 22.49947
502.6536, 22.78742
503.1357, 21.77047
503.6179, 21.05748
504.1000, 20.74144
504.5821, 20.71272
505.0642, 20.91021
505.5463, 21.53401
506.0284, 21.93653
506.5106, 21.99036
506.9927, 21.76812
507.4748, 21.45386
507.9569, 21.00459
508.4390, 20.67021
508.9211, 20.67921
509.4033, 20.96570
509.8854, 20.91550
510.3675, 20.49074
510.8496, 20.04835
511.3317, 20.02975
511.8138, 20.27584
512.2960, 20.33739
512.7781, 20.04724
513.2602, 19.68249
513.7423, 19.45547
514.2244, 19.37683
514.7065, 19.47253
515.1887, 19.80485
515.6708, 20.27819
516.1529, 20.95342
516.6350, 21.81447
517.1171, 22.39476
517.5992, 22.45309
518.0814, 22.22273
518.5635, 21.81501
519.0456, 20.82073
519.5277, 20.36306
520.0098, 20.93906
520.4919, 21.88744
520.9741, 22.21366
521.4562, 21.63590
521.9383, 20.97844
522.4204, 20.33659
522.9025, 19.75226
523.3846, 19.57572
523.8668, 19.91142
524.3489, 20.21942
524.8310, 20.05506
525.3131, 19.49853
525.7952, 19.29057
526.2773, 19.49672
526.7595, 19.84283
527.2416, 20.02432
527.7237, 20.09711
528.2058, 20.22684
528.6879, 20.56363
529.1700, 20.82941
529.6522, 20.54711
530.1343, 19.94034
530.6164, 19.64983
531.0985, 20.54892
531.5806, 21.43114
532.0627, 21.38589
532.5449, 20.28695
533.0270, 19.46735
533.5091, 19.34140
533.9912, 19.59915
534.4733, 20.03292
534.9554, 21.08415
535.4376, 21.66072
535.9197, 21.57215
536.4018, 21.09976
536.8839, 20.68474
537.3660, 20.24863
537.8481, 20.08797
538.3303, 20.37035
538.8124, 20.99132
539.2945, 21.47271
539.7766, 21.83849
540.2587, 21.86298
540.7408, 21.00488
541.2230, 19.62575
541.7051, 19.27290
542.1872, 20.15854
542.6693, 21.19275
543.1514, 21.23961
543.6335, 20.67509
544.1157, 20.18332
544.5978, 19.92372
545.0799, 19.87260
545.5620, 20.21764
546.0441, 20.77128
546.5262, 21.06969
547.0084, 20.91630
547.4905, 20.49257
547.9726, 19.66413
548.4547, 18.36528
548.9368, 17.66126
549.4189, 18.12660
549.9011, 18.81635
550.3832, 19.15501
550.8653, 18.76110
551.3474, 18.97918
551.8295, 20.12002
552.3116, 21.52447
552.7938, 22.25975
553.2759, 22.30131
553.7580, 21.83951
554.2401, 20.66974
554.7222, 19.24289
555.2043, 18.77398
555.6865, 19.20264
556.1686, 19.81757
556.6507, 20.30761
557.1328, 20.65973
557.6149, 20.86848
558.0970, 20.93395
558.5792, 20.83773
559.0613, 20.38937
559.5434, 19.85916
560.0255, 19.52746
560.5076, 19.54098
560.9897, 19.61825
561.4719, 19.72231
561.9540, 19.82256
562.4361, 19.86679
562.9182, 19.68188
563.4003, 19.63542
563.8824, 19.86927
564.3646, 20.32592
564.8467, 20.60813
565.3288, 20.68076
565.8109, 20.65034
566.2930, 20.56894
566.7751, 20.43734
567.2573, 20.19050
567.7394, 19.79373
568.2215, 19.43091
568.7036, 19.29030
569.1857, 19.34266
569.6678, 19.49681
570.1500, 19.77180
570.6321, 20.04556
571.1142, 20.17199
571.5963, 20.18748
572.0784, 20.17390
572.5605, 20.25802
573.0427, 20.24638
573.5248, 19.93073
574.0069, 19.37027
574.4890, 18.93641
574.9711, 18.76309
575.4532, 18.73803
575.9354, 18.86605
576.4175, 19.26007
576.8996, 19.38279
577.3817, 19.03532
577.8638, 18.61054
578.3459, 18.50943
578.8281, 18.87380
579.3102, 18.95739
579.7923, 18.59708
580.2744, 18.04302
580.7565, 17.73994
581.2386, 17.68299
581.7208, 17.80221
582.2029, 18.18276
582.6850, 18.64511
583.1671, 18.85000
583.6492, 18.83095
584.1313, 18.78738
584.6134, 18.87390
585.0955, 18.97769
585.5776, 19.01021
