##NAMES=Argentopyrite
##RRUFFID=R090027
##IDEAL CHEMISTRY=Ag^1+^Fe_2_S^2-^_3_
##LOCALITY=Jáchymov, Ostrov, Krušné Hory Mts, Karlovy Vary Region, Bohemia, Czech Republic
##OWNER=RRUFF
##SOURCE=Mark N. Feinglos
##DESCRIPTION=Bronze and blue tarnished rectangular prism.  Co-type specimen. Twinned.
##STATUS=The identification of this mineral is confirmed by single-crystal X-ray diffraction and chemical analysis.
##URL=rruff.info/R090027
##MEASURED CHEMISTRY=Ag_0.97_Fe_1.99_S_3_
92.37695, 362.5877
92.85907, 366.9394
93.34119, 367.2496
93.82330, 360.7010
94.30542, 349.6351
94.78754, 334.5232
95.26965, 316.6779
95.75177, 300.1959
96.23389, 286.2641
96.71600, 274.6554
97.19812, 265.6225
97.68024, 259.5639
98.16235, 254.6347
98.64447, 248.3891
99.12659, 240.3685
99.60870, 231.7836
100.0908, 222.7914
100.5729, 214.3512
101.0551, 207.4265
101.5372, 202.4765
102.0193, 199.1385
102.5014, 195.8774
102.9835, 192.2547
103.4656, 189.0739
103.9478, 186.4661
104.4299, 184.3627
104.9120, 182.7174
105.3941, 181.5674
105.8762, 180.9917
106.3583, 179.7000
106.8405, 177.7140
107.3226, 175.1295
107.8047, 171.3877
108.2868, 166.6266
108.7689, 162.3761
109.2510, 160.8407
109.7332, 162.2723
110.2153, 162.5199
110.6974, 160.1594
111.1795, 156.5310
111.6616, 153.5435
112.1437, 151.5838
112.6259, 150.4459
113.1080, 150.0569
113.5901, 150.3547
114.0722, 150.6360
114.5543, 150.4339
115.0364, 149.7698
115.5185, 149.1178
116.0007, 148.5747
116.4828, 148.0709
116.9649, 147.5411
117.4470, 146.9812
117.9291, 146.4551
118.4112, 146.0781
118.8934, 145.9703
119.3755, 145.7128
119.8576, 145.0011
120.3397, 144.2750
120.8218, 143.9777
121.3039, 144.2788
121.7861, 144.8852
122.2682, 144.9519
122.7503, 144.5247
123.2324, 143.3667
123.7145, 140.7171
124.1966, 137.4330
124.6788, 134.8180
125.1609, 133.6791
125.6430, 133.7883
126.1251, 133.1366
126.6072, 131.1585
127.0893, 129.1789
127.5715, 127.9289
128.0536, 127.2589
128.5357, 126.3444
129.0178, 124.4662
129.4999, 121.7646
129.9821, 119.3880
130.4642, 117.4846
130.9463, 115.8502
131.4284, 114.2114
131.9105, 112.5016
132.3926, 111.0648
132.8748, 110.4344
133.3569, 110.2598
133.8390, 109.9428
134.3211, 109.0367
134.8032, 107.7626
135.2853, 106.9417
135.7674, 107.0511
136.2496, 106.9655
136.7317, 105.8703
137.2138, 104.1097
137.6959, 102.5690
138.1780, 102.1585
138.6601, 103.0566
139.1423, 103.1933
139.6244, 101.3805
140.1065, 99.76835
140.5886, 99.40401
141.0707, 100.1794
141.5528, 101.1866
142.0350, 101.3320
142.5171, 100.2064
142.9992, 99.20827
143.4813, 98.19733
143.9634, 97.37678
144.4455, 96.92154
144.9277, 96.86299
145.4098, 97.04458
145.8919, 97.24535
146.3740, 97.69733
146.8561, 97.68272
147.3382, 96.69678
147.8204, 95.37724
148.3025, 94.59569
148.7846, 94.72657
149.2667, 95.25650
149.7488, 95.01439
150.2309, 93.73945
150.7131, 92.75023
151.1952, 92.83927
151.6773, 93.66626
152.1594, 94.10214
152.6415, 93.51249
153.1236, 92.52406
153.6058, 92.27842
154.0879, 93.09561
154.5700, 93.67886
155.0521, 92.60093
155.5342, 89.76714
156.0163, 87.49236
156.4985, 87.08946
156.9806, 87.45638
157.4627, 87.79362
157.9448, 87.91258
158.4269, 87.97948
158.9090, 88.29118
159.3912, 89.01481
159.8733, 89.55038
160.3554, 89.88793
160.8375, 89.94440
161.3196, 89.49959
161.8017, 88.41539
162.2839, 87.02644
162.7660, 86.40929
163.2481, 87.77378
163.7302, 88.26336
164.2123, 86.73554
164.6944, 84.35033
165.1766, 82.55862
165.6587, 82.19801
166.1408, 83.04129
166.6229, 83.59277
167.1050, 83.81902
167.5871, 83.79712
168.0693, 83.33517
168.5514, 82.63210
169.0335, 82.11260
169.5156, 82.11904
169.9977, 82.57212
170.4798, 82.27499
170.9620, 80.33522
171.4441, 78.65152
171.9262, 78.24070
172.4083, 78.93169
172.8904, 79.85010
173.3725, 80.51629
173.8547, 80.82644
174.3368, 80.57474
174.8189, 79.01041
175.3010, 77.40237
175.7831, 76.94306
176.2652, 77.70462
176.7474, 78.58080
177.2295, 78.81499
177.7116, 78.53651
178.1937, 78.02347
178.6758, 77.14499
179.1579, 76.12846
179.6401, 75.25062
180.1222, 74.47153
180.6043, 73.97634
181.0864, 73.94270
181.5685, 74.24187
182.0506, 74.73942
182.5328, 75.65536
183.0149, 76.69630
183.4970, 76.78934
183.9791, 75.03606
184.4612, 73.73606
184.9433, 74.27586
185.4255, 75.85910
185.9076, 77.10369
186.3897, 77.04073
186.8718, 75.79131
187.3539, 74.68327
187.8360, 73.51900
188.3182, 72.75044
188.8003, 72.62930
189.2824, 73.00063
189.7645, 73.59045
190.2466, 74.24562
190.7287, 74.98908
191.2109, 75.27789
191.6930, 74.84580
192.1751, 74.22401
192.6572, 73.33250
193.1393, 72.35406
193.6214, 71.72692
194.1036, 71.96446
194.5857, 73.33414
195.0678, 73.28707
195.5499, 70.04702
196.0320, 67.31145
196.5141, 67.39030
196.9963, 69.89226
197.4784, 72.52093
197.9605, 73.06295
198.4426, 71.12299
198.9247, 70.01153
199.4068, 70.33228
199.8890, 70.93467
200.3711, 70.91898
200.8532, 70.26768
201.3353, 69.83046
201.8174, 70.61899
202.2995, 72.70519
202.7817, 73.74510
203.2638, 72.78085
203.7459, 71.23717
204.2280, 70.30785
204.7101, 70.11392
205.1922, 70.53693
205.6744, 72.04338
206.1565, 74.28620
206.6386, 75.46782
207.1207, 74.25546
207.6028, 72.15926
208.0849, 71.37862
208.5671, 72.34042
209.0492, 73.56370
209.5313, 73.93574
210.0134, 73.69228
210.4955, 73.21774
210.9776, 72.46908
211.4598, 71.60499
211.9419, 70.98129
212.4240, 70.65652
212.9061, 70.47819
213.3882, 70.25818
213.8703, 70.09959
214.3525, 70.23100
214.8346, 70.92635
215.3167, 72.00101
215.7988, 72.79082
216.2809, 73.31636
216.7630, 73.47317
217.2451, 72.98972
217.7273, 72.18993
218.2094, 71.65739
218.6915, 71.85612
219.1736, 72.61753
219.6557, 72.89568
220.1378, 72.18947
220.6200, 71.59094
221.1021, 71.45398
221.5842, 71.64120
222.0663, 71.87644
222.5484, 71.92850
223.0305, 71.86721
223.5127, 72.38583
223.9948, 74.48628
224.4769, 76.12087
224.9590, 76.93880
225.4411, 76.99043
225.9232, 76.31180
226.4054, 74.82332
226.8875, 72.65769
227.3696, 71.30531
227.8517, 71.16714
228.3338, 71.47234
228.8159, 72.29552
229.2981, 73.44325
229.7802, 74.73232
230.2623, 76.11774
230.7444, 77.50542
231.2265, 77.74683
231.7086, 75.47663
232.1908, 73.64549
232.6729, 73.27096
233.1550, 73.86620
233.6371, 74.41635
234.1192, 74.29800
234.6013, 73.61535
235.0835, 73.14114
235.5656, 72.90144
236.0477, 72.78812
236.5298, 72.75183
237.0119, 72.81774
237.4940, 73.06059
237.9762, 73.54309
238.4583, 74.21489
238.9404, 74.84019
239.4225, 75.94259
239.9046, 76.45850
240.3867, 75.39633
240.8689, 73.41015
241.3510, 72.20876
241.8331, 72.81193
242.3152, 74.57507
242.7973, 75.50544
243.2794, 75.10845
243.7616, 74.81387
244.2437, 75.49688
244.7258, 76.81322
245.2079, 77.68808
245.6900, 77.57178
246.1721, 76.87563
246.6543, 76.47862
247.1364, 76.49020
247.6185, 76.47330
248.1006, 76.15480
248.5827, 75.61533
249.0648, 75.11893
249.5470, 74.69698
250.0291, 74.43840
250.5112, 74.55457
250.9933, 75.14833
251.4754, 75.49141
251.9576, 74.79252
252.4397, 73.37793
252.9218, 72.78027
253.4039, 73.87283
253.8860, 75.32341
254.3681, 75.60963
254.8503, 74.74223
255.3324, 73.76086
255.8145, 73.60143
256.2966, 73.98696
256.7787, 73.32030
257.2608, 70.42311
257.7430, 67.61501
258.2251, 66.94029
258.7072, 68.14365
259.1893, 69.53624
259.6714, 70.12397
260.1535, 70.01094
260.6357, 69.71334
261.1178, 68.97459
261.5999, 68.48577
262.0820, 68.96728
262.5641, 70.08382
263.0462, 70.80315
263.5284, 70.11430
264.0105, 68.32212
264.4926, 67.29461
264.9747, 67.58373
265.4568, 67.88520
265.9389, 67.32170
266.4211, 66.29996
266.9032, 65.69087
267.3853, 66.25536
267.8674, 67.62731
268.3495, 68.15871
268.8316, 67.32777
269.3138, 66.39425
269.7959, 65.72517
270.2780, 65.29286
270.7601, 65.08023
271.2422, 65.13278
271.7243, 65.34267
272.2065, 65.35951
272.6886, 65.17103
273.1707, 64.78078
273.6528, 63.64711
274.1349, 62.53383
274.6170, 62.50158
275.0992, 64.12729
275.5813, 66.62373
276.0634, 67.97509
276.5455, 67.53028
277.0276, 67.11538
277.5097, 66.96882
277.9919, 67.05212
278.4740, 67.41664
278.9561, 68.07737
279.4382, 68.80647
279.9203, 69.08752
280.4024, 68.41401
280.8846, 68.40172
281.3667, 69.72097
281.8488, 71.31997
282.3309, 72.44712
282.8130, 72.91011
283.2951, 72.98615
283.7773, 73.05650
284.2594, 73.11635
284.7415, 73.18262
285.2236, 72.80204
285.7057, 72.76086
286.1878, 73.93556
286.6700, 76.18613
287.1521, 78.33733
287.6342, 78.86362
288.1163, 77.09695
288.5984, 76.32446
289.0805, 77.30580
289.5627, 78.51271
290.0448, 79.33669
290.5269, 79.75243
291.0090, 80.00780
291.4911, 80.31810
291.9732, 80.68694
292.4554, 81.05448
292.9375, 81.48626
293.4196, 81.85298
293.9017, 82.30905
294.3838, 82.66950
294.8659, 82.48003
295.3481, 81.31516
295.8302, 79.30348
296.3123, 78.25440
296.7944, 79.07668
297.2765, 79.94300
297.7586, 80.70627
298.2408, 81.25695
298.7229, 81.42899
299.2050, 81.11496
299.6871, 80.45078
300.1692, 79.96004
300.6513, 79.82941
301.1335, 79.66338
301.6156, 79.49532
302.0977, 79.25147
302.5798, 78.76954
303.0619, 77.99753
303.5440, 77.16680
304.0262, 76.78650
304.5083, 77.43618
304.9904, 77.66959
305.4725, 77.06591
305.9546, 76.31944
306.4367, 76.14748
306.9189, 76.64825
307.4010, 77.17567
307.8831, 76.74081
308.3652, 74.67461
308.8473, 73.40563
309.3294, 73.44780
309.8116, 73.72261
310.2937, 73.60910
310.7758, 73.06278
311.2579, 72.35064
311.7400, 71.69608
312.2221, 71.04052
312.7043, 70.86652
313.1864, 71.27087
313.6685, 71.97683
314.1506, 73.15544
314.6327, 74.57030
315.1148, 75.78543
315.5970, 76.51662
316.0791, 76.74816
316.5612, 76.22888
317.0433, 73.35679
317.5254, 71.51340
318.0075, 72.00992
318.4897, 73.86940
318.9718, 75.78618
319.4539, 77.12114
319.9360, 77.76521
320.4181, 77.32593
320.9002, 73.95199
321.3824, 71.82894
321.8645, 71.93420
322.3466, 72.99380
322.8287, 73.84774
323.3108, 74.08439
323.7929, 73.92628
324.2751, 73.73506
324.7572, 73.46181
325.2393, 73.25192
325.7214, 73.09207
326.2035, 72.99301
326.6856, 73.09673
327.1678, 73.34019
327.6499, 73.36747
328.1320, 72.67937
328.6141, 70.94474
329.0962, 70.17245
329.5783, 71.06657
330.0605, 72.11079
330.5426, 72.79123
331.0247, 73.08495
331.5068, 73.09233
331.9889, 72.84209
332.4710, 72.36900
332.9532, 72.24545
333.4353, 73.38924
333.9174, 73.88412
334.3995, 72.95203
334.8816, 71.24007
335.3637, 69.62460
335.8459, 68.55231
336.3280, 67.90682
336.8101, 67.36109
337.2922, 66.71657
337.7743, 66.51389
338.2564, 67.47321
338.7386, 68.47354
339.2206, 68.36337
339.7028, 66.88948
340.1849, 64.87718
340.6670, 63.61268
341.1491, 63.55004
341.6312, 63.11145
342.1133, 61.82446
342.5955, 60.60497
343.0776, 60.02719
343.5597, 60.04826
344.0418, 60.20894
344.5239, 60.04585
345.0060, 59.52167
345.4882, 59.33174
345.9703, 59.98917
346.4524, 60.49421
346.9345, 60.60865
347.4166, 60.37234
347.8987, 59.87977
348.3809, 59.17172
348.8630, 58.28263
349.3451, 57.32315
349.8272, 55.92199
350.3093, 55.05885
350.7914, 55.04293
351.2736, 55.51693
351.7557, 56.20516
352.2378, 57.00689
352.7199, 57.81731
353.2020, 58.42543
353.6841, 58.72438
354.1663, 59.14777
354.6484, 59.92227
355.1305, 60.69499
355.6126, 61.39958
356.0947, 61.95456
356.5768, 62.11835
357.0590, 61.37609
357.5411, 59.66616
358.0232, 58.75863
358.5053, 59.21719
358.9874, 59.92152
359.4695, 60.55621
359.9517, 61.06555
360.4338, 61.34920
360.9159, 61.22510
361.3980, 60.91700
361.8801, 61.19377
362.3622, 62.38585
362.8444, 63.43227
363.3265, 63.60523
363.8086, 63.60643
364.2907, 64.30676
364.7728, 66.07389
365.2549, 68.00576
365.7371, 68.87701
366.2192, 68.58322
366.7013, 68.21630
367.1834, 68.01555
367.6655, 67.82396
368.1476, 67.49667
368.6298, 67.03706
369.1119, 66.60889
369.5940, 66.24818
370.0761, 65.99538
370.5582, 66.11925
371.0403, 66.87033
371.5225, 67.58353
372.0046, 67.92075
372.4867, 67.89441
372.9688, 67.46412
373.4509, 66.28051
373.9330, 64.89005
374.4152, 64.20574
374.8973, 64.31886
375.3794, 64.36308
375.8615, 63.58803
376.3436, 62.65250
376.8257, 62.72506
377.3079, 64.44298
377.7900, 65.83022
378.2721, 64.89432
378.7542, 62.23928
379.2363, 60.63816
379.7184, 61.23138
380.2006, 62.52312
380.6827, 62.60315
381.1648, 61.52779
381.6469, 60.23467
382.1290, 58.77915
382.6111, 57.37088
383.0933, 56.37477
383.5754, 55.84391
384.0575, 55.38011
384.5396, 54.51246
385.0217, 53.39236
385.5038, 52.98357
385.9860, 54.42665
386.4681, 55.58428
386.9502, 54.76581
387.4323, 52.47616
387.9144, 50.50792
388.3965, 49.77237
388.8787, 49.79555
389.3608, 49.32884
389.8429, 48.12520
390.3250, 47.04655
390.8071, 46.08901
391.2892, 45.42615
391.7714, 45.43209
392.2535, 46.16022
392.7356, 47.04137
393.2177, 47.44227
393.6998, 47.30600
394.1819, 46.78532
394.6641, 45.34481
395.1462, 44.03109
395.6283, 43.55486
396.1104, 43.73993
396.5925, 43.91536
397.0746, 43.60567
397.5568, 42.97992
398.0389, 42.99397
398.5210, 44.70505
399.0031, 45.78467
399.4852, 45.58315
399.9673, 44.80464
400.4495, 44.18396
400.9316, 43.96389
401.4137, 43.95545
401.8958, 43.91039
402.3779, 43.94180
402.8600, 43.60604
403.3422, 42.35735
403.8243, 41.27469
404.3064, 41.05869
404.7885, 41.52909
405.2706, 42.00320
405.7527, 41.93553
406.2349, 41.41362
406.7170, 41.14434
407.1991, 41.29982
407.6812, 41.47866
408.1633, 41.56842
408.6454, 41.63545
409.1276, 41.71775
409.6097, 41.82509
410.0918, 42.05867
410.5739, 42.82053
411.0560, 44.39544
411.5381, 44.94072
412.0203, 43.09264
412.5024, 41.00858
412.9845, 39.85114
413.4666, 39.60186
413.9487, 39.70258
414.4308, 39.85820
414.9130, 40.06719
415.3951, 40.36479
415.8772, 40.84425
416.3593, 41.18061
416.8414, 40.95144
417.3235, 40.53864
417.8057, 40.49764
418.2878, 41.08374
418.7699, 41.82953
419.2520, 42.38979
419.7341, 42.75267
420.2162, 42.77966
420.6984, 42.35006
421.1805, 41.65710
421.6626, 40.78317
422.1447, 39.69727
422.6268, 39.12760
423.1089, 39.71932
423.5911, 40.80775
424.0732, 41.45469
424.5553, 41.55454
425.0374, 41.64205
425.5195, 42.30446
426.0016, 43.31834
426.4838, 43.33971
426.9659, 41.29813
427.4480, 39.42543
427.9301, 38.98811
428.4122, 39.43742
428.8943, 39.47977
429.3765, 38.56536
429.8586, 37.48041
430.3407, 37.67938
430.8228, 40.21159
431.3049, 41.73515
431.7870, 41.41630
432.2692, 40.68394
432.7513, 40.76868
433.2334, 41.55614
433.7155, 41.93019
434.1976, 40.89957
434.6797, 38.60151
435.1619, 37.02212
435.6440, 35.94561
436.1261, 35.89506
436.6082, 38.25133
437.0903, 41.14647
437.5724, 42.15155
438.0546, 40.48962
438.5367, 37.84289
439.0188, 37.08358
439.5009, 39.20788
439.9830, 39.99273
440.4651, 37.82421
440.9473, 35.64184
441.4294, 34.81247
441.9115, 35.12804
442.3936, 35.67619
442.8757, 35.81479
443.3578, 35.76326
443.8400, 36.39934
444.3221, 38.18569
444.8042, 39.50302
445.2863, 39.30033
445.7684, 38.61692
446.2505, 38.40513
446.7327, 38.87671
447.2148, 39.47997
447.6969, 39.71386
448.1790, 39.64762
448.6611, 39.70955
449.1432, 40.07710
449.6254, 40.35662
450.1075, 40.16009
450.5896, 39.59781
451.0717, 38.95359
451.5538, 37.90776
452.0359, 37.09699
452.5181, 37.37727
453.0002, 38.59159
453.4823, 39.65295
453.9644, 40.07815
454.4465, 40.04604
454.9286, 39.96179
455.4108, 39.94096
455.8929, 39.58406
456.3750, 38.09423
456.8571, 36.60265
457.3392, 36.73846
457.8214, 38.56038
458.3035, 40.26045
458.7856, 40.13337
459.2677, 38.14850
459.7498, 37.02749
460.2319, 37.32330
460.7141, 37.69419
461.1962, 37.87992
461.6783, 37.87453
462.1604, 37.59696
462.6425, 37.03446
463.1246, 36.48215
463.6068, 36.47992
464.0889, 37.27163
464.5710, 37.97380
465.0531, 38.90313
465.5352, 39.45905
466.0173, 38.97535
466.4995, 37.85146
466.9816, 37.17550
467.4637, 37.82367
467.9458, 39.22564
468.4279, 39.37453
468.9100, 37.55122
469.3922, 36.34739
469.8743, 37.31234
470.3564, 38.72206
470.8385, 39.15040
471.3206, 38.39084
471.8027, 37.35211
472.2849, 36.58720
472.7670, 36.09752
473.2491, 35.91346
473.7312, 36.05908
474.2133, 36.45607
474.6954, 37.38951
475.1776, 38.51973
475.6597, 38.99501
476.1418, 38.36849
476.6239, 37.43549
477.1060, 36.45751
477.5881, 35.59264
478.0703, 35.42701
478.5524, 36.27475
479.0345, 37.44712
479.5166, 37.93220
479.9987, 37.56398
480.4808, 37.25313
480.9630, 36.96691
481.4451, 36.81750
481.9272, 37.10740
482.4093, 37.63815
482.8914, 37.70834
483.3735, 36.81947
483.8557, 35.38868
484.3378, 34.92489
484.8199, 36.46022
485.3020, 37.52123
485.7841, 38.06677
486.2662, 38.09331
486.7484, 37.20381
487.2305, 35.62307
487.7126, 34.41146
488.1947, 34.67524
488.6768, 36.29444
489.1589, 37.30114
489.6411, 37.33173
490.1232, 37.30813
490.6053, 37.85851
491.0874, 38.37317
491.5695, 37.98076
492.0516, 36.37963
492.5338, 34.64931
493.0159, 33.92301
493.4980, 34.11166
493.9801, 34.43156
494.4622, 34.71732
494.9443, 35.22458
495.4265, 36.54726
495.9086, 38.30726
496.3907, 39.35785
496.8728, 39.32606
497.3549, 38.57180
497.8370, 36.84917
498.3192, 34.53517
498.8013, 33.16364
499.2834, 33.46798
499.7655, 34.55042
500.2476, 34.86954
500.7297, 33.97879
501.2119, 33.96793
501.6940, 36.09282
502.1761, 38.21134
502.6582, 38.71790
503.1403, 37.83231
503.6224, 36.59293
504.1045, 35.58370
504.5866, 34.87847
505.0688, 34.76854
505.5509, 35.84245
506.0330, 36.59637
506.5151, 36.95148
506.9972, 36.98466
507.4793, 36.58284
507.9615, 35.85809
508.4436, 35.23457
508.9257, 35.14728
509.4078, 35.46976
509.8899, 35.38772
510.3720, 34.67852
510.8542, 34.04974
511.3363, 33.83075
511.8184, 33.78695
512.3005, 33.67363
512.7827, 33.43373
513.2648, 33.27660
513.7469, 33.34058
514.2290, 33.60942
514.7111, 34.08162
515.1932, 34.79790
515.6754, 35.53285
516.1575, 36.15817
516.6396, 36.65594
517.1217, 36.99713
517.6038, 37.39827
518.0859, 37.38710
518.5681, 36.14500
519.0502, 34.50195
519.5323, 34.06816
520.0144, 35.27644
520.4965, 36.97139
520.9786, 37.80733
521.4608, 37.73313
521.9429, 37.04475
522.4250, 34.80282
522.9071, 33.05672
523.3892, 32.83420
523.8713, 33.49886
524.3535, 34.09531
524.8356, 34.22582
525.3177, 34.07259
525.7998, 33.85711
526.2819, 33.50946
526.7640, 33.45659
527.2462, 33.96014
527.7283, 34.52638
528.2104, 35.07494
528.6925, 35.49435
529.1746, 35.51239
529.6567, 34.81337
530.1389, 33.98230
530.6210, 33.97837
531.1031, 34.73584
531.5852, 35.03783
532.0673, 34.34449
532.5494, 33.36398
533.0316, 32.84816
533.5137, 32.76177
533.9958, 33.18470
534.4779, 34.95882
534.9600, 36.56633
535.4421, 36.56498
535.9243, 35.31896
536.4064, 34.12040
536.8885, 33.55449
537.3706, 33.54853
537.8527, 33.99491
538.3348, 35.34476
538.8170, 36.24529
539.2991, 36.84702
539.7812, 36.90442
540.2633, 35.69841
540.7454, 33.81254
541.2275, 32.78712
541.7097, 33.69812
542.1918, 35.61520
542.6739, 35.92300
543.1560, 33.93554
543.6381, 32.53465
544.1202, 32.48011
544.6024, 33.04991
545.0845, 34.25104
545.5666, 35.83451
546.0487, 36.73326
546.5308, 36.00132
547.0129, 34.44987
547.4951, 33.19804
547.9772, 32.24595
548.4593, 31.78496
548.9414, 32.03710
549.4235, 32.65717
549.9056, 32.93203
550.3878, 32.70424
550.8699, 33.02003
551.3520, 34.77020
551.8341, 36.60310
552.3162, 37.54388
552.7983, 37.55133
553.2805, 36.66221
553.7626, 34.76679
554.2447, 32.51078
554.7268, 31.84238
555.2089, 34.06411
555.6910, 35.58443
556.1732, 36.19352
556.6553, 36.27012
557.1374, 35.80378
557.6195, 34.99402
558.1016, 34.29211
558.5837, 33.98572
559.0659, 33.95632
559.5480, 33.97059
560.0301, 34.05455
560.5122, 33.99652
560.9943, 33.44138
561.4764, 33.01624
561.9586, 33.51854
562.4407, 34.86763
562.9228, 35.83595
563.4049, 35.70722
563.8870, 35.16098
564.3691, 34.84003
564.8513, 34.74723
565.3334, 34.82660
565.8155, 35.12000
566.2976, 35.36727
566.7797, 35.01132
567.2618, 33.49843
567.7440, 32.70120
568.2261, 33.13107
568.7082, 33.80370
569.1903, 34.24291
569.6724, 34.45048
570.1545, 34.55764
570.6367, 34.62597
571.1188, 34.69808
571.6009, 34.91391
572.0830, 35.38347
572.5651, 35.57661
573.0472, 35.28190
573.5294, 34.83739
574.0115, 34.27546
574.4936, 33.70679
574.9757, 33.44840
575.4578, 33.89204
575.9399, 34.34284
576.4221, 33.74283
576.9042, 32.32630
577.3863, 31.50364
577.8684, 31.79824
578.3505, 32.44527
578.8326, 32.57690
579.3148, 32.14819
579.7969, 31.74917
580.2790, 31.04128
580.7611, 30.73491
581.2432, 31.61179
581.7253, 32.99887
582.2075, 33.68669
582.6896, 33.28165
583.1717, 32.54096
583.6538, 32.55130
584.1359, 33.45985
584.6180, 34.07225
585.1002, 34.43422
585.5823, 34.41559
586.0643, 33.42249
586.5464, 32.26064
587.0286, 32.23013
