##NAMES=Argentojarosite
##RRUFFID=R060097
##IDEAL CHEMISTRY=Ag^1+^Fe^3+^_3_(S^6+^O_4_)_2_(OH)_6_
##LOCALITY=unknown
##OWNER=RRUFF
##SOURCE=University of Arizona Mineral Museum
##DESCRIPTION=Yellowish-brown flat hexagonal plates
##STATUS=The identification of this mineral has been confirmed by X-ray diffraction and chemical analysis
##URL=rruff.info/R060097
##MEASURED CHEMISTRY=Ag_1.00_Fe^3+^_3.00_(S_1.00_O_4_)_2_(OH)_6_
93.74609, 3.705103
94.22821, 3.600655
94.71033, 3.639701
95.19244, 3.805620
95.67456, 4.039125
96.15668, 4.339470
96.63879, 4.691878
97.12091, 5.050102
97.60303, 5.414641
98.08514, 5.791945
98.56726, 6.159246
99.04938, 6.515285
99.53149, 6.957712
100.0136, 7.544310
100.4957, 8.273463
100.9778, 9.060949
101.4600, 9.919854
101.9421, 10.81371
102.4242, 11.62520
102.9063, 12.33867
103.3884, 13.02903
103.8705, 13.73106
104.3527, 14.45846
104.8348, 15.17762
105.3169, 15.88011
105.7990, 16.57055
106.2811, 17.35343
106.7632, 18.34829
107.2454, 19.30432
107.7275, 20.00895
108.2096, 20.29147
108.6917, 20.57192
109.1738, 20.88071
109.6559, 21.21176
110.1381, 21.65544
110.6202, 22.23923
111.1023, 22.92930
111.5844, 23.69232
112.0665, 24.44818
112.5486, 25.36152
113.0308, 26.51075
113.5129, 27.97916
113.9950, 29.41821
114.4771, 30.79170
114.9592, 32.10145
115.4413, 33.36986
115.9235, 34.55225
116.4056, 35.72399
116.8877, 36.89949
117.3698, 38.09822
117.8519, 39.31084
118.3340, 40.54098
118.8162, 41.78447
119.2983, 43.02595
119.7804, 44.46724
120.2625, 45.81330
120.7446, 46.79974
121.2267, 47.19336
121.7089, 47.47588
122.1910, 47.93104
122.6731, 48.52926
123.1552, 49.13250
123.6373, 49.63316
124.1194, 50.09397
124.6016, 50.60390
125.0837, 51.21087
125.5658, 51.85318
126.0479, 52.41172
126.5300, 52.89497
127.0121, 53.49349
127.4943, 54.43519
127.9764, 55.61543
128.4585, 56.81733
128.9406, 57.93501
129.4227, 59.01388
129.9048, 60.10502
130.3869, 61.20156
130.8691, 62.36526
131.3512, 63.67300
131.8333, 64.90192
132.3154, 65.86580
132.7975, 66.60029
133.2796, 67.33278
133.7618, 68.66535
134.2439, 70.64098
134.7260, 73.11035
135.2081, 75.92769
135.6902, 79.11470
136.1723, 82.33060
136.6545, 85.74052
137.1366, 89.33928
137.6187, 91.84525
138.1008, 93.39165
138.5829, 93.68779
139.0650, 91.81929
139.5472, 87.46583
140.0293, 82.15569
140.5114, 76.43741
140.9935, 69.96680
141.4756, 64.50160
141.9577, 60.21531
142.4399, 56.95150
142.9220, 54.12626
143.4041, 51.71364
143.8862, 49.71796
144.3683, 48.12486
144.8504, 46.99111
145.3326, 46.16146
145.8147, 45.75646
146.2968, 45.73909
146.7789, 45.41418
147.2610, 44.49485
147.7431, 43.52728
148.2253, 42.97964
148.7074, 43.22053
149.1895, 43.37119
149.6716, 43.26371
150.1537, 42.86798
150.6358, 42.50927
151.1180, 42.18781
151.6001, 41.90246
152.0822, 41.65685
152.5643, 41.45275
153.0464, 41.28213
153.5285, 41.12791
154.0107, 40.96730
154.4928, 40.91523
154.9749, 41.16301
155.4570, 41.46972
155.9391, 41.53141
156.4212, 41.02914
156.9034, 40.52630
157.3855, 40.19587
157.8676, 40.07263
158.3497, 40.07389
158.8318, 40.26421
159.3139, 40.56099
159.7961, 40.82380
160.2782, 41.06225
160.7603, 41.22673
161.2424, 41.26824
161.7245, 41.09587
162.2066, 40.99295
162.6888, 41.02434
163.1709, 41.19029
163.6530, 41.49246
164.1351, 42.11940
164.6172, 42.76573
165.0993, 43.22031
165.5815, 43.36382
166.0636, 43.44637
166.5457, 43.55165
167.0278, 43.68549
167.5099, 43.86819
167.9921, 44.12359
168.4742, 44.42469
168.9563, 44.74724
169.4384, 45.08205
169.9205, 45.44286
170.4026, 45.85699
170.8848, 46.31384
171.3669, 46.76022
171.8490, 47.14576
172.3311, 47.51010
172.8132, 47.89841
173.2953, 48.31556
173.7775, 48.77385
174.2596, 49.27990
174.7417, 49.83661
175.2238, 50.45190
175.7059, 51.13228
176.1880, 51.87023
176.6702, 52.64377
177.1523, 53.37780
177.6344, 54.19576
178.1165, 55.29560
178.5986, 56.67574
179.0807, 58.11396
179.5629, 59.55410
180.0450, 60.93715
180.5271, 62.10562
181.0092, 63.06063
181.4913, 63.75770
181.9734, 64.14856
182.4556, 64.23597
182.9377, 63.93103
183.4198, 63.01659
183.9019, 61.59679
184.3840, 60.06794
184.8661, 58.55596
185.3483, 56.95922
185.8304, 55.39949
186.3125, 53.63116
186.7946, 51.84521
187.2767, 50.04596
187.7588, 48.26882
188.2409, 46.82772
188.7231, 46.01706
189.2052, 45.65229
189.6873, 45.00056
190.1694, 44.00508
190.6515, 42.97147
191.1336, 42.25588
191.6158, 41.84837
192.0979, 41.61452
192.5800, 41.54018
193.0621, 41.60763
193.5442, 41.68502
194.0263, 41.75958
194.5085, 41.88604
194.9906, 42.16438
195.4727, 42.59413
195.9548, 43.04415
196.4369, 43.36738
196.9190, 43.58844
197.4012, 44.16919
197.8833, 45.16721
198.3654, 46.39234
198.8475, 47.50185
199.3296, 48.48421
199.8117, 49.52771
200.2939, 50.65950
200.7760, 51.86987
201.2581, 53.36953
201.7402, 55.14344
202.2223, 57.21830
202.7044, 59.69038
203.1866, 62.57039
203.6687, 65.65392
204.1508, 68.83314
204.6329, 72.09570
205.1150, 75.62716
205.5971, 79.50243
206.0793, 83.55913
206.5614, 87.49220
207.0435, 91.23162
207.5256, 94.97962
208.0077, 98.83634
208.4898, 102.8279
208.9720, 106.7553
209.4541, 110.5840
209.9362, 114.3773
210.4183, 118.2648
210.9004, 122.2072
211.3825, 126.2719
211.8647, 130.5347
212.3468, 135.0321
212.8289, 139.4900
213.3110, 143.7047
213.7931, 148.0388
214.2752, 153.2814
214.7574, 159.6916
215.2395, 166.4852
215.7216, 173.3262
216.2037, 179.9649
216.6858, 187.3262
217.1679, 195.4446
217.6501, 204.3096
218.1322, 213.7222
218.6143, 223.6899
219.0964, 234.3983
219.5785, 245.7467
220.0606, 257.9473
220.5428, 270.6537
221.0249, 284.1671
221.5070, 297.9844
221.9891, 310.7025
222.4712, 322.7650
222.9533, 333.1591
223.4355, 341.5140
223.9176, 348.6256
224.3997, 351.8307
224.8818, 351.0106
225.3639, 346.3918
225.8460, 338.1923
226.3282, 325.7319
226.8103, 310.9205
227.2924, 294.6172
227.7745, 275.8715
228.2566, 257.4230
228.7387, 239.0198
229.2209, 220.9702
229.7030, 204.4691
230.1851, 189.4242
230.6672, 175.7826
231.1493, 163.5090
231.6314, 152.6452
232.1136, 143.0683
232.5957, 135.0417
233.0778, 128.1602
233.5599, 121.7667
234.0420, 115.9651
234.5241, 110.4900
235.0063, 105.2348
235.4884, 100.1389
235.9705, 95.62009
236.4526, 91.81409
236.9347, 88.48840
237.4168, 85.11113
237.8990, 81.53409
238.3811, 78.14719
238.8632, 75.12812
239.3453, 72.52627
239.8274, 70.13520
240.3095, 68.01177
240.7917, 66.05395
241.2738, 64.04338
241.7559, 61.82456
242.2380, 59.81581
242.7201, 58.22647
243.2022, 57.20540
243.6844, 56.08348
244.1665, 54.78799
244.6486, 53.42799
245.1307, 52.19273
245.6128, 51.12218
246.0949, 50.10824
246.5771, 49.10022
247.0592, 48.05878
247.5413, 47.18922
248.0234, 46.58677
248.5055, 46.09578
248.9876, 45.46560
249.4697, 44.54286
249.9519, 43.75529
250.4340, 43.27629
250.9161, 43.19447
251.3982, 42.93603
251.8803, 42.37559
252.3624, 41.74288
252.8446, 41.40462
253.3267, 41.58002
253.8088, 41.60543
254.2909, 41.23077
254.7730, 40.37083
255.2551, 39.79268
255.7373, 39.61662
256.2194, 39.59992
256.7015, 39.45221
257.1836, 39.11892
257.6657, 38.77140
258.1479, 38.44431
258.6300, 38.14051
259.1121, 37.84496
259.5942, 37.54638
260.0763, 37.26759
260.5584, 37.01278
261.0406, 36.75441
261.5227, 36.60456
262.0048, 36.64663
262.4869, 36.87342
262.9690, 36.86827
263.4511, 36.49491
263.9333, 36.09045
264.4154, 36.00529
264.8975, 36.36623
265.3796, 36.65771
265.8617, 36.75986
266.3438, 36.69638
266.8260, 36.73170
267.3081, 36.89771
267.7902, 37.10555
268.2723, 37.26575
268.7544, 37.35398
269.2365, 37.50048
269.7187, 37.73661
270.2008, 38.04885
270.6829, 38.35454
271.1650, 38.65666
271.6471, 38.94409
272.1292, 39.18884
272.6114, 39.37572
273.0935, 39.59494
273.5756, 39.83070
274.0577, 40.11242
274.5398, 40.58765
275.0219, 41.30840
275.5041, 42.04781
275.9862, 42.61446
276.4683, 42.96822
276.9504, 43.51044
277.4325, 44.33451
277.9146, 45.31630
278.3968, 46.09594
278.8788, 46.61225
279.3610, 47.22566
279.8431, 48.20282
280.3252, 49.55121
280.8073, 50.78529
281.2894, 51.81876
281.7715, 52.82045
282.2537, 54.11332
282.7358, 55.71135
283.2179, 57.46887
283.7000, 59.34278
284.1821, 61.33877
284.6642, 63.35432
285.1464, 65.37664
285.6285, 67.47266
286.1106, 69.75284
286.5927, 72.21664
287.0748, 74.77741
287.5569, 77.39545
288.0391, 80.08607
288.5212, 82.86115
289.0033, 85.73319
289.4854, 88.68863
289.9675, 91.72849
290.4496, 94.86114
290.9318, 98.01016
291.4139, 101.1861
291.8960, 104.3908
292.3781, 107.5513
292.8602, 110.6922
293.3423, 113.8197
293.8245, 116.8880
294.3066, 119.9507
294.7887, 123.2795
295.2708, 126.9715
295.7529, 130.9373
296.2350, 134.9247
296.7172, 138.9194
297.1993, 143.1516
297.6814, 147.9746
298.1635, 153.2503
298.6456, 158.4818
299.1277, 163.5528
299.6099, 168.6264
300.0920, 173.7566
300.5741, 179.0157
301.0562, 184.4056
301.5383, 190.3365
302.0204, 196.4207
302.5026, 201.8961
302.9847, 206.7657
303.4668, 210.8081
303.9489, 214.2148
304.4310, 216.7193
304.9131, 217.5831
305.3953, 216.2570
305.8774, 213.0308
306.3595, 208.2255
306.8416, 201.8573
307.3237, 194.0984
307.8058, 184.7277
308.2880, 174.1145
308.7701, 163.1374
309.2522, 151.3879
309.7343, 139.8353
310.2164, 129.3837
310.6985, 120.0498
311.1807, 111.4342
311.6628, 103.1720
312.1449, 95.38207
312.6270, 88.50093
313.1091, 82.88416
313.5912, 78.00999
314.0734, 73.50137
314.5555, 69.36855
315.0376, 65.76765
315.5197, 63.00928
316.0018, 60.71556
316.4839, 58.56360
316.9661, 56.30937
317.4482, 54.27184
317.9303, 52.69051
318.4124, 51.50646
318.8945, 50.29622
319.3766, 48.68505
319.8588, 47.11597
320.3409, 45.94997
320.8230, 45.72023
321.3051, 45.28277
321.7872, 44.10892
322.2693, 42.45375
322.7515, 41.09699
323.2336, 40.47887
323.7157, 40.01206
324.1978, 39.40930
324.6799, 38.56115
325.1620, 37.73999
325.6442, 36.93987
326.1263, 36.19532
326.6084, 35.56744
327.0905, 35.21145
327.5726, 34.83669
328.0547, 34.34155
328.5369, 33.67869
329.0190, 33.05541
329.5011, 32.48742
329.9832, 31.95867
330.4653, 31.45269
330.9474, 30.94166
331.4296, 30.48829
331.9117, 30.10633
332.3938, 29.79926
332.8759, 29.53875
333.3580, 29.35615
333.8401, 29.18773
334.3223, 28.98142
334.8044, 28.70454
335.2865, 28.44757
335.7686, 28.19959
336.2507, 27.97586
336.7328, 27.62910
337.2150, 27.92525
337.6971, 28.08229
338.1792, 28.10823
338.6613, 27.58076
339.1434, 27.79060
339.6255, 27.71883
340.1077, 27.64501
340.5898, 27.98694
341.0719, 27.59091
341.5540, 27.94621
342.0361, 28.01544
342.5182, 28.23003
343.0004, 28.16123
343.4825, 28.19291
343.9646, 28.20611
344.4467, 28.38674
344.9288, 28.70722
345.4109, 28.92645
345.8931, 28.87267
346.3752, 28.64870
346.8573, 28.72089
347.3394, 29.11623
347.8215, 29.58350
348.3036, 29.87392
348.7858, 30.01860
349.2679, 30.16555
349.7500, 30.34372
350.2321, 30.55292
350.7142, 30.76245
351.1964, 30.97931
351.6785, 31.28968
352.1606, 31.86920
352.6427, 32.56607
353.1248, 33.06449
353.6069, 33.26485
354.0891, 33.41051
354.5712, 33.78112
355.0533, 34.31586
355.5354, 34.84966
356.0175, 35.30676
356.4996, 35.70453
356.9818, 36.02080
357.4639, 36.23527
357.9460, 36.54999
358.4281, 37.26892
358.9102, 38.14822
359.3923, 38.82092
359.8745, 38.98233
360.3566, 39.02151
360.8387, 39.21869
361.3208, 39.55621
361.8029, 39.73800
362.2850, 39.51263
362.7672, 39.13265
363.2493, 38.81194
363.7314, 38.77339
364.2135, 38.59425
364.6956, 38.03091
365.1777, 37.20478
365.6599, 36.49840
366.1420, 36.17733
366.6241, 35.86339
367.1062, 35.35913
367.5883, 34.51271
368.0704, 33.76712
368.5526, 33.27235
369.0347, 32.88456
369.5168, 32.37176
369.9989, 31.42233
370.4810, 30.66153
370.9631, 30.29197
371.4453, 30.38421
371.9274, 30.30927
372.4095, 29.97582
372.8916, 29.55342
373.3737, 29.18101
373.8558, 28.87522
374.3380, 28.58639
374.8201, 28.31422
375.3022, 28.05261
375.7843, 27.77205
376.2664, 27.45859
376.7485, 27.15057
377.2307, 26.86202
377.7128, 26.58483
378.1949, 26.36794
378.6770, 26.21631
379.1591, 26.12625
379.6412, 26.12146
380.1234, 26.21490
380.6055, 26.27297
381.0876, 26.23409
381.5697, 26.10864
382.0518, 25.93035
382.5339, 25.68317
383.0161, 25.48223
383.4982, 25.51967
383.9803, 25.74455
384.4624, 25.87510
384.9445, 25.78851
385.4266, 25.60156
385.9088, 25.49862
386.3909, 25.47852
386.8730, 25.52335
387.3551, 25.69974
387.8372, 25.91512
388.3193, 25.99349
388.8015, 25.87282
389.2836, 25.70860
389.7657, 25.61710
390.2478, 25.59200
390.7299, 25.62095
391.2120, 25.73347
391.6942, 25.87428
392.1763, 26.00294
392.6584, 26.11566
393.1405, 26.21601
393.6226, 26.30875
394.1047, 26.38926
394.5869, 26.45126
395.0690, 26.37837
395.5511, 26.40013
396.0332, 26.70198
396.5153, 27.21408
396.9974, 27.56037
397.4796, 27.40438
397.9617, 27.22968
398.4438, 27.30952
398.9259, 27.85057
399.4080, 28.33253
399.8901, 28.65493
400.3723, 28.89938
400.8544, 29.21503
401.3365, 29.71698
401.8186, 30.15841
402.3007, 30.46624
402.7828, 30.62541
403.2649, 30.77448
403.7470, 30.86044
404.2292, 30.99409
404.7113, 31.29714
405.1934, 31.85336
405.6755, 32.33020
406.1576, 32.63839
406.6397, 32.84424
407.1219, 33.19211
407.6040, 33.71020
408.0861, 34.25923
408.5682, 34.74194
409.0503, 35.15234
409.5324, 35.66837
410.0146, 36.31468
410.4967, 37.01586
410.9788, 37.63821
411.4609, 38.19268
411.9430, 38.83874
412.4251, 39.65455
412.9073, 40.59247
413.3894, 41.55138
413.8715, 42.53897
414.3536, 43.67740
414.8357, 45.14188
415.3178, 46.83316
415.8000, 48.52870
416.2821, 50.15638
416.7642, 51.85971
417.2463, 53.71080
417.7284, 55.75152
418.2105, 58.03587
418.6927, 60.69065
419.1748, 63.55291
419.6569, 66.46706
420.1390, 69.41204
420.6211, 72.69305
421.1032, 76.48124
421.5854, 80.73209
422.0675, 85.39127
422.5496, 90.71217
423.0317, 96.20634
423.5138, 101.7741
423.9959, 107.3933
424.4781, 113.2951
424.9602, 119.4937
425.4423, 125.8604
425.9244, 132.4115
426.4065, 139.3028
426.8886, 145.9621
427.3708, 152.0352
427.8529, 158.0747
428.3350, 165.0386
428.8171, 173.4069
429.2992, 181.7785
429.7813, 189.5018
430.2635, 196.6011
430.7456, 205.4293
431.2277, 216.3390
431.7098, 228.0990
432.1919, 239.5901
432.6740, 250.7129
433.1562, 262.7710
433.6383, 275.8753
434.1204, 290.0603
434.6025, 305.7788
435.0846, 322.9951
435.5667, 340.1729
436.0489, 356.6722
436.5310, 372.6782
437.0131, 389.0506
437.4952, 405.9889
437.9773, 421.7986
438.4594, 435.5254
438.9416, 446.8819
439.4237, 455.3580
439.9058, 461.4632
440.3879, 463.8129
440.8700, 461.0223
441.3521, 453.3906
441.8343, 441.9479
442.3164, 425.8674
442.7985, 407.0856
443.2806, 386.5731
443.7627, 364.2594
444.2448, 341.9600
444.7270, 319.7961
445.2091, 298.4779
445.6912, 278.9682
446.1733, 261.7718
446.6554, 246.0493
447.1375, 231.8484
447.6197, 219.0693
448.1018, 207.4189
448.5839, 197.0235
449.0660, 187.7145
449.5481, 179.6456
450.0302, 173.5648
450.5124, 167.0354
450.9945, 159.9250
451.4766, 152.5261
451.9587, 145.3092
452.4408, 138.1666
452.9229, 131.4246
453.4051, 125.1280
453.8872, 119.2749
454.3693, 113.3441
454.8514, 107.2510
455.3335, 101.3660
455.8156, 95.85139
456.2978, 90.73457
456.7799, 86.08377
457.2620, 81.89236
457.7441, 78.09597
458.2262, 74.53773
458.7083, 71.24828
459.1905, 68.20863
459.6726, 65.41856
460.1547, 62.90281
460.6368, 60.76641
461.1189, 58.98253
461.6010, 57.33220
462.0832, 55.73250
462.5653, 54.14032
463.0474, 52.51760
463.5295, 50.74792
464.0116, 49.09398
464.4937, 47.70299
464.9759, 46.52730
465.4580, 45.51429
465.9401, 44.78638
466.4222, 44.09229
466.9043, 43.34962
467.3864, 42.55289
467.8686, 41.70356
468.3507, 40.61666
468.8328, 39.59441
469.3149, 38.86913
469.7970, 38.70995
470.2791, 38.40138
470.7613, 37.85157
471.2434, 37.13655
471.7255, 36.43705
472.2076, 35.70419
472.6897, 35.11125
473.1718, 34.77380
473.6540, 34.69348
474.1361, 34.43204
474.6182, 33.95576
475.1003, 33.42193
475.5824, 32.99372
476.0645, 32.65834
476.5467, 32.30909
477.0288, 31.90556
477.5109, 31.50695
477.9930, 31.25170
478.4751, 31.10498
478.9572, 30.90066
479.4394, 30.49260
479.9215, 29.99609
480.4036, 29.55364
480.8857, 29.17078
481.3678, 28.82392
481.8499, 28.52898
482.3321, 28.24693
482.8142, 27.93416
483.2963, 27.51172
483.7784, 27.13843
484.2605, 26.90123
484.7426, 26.76232
485.2248, 26.63086
485.7069, 26.51273
486.1890, 26.37604
486.6711, 26.19036
487.1532, 25.92860
487.6353, 25.75701
488.1175, 25.79175
488.5996, 25.82171
489.0817, 25.64755
489.5638, 25.11197
490.0459, 24.77094
490.5280, 24.71516
491.0102, 24.86111
491.4923, 25.02557
491.9744, 25.22456
492.4565, 25.36205
492.9386, 25.39083
493.4207, 25.32116
493.9029, 25.22185
494.3850, 25.09247
494.8671, 24.93023
495.3492, 24.64896
495.8313, 24.32734
496.3134, 24.22107
496.7956, 24.46569
497.2777, 24.75019
497.7598, 24.69621
498.2419, 24.40919
498.7240, 24.15504
499.2061, 24.01895
499.6883, 23.99477
500.1704, 24.15323
500.6525, 24.48712
501.1346, 24.69628
501.6167, 24.57055
502.0988, 24.33100
502.5810, 24.13433
503.0631, 23.97767
503.5452, 23.90391
504.0273, 23.99738
504.5094, 24.16139
504.9915, 24.22545
505.4737, 24.12700
505.9558, 24.01914
506.4379, 23.92447
506.9200, 23.84521
507.4021, 23.82683
507.8842, 23.87662
508.3664, 23.97027
508.8485, 24.10988
509.3306, 24.29714
509.8127, 24.45336
510.2948, 24.58258
510.7769, 24.65183
511.2591, 24.56417
511.7412, 24.35066
512.2233, 24.18919
512.7054, 24.14938
513.1875, 24.19013
513.6696, 24.26092
514.1517, 24.36145
514.6339, 24.48975
515.1160, 24.66185
515.5981, 24.85124
516.0802, 25.04023
516.5623, 25.22989
517.0444, 25.40046
517.5266, 25.52267
518.0087, 25.62930
518.4908, 25.75606
518.9729, 25.94437
519.4550, 26.11735
519.9371, 26.23319
520.4193, 26.31478
520.9014, 26.45972
521.3835, 26.77270
521.8656, 27.01338
522.3477, 27.05550
522.8298, 26.85378
523.3120, 26.84106
523.7941, 27.07473
524.2762, 27.37944
524.7583, 27.59452
525.2404, 27.71819
525.7225, 27.81399
526.2047, 27.88436
526.6868, 27.94610
527.1689, 28.01080
527.6510, 28.08523
528.1331, 28.21279
528.6152, 28.44539
529.0974, 28.72915
529.5795, 28.98821
530.0616, 29.22619
530.5437, 29.47703
531.0258, 29.79815
531.5079, 30.12613
531.9901, 30.38674
532.4722, 30.50883
532.9543, 30.72512
533.4364, 31.22188
533.9185, 31.83772
534.4006, 32.36313
534.8828, 32.59147
535.3649, 32.90734
535.8470, 33.44174
536.3291, 34.14788
536.8112, 34.72588
537.2933, 35.12854
537.7755, 35.47363
538.2576, 35.77217
538.7397, 35.99859
539.2218, 36.42808
539.7039, 37.09052
540.1860, 37.85647
540.6682, 38.59301
541.1503, 39.29821
541.6324, 39.97899
542.1145, 40.60950
542.5966, 41.25727
543.0787, 42.01332
543.5609, 42.87468
544.0430, 43.82984
544.5251, 44.99726
545.0072, 46.17877
545.4893, 47.10970
545.9714, 47.80671
546.4536, 48.55433
546.9357, 49.48074
547.4178, 50.53239
547.8999, 51.69761
548.3820, 53.07831
548.8641, 54.32746
549.3463, 55.22799
549.8284, 56.01023
550.3105, 56.98678
550.7926, 58.39040
551.2747, 59.63626
551.7568, 60.60157
552.2390, 61.35766
552.7211, 62.21465
553.2032, 63.17204
553.6853, 64.23517
554.1674, 65.48296
554.6495, 66.89124
555.1317, 68.05206
555.6138, 68.92723
556.0959, 69.70717
556.5780, 70.64609
557.0601, 71.62840
557.5422, 72.33175
558.0244, 72.67078
558.5065, 72.77657
558.9886, 72.68736
559.4707, 72.46614
559.9528, 72.24112
560.4349, 72.10398
560.9171, 71.94064
561.3992, 71.74924
561.8813, 71.50256
562.3634, 71.04622
562.8455, 70.28789
563.3276, 69.34900
563.8098, 68.22540
564.2919, 66.81882
564.7740, 65.61385
565.2561, 64.69640
565.7382, 63.89424
566.2203, 63.06245
566.7025, 62.22381
567.1846, 61.22768
567.6667, 60.02653
568.1488, 58.67167
568.6309, 57.20646
569.1130, 55.63176
569.5952, 54.24294
570.0773, 53.24064
570.5594, 52.46326
571.0415, 51.59930
571.5236, 50.64591
572.0057, 49.61616
572.4879, 48.36811
572.9700, 47.11625
573.4521, 46.10006
573.9342, 45.37386
574.4163, 44.70685
574.8984, 44.01464
575.3806, 43.31920
575.8627, 42.63425
576.3448, 41.98242
576.8269, 41.32690
577.3090, 40.65902
577.7911, 39.98330
578.2733, 39.28363
578.7554, 38.54630
579.2375, 37.83342
579.7196, 37.16367
580.2017, 36.53148
580.6838, 35.93736
581.1660, 35.38190
581.6481, 34.87166
582.1302, 34.42990
582.6123, 34.04347
583.0944, 33.66781
583.5765, 33.29917
584.0587, 32.94263
584.5408, 32.67554
585.0229, 32.41440
585.5050, 31.99875
585.9871, 31.25917
586.4692, 30.54614
586.9514, 30.06104
587.4335, 29.74930
587.9156, 29.50906
588.3977, 29.36239
588.8798, 29.22860
589.3619, 29.08126
589.8441, 28.91945
