##NAMES=Argentopyrite
##RRUFFID=R090026
##IDEAL CHEMISTRY=Ag^1+^Fe_2_S^2-^_3_
##LOCALITY=Schaft 209, Aue, Niederschlema, Erzgebirge, Saxony, Germany
##OWNER=RRUFF
##SOURCE=Mark N. Feinglos
##DESCRIPTION=Bronze tarnished rectangular prism. Sample used by Yang et al (2009) for structure determination.
##STATUS=The identification of this mineral is confirmed by single-crystal X-ray diffraction and chemical analysis.
##URL=rruff.info/R090026
##MEASURED CHEMISTRY=Ag_0.96_Fe_2.01_S_3_
90.92609, 0.0000000E+00
91.40820, 20.20921
91.89032, 20.27570
92.37244, 20.16411
92.85455, 19.92505
93.33667, 19.86037
93.81879, 20.53100
94.30090, 21.59965
94.78302, 21.96554
95.26514, 21.04746
95.74725, 19.56947
96.22937, 19.38453
96.71149, 20.60685
97.19360, 21.84595
97.67572, 21.60714
98.15784, 19.91966
98.63995, 18.28973
99.12207, 16.92301
99.60419, 15.89822
100.0863, 15.97673
100.5684, 17.44315
101.0505, 19.44945
101.5327, 21.11425
102.0148, 22.56288
102.4969, 23.17734
102.9790, 22.44465
103.4611, 19.94989
103.9432, 18.47929
104.4253, 18.37924
104.9075, 19.12699
105.3896, 19.61718
105.8717, 19.26496
106.3538, 19.45963
106.8359, 20.88530
107.3180, 25.03644
107.8002, 27.77680
108.2823, 28.34736
108.7644, 27.36485
109.2465, 27.11665
109.7286, 27.66969
110.2107, 28.92013
110.6929, 30.83733
111.1750, 34.20363
111.6571, 37.34638
112.1392, 40.07849
112.6213, 42.43686
113.1034, 44.80135
113.5856, 46.68207
114.0677, 48.91405
114.5498, 52.06804
115.0319, 56.54752
115.5140, 61.71032
115.9961, 67.09115
116.4783, 72.70309
116.9604, 79.59756
117.4425, 89.53387
117.9246, 100.6331
118.4067, 110.7265
118.8888, 118.7821
119.3710, 125.9269
119.8531, 132.4791
120.3352, 138.3421
120.8173, 144.5996
121.2994, 152.9308
121.7815, 162.0113
122.2637, 169.5673
122.7458, 172.6859
123.2279, 174.5706
123.7100, 178.4046
124.1921, 184.7591
124.6742, 192.0742
125.1564, 199.0628
125.6385, 205.8572
126.1206, 212.9077
126.6027, 220.3788
127.0848, 228.2436
127.5669, 236.3195
128.0491, 244.4388
128.5312, 253.0537
129.0133, 262.7849
129.4954, 273.5350
129.9775, 285.2167
130.4596, 298.6519
130.9418, 313.1227
131.4239, 326.2852
131.9060, 337.5261
132.3881, 347.4048
132.8702, 356.9265
133.3523, 366.1361
133.8345, 375.0097
134.3166, 383.6578
134.7987, 392.1416
135.2808, 399.7314
135.7629, 406.1014
136.2450, 411.5819
136.7272, 417.6734
137.2093, 424.5308
137.6914, 431.6248
138.1735, 438.6367
138.6556, 445.6655
139.1377, 451.8631
139.6199, 457.0665
140.1020, 461.2343
140.5841, 464.4508
141.0662, 466.1447
141.5483, 467.6035
142.0304, 470.3452
142.5126, 474.3172
142.9947, 479.4796
143.4768, 484.6241
143.9589, 489.0396
144.4410, 492.5816
144.9231, 494.4151
145.4053, 495.9626
145.8874, 499.6977
146.3695, 507.8081
146.8516, 514.9876
147.3337, 519.3880
147.8158, 519.9799
148.2980, 520.8146
148.7801, 522.0806
149.2622, 523.5639
149.7443, 524.7796
150.2264, 524.2693
150.7085, 524.8080
151.1907, 527.5304
151.6728, 535.3063
152.1549, 540.5190
152.6370, 541.2556
153.1191, 539.2756
153.6012, 538.8945
154.0834, 543.0126
154.5655, 546.7936
155.0476, 548.1867
155.5297, 545.4380
156.0118, 542.3459
156.4939, 538.8488
156.9761, 535.2441
157.4582, 532.6782
157.9403, 531.6229
158.4224, 531.5057
158.9045, 532.0276
159.3866, 534.0009
159.8688, 535.5913
160.3509, 535.8599
160.8330, 535.1506
161.3151, 535.0551
161.7972, 536.8118
162.2793, 539.0556
162.7615, 540.7477
163.2436, 541.5751
163.7257, 541.8325
164.2078, 541.3757
164.6899, 540.3101
165.1720, 539.3939
165.6541, 538.7859
166.1363, 538.5740
166.6184, 538.8453
167.1005, 540.4188
167.5826, 541.8534
168.0647, 542.0356
168.5468, 541.0583
169.0290, 540.1768
169.5111, 540.4045
169.9932, 541.1357
170.4753, 541.5726
170.9574, 541.4697
171.4395, 540.9122
171.9217, 539.7778
172.4038, 538.0764
172.8859, 536.4363
173.3680, 534.9641
173.8501, 533.9191
174.3322, 533.7270
174.8144, 535.6091
175.2965, 537.9733
175.7786, 538.7014
176.2607, 537.7358
176.7428, 536.3276
177.2249, 535.3699
177.7071, 534.8170
178.1892, 534.5388
178.6713, 534.4703
179.1534, 534.6371
179.6355, 535.2103
180.1176, 536.2458
180.5998, 537.2302
181.0819, 537.5891
181.5640, 537.4286
182.0461, 537.1515
182.5282, 536.9042
183.0103, 536.6746
183.4925, 536.3391
183.9746, 535.8301
184.4567, 535.5430
184.9388, 536.4991
185.4209, 538.4109
185.9030, 539.4595
186.3852, 538.0833
186.8673, 535.0624
187.3494, 533.0300
187.8315, 532.1477
188.3136, 532.1237
188.7957, 532.9497
189.2779, 534.5430
189.7600, 535.7990
190.2421, 535.9503
190.7242, 535.1951
191.2063, 534.5897
191.6884, 534.1317
192.1706, 533.9427
192.6527, 534.3365
193.1348, 535.3151
193.6169, 536.2818
194.0990, 537.0538
194.5811, 537.6036
195.0633, 537.6285
195.5454, 537.0201
196.0275, 536.0521
196.5096, 535.0927
196.9917, 534.0984
197.4738, 533.5161
197.9560, 533.9192
198.4381, 535.3168
198.9202, 535.8463
199.4023, 535.3300
199.8844, 534.0704
200.3665, 532.2932
200.8487, 529.7618
201.3308, 528.0974
201.8129, 528.5640
202.2950, 531.3865
202.7771, 533.4068
203.2592, 534.4456
203.7414, 534.7241
204.2235, 534.4567
204.7056, 533.3597
205.1877, 532.7873
205.6698, 533.8429
206.1519, 536.9759
206.6341, 538.5609
207.1162, 537.9141
207.5983, 536.1303
208.0804, 535.8221
208.5625, 537.4543
209.0446, 539.1263
209.5268, 539.8895
210.0089, 539.5698
210.4910, 539.1561
210.9731, 538.6193
211.4552, 538.0452
211.9373, 537.5933
212.4195, 537.1910
212.9016, 537.1099
213.3837, 537.4982
213.8658, 538.4182
214.3479, 539.6765
214.8300, 541.5229
215.3121, 543.5689
215.7943, 544.7667
216.2764, 544.7176
216.7585, 544.6219
217.2406, 545.0804
217.7227, 546.3575
218.2048, 547.3004
218.6870, 547.9041
219.1691, 548.1523
219.6512, 548.0112
220.1333, 547.4142
220.6154, 546.5328
221.0975, 545.3022
221.5797, 543.3895
222.0618, 542.1609
222.5439, 541.7881
223.0260, 542.0325
223.5081, 542.5048
223.9902, 543.7485
224.4724, 544.2879
224.9545, 543.0795
225.4366, 538.5683
225.9187, 536.9983
226.4008, 539.8882
226.8829, 545.0042
227.3651, 547.5167
227.8472, 546.3360
228.3293, 544.3923
228.8114, 542.6492
229.2935, 540.9132
229.7757, 540.0209
230.2578, 540.4037
230.7399, 541.4135
231.2220, 541.6716
231.7041, 540.3746
232.1862, 539.5969
232.6684, 540.2469
233.1505, 542.9680
233.6326, 545.0348
234.1147, 546.4148
234.5968, 547.1586
235.0789, 547.2275
235.5611, 546.0629
236.0432, 545.1432
236.5253, 545.0776
237.0074, 546.2650
237.4895, 546.8202
237.9716, 546.3298
238.4538, 545.4660
238.9359, 545.4136
239.4180, 546.9698
239.9001, 548.0281
240.3822, 547.6716
240.8643, 545.3360
241.3465, 544.3083
241.8286, 545.2377
242.3107, 547.0137
242.7928, 548.0713
243.2749, 548.1514
243.7570, 547.9361
244.2392, 547.4709
244.7213, 546.6227
245.2034, 546.3877
245.6855, 547.1636
246.1676, 548.2237
246.6497, 548.5878
247.1319, 547.7247
247.6140, 547.1489
248.0961, 547.2393
248.5782, 548.0498
249.0603, 549.1863
249.5424, 551.0585
250.0246, 552.8898
250.5067, 553.7333
250.9888, 552.9068
251.4709, 552.4446
251.9530, 552.8589
252.4351, 554.1996
252.9173, 555.5386
253.3994, 557.2885
253.8815, 558.5723
254.3636, 558.1782
254.8457, 554.5911
255.3278, 552.7175
255.8100, 554.0936
256.2921, 558.6020
256.7742, 561.3769
257.2563, 561.8355
257.7384, 561.3428
258.2205, 560.9894
258.7026, 560.8270
259.1848, 560.6882
259.6669, 560.5661
260.1490, 560.4620
260.6311, 560.4044
261.1132, 560.5763
261.5953, 560.5220
262.0775, 559.6110
262.5596, 557.0246
263.0417, 556.1272
263.5238, 558.0445
264.0059, 561.9499
264.4880, 563.7229
264.9702, 562.5115
265.4523, 560.7745
265.9344, 560.1457
266.4165, 561.0189
266.8986, 561.4976
267.3807, 561.3111
267.8629, 560.6730
268.3450, 560.2762
268.8271, 560.1680
269.3092, 560.1920
269.7913, 560.2946
270.2734, 560.5109
270.7556, 560.6943
271.2377, 560.8600
271.7198, 561.0007
272.2019, 561.0715
272.6840, 561.0543
273.1661, 561.0741
273.6483, 561.2075
274.1304, 561.4717
274.6125, 561.7100
275.0946, 561.9125
275.5767, 562.0779
276.0588, 561.9600
276.5410, 561.3269
277.0231, 561.5417
277.5052, 563.5703
277.9873, 567.4512
278.4694, 570.3604
278.9515, 572.2115
279.4337, 573.2275
279.9158, 573.6127
280.3979, 573.3314
280.8800, 572.7276
281.3621, 571.6857
281.8442, 570.3207
282.3264, 569.8397
282.8085, 570.3769
283.2906, 571.3788
283.7727, 572.3226
284.2548, 573.2180
284.7369, 573.9636
285.2191, 574.5578
285.7012, 574.9843
286.1833, 575.0011
286.6654, 574.5150
287.1475, 574.2560
287.6296, 575.2968
288.1118, 577.4626
288.5939, 578.8254
289.0760, 578.5284
289.5581, 577.4472
290.0402, 578.0625
290.5223, 580.4305
291.0045, 582.7618
291.4866, 583.6066
291.9687, 583.2028
292.4508, 582.6185
292.9329, 581.9201
293.4150, 581.3250
293.8972, 581.2610
294.3793, 581.6995
294.8614, 582.2546
295.3435, 582.7668
295.8256, 583.2061
296.3077, 583.3195
296.7899, 582.8975
297.2720, 582.6904
297.7541, 584.0512
298.2362, 586.6556
298.7183, 589.0802
299.2004, 590.3488
299.6826, 590.9296
300.1647, 591.7789
300.6468, 593.0087
301.1289, 594.1459
301.6110, 594.2467
302.0931, 593.8049
302.5753, 594.1409
303.0574, 596.6196
303.5395, 599.8892
304.0216, 602.3157
304.5037, 603.8835
304.9858, 604.6188
305.4680, 603.5730
305.9501, 601.8472
306.4322, 601.3434
306.9143, 603.8060
307.3964, 607.0230
307.8785, 608.9356
308.3607, 609.6543
308.8428, 610.2855
309.3249, 611.4252
309.8070, 612.9359
310.2891, 614.5992
310.7712, 615.9852
311.2534, 617.9988
311.7355, 621.9070
312.2176, 627.1859
312.6997, 631.7805
313.1818, 633.7051
313.6639, 634.9265
314.1461, 637.1566
314.6282, 641.2692
315.1103, 645.2249
315.5924, 647.9621
316.0745, 649.7977
316.5566, 651.4338
317.0388, 653.4363
317.5209, 655.0924
318.0030, 656.0233
318.4851, 656.1503
318.9672, 655.7139
319.4493, 654.5557
319.9315, 652.9597
320.4136, 651.2811
320.8957, 649.9498
321.3778, 648.2713
321.8599, 645.8835
322.3420, 642.7138
322.8242, 639.4904
323.3063, 636.1367
323.7884, 632.9011
324.2705, 630.0000
324.7526, 627.9344
325.2347, 625.6897
325.7169, 622.5906
326.1990, 618.7763
326.6811, 616.3916
327.1632, 616.5319
327.6453, 617.4936
328.1274, 618.3358
328.6096, 618.8954
329.0917, 619.5156
329.5738, 620.1555
330.0559, 620.8517
330.5380, 621.6883
331.0201, 621.9637
331.5023, 623.1507
331.9844, 626.0878
332.4665, 631.9739
332.9486, 636.5385
333.4307, 639.0057
333.9128, 640.5302
334.3950, 643.1201
334.8771, 647.5820
335.3592, 651.6262
335.8413, 654.3870
336.3234, 655.7195
336.8055, 657.5502
337.2877, 660.5037
337.7698, 663.0599
338.2519, 663.4974
338.7340, 661.5159
339.2161, 658.5201
339.6982, 654.6165
340.1803, 649.9171
340.6624, 645.4669
341.1446, 641.3981
341.6267, 636.9783
342.1088, 631.0595
342.5909, 623.6017
343.0730, 617.3668
343.5551, 612.9335
344.0373, 609.7490
344.5194, 606.7101
345.0015, 603.7778
345.4836, 601.2314
345.9657, 598.8692
346.4478, 596.9008
346.9300, 596.9495
347.4121, 599.5683
347.8942, 602.5449
348.3763, 602.5372
348.8584, 600.0120
349.3405, 597.7141
349.8227, 597.0143
350.3048, 597.3712
350.7869, 597.7516
351.2690, 598.1627
351.7511, 598.5305
352.2332, 598.3887
352.7154, 598.1631
353.1975, 598.8033
353.6796, 600.9481
354.1617, 603.7281
354.6438, 606.2309
355.1259, 608.5003
355.6081, 610.7973
356.0902, 613.2863
356.5723, 615.8997
357.0544, 618.7072
357.5365, 621.9738
358.0186, 624.7134
358.5008, 625.5817
358.9829, 625.3976
359.4650, 625.9295
359.9471, 628.3112
360.4292, 631.4311
360.9113, 634.7061
361.3935, 638.0756
361.8756, 641.4269
362.3577, 644.7068
362.8398, 647.9590
363.3219, 651.2321
363.8040, 654.0194
364.2862, 657.3593
364.7683, 661.6282
365.2504, 666.8400
365.7325, 672.5484
366.2146, 679.4735
366.6967, 686.3967
367.1789, 692.5622
367.6610, 697.3956
368.1431, 702.0643
368.6252, 706.2175
369.1073, 710.2452
369.5894, 715.3339
370.0716, 724.0719
370.5537, 731.2459
371.0358, 734.8682
371.5179, 733.8154
372.0000, 732.6465
372.4821, 731.8981
372.9643, 730.6691
373.4464, 727.6885
373.9285, 722.5563
374.4106, 716.5071
374.8927, 709.5790
375.3748, 701.7708
375.8570, 694.0734
376.3391, 686.2703
376.8212, 678.8752
377.3033, 672.3945
377.7854, 667.0262
378.2675, 661.1693
378.7497, 654.0577
379.2318, 646.7990
379.7139, 642.5128
380.1960, 641.4815
380.6781, 640.5635
381.1602, 637.7058
381.6424, 633.2741
382.1245, 629.7496
382.6066, 627.4075
383.0887, 625.2031
383.5708, 621.3040
384.0529, 616.1699
384.5351, 611.8414
385.0172, 609.6591
385.4993, 608.6086
385.9814, 606.8043
386.4635, 604.2946
386.9456, 601.8118
387.4278, 599.8289
387.9099, 598.3174
388.3920, 597.2986
388.8741, 597.0798
389.3562, 596.8301
389.8383, 595.6092
390.3205, 593.7184
390.8026, 592.0472
391.2847, 591.2285
391.7668, 590.7029
392.2489, 590.0696
392.7310, 589.2839
393.2132, 588.3762
393.6953, 587.1838
394.1774, 585.9476
394.6595, 584.9519
395.1416, 584.3209
395.6237, 583.9266
396.1059, 583.8799
396.5880, 584.1455
397.0701, 584.1816
397.5522, 583.4690
398.0343, 582.7744
398.5164, 582.5689
398.9986, 584.1993
399.4807, 584.6158
399.9628, 582.8158
400.4449, 579.8178
400.9270, 577.9693
401.4091, 577.8086
401.8913, 578.1266
402.3734, 578.5519
402.8555, 579.0387
403.3376, 579.9818
403.8197, 581.7833
404.3018, 583.5643
404.7840, 584.2573
405.2661, 583.5009
405.7482, 582.9245
406.2303, 582.9918
406.7124, 583.4295
407.1945, 582.8253
407.6767, 580.8932
408.1588, 579.2922
408.6409, 579.5859
409.1230, 581.5911
409.6051, 582.4725
410.0872, 581.8168
410.5694, 580.5618
411.0515, 580.2167
411.5336, 580.6212
412.0157, 580.7643
412.4978, 579.5167
412.9799, 577.9159
413.4621, 578.5358
413.9442, 581.3331
414.4263, 583.8942
414.9084, 583.9602
415.3905, 582.5727
415.8727, 581.4224
416.3548, 581.0770
416.8369, 580.8836
417.3190, 579.9078
417.8011, 578.5961
418.2832, 578.1270
418.7654, 580.1364
419.2475, 582.4639
419.7296, 583.5314
420.2117, 583.0165
420.6938, 582.2636
421.1759, 581.3925
421.6581, 580.7139
422.1402, 580.5513
422.6223, 581.6172
423.1044, 582.5344
423.5865, 582.9688
424.0686, 582.9476
424.5508, 582.7488
425.0329, 582.3699
425.5150, 581.8387
425.9971, 581.1320
426.4792, 579.9991
426.9613, 579.2268
427.4435, 578.8698
427.9256, 578.8605
428.4077, 579.2398
428.8898, 580.5517
429.3719, 580.9901
429.8540, 579.6484
430.3362, 576.7396
430.8183, 575.4407
431.3004, 576.1075
431.7825, 577.3973
432.2646, 578.3788
432.7467, 579.0499
433.2289, 579.1963
433.7110, 578.6208
434.1931, 577.7860
434.6752, 577.6536
435.1573, 578.1501
435.6394, 578.5076
436.1216, 578.1686
436.6036, 577.4297
437.0858, 576.8535
437.5679, 576.4401
438.0500, 576.3934
438.5321, 577.3698
439.0142, 578.7498
439.4963, 579.3951
439.9785, 578.3581
440.4606, 577.3414
440.9427, 578.0729
441.4248, 580.0190
441.9069, 581.5847
442.3890, 581.9653
442.8712, 581.7492
443.3533, 581.2675
443.8354, 580.5448
444.3175, 579.6482
444.7996, 578.1456
445.2817, 576.6754
445.7639, 575.8916
446.2460, 576.5191
446.7281, 577.1611
447.2102, 577.6581
447.6923, 577.9807
448.1744, 577.9587
448.6566, 577.0298
449.1387, 576.3250
449.6208, 576.3731
450.1029, 577.4109
450.5850, 578.5275
451.0671, 579.9128
451.5493, 581.1661
452.0314, 581.5804
452.5135, 580.9213
452.9956, 580.4745
453.4777, 580.7234
453.9598, 581.4301
454.4420, 581.4647
454.9241, 580.7676
455.4062, 579.9697
455.8883, 579.5599
456.3704, 579.4592
456.8525, 579.3700
457.3347, 579.3135
457.8168, 579.0782
458.2989, 577.8519
458.7810, 576.1411
459.2631, 575.4727
459.7452, 577.6185
460.2274, 580.4840
460.7095, 581.6862
461.1916, 581.4005
461.6737, 580.8085
462.1558, 580.4395
462.6379, 580.1953
463.1201, 580.0039
463.6022, 579.8973
464.0843, 579.7149
464.5664, 579.1785
465.0485, 578.5580
465.5306, 578.2878
466.0128, 578.7586
466.4949, 579.2979
466.9770, 579.9308
467.4591, 580.6719
467.9412, 580.5629
468.4233, 578.2640
468.9055, 576.2714
469.3876, 576.1879
469.8697, 579.5576
470.3518, 581.3696
470.8339, 580.8334
471.3160, 579.2064
471.7982, 578.9335
472.2803, 580.3682
472.7624, 581.7626
473.2445, 582.5330
473.7266, 582.7646
474.2087, 582.7994
474.6909, 582.5779
475.1730, 582.6076
475.6551, 583.7950
476.1372, 585.7055
476.6193, 586.3466
477.1014, 585.1268
477.5836, 583.4587
478.0657, 583.2015
478.5478, 583.9381
479.0299, 584.4791
479.5120, 584.0805
479.9941, 583.3595
480.4763, 582.6199
480.9584, 581.9388
481.4405, 581.9737
481.9226, 583.9976
482.4047, 586.3645
482.8868, 587.6441
483.3690, 586.8873
483.8511, 586.4072
484.3332, 587.3307
484.8153, 588.8457
485.2974, 589.6461
485.7795, 589.3276
486.2617, 588.4847
486.7438, 586.9103
487.2259, 584.6285
487.7080, 583.2642
488.1901, 583.1021
488.6722, 583.4729
489.1544, 584.0060
489.6365, 584.6881
490.1186, 585.6255
490.6007, 586.9632
491.0828, 588.3535
491.5649, 589.3600
492.0471, 589.9805
492.5292, 589.9992
493.0113, 588.9379
493.4934, 587.4250
493.9755, 587.4291
494.4576, 588.8757
494.9398, 590.2540
495.4219, 590.2724
495.9040, 589.4861
496.3861, 588.9011
496.8682, 588.6516
497.3503, 588.4700
497.8325, 588.2533
498.3146, 587.9345
498.7967, 587.4039
499.2788, 585.9416
499.7609, 584.9124
500.2430, 585.4047
500.7252, 587.0547
501.2073, 588.2280
501.6894, 588.2815
502.1715, 587.8825
502.6536, 587.2410
503.1357, 586.1354
503.6179, 585.5197
504.1000, 585.7938
504.5821, 586.3134
505.0642, 586.3680
505.5463, 585.4809
506.0284, 585.2107
506.5106, 586.0419
506.9927, 587.5392
507.4748, 588.1425
507.9569, 587.6246
508.4390, 587.2670
508.9211, 588.0791
509.4033, 589.8024
509.8854, 589.9999
510.3675, 588.4991
510.8496, 586.9133
511.3317, 586.9564
511.8138, 588.1861
512.2960, 589.4681
512.7781, 590.7001
513.2602, 591.6223
513.7423, 591.7896
514.2244, 591.4327
514.7065, 591.1094
515.1887, 591.1627
515.6708, 591.2858
516.1529, 591.2872
516.6350, 591.1628
517.1171, 591.0080
517.5992, 590.8203
518.0814, 590.6410
518.5635, 590.4689
519.0456, 589.9619
519.5277, 590.0544
520.0098, 591.3503
520.4919, 593.0236
520.9741, 593.8177
521.4562, 593.3190
521.9383, 592.7412
522.4204, 592.3170
522.9025, 592.0263
523.3846, 591.6248
523.8668, 590.9583
524.3489, 590.8198
524.8310, 592.2333
525.3131, 594.9031
525.7952, 596.0781
526.2773, 595.5049
526.7595, 594.2838
527.2416, 593.3568
527.7237, 592.7723
528.2058, 592.7177
528.6879, 593.6234
529.1700, 594.5574
529.6522, 594.3554
530.1343, 593.4029
530.6164, 592.8016
531.0985, 593.6588
531.5806, 594.6125
532.0627, 594.5509
532.5449, 593.3067
533.0270, 592.8186
533.5091, 594.9116
533.9912, 597.1436
534.4733, 597.7375
534.9554, 594.2191
535.4376, 592.3871
535.9197, 593.0779
536.4018, 595.0403
536.8839, 596.0601
537.3660, 595.7662
537.8481, 595.5405
538.3303, 595.8275
538.8124, 596.4762
539.2945, 596.5377
539.7766, 595.9146
540.2587, 595.5370
540.7408, 596.4824
541.2230, 598.2624
541.7051, 598.9098
542.1872, 598.2090
542.6693, 597.0993
543.1514, 596.1577
543.6335, 595.5314
544.1157, 595.4892
544.5978, 596.3739
545.0799, 597.5038
545.5620, 598.8011
546.0441, 599.9944
546.5262, 600.4090
547.0084, 598.8632
547.4905, 597.3253
547.9726, 596.5355
548.4547, 596.5604
548.9368, 597.1175
549.4189, 598.6137
549.9011, 600.2632
550.3832, 601.6618
550.8653, 602.9054
551.3474, 603.6249
551.8295, 603.6956
552.3116, 603.3618
552.7938, 602.8690
553.2759, 602.1724
553.7580, 601.7399
554.2401, 601.7303
554.7222, 602.0344
555.2043, 602.5364
555.6865, 603.1973
556.1686, 603.6025
556.6507, 603.1592
557.1328, 602.4426
557.6149, 602.5673
558.0970, 603.6082
558.5792, 604.2385
559.0613, 603.3787
559.5434, 601.7152
560.0255, 599.7434
560.5076, 596.5822
560.9897, 595.0056
561.4719, 597.3268
561.9540, 601.5353
562.4361, 604.2494
562.9182, 604.4135
563.4003, 603.6935
563.8824, 601.7130
564.3646, 598.8439
564.8467, 597.8342
565.3288, 599.4089
565.8109, 601.3245
566.2930, 602.4249
566.7751, 602.6630
567.2573, 603.1276
567.7394, 603.8954
568.2215, 604.5279
568.7036, 604.2704
569.1857, 603.4407
569.6678, 603.3080
570.1500, 604.3287
570.6321, 605.6581
571.1142, 606.4565
571.5963, 606.8189
572.0784, 606.9559
572.5605, 607.0998
573.0427, 606.9421
573.5248, 605.8165
574.0069, 604.0018
574.4890, 603.1903
574.9711, 605.2384
575.4532, 607.3624
575.9354, 608.0239
576.4175, 606.5506
576.8996, 605.7775
577.3817, 606.1208
577.8638, 606.7637
578.3459, 606.9670
578.8281, 606.6073
579.3102, 606.2602
579.7923, 605.9509
580.2744, 605.7225
580.7565, 605.5859
581.2386, 605.5527
581.7208, 605.9321
582.2029, 607.2483
582.6850, 608.7637
583.1671, 608.8929
583.6492, 607.8698
584.1313, 607.0850
584.6134, 607.8479
585.0955, 609.0016
