##NAMES=Argyrodite
##RRUFFID=R050437
##IDEAL CHEMISTRY=Ag^1+^_8_Ge^4+^S^2-^_6_
##LOCALITY=Himmelsfurst mine, Freiberg, Saxony, Germany
##OWNER=RRUFF
##SOURCE=University of Arizona Mineral Museum
##DESCRIPTION=Steel gray with a red hint, mass of poorly formed crystals, associated with pyrargyrite.
##STATUS=The identification of this mineral is confirmed by single-crystal X-ray diffraction and chemical analysis.
##URL=rruff.info/R050437
##MEASURED CHEMISTRY=Ag_8.00_Ge_1.00_S_6.00_
197.070, 2434.573
197.552, 2433.821
198.034, 2440.049
198.516, 2446.289
198.998, 2452.238
199.480, 2456.327
199.963, 2455.312
200.445, 2448.073
200.927, 2439.315
201.409, 2428.774
201.891, 2418.928
202.373, 2418.095
202.855, 2436.622
203.337, 2462.569
203.820, 2477.927
204.302, 2480.508
204.784, 2479.843
205.266, 2483.665
205.748, 2489.627
206.230, 2491.940
206.712, 2486.580
207.194, 2477.953
207.676, 2470.588
208.159, 2464.099
208.641, 2461.629
209.123, 2468.943
209.605, 2481.905
210.087, 2491.190
210.569, 2492.186
211.051, 2490.131
211.533, 2490.566
212.016, 2493.565
212.498, 2498.477
212.980, 2506.026
213.462, 2515.165
213.944, 2523.651
214.426, 2532.765
214.908, 2539.820
215.390, 2541.130
215.872, 2536.586
216.355, 2531.108
216.837, 2526.193
217.319, 2522.668
217.801, 2521.924
218.283, 2523.618
218.765, 2528.644
219.247, 2540.723
219.729, 2559.308
220.212, 2573.726
220.694, 2578.723
221.176, 2575.262
221.658, 2567.080
222.140, 2549.665
222.622, 2533.928
223.104, 2528.540
223.586, 2532.356
224.068, 2537.753
224.551, 2542.332
225.033, 2545.840
225.515, 2547.760
225.997, 2546.284
226.479, 2546.604
226.961, 2553.146
227.443, 2564.370
227.925, 2574.844
228.408, 2583.792
228.890, 2589.283
229.372, 2586.604
229.854, 2571.211
230.336, 2560.574
230.818, 2565.411
231.300, 2580.840
231.782, 2595.229
232.264, 2605.125
232.747, 2611.901
233.229, 2618.454
233.711, 2626.364
234.193, 2628.951
234.675, 2616.132
235.157, 2598.089
235.639, 2595.774
236.121, 2617.490
236.604, 2645.077
237.086, 2649.565
237.568, 2627.172
238.050, 2609.648
238.532, 2605.127
239.014, 2607.908
239.496, 2612.072
239.978, 2616.550
240.460, 2619.929
240.943, 2619.283
241.425, 2613.117
241.907, 2613.343
242.389, 2630.859
242.871, 2649.214
243.353, 2649.479
243.835, 2630.363
244.317, 2611.043
244.799, 2611.206
245.282, 2634.686
245.764, 2647.822
246.246, 2643.477
246.728, 2634.770
247.210, 2628.357
247.692, 2625.222
248.174, 2626.068
248.656, 2632.521
249.139, 2644.612
249.621, 2650.834
250.103, 2647.042
250.585, 2642.445
251.067, 2639.360
251.549, 2638.646
252.031, 2642.280
252.513, 2652.302
252.995, 2667.478
253.478, 2677.415
253.960, 2681.453
254.442, 2681.911
254.924, 2677.316
255.406, 2669.809
255.888, 2661.697
256.370, 2653.805
256.852, 2647.785
257.335, 2649.468
257.817, 2671.585
258.299, 2686.576
258.781, 2688.042
259.263, 2683.125
259.745, 2679.536
260.227, 2680.197
260.709, 2683.041
261.191, 2683.597
261.674, 2676.739
262.156, 2676.074
262.638, 2690.184
263.120, 2704.740
263.602, 2705.556
264.084, 2690.912
264.566, 2673.078
265.048, 2670.081
265.530, 2690.971
266.013, 2701.942
266.495, 2697.190
266.977, 2688.663
267.459, 2680.121
267.941, 2673.291
268.423, 2670.518
268.905, 2675.892
269.387, 2690.929
269.870, 2698.467
270.352, 2687.117
270.834, 2678.269
271.316, 2678.417
271.798, 2686.709
272.280, 2700.603
272.762, 2721.004
273.244, 2745.656
273.727, 2756.886
274.209, 2746.482
274.691, 2733.406
275.173, 2717.900
275.655, 2705.282
276.137, 2704.778
276.619, 2723.591
277.101, 2752.343
277.583, 2770.312
278.065, 2776.183
278.548, 2774.339
279.030, 2759.274
279.512, 2740.725
279.994, 2727.508
280.476, 2722.069
280.958, 2722.377
281.440, 2728.794
281.922, 2742.197
282.405, 2750.102
282.887, 2745.049
283.369, 2735.826
283.851, 2730.445
284.333, 2729.747
284.815, 2729.589
285.297, 2725.732
285.779, 2719.405
286.262, 2716.791
286.744, 2719.751
287.226, 2725.793
287.708, 2734.258
288.190, 2744.690
288.672, 2751.195
289.154, 2748.518
289.636, 2741.180
290.118, 2736.421
290.601, 2734.892
291.083, 2736.673
291.565, 2745.141
292.047, 2758.264
292.529, 2764.072
293.011, 2751.169
293.493, 2737.249
293.975, 2741.573
294.457, 2762.385
294.940, 2778.600
295.422, 2775.432
295.904, 2756.938
296.386, 2745.615
296.868, 2745.114
297.350, 2747.099
297.832, 2748.170
298.314, 2749.261
298.797, 2753.601
299.279, 2763.345
299.761, 2774.561
300.243, 2776.446
300.725, 2755.449
301.207, 2746.314
301.689, 2762.109
302.171, 2786.788
302.654, 2803.890
303.136, 2808.998
303.618, 2806.902
304.100, 2803.859
304.582, 2799.436
305.064, 2795.218
305.546, 2789.975
306.028, 2785.929
306.510, 2783.158
306.992, 2782.496
307.475, 2786.893
307.957, 2801.035
308.439, 2825.610
308.921, 2835.481
309.403, 2810.007
309.885, 2790.222
310.367, 2788.551
310.849, 2799.309
311.332, 2812.725
311.814, 2823.985
312.296, 2832.523
312.778, 2835.866
313.260, 2831.015
313.742, 2826.464
314.224, 2823.019
314.706, 2821.199
315.189, 2821.799
315.671, 2825.086
316.153, 2829.837
316.635, 2835.199
317.117, 2841.492
317.599, 2845.409
318.081, 2842.745
318.563, 2840.630
319.045, 2845.274
319.528, 2856.351
320.010, 2866.589
320.492, 2869.259
320.974, 2866.943
321.456, 2869.991
321.938, 2882.042
322.420, 2893.292
322.902, 2893.462
323.384, 2886.498
323.867, 2882.826
324.349, 2887.293
324.831, 2895.426
325.313, 2904.322
325.795, 2913.783
326.277, 2917.786
326.759, 2909.916
327.241, 2895.055
327.724, 2889.314
328.206, 2900.721
328.688, 2909.966
329.170, 2906.944
329.652, 2895.648
330.134, 2882.898
330.616, 2870.096
331.098, 2861.478
331.581, 2866.485
332.063, 2897.049
332.545, 2913.684
333.027, 2900.818
333.509, 2881.018
333.991, 2875.481
334.473, 2886.015
334.955, 2898.650
335.437, 2898.614
335.919, 2883.409
336.402, 2875.901
336.884, 2877.687
337.366, 2884.302
337.848, 2901.229
338.330, 2921.279
338.812, 2929.677
339.294, 2916.189
339.776, 2888.289
340.259, 2875.401
340.741, 2885.508
341.223, 2898.870
341.705, 2915.722
342.187, 2932.050
342.669, 2943.476
343.151, 2948.822
343.633, 2951.949
344.116, 2957.844
344.598, 2966.940
345.080, 2975.409
345.562, 2986.426
346.044, 2992.862
346.526, 2985.180
347.008, 2967.042
347.490, 2956.333
347.973, 2971.253
348.455, 3001.283
348.937, 3017.141
349.419, 3015.282
349.901, 3008.774
350.383, 3003.569
350.865, 2999.749
351.347, 2997.562
351.829, 2996.069
352.311, 2997.329
352.794, 3007.068
353.276, 3022.518
353.758, 3029.695
354.240, 3021.230
354.722, 3003.972
355.204, 2990.635
355.686, 2978.748
356.168, 2975.302
356.651, 2990.972
357.133, 3011.470
357.615, 3019.150
358.097, 3011.324
358.579, 2998.627
359.061, 2992.162
359.543, 2993.141
360.025, 2992.318
360.508, 2987.218
360.990, 2983.070
361.472, 2980.911
361.954, 2981.537
362.436, 2986.821
362.918, 2998.303
363.400, 3013.684
363.882, 3025.216
364.364, 3034.923
364.847, 3036.606
365.329, 3021.631
365.811, 3004.069
366.293, 2995.388
366.775, 2998.396
367.257, 3008.501
367.739, 3024.061
368.221, 3045.983
368.703, 3057.147
369.186, 3049.263
369.668, 3038.084
370.150, 3031.688
370.632, 3029.382
371.114, 3028.441
371.596, 3026.957
372.078, 3026.271
372.560, 3031.862
373.043, 3045.438
373.525, 3049.956
374.007, 3028.896
374.489, 2996.593
374.971, 2982.753
375.453, 2996.813
375.935, 3012.211
376.417, 3016.375
376.900, 3011.750
377.382, 3001.866
377.864, 2986.811
378.346, 2972.157
378.828, 2965.126
379.310, 2967.847
379.792, 2971.346
380.274, 2977.103
380.756, 2982.320
381.238, 2985.371
381.721, 2986.236
382.203, 2985.183
382.685, 2982.169
383.167, 2977.630
383.649, 2974.445
384.131, 2972.217
384.613, 2972.074
385.095, 2978.303
385.578, 2984.597
386.060, 2982.511
386.542, 2970.203
387.024, 2956.559
387.506, 2955.832
387.988, 2971.645
388.470, 2977.477
388.952, 2960.436
389.435, 2944.530
389.917, 2944.539
390.399, 2956.192
390.881, 2965.504
391.363, 2963.480
391.845, 2955.063
392.327, 2949.623
392.809, 2947.423
393.291, 2946.392
393.774, 2947.679
394.256, 2948.381
394.738, 2942.667
395.220, 2926.290
395.702, 2913.536
396.184, 2914.209
396.666, 2923.035
397.148, 2931.145
397.630, 2936.720
398.113, 2938.263
398.595, 2932.950
399.077, 2918.850
399.559, 2909.559
400.041, 2909.430
400.523, 2909.894
401.005, 2905.687
401.487, 2898.320
401.970, 2892.721
402.452, 2891.935
402.934, 2893.628
403.416, 2889.482
403.898, 2869.801
404.380, 2860.543
404.862, 2872.208
405.344, 2888.104
405.827, 2894.554
406.309, 2890.195
406.791, 2884.673
407.273, 2890.667
407.755, 2907.114
408.237, 2908.978
408.719, 2884.580
409.201, 2864.788
409.683, 2872.126
410.165, 2893.263
410.648, 2904.792
411.130, 2895.476
411.612, 2880.683
412.094, 2876.657
412.576, 2881.874
413.058, 2886.104
413.540, 2886.093
414.022, 2883.544
414.505, 2880.232
414.987, 2875.684
415.469, 2873.403
415.951, 2875.581
416.433, 2879.281
416.915, 2882.480
417.397, 2884.778
417.879, 2885.899
418.362, 2885.697
418.844, 2884.132
419.326, 2880.845
419.808, 2871.631
420.290, 2865.804
420.772, 2869.110
421.254, 2874.073
421.736, 2871.409
422.218, 2859.225
422.701, 2845.252
423.183, 2838.948
423.665, 2840.922
424.147, 2846.101
424.629, 2861.817
425.111, 2871.711
425.593, 2863.089
426.075, 2843.682
426.557, 2829.835
427.040, 2828.571
427.522, 2835.838
428.004, 2852.201
428.486, 2876.989
428.968, 2886.010
429.450, 2863.053
429.932, 2829.085
430.414, 2818.146
430.897, 2833.168
431.379, 2846.680
431.861, 2849.040
432.343, 2847.963
432.825, 2852.936
433.307, 2863.751
433.789, 2872.110
434.271, 2871.558
434.754, 2863.094
435.236, 2855.550
435.718, 2844.010
436.200, 2839.511
436.682, 2850.592
437.164, 2865.895
437.646, 2872.237
438.128, 2866.855
438.610, 2858.592
439.092, 2859.333
439.575, 2870.415
440.057, 2876.018
440.539, 2873.059
441.021, 2868.214
441.503, 2863.596
441.985, 2859.621
442.467, 2857.176
442.949, 2857.407
443.432, 2857.979
443.914, 2855.851
444.396, 2851.342
444.878, 2846.701
445.360, 2841.318
445.842, 2838.207
446.324, 2845.560
446.806, 2865.434
447.289, 2872.606
447.771, 2852.291
448.253, 2825.912
448.735, 2808.837
449.217, 2801.440
449.699, 2799.605
450.181, 2801.500
450.663, 2805.593
451.145, 2805.787
451.628, 2794.002
452.110, 2790.483
452.592, 2803.997
453.074, 2820.376
453.556, 2827.265
454.038, 2824.272
454.520, 2821.091
455.002, 2828.585
455.484, 2844.114
455.967, 2848.890
456.449, 2838.292
456.931, 2827.218
457.413, 2824.588
457.895, 2824.966
458.377, 2820.000
458.859, 2804.601
459.341, 2794.927
459.823, 2808.835
460.306, 2835.507
460.788, 2849.939
461.270, 2846.482
461.752, 2835.439
462.234, 2824.991
462.716, 2815.064
463.198, 2811.674
463.681, 2820.350
464.163, 2829.015
464.645, 2833.405
465.127, 2834.637
465.609, 2834.447
466.091, 2833.552
466.573, 2832.567
467.055, 2832.697
467.537, 2834.542
468.020, 2835.207
468.502, 2830.287
468.984, 2828.559
469.466, 2839.020
469.948, 2855.419
470.430, 2862.469
470.912, 2848.882
471.394, 2829.017
471.876, 2825.952
472.359, 2838.730
472.841, 2844.218
473.323, 2831.128
473.805, 2813.770
474.287, 2815.959
474.769, 2838.945
475.251, 2853.163
475.733, 2845.889
476.216, 2833.738
476.698, 2829.889
477.180, 2833.082
477.662, 2834.851
478.144, 2829.899
478.626, 2822.375
479.108, 2825.138
479.590, 2849.546
480.072, 2864.239
480.555, 2865.790
481.037, 2860.205
481.519, 2846.813
482.001, 2828.856
482.483, 2815.987
482.965, 2816.944
483.447, 2826.733
483.929, 2832.114
484.411, 2832.792
484.894, 2830.252
485.376, 2821.658
485.858, 2812.571
486.340, 2811.126
486.822, 2818.672
487.304, 2826.805
487.786, 2833.334
488.268, 2838.260
488.750, 2841.413
489.233, 2842.869
489.715, 2843.035
490.197, 2842.052
490.679, 2840.124
491.161, 2838.309
491.643, 2839.716
492.125, 2836.938
492.608, 2826.535
493.090, 2813.861
493.572, 2800.085
494.054, 2787.427
494.536, 2782.812
495.018, 2797.962
495.500, 2826.405
495.982, 2832.654
496.464, 2807.510
496.947, 2788.399
497.429, 2798.484
497.911, 2820.024
498.393, 2830.413
498.875, 2826.595
499.357, 2817.986
499.839, 2802.609
500.321, 2787.903
500.803, 2786.044
501.286, 2797.633
501.768, 2812.940
502.250, 2825.587
502.732, 2835.609
503.214, 2843.271
503.696, 2853.126
504.178, 2854.513
504.660, 2836.676
505.142, 2816.313
505.625, 2808.791
506.107, 2815.504
506.589, 2826.866
507.071, 2836.847
507.553, 2844.458
508.035, 2842.111
508.517, 2825.578
509.000, 2811.903
509.482, 2811.028
509.964, 2815.721
510.446, 2816.857
510.928, 2813.563
511.410, 2808.012
511.892, 2794.802
512.374, 2783.028
512.856, 2789.180
513.339, 2812.656
513.821, 2834.149
514.303, 2840.222
514.785, 2833.118
515.267, 2823.905
515.749, 2802.574
516.231, 2793.099
516.713, 2808.474
517.195, 2827.652
517.678, 2834.089
518.160, 2826.771
518.642, 2814.461
519.124, 2800.775
519.606, 2788.417
520.088, 2789.241
520.570, 2806.867
521.052, 2819.065
521.534, 2811.514
522.017, 2798.252
522.499, 2801.796
522.981, 2825.817
523.463, 2843.566
523.945, 2844.221
524.427, 2836.162
524.909, 2822.698
525.391, 2807.185
525.873, 2800.180
526.356, 2808.853
526.838, 2827.612
527.320, 2840.125
527.802, 2846.823
528.284, 2846.038
528.766, 2829.788
529.248, 2813.816
529.731, 2807.165
530.213, 2809.167
530.695, 2815.241
531.177, 2825.685
531.659, 2835.302
532.141, 2833.010
532.623, 2819.105
533.105, 2808.546
533.587, 2806.824
534.070, 2808.595
534.552, 2806.609
535.034, 2800.478
535.516, 2796.845
535.998, 2798.535
536.480, 2800.824
536.962, 2799.699
537.444, 2797.219
537.927, 2798.354
538.409, 2805.117
538.891, 2814.014
539.373, 2818.810
539.855, 2818.048
540.337, 2820.183
540.819, 2831.692
541.301, 2838.240
541.783, 2829.701
542.266, 2812.894
542.748, 2800.392
543.230, 2796.456
543.712, 2795.883
544.194, 2793.818
544.676, 2791.664
545.158, 2794.028
545.640, 2802.007
546.122, 2810.798
546.605, 2816.681
547.087, 2819.620
547.569, 2818.435
548.051, 2809.698
548.533, 2801.558
549.015, 2795.737
549.497, 2791.140
549.979, 2786.729
550.461, 2782.268
550.944, 2777.824
551.426, 2771.317
551.908, 2764.855
552.390, 2771.219
552.872, 2795.118
553.354, 2812.904
553.836, 2812.045
554.318, 2801.433
554.800, 2794.486
555.283, 2791.528
555.765, 2790.364
556.247, 2792.269
556.729, 2794.265
557.211, 2792.738
557.693, 2788.572
558.175, 2785.298
558.657, 2784.704
559.140, 2786.699
559.622, 2791.429
560.104, 2800.262
560.586, 2808.306
561.068, 2822.074
561.550, 2828.527
562.032, 2813.882
562.514, 2787.557
562.997, 2772.448
563.479, 2781.888
563.961, 2796.882
564.443, 2796.053
564.925, 2784.093
565.407, 2777.919
565.889, 2781.693
566.371, 2788.534
566.854, 2792.270
567.336, 2792.889
567.818, 2793.508
568.300, 2793.567
568.782, 2794.317
569.264, 2798.957
569.746, 2802.741
570.228, 2799.111
570.710, 2787.964
571.193, 2776.822
571.675, 2771.517
572.157, 2771.683
572.639, 2778.600
573.121, 2795.133
573.603, 2802.879
574.085, 2789.285
574.567, 2767.623
575.049, 2758.460
575.532, 2763.394
576.014, 2767.963
576.496, 2768.978
576.978, 2768.554
577.460, 2767.177
577.942, 2765.745
578.424, 2766.445
578.906, 2770.313
579.388, 2775.296
579.871, 2777.785
580.353, 2777.289
580.835, 2776.775
581.317, 2777.429
581.799, 2776.537
582.281, 2770.454
582.763, 2762.705
583.245, 2760.209
583.727, 2766.810
584.210, 2772.408
584.692, 2767.439
585.174, 2758.042
585.656, 2754.823
586.138, 2759.064
586.620, 2767.498
587.102, 2779.389
587.584, 2791.873
588.067, 2790.373
588.549, 2755.431
589.031, 2738.755
589.513, 2760.203
589.995, 2785.410
590.477, 2791.188
590.959, 2779.763
591.442, 2766.170
591.924, 2756.040
592.406, 2750.457
592.888, 2755.420
593.370, 2767.972
593.852, 2767.980
594.334, 2747.417
594.816, 2726.791
595.298, 2729.902
595.781, 2758.166
596.263, 2775.601
596.745, 2774.952
597.227, 2773.684
597.709, 2778.460
598.191, 2783.509
598.673, 2780.556
599.155, 2769.415
599.638, 2759.414
600.120, 2761.415
600.602, 2770.156
601.084, 2764.985
601.566, 2743.403
602.048, 2734.179
602.530, 2753.946
603.012, 2783.919
603.494, 2795.548
603.977, 2786.807
604.459, 2779.881
604.941, 2779.603
605.423, 2778.862
605.905, 2770.888
606.387, 2760.510
606.869, 2757.323
607.351, 2764.204
607.833, 2773.681
608.316, 2776.609
608.798, 2773.168
609.280, 2767.989
609.762, 2760.267
610.244, 2753.075
610.726, 2748.549
611.208, 2745.063
611.690, 2738.848
612.172, 2727.956
612.655, 2722.709
613.137, 2730.293
613.619, 2741.409
614.101, 2750.173
614.583, 2755.557
615.065, 2756.133
615.547, 2751.110
616.029, 2743.660
616.511, 2738.850
616.994, 2736.757
617.476, 2736.538
617.958, 2736.887
618.440, 2741.186
618.922, 2758.968
619.404, 2779.432
619.886, 2782.940
620.369, 2760.139
620.851, 2742.087
621.333, 2748.977
621.815, 2764.273
622.297, 2767.563
622.779, 2760.072
623.261, 2756.773
623.743, 2767.000
624.225, 2782.961
624.708, 2785.261
625.190, 2768.384
625.672, 2758.094
626.154, 2758.840
626.636, 2763.114
627.118, 2771.534
627.600, 2779.626
628.082, 2776.840
628.565, 2755.123
629.047, 2736.867
629.529, 2742.027
630.011, 2755.134
630.493, 2750.001
630.975, 2727.201
631.457, 2710.640
631.939, 2716.578
632.421, 2737.337
632.904, 2750.730
633.386, 2754.671
633.868, 2756.822
634.350, 2756.800
634.832, 2756.027
635.314, 2755.378
635.796, 2754.529
636.278, 2752.542
636.760, 2748.491
637.243, 2744.773
637.725, 2744.061
638.207, 2744.245
638.689, 2740.758
639.171, 2733.730
639.653, 2729.089
640.135, 2731.493
640.617, 2737.803
641.099, 2736.817
641.582, 2723.613
642.064, 2715.712
642.546, 2717.482
643.028, 2722.269
643.510, 2728.506
643.992, 2734.914
644.474, 2738.818
644.956, 2739.303
645.438, 2737.531
645.921, 2732.435
646.403, 2726.331
646.885, 2724.469
647.367, 2726.536
647.849, 2724.562
648.331, 2711.834
648.813, 2694.203
649.295, 2691.321
649.778, 2708.866
650.260, 2725.441
650.742, 2742.945
651.224, 2754.973
651.706, 2755.973
652.188, 2749.263
652.670, 2742.292
653.152, 2736.590
653.635, 2731.501
654.117, 2726.232
654.599, 2721.555
655.081, 2718.066
655.563, 2716.129
656.045, 2717.441
656.527, 2723.589
657.009, 2731.844
657.492, 2734.876
657.974, 2731.597
658.456, 2727.009
658.938, 2720.039
659.420, 2713.700
659.902, 2709.326
660.384, 2706.816
660.866, 2706.256
661.348, 2708.819
661.831, 2710.513
662.313, 2705.066
662.795, 2700.544
663.277, 2709.986
663.759, 2730.281
664.241, 2745.819
664.723, 2747.813
665.205, 2740.398
665.687, 2728.978
666.170, 2711.448
666.652, 2706.589
667.134, 2723.595
667.616, 2739.365
668.098, 2737.741
668.580, 2726.962
669.062, 2721.484
669.544, 2723.391
670.026, 2727.060
670.509, 2734.923
670.991, 2740.467
671.473, 2734.562
671.955, 2721.796
672.437, 2715.900
672.919, 2723.093
673.401, 2732.516
673.883, 2724.037
674.365, 2698.765
674.848, 2692.493
675.330, 2713.182
675.812, 2729.484
676.294, 2724.940
676.776, 2707.428
677.258, 2689.577
677.740, 2668.255
678.222, 2659.257
678.705, 2676.579
679.187, 2694.739
679.669, 2698.573
680.151, 2693.565
680.633, 2688.896
681.115, 2687.653
681.597, 2688.910
682.079, 2691.935
682.562, 2696.690
683.044, 2704.973
683.526, 2717.260
684.008, 2722.259
684.490, 2713.720
684.972, 2700.065
685.454, 2693.044
685.936, 2693.939
686.419, 2693.481
686.901, 2687.712
687.383, 2685.525
687.865, 2691.890
688.347, 2701.560
688.829, 2709.839
689.311, 2715.685
689.793, 2719.193
690.275, 2719.612
690.758, 2718.360
691.240, 2718.825
691.722, 2719.703
692.204, 2712.988
692.686, 2695.994
693.168, 2682.416
693.650, 2687.323
694.132, 2708.566
694.614, 2718.104
695.097, 2707.624
695.579, 2699.918
696.061, 2699.153
696.543, 2701.199
697.025, 2706.438
697.507, 2712.495
697.989, 2711.619
698.471, 2696.453
698.953, 2681.495
699.436, 2676.302
699.918, 2677.801
700.400, 2683.855
700.882, 2692.596
701.364, 2697.591
701.846, 2694.070
702.328, 2686.034
702.810, 2683.682
703.292, 2688.039
703.775, 2691.244
704.257, 2692.238
704.739, 2692.752
705.221, 2695.987
705.703, 2698.799
706.185, 2692.804
706.667, 2670.888
707.149, 2659.366
707.632, 2676.488
708.114, 2695.230
708.596, 2693.779
709.078, 2679.302
709.560, 2668.466
710.042, 2667.483
710.524, 2671.012
711.006, 2673.988
711.489, 2676.521
711.971, 2680.461
712.453, 2686.087
712.935, 2684.652
713.417, 2669.810
713.899, 2652.963
714.381, 2651.411
714.863, 2668.092
715.346, 2679.492
715.828, 2682.965
716.310, 2684.835
716.792, 2687.177
717.274, 2688.125
717.756, 2685.722
718.238, 2679.954
718.720, 2672.329
719.202, 2662.585
