##NAMES=Armangite
##RRUFFID=R100054
##IDEAL CHEMISTRY=Mn^2+^_26_As^3+^_18_O_50_(CO_3_)(OH)_4_
##LOCALITY=Langban, Filipstad, Varmland, Sweden
##OWNER=RRUFF
##SOURCE=William W Pinch
##DESCRIPTION=Transparent brown hexagonal crystals
##STATUS=The identification of this mineral has been confirmed by single-crystal X-ray diffraction.
##URL=rruff.info/R100054
91.53320, 573.6966
92.01532, 568.4666
92.49744, 565.0861
92.97955, 573.0370
93.46167, 583.4387
93.94379, 587.5169
94.42590, 587.9980
94.90802, 587.1764
95.39014, 586.0070
95.87225, 584.3265
96.35437, 583.0156
96.83649, 582.6845
97.31860, 583.2438
97.80072, 584.6983
98.28284, 586.5158
98.76495, 588.0807
99.24707, 589.3334
99.72919, 590.7382
100.2113, 591.6227
100.6934, 590.9763
101.1755, 589.5355
101.6577, 588.7797
102.1398, 590.0789
102.6219, 593.7846
103.1040, 597.4841
103.5861, 601.7495
104.0682, 605.4978
104.5504, 607.5778
105.0325, 608.0157
105.5146, 608.3160
105.9967, 610.6036
106.4788, 615.9169
106.9609, 620.4443
107.4431, 623.5102
107.9252, 625.7877
108.4073, 628.0604
108.8894, 630.4796
109.3715, 633.2065
109.8536, 636.7058
110.3358, 641.2753
110.8179, 645.3629
111.3000, 647.5625
111.7821, 648.1257
112.2642, 649.6140
112.7463, 654.2096
113.2285, 659.4689
113.7106, 662.8405
114.1927, 663.5838
114.6748, 663.2112
115.1569, 663.8878
115.6390, 666.2337
116.1212, 668.0211
116.6033, 668.9591
117.0854, 668.9870
117.5675, 667.8058
118.0496, 665.1176
118.5317, 661.3191
119.0139, 658.3729
119.4960, 657.4887
119.9781, 656.2205
120.4602, 654.2734
120.9423, 651.6154
121.4244, 648.2635
121.9066, 644.1913
122.3887, 639.3464
122.8708, 634.3093
123.3529, 629.4235
123.8350, 624.0927
124.3171, 617.7809
124.7993, 610.5856
125.2814, 603.3181
125.7635, 596.7960
126.2456, 591.2325
126.7277, 585.3478
127.2098, 578.6768
127.6920, 571.8782
128.1741, 565.6522
128.6562, 560.2217
129.1383, 555.0903
129.6204, 549.8239
130.1025, 544.4420
130.5847, 538.6115
131.0668, 531.8122
131.5489, 524.3693
132.0310, 517.3621
132.5131, 510.6454
132.9952, 504.9002
133.4774, 500.9502
133.9595, 498.7726
134.4416, 496.5793
134.9237, 492.6805
135.4058, 486.8279
135.8879, 480.8927
136.3701, 474.9056
136.8522, 469.1715
137.3343, 464.0493
137.8164, 459.5719
138.2985, 455.3402
138.7806, 450.6045
139.2628, 445.0813
139.7449, 439.5182
140.2270, 433.5080
140.7091, 427.6951
141.1912, 422.8001
141.6733, 419.1661
142.1555, 416.3428
142.6376, 412.8508
143.1197, 407.7329
143.6018, 402.9641
144.0839, 398.6625
144.5660, 394.8492
145.0482, 391.6190
145.5303, 389.1087
146.0124, 387.1693
146.4945, 384.6152
146.9766, 380.3397
147.4587, 376.6626
147.9409, 374.7980
148.4230, 374.5013
148.9051, 374.5644
149.3872, 374.1602
149.8693, 373.4385
150.3514, 373.2071
150.8336, 373.7267
151.3157, 374.5906
151.7978, 375.5903
152.2799, 376.7820
152.7620, 377.7064
153.2441, 377.5107
153.7263, 376.8170
154.2084, 376.7245
154.6905, 377.6880
155.1726, 379.4831
155.6547, 381.7026
156.1368, 384.5148
156.6190, 387.4561
157.1011, 390.0043
157.5832, 392.4623
158.0653, 395.4876
158.5474, 399.6696
159.0295, 404.9124
159.5117, 409.9364
159.9938, 414.5898
160.4759, 419.1853
160.9580, 423.6337
161.4401, 428.0729
161.9222, 432.7753
162.4044, 437.9799
162.8865, 443.7615
163.3686, 449.8225
163.8507, 455.8315
164.3328, 462.3976
164.8149, 470.1772
165.2971, 479.0104
165.7792, 487.8388
166.2613, 495.4537
166.7434, 501.2028
167.2255, 507.4961
167.7076, 514.6063
168.1898, 522.0163
168.6719, 529.3497
169.1540, 536.5604
169.6361, 543.7574
170.1182, 551.1061
170.6003, 558.6334
171.0825, 566.2875
171.5646, 574.2773
172.0467, 582.2943
172.5288, 589.9698
173.0109, 597.1871
173.4930, 604.1151
173.9752, 610.9846
174.4573, 617.7567
174.9394, 624.6776
175.4215, 632.4493
175.9036, 640.4506
176.3857, 647.2122
176.8679, 652.2792
177.3500, 656.0195
177.8321, 658.9144
178.3142, 660.9352
178.7963, 662.7970
179.2784, 665.1901
179.7606, 667.9836
180.2427, 669.9330
180.7248, 670.4390
181.2069, 670.1164
181.6890, 669.7940
182.1711, 669.5604
182.6533, 668.4768
183.1354, 665.2571
183.6175, 659.5970
184.0996, 654.2275
184.5817, 650.2955
185.0638, 646.5140
185.5460, 642.3061
186.0281, 637.5248
186.5102, 632.1068
186.9923, 625.7230
187.4744, 617.7147
187.9565, 610.5206
188.4387, 604.9409
188.9208, 599.8421
189.4029, 594.4760
189.8850, 588.5811
190.3671, 582.4559
190.8492, 576.5148
191.3314, 570.6068
191.8135, 565.2903
192.2956, 560.8627
192.7777, 556.8475
193.2598, 553.0247
193.7419, 549.2916
194.2241, 545.3618
194.7062, 540.5519
195.1883, 533.2661
195.6704, 526.8939
196.1525, 522.3309
196.6346, 518.4713
197.1168, 513.9612
197.5989, 508.1951
198.0810, 501.6525
198.5631, 495.7266
199.0452, 491.0128
199.5273, 486.0768
200.0095, 480.4995
200.4916, 474.5897
200.9737, 468.7858
201.4558, 463.2297
201.9379, 457.9430
202.4200, 452.8630
202.9022, 447.8447
203.3843, 443.2245
203.8664, 439.3428
204.3485, 435.9794
204.8306, 432.4821
205.3127, 428.4041
205.7949, 424.2367
206.2770, 421.1206
206.7591, 419.5215
207.2412, 417.8399
207.7233, 414.7250
208.2054, 410.4767
208.6876, 407.1290
209.1697, 406.0704
209.6518, 405.9409
210.1339, 404.5767
210.6160, 401.5251
211.0981, 398.3384
211.5803, 396.2061
212.0624, 395.1315
212.5445, 394.5877
213.0266, 395.1108
213.5087, 395.6462
213.9908, 395.0851
214.4730, 393.1425
214.9551, 390.8058
215.4372, 389.2516
215.9193, 388.6385
216.4014, 387.7889
216.8836, 385.8615
217.3657, 383.8551
217.8478, 382.5634
218.3299, 382.1959
218.8120, 382.0439
219.2941, 381.1261
219.7763, 379.2431
220.2584, 377.2279
220.7405, 375.0458
221.2226, 372.8906
221.7047, 370.9233
222.1868, 369.1808
222.6690, 367.5328
223.1511, 365.8686
223.6332, 364.4681
224.1153, 362.3199
224.5974, 358.7769
225.0795, 354.9423
225.5617, 351.5512
226.0438, 348.8279
226.5259, 346.5853
227.0080, 344.5858
227.4901, 343.3449
227.9722, 341.3654
228.4544, 337.9484
228.9365, 334.2887
229.4186, 331.4447
229.9007, 329.6743
230.3828, 328.3495
230.8649, 326.3751
231.3471, 323.0170
231.8292, 320.1596
232.3113, 318.0845
232.7934, 316.3004
233.2755, 314.4270
233.7576, 312.3595
234.2398, 310.1690
234.7219, 307.9996
235.2040, 305.8114
235.6861, 303.7157
236.1682, 301.9579
236.6503, 300.1585
237.1325, 297.7985
237.6146, 294.7857
238.0967, 291.7307
238.5788, 289.6089
239.0609, 289.0644
239.5430, 288.0088
240.0252, 286.0765
240.5073, 283.7598
240.9894, 281.4218
241.4715, 279.1419
241.9536, 277.1403
242.4357, 275.7984
242.9179, 275.3237
243.4000, 274.6124
243.8821, 273.3229
244.3642, 271.8629
244.8463, 270.7644
245.3284, 270.1481
245.8106, 269.5414
246.2927, 268.3239
246.7748, 266.4724
247.2569, 264.6826
247.7390, 262.9093
248.2211, 261.3059
248.7033, 260.1705
249.1854, 259.6000
249.6675, 259.0688
250.1496, 257.9342
250.6317, 256.2929
251.1138, 254.8609
251.5960, 253.9484
252.0781, 253.2514
252.5602, 252.3936
253.0423, 251.3463
253.5244, 250.1440
254.0065, 248.6419
254.4887, 246.9879
254.9708, 245.6263
255.4529, 244.9857
255.9350, 244.5765
256.4171, 243.6250
256.8992, 241.9814
257.3813, 240.3856
257.8635, 239.6474
258.3456, 239.2999
258.8277, 238.5096
259.3098, 236.6630
259.7919, 234.4780
260.2740, 233.0486
260.7562, 232.5208
261.2383, 232.1136
261.7204, 231.5860
262.2025, 230.8577
262.6846, 229.7304
263.1667, 227.9748
263.6489, 226.0054
264.1310, 224.4215
264.6131, 223.3061
265.0952, 222.2145
265.5773, 220.9180
266.0594, 219.5651
266.5416, 218.2566
267.0237, 216.9816
267.5058, 215.8638
267.9879, 215.2053
268.4700, 215.1822
268.9521, 214.8154
269.4343, 213.3516
269.9164, 211.6225
270.3985, 210.2853
270.8806, 209.5185
271.3627, 208.9338
271.8448, 207.9249
272.3270, 206.3079
272.8091, 205.2048
273.2912, 205.3983
273.7733, 205.8794
274.2554, 206.0648
274.7375, 205.8512
275.2197, 205.4706
275.7018, 205.1816
276.1839, 205.0103
276.6660, 204.7615
277.1481, 204.0043
277.6302, 203.4707
278.1124, 203.8511
278.5945, 205.0399
279.0766, 206.0648
279.5587, 205.9702
280.0408, 204.6821
280.5229, 202.9685
281.0051, 200.5590
281.4872, 197.9486
281.9693, 195.1651
282.4514, 192.3239
282.9335, 189.6864
283.4156, 187.6765
283.8978, 186.3230
284.3799, 184.2118
284.8620, 180.3619
285.3441, 176.7059
285.8262, 174.1558
286.3083, 172.3283
286.7905, 170.2740
287.2726, 167.1805
287.7547, 163.2251
288.2368, 160.2264
288.7189, 159.1703
289.2010, 157.9466
289.6832, 155.7404
290.1653, 153.0575
290.6474, 150.6892
291.1295, 149.1308
291.6116, 148.1810
292.0938, 147.0407
292.5759, 145.6252
293.0580, 144.1258
293.5401, 142.4971
294.0222, 140.8457
294.5043, 139.3320
294.9865, 138.0331
295.4686, 136.8195
295.9507, 135.3338
296.4328, 133.2344
296.9149, 131.4930
297.3970, 130.4071
297.8792, 129.5720
298.3613, 128.6683
298.8434, 127.5900
299.3255, 126.4157
299.8076, 125.2445
300.2897, 123.9726
300.7719, 122.9559
301.2540, 122.3111
301.7361, 121.8051
302.2182, 121.3868
302.7003, 120.9971
303.1824, 120.4657
303.6646, 119.5076
304.1467, 117.9110
304.6288, 116.6740
305.1109, 115.8439
305.5930, 115.2958
306.0751, 115.1857
306.5573, 115.3689
307.0394, 115.4414
307.5215, 115.0140
308.0036, 114.0464
308.4857, 113.1219
308.9678, 112.0647
309.4500, 111.2283
309.9321, 110.7683
310.4142, 110.6101
310.8963, 110.6122
311.3784, 110.7005
311.8605, 110.8530
312.3427, 110.8860
312.8248, 110.5097
313.3069, 110.3627
313.7890, 110.8256
314.2711, 111.5023
314.7532, 111.8351
315.2354, 111.5321
315.7175, 110.8542
316.1996, 110.5759
316.6817, 111.0844
317.1638, 111.3870
317.6459, 111.2026
318.1281, 110.8809
318.6102, 110.7783
319.0923, 110.9948
319.5744, 111.2993
320.0565, 111.2875
320.5386, 110.7801
321.0208, 110.3635
321.5029, 109.9238
321.9850, 109.6650
322.4671, 109.7433
322.9492, 110.1591
323.4313, 110.7804
323.9135, 111.5297
324.3956, 112.4848
324.8777, 113.1538
325.3598, 113.2686
325.8419, 113.3457
326.3240, 113.6262
326.8062, 114.0470
327.2883, 114.3791
327.7704, 114.4094
328.2525, 114.1661
328.7346, 114.1482
329.2167, 114.3607
329.6989, 114.8337
330.1810, 115.9388
330.6631, 117.2249
331.1452, 117.9929
331.6273, 117.8293
332.1094, 117.0385
332.5916, 116.5717
333.0737, 116.6454
333.5558, 116.6882
334.0379, 116.4660
334.5200, 116.2389
335.0021, 116.3285
335.4843, 116.8265
335.9664, 117.4181
336.4485, 117.6028
336.9306, 117.3095
337.4127, 116.8067
337.8948, 115.6953
338.3770, 114.7104
338.8591, 114.4105
339.3412, 114.7711
339.8233, 115.2541
340.3055, 115.3121
340.7876, 114.9025
341.2697, 114.4941
341.7518, 114.0319
342.2339, 113.6327
342.7160, 113.5085
343.1982, 113.4930
343.6803, 113.1607
344.1624, 112.0461
344.6445, 110.4120
345.1266, 109.6536
345.6087, 110.3752
346.0909, 111.0157
346.5730, 111.2177
347.0551, 111.0064
347.5372, 110.2988
348.0193, 108.9540
348.5014, 107.4491
348.9836, 106.7041
349.4657, 106.9499
349.9478, 107.1939
350.4299, 107.1954
350.9120, 107.0867
351.3941, 107.0040
351.8763, 106.9671
352.3584, 106.7722
352.8405, 106.0198
353.3226, 104.6778
353.8047, 103.8819
354.2868, 104.2340
354.7690, 104.7151
355.2511, 104.6288
355.7332, 104.0752
356.2153, 103.5614
356.6974, 103.5311
357.1795, 103.8241
357.6617, 103.7637
358.1438, 103.1585
358.6259, 102.5853
359.1080, 102.3761
359.5901, 102.4091
360.0722, 102.5139
360.5544, 102.6676
361.0365, 102.8230
361.5186, 102.9145
362.0007, 102.9370
362.4828, 102.9166
362.9649, 102.6722
363.4471, 102.5110
363.9292, 102.8952
364.4113, 104.0157
364.8934, 105.0304
365.3755, 104.9209
365.8576, 103.9881
366.3398, 104.0464
366.8219, 106.0506
367.3040, 108.3657
367.7861, 109.1061
368.2682, 108.4337
368.7503, 107.9044
369.2325, 108.0864
369.7146, 108.8207
370.1967, 109.9486
370.6788, 111.5225
371.1609, 113.0942
371.6430, 114.3689
372.1252, 115.3583
372.6073, 116.0788
373.0894, 116.2113
373.5715, 116.3266
374.0536, 116.8291
374.5357, 117.6962
375.0179, 118.8738
375.5000, 120.4657
375.9821, 122.2200
376.4642, 123.5421
376.9463, 124.2911
377.4284, 124.9944
377.9106, 125.8118
378.3927, 126.7138
378.8748, 127.5808
379.3569, 128.3537
379.8390, 129.3202
380.3211, 131.0477
380.8033, 133.7970
381.2854, 135.6687
381.7675, 135.9374
382.2496, 135.6955
382.7317, 135.6734
383.2138, 135.9557
383.6960, 136.4384
384.1781, 137.0423
384.6602, 137.7744
385.1423, 138.7713
385.6244, 140.1846
386.1065, 141.6375
386.5887, 143.1111
387.0708, 144.5157
387.5529, 145.7287
388.0350, 146.6977
388.5171, 147.4307
388.9992, 147.9415
389.4814, 147.9846
389.9635, 148.1742
390.4456, 148.2797
390.9277, 148.6791
391.4098, 150.0249
391.8919, 152.2008
392.3741, 154.1517
392.8562, 154.6490
393.3383, 153.3871
393.8204, 153.0489
394.3025, 154.5535
394.7846, 155.9619
395.2668, 156.5835
395.7489, 156.6313
396.2310, 156.5485
396.7131, 156.5705
397.1952, 156.7270
397.6773, 157.1494
398.1595, 158.1234
398.6416, 158.8891
399.1237, 159.2178
399.6058, 159.4043
400.0879, 159.7347
400.5700, 160.2612
401.0522, 160.7730
401.5343, 160.9725
402.0164, 160.7850
402.4985, 160.7236
402.9806, 160.9259
403.4627, 161.1475
403.9449, 161.3232
404.4270, 161.4345
404.9091, 161.4668
405.3912, 161.4454
405.8733, 161.3201
406.3554, 160.8991
406.8376, 160.0642
407.3197, 159.2167
407.8018, 158.2935
408.2839, 157.5392
408.7660, 157.2980
409.2481, 157.7055
409.7303, 158.3158
410.2124, 158.8286
410.6945, 159.2236
411.1766, 159.1353
411.6587, 158.1670
412.1408, 157.1002
412.6230, 156.7092
413.1051, 156.9124
413.5872, 157.1321
414.0693, 157.1080
414.5514, 156.9580
415.0335, 156.9211
415.5157, 157.0341
415.9978, 156.9764
416.4799, 156.3753
416.9620, 155.4706
417.4441, 154.9886
417.9262, 155.0162
418.4084, 155.3889
418.8905, 156.1616
419.3726, 157.2122
419.8547, 158.2864
420.3368, 159.3510
420.8189, 160.2246
421.3011, 160.5012
421.7832, 159.9709
422.2653, 159.7745
422.7474, 160.0267
423.2295, 160.6668
423.7116, 161.9142
424.1938, 163.6371
424.6759, 165.0880
425.1580, 165.6275
425.6401, 165.3197
426.1222, 165.3815
426.6043, 165.7212
427.0865, 166.4684
427.5686, 168.2210
428.0507, 170.2264
428.5328, 171.3345
429.0149, 171.1229
429.4970, 170.2926
429.9792, 170.0764
430.4613, 170.7684
430.9434, 171.4619
431.4255, 172.2726
431.9076, 172.9883
432.3897, 173.4843
432.8719, 173.7757
433.3540, 173.9466
433.8361, 174.0455
434.3182, 174.0845
434.8003, 174.1442
435.2824, 174.1732
435.7646, 174.3134
436.2467, 174.8997
436.7288, 175.4617
437.2109, 175.4396
437.6930, 174.6543
438.1751, 173.5407
438.6573, 172.6049
439.1394, 171.8583
439.6215, 171.1271
440.1036, 170.2856
440.5857, 169.5787
441.0678, 169.2329
441.5500, 169.1616
442.0321, 169.0385
442.5142, 168.7766
442.9963, 168.3283
443.4784, 167.5663
443.9605, 166.4647
444.4427, 165.2448
444.9248, 163.9941
445.4069, 162.6990
445.8890, 161.3115
446.3711, 159.7193
446.8532, 158.3310
447.3354, 157.4255
447.8175, 156.8848
448.2996, 156.6056
448.7817, 156.6467
449.2638, 156.4044
449.7459, 154.9761
450.2281, 152.2669
450.7102, 150.5166
451.1923, 150.7206
451.6744, 151.0928
452.1565, 150.3393
452.6386, 148.7828
453.1208, 147.5367
453.6029, 147.1832
454.0850, 147.4849
454.5671, 147.7921
455.0492, 148.4575
455.5313, 148.6147
456.0135, 147.8028
456.4956, 146.7842
456.9777, 146.1454
457.4598, 145.9687
457.9419, 146.0116
458.4240, 146.0666
458.9062, 146.1349
459.3883, 146.1532
459.8704, 146.1583
460.3525, 146.0629
460.8346, 145.7682
461.3167, 145.3922
461.7989, 145.0339
462.2810, 144.7262
462.7631, 144.5798
463.2452, 144.8329
463.7273, 145.5697
464.2094, 146.2111
464.6916, 146.7884
465.1737, 147.1330
465.6558, 147.0933
466.1379, 146.7287
466.6200, 146.2563
467.1021, 145.7023
467.5843, 145.1565
468.0664, 144.8895
468.5485, 144.9657
469.0306, 144.8311
469.5127, 144.0663
469.9948, 143.0412
470.4770, 142.4043
470.9591, 142.3162
471.4412, 142.0919
471.9233, 141.2396
472.4054, 140.0562
472.8875, 139.1180
473.3697, 138.5386
473.8518, 138.0198
474.3339, 137.3015
474.8160, 136.3799
475.2981, 135.4487
475.7802, 134.5170
476.2624, 133.5694
476.7445, 132.4966
477.2266, 131.4125
477.7087, 130.5621
478.1908, 130.0376
478.6729, 129.6881
479.1551, 129.2302
479.6372, 128.4991
480.1193, 128.0570
480.6014, 128.0866
481.0835, 128.1973
481.5656, 128.2440
482.0478, 128.1865
482.5299, 127.9533
483.0120, 127.4491
483.4941, 126.8288
483.9762, 126.7095
484.4583, 127.2654
484.9405, 127.9863
485.4226, 128.9255
485.9047, 129.8763
486.3868, 130.6265
486.8689, 131.1702
487.3510, 131.7339
487.8332, 132.5394
488.3153, 133.5327
488.7974, 134.4369
489.2795, 135.1457
489.7616, 136.0030
490.2437, 137.5924
490.7259, 139.3809
491.2080, 140.4446
491.6901, 140.1944
492.1722, 140.0239
492.6543, 141.2188
493.1364, 143.3062
493.6186, 144.8690
494.1007, 145.5015
494.5828, 145.7833
495.0649, 146.3915
495.5470, 147.3735
496.0291, 148.0910
496.5113, 148.1281
496.9934, 148.2674
497.4755, 149.0485
497.9576, 150.3000
498.4397, 151.7090
498.9218, 153.1559
499.4040, 154.3186
499.8861, 154.3720
500.3682, 152.1782
500.8503, 150.9769
501.3324, 151.4067
501.8145, 152.1561
502.2967, 152.6264
502.7788, 152.7007
503.2609, 152.3687
503.7430, 151.5657
504.2251, 150.4168
504.7072, 149.5080
505.1894, 149.2141
505.6715, 148.2755
506.1536, 145.8389
506.6357, 142.9965
507.1178, 140.4331
507.5999, 138.2740
508.0821, 136.6324
508.5642, 136.0389
509.0463, 136.0212
509.5284, 135.1012
510.0105, 133.0682
510.4926, 130.6765
510.9748, 128.0364
511.4569, 125.4779
511.9390, 123.7919
512.4211, 123.5892
512.9032, 123.2389
513.3853, 121.7256
513.8674, 119.5925
514.3495, 117.7767
514.8317, 116.4728
515.3138, 115.4107
515.7959, 114.3560
516.2780, 113.3164
516.7601, 112.0653
517.2422, 109.9681
517.7244, 108.3952
518.2065, 108.1107
518.6886, 108.5362
519.1707, 108.8652
519.6528, 108.8034
520.1349, 108.5426
520.6171, 108.3778
521.0992, 108.3584
521.5813, 108.2343
522.0634, 107.6795
522.5455, 107.3550
523.0276, 107.5329
523.5098, 108.1126
523.9919, 108.9056
524.4740, 109.8639
524.9561, 110.9069
525.4382, 111.9921
525.9203, 113.1170
526.4025, 113.9916
526.8846, 114.2456
527.3667, 114.6293
527.8488, 116.1192
528.3309, 118.5087
528.8130, 120.4847
529.2952, 121.3024
529.7773, 121.8184
530.2594, 122.6305
530.7415, 123.7984
531.2236, 125.6431
531.7057, 128.4707
532.1879, 131.5650
532.6700, 133.4702
533.1521, 133.3300
533.6342, 133.9688
534.1163, 136.0587
534.5984, 138.4049
535.0806, 140.3147
535.5627, 141.7938
536.0448, 143.0789
536.5269, 144.2899
537.0090, 145.4865
537.4911, 146.8554
537.9733, 148.5605
538.4554, 150.0996
538.9375, 151.2343
539.4196, 152.3408
539.9017, 153.8392
540.3839, 155.5904
540.8660, 156.9194
541.3481, 157.0565
541.8302, 156.6692
542.3123, 157.4090
542.7944, 159.4226
543.2766, 161.3120
543.7587, 162.8326
544.2408, 163.6551
544.7229, 163.1000
545.2050, 160.9485
545.6871, 159.4280
546.1693, 159.7674
546.6514, 160.8311
547.1335, 161.4744
547.6156, 161.6279
548.0977, 161.6144
548.5798, 161.6421
549.0620, 161.6214
549.5441, 161.2538
550.0262, 160.3190
550.5083, 159.3014
550.9904, 158.3239
551.4725, 157.1677
551.9547, 155.5966
552.4368, 153.6709
552.9189, 151.6384
553.4010, 149.6752
553.8831, 147.7757
554.3652, 145.9625
554.8474, 144.2923
555.3295, 142.5884
555.8116, 140.8028
556.2937, 138.9686
556.7758, 137.0661
557.2579, 135.1190
557.7401, 133.2650
558.2222, 131.6919
558.7043, 130.2288
559.1864, 128.4563
559.6685, 126.3723
560.1506, 124.5418
560.6328, 123.4067
561.1149, 122.5493
561.5970, 120.8901
562.0791, 118.0421
562.5612, 115.7997
563.0433, 114.8010
563.5255, 114.3069
564.0076, 113.7733
564.4897, 113.1547
564.9718, 112.5860
565.4539, 112.1612
565.9360, 111.8240
566.4182, 111.3996
566.9003, 110.9373
567.3824, 110.2790
567.8645, 109.2262
568.3466, 108.1574
568.8287, 107.2062
569.3109, 106.4406
569.7930, 106.0191
570.2751, 106.1339
570.7572, 106.5494
571.2393, 106.7647
571.7214, 106.7616
572.2036, 106.7924
572.6857, 107.0419
573.1678, 107.2367
573.6499, 106.9128
574.1320, 106.0873
574.6141, 105.6291
575.0963, 105.8630
575.5784, 106.4910
576.0605, 107.5510
576.5426, 108.8188
577.0247, 109.5972
577.5068, 109.5416
577.9890, 108.9891
578.4711, 108.5360
578.9532, 108.0932
579.4353, 108.0059
579.9174, 108.5028
580.3995, 109.0797
580.8817, 109.5031
581.3638, 109.8231
581.8459, 110.2113
582.3280, 110.7661
582.8101, 111.2807
583.2922, 111.2989
583.7744, 110.7614
584.2565, 110.6386
584.7386, 111.3432
585.2207, 112.0786
585.7029, 112.1738
586.1850, 111.8647
586.6671, 111.7462
587.1492, 111.9551
587.6313, 112.4008
588.1135, 113.2815
588.5956, 114.3235
589.0777, 114.7991
