##NAMES=Armangite
##RRUFFID=R100041
##IDEAL CHEMISTRY=Mn^2+^_26_As^3+^_18_O_50_(CO_3_)(OH)_4_
##LOCALITY=Langban, Filipstad, Varmland, Sweden
##OWNER=RRUFF
##SOURCE=William W. Pinch
##DESCRIPTION=Elongated prismatic transparent brown, associated with green magnussonite R100027, and white nadorite
##STATUS=The identification of this mineral is confirmed by single-crystal X-ray diffraction and chemical analysis.
##URL=rruff.info/R100041
##MEASURED CHEMISTRY=(Mn_25.07_Fe_0.26_Ca_0.09_)_Î£25.42_As_18.38_O_50_(CO_3_)(OH)_4_
90.49219, 13.80088
90.97430, 11.29281
91.45642, 10.40137
91.93854, 12.59114
92.42065, 15.97245
92.90277, 17.69328
93.38489, 17.42088
93.86700, 16.27642
94.34912, 15.39913
94.83124, 14.76353
95.31335, 14.25026
95.79547, 13.88201
96.27759, 13.60545
96.75970, 13.10563
97.24182, 12.18305
97.72394, 11.21562
98.20605, 11.20923
98.68817, 12.27917
99.17029, 13.37873
99.65240, 13.54849
100.1345, 12.70793
100.6166, 12.15610
101.0988, 12.24626
101.5809, 12.87884
102.0630, 13.21540
102.5451, 13.22541
103.0272, 12.99977
103.5093, 12.57092
103.9915, 11.80610
104.4736, 11.19880
104.9557, 10.95882
105.4378, 11.20283
105.9199, 11.12419
106.4020, 10.44239
106.8842, 9.574611
107.3663, 9.262057
107.8484, 9.948557
108.3305, 10.68048
108.8126, 11.12390
109.2947, 11.04377
109.7769, 11.06712
110.2590, 11.40580
110.7411, 11.88541
111.2232, 11.95526
111.7053, 10.84634
112.1874, 9.859427
112.6696, 9.587755
113.1517, 11.45945
113.6338, 12.57182
114.1159, 11.98913
114.5980, 9.999059
115.0801, 8.654986
115.5623, 8.856340
116.0444, 9.693715
116.5265, 10.46073
117.0086, 11.15734
117.4907, 11.60098
117.9728, 11.58593
118.4550, 11.09373
118.9371, 10.73717
119.4192, 11.06859
119.9013, 11.63151
120.3834, 11.83812
120.8655, 11.06247
121.3477, 10.08829
121.8298, 9.448256
122.3119, 9.195230
122.7940, 9.202551
123.2761, 9.625305
123.7582, 10.26309
124.2404, 10.66961
124.7225, 10.38388
125.2046, 9.810508
125.6867, 9.418185
126.1688, 9.245631
126.6509, 9.329825
127.1331, 9.768450
127.6152, 10.52779
128.0973, 11.44020
128.5794, 12.45497
129.0615, 13.53950
129.5436, 14.63466
130.0258, 15.78455
130.5079, 16.87704
130.9900, 17.61307
131.4721, 17.98673
131.9542, 18.46566
132.4363, 19.46046
132.9185, 20.92992
133.4006, 22.59798
133.8827, 24.44718
134.3648, 26.41797
134.8469, 28.34023
135.3290, 30.14872
135.8112, 32.20565
136.2933, 35.00106
136.7754, 38.58951
137.2575, 42.23116
137.7396, 45.60561
138.2217, 48.67540
138.7039, 52.33600
139.1860, 56.76426
139.6681, 61.51599
140.1502, 66.10049
140.6323, 70.54408
141.1144, 74.58470
141.5966, 78.08913
142.0787, 80.96152
142.5608, 83.60673
143.0429, 85.93212
143.5250, 88.07732
144.0071, 90.32072
144.4893, 92.58484
144.9714, 95.04247
145.4535, 97.74433
145.9356, 100.7773
146.4177, 103.9174
146.8998, 106.9920
147.3820, 110.1531
147.8641, 114.2023
148.3462, 119.4896
148.8283, 125.2828
149.3104, 131.2779
149.7925, 137.7216
150.2747, 144.0045
150.7568, 149.9804
151.2389, 155.6665
151.7210, 161.2531
152.2031, 166.6501
152.6852, 171.9456
153.1674, 177.2547
153.6495, 182.8731
154.1316, 188.1499
154.6137, 193.0448
155.0958, 197.5574
155.5779, 201.5618
156.0601, 204.5547
156.5422, 207.2612
157.0243, 210.2654
157.5064, 213.7814
157.9885, 217.5049
158.4706, 221.4868
158.9528, 225.7868
159.4349, 229.7881
159.9170, 232.5231
160.3991, 235.1145
160.8812, 238.8599
161.3633, 245.4416
161.8455, 252.2079
162.3276, 257.6570
162.8097, 261.1116
163.2918, 265.5964
163.7739, 273.0759
164.2560, 281.9161
164.7382, 288.2279
165.2203, 291.4305
165.7024, 294.7471
166.1845, 300.0064
166.6666, 307.9756
167.1487, 316.0926
167.6309, 323.2986
168.1130, 329.7440
168.5951, 335.6037
169.0772, 340.5420
169.5593, 345.2473
170.0414, 350.4287
170.5236, 356.5619
171.0057, 362.3952
171.4878, 367.0112
171.9699, 370.6522
172.4520, 373.9426
172.9341, 376.8253
173.4163, 379.7420
173.8984, 383.3213
174.3805, 388.1201
174.8626, 392.9250
175.3447, 396.4249
175.8268, 398.8857
176.3090, 401.5615
176.7911, 405.6500
177.2732, 410.4218
177.7553, 414.6970
178.2374, 418.2338
178.7195, 421.1048
179.2017, 423.2988
179.6838, 424.8690
180.1659, 426.1024
180.6480, 427.1921
181.1301, 428.1250
181.6122, 428.9257
182.0944, 429.7906
182.5765, 430.3912
183.0586, 430.0605
183.5407, 428.8160
184.0228, 427.2197
184.5049, 426.0872
184.9871, 425.1123
185.4692, 423.2153
185.9513, 419.8566
186.4334, 415.4365
186.9155, 410.7253
187.3976, 405.7446
187.8798, 400.4818
188.3619, 395.0338
188.8440, 389.3170
189.3261, 383.0980
189.8082, 375.8807
190.2903, 368.0667
190.7725, 361.0392
191.2546, 354.7581
191.7367, 348.9839
192.2188, 343.4058
192.7009, 337.9721
193.1830, 332.6797
193.6652, 327.5617
194.1473, 322.5583
194.6294, 317.6752
195.1115, 312.9774
195.5936, 308.1839
196.0757, 302.5940
196.5579, 296.1534
197.0400, 290.4458
197.5221, 286.5421
198.0042, 284.2887
198.4863, 280.8442
198.9684, 275.9023
199.4506, 270.4817
199.9327, 266.1717
200.4148, 263.0308
200.8969, 260.2256
201.3790, 257.4343
201.8611, 254.6656
202.3433, 251.9535
202.8254, 249.2784
203.3075, 246.6702
203.7896, 244.2400
204.2717, 241.9965
204.7538, 239.7969
205.2360, 237.4123
205.7181, 234.7306
206.2002, 232.9839
206.6823, 232.4783
207.1644, 232.5347
207.6465, 231.7927
208.1287, 230.0041
208.6108, 228.3241
209.0929, 227.3300
209.5750, 227.1739
210.0571, 226.8842
210.5392, 226.4240
211.0214, 225.8666
211.5035, 225.3722
211.9856, 224.9897
212.4677, 224.5628
212.9498, 223.8726
213.4319, 222.6731
213.9140, 222.4091
214.3962, 223.5991
214.8783, 225.4031
215.3604, 225.7728
215.8425, 224.2455
216.3246, 222.3324
216.8067, 220.6243
217.2889, 219.1041
217.7710, 217.9042
218.2531, 217.1135
218.7352, 216.5943
219.2173, 215.9994
219.6994, 215.2735
220.1816, 214.5667
220.6637, 213.9806
221.1458, 213.6579
221.6279, 212.9968
222.1100, 211.7542
222.5921, 210.2632
223.0743, 209.3955
223.5564, 209.4017
224.0385, 209.6125
224.5206, 209.7767
225.0027, 210.0076
225.4848, 209.8631
225.9670, 209.0706
226.4491, 207.9917
226.9312, 207.6545
227.4133, 208.5723
227.8954, 209.4027
228.3775, 209.4191
228.8597, 208.0614
229.3418, 207.2836
229.8239, 207.3440
230.3060, 207.9221
230.7881, 208.1000
231.2702, 207.5685
231.7524, 207.0934
232.2345, 207.0443
232.7166, 207.6309
233.1987, 208.1436
233.6808, 208.5705
234.1629, 208.9220
234.6451, 209.2397
235.1272, 209.5663
235.6093, 209.8020
236.0914, 209.8207
236.5735, 209.2173
237.0556, 209.4090
237.5378, 210.9083
238.0199, 213.0625
238.5020, 214.0825
238.9841, 213.0367
239.4662, 212.2609
239.9483, 212.8577
240.4305, 215.6128
240.9126, 217.8583
241.3947, 219.3831
241.8768, 220.4614
242.3589, 221.8244
242.8410, 223.8501
243.3232, 225.5682
243.8053, 226.3987
244.2874, 225.5403
244.7695, 225.7937
245.2516, 227.6506
245.7337, 230.4229
246.2159, 232.5832
246.6980, 233.9339
247.1801, 234.9886
247.6622, 235.8997
248.1443, 236.5384
248.6264, 237.4415
249.1086, 238.8042
249.5907, 240.3459
250.0728, 241.4740
250.5549, 242.0379
251.0370, 242.4411
251.5191, 242.8229
252.0013, 243.1824
252.4834, 243.5126
252.9655, 243.8557
253.4476, 244.1355
253.9297, 244.2113
254.4118, 244.0647
254.8940, 243.7425
255.3761, 243.2726
255.8582, 242.6777
256.3403, 241.8235
256.8224, 240.6854
257.3046, 239.3110
257.7867, 237.7523
258.2688, 235.8364
258.7509, 234.0844
259.2330, 232.7129
259.7151, 231.7785
260.1973, 230.9427
260.6794, 230.5213
261.1615, 229.9172
261.6436, 228.0842
262.1257, 224.3640
262.6078, 220.9826
263.0900, 218.6667
263.5721, 217.4804
264.0542, 216.5289
264.5363, 215.8063
265.0184, 215.3076
265.5005, 215.1209
265.9827, 215.4858
266.4648, 215.4623
266.9469, 214.7830
267.4290, 213.4472
267.9111, 211.6366
268.3932, 209.1118
268.8754, 206.5008
269.3575, 204.5357
269.8396, 203.3118
270.3217, 202.3263
270.8038, 201.4861
271.2859, 200.7832
271.7681, 200.2402
272.2502, 199.9596
272.7323, 199.6308
273.2144, 198.8975
273.6965, 197.6768
274.1786, 196.5199
274.6608, 195.6549
275.1429, 194.9778
275.6250, 193.5800
276.1071, 191.2538
276.5892, 188.8104
277.0714, 187.0611
277.5535, 186.0594
278.0356, 185.1896
278.5177, 184.4171
278.9998, 183.6729
279.4819, 182.6308
279.9641, 181.2284
280.4462, 179.7539
280.9283, 178.4464
281.4104, 177.3257
281.8925, 176.1194
282.3746, 174.7464
282.8568, 173.2927
283.3389, 172.0030
283.8210, 170.8858
284.3031, 169.8548
284.7852, 168.6951
285.2673, 167.4506
285.7495, 166.9422
286.2316, 167.5911
286.7137, 168.5559
287.1958, 167.7457
287.6779, 165.0956
288.1600, 162.6226
288.6422, 161.7701
289.1243, 162.3125
289.6064, 162.6893
290.0885, 162.7846
290.5706, 162.6552
291.0527, 162.3414
291.5349, 161.8533
292.0170, 161.3159
292.4991, 160.8576
292.9812, 160.4176
293.4633, 159.7877
293.9454, 158.9493
294.4276, 157.9480
294.9097, 156.7231
295.3918, 155.3354
295.8739, 154.1305
296.3560, 153.2378
296.8381, 152.6536
297.3203, 152.5486
297.8024, 152.9817
298.2845, 153.3614
298.7666, 153.0078
299.2487, 152.0783
299.7308, 151.0443
300.2130, 149.9078
300.6951, 148.8562
301.1772, 148.2549
301.6593, 148.1051
302.1414, 148.0746
302.6235, 148.0450
303.1057, 147.9220
303.5878, 147.4948
304.0699, 146.4013
304.5520, 145.2007
305.0341, 144.5396
305.5162, 144.3848
305.9984, 144.4402
306.4805, 144.7040
306.9626, 144.9933
307.4447, 145.0350
307.9268, 144.6564
308.4089, 144.1365
308.8911, 143.5227
309.3732, 142.9059
309.8553, 142.6653
310.3374, 143.4701
310.8195, 144.5546
311.3016, 145.0664
311.7838, 144.5269
312.2659, 144.0364
312.7480, 144.5066
313.2301, 145.5982
313.7122, 146.4758
314.1943, 146.3194
314.6765, 146.0955
315.1586, 146.6272
315.6407, 148.3042
316.1228, 149.7644
316.6049, 149.9504
317.0870, 149.5406
317.5692, 149.6472
318.0513, 151.1145
318.5334, 152.8246
319.0155, 154.3255
319.4976, 155.6091
319.9797, 156.5268
320.4619, 156.6627
320.9440, 156.5333
321.4261, 156.7151
321.9082, 157.7376
322.3903, 158.7115
322.8724, 159.3499
323.3546, 159.6382
323.8367, 159.8723
324.3188, 160.0551
324.8009, 160.2379
325.2830, 160.4587
325.7651, 160.5775
326.2473, 160.9029
326.7294, 161.7771
327.2115, 163.0666
327.6936, 163.7076
328.1757, 162.8605
328.6578, 161.9169
329.1400, 161.5648
329.6221, 162.2603
330.1042, 162.9432
330.5863, 163.8183
331.0684, 164.6820
331.5505, 164.8858
332.0327, 163.7412
332.5148, 162.7455
332.9969, 162.5769
333.4790, 163.7496
333.9611, 164.3259
334.4432, 164.1538
334.9254, 163.4679
335.4075, 162.6271
335.8896, 161.4965
336.3717, 160.4782
336.8538, 159.7833
337.3359, 159.4671
337.8180, 158.7810
338.3001, 157.5932
338.7823, 156.2434
339.2644, 155.1318
339.7465, 154.2897
340.2286, 153.5450
340.7107, 152.9779
341.1928, 152.4952
341.6750, 151.4317
342.1571, 149.6456
342.6392, 147.7507
343.1213, 146.3329
343.6034, 145.4147
344.0855, 144.1390
344.5677, 142.2618
345.0498, 140.0653
345.5319, 138.2550
346.0140, 136.8361
346.4961, 135.6524
346.9782, 134.7671
347.4604, 134.0775
347.9425, 133.0604
348.4246, 131.5764
348.9067, 130.0042
349.3888, 129.0546
349.8709, 128.5876
350.3531, 127.8191
350.8352, 125.8765
351.3173, 123.4763
351.7994, 122.1026
352.2815, 121.8723
352.7636, 121.9383
353.2458, 121.7781
353.7279, 121.3039
354.2100, 120.3048
354.6921, 117.9019
355.1742, 115.4835
355.6563, 114.8476
356.1385, 115.8316
356.6206, 116.6972
357.1027, 115.9403
357.5848, 114.5118
358.0669, 113.5431
358.5490, 113.5600
359.0312, 113.7660
359.5133, 113.8217
359.9954, 113.6869
360.4775, 113.2440
360.9596, 111.9787
361.4417, 110.6852
361.9239, 109.9610
362.4060, 110.1044
362.8881, 110.2100
363.3702, 109.6834
363.8523, 108.9536
364.3344, 108.6787
364.8166, 109.6568
365.2987, 110.5781
365.7808, 110.8756
366.2629, 110.4530
366.7450, 110.0573
367.2271, 109.6734
367.7093, 109.4325
368.1914, 109.4503
368.6735, 110.0365
369.1556, 110.5539
369.6377, 110.8490
370.1198, 110.9608
370.6020, 111.2110
371.0841, 111.7296
371.5662, 112.2675
372.0483, 112.7178
372.5304, 113.2829
373.0125, 113.3402
373.4947, 112.5274
373.9768, 111.3234
374.4589, 110.8974
374.9410, 111.5698
375.4231, 112.3628
375.9052, 112.8837
376.3874, 113.0738
376.8695, 113.4758
377.3516, 114.1205
377.8337, 114.9338
378.3158, 115.9813
378.7979, 117.3541
379.2801, 118.2439
379.7622, 118.1645
380.2443, 117.4610
380.7264, 117.8765
381.2085, 119.5520
381.6906, 121.3363
382.1728, 122.1870
382.6549, 122.2450
383.1370, 122.3554
383.6191, 122.6745
384.1012, 123.0881
384.5833, 123.4386
385.0655, 123.7258
385.5476, 123.9512
386.0297, 123.8204
386.5118, 123.7012
386.9939, 124.4961
387.4760, 126.4159
387.9582, 128.2508
388.4403, 128.5782
388.9224, 127.9962
389.4045, 127.7484
389.8866, 128.8232
390.3687, 130.1241
390.8509, 130.5901
391.3330, 130.2894
391.8151, 130.0798
392.2972, 130.6097
392.7793, 131.4096
393.2614, 132.0505
393.7436, 132.5200
394.2257, 132.6604
394.7078, 132.0139
395.1899, 130.9453
395.6720, 130.4130
396.1541, 131.2243
396.6363, 132.2411
397.1184, 132.9038
397.6005, 133.0127
398.0826, 133.2175
398.5647, 133.9049
399.0468, 134.6424
399.5290, 134.9055
400.0111, 134.3161
400.4932, 133.6102
400.9753, 132.6817
401.4574, 131.5331
401.9395, 131.2512
402.4217, 132.5916
402.9038, 133.9974
403.3859, 134.3640
403.8680, 133.1421
404.3501, 132.1642
404.8322, 131.5331
405.3144, 131.2336
405.7965, 131.3257
406.2786, 131.9442
406.7607, 132.5072
407.2428, 132.7449
407.7249, 132.6487
408.2071, 132.4441
408.6892, 132.0682
409.1713, 131.7617
409.6534, 131.9182
410.1355, 132.5112
410.6176, 133.0241
411.0998, 133.3709
411.5819, 133.5029
412.0640, 133.2214
412.5461, 132.5408
413.0282, 131.7638
413.5103, 130.7736
413.9925, 129.9031
414.4746, 130.0621
414.9567, 131.7514
415.4388, 133.4477
415.9209, 133.1435
416.4030, 131.5761
416.8852, 130.5697
417.3673, 131.6443
417.8494, 133.2764
418.3315, 134.2863
418.8136, 134.5938
419.2957, 134.5264
419.7779, 133.6980
420.2600, 132.8201
420.7421, 132.6190
421.2242, 133.9849
421.7063, 135.3425
422.1884, 136.2571
422.6706, 136.7752
423.1527, 137.1083
423.6348, 137.0661
424.1169, 137.0370
424.5990, 137.1994
425.0811, 137.6185
425.5633, 138.1163
426.0454, 138.7688
426.5275, 139.4599
427.0096, 140.0299
427.4917, 140.2227
427.9738, 140.6932
428.4560, 141.7081
428.9381, 143.2357
429.4202, 144.3430
429.9023, 144.9145
430.3844, 145.2559
430.8665, 145.4506
431.3487, 145.3918
431.8308, 145.9219
432.3129, 147.3124
432.7950, 149.0601
433.2771, 150.0078
433.7592, 150.1133
434.2414, 150.2609
434.7235, 150.9816
435.2056, 152.0911
435.6877, 152.8287
436.1698, 153.1750
436.6519, 153.3581
437.1341, 153.5832
437.6162, 153.8171
438.0983, 153.9797
438.5804, 154.0500
439.0625, 154.0407
439.5446, 153.8380
440.0268, 153.5320
440.5089, 153.4492
440.9910, 153.9990
441.4731, 154.7299
441.9552, 155.2252
442.4373, 155.3904
442.9195, 155.5604
443.4016, 156.0502
443.8837, 156.5942
444.3658, 156.8691
444.8479, 156.5845
445.3300, 156.2135
445.8122, 155.9067
446.2943, 155.6547
446.7764, 155.3232
447.2585, 154.7977
447.7406, 154.2601
448.2227, 153.7992
448.7049, 153.4533
449.1870, 153.1250
449.6691, 152.8829
450.1512, 152.6253
450.6333, 152.1596
451.1154, 151.3044
451.5976, 150.6301
452.0797, 150.3550
452.5618, 150.4410
453.0439, 150.3593
453.5260, 150.1034
454.0081, 149.7078
454.4903, 149.0276
454.9724, 148.0787
455.4545, 147.7121
455.9366, 148.1601
456.4187, 148.9674
456.9008, 149.4512
457.3830, 149.6223
457.8651, 149.5304
458.3472, 149.0129
458.8293, 148.3102
459.3114, 147.7901
459.7935, 147.4627
460.2757, 147.3853
460.7578, 147.6405
461.2399, 148.1675
461.7220, 148.9459
462.2041, 150.2806
462.6862, 151.3450
463.1684, 151.2507
463.6505, 150.4680
464.1326, 150.0886
464.6147, 150.8184
465.0968, 151.8394
465.5789, 152.6902
466.0611, 153.2790
466.5432, 154.1397
467.0253, 155.8215
467.5074, 157.5726
467.9895, 158.7559
468.4716, 158.8470
468.9538, 158.9983
469.4359, 159.1093
469.9180, 159.3281
470.4001, 160.2462
470.8822, 162.3775
471.3643, 164.2823
471.8465, 165.2371
472.3286, 165.1022
472.8107, 165.6133
473.2928, 166.9689
473.7749, 168.4742
474.2570, 169.3123
474.7392, 169.4892
475.2213, 169.5399
475.7034, 169.4840
476.1855, 169.4851
476.6676, 170.0750
477.1497, 171.1739
477.6319, 172.0108
478.1140, 171.7463
478.5961, 171.0423
479.0782, 171.0442
479.5603, 171.8561
480.0424, 172.9457
480.5246, 174.2892
481.0067, 175.5278
481.4888, 176.1371
481.9709, 175.3995
482.4530, 174.6347
482.9352, 174.4361
483.4173, 174.7430
483.8994, 175.3645
484.3815, 176.7043
484.8636, 177.9634
485.3457, 178.6667
485.8279, 178.5640
486.3100, 178.7526
486.7921, 179.2990
487.2742, 180.1928
487.7563, 181.4832
488.2384, 183.5872
488.7206, 185.3772
489.2027, 186.6607
489.6848, 187.5536
490.1669, 188.4244
490.6490, 189.2536
491.1311, 190.1026
491.6133, 190.9858
492.0954, 191.9074
492.5775, 192.8361
493.0596, 193.7298
493.5417, 194.7972
494.0238, 196.4103
494.5060, 198.4452
494.9881, 200.2703
495.4702, 201.6057
495.9523, 202.8278
496.4344, 204.6040
496.9165, 206.7579
497.3987, 208.6195
497.8808, 209.5769
498.3629, 210.2252
498.8450, 211.1911
499.3271, 212.5473
499.8092, 213.7558
500.2914, 214.2668
500.7735, 214.6240
501.2556, 215.3701
501.7377, 217.3765
502.2198, 218.8760
502.7019, 219.3967
503.1841, 219.1312
503.6662, 218.6228
504.1483, 218.0010
504.6304, 217.0295
505.1125, 215.5194
505.5946, 213.4016
506.0768, 211.7253
506.5589, 210.8572
507.0410, 209.9087
507.5231, 207.9988
508.0052, 204.9262
508.4873, 202.3462
508.9695, 200.6448
509.4516, 199.2681
509.9337, 197.0784
510.4158, 194.1233
510.8979, 191.3284
511.3800, 189.3444
511.8622, 187.6955
512.3443, 185.1263
512.8264, 181.7037
513.3085, 178.2911
513.7906, 175.4569
514.2728, 173.0648
514.7549, 171.0407
515.2370, 169.5476
515.7191, 167.8743
516.2012, 165.2156
516.6833, 162.1740
517.1655, 159.6299
517.6476, 158.4404
518.1297, 157.2315
518.6118, 155.4537
519.0939, 153.1552
519.5760, 151.0031
520.0582, 148.9536
520.5403, 147.1953
521.0224, 145.9374
521.5045, 145.5675
521.9866, 144.4507
522.4688, 142.0661
522.9509, 139.5064
523.4330, 138.2089
523.9151, 138.4168
524.3972, 138.5571
524.8793, 138.3282
525.3615, 137.7954
525.8436, 137.0376
526.3257, 136.0555
526.8078, 135.1216
527.2899, 134.4349
527.7720, 133.8941
528.2542, 133.2284
528.7363, 132.4216
529.2184, 131.7313
529.7005, 131.4849
530.1826, 131.4625
530.6647, 131.3595
531.1469, 131.0190
531.6290, 130.7046
532.1111, 130.6422
532.5932, 130.7072
533.0753, 130.6463
533.5574, 130.0751
534.0396, 129.6624
534.5217, 129.8026
535.0038, 130.5542
535.4859, 130.8074
535.9680, 129.9622
536.4501, 129.1747
536.9323, 129.1740
537.4144, 130.3803
537.8965, 131.2203
538.3786, 131.6794
538.8607, 131.7527
539.3428, 131.1440
539.8250, 129.7468
540.3071, 129.1318
540.7892, 130.0170
541.2713, 131.7570
541.7534, 132.9465
542.2355, 133.5821
542.7177, 133.6142
543.1998, 132.3988
543.6819, 130.7835
544.1640, 130.2579
544.6461, 130.9792
545.1282, 131.6853
545.6104, 131.5224
546.0925, 130.8394
546.5746, 129.9829
547.0567, 128.5124
547.5388, 127.6272
548.0209, 128.2890
548.5031, 129.8024
548.9852, 130.6498
549.4673, 130.1528
549.9494, 129.4295
550.4315, 128.6043
550.9136, 127.6797
551.3958, 127.3084
551.8779, 127.8053
552.3600, 128.3261
552.8421, 128.2238
553.3242, 127.3858
553.8063, 127.0512
554.2885, 127.3668
554.7706, 127.9266
555.2527, 128.3024
555.7348, 128.4789
556.2169, 128.2943
556.6990, 127.4363
557.1812, 126.5398
557.6633, 126.7554
558.1454, 127.7933
558.6275, 128.5655
559.1096, 128.2193
559.5917, 127.5050
560.0739, 126.9628
560.5560, 126.6295
561.0381, 126.4830
561.5202, 126.7419
562.0023, 127.0468
562.4844, 127.1263
562.9666, 126.7637
563.4487, 126.4374
563.9308, 126.1283
564.4129, 125.8881
564.8950, 125.8156
565.3771, 125.9969
565.8593, 126.1321
566.3414, 126.0622
566.8235, 125.9044
567.3056, 126.3557
567.7877, 127.5282
568.2698, 128.4661
568.7520, 128.4070
569.2341, 127.6255
569.7162, 127.2020
570.1983, 127.1912
570.6804, 127.2405
571.1625, 126.9746
571.6447, 126.5644
572.1268, 126.2721
572.6089, 126.1330
573.0910, 126.1805
573.5731, 126.6150
574.0552, 127.2218
574.5374, 127.6344
575.0195, 127.5287
575.5016, 127.4158
575.9837, 127.3834
576.4658, 127.4545
576.9479, 127.8437
577.4301, 129.0501
577.9122, 129.9789
578.3943, 130.0372
578.8764, 128.9755
579.3585, 128.4759
579.8406, 128.6645
580.3228, 129.1331
580.8049, 129.4854
581.2870, 129.7268
581.7691, 129.9571
582.2512, 130.1340
582.7333, 130.4385
583.2155, 131.4534
583.6975, 132.8683
584.1796, 133.7556
