##NAMES=Armangite
##RRUFFID=R100054
##IDEAL CHEMISTRY=Mn^2+^_26_As^3+^_18_O_50_(CO_3_)(OH)_4_
##LOCALITY=Langban, Filipstad, Varmland, Sweden
##OWNER=RRUFF
##SOURCE=William W Pinch
##DESCRIPTION=Transparent brown hexagonal crystals
##STATUS=The identification of this mineral has been confirmed by single-crystal X-ray diffraction.
##URL=rruff.info/R100054
90.49219, 16.64032
90.97430, 17.13710
91.45642, 17.31431
91.93854, 16.72450
92.42065, 15.94688
92.90277, 15.99395
93.38489, 17.08080
93.86700, 18.30051
94.34912, 18.45513
94.83124, 17.69155
95.31335, 16.84217
95.79547, 16.26384
96.27759, 15.98144
96.75970, 16.15893
97.24182, 16.98573
97.72394, 18.07901
98.20605, 18.70111
98.68817, 18.85218
99.17029, 18.52255
99.65240, 17.34909
100.1345, 15.22136
100.6166, 13.90644
101.0988, 13.98835
101.5809, 15.26246
102.0630, 15.99195
102.5451, 16.10212
103.0272, 15.81318
103.5093, 15.21834
103.9915, 14.01672
104.4736, 13.32111
104.9557, 13.62397
105.4378, 15.21680
105.9199, 16.16307
106.4020, 16.29676
106.8842, 15.87197
107.3663, 15.27452
107.8484, 14.05510
108.3305, 13.19255
108.8126, 13.10182
109.2947, 14.66386
109.7769, 15.53109
110.2590, 15.21444
110.7411, 14.11687
111.2232, 13.49923
111.7053, 13.97131
112.1874, 14.51283
112.6696, 14.66278
113.1517, 13.83799
113.6338, 13.20063
114.1159, 12.92945
114.5980, 12.99666
115.0801, 13.19286
115.5623, 13.81155
116.0444, 14.37697
116.5265, 14.52096
117.0086, 13.56379
117.4907, 12.68166
117.9728, 12.36072
118.4550, 12.62894
118.9371, 13.00370
119.4192, 13.49707
119.9013, 13.92465
120.3834, 14.04249
120.8655, 13.35338
121.3477, 12.57039
121.8298, 12.21319
122.3119, 12.35828
122.7940, 12.71875
123.2761, 13.32107
123.7582, 14.00694
124.2404, 14.42383
124.7225, 14.27061
125.2046, 13.78139
125.6867, 13.11524
126.1688, 12.09387
126.6509, 11.38542
127.1331, 12.02344
127.6152, 13.77422
128.0973, 15.47600
128.5794, 16.08779
129.0615, 16.05293
129.5436, 16.43967
130.0258, 17.56072
130.5079, 19.12061
130.9900, 20.70257
131.4721, 22.29296
131.9542, 23.83734
132.4363, 25.05697
132.9185, 26.06081
133.4006, 27.63914
133.8827, 30.25518
134.3648, 33.54948
134.8469, 36.24240
135.3290, 38.16809
135.8112, 40.23211
136.2933, 43.51954
136.7754, 48.10316
137.2575, 52.97198
137.7396, 57.97966
138.2217, 63.02934
138.7039, 67.49277
139.1860, 70.96870
139.6681, 74.50503
140.1502, 80.25074
140.6323, 89.02158
141.1144, 97.09478
141.5966, 102.8731
142.0787, 105.7866
142.5608, 108.7658
143.0429, 111.8093
143.5250, 114.9113
144.0071, 118.0972
144.4893, 121.5507
144.9714, 124.7443
145.4535, 127.1709
145.9356, 127.4731
146.4177, 129.8813
146.8998, 135.5114
147.3820, 143.4272
147.8641, 149.9457
148.3462, 153.8571
148.8283, 157.4281
149.3104, 161.9173
149.7925, 168.1372
150.2747, 174.1902
150.7568, 179.7685
151.2389, 184.9231
151.7210, 190.2847
152.2031, 196.1211
152.6852, 201.9460
153.1674, 207.5227
153.6495, 212.7995
154.1316, 217.8180
154.6137, 222.5001
155.0958, 226.8404
155.5779, 231.1952
156.0601, 235.8672
156.5422, 240.4652
157.0243, 244.5981
157.5064, 247.2519
157.9885, 250.3145
158.4706, 254.3701
158.9528, 259.5192
159.4349, 265.0380
159.9170, 270.6248
160.3991, 276.5179
160.8812, 282.9925
161.3633, 290.5903
161.8455, 298.4164
162.3276, 306.0443
162.8097, 313.2274
163.2918, 320.7427
163.7739, 328.3966
164.2560, 336.2148
164.7382, 342.6594
165.2203, 350.0235
165.7024, 358.2615
166.1845, 367.1281
166.6666, 376.9571
167.1487, 386.2986
167.6309, 393.8001
168.1130, 400.3400
168.5951, 407.6342
169.0772, 417.3104
169.5593, 427.7104
170.0414, 437.3084
170.5236, 445.4984
171.0057, 453.7359
171.4878, 463.0477
171.9699, 473.3583
172.4520, 484.2423
172.9341, 496.2941
173.4163, 508.5860
173.8984, 520.0085
174.3805, 530.2759
174.8626, 539.7720
175.3447, 548.6808
175.8268, 557.1842
176.3090, 566.1886
176.7911, 577.2307
177.2732, 588.9437
177.7553, 598.9258
178.2374, 605.9906
178.7195, 611.7784
179.2017, 618.3666
179.6838, 625.7240
180.1659, 632.9792
180.6480, 640.0992
181.1301, 646.6709
181.6122, 651.8601
182.0944, 655.2336
182.5765, 657.2467
183.0586, 658.8672
183.5407, 660.0699
184.0228, 660.1949
184.5049, 658.0861
184.9871, 654.2426
185.4692, 650.5603
185.9513, 647.9026
186.4334, 645.6768
186.9155, 642.3466
187.3976, 637.8795
187.8798, 632.8878
188.3619, 627.6125
188.8440, 622.1446
189.3261, 617.4781
189.8082, 614.6416
190.2903, 612.8202
190.7725, 608.5965
191.2546, 601.5413
191.7367, 594.0593
192.2188, 588.8217
192.7009, 585.6945
193.1830, 583.1702
193.6652, 580.9731
194.1473, 578.9743
194.6294, 576.5253
195.1115, 573.6293
195.5936, 570.2831
196.0757, 566.2272
196.5579, 561.4264
197.0400, 556.9523
197.5221, 553.7176
198.0042, 551.5729
198.4863, 547.5941
198.9684, 541.3798
199.4506, 534.2604
199.9327, 528.4230
200.4148, 523.9998
200.8969, 519.3917
201.3790, 513.8871
201.8611, 507.4847
202.3433, 500.7564
202.8254, 493.5928
203.3075, 486.2294
203.7896, 479.1032
204.2717, 472.1407
204.7538, 465.5401
205.2360, 459.4132
205.7181, 453.7821
206.2002, 448.3642
206.6823, 443.1391
207.1644, 438.1463
207.6465, 433.4611
208.1287, 429.1590
208.6108, 425.0674
209.0929, 421.0431
209.5750, 416.9727
210.0571, 413.5319
210.5392, 410.6919
211.0214, 408.4866
211.5035, 407.2071
211.9856, 407.3033
212.4677, 407.1413
212.9498, 405.6201
213.4319, 402.0346
213.9140, 400.3175
214.3962, 401.2661
214.8783, 403.6025
215.3604, 404.1685
215.8425, 402.1381
216.3246, 400.1947
216.8067, 399.7299
217.2889, 401.3974
217.7710, 402.2095
218.2531, 401.7534
218.7352, 400.5952
219.2173, 400.1644
219.6994, 400.8577
220.1816, 401.5065
220.6637, 401.6264
221.1458, 401.1850
221.6279, 400.2738
222.1100, 398.7289
222.5921, 396.7895
223.0743, 395.0566
223.5564, 393.7377
224.0385, 392.3011
224.5206, 390.5786
225.0027, 388.6242
225.4848, 386.1432
225.9670, 382.7723
226.4491, 379.0210
226.9312, 376.2822
227.4133, 375.2511
227.8954, 374.1299
228.3775, 372.0262
228.8597, 368.2856
229.3418, 365.1024
229.8239, 362.8069
230.3060, 360.9755
230.7881, 358.4664
231.2702, 354.8087
231.7524, 351.1066
232.2345, 347.9243
232.7166, 345.4858
233.1987, 342.9290
233.6808, 340.3437
234.1629, 337.6290
234.6451, 334.4006
235.1272, 330.3691
235.6093, 326.3076
236.0914, 322.5461
236.5735, 319.1374
237.0556, 315.9540
237.5378, 313.1225
238.0199, 310.4924
238.5020, 307.6783
238.9841, 304.5573
239.4662, 301.3959
239.9483, 298.1507
240.4305, 294.2688
240.9126, 291.7414
241.3947, 291.1605
241.8768, 291.7400
242.3589, 291.5684
242.8410, 290.4304
243.3232, 288.8641
243.8053, 287.0361
244.2874, 284.7305
244.7695, 282.6696
245.2516, 280.9064
245.7337, 279.3525
246.2159, 277.8063
246.6980, 276.2071
247.1801, 274.7123
247.6622, 273.3764
248.1443, 272.2251
248.6264, 271.1681
249.1086, 270.2395
249.5907, 269.3854
250.0728, 268.4865
250.5549, 267.4960
251.0370, 266.5385
251.5191, 265.6809
252.0013, 265.0033
252.4834, 264.1464
252.9655, 262.9754
253.4476, 261.7070
253.9297, 260.8254
254.4118, 260.6926
254.8940, 260.2739
255.3761, 259.0735
255.8582, 256.7527
256.3403, 255.0155
256.8224, 254.0668
257.3046, 253.5440
257.7867, 252.8764
258.2688, 252.0148
258.7509, 251.1109
259.2330, 250.2199
259.7151, 249.3420
260.1973, 248.4933
260.6794, 247.7851
261.1615, 247.0231
261.6436, 245.8848
262.1257, 244.1640
262.6078, 242.5509
263.0900, 241.3096
263.5721, 240.4778
264.0542, 239.5653
264.5363, 238.6680
265.0184, 237.5592
265.5005, 235.8056
265.9827, 233.1582
266.4648, 230.6329
266.9469, 228.6057
267.4290, 227.1002
267.9111, 225.2637
268.3932, 223.0167
268.8754, 220.5782
269.3575, 218.0906
269.8396, 215.3806
270.3217, 213.1972
270.8038, 211.8596
271.2859, 211.3073
271.7681, 210.5827
272.2502, 209.7039
272.7323, 208.6202
273.2144, 207.2726
273.6965, 205.6195
274.1786, 203.8782
274.6608, 201.9488
275.1429, 199.9323
275.6250, 198.5886
276.1071, 198.0808
276.5892, 197.7823
277.0714, 197.1827
277.5535, 196.2692
278.0356, 195.1299
278.5177, 193.6347
278.9998, 191.9632
279.4819, 190.8747
279.9641, 190.4122
280.4462, 190.3182
280.9283, 190.6799
281.4104, 191.5354
281.8925, 191.5174
282.3746, 190.1437
282.8568, 187.9725
283.3389, 186.6312
283.8210, 186.2000
284.3031, 185.9653
284.7852, 185.5259
285.2673, 184.8798
285.7495, 183.8864
286.2316, 182.3952
286.7137, 180.7312
287.1958, 179.6958
287.6779, 179.3100
288.1600, 178.8299
288.6422, 177.4915
289.1243, 175.4856
289.6064, 174.4883
290.0885, 174.9287
290.5706, 175.6485
291.0527, 174.5641
291.5349, 171.7888
292.0170, 168.9561
292.4991, 166.9524
292.9812, 165.6191
293.4633, 164.5828
293.9454, 163.9070
294.4276, 163.1528
294.9097, 161.5938
295.3918, 159.3719
295.8739, 157.2551
296.3560, 155.7368
296.8381, 154.5809
297.3203, 153.2271
297.8024, 151.6402
298.2845, 150.1122
298.7666, 149.0417
299.2487, 148.3098
299.7308, 147.5216
300.2130, 146.5787
300.6951, 145.4562
301.1772, 143.9778
301.6593, 142.1521
302.1414, 140.4266
302.6235, 139.3076
303.1057, 138.5799
303.5878, 137.8432
304.0699, 136.9875
304.5520, 136.0285
305.0341, 134.9063
305.5162, 133.6509
305.9984, 132.4689
306.4805, 131.6113
306.9626, 130.9007
307.4447, 130.0996
307.9268, 129.0715
308.4089, 128.0099
308.8911, 126.9281
309.3732, 125.8993
309.8553, 125.2297
310.3374, 125.6390
310.8195, 126.2459
311.3016, 126.0610
311.7838, 124.4979
312.2659, 122.9357
312.7480, 122.3869
313.2301, 122.5546
313.7122, 122.6844
314.1943, 122.2250
314.6765, 121.7327
315.1586, 121.7091
315.6407, 122.4269
316.1228, 122.9001
316.6049, 122.4144
317.0870, 121.4029
317.5692, 120.5869
318.0513, 120.2452
318.5334, 120.1311
319.0155, 120.2126
319.4976, 120.5318
319.9797, 120.6888
320.4619, 120.3877
320.9440, 119.9084
321.4261, 119.5689
321.9082, 119.1586
322.3903, 119.1673
322.8724, 119.9383
323.3546, 121.4922
323.8367, 122.8537
324.3188, 123.9168
324.8009, 124.6842
325.2830, 125.1486
325.7651, 124.7859
326.2473, 124.7152
326.7294, 125.2321
327.2115, 126.2608
327.6936, 127.1840
328.1757, 127.9421
328.6578, 128.5983
329.1400, 129.1845
329.6221, 129.6533
330.1042, 130.1066
330.5863, 130.5502
331.0684, 130.9785
331.5505, 131.3873
332.0327, 131.9876
332.5148, 132.3177
332.9969, 132.0969
333.4790, 130.9339
333.9611, 130.3088
334.4432, 130.3413
334.9254, 130.8430
335.4075, 131.5535
335.8896, 132.6855
336.3717, 133.6067
336.8538, 134.0615
337.3359, 134.0029
337.8180, 134.0703
338.3001, 134.3699
338.7823, 134.6371
339.2644, 134.5160
339.7465, 133.9045
340.2286, 133.3470
340.7107, 132.9599
341.1928, 132.7321
341.6750, 132.6789
342.1571, 132.8624
342.6392, 132.9840
343.1213, 132.6961
343.6034, 131.9908
344.0855, 131.5398
344.5677, 131.5748
345.0498, 131.8035
345.5319, 131.3856
346.0140, 130.2952
346.4961, 129.2961
346.9782, 129.0310
347.4604, 129.3286
347.9425, 129.3296
348.4246, 128.8977
348.9067, 128.3310
349.3888, 128.1675
349.8709, 128.3109
350.3531, 128.2201
350.8352, 127.4933
351.3173, 126.3810
351.7994, 125.2501
352.2815, 124.0978
352.7636, 123.1833
353.2458, 122.9509
353.7279, 123.1418
354.2100, 123.1918
354.6921, 122.6351
355.1742, 122.0044
355.6563, 122.1115
356.1385, 122.8548
356.6206, 123.1992
357.1027, 121.8061
357.5848, 119.8465
358.0669, 118.7511
358.5490, 119.4380
359.0312, 120.2682
359.5133, 120.1847
359.9954, 119.3931
360.4775, 118.5387
360.9596, 117.6609
361.4417, 117.0031
361.9239, 116.7929
362.4060, 117.2338
362.8881, 117.6237
363.3702, 117.6819
363.8523, 117.5269
364.3344, 117.3406
364.8166, 116.8008
365.2987, 116.5717
365.7808, 117.1428
366.2629, 118.6896
366.7450, 119.6891
367.2271, 119.1448
367.7093, 118.3256
368.1914, 118.3466
368.6735, 120.3014
369.1556, 122.0064
369.6377, 122.9621
370.1198, 123.2903
370.6020, 123.9855
371.0841, 125.3065
371.5662, 126.7592
372.0483, 128.0670
372.5304, 129.1508
373.0125, 130.2610
373.4947, 131.4205
373.9768, 132.5915
374.4589, 133.6810
374.9410, 134.6147
375.4231, 135.6242
375.9052, 136.8083
376.3874, 138.1855
376.8695, 139.6737
377.3516, 141.3832
377.8337, 143.0448
378.3158, 144.2332
378.7979, 144.8450
379.2801, 145.8559
379.7622, 147.8204
380.2443, 150.3646
380.7264, 151.7542
381.2085, 151.8643
381.6906, 151.6357
382.1728, 151.6822
382.6549, 152.0222
383.1370, 152.8338
383.6191, 154.2816
384.1012, 155.9827
384.5833, 157.2319
385.0655, 158.1064
385.5476, 159.1680
386.0297, 161.1237
386.5118, 163.4117
386.9939, 164.9927
387.4760, 165.7176
387.9582, 166.1262
388.4403, 166.6284
388.9224, 167.1995
389.4045, 167.7829
389.8866, 168.0540
390.3687, 168.5402
390.8509, 169.8952
391.3330, 172.0324
391.8151, 174.0603
392.2972, 175.5124
392.7793, 176.5512
393.2614, 177.2980
393.7436, 177.4547
394.2257, 177.7812
394.7078, 178.7526
395.1899, 180.1505
395.6720, 181.4011
396.1541, 182.1769
396.6363, 182.8830
397.1184, 183.6988
397.6005, 184.6491
398.0826, 185.6952
398.5647, 187.1152
399.0468, 188.5330
399.5290, 189.4924
400.0111, 189.3167
400.4932, 189.3832
400.9753, 190.1100
401.4574, 191.4950
401.9395, 192.3237
402.4217, 192.1565
402.9038, 191.9011
403.3859, 192.2629
403.8680, 193.8215
404.3501, 194.5433
404.8322, 193.9260
405.3144, 192.5553
405.7965, 192.0659
406.2786, 192.6909
406.7607, 193.4095
407.2428, 193.7698
407.7249, 193.7613
408.2071, 193.7915
408.6892, 193.9182
409.1713, 193.9158
409.6534, 193.3413
410.1355, 192.2361
410.6176, 191.4245
411.0998, 191.3423
411.5819, 191.5794
412.0640, 190.9547
412.5461, 189.5117
413.0282, 188.2296
413.5103, 188.2942
413.9925, 189.0202
414.4746, 188.8586
414.9567, 187.3212
415.4388, 185.5454
415.9209, 184.8303
416.4030, 184.8091
416.8852, 184.5499
417.3673, 183.2184
417.8494, 181.7006
418.3315, 180.7300
418.8136, 180.3610
419.2957, 180.1807
419.7779, 179.9344
420.2600, 179.7774
420.7421, 179.8709
421.2242, 180.8747
421.7063, 181.4956
422.1884, 180.9399
422.6706, 179.5754
423.1527, 178.7694
423.6348, 179.5977
424.1169, 180.4537
424.5990, 180.5216
425.0811, 179.1573
425.5633, 178.3513
426.0454, 178.5000
426.5275, 179.1000
427.0096, 179.5218
427.4917, 179.6229
427.9738, 179.7540
428.4560, 179.9565
428.9381, 180.2358
429.4202, 180.7062
429.9023, 181.4592
430.3844, 182.2200
430.8665, 182.7415
431.3487, 182.9627
431.8308, 183.3246
432.3129, 183.8980
432.7950, 184.5814
433.2771, 185.0975
433.7592, 185.4274
434.2414, 185.9236
434.7235, 186.8914
435.2056, 188.1747
435.6877, 189.1461
436.1698, 189.7922
436.6519, 190.2476
437.1341, 190.5866
437.6162, 190.8285
438.0983, 191.0418
438.5804, 191.2828
439.0625, 191.4502
439.5446, 191.3906
440.0268, 191.1481
440.5089, 190.8809
440.9910, 190.7143
441.4731, 190.5478
441.9552, 190.3372
442.4373, 190.1145
442.9195, 189.6510
443.4016, 188.6794
443.8837, 187.4518
444.3658, 186.2744
444.8479, 185.2266
445.3300, 184.2542
445.8122, 183.3974
446.2943, 182.6361
446.7764, 181.7404
447.2585, 180.4112
447.7406, 179.1435
448.2227, 178.2278
448.7049, 178.1324
449.1870, 177.4864
449.6691, 175.9709
450.1512, 174.0650
450.6333, 172.5553
451.1154, 171.5608
451.5976, 170.6829
452.0797, 169.8479
452.5618, 169.0498
453.0439, 168.2162
453.5260, 167.3023
454.0081, 166.5386
454.4903, 166.2657
454.9724, 166.4742
455.4545, 166.2411
455.9366, 165.3262
456.4187, 164.2021
456.9008, 163.7255
457.3830, 163.8259
457.8651, 163.9963
458.3472, 163.8335
458.8293, 163.6297
459.3114, 164.0298
459.7935, 165.0285
460.2757, 166.0521
460.7578, 166.6728
461.2399, 167.0137
461.7220, 167.1935
462.2041, 167.0242
462.6862, 167.0806
463.1684, 167.9846
463.6505, 169.4082
464.1326, 170.5723
464.6147, 170.5993
465.0968, 170.7565
465.5789, 171.8632
466.0611, 174.1408
466.5432, 176.0365
467.0253, 177.2114
467.5074, 177.8767
467.9895, 178.1957
468.4716, 177.2464
468.9538, 177.1854
469.4359, 178.7117
469.9180, 181.2027
470.4001, 182.6370
470.8822, 182.5924
471.3643, 182.2255
471.8465, 182.0022
472.3286, 181.9615
472.8107, 181.6124
473.2928, 180.8417
473.7749, 180.0593
474.2570, 179.9009
474.7392, 180.3601
475.2213, 180.3974
475.7034, 179.7618
476.1855, 178.6090
476.6676, 177.0134
477.1497, 175.0386
477.6319, 173.3601
478.1140, 172.5678
478.5961, 172.2561
479.0782, 171.7805
479.5603, 171.0937
480.0424, 170.2838
480.5246, 169.3321
481.0067, 168.3240
481.4888, 167.3763
481.9709, 166.4914
482.4530, 165.7049
482.9352, 164.9399
483.4173, 164.2700
483.8994, 163.9292
484.3815, 164.1375
484.8636, 164.5784
485.3457, 165.0874
485.8279, 165.6102
486.3100, 166.3630
486.7921, 167.6459
487.2742, 169.0109
487.7563, 170.0222
488.2384, 170.0557
488.7206, 170.8683
489.2027, 172.9912
489.6848, 175.9788
490.1669, 178.1221
490.6490, 179.0986
491.1311, 180.1611
491.6133, 181.9051
492.0954, 184.3277
492.5775, 186.9523
493.0596, 189.8292
493.5417, 192.6425
494.0238, 195.0247
494.5060, 197.0389
494.9881, 198.8730
495.4702, 200.3999
495.9523, 202.0160
496.4344, 204.1842
496.9165, 206.8865
497.3987, 210.0417
497.8808, 214.3060
498.3629, 218.6158
498.8450, 221.9026
499.3271, 224.0886
499.8092, 225.8766
500.2914, 227.3257
500.7735, 228.7225
501.2556, 230.3905
501.7377, 233.0109
502.2198, 235.1497
502.7019, 236.4484
503.1841, 237.0438
503.6662, 237.3315
504.1483, 237.4398
504.6304, 237.1487
505.1125, 236.4817
505.5946, 235.4836
506.0768, 233.5592
506.5589, 230.2869
507.0410, 226.7381
507.5231, 223.8281
508.0052, 221.6872
508.4873, 219.3968
508.9695, 216.8973
509.4516, 214.2166
509.9337, 211.5545
510.4158, 208.8832
510.8979, 205.6780
511.3800, 201.2771
511.8622, 196.2891
512.3443, 192.0519
512.8264, 188.5722
513.3085, 185.3304
513.7906, 181.8411
514.2728, 178.3999
514.7549, 175.4640
515.2370, 173.2730
515.7191, 171.1241
516.2012, 168.5006
516.6833, 165.6601
517.1655, 162.9541
517.6476, 160.3704
518.1297, 158.0710
518.6118, 156.2043
519.0939, 154.7365
519.5760, 153.2704
520.0582, 151.6653
520.5403, 150.1490
521.0224, 148.8319
521.5045, 147.7175
521.9866, 146.7520
522.4688, 145.8720
522.9509, 145.2088
523.4330, 144.9007
523.9151, 144.9481
524.3972, 145.3985
524.8793, 146.4215
525.3615, 147.7126
525.8436, 148.4019
526.3257, 148.5006
526.8078, 148.6122
527.2899, 148.8202
527.7720, 149.3454
528.2542, 150.9426
528.7363, 153.6707
529.2184, 156.3697
529.7005, 157.8589
530.1826, 158.7546
530.6647, 159.8784
531.1469, 161.4803
531.6290, 163.3017
532.1111, 165.2387
532.5932, 167.2779
533.0753, 169.3833
533.5574, 171.0339
534.0396, 173.2552
534.5217, 176.7912
535.0038, 181.7334
535.4859, 185.8571
535.9680, 188.7201
536.4501, 191.1013
536.9323, 193.3520
537.4144, 195.2906
537.8965, 197.7347
538.3786, 200.9079
538.8607, 204.3043
539.3428, 206.9541
539.8250, 208.7993
540.3071, 211.0996
540.7892, 214.4737
541.2713, 218.3057
541.7534, 220.7859
542.2355, 222.0309
542.7177, 223.2553
543.1998, 225.4390
543.6819, 228.0403
544.1640, 230.2558
544.6461, 232.0279
545.1282, 233.4711
545.6104, 234.5203
546.0925, 235.3214
546.5746, 236.0298
547.0567, 236.6056
547.5388, 237.2055
548.0209, 237.9785
548.5031, 238.8001
548.9852, 239.4147
549.4673, 239.7700
549.9494, 239.9222
550.4315, 239.8709
550.9136, 239.6168
551.3958, 239.2903
551.8779, 239.0869
552.3600, 238.4806
552.8421, 237.0254
553.3242, 234.6269
553.8063, 232.2553
554.2885, 229.9348
554.7706, 227.6885
555.2527, 225.7632
555.7348, 224.0394
556.2169, 221.6764
556.6990, 218.0876
557.1812, 214.2139
557.6633, 211.6375
558.1454, 210.0231
558.6275, 208.1008
559.1096, 205.0069
559.5917, 201.4180
560.0739, 197.8053
560.5560, 194.1845
561.0381, 190.7691
561.5202, 187.7244
562.0023, 184.9072
562.4844, 182.2299
562.9666, 179.7781
563.4487, 177.2916
563.9308, 174.4701
564.4129, 171.7234
564.8950, 169.7668
565.3771, 169.0497
565.8593, 168.1335
566.3414, 166.5988
566.8235, 164.6360
567.3056, 163.0477
567.7877, 161.8696
568.2698, 160.8648
568.7520, 159.9701
569.2341, 159.1402
569.7162, 157.9656
570.1983, 156.3963
570.6804, 155.2645
571.1625, 155.8771
571.6447, 157.3280
572.1268, 158.0889
572.6089, 157.4954
573.0910, 156.8090
573.5731, 156.8992
574.0552, 157.4434
574.5374, 157.8788
575.0195, 157.8121
575.5016, 157.8223
575.9837, 158.0726
576.4658, 158.5663
576.9479, 159.2781
577.4301, 160.5497
577.9122, 161.6230
578.3943, 162.1346
578.8764, 161.9698
579.3585, 161.8015
579.8406, 161.5138
580.3228, 161.4797
580.8049, 162.2775
581.2870, 163.8432
581.7691, 165.0511
582.2512, 165.5784
582.7333, 165.9602
583.2155, 167.4013
583.6975, 169.4265
584.1796, 170.6087
584.6617, 169.2587
585.1439, 167.4964
585.6260, 167.3847
586.1081, 168.6446
586.5902, 169.8477
587.0723, 170.4611
587.5544, 170.7179
588.0366, 170.6439
