##NAMES=Armalcolite
##RRUFFID=R070260
##IDEAL CHEMISTRY=(Mg,Fe^2+^)Ti^4+^_2_O_5_
##LOCALITY=Chelyabinsk Oblast', Urals Region, Russia
##OWNER=RRUFF
##SOURCE=Michael Scott
##DESCRIPTION=Gray semimetallic, elongated tabular crystals on coal
##STATUS=The identification of this mineral has been confirmed by single-crystal X-ray diffraction.
##URL=rruff.info/R070260
127.7623, 213.9783
128.2444, 214.6137
128.7265, 215.8355
129.2086, 216.9743
129.6907, 218.4861
130.1729, 219.5155
130.6550, 219.3550
131.1371, 218.0485
131.6192, 216.3965
132.1013, 215.4284
132.5834, 215.0937
133.0656, 215.7050
133.5477, 217.7638
134.0298, 220.2870
134.5119, 222.5550
134.9940, 224.3174
135.4761, 225.7915
135.9583, 227.4466
136.4404, 229.1555
136.9225, 231.2251
137.4046, 233.8336
137.8867, 236.7918
138.3688, 239.9224
138.8510, 243.2508
139.3331, 246.5086
139.8152, 248.7222
140.2973, 249.1313
140.7794, 249.8281
141.2615, 251.9099
141.7437, 255.1141
142.2258, 258.2345
142.7079, 260.2721
143.1900, 262.0536
143.6721, 265.2615
144.1542, 270.6815
144.6364, 276.6832
145.1185, 281.5305
145.6006, 284.9931
146.0827, 288.6953
146.5648, 293.5493
147.0469, 299.0930
147.5291, 305.0319
148.0112, 311.4155
148.4933, 317.9772
148.9754, 323.9594
149.4575, 328.6317
149.9396, 334.1199
150.4218, 341.5421
150.9039, 349.9682
151.3860, 358.1611
151.8681, 365.4249
152.3502, 371.8750
152.8323, 378.1086
153.3145, 383.7450
153.7966, 389.5406
154.2787, 396.3196
154.7608, 403.4177
155.2429, 409.5637
155.7250, 413.6814
156.2072, 415.5815
156.6893, 418.0610
157.1714, 421.5406
157.6535, 425.0924
158.1356, 428.7626
158.6177, 432.3014
159.0999, 435.0656
159.5820, 436.4779
160.0641, 436.3322
160.5462, 435.1676
161.0283, 432.2719
161.5104, 428.9130
161.9926, 426.0530
162.4747, 423.8252
162.9568, 421.7246
163.4389, 419.2208
163.9210, 416.3329
164.4031, 413.5566
164.8853, 411.7299
165.3674, 409.8443
165.8495, 406.2224
166.3316, 400.2051
166.8137, 393.5446
167.2958, 387.7161
167.7780, 382.5771
168.2601, 377.8470
168.7422, 373.7873
169.2243, 370.1314
169.7064, 365.7940
170.1885, 360.1362
170.6707, 354.4449
171.1528, 349.5686
171.6349, 345.3969
172.1170, 341.3722
172.5991, 336.9520
173.0812, 332.0962
173.5634, 327.7176
174.0455, 324.4554
174.5276, 321.2015
175.0097, 317.3554
175.4918, 312.9986
175.9739, 308.7116
176.4561, 305.2242
176.9382, 302.8073
177.4203, 300.1921
177.9024, 297.3874
178.3845, 294.4102
178.8666, 291.2125
179.3488, 287.8339
179.8309, 284.3666
180.3130, 280.9741
180.7951, 277.6470
181.2772, 274.4537
181.7593, 270.9604
182.2415, 267.8525
182.7236, 266.1347
183.2057, 265.8861
183.6878, 265.7333
184.1699, 263.4896
184.6520, 257.3935
185.1342, 252.6389
185.6163, 250.0148
186.0984, 248.4843
186.5805, 247.0764
187.0626, 245.5236
187.5447, 243.8482
188.0269, 242.0338
188.5090, 240.0126
188.9911, 238.1281
189.4732, 236.3931
189.9553, 234.8545
190.4374, 233.6462
190.9196, 232.8422
191.4017, 232.2805
191.8838, 231.5812
192.3659, 230.6594
192.8480, 230.2613
193.3301, 231.1003
193.8123, 232.8316
194.2944, 234.2003
194.7765, 234.8637
195.2586, 235.0448
195.7407, 234.8625
196.2228, 234.3050
196.7050, 234.0731
197.1871, 234.7649
197.6692, 236.3472
198.1513, 238.0375
198.6334, 239.3199
199.1155, 241.0467
199.5977, 243.8697
200.0798, 247.8039
200.5619, 252.2076
201.0440, 256.6927
201.5261, 261.3927
202.0082, 265.4467
202.4904, 268.0411
202.9725, 270.4676
203.4546, 273.4845
203.9367, 277.1281
204.4188, 280.8163
204.9009, 283.7183
205.3831, 285.4450
205.8652, 287.5694
206.3473, 290.4406
206.8294, 293.4581
207.3115, 296.6382
207.7936, 299.7964
208.2758, 302.3246
208.7579, 303.2783
209.2400, 301.9785
209.7221, 300.4400
210.2042, 298.0783
210.6863, 295.9200
211.1685, 294.9071
211.6506, 295.1098
212.1327, 295.6293
212.6148, 295.1470
213.0969, 293.0844
213.5790, 291.1300
214.0612, 289.1665
214.5433, 287.3752
215.0254, 286.0034
215.5075, 285.0854
215.9896, 284.2328
216.4717, 282.8576
216.9539, 280.4968
217.4360, 278.7503
217.9181, 278.3731
218.4002, 278.2560
218.8823, 277.1984
219.3644, 274.9081
219.8466, 272.1435
220.3287, 269.8468
220.8108, 268.0105
221.2929, 266.6071
221.7750, 266.1600
222.2571, 265.9477
222.7393, 264.9604
223.2214, 262.9146
223.7035, 260.5585
224.1856, 258.8919
224.6677, 257.8600
225.1498, 256.6838
225.6320, 254.9815
226.1141, 253.0578
226.5962, 251.4249
227.0783, 250.2025
227.5604, 249.1603
228.0425, 248.0570
228.5247, 246.9233
229.0068, 245.8855
229.4889, 245.0107
229.9710, 244.2726
230.4531, 243.6607
230.9352, 243.2907
231.4174, 242.7976
231.8995, 241.8763
232.3816, 240.6257
232.8637, 239.2844
233.3458, 237.5862
233.8279, 235.8454
234.3101, 235.2176
234.7922, 236.3887
235.2743, 237.5892
235.7564, 237.7246
236.2385, 237.1534
236.7206, 236.5869
237.2028, 236.4384
237.6849, 236.6159
238.1670, 236.7209
238.6491, 236.6970
239.1312, 236.6828
239.6133, 236.6506
240.0955, 236.6730
240.5776, 236.9421
241.0597, 237.7723
241.5418, 238.8873
242.0239, 238.8579
242.5060, 236.7571
242.9882, 234.7133
243.4703, 233.3620
243.9524, 232.4566
244.4345, 231.5900
244.9166, 230.5032
245.3987, 229.3038
245.8809, 228.5455
246.3630, 228.6779
246.8451, 228.6933
247.3272, 228.5388
247.8093, 228.1151
248.2914, 227.2490
248.7736, 225.8197
249.2557, 223.9846
249.7378, 222.4100
250.2199, 221.4971
250.7020, 220.3393
251.1841, 218.8816
251.6663, 217.1115
252.1484, 214.9622
252.6305, 212.3825
253.1126, 209.5507
253.5947, 206.9654
254.0768, 205.0091
254.5590, 202.8780
255.0411, 200.3393
255.5232, 197.6722
256.0053, 195.1037
256.4874, 192.7418
256.9695, 190.6390
257.4517, 188.9273
257.9338, 188.3514
258.4159, 187.2646
258.8980, 184.8266
259.3801, 182.2268
259.8622, 181.2034
260.3444, 182.2982
260.8265, 183.7977
261.3086, 182.3936
261.7907, 174.9066
262.2728, 169.4202
262.7549, 167.2144
263.2371, 166.4549
263.7192, 165.4383
264.2013, 163.6896
264.6834, 161.6693
265.1655, 160.0556
265.6476, 159.0520
266.1298, 158.0230
266.6119, 157.0412
267.0940, 155.9782
267.5761, 154.5876
268.0582, 152.8396
268.5403, 151.1869
269.0225, 150.2243
269.5046, 150.1874
269.9867, 149.7931
270.4688, 148.8014
270.9509, 147.5767
271.4330, 146.4168
271.9152, 145.3610
272.3973, 144.2844
272.8794, 143.0391
273.3615, 141.6099
273.8436, 140.3760
274.3257, 139.2596
274.8079, 138.3909
275.2900, 138.0414
275.7721, 138.1755
276.2542, 138.2425
276.7363, 137.7684
277.2184, 136.8228
277.7006, 136.1489
278.1827, 136.2485
278.6648, 136.2254
279.1469, 135.1793
279.6290, 133.2568
280.1111, 131.6411
280.5933, 131.0599
281.0754, 131.3660
281.5575, 131.7780
282.0396, 132.6075
282.5217, 133.1707
283.0038, 132.9093
283.4860, 131.9517
283.9681, 130.9604
284.4502, 130.2153
284.9323, 129.6335
285.4144, 128.9847
285.8965, 128.1611
286.3787, 127.5237
286.8608, 127.3955
287.3429, 127.6471
287.8250, 127.8616
288.3071, 128.0347
288.7892, 127.9094
289.2714, 126.8612
289.7535, 124.6880
290.2356, 123.2162
290.7177, 123.9936
291.1998, 126.1418
291.6819, 127.2127
292.1641, 126.3461
292.6462, 124.9148
293.1283, 124.3675
293.6104, 124.6047
294.0925, 125.1248
294.5746, 126.1531
295.0568, 127.2615
295.5389, 127.4194
296.0210, 126.2252
296.5031, 124.9266
296.9852, 124.7194
297.4673, 125.2792
297.9495, 125.8037
298.4316, 126.1029
298.9137, 126.1921
299.3958, 126.0216
299.8779, 125.5332
300.3600, 125.0674
300.8422, 124.9148
301.3243, 124.9311
301.8064, 124.8807
302.2885, 124.7063
302.7706, 124.4491
303.2527, 124.1096
303.7349, 123.6747
304.2170, 123.3194
304.6991, 123.0550
305.1812, 122.9689
305.6633, 123.2367
306.1454, 124.0262
306.6276, 124.8090
307.1097, 125.0396
307.5918, 124.7533
308.0739, 124.5944
308.5560, 124.9420
309.0381, 125.3475
309.5203, 125.2002
310.0024, 124.4163
310.4845, 123.7947
310.9666, 123.9786
311.4487, 124.8238
311.9308, 125.6655
312.4130, 126.4920
312.8951, 127.0912
313.3772, 127.2708
313.8593, 127.0704
314.3414, 126.6953
314.8235, 126.0339
315.3057, 125.2803
315.7878, 125.0208
316.2699, 125.5133
316.7520, 125.9970
317.2341, 125.7384
317.7162, 125.0450
318.1984, 124.5801
318.6805, 124.5518
319.1626, 124.9029
319.6447, 125.7902
320.1268, 127.4212
320.6089, 128.5403
321.0911, 127.8530
321.5732, 126.3601
322.0553, 125.4535
322.5374, 125.6107
323.0195, 126.0919
323.5016, 126.2484
323.9838, 126.0822
324.4659, 125.5387
324.9480, 124.3012
325.4301, 122.8742
325.9122, 121.8659
326.3943, 121.3294
326.8765, 121.0524
327.3586, 120.8078
327.8407, 120.6558
328.3228, 121.0787
328.8049, 122.6930
329.2870, 124.1869
329.7692, 124.0286
330.2513, 122.3695
330.7334, 120.8162
331.2155, 120.2872
331.6976, 120.4069
332.1797, 120.2497
332.6619, 119.5988
333.1440, 119.0144
333.6261, 119.2434
334.1082, 119.9237
334.5903, 120.1540
335.0724, 119.3259
335.5546, 118.0726
336.0367, 117.1473
336.5188, 116.5630
337.0009, 116.2480
337.4830, 116.2632
337.9651, 116.5093
338.4473, 116.8244
338.9294, 117.3357
339.4115, 117.6860
339.8936, 117.4428
340.3757, 116.6939
340.8578, 116.1394
341.3400, 116.1725
341.8221, 116.3804
342.3042, 115.9197
342.7863, 114.5331
343.2684, 113.8568
343.7505, 115.6413
344.2327, 118.6965
344.7148, 119.9056
345.1969, 118.1931
345.6790, 115.6556
346.1611, 114.7992
346.6432, 115.3426
347.1254, 115.6997
347.6075, 115.4716
348.0896, 114.8329
348.5717, 113.6967
349.0538, 112.0127
349.5359, 110.9237
350.0181, 111.7468
350.5002, 113.9332
350.9823, 114.9189
351.4644, 113.2144
351.9465, 111.4272
352.4286, 111.5598
352.9108, 113.2525
353.3929, 114.8128
353.8750, 115.4794
354.3571, 115.4361
354.8392, 115.1278
355.3214, 114.4125
355.8035, 113.7911
356.2856, 113.6008
356.7677, 113.5975
357.2498, 113.2566
357.7319, 112.3743
358.2141, 111.4291
358.6962, 111.1252
359.1783, 109.8353
359.6604, 111.9553
360.1425, 113.1268
360.6246, 113.4009
361.1068, 110.0895
361.5889, 111.4080
362.0710, 110.8711
362.5531, 110.2580
363.0352, 112.2282
363.5173, 109.4383
363.9995, 111.3675
364.4816, 111.4129
364.9637, 112.3205
365.4458, 111.3611
365.9279, 110.9784
366.4100, 112.4632
366.8922, 112.9139
367.3743, 111.7397
367.8564, 112.7020
368.3385, 109.8469
368.8206, 110.3417
369.3027, 112.2818
369.7849, 111.2014
370.2670, 112.1979
370.7491, 112.4034
371.2312, 109.0141
371.7133, 111.8766
372.1954, 112.0353
372.6776, 109.4180
373.1597, 112.0662
373.6418, 109.8316
374.1239, 109.3399
374.6060, 110.1598
375.0881, 109.6124
375.5703, 111.2207
376.0524, 110.2885
376.5345, 111.5074
377.0166, 112.1176
377.4987, 111.2481
377.9808, 109.6878
378.4630, 108.5525
378.9451, 108.3565
379.4272, 108.8404
379.9093, 109.4655
380.3914, 110.8461
380.8735, 111.2703
381.3557, 109.8781
381.8378, 108.1827
382.3199, 107.2771
382.8020, 107.3130
383.2841, 107.7819
383.7662, 108.1996
384.2484, 108.6130
384.7305, 108.6484
385.2126, 107.5183
385.6947, 106.7672
386.1768, 107.2159
386.6589, 108.4060
387.1411, 109.3832
387.6232, 109.5542
388.1053, 109.1319
388.5874, 108.9031
389.0695, 109.1006
389.5516, 109.0404
390.0338, 108.3194
390.5159, 107.4417
390.9980, 106.8481
391.4801, 106.6617
391.9622, 106.7478
392.4443, 106.9949
392.9265, 107.4230
393.4086, 107.8332
393.8907, 108.4575
394.3728, 108.7876
394.8549, 108.2970
395.3370, 107.1962
395.8192, 106.2903
396.3013, 106.1608
396.7834, 106.6175
397.2655, 107.1441
397.7476, 107.9326
398.2297, 108.2851
398.7119, 107.3773
399.1940, 105.9538
399.6761, 104.9588
400.1582, 104.6815
400.6403, 104.7720
401.1224, 104.9316
401.6046, 105.1606
402.0867, 105.4358
402.5688, 105.6914
403.0509, 106.0686
403.5330, 106.9437
404.0151, 108.3486
404.4973, 109.1443
404.9794, 108.2838
405.4615, 106.6452
405.9436, 105.7848
406.4257, 105.9363
406.9078, 106.4398
407.3900, 106.8209
407.8721, 107.1177
408.3542, 107.5322
408.8363, 108.4842
409.3184, 109.1923
409.8005, 108.9518
410.2827, 107.9963
410.7648, 107.0727
411.2469, 106.4369
411.7290, 106.1627
412.2111, 106.5799
412.6932, 108.1563
413.1754, 109.1598
413.6575, 108.9652
414.1396, 108.2314
414.6217, 107.4964
415.1038, 106.9013
415.5859, 106.6181
416.0681, 106.9118
416.5502, 107.8857
417.0323, 108.2231
417.5144, 107.4051
417.9965, 106.6020
418.4786, 106.2350
418.9608, 106.2369
419.4429, 106.4636
419.9250, 106.8548
420.4071, 107.3071
420.8892, 107.5374
421.3713, 107.5084
421.8535, 107.2806
422.3356, 106.7263
422.8177, 106.0813
423.2998, 105.4322
423.7819, 104.8447
424.2640, 104.4722
424.7462, 104.4988
425.2283, 104.9493
425.7104, 105.4377
426.1925, 106.1144
426.6746, 106.6583
427.1567, 107.1322
427.6389, 107.3809
428.1210, 107.0465
428.6031, 105.8594
429.0852, 104.4096
429.5673, 103.9624
430.0494, 104.7774
430.5316, 105.6462
431.0137, 106.5819
431.4958, 107.2725
431.9779, 107.4113
432.4600, 107.0142
432.9421, 106.4638
433.4243, 105.9809
433.9064, 105.5713
434.3885, 105.2665
434.8706, 105.0947
435.3527, 104.9640
435.8348, 104.6914
436.3170, 104.4363
436.7991, 104.5246
437.2812, 105.2243
437.7633, 106.0252
438.2454, 106.3984
438.7275, 106.4107
439.2097, 106.5502
439.6918, 107.0695
440.1739, 107.6572
440.6560, 107.7582
441.1381, 107.3284
441.6202, 107.0909
442.1024, 107.6565
442.5845, 108.2939
443.0666, 108.0126
443.5487, 106.7776
444.0308, 105.4572
444.5129, 104.6340
444.9951, 104.3080
445.4772, 104.3561
445.9593, 105.1468
446.4414, 105.8243
446.9235, 105.9381
447.4056, 105.8322
447.8878, 106.1436
448.3699, 107.0757
448.8520, 108.0964
449.3341, 108.3695
449.8162, 107.5825
450.2983, 106.8923
450.7805, 106.0937
451.2626, 105.5614
451.7447, 105.6769
452.2268, 106.2362
452.7089, 106.6981
453.1910, 106.6864
453.6732, 106.3254
454.1553, 106.1333
454.6374, 106.1612
455.1195, 106.2851
455.6016, 106.7366
456.0837, 107.1034
456.5659, 106.9312
457.0480, 106.1813
457.5301, 105.3472
458.0122, 104.8987
458.4943, 104.8305
458.9764, 104.9865
459.4586, 105.4892
459.9407, 106.0316
460.4228, 106.5352
460.9049, 106.9512
461.3870, 107.1922
461.8691, 107.2343
462.3513, 107.0788
462.8334, 106.5527
463.3155, 105.6834
463.7976, 105.2354
464.2797, 105.6517
464.7618, 106.3488
465.2440, 106.6623
465.7261, 106.6094
466.2082, 106.2096
466.6903, 105.1090
467.1724, 101.7247
467.6545, 104.2281
468.1367, 105.5867
468.6188, 105.8620
469.1009, 101.8095
469.5830, 103.3455
470.0651, 102.6418
470.5472, 101.8464
471.0294, 104.1689
471.5115, 100.7459
471.9936, 103.0190
472.4757, 103.0182
472.9578, 104.0582
473.4399, 102.8447
473.9221, 102.3272
474.4042, 104.0639
474.8863, 104.5525
475.3684, 103.0796
475.8505, 104.1857
476.3326, 100.6839
476.8148, 101.2256
477.2969, 103.5119
477.7790, 102.1523
478.2611, 103.2996
478.7432, 103.4921
479.2253, 99.34570
479.7075, 102.7452
480.1896, 102.8813
480.6717, 99.66663
481.1538, 102.8076
481.6359, 100.0548
482.1180, 99.40581
482.6002, 100.3399
483.0823, 99.62362
483.5644, 101.5094
484.0465, 100.8884
484.5286, 100.0435
485.0107, 100.1759
485.4929, 99.40700
485.9750, 100.0398
486.4571, 99.03101
486.9392, 99.76687
487.4213, 100.8982
487.9034, 99.00157
488.3856, 98.86488
488.8677, 99.65182
489.3498, 100.6671
489.8319, 101.3708
490.3140, 101.7208
490.7961, 101.6787
491.2783, 100.7088
491.7604, 99.91663
492.2425, 100.1067
492.7246, 100.7716
493.2067, 100.8836
493.6888, 100.0824
494.1710, 98.93272
494.6531, 98.33756
495.1352, 98.58650
495.6173, 98.47774
496.0994, 97.50233
496.5815, 96.71434
497.0637, 96.67061
497.5458, 97.21558
498.0279, 98.06420
498.5100, 99.12061
498.9921, 100.0449
499.4742, 99.75030
499.9564, 97.31572
500.4385, 96.02099
500.9206, 97.59319
501.4027, 99.42777
501.8848, 99.85085
502.3669, 98.93867
502.8491, 97.89084
503.3312, 97.50017
503.8133, 97.57666
504.2954, 97.60623
504.7775, 97.55723
505.2596, 97.62528
505.7418, 98.08601
506.2239, 98.60945
506.7060, 98.65071
507.1881, 98.03120
507.6702, 97.57350
508.1523, 98.08311
508.6345, 98.89419
509.1166, 98.58583
509.5987, 96.94257
510.0808, 95.62931
510.5629, 96.17528
511.0450, 98.37424
511.5272, 99.71146
512.0093, 99.84497
512.4914, 99.65847
512.9735, 99.17063
513.4556, 98.60939
513.9377, 98.32738
514.4199, 98.39438
514.9020, 98.46828
515.3841, 98.03933
515.8662, 96.93472
516.3483, 96.52206
516.8304, 97.53999
517.3126, 98.48534
517.7947, 99.18202
518.2768, 99.46819
518.7589, 98.98268
519.2410, 97.54076
519.7231, 95.92986
520.2053, 95.34741
520.6874, 95.86735
521.1695, 96.37589
521.6516, 96.80770
522.1337, 97.09212
522.6158, 97.05126
523.0980, 96.82893
523.5801, 96.85702
524.0622, 97.52568
524.5443, 98.27387
525.0264, 98.52063
525.5085, 98.31573
525.9907, 97.82839
526.4728, 96.94157
526.9549, 96.19447
527.4370, 96.62950
527.9191, 98.56453
528.4012, 99.60416
528.8834, 98.91346
529.3655, 97.76954
529.8476, 96.86065
530.3297, 96.24625
530.8118, 95.89291
531.2939, 95.78908
531.7761, 95.88464
532.2582, 96.06748
532.7403, 96.44678
533.2224, 96.70596
533.7045, 96.94440
534.1866, 96.98716
534.6688, 96.53955
535.1509, 95.78273
535.6330, 95.21793
536.1151, 95.15700
536.5972, 95.52941
537.0793, 96.34683
537.5615, 97.88654
538.0436, 98.69118
538.5257, 97.61523
539.0078, 96.17813
539.4899, 95.78630
539.9720, 96.43387
540.4542, 97.04927
540.9363, 97.02925
541.4184, 96.71290
541.9005, 96.60157
542.3826, 96.70122
542.8647, 96.69901
543.3469, 96.33994
543.8290, 95.86937
544.3111, 96.01834
544.7932, 97.26663
545.2753, 97.92191
545.7574, 97.46728
546.2396, 96.52612
546.7217, 95.32462
547.2038, 94.08524
547.6859, 93.36077
548.1680, 93.57095
548.6501, 94.53246
549.1323, 95.46980
549.6144, 96.58035
550.0965, 97.29280
550.5786, 97.48804
551.0607, 97.37320
551.5428, 96.91081
552.0250, 96.22163
552.5071, 95.74014
552.9892, 95.87302
553.4713, 96.41597
553.9534, 96.81802
554.4355, 97.09147
554.9177, 97.12656
555.3998, 96.60453
555.8819, 96.02536
556.3640, 96.09941
556.8461, 96.91505
557.3282, 97.73546
557.8104, 98.49371
558.2925, 98.98247
558.7746, 98.69984
559.2567, 97.75597
559.7388, 97.12945
560.2209, 97.46614
560.7031, 98.44254
561.1852, 99.02847
561.6673, 99.13718
562.1494, 98.94663
562.6315, 98.03418
563.1136, 97.15518
563.5958, 96.85896
564.0779, 97.12466
564.5600, 97.69899
565.0421, 98.48740
565.5242, 99.30383
566.0063, 99.42144
566.4885, 98.51205
566.9706, 97.86178
567.4527, 98.02043
567.9348, 98.36053
568.4169, 98.42590
568.8990, 98.23840
569.3812, 98.15320
569.8633, 98.53525
570.3454, 99.03316
570.8275, 99.01085
571.3096, 98.51465
571.7917, 98.28333
572.2739, 98.68977
572.7560, 99.42717
573.2381, 99.98823
573.7202, 100.4004
574.2023, 100.5632
574.6844, 100.3005
575.1666, 99.93163
575.6487, 99.49394
576.1308, 99.13638
576.6129, 99.23131
577.0950, 99.99383
577.5771, 101.0788
578.0593, 101.7037
578.5414, 101.6729
579.0235, 101.7143
579.5056, 101.9487
579.9877, 102.1797
580.4698, 102.3401
580.9520, 102.4258
581.4341, 102.4426
581.9162, 102.3842
582.3983, 100.1744
582.8804, 103.0014
583.3625, 104.6835
583.8447, 105.2825
584.3268, 101.5535
584.8089, 103.4131
585.2910, 103.0330
585.7731, 102.5611
586.2552, 105.2072
586.7374, 102.1078
587.2195, 104.7044
587.7016, 105.0273
588.1837, 106.3908
588.6658, 105.5008
589.1479, 105.3069
589.6301, 107.3672
590.1122, 108.1793
590.5943, 107.0300
591.0764, 108.4597
591.5585, 105.2815
592.0406, 106.1467
592.5228, 108.7566
593.0049, 107.7206
593.4870, 109.1915
593.9691, 109.7076
594.4512, 107.5053
594.9333, 107.3395
595.4155, 107.0146
595.8976, 107.2587
596.3797, 108.2532
596.8618, 109.1844
597.3439, 109.6040
597.8260, 109.6111
598.3082, 109.4774
598.7903, 109.0958
599.2724, 108.8458
599.7545, 108.6460
600.2366, 108.7630
600.7188, 109.8262
601.2009, 111.6398
601.6830, 113.0115
602.1651, 113.0825
602.6472, 112.2462
603.1293, 111.9693
603.6115, 112.6006
604.0936, 113.1613
604.5757, 113.5045
605.0578, 113.8325
605.5399, 114.3174
606.0220, 114.9014
606.5042, 115.3747
606.9863, 115.5741
607.4684, 115.6667
607.9505, 115.9005
608.4326, 116.2759
608.9147, 116.7721
609.3969, 117.3977
609.8790, 118.1225
610.3611, 119.0925
610.8432, 120.2594
611.3253, 120.8201
611.8074, 120.1405
612.2896, 119.4099
612.7717, 119.1916
613.2538, 119.3632
613.7359, 119.7549
614.2180, 120.2963
614.7001, 120.8331
615.1823, 121.1182
615.6644, 121.1112
616.1465, 121.7364
616.6286, 123.8892
617.1107, 125.4189
617.5928, 125.2915
618.0750, 124.5934
618.5571, 124.4746
619.0392, 125.1405
619.5213, 125.8939
620.0034, 126.1509
620.4855, 126.1329
620.9677, 126.3374
621.4498, 126.7893
621.9319, 127.3317
622.4140, 127.9159
622.8961, 128.5134
623.3782, 129.0597
623.8604, 129.5320
624.3425, 130.0327
624.8246, 130.5451
625.3067, 131.1103
