##NAMES=Arrojadite-(KFe)
##RRUFFID=R070319
##IDEAL CHEMISTRY=(KNa)Fe^2+^(CaNa_2_)Fe^2+^_13_Al(PO_4_)_11_(PO_3_OH)(OH)_2_
##LOCALITY=Nickel Plate mine, Keystone District, Pennington County, South Dakota, USA
##OWNER=RRUFF
##SOURCE=James Shigley
##DESCRIPTION=Green massive
##STATUS=The identification of this mineral is confirmed by single-crystal X-ray diffraction and chemical analysis.
##URL=rruff.info/R070319
##MEASURED CHEMISTRY=(K_0.67_Na_1.33_)_Σ=2_Fe^2+^_1.00_(Ca_0.80_Na_2.20_)_Σ=3_(Fe^2+^_7.53_Mn_4.65_Mg_0.64_Al_0.16_Ti_0.02_)_Σ=13_Al_1.00_(P_1.00_O_4_)_11_(P_1.00_O_3_OH)(OH)_2_; OH estimated by charge balance
132.5902, 657.7366
133.0723, 676.8094
133.5544, 695.8593
134.0366, 718.7439
134.5187, 742.2020
135.0008, 760.1260
135.4829, 767.7791
135.9650, 765.7722
136.4471, 766.9456
136.9293, 772.3820
137.4114, 779.5032
137.8935, 786.8614
138.3756, 795.2263
138.8577, 806.8782
139.3398, 823.9245
139.8220, 846.4847
140.3041, 866.4254
140.7862, 879.1664
141.2683, 894.1721
141.7504, 915.2614
142.2325, 942.1653
142.7147, 973.0057
143.1968, 1007.090
143.6789, 1044.381
144.1610, 1080.680
144.6431, 1113.200
145.1252, 1147.009
145.6074, 1185.807
146.0895, 1229.172
146.5716, 1273.433
147.0537, 1315.891
147.5358, 1356.390
148.0179, 1396.644
148.5001, 1440.443
148.9822, 1481.233
149.4643, 1514.608
149.9464, 1540.516
150.4285, 1560.637
150.9106, 1575.639
151.3928, 1585.318
151.8749, 1592.525
152.3570, 1596.576
152.8391, 1598.696
153.3212, 1599.646
153.8033, 1599.440
154.2855, 1599.026
154.7676, 1600.769
155.2497, 1603.218
155.7318, 1600.135
156.2139, 1587.107
156.6960, 1569.733
157.1782, 1552.797
157.6603, 1535.977
158.1424, 1523.356
158.6245, 1521.512
159.1066, 1526.723
159.5887, 1530.361
160.0709, 1527.667
160.5530, 1523.156
161.0351, 1524.249
161.5172, 1532.560
161.9993, 1541.004
162.4814, 1541.893
162.9636, 1539.262
163.4457, 1540.903
163.9278, 1551.000
164.4099, 1566.596
164.8920, 1583.115
165.3741, 1601.403
165.8563, 1618.085
166.3384, 1632.733
166.8205, 1644.400
167.3026, 1650.549
167.7847, 1647.612
168.2668, 1639.328
168.7490, 1632.672
169.2311, 1625.743
169.7132, 1625.203
170.1953, 1640.723
170.6774, 1663.539
171.1595, 1679.533
171.6417, 1679.546
172.1238, 1669.732
172.6059, 1666.765
173.0880, 1676.423
173.5701, 1681.020
174.0522, 1665.675
174.5344, 1642.138
175.0165, 1628.291
175.4986, 1635.994
175.9807, 1656.963
176.4628, 1668.213
176.9449, 1665.698
177.4271, 1660.296
177.9092, 1653.155
178.3913, 1646.844
178.8734, 1645.591
179.3555, 1653.037
179.8376, 1665.404
180.3197, 1671.384
180.8019, 1668.162
181.2840, 1663.065
181.7661, 1657.920
182.2482, 1652.779
182.7303, 1647.511
183.2124, 1641.756
183.6946, 1636.294
184.1767, 1633.102
184.6588, 1631.346
185.1409, 1633.888
185.6230, 1645.275
186.1051, 1659.239
186.5873, 1668.057
187.0694, 1667.519
187.5515, 1661.547
188.0336, 1660.788
188.5157, 1668.606
188.9978, 1676.116
189.4800, 1683.514
189.9621, 1688.806
190.4442, 1688.998
190.9263, 1682.346
191.4084, 1672.303
191.8905, 1667.172
192.3727, 1668.477
192.8548, 1672.524
193.3369, 1678.460
193.8190, 1686.363
194.3011, 1698.292
194.7832, 1715.215
195.2654, 1731.874
195.7475, 1735.099
196.2296, 1712.445
196.7117, 1699.916
197.1938, 1710.191
197.6759, 1726.442
198.1581, 1732.594
198.6402, 1723.477
199.1223, 1708.392
199.6044, 1705.640
200.0865, 1724.526
200.5686, 1737.312
201.0508, 1738.926
201.5329, 1736.369
202.0150, 1735.098
202.4971, 1736.563
202.9792, 1738.121
203.4613, 1734.448
203.9435, 1720.014
204.4256, 1713.165
204.9077, 1721.813
205.3898, 1732.190
205.8719, 1733.566
206.3540, 1724.485
206.8362, 1712.760
207.3183, 1709.865
207.8004, 1721.150
208.2825, 1727.705
208.7646, 1727.389
209.2467, 1724.559
209.7289, 1720.588
210.2110, 1716.228
210.6931, 1712.618
211.1752, 1711.795
211.6573, 1715.681
212.1395, 1715.140
212.6216, 1704.484
213.1037, 1694.558
213.5858, 1690.215
214.0679, 1691.729
214.5500, 1697.144
215.0322, 1705.452
215.5143, 1717.633
215.9964, 1725.912
216.4785, 1731.866
216.9606, 1732.594
217.4427, 1722.612
217.9249, 1705.546
218.4070, 1690.789
218.8891, 1686.678
219.3712, 1693.548
219.8533, 1698.944
220.3354, 1702.518
220.8176, 1704.831
221.2997, 1706.088
221.7818, 1706.162
222.2639, 1704.500
222.7460, 1700.353
223.2281, 1694.117
223.7103, 1690.560
224.1924, 1697.525
224.6745, 1698.315
225.1566, 1683.718
225.6387, 1661.906
226.1208, 1645.545
226.6030, 1642.541
227.0851, 1649.164
227.5672, 1649.384
228.0493, 1634.874
228.5314, 1625.156
229.0135, 1627.148
229.4957, 1634.066
229.9778, 1638.355
230.4599, 1636.624
230.9420, 1630.500
231.4241, 1623.553
231.9062, 1613.906
232.3884, 1606.921
232.8705, 1601.401
233.3526, 1599.344
233.8347, 1604.332
234.3168, 1617.215
234.7989, 1632.359
235.2811, 1640.246
235.7632, 1639.620
236.2453, 1634.189
236.7274, 1617.457
237.2095, 1601.304
237.6916, 1596.753
238.1738, 1604.520
238.6559, 1612.829
239.1380, 1603.917
239.6201, 1569.562
240.1022, 1548.677
240.5843, 1553.270
241.0665, 1562.872
241.5486, 1569.916
242.0307, 1573.077
242.5128, 1573.278
242.9949, 1570.906
243.4770, 1565.748
243.9592, 1560.420
244.4413, 1552.549
244.9234, 1546.872
245.4055, 1547.276
245.8876, 1551.590
246.3697, 1554.288
246.8519, 1551.161
247.3340, 1542.761
247.8161, 1533.917
248.2982, 1521.726
248.7803, 1513.283
249.2624, 1514.967
249.7446, 1520.974
250.2267, 1521.194
250.7088, 1508.264
251.1909, 1488.168
251.6730, 1479.488
252.1551, 1489.689
252.6373, 1496.092
253.1194, 1487.823
253.6015, 1473.913
254.0836, 1463.988
254.5657, 1461.758
255.0478, 1463.773
255.5300, 1464.185
256.0121, 1461.828
256.4942, 1462.351
256.9763, 1473.113
257.4584, 1484.068
257.9406, 1486.193
258.4227, 1477.310
258.9048, 1467.084
259.3869, 1467.094
259.8690, 1477.938
260.3511, 1484.999
260.8333, 1483.117
261.3154, 1478.586
261.7975, 1475.966
262.2796, 1475.351
262.7617, 1474.509
263.2438, 1471.140
263.7260, 1465.865
264.2081, 1462.436
264.6902, 1461.812
265.1723, 1462.285
265.6544, 1463.218
266.1365, 1464.283
266.6187, 1464.273
267.1008, 1461.677
267.5829, 1457.792
268.0650, 1454.794
268.5471, 1452.159
269.0292, 1452.291
269.5114, 1460.523
269.9935, 1472.407
270.4756, 1480.448
270.9577, 1484.847
271.4398, 1482.866
271.9219, 1465.057
272.4041, 1430.632
272.8862, 1408.117
273.3683, 1419.633
273.8504, 1448.773
274.3325, 1462.313
274.8146, 1451.334
275.2968, 1438.224
275.7789, 1441.639
276.2610, 1456.690
276.7431, 1461.485
277.2252, 1443.824
277.7073, 1418.568
278.1895, 1412.018
278.6716, 1427.522
279.1537, 1441.243
279.6358, 1443.483
280.1179, 1438.629
280.6000, 1433.944
281.0822, 1431.016
281.5643, 1428.325
282.0464, 1423.561
282.5285, 1416.433
283.0106, 1411.302
283.4927, 1410.434
283.9749, 1410.650
284.4570, 1408.857
284.9391, 1404.910
285.4212, 1400.808
285.9033, 1398.037
286.3854, 1396.669
286.8676, 1396.173
287.3497, 1400.454
287.8318, 1401.786
288.3139, 1393.960
288.7960, 1379.879
289.2781, 1367.267
289.7603, 1360.338
290.2424, 1358.194
290.7245, 1357.383
291.2066, 1359.403
291.6887, 1360.808
292.1708, 1361.907
292.6530, 1361.819
293.1351, 1358.007
293.6172, 1349.731
294.0993, 1341.385
294.5814, 1341.659
295.0635, 1362.547
295.5457, 1368.587
296.0278, 1345.519
296.5099, 1319.017
296.9920, 1308.408
297.4741, 1314.823
297.9562, 1326.203
298.4384, 1330.191
298.9205, 1325.617
299.4026, 1321.630
299.8847, 1318.768
300.3668, 1315.937
300.8489, 1312.408
301.3311, 1308.604
301.8131, 1305.588
302.2953, 1304.217
302.7774, 1304.013
303.2595, 1302.130
303.7416, 1294.340
304.2237, 1291.462
304.7058, 1301.638
305.1880, 1314.744
305.6701, 1318.689
306.1522, 1308.761
306.6343, 1293.184
307.1164, 1285.965
307.5985, 1289.793
308.0807, 1292.064
308.5628, 1288.482
309.0449, 1284.130
309.5270, 1282.141
310.0091, 1282.721
310.4912, 1283.791
310.9734, 1283.813
311.4555, 1282.818
311.9376, 1281.066
312.4197, 1278.332
312.9018, 1275.146
313.3839, 1270.026
313.8661, 1264.539
314.3482, 1263.069
314.8303, 1270.365
315.3124, 1281.664
315.7945, 1288.945
316.2766, 1292.007
316.7588, 1292.195
317.2409, 1289.731
317.7230, 1284.792
318.2051, 1277.419
318.6872, 1266.403
319.1693, 1255.148
319.6515, 1244.535
320.1336, 1235.370
320.6157, 1231.888
321.0978, 1237.284
321.5799, 1246.284
322.0620, 1250.167
322.5442, 1248.235
323.0263, 1246.999
323.5084, 1248.380
323.9905, 1251.439
324.4726, 1255.713
324.9547, 1261.118
325.4369, 1265.432
325.9190, 1266.056
326.4011, 1262.512
326.8832, 1261.133
327.3653, 1262.404
327.8474, 1265.275
328.3296, 1272.054
328.8117, 1280.348
329.2938, 1283.017
329.7759, 1275.250
330.2580, 1259.762
330.7401, 1249.123
331.2223, 1243.630
331.7044, 1242.656
332.1865, 1251.923
332.6686, 1263.057
333.1507, 1266.091
333.6328, 1258.338
334.1150, 1246.067
334.5971, 1238.601
335.0792, 1238.074
335.5613, 1236.770
336.0434, 1235.735
336.5255, 1233.137
337.0077, 1226.833
337.4898, 1217.874
337.9719, 1209.458
338.4540, 1204.276
338.9361, 1201.957
339.4182, 1198.966
339.9004, 1193.311
340.3825, 1190.142
340.8646, 1192.456
341.3467, 1197.248
341.8288, 1200.988
342.3109, 1202.466
342.7931, 1201.984
343.2752, 1199.524
343.7573, 1194.772
344.2394, 1190.216
344.7215, 1186.039
345.2036, 1182.634
345.6858, 1179.726
346.1679, 1177.386
346.6500, 1177.341
347.1321, 1183.432
347.6142, 1192.614
348.0963, 1196.514
348.5785, 1194.006
349.0606, 1187.086
349.5427, 1174.504
350.0248, 1158.363
350.5069, 1145.071
350.9890, 1135.846
351.4712, 1129.740
351.9533, 1124.843
352.4354, 1121.853
352.9175, 1125.558
353.3996, 1140.403
353.8817, 1160.815
354.3639, 1172.008
354.8460, 1173.343
355.3281, 1169.563
355.8102, 1154.947
356.2923, 1138.775
356.7744, 1134.846
357.2566, 1145.311
357.7387, 1157.475
358.2208, 1156.417
358.7029, 1138.552
359.1850, 1127.275
359.6671, 1127.316
360.1493, 1128.224
360.6314, 1123.320
361.1135, 1115.679
361.5956, 1113.744
362.0777, 1123.289
362.5598, 1139.423
363.0420, 1143.265
363.5241, 1120.706
364.0062, 1108.704
364.4883, 1118.722
364.9704, 1135.376
365.4525, 1146.657
365.9347, 1149.700
366.4168, 1148.252
366.8989, 1146.433
367.3810, 1144.380
367.8631, 1138.737
368.3452, 1122.932
368.8274, 1111.493
369.3095, 1113.320
369.7916, 1124.747
370.2737, 1137.158
370.7558, 1148.549
371.2379, 1156.974
371.7201, 1157.283
372.2022, 1148.499
372.6843, 1140.913
373.1664, 1138.316
373.6485, 1139.952
374.1306, 1144.736
374.6128, 1153.672
375.0949, 1162.030
375.5770, 1166.798
376.0591, 1169.303
376.5412, 1172.094
377.0233, 1175.699
377.5055, 1179.658
377.9876, 1184.397
378.4697, 1190.094
378.9518, 1190.637
379.4339, 1178.758
379.9160, 1168.169
380.3982, 1168.236
380.8803, 1176.556
381.3624, 1185.870
381.8445, 1192.446
382.3266, 1196.629
382.8087, 1199.478
383.2909, 1197.980
383.7730, 1199.174
384.2551, 1204.679
384.7372, 1211.918
385.2193, 1219.185
385.7014, 1226.002
386.1836, 1232.372
386.6657, 1237.874
387.1478, 1242.306
387.6299, 1249.534
388.1120, 1263.823
388.5941, 1276.004
389.0763, 1284.769
389.5584, 1289.179
390.0405, 1286.626
390.5226, 1274.325
391.0047, 1259.564
391.4868, 1252.433
391.9690, 1252.841
392.4511, 1262.795
392.9332, 1290.807
393.4153, 1321.608
393.8974, 1341.389
394.3795, 1350.031
394.8617, 1352.938
395.3438, 1345.950
395.8259, 1337.223
396.3080, 1343.973
396.7901, 1368.647
397.2722, 1390.738
397.7544, 1394.070
398.2365, 1382.510
398.7186, 1378.858
399.2007, 1387.049
399.6828, 1398.502
400.1649, 1411.305
400.6471, 1424.864
401.1292, 1439.349
401.6113, 1454.910
402.0934, 1468.150
402.5755, 1473.230
403.0576, 1464.534
403.5398, 1465.099
404.0219, 1482.008
404.5040, 1500.256
404.9861, 1511.121
405.4682, 1516.799
405.9503, 1524.559
406.4325, 1539.404
406.9146, 1558.821
407.3967, 1573.610
407.8788, 1582.068
408.3609, 1589.219
408.8430, 1595.332
409.3252, 1601.146
409.8073, 1606.903
410.2894, 1612.746
410.7715, 1619.511
411.2536, 1628.688
411.7357, 1639.653
412.2179, 1648.055
412.7000, 1651.555
413.1821, 1657.406
413.6642, 1676.286
414.1463, 1700.755
414.6284, 1714.540
415.1106, 1706.986
415.5927, 1697.419
416.0748, 1701.305
416.5569, 1714.884
417.0390, 1727.527
417.5211, 1736.356
418.0033, 1739.900
418.4854, 1733.668
418.9675, 1710.979
419.4496, 1702.530
419.9317, 1723.821
420.4138, 1747.867
420.8960, 1755.846
421.3781, 1749.994
421.8602, 1742.963
422.3423, 1743.173
422.8244, 1747.963
423.3065, 1745.198
423.7887, 1723.959
424.2708, 1712.491
424.7529, 1721.813
425.2350, 1735.668
425.7171, 1740.610
426.1992, 1734.958
426.6814, 1726.372
427.1635, 1721.746
427.6456, 1720.737
428.1277, 1719.867
428.6098, 1719.635
429.0919, 1718.559
429.5741, 1714.426
430.0562, 1709.352
430.5383, 1706.493
431.0204, 1706.591
431.5025, 1709.030
431.9846, 1715.164
432.4668, 1723.538
432.9489, 1728.185
433.4310, 1726.675
433.9131, 1724.150
434.3952, 1726.766
434.8773, 1735.039
435.3595, 1743.637
435.8416, 1756.743
436.3237, 1766.063
436.8058, 1762.220
437.2879, 1750.341
437.7701, 1744.858
438.2522, 1753.740
438.7343, 1769.619
439.2164, 1773.149
439.6985, 1753.353
440.1806, 1740.645
440.6628, 1737.914
441.1449, 1739.550
441.6270, 1746.056
442.1091, 1754.388
442.5912, 1755.962
443.0733, 1741.233
443.5555, 1715.895
444.0376, 1702.802
444.5197, 1705.553
445.0018, 1710.458
445.4839, 1711.207
445.9660, 1712.266
446.4482, 1719.133
446.9303, 1733.226
447.4124, 1746.933
447.8945, 1757.928
448.3766, 1764.781
448.8587, 1761.895
449.3409, 1747.749
449.8230, 1734.612
450.3051, 1732.279
450.7872, 1739.964
451.2693, 1747.021
451.7514, 1757.131
452.2336, 1762.449
452.7157, 1755.684
453.1978, 1744.255
453.6799, 1738.969
454.1620, 1742.761
454.6441, 1750.297
455.1263, 1755.475
455.6084, 1758.951
456.0905, 1756.321
456.5726, 1736.259
457.0547, 1721.699
457.5368, 1722.153
458.0190, 1732.165
458.5011, 1743.643
458.9832, 1753.908
459.4653, 1760.985
459.9474, 1761.116
460.4295, 1754.204
460.9117, 1746.665
461.3938, 1738.880
461.8759, 1731.945
462.3580, 1726.203
462.8401, 1721.809
463.3222, 1720.067
463.8044, 1724.238
464.2865, 1728.918
464.7686, 1728.733
465.2507, 1724.679
465.7328, 1722.545
466.2149, 1726.100
466.6971, 1728.244
467.1792, 1713.844
467.6613, 1665.978
468.1434, 1637.796
468.6255, 1646.565
469.1076, 1659.594
469.5898, 1656.307
470.0719, 1639.208
470.5540, 1621.172
471.0361, 1610.211
471.5182, 1603.921
472.0003, 1594.451
472.4825, 1579.435
472.9646, 1567.883
473.4467, 1566.508
473.9288, 1565.831
474.4109, 1558.887
474.8930, 1545.928
475.3752, 1533.334
475.8573, 1524.859
476.3394, 1519.044
476.8215, 1515.480
477.3036, 1514.195
477.7857, 1506.056
478.2679, 1483.040
478.7500, 1453.142
479.2321, 1436.837
479.7142, 1440.364
480.1963, 1439.806
480.6784, 1428.179
481.1606, 1412.183
481.6427, 1396.972
482.1248, 1383.355
482.6069, 1370.726
483.0890, 1358.517
483.5711, 1346.917
484.0533, 1336.851
484.5354, 1329.820
485.0175, 1321.832
485.4996, 1313.466
485.9817, 1303.272
486.4638, 1287.442
486.9460, 1266.946
487.4281, 1250.751
487.9102, 1248.277
488.3923, 1255.355
488.8744, 1260.130
489.3565, 1262.720
489.8387, 1261.586
490.3208, 1254.543
490.8029, 1243.809
491.2850, 1234.561
491.7671, 1227.799
492.2492, 1219.595
492.7314, 1205.555
493.2135, 1191.174
493.6956, 1181.432
494.1777, 1177.443
494.6598, 1181.093
495.1419, 1195.363
495.6241, 1217.491
496.1062, 1229.907
496.5883, 1228.763
497.0704, 1222.381
497.5525, 1204.227
498.0346, 1186.464
498.5168, 1180.781
498.9989, 1187.312
499.4810, 1195.787
499.9631, 1198.537
500.4452, 1196.437
500.9273, 1192.000
501.4095, 1184.408
501.8916, 1177.774
502.3737, 1172.499
502.8558, 1170.224
503.3379, 1174.101
503.8200, 1186.091
504.3022, 1196.068
504.7843, 1197.473
505.2664, 1196.440
505.7485, 1202.615
506.2306, 1215.034
506.7127, 1221.056
507.1949, 1210.636
507.6770, 1189.375
508.1591, 1182.287
508.6412, 1208.251
509.1233, 1220.655
509.6054, 1207.648
510.0876, 1188.146
510.5697, 1175.435
511.0518, 1170.033
511.5339, 1165.346
512.0161, 1157.217
512.4982, 1146.061
512.9803, 1130.488
513.4624, 1108.528
513.9445, 1095.578
514.4266, 1103.726
514.9088, 1117.794
515.3909, 1116.871
515.8730, 1099.747
516.3551, 1084.200
516.8372, 1078.080
517.3193, 1074.034
517.8015, 1064.763
518.2836, 1051.032
518.7657, 1036.674
519.2478, 1023.317
519.7299, 1012.649
520.2120, 1009.248
520.6942, 1019.153
521.1763, 1024.814
521.6584, 1023.250
522.1405, 1020.750
522.6226, 1019.497
523.1047, 1020.136
523.5869, 1024.084
524.0690, 1033.712
524.5511, 1043.419
525.0332, 1040.569
525.5153, 1025.297
525.9974, 1020.594
526.4796, 1036.974
526.9617, 1057.306
527.4438, 1061.632
527.9259, 1052.074
528.4080, 1045.618
528.8901, 1045.157
529.3723, 1047.886
529.8544, 1052.515
530.3365, 1059.060
530.8186, 1068.963
531.3007, 1082.565
531.7828, 1095.241
532.2650, 1099.635
532.7471, 1093.486
533.2292, 1093.257
533.7113, 1101.814
534.1934, 1113.422
534.6755, 1129.955
535.1577, 1147.042
535.6398, 1157.911
536.1219, 1160.055
536.6040, 1161.781
537.0861, 1170.112
537.5682, 1184.194
538.0504, 1202.633
538.5325, 1225.890
539.0146, 1247.850
539.4967, 1263.028
539.9788, 1273.251
540.4609, 1287.394
540.9431, 1311.131
541.4252, 1330.774
541.9073, 1334.306
542.3894, 1338.455
542.8715, 1363.589
543.3536, 1408.246
543.8358, 1452.353
544.3179, 1479.851
544.8000, 1494.054
545.2821, 1509.136
545.7642, 1525.282
546.2463, 1541.788
546.7285, 1560.919
547.2106, 1578.346
547.6927, 1588.565
548.1748, 1592.380
548.6569, 1600.003
549.1390, 1620.535
549.6211, 1643.727
550.1032, 1658.378
550.5853, 1665.533
551.0674, 1670.196
551.5496, 1674.238
552.0317, 1677.678
552.5138, 1680.772
552.9959, 1684.353
553.4780, 1684.629
553.9601, 1676.903
554.4423, 1671.369
554.9244, 1676.113
555.4065, 1684.515
555.8886, 1685.926
556.3707, 1676.361
556.8528, 1661.332
557.3350, 1646.171
557.8171, 1631.026
558.2992, 1616.997
558.7813, 1604.018
559.2634, 1592.690
559.7455, 1583.524
560.2277, 1576.408
560.7098, 1570.765
561.1919, 1568.029
561.6740, 1564.210
562.1561, 1555.166
562.6382, 1546.190
563.1204, 1543.297
563.6025, 1546.590
564.0846, 1552.618
564.5667, 1559.532
565.0488, 1566.111
565.5309, 1566.552
566.0131, 1556.202
566.4952, 1551.475
566.9773, 1558.410
567.4594, 1569.441
567.9415, 1583.859
568.4236, 1599.295
568.9058, 1606.682
569.3879, 1593.479
569.8700, 1578.437
570.3521, 1585.621
570.8342, 1607.616
571.3163, 1617.518
571.7985, 1606.279
572.2806, 1589.500
572.7627, 1587.341
573.2448, 1602.819
573.7269, 1604.040
574.2090, 1574.089
574.6912, 1550.811
575.1733, 1549.465
575.6554, 1556.640
576.1375, 1556.166
576.6196, 1544.906
577.1017, 1533.263
577.5839, 1533.509
578.0660, 1540.887
578.5481, 1537.996
579.0302, 1523.434
579.5123, 1508.757
579.9944, 1498.319
580.4766, 1491.644
580.9587, 1488.984
581.4408, 1491.743
581.9229, 1491.921
582.4050, 1490.251
582.8871, 1484.037
583.3693, 1466.432
583.8514, 1443.510
584.3335, 1427.895
584.8156, 1425.510
585.2977, 1430.866
585.7798, 1437.406
586.2620, 1445.807
586.7441, 1446.573
587.2262, 1435.713
587.7083, 1422.974
588.1904, 1412.113
588.6725, 1403.484
589.1547, 1398.116
589.6368, 1396.730
590.1189, 1396.975
590.6010, 1399.771
591.0831, 1402.452
591.5652, 1400.929
592.0474, 1395.455
592.5295, 1389.488
593.0116, 1385.157
593.4937, 1382.474
593.9758, 1381.465
594.4579, 1382.267
594.9401, 1384.422
595.4222, 1387.600
595.9043, 1392.457
596.3864, 1400.273
596.8685, 1410.034
597.3506, 1419.942
597.8328, 1431.778
598.3149, 1438.671
598.7970, 1430.425
599.2791, 1412.727
599.7612, 1399.346
600.2433, 1392.881
600.7255, 1392.929
601.2076, 1400.792
601.6897, 1414.749
602.1718, 1420.727
602.6539, 1414.676
603.1360, 1405.665
603.6182, 1389.621
604.1003, 1374.649
604.5824, 1369.647
605.0645, 1372.104
605.5466, 1370.052
606.0287, 1354.386
606.5109, 1333.518
606.9930, 1319.307
607.4751, 1311.313
607.9572, 1308.247
608.4393, 1312.055
608.9214, 1311.292
609.4036, 1291.532
609.8857, 1252.661
610.3678, 1227.565
610.8499, 1225.993
611.3320, 1224.518
611.8141, 1218.901
612.2963, 1210.066
612.7784, 1197.231
613.2605, 1181.675
613.7426, 1168.948
614.2247, 1165.334
614.7068, 1165.781
615.1890, 1154.673
615.6711, 1131.092
616.1532, 1118.555
616.6353, 1129.508
617.1174, 1143.668
617.5995, 1135.127
618.0817, 1103.293
618.5638, 1083.341
619.0459, 1081.703
619.5280, 1086.255
620.0101, 1096.814
620.4922, 1108.740
620.9744, 1116.413
621.4565, 1118.953
621.9386, 1119.428
622.4207, 1119.650
622.9028, 1120.414
623.3849, 1126.673
