##NAMES=Arrojadite-(KNa)
##RRUFFID=R050107
##IDEAL CHEMISTRY=KNa_3_(CaNa_2_)Fe^2+^_13_Al(PO_4_)_11_(PO_3_OH)(OH)_2_
##LOCALITY=Big-Fish River, Yukon Territory, Canada
##OWNER=RRUFF
##SOURCE=Rock Currier
##DESCRIPTION=Yellowish green tabular crystals
##STATUS=The identification of this mineral has been confirmed only by X-ray diffraction
##URL=rruff.info/R050107
129.9852, 132.0176
130.4673, 134.2716
130.9494, 136.7689
131.4316, 139.3170
131.9137, 140.8130
132.3958, 140.9851
132.8779, 140.9969
133.3600, 141.5674
133.8421, 142.6801
134.3243, 143.9331
134.8064, 145.1234
135.2885, 146.2455
135.7706, 147.3705
136.2527, 148.6067
136.7348, 149.7704
137.2169, 150.2110
137.6991, 149.8044
138.1812, 149.3065
138.6633, 149.4330
139.1454, 150.3224
139.6275, 150.6271
140.1096, 150.0374
140.5918, 148.6904
141.0739, 147.2956
141.5560, 145.7360
142.0381, 144.3611
142.5202, 143.4913
143.0023, 143.2558
143.4845, 143.1678
143.9666, 143.1890
144.4487, 143.3235
144.9308, 143.3325
145.4129, 143.1405
145.8951, 142.9009
146.3772, 142.7842
146.8593, 142.9222
147.3414, 142.9723
147.8235, 142.8195
148.3056, 142.3890
148.7878, 142.1325
149.2699, 142.1930
149.7520, 142.3625
150.2341, 142.3635
150.7162, 141.9599
151.1983, 141.6306
151.6805, 141.4809
152.1626, 141.5179
152.6447, 141.7091
153.1268, 142.3211
153.6089, 143.0452
154.0910, 143.3755
154.5732, 142.8299
155.0553, 142.2789
155.5374, 142.0396
156.0195, 142.3452
156.5016, 142.5309
156.9837, 142.6123
157.4659, 142.5169
157.9480, 142.0875
158.4301, 140.8398
158.9122, 139.5883
159.3943, 138.7656
159.8764, 138.7963
160.3586, 138.6615
160.8407, 137.9754
161.3228, 136.9020
161.8049, 135.8972
162.2870, 135.2630
162.7691, 134.6576
163.2512, 133.8612
163.7334, 132.7838
164.2155, 131.5628
164.6976, 130.2249
165.1797, 128.7801
165.6618, 127.2636
166.1439, 125.6901
166.6261, 124.0674
167.1082, 122.3976
167.5903, 120.5260
168.0724, 118.7695
168.5545, 117.4595
169.0366, 116.5135
169.5188, 115.4173
170.0009, 113.6541
170.4830, 111.6509
170.9651, 109.8478
171.4472, 108.3466
171.9293, 107.1351
172.4115, 106.3275
172.8936, 105.8926
173.3757, 105.4549
173.8578, 104.7295
174.3399, 103.8344
174.8220, 102.9388
175.3042, 102.0190
175.7863, 101.1788
176.2684, 100.5287
176.7505, 100.0660
177.2326, 99.71461
177.7147, 99.51096
178.1969, 99.37408
178.6790, 99.13428
179.1611, 98.58096
179.6432, 97.93462
180.1253, 97.53467
180.6074, 97.39127
181.0896, 97.36709
181.5717, 97.36789
182.0538, 97.38717
182.5359, 97.40449
183.0180, 97.48528
183.5001, 97.54805
183.9823, 97.41258
184.4644, 97.07217
184.9465, 96.58815
185.4286, 95.90345
185.9107, 95.07711
186.3928, 94.45132
186.8750, 94.40144
187.3571, 94.68628
187.8392, 94.50964
188.3213, 93.80994
188.8034, 92.88193
189.2855, 92.07603
189.7677, 91.38853
190.2498, 90.74597
190.7319, 90.14809
191.2140, 89.58129
191.6961, 88.92399
192.1782, 88.12865
192.6603, 87.38972
193.1425, 87.03519
193.6246, 87.06344
194.1067, 87.22009
194.5888, 87.47969
195.0709, 87.81451
195.5530, 87.91375
196.0352, 87.73149
196.5173, 87.39780
196.9994, 87.13822
197.4815, 86.96272
197.9636, 86.73030
198.4457, 86.34721
198.9279, 85.81095
199.4100, 85.27184
199.8921, 84.70576
200.3742, 84.17530
200.8563, 83.79511
201.3384, 83.56666
201.8206, 83.45399
202.3027, 83.49177
202.7848, 83.70055
203.2669, 83.80813
203.7490, 83.83284
204.2311, 83.72539
204.7133, 83.33540
205.1954, 82.60273
205.6775, 81.84048
206.1596, 81.19582
206.6417, 80.67813
207.1238, 80.20030
207.6060, 79.74966
208.0881, 79.34277
208.5702, 79.03453
209.0523, 78.85756
209.5344, 78.67829
210.0165, 78.36183
210.4987, 77.80275
210.9808, 77.66031
211.4629, 78.14401
211.9450, 78.90427
212.4271, 79.07981
212.9092, 78.47187
213.3914, 77.77332
213.8735, 77.30875
214.3556, 77.12762
214.8377, 77.01660
215.3198, 77.00510
215.8019, 77.04348
216.2841, 77.01336
216.7662, 76.90804
217.2483, 76.75204
217.7304, 76.52710
218.2125, 76.16721
218.6946, 75.97356
219.1767, 76.03385
219.6589, 76.22659
220.1410, 76.24728
220.6231, 76.03409
221.1052, 75.76392
221.5873, 75.50428
222.0694, 75.24741
222.5516, 75.01865
223.0337, 74.77132
223.5158, 74.57084
223.9979, 74.60161
224.4800, 75.00961
224.9621, 75.39281
225.4443, 75.54910
225.9264, 75.34512
226.4085, 75.26038
226.8906, 75.33367
227.3727, 75.51032
227.8548, 75.67348
228.3370, 75.84196
228.8191, 75.96309
229.3012, 75.96837
229.7833, 75.68101
230.2654, 75.78270
230.7475, 76.53204
231.2297, 77.57320
231.7118, 78.09743
232.1939, 77.95592
232.6760, 77.53658
233.1581, 76.89243
233.6402, 75.74535
234.1224, 75.18058
234.6045, 75.46751
235.0866, 76.22549
235.5687, 76.61375
236.0508, 76.38166
236.5329, 76.18925
237.0151, 76.36433
237.4972, 77.20982
237.9793, 77.48086
238.4614, 76.85713
238.9435, 75.80434
239.4256, 75.24870
239.9078, 75.45925
240.3899, 75.74453
240.8720, 75.88726
241.3541, 75.87863
241.8362, 75.75316
242.3183, 75.43814
242.8005, 75.04675
243.2826, 74.76939
243.7647, 74.62743
244.2468, 74.57298
244.7289, 74.62611
245.2110, 74.85018
245.6931, 74.91306
246.1753, 74.73547
246.6574, 74.44710
247.1395, 74.23372
247.6216, 74.06306
248.1037, 74.03285
248.5858, 74.27251
249.0680, 74.91616
249.5501, 75.02632
250.0322, 74.26347
250.5143, 73.23198
250.9964, 72.79874
251.4785, 73.36559
251.9607, 73.79506
252.4428, 73.77383
252.9249, 73.25436
253.4070, 72.68497
253.8891, 71.99986
254.3712, 71.32710
254.8534, 70.84252
255.3355, 70.67948
255.8176, 70.43650
256.2997, 69.97214
256.7818, 69.27144
257.2639, 68.75597
257.7461, 68.51629
258.2282, 68.35885
258.7103, 68.07149
259.1924, 67.57547
259.6745, 67.11468
260.1566, 66.69173
260.6388, 66.30713
261.1209, 66.29298
261.6030, 66.88238
262.0851, 67.51756
262.5672, 67.64423
263.0493, 67.06173
263.5315, 66.51373
264.0136, 66.13572
264.4957, 65.91003
264.9778, 65.63808
265.4599, 65.25881
265.9420, 64.94470
266.4242, 64.86983
266.9063, 65.12463
267.3884, 65.31799
267.8705, 65.38485
268.3526, 65.34849
268.8347, 65.31764
269.3169, 65.27948
269.7990, 65.27348
270.2811, 65.37998
270.7632, 65.67869
271.2453, 65.72018
271.7274, 65.38763
272.2096, 64.79176
272.6917, 64.29866
273.1738, 63.94221
273.6559, 63.57442
274.1380, 63.03941
274.6201, 62.26019
275.1023, 61.79910
275.5844, 61.77340
276.0665, 62.01965
276.5486, 62.19239
277.0307, 62.30618
277.5128, 62.28321
277.9950, 62.02297
278.4771, 61.50035
278.9592, 61.11306
279.4413, 60.91146
279.9234, 60.79078
280.4055, 60.54064
280.8877, 60.14110
281.3698, 59.75449
281.8519, 59.45979
282.3340, 59.25624
282.8161, 59.05253
283.2982, 58.83773
283.7804, 58.64524
284.2625, 58.55513
284.7446, 58.57119
285.2267, 58.54668
285.7088, 58.40428
286.1909, 58.16230
286.6730, 57.94397
287.1552, 57.74579
287.6373, 57.58381
288.1194, 57.44256
288.6015, 57.32838
289.0836, 57.38021
289.5657, 57.76057
290.0479, 58.32793
290.5300, 58.50335
291.0121, 58.24702
291.4942, 57.95211
291.9763, 58.08229
292.4584, 58.55715
292.9406, 58.88713
293.4227, 58.87186
293.9048, 58.68030
294.3869, 58.69229
294.8690, 58.90802
295.3511, 59.16587
295.8333, 59.38629
296.3154, 59.55006
296.7975, 59.58688
297.2796, 59.44397
297.7617, 59.22306
298.2438, 59.09997
298.7260, 59.06167
299.2081, 58.99418
299.6902, 58.73679
300.1723, 58.40443
300.6544, 58.25455
301.1365, 58.37268
301.6187, 58.56443
302.1008, 58.58598
302.5829, 58.47650
303.0650, 58.38259
303.5471, 58.43316
304.0292, 58.53718
304.5114, 58.52989
304.9935, 58.36797
305.4756, 58.24038
305.9577, 58.52405
306.4398, 58.98754
306.9219, 59.10163
307.4041, 58.19226
307.8862, 57.04453
308.3683, 56.47551
308.8504, 56.54566
309.3325, 56.77291
309.8146, 56.81406
310.2968, 56.77998
310.7789, 56.83686
311.2610, 57.26654
311.7431, 57.65539
312.2252, 57.65408
312.7073, 57.28384
313.1895, 56.85696
313.6716, 56.49674
314.1537, 56.19458
314.6358, 55.94484
315.1179, 55.71046
315.6000, 55.56622
316.0822, 55.63702
316.5643, 55.86092
317.0464, 55.98164
317.5285, 55.89039
318.0106, 55.65242
318.4927, 55.30180
318.9749, 54.77621
319.4570, 54.25161
319.9391, 53.70459
320.4212, 53.20279
320.9033, 52.89101
321.3854, 53.09159
321.8676, 53.27578
322.3497, 53.11871
322.8318, 52.37466
323.3139, 51.90568
323.7960, 52.15819
324.2781, 52.73458
324.7603, 53.06427
325.2424, 52.94542
325.7245, 52.66922
326.2066, 52.24121
326.6887, 51.60535
327.1708, 51.18323
327.6530, 51.26028
328.1351, 51.45219
328.6172, 51.40611
329.0993, 50.57000
329.5814, 50.09276
330.0635, 50.31869
330.5457, 51.21561
331.0278, 51.73841
331.5099, 51.67721
331.9920, 51.41203
332.4741, 51.17356
332.9562, 50.89763
333.4384, 50.75840
333.9205, 50.86601
334.4026, 51.12079
334.8847, 51.12802
335.3668, 50.67329
335.8489, 50.28387
336.3311, 50.26405
336.8132, 50.85104
337.2953, 51.07850
337.7774, 50.75604
338.2595, 50.22044
338.7416, 50.15198
339.2238, 50.70589
339.7059, 51.26643
340.1880, 51.63493
340.6701, 51.81061
341.1522, 51.78151
341.6343, 51.46968
342.1164, 51.12311
342.5985, 51.05855
343.0807, 51.30626
343.5628, 51.55513
344.0449, 51.73561
344.5270, 51.85285
345.0091, 51.93056
345.4912, 51.96603
345.9734, 51.98670
346.4555, 52.03347
346.9376, 52.09691
347.4197, 52.08807
347.9018, 51.96409
348.3839, 51.79709
348.8661, 51.70472
349.3482, 51.68633
349.8303, 51.72940
350.3124, 51.87776
350.7945, 52.08069
351.2766, 52.18552
351.7588, 52.15648
352.2409, 52.12040
352.7230, 52.27459
353.2051, 52.55265
353.6872, 52.76115
354.1693, 52.81800
354.6515, 52.74635
355.1336, 52.50180
355.6157, 52.07649
356.0978, 51.74198
356.5799, 51.83219
357.0620, 52.12097
357.5442, 52.26913
358.0263, 52.05849
358.5084, 51.76348
358.9905, 51.52652
359.4726, 51.35965
359.9547, 51.31767
360.4369, 51.65831
360.9190, 52.01342
361.4011, 52.04468
361.8832, 51.51061
362.3653, 50.97470
362.8474, 50.61834
363.3296, 50.43889
363.8117, 50.43116
364.2938, 50.74915
364.7759, 51.11234
365.2580, 51.40149
365.7401, 51.60146
366.2223, 51.74017
366.7044, 51.68167
367.1865, 51.61692
367.6686, 51.76065
368.1507, 52.51806
368.6328, 53.09483
369.1150, 53.21531
369.5971, 52.86845
370.0792, 52.74866
370.5613, 53.15954
371.0434, 53.58276
371.5255, 53.68935
372.0077, 53.11273
372.4898, 52.78528
372.9719, 52.77208
373.4540, 53.03105
373.9361, 53.45110
374.4182, 54.10673
374.9004, 54.79466
375.3825, 55.46847
375.8646, 56.17653
376.3467, 56.60065
376.8288, 56.61457
377.3109, 56.50576
377.7931, 56.69779
378.2752, 57.23937
378.7573, 57.87286
379.2394, 58.58367
379.7215, 59.33480
380.2036, 59.84598
380.6858, 60.05242
381.1679, 60.28335
381.6500, 60.84637
382.1321, 61.72569
382.6142, 62.67561
383.0963, 63.70377
383.5785, 64.71896
384.0606, 65.50512
384.5427, 66.07397
385.0248, 66.71725
385.5069, 67.72009
385.9890, 68.91724
386.4712, 69.88862
386.9533, 70.58176
387.4354, 71.15662
387.9175, 71.54745
388.3996, 71.92712
388.8817, 72.69775
389.3639, 74.44102
389.8460, 76.39736
390.3281, 77.73154
390.8102, 78.48002
391.2923, 79.28500
391.7744, 80.78343
392.2566, 82.47014
392.7387, 83.79200
393.2208, 84.30295
393.7029, 84.87772
394.1850, 86.10538
394.6671, 87.76051
395.1493, 89.25850
395.6314, 90.16660
396.1135, 91.02436
396.5956, 92.15324
397.0777, 93.69070
397.5598, 95.13769
398.0419, 96.29378
398.5240, 97.33357
399.0062, 98.45772
399.4883, 99.86801
399.9704, 101.1843
400.4525, 102.2436
400.9346, 103.0608
401.4167, 104.0256
401.8989, 105.1204
402.3810, 106.3766
402.8631, 107.8619
403.3452, 109.9292
403.8273, 111.5025
404.3094, 112.2925
404.7916, 112.6636
405.2737, 113.4686
405.7558, 114.8657
406.2379, 116.3158
406.7200, 117.6554
407.2021, 118.8860
407.6843, 119.9341
408.1664, 120.7020
408.6485, 121.5170
409.1306, 122.8644
409.6127, 124.7528
410.0948, 126.3555
410.5770, 127.4047
411.0591, 128.0982
411.5412, 128.9096
412.0233, 129.8443
412.5054, 130.7972
412.9875, 131.8802
413.4697, 132.9251
413.9518, 133.3379
414.4339, 132.9059
414.9160, 132.4265
415.3981, 132.9167
415.8802, 134.0688
416.3624, 135.1268
416.8445, 135.8381
417.3266, 136.2276
417.8087, 136.1764
418.2908, 135.7146
418.7729, 135.3509
419.2551, 135.4565
419.7372, 135.7961
420.2193, 136.1894
420.7014, 136.9596
421.1835, 137.2104
421.6656, 136.0347
422.1478, 134.0325
422.6299, 132.6220
423.1120, 133.0761
423.5941, 133.5145
424.0762, 133.0110
424.5583, 131.2251
425.0405, 129.6830
425.5226, 128.8148
426.0047, 128.1441
426.4868, 127.2199
426.9689, 125.9202
427.4510, 124.5121
427.9332, 122.9065
428.4153, 121.1951
428.8974, 119.9566
429.3795, 119.5472
429.8616, 119.0633
430.3438, 117.9539
430.8259, 115.9656
431.3080, 114.3926
431.7901, 113.4094
432.2722, 112.6166
432.7543, 111.3178
433.2365, 109.4656
433.7186, 107.6383
434.2007, 105.9644
434.6828, 104.4681
435.1649, 103.3041
435.6470, 102.4851
436.1292, 101.7523
436.6113, 100.8232
437.0934, 99.79957
437.5755, 99.05895
438.0576, 98.75774
438.5397, 98.49866
439.0219, 97.68659
439.5040, 96.49161
439.9861, 95.44059
440.4682, 94.91686
440.9503, 94.57847
441.4324, 94.05269
441.9146, 93.32887
442.3967, 92.71995
442.8788, 92.57376
443.3609, 92.56868
443.8430, 92.37284
444.3251, 91.72176
444.8073, 91.10341
445.2894, 90.62642
445.7715, 90.30608
446.2536, 90.18221
446.7357, 90.68839
447.2178, 91.02140
447.7000, 90.73312
448.1821, 89.51723
448.6642, 88.80177
449.1463, 89.20131
449.6284, 89.74385
450.1105, 89.47807
450.5927, 87.64860
451.0747, 86.38771
451.5569, 86.14661
452.0390, 86.65532
452.5211, 86.77448
453.0032, 86.32887
453.4853, 85.96886
453.9674, 86.16618
454.4496, 86.97997
454.9317, 87.22539
455.4138, 86.75989
455.8959, 86.11606
456.3780, 86.00869
456.8601, 86.37913
457.3423, 86.70463
457.8244, 86.84525
458.3065, 86.83129
458.7886, 86.65076
459.2707, 86.32282
459.7528, 86.03912
460.2350, 85.80740
460.7171, 85.73459
461.1992, 86.06237
461.6813, 86.89843
462.1634, 87.70165
462.6455, 88.05798
463.1277, 88.11934
463.6098, 88.12312
464.0919, 88.10681
464.5740, 88.10237
465.0561, 88.17418
465.5382, 88.29469
466.0204, 88.29753
466.5025, 88.00735
466.9846, 87.67651
467.4667, 87.44080
467.9488, 87.30979
468.4309, 87.27966
468.9131, 87.43979
469.3952, 87.66698
469.8773, 87.81154
470.3594, 87.91997
470.8415, 87.86752
471.3236, 87.56675
471.8058, 87.06014
472.2879, 86.70222
472.7700, 86.53642
473.2521, 86.41610
473.7342, 86.24606
474.2163, 86.02187
474.6985, 85.85091
475.1806, 85.76130
475.6627, 85.67017
476.1448, 85.43196
476.6269, 85.06410
477.1090, 84.71304
477.5912, 84.42184
478.0733, 84.18563
478.5554, 84.04479
479.0375, 83.98197
479.5196, 83.84573
480.0017, 83.47850
480.4839, 82.99418
480.9660, 82.53005
481.4481, 82.10538
481.9302, 81.70995
482.4123, 81.39124
482.8944, 81.08467
483.3766, 80.69511
483.8587, 79.98665
484.3408, 79.38338
484.8229, 79.18433
485.3050, 79.32069
485.7871, 79.20257
486.2693, 78.60767
486.7514, 77.81080
487.2335, 76.90248
487.7156, 75.63533
488.1977, 74.82410
488.6798, 74.74870
489.1620, 74.93465
489.6441, 74.77357
490.1262, 74.20039
490.6083, 73.41489
491.0904, 72.32464
491.5725, 71.07722
492.0547, 70.40514
492.5368, 70.40359
493.0189, 70.47901
493.5010, 70.26739
493.9831, 69.80370
494.4652, 69.32509
494.9474, 68.86178
495.4295, 68.30186
495.9116, 67.36109
496.3937, 66.20197
496.8758, 65.31367
497.3579, 64.91008
497.8401, 64.77078
498.3222, 64.75005
498.8043, 64.81040
499.2864, 64.81341
499.7685, 64.69986
500.2506, 64.48731
500.7328, 64.17417
501.2149, 63.75129
501.6970, 63.29435
502.1791, 62.70878
502.6612, 62.16295
503.1433, 61.81612
503.6255, 61.87842
504.1076, 61.92496
504.5897, 61.85271
505.0718, 61.72736
505.5539, 61.75304
506.0360, 62.05790
506.5181, 62.32757
507.0002, 62.46188
507.4824, 62.46117
507.9645, 62.33317
508.4466, 62.03265
508.9287, 61.71348
509.4108, 61.54582
509.8929, 61.52752
510.3751, 61.43662
510.8572, 61.22844
511.3393, 60.95173
511.8214, 60.72845
512.3035, 60.52620
512.7856, 60.17588
513.2678, 59.51412
513.7499, 58.69331
514.2320, 57.87538
514.7141, 57.07518
515.1962, 56.36432
515.6783, 55.96642
516.1605, 55.59155
516.6426, 54.89734
517.1247, 53.61850
517.6068, 52.54503
518.0889, 52.18367
518.5710, 52.17107
519.0532, 51.98911
519.5353, 51.21283
520.0174, 50.59910
520.4995, 50.41788
520.9816, 50.60499
521.4637, 50.63742
521.9459, 50.33010
522.4280, 50.11147
522.9101, 50.22327
523.3922, 50.75962
523.8743, 51.15009
524.3564, 51.33137
524.8386, 51.49710
525.3207, 51.85615
525.8028, 52.40498
526.2849, 53.15684
526.7670, 54.13763
527.2491, 55.28176
527.7313, 56.47162
528.2134, 57.70595
528.6955, 58.95519
529.1776, 60.13827
529.6597, 61.34344
530.1418, 62.61876
530.6240, 63.94953
531.1061, 65.58312
531.5882, 67.93111
532.0703, 70.51120
532.5524, 72.83717
533.0345, 74.55518
533.5167, 76.40747
533.9988, 78.66591
534.4809, 81.19646
534.9630, 83.76035
535.4451, 86.38412
535.9272, 88.99931
536.4094, 91.65292
536.8915, 94.32211
537.3736, 96.84895
537.8557, 99.29414
538.3378, 101.5417
538.8199, 103.5226
539.3021, 105.2212
539.7842, 106.7587
540.2663, 108.1406
540.7484, 109.3891
541.2305, 110.5469
541.7126, 111.6160
542.1948, 112.5040
542.6769, 113.0938
543.1590, 113.6225
543.6411, 114.4293
544.1232, 115.4739
544.6053, 116.5986
545.0875, 117.7543
545.5696, 118.9464
546.0517, 120.2996
546.5338, 121.8090
547.0159, 122.9593
547.4980, 123.4920
547.9802, 123.5895
548.4623, 123.3798
548.9444, 122.7896
549.4265, 122.0637
549.9086, 121.0049
550.3907, 119.9060
550.8729, 119.2165
551.3550, 119.4293
551.8371, 119.1812
552.3192, 117.9547
552.8013, 116.0309
553.2834, 114.9927
553.7656, 115.0260
554.2477, 115.2529
554.7298, 115.2188
555.2119, 114.9474
555.6940, 114.7235
556.1761, 114.5665
556.6583, 114.3050
557.1404, 113.7030
557.6225, 112.8665
558.1046, 112.0689
558.5867, 111.4017
559.0688, 110.7107
559.5510, 109.8484
560.0331, 108.8665
560.5152, 107.8481
560.9973, 106.6996
561.4794, 105.6402
561.9615, 104.8512
562.4437, 104.3031
562.9258, 103.6686
563.4079, 102.7355
563.8900, 101.8224
564.3721, 101.0492
564.8542, 100.3441
565.3364, 100.0161
565.8185, 100.1844
566.3006, 100.5900
566.7827, 101.0039
567.2648, 101.4319
567.7469, 101.8049
568.2291, 102.0971
568.7112, 102.3543
569.1933, 102.6133
569.6754, 102.8911
570.1575, 103.3656
570.6396, 104.1997
571.1218, 105.2381
571.6039, 106.2369
572.0860, 107.1970
572.5681, 108.1942
573.0502, 109.1222
573.5323, 110.1843
574.0145, 111.7077
574.4966, 113.8642
574.9787, 115.7515
575.4608, 116.6407
575.9429, 117.2571
576.4250, 118.2969
576.9072, 120.6054
577.3893, 122.4092
577.8714, 123.5035
578.3535, 124.0227
578.8356, 124.2116
579.3177, 124.0273
579.7999, 123.6325
580.2820, 123.1293
580.7641, 122.4677
581.2462, 121.2218
581.7283, 119.3528
582.2104, 117.3009
582.6926, 115.4360
583.1747, 113.6370
583.6568, 111.4324
584.1389, 108.7202
584.6210, 106.1258
585.1031, 104.2014
585.5853, 102.7867
586.0674, 101.7128
586.5495, 101.1877
587.0316, 100.5608
587.5137, 99.53622
587.9958, 98.17142
588.4779, 96.57333
588.9600, 94.23223
589.4421, 92.22086
589.9243, 90.98320
590.4064, 90.41769
590.8885, 89.64938
591.3706, 88.60113
591.8527, 87.46955
592.3348, 86.26744
592.8170, 84.94773
593.2991, 84.08615
593.7812, 83.74007
594.2633, 83.61140
594.7454, 83.45555
595.2275, 83.26916
595.7097, 83.03202
596.1918, 82.73111
596.6739, 82.40617
597.1560, 82.02327
597.6381, 81.65646
598.1202, 81.47192
598.6024, 81.61112
599.0845, 81.88248
599.5666, 82.36068
600.0487, 82.92422
600.5308, 83.10579
601.0129, 82.28039
601.4951, 81.48618
601.9772, 81.26942
602.4593, 81.73491
602.9414, 81.81475
603.4235, 81.36796
603.9056, 80.71545
604.3878, 79.94079
604.8699, 78.94582
605.3520, 78.63073
605.8341, 79.19762
606.3162, 80.03831
606.7983, 80.37560
607.2805, 80.27092
607.7626, 80.06717
608.2447, 79.78460
608.7268, 79.56326
609.2089, 79.61502
609.6910, 79.87100
610.1732, 80.14451
610.6553, 80.44857
611.1374, 80.64799
611.6195, 80.60226
612.1016, 80.33434
612.5837, 80.08617
613.0659, 79.98914
613.5480, 79.87379
614.0301, 79.67274
614.5122, 79.40750
614.9943, 78.97293
615.4764, 78.34684
615.9586, 77.58569
616.4407, 76.73347
616.9228, 75.80914
617.4049, 74.66283
617.8870, 73.15943
618.3691, 71.68973
618.8513, 70.94240
619.3334, 70.78548
619.8155, 70.60023
620.2976, 70.14090
620.7797, 69.60256
621.2618, 69.21850
621.7440, 68.94627
622.2261, 68.65369
622.7082, 68.07219
623.1903, 67.62988
623.6724, 67.64388
624.1545, 68.11959
624.6367, 68.56169
625.1188, 68.86207
625.6009, 69.12160
626.0830, 69.36594
626.5651, 69.54992
627.0472, 69.89042
627.5294, 70.40105
