##NAMES=Arrojadite-(NaFe)
##RRUFFID=R070298
##IDEAL CHEMISTRY=Na_2_Fe^2+^(CaNa2)Fe^2+^_13_Al(PO_4_)_11_(PO_3_OH)(OH)_2_
##LOCALITY=Boundary Creek, Richardson Mountains, Dawson mining district, Yukon Territory, Canada
##OWNER=RRUFF
##SOURCE=Mark Mauthner
##DESCRIPTION=Dark bluish grey fragments
##STATUS=The identification of this mineral is confirmed by single-crystal X-ray diffraction and chemical analysis.
##URL=rruff.info/R070298
##MEASURED CHEMISTRY=(Na_1.80_K_0.20_)_Σ=2_Fe^2+^_1.00_(Ca_0.90_Na_2.10_)_Σ=3_(Fe^2+^_10.71_Mg_1.40_Mn_0.89_)_Σ=13_(Al_0.90_Ti_0.05_Fe^3+^_0.05_)_Σ=1_(P_1.00_O_4_)_11_(P_1.00_O_3_OH)((OH)_1.15_F_0.85_)_Σ=2_; (OH) by stoichiometry and charge balance
116.3958, 84.52308
116.8779, 94.81396
117.3600, 104.6693
117.8421, 113.2141
118.3242, 121.1885
118.8063, 128.8137
119.2885, 136.0478
119.7706, 143.5104
120.2527, 150.2149
120.7348, 157.4454
121.2169, 167.5954
121.6990, 184.3990
122.1812, 203.4592
122.6633, 220.1476
123.1454, 233.4566
123.6275, 245.4952
124.1096, 256.5897
124.5917, 267.4986
125.0739, 281.3194
125.5560, 301.8625
126.0381, 326.5498
126.5202, 350.7913
127.0023, 373.5432
127.4844, 395.4337
127.9666, 416.5139
128.4487, 436.8158
128.9308, 458.9865
129.4129, 487.3997
129.8950, 520.7160
130.3772, 550.4821
130.8593, 573.2416
131.3414, 590.7718
131.8235, 608.2824
132.3056, 625.0654
132.7877, 644.1638
133.2699, 670.9749
133.7520, 706.0019
134.2341, 740.0255
134.7162, 769.7108
135.1983, 795.2031
135.6804, 817.0805
136.1626, 833.8582
136.6447, 848.7034
137.1268, 868.6304
137.6089, 895.3178
138.0910, 920.6424
138.5731, 939.3591
139.0553, 950.3053
139.5374, 961.1749
140.0195, 972.2092
140.5016, 983.4860
140.9837, 994.9300
141.4658, 1006.878
141.9480, 1018.640
142.4301, 1030.063
142.9122, 1042.637
143.3943, 1051.496
143.8764, 1054.611
144.3585, 1052.131
144.8407, 1052.696
145.3228, 1056.067
145.8049, 1062.683
146.2870, 1073.264
146.7691, 1091.726
147.2512, 1108.831
147.7334, 1122.244
148.2155, 1130.981
148.6976, 1140.995
149.1797, 1151.110
149.6618, 1162.889
150.1439, 1178.257
150.6261, 1203.463
151.1082, 1226.471
151.5903, 1242.938
152.0724, 1247.484
152.5545, 1257.327
153.0366, 1279.760
153.5188, 1308.047
154.0009, 1328.854
154.4830, 1336.886
154.9651, 1339.797
155.4472, 1340.814
155.9293, 1338.846
156.4115, 1337.254
156.8936, 1336.872
157.3757, 1337.425
157.8578, 1337.943
158.3399, 1337.037
158.8221, 1336.646
159.3042, 1338.048
159.7863, 1345.566
160.2684, 1350.985
160.7505, 1350.037
161.2326, 1343.582
161.7148, 1338.330
162.1969, 1338.227
162.6790, 1340.251
163.1611, 1341.479
163.6432, 1338.224
164.1253, 1336.092
164.6075, 1338.435
165.0896, 1345.386
165.5717, 1353.655
166.0538, 1362.853
166.5359, 1371.967
167.0180, 1379.587
167.5002, 1385.548
167.9823, 1389.615
168.4644, 1391.063
168.9465, 1389.524
169.4286, 1387.543
169.9107, 1386.734
170.3929, 1386.847
170.8750, 1387.337
171.3571, 1387.955
171.8392, 1388.794
172.3213, 1389.894
172.8034, 1391.181
173.2856, 1392.960
173.7677, 1396.890
174.2498, 1401.986
174.7319, 1404.816
175.2140, 1400.867
175.6961, 1393.916
176.1783, 1389.683
176.6604, 1389.403
177.1425, 1391.864
177.6246, 1399.137
178.1067, 1409.816
178.5888, 1415.187
179.0710, 1403.189
179.5531, 1381.190
180.0352, 1366.298
180.5173, 1365.942
180.9994, 1371.298
181.4815, 1366.313
181.9637, 1351.300
182.4458, 1337.414
182.9279, 1335.637
183.4100, 1343.303
183.8921, 1350.230
184.3742, 1352.819
184.8564, 1353.119
185.3385, 1356.046
185.8206, 1361.789
186.3027, 1368.167
186.7848, 1373.489
187.2669, 1377.716
187.7491, 1380.770
188.2312, 1382.407
188.7133, 1382.836
189.1954, 1383.502
189.6775, 1384.868
190.1596, 1384.323
190.6418, 1376.019
191.1239, 1360.276
191.6060, 1348.457
192.0881, 1346.355
192.5702, 1352.980
193.0524, 1360.433
193.5345, 1369.319
194.0166, 1377.428
194.4987, 1381.196
194.9808, 1380.500
195.4629, 1377.321
195.9451, 1371.612
196.4272, 1363.374
196.9093, 1356.477
197.3914, 1350.847
197.8735, 1346.863
198.3556, 1345.689
198.8378, 1347.654
199.3199, 1350.334
199.8020, 1353.551
200.2841, 1357.592
200.7662, 1356.737
201.2483, 1348.802
201.7305, 1337.488
202.2126, 1333.233
202.6947, 1338.234
203.1768, 1342.085
203.6589, 1336.407
204.1410, 1319.048
204.6232, 1308.203
205.1053, 1307.001
205.5874, 1312.674
206.0695, 1316.598
206.5516, 1319.024
207.0337, 1319.046
207.5159, 1315.296
207.9980, 1306.897
208.4801, 1299.221
208.9622, 1292.919
209.4443, 1287.841
209.9264, 1283.213
210.4086, 1278.871
210.8907, 1275.293
211.3728, 1273.843
211.8549, 1276.365
212.3370, 1274.016
212.8191, 1262.358
213.3013, 1243.606
213.7834, 1236.396
214.2655, 1244.005
214.7476, 1257.944
215.2297, 1273.759
215.7118, 1297.627
216.1940, 1305.527
216.6761, 1287.402
217.1582, 1244.936
217.6403, 1218.422
218.1224, 1214.228
218.6045, 1217.849
219.0867, 1214.803
219.5688, 1200.474
220.0509, 1190.708
220.5330, 1190.788
221.0151, 1201.040
221.4972, 1205.328
221.9794, 1201.823
222.4615, 1194.452
222.9436, 1186.718
223.4257, 1176.969
223.9078, 1170.309
224.3899, 1168.712
224.8721, 1172.636
225.3542, 1175.048
225.8363, 1174.517
226.3184, 1173.848
226.8005, 1177.308
227.2827, 1189.456
227.7648, 1196.819
228.2469, 1194.511
228.7290, 1180.783
229.2111, 1170.766
229.6932, 1163.768
230.1754, 1161.148
230.6575, 1166.297
231.1396, 1187.087
231.6217, 1201.442
232.1038, 1201.072
232.5859, 1181.867
233.0681, 1170.156
233.5502, 1168.050
234.0323, 1171.910
234.5144, 1176.930
234.9965, 1184.126
235.4786, 1190.712
235.9608, 1195.921
236.4429, 1199.614
236.9250, 1202.241
237.4071, 1203.287
237.8892, 1203.565
238.3713, 1204.014
238.8535, 1203.163
239.3356, 1205.073
239.8177, 1212.762
240.2998, 1230.107
240.7819, 1237.679
241.2640, 1230.733
241.7462, 1216.899
242.2283, 1209.780
242.7104, 1214.308
243.1925, 1217.349
243.6746, 1212.973
244.1567, 1196.179
244.6389, 1189.774
245.1210, 1198.640
245.6031, 1214.952
246.0852, 1225.044
246.5673, 1227.286
247.0494, 1226.048
247.5316, 1222.297
248.0137, 1215.021
248.4958, 1208.340
248.9779, 1201.003
249.4600, 1195.014
249.9421, 1194.909
250.4243, 1204.172
250.9064, 1213.081
251.3885, 1218.159
251.8706, 1218.732
252.3527, 1217.444
252.8348, 1213.189
253.3170, 1207.770
253.7991, 1204.837
254.2812, 1205.673
254.7633, 1206.582
255.2454, 1205.905
255.7275, 1202.757
256.2097, 1201.415
256.6918, 1202.456
257.1739, 1204.918
257.6560, 1207.127
258.1381, 1209.141
258.6202, 1210.804
259.1024, 1212.318
259.5845, 1214.091
260.0666, 1213.616
260.5487, 1209.429
261.0308, 1204.109
261.5129, 1202.384
261.9951, 1205.203
262.4772, 1209.452
262.9593, 1215.376
263.4414, 1225.042
263.9235, 1225.132
264.4056, 1209.959
264.8878, 1190.521
265.3699, 1188.538
265.8520, 1211.518
266.3341, 1230.449
266.8162, 1232.327
267.2983, 1213.756
267.7805, 1199.643
268.2626, 1190.475
268.7447, 1185.390
269.2268, 1183.850
269.7089, 1187.043
270.1910, 1189.474
270.6732, 1187.684
271.1553, 1180.672
271.6374, 1180.962
272.1195, 1192.008
272.6016, 1205.292
273.0837, 1205.266
273.5659, 1189.392
274.0480, 1173.276
274.5301, 1162.440
275.0122, 1157.058
275.4943, 1154.650
275.9764, 1156.563
276.4586, 1158.910
276.9407, 1154.419
277.4228, 1142.101
277.9049, 1131.983
278.3870, 1128.608
278.8691, 1131.692
279.3513, 1135.242
279.8334, 1139.754
280.3155, 1143.450
280.7976, 1143.531
281.2798, 1139.876
281.7619, 1135.445
282.2440, 1130.777
282.7261, 1126.068
283.2082, 1122.959
283.6903, 1121.603
284.1725, 1121.276
284.6546, 1120.400
285.1367, 1119.099
285.6188, 1120.662
286.1009, 1129.219
286.5830, 1141.872
287.0652, 1145.292
287.5473, 1138.623
288.0294, 1127.660
288.5115, 1116.367
288.9936, 1105.230
289.4757, 1098.747
289.9579, 1100.534
290.4400, 1107.479
290.9221, 1111.285
291.4042, 1111.858
291.8863, 1110.468
292.3684, 1106.936
292.8506, 1102.058
293.3327, 1099.547
293.8148, 1103.397
294.2969, 1108.695
294.7790, 1103.421
295.2611, 1087.524
295.7433, 1072.508
296.2254, 1070.088
296.7075, 1076.592
297.1896, 1081.673
297.6717, 1081.609
298.1538, 1079.324
298.6360, 1080.257
299.1181, 1083.994
299.6002, 1085.541
300.0823, 1079.451
300.5644, 1068.640
301.0465, 1058.012
301.5287, 1046.489
302.0108, 1038.636
302.4929, 1044.162
302.9750, 1060.516
303.4571, 1072.770
303.9392, 1064.783
304.4214, 1048.527
304.9035, 1040.872
305.3856, 1050.324
305.8677, 1062.399
306.3498, 1065.054
306.8319, 1059.792
307.3141, 1051.872
307.7962, 1039.054
308.2783, 1027.645
308.7604, 1025.440
309.2425, 1039.089
309.7246, 1051.050
310.2068, 1047.443
310.6889, 1033.056
311.1710, 1020.328
311.6531, 1012.918
312.1352, 1010.876
312.6173, 1016.461
313.0995, 1034.061
313.5816, 1047.221
314.0637, 1043.807
314.5458, 1030.884
315.0279, 1021.756
315.5100, 1026.062
315.9922, 1032.079
316.4743, 1033.120
316.9564, 1027.114
317.4385, 1021.520
317.9206, 1018.275
318.4027, 1017.033
318.8849, 1017.309
319.3670, 1020.531
319.8491, 1023.882
320.3312, 1026.834
320.8133, 1029.662
321.2954, 1030.123
321.7776, 1025.432
322.2597, 1019.077
322.7418, 1014.777
323.2239, 1017.204
323.7060, 1017.603
324.1881, 1012.305
324.6703, 1000.468
325.1524, 992.5951
325.6345, 990.1936
326.1166, 991.7086
326.5987, 995.9684
327.0808, 1010.785
327.5630, 1019.021
328.0451, 1014.104
328.5272, 997.0642
329.0093, 990.8226
329.4914, 1003.650
329.9735, 1019.865
330.4557, 1029.337
330.9378, 1028.947
331.4199, 1027.051
331.9020, 1023.115
332.3841, 1017.973
332.8662, 1015.618
333.3484, 1016.180
333.8305, 1019.370
334.3126, 1026.296
334.7947, 1040.032
335.2768, 1047.359
335.7589, 1045.452
336.2411, 1037.961
336.7232, 1034.032
337.2053, 1034.495
337.6874, 1036.183
338.1695, 1037.520
338.6516, 1038.301
339.1338, 1040.675
339.6159, 1045.187
340.0980, 1050.463
340.5801, 1053.342
341.0622, 1053.400
341.5443, 1055.413
342.0265, 1063.019
342.5086, 1075.220
342.9907, 1082.546
343.4728, 1084.074
343.9549, 1084.097
344.4370, 1089.341
344.9192, 1098.953
345.4013, 1104.554
345.8834, 1099.342
346.3655, 1089.009
346.8476, 1090.743
347.3297, 1104.892
347.8119, 1120.376
348.2940, 1125.846
348.7761, 1124.106
349.2582, 1123.699
349.7403, 1128.690
350.2225, 1134.452
350.7046, 1132.810
351.1867, 1124.733
351.6688, 1117.812
352.1509, 1117.974
352.6331, 1122.654
353.1152, 1128.464
353.5973, 1135.796
354.0794, 1141.926
354.5615, 1144.203
355.0436, 1143.230
355.5258, 1140.843
356.0079, 1137.688
356.4900, 1133.762
356.9721, 1129.352
357.4542, 1124.948
357.9363, 1118.543
358.4185, 1106.368
358.9006, 1091.705
359.3827, 1080.227
359.8648, 1072.726
360.3469, 1070.107
360.8290, 1076.547
361.3112, 1094.783
361.7933, 1104.054
362.2754, 1089.742
362.7575, 1066.175
363.2396, 1048.852
363.7217, 1048.600
364.2039, 1047.823
364.6860, 1040.834
365.1681, 1027.413
365.6502, 1016.754
366.1323, 1011.352
366.6144, 1008.068
367.0966, 1004.757
367.5787, 1003.121
368.0608, 999.2563
368.5429, 990.9719
369.0250, 979.6179
369.5071, 972.6007
369.9893, 974.2395
370.4714, 975.2206
370.9535, 970.1495
371.4356, 953.3230
371.9177, 943.8494
372.3998, 944.2923
372.8820, 951.0417
373.3641, 956.7695
373.8462, 962.2240
374.3283, 964.6324
374.8104, 961.2638
375.2925, 951.1392
375.7747, 946.9666
376.2568, 949.9481
376.7389, 956.4201
377.2210, 961.7110
377.7031, 965.7399
378.1852, 969.9170
378.6674, 975.9070
379.1495, 982.3439
379.6316, 981.7882
380.1137, 973.4229
380.5958, 965.5092
381.0779, 966.3543
381.5601, 974.6464
382.0422, 983.9751
382.5243, 993.7221
383.0064, 1002.985
383.4885, 1010.352
383.9706, 1015.953
384.4528, 1020.227
384.9349, 1021.395
385.4170, 1022.001
385.8991, 1026.562
386.3812, 1036.386
386.8633, 1048.294
387.3455, 1059.695
387.8276, 1070.892
388.3097, 1082.793
388.7918, 1096.540
389.2739, 1110.606
389.7560, 1123.691
390.2382, 1135.625
390.7203, 1147.409
391.2024, 1162.018
391.6845, 1175.910
392.1666, 1185.156
392.6487, 1180.422
393.1309, 1178.222
393.6130, 1186.902
394.0951, 1205.572
394.5772, 1222.671
395.0593, 1233.519
395.5414, 1242.992
396.0236, 1254.028
396.5057, 1268.380
396.9878, 1282.775
397.4699, 1295.548
397.9520, 1307.926
398.4341, 1323.781
398.9163, 1350.119
399.3984, 1372.605
399.8805, 1384.633
400.3626, 1380.161
400.8447, 1383.715
401.3268, 1400.176
401.8090, 1421.052
402.2911, 1433.806
402.7732, 1434.440
403.2553, 1437.161
403.7374, 1446.467
404.2195, 1461.905
404.7017, 1476.198
405.1838, 1490.574
405.6659, 1500.529
406.1480, 1496.823
406.6301, 1479.019
407.1122, 1476.218
407.5944, 1498.361
408.0765, 1533.696
408.5586, 1553.043
409.0407, 1556.772
409.5228, 1558.792
410.0049, 1568.693
410.4871, 1583.931
410.9692, 1597.963
411.4513, 1610.402
411.9334, 1620.647
412.4155, 1626.300
412.8976, 1629.097
413.3798, 1633.795
413.8619, 1645.704
414.3440, 1658.881
414.8261, 1665.848
415.3082, 1666.529
415.7903, 1668.801
416.2725, 1678.852
416.7546, 1692.980
417.2367, 1707.344
417.7188, 1722.229
418.2009, 1735.093
418.6830, 1744.024
419.1652, 1749.732
419.6473, 1754.467
420.1294, 1753.921
420.6115, 1756.379
421.0937, 1767.561
421.5758, 1794.066
422.0579, 1816.202
422.5400, 1830.580
423.0221, 1839.310
423.5042, 1846.055
423.9864, 1848.585
424.4685, 1851.734
424.9506, 1856.692
425.4327, 1863.509
425.9148, 1870.838
426.3969, 1879.485
426.8791, 1887.725
427.3612, 1893.495
427.8433, 1895.370
428.3254, 1899.685
428.8075, 1909.203
429.2896, 1921.001
429.7718, 1922.703
430.2539, 1911.856
430.7360, 1903.877
431.2181, 1911.580
431.7002, 1933.393
432.1823, 1945.333
432.6645, 1944.840
433.1466, 1939.057
433.6287, 1936.895
434.1108, 1937.837
434.5929, 1939.421
435.0750, 1941.697
435.5572, 1943.517
436.0393, 1941.529
436.5214, 1935.976
437.0035, 1932.044
437.4856, 1936.329
437.9677, 1944.034
438.4499, 1948.420
438.9320, 1947.031
439.4141, 1943.201
439.8962, 1937.024
440.3783, 1930.055
440.8604, 1926.124
441.3426, 1933.661
441.8247, 1939.668
442.3068, 1935.442
442.7889, 1917.733
443.2710, 1900.953
443.7531, 1889.457
444.2353, 1880.678
444.7174, 1871.577
445.1995, 1857.171
445.6816, 1847.601
446.1637, 1849.509
446.6458, 1860.919
447.1280, 1859.724
447.6101, 1836.315
448.0922, 1810.826
448.5743, 1794.731
449.0564, 1791.654
449.5385, 1788.197
450.0207, 1784.461
450.5028, 1779.797
450.9849, 1772.076
451.4670, 1760.381
451.9491, 1750.773
452.4312, 1747.358
452.9134, 1748.757
453.3955, 1741.840
453.8776, 1725.240
454.3597, 1710.220
454.8418, 1710.511
455.3239, 1722.636
455.8061, 1732.545
456.2882, 1737.894
456.7703, 1738.487
457.2524, 1731.982
457.7345, 1719.833
458.2166, 1707.768
458.6988, 1699.305
459.1809, 1692.753
459.6630, 1687.490
460.1451, 1683.938
460.6272, 1677.523
461.1093, 1660.767
461.5915, 1640.898
462.0736, 1627.258
462.5557, 1630.350
463.0378, 1632.895
463.5199, 1627.101
464.0020, 1614.201
464.4842, 1603.859
464.9663, 1600.691
465.4484, 1598.744
465.9305, 1594.806
466.4126, 1587.059
466.8947, 1580.311
467.3769, 1576.240
467.8590, 1572.466
468.3411, 1565.113
468.8232, 1553.984
469.3053, 1539.262
469.7874, 1518.395
470.2696, 1492.200
470.7517, 1476.904
471.2338, 1474.693
471.7159, 1476.705
472.1980, 1476.105
472.6801, 1472.923
473.1623, 1468.665
473.6444, 1462.959
474.1265, 1457.361
474.6086, 1455.786
475.0907, 1457.446
475.5728, 1457.241
476.0550, 1450.303
476.5371, 1440.513
477.0192, 1434.675
477.5013, 1433.026
477.9834, 1431.738
478.4655, 1428.120
478.9477, 1422.986
479.4298, 1417.398
479.9119, 1411.069
480.3940, 1405.038
480.8761, 1400.243
481.3582, 1396.255
481.8404, 1391.898
482.3225, 1387.439
482.8046, 1381.992
483.2867, 1375.302
483.7688, 1367.628
484.2509, 1357.726
484.7331, 1341.041
485.2152, 1324.433
485.6973, 1314.610
486.1794, 1318.512
486.6615, 1317.152
487.1436, 1306.449
487.6258, 1288.385
488.1079, 1271.854
488.5900, 1256.729
489.0721, 1243.779
489.5542, 1233.973
490.0363, 1227.290
490.5185, 1220.472
491.0006, 1213.261
491.4827, 1206.704
491.9648, 1204.208
492.4470, 1204.507
492.9291, 1200.107
493.4112, 1184.895
493.8933, 1166.805
494.3754, 1159.428
494.8575, 1161.355
495.3397, 1164.148
495.8218, 1163.115
496.3039, 1159.612
496.7860, 1154.411
497.2681, 1146.647
497.7502, 1140.845
498.2324, 1141.889
498.7145, 1145.606
499.1966, 1146.337
499.6787, 1140.184
500.1608, 1133.032
500.6429, 1124.835
501.1251, 1116.024
501.6072, 1112.414
502.0893, 1118.108
502.5714, 1125.746
503.0535, 1132.374
503.5356, 1139.268
504.0178, 1142.008
504.4999, 1139.890
504.9820, 1134.202
505.4641, 1125.874
505.9462, 1114.040
506.4283, 1104.274
506.9105, 1098.705
507.3926, 1096.375
507.8747, 1093.861
508.3568, 1091.171
508.8389, 1087.880
509.3210, 1084.992
509.8032, 1081.207
510.2853, 1072.129
510.7674, 1056.352
511.2495, 1038.973
511.7316, 1025.258
512.2137, 1013.745
512.6959, 1001.690
513.1780, 986.3746
513.6601, 971.2896
514.1422, 957.8563
514.6243, 946.3081
515.1064, 937.9744
515.5886, 935.8003
516.0707, 935.2906
516.5528, 933.7894
517.0349, 930.5919
517.5170, 927.1379
517.9991, 922.6198
518.4813, 918.3062
518.9634, 915.8625
519.4455, 915.8192
519.9276, 916.7109
520.4097, 918.0698
520.8918, 920.0617
521.3740, 923.8768
521.8561, 929.4263
522.3382, 937.0942
522.8203, 948.5693
523.3024, 963.3803
523.7845, 974.6034
524.2667, 981.3930
524.7488, 986.5690
525.2309, 993.9966
525.7130, 1002.995
526.1951, 1010.897
526.6772, 1015.312
527.1594, 1019.707
527.6415, 1028.169
528.1236, 1040.147
528.6057, 1053.494
529.0878, 1067.691
529.5699, 1082.214
530.0521, 1097.225
530.5342, 1113.782
531.0163, 1126.710
531.4984, 1129.932
531.9805, 1130.712
532.4626, 1136.791
532.9448, 1154.993
533.4269, 1171.664
533.9090, 1185.793
534.3911, 1197.343
534.8732, 1204.803
535.3553, 1204.523
535.8375, 1207.211
536.3196, 1218.181
536.8017, 1237.988
537.2838, 1257.070
537.7659, 1275.431
538.2480, 1293.655
538.7302, 1311.424
539.2123, 1329.322
539.6944, 1350.622
540.1765, 1377.044
540.6586, 1405.337
541.1407, 1432.644
541.6229, 1458.723
542.1050, 1483.135
542.5871, 1503.300
543.0692, 1523.261
543.5513, 1547.889
544.0334, 1577.156
544.5156, 1603.624
544.9977, 1620.990
545.4798, 1635.738
545.9619, 1653.132
546.4440, 1680.830
546.9261, 1701.292
547.4083, 1706.981
547.8904, 1704.943
548.3725, 1708.342
548.8546, 1724.283
549.3367, 1733.937
549.8188, 1731.568
550.3010, 1718.141
550.7831, 1704.553
551.2652, 1690.688
551.7473, 1676.998
552.2294, 1664.001
552.7115, 1651.599
553.1937, 1639.186
553.6758, 1626.563
554.1579, 1614.573
554.6400, 1604.666
555.1221, 1596.244
555.6042, 1587.538
556.0864, 1574.731
556.5685, 1564.451
557.0506, 1565.717
557.5327, 1575.714
558.0148, 1583.984
558.4969, 1582.924
558.9791, 1580.464
559.4612, 1581.792
559.9433, 1588.338
560.4254, 1593.975
560.9075, 1597.866
561.3896, 1600.176
561.8718, 1601.051
562.3539, 1598.902
562.8360, 1597.900
563.3181, 1597.792
563.8002, 1599.277
564.2823, 1604.033
564.7645, 1612.046
565.2466, 1623.529
565.7287, 1641.431
566.2108, 1663.041
566.6929, 1673.072
567.1750, 1671.056
567.6572, 1666.196
568.1393, 1664.976
568.6214, 1666.653
569.1035, 1669.889
569.5856, 1674.553
570.0677, 1680.538
570.5499, 1692.675
571.0320, 1705.121
571.5141, 1708.756
571.9962, 1689.981
572.4783, 1671.982
572.9604, 1664.280
573.4426, 1665.586
573.9247, 1668.404
574.4068, 1677.951
574.8889, 1682.795
575.3710, 1677.303
575.8531, 1659.015
576.3353, 1643.695
576.8174, 1631.835
577.2995, 1622.438
577.7816, 1615.688
578.2637, 1612.193
578.7458, 1604.509
579.2280, 1590.416
579.7101, 1573.775
580.1922, 1561.803
580.6743, 1553.726
581.1564, 1545.169
581.6385, 1531.301
582.1207, 1517.286
582.6028, 1511.670
583.0849, 1513.457
583.5670, 1514.439
584.0491, 1507.562
584.5313, 1499.372
585.0134, 1496.715
585.4955, 1504.874
585.9776, 1504.576
586.4597, 1480.163
586.9418, 1449.273
587.4240, 1432.531
587.9061, 1441.819
588.3882, 1447.093
588.8703, 1442.795
589.3524, 1433.073
589.8345, 1431.021
590.3167, 1438.779
590.7988, 1446.016
591.2809, 1448.016
591.7630, 1445.718
592.2451, 1445.475
592.7272, 1447.589
593.2094, 1444.335
593.6915, 1421.054
594.1736, 1389.496
594.6557, 1373.772
595.1378, 1380.807
595.6199, 1391.999
596.1021, 1393.755
596.5842, 1390.854
597.0663, 1390.107
597.5485, 1401.591
598.0306, 1407.349
598.5127, 1396.926
598.9948, 1374.735
599.4769, 1360.000
599.9590, 1357.134
600.4412, 1357.805
600.9233, 1361.822
601.4054, 1370.133
601.8875, 1365.322
602.3696, 1342.799
602.8517, 1318.477
603.3339, 1308.997
603.8160, 1312.693
604.2981, 1308.004
604.7802, 1291.569
605.2623, 1269.899
605.7444, 1247.893
