##NAMES=Arrojadite-(KFe)
##RRUFFID=R070319
##IDEAL CHEMISTRY=(KNa)Fe^2+^(CaNa_2_)Fe^2+^_13_Al(PO_4_)_11_(PO_3_OH)(OH)_2_
##LOCALITY=Nickel Plate mine, Keystone District, Pennington County, South Dakota, USA
##OWNER=RRUFF
##SOURCE=James Shigley
##DESCRIPTION=Green massive
##STATUS=The identification of this mineral is confirmed by single-crystal X-ray diffraction and chemical analysis.
##URL=rruff.info/R070319
##MEASURED CHEMISTRY=(K_0.67_Na_1.33_)_Σ=2_Fe^2+^_1.00_(Ca_0.80_Na_2.20_)_Σ=3_(Fe^2+^_7.53_Mn_4.65_Mg_0.64_Al_0.16_Ti_0.02_)_Σ=13_Al_1.00_(P_1.00_O_4_)_11_(P_1.00_O_3_OH)(OH)_2_; OH estimated by charge balance
157.3757, 10197.39
157.8578, 10228.45
158.3399, 10264.82
158.8221, 10297.09
159.3042, 10319.48
159.7863, 10321.81
160.2684, 10322.60
160.7505, 10326.01
161.2326, 10332.27
161.7148, 10342.95
162.1969, 10362.81
162.6790, 10385.92
163.1611, 10406.31
163.6432, 10424.36
164.1253, 10437.56
164.6075, 10441.34
165.0896, 10435.41
165.5717, 10432.82
166.0538, 10439.55
166.5359, 10454.49
167.0180, 10475.93
167.5002, 10516.53
167.9823, 10555.18
168.4644, 10568.25
168.9465, 10548.99
169.4286, 10539.04
169.9107, 10578.35
170.3929, 10649.74
170.8750, 10718.14
171.3571, 10773.56
171.8392, 10812.78
172.3213, 10826.75
172.8034, 10807.72
173.2856, 10784.89
173.7677, 10788.77
174.2498, 10812.77
174.7319, 10834.10
175.2140, 10836.16
175.6961, 10827.55
176.1783, 10820.30
176.6604, 10814.95
177.1425, 10814.62
177.6246, 10824.22
178.1067, 10842.97
178.5888, 10866.59
179.0710, 10901.32
179.5531, 10938.39
180.0352, 10956.81
180.5173, 10947.87
180.9994, 10921.50
181.4815, 10885.72
181.9637, 10840.85
182.4458, 10806.78
182.9279, 10808.00
183.4100, 10836.10
183.8921, 10859.16
184.3742, 10865.37
184.8564, 10861.89
185.3385, 10864.81
185.8206, 10874.41
186.3027, 10887.36
186.7848, 10898.23
187.2669, 10908.21
187.7491, 10926.76
188.2312, 10964.51
188.7133, 11013.59
189.1954, 11044.97
189.6775, 11057.02
190.1596, 11057.57
190.6418, 11050.41
191.1239, 11036.00
191.6060, 11029.76
192.0881, 11044.59
192.5702, 11076.87
193.0524, 11091.62
193.5345, 11084.20
194.0166, 11071.23
194.4987, 11082.00
194.9808, 11118.36
195.4629, 11151.01
195.9451, 11159.25
196.4272, 11143.97
196.9093, 11150.98
197.3914, 11187.57
197.8735, 11237.23
198.3556, 11269.26
198.8378, 11281.93
199.3199, 11287.50
199.8020, 11288.12
200.2841, 11282.70
200.7662, 11290.93
201.2483, 11319.26
201.7305, 11356.98
202.2126, 11374.07
202.6947, 11364.50
203.1768, 11356.88
203.6589, 11369.51
204.1410, 11404.74
204.6232, 11444.99
205.1053, 11494.68
205.5874, 11545.82
206.0695, 11567.81
206.5516, 11551.83
207.0337, 11529.84
207.5159, 11523.69
207.9980, 11536.49
208.4801, 11550.74
208.9622, 11563.58
209.4443, 11576.26
209.9264, 11568.36
210.4086, 11608.03
210.8907, 11631.86
211.3728, 11640.70
211.8549, 11589.66
212.3370, 11615.94
212.8191, 11611.24
213.3013, 11605.26
213.7834, 11642.43
214.2655, 11600.10
214.7476, 11636.58
215.2297, 11641.60
215.7118, 11661.02
216.1940, 11649.27
216.6761, 11647.14
217.1582, 11676.20
217.6403, 11687.99
218.1224, 11672.64
218.6045, 11692.98
219.0867, 11649.56
219.5688, 11662.08
220.0509, 11705.20
220.5330, 11724.88
221.0151, 11726.58
221.4972, 11725.54
221.9794, 11718.96
222.4615, 11712.76
222.9436, 11715.14
223.4257, 11734.69
223.9078, 11744.42
224.3899, 11732.89
224.8721, 11696.77
225.3542, 11683.33
225.8363, 11706.71
226.3184, 11739.25
226.8005, 11744.77
227.2827, 11701.14
227.7648, 11673.33
228.2469, 11684.80
228.7290, 11743.98
229.2111, 11775.47
229.6932, 11767.37
230.1754, 11740.91
230.6575, 11724.21
231.1396, 11725.80
231.6217, 11721.99
232.1038, 11702.90
232.5859, 11662.81
233.0681, 11638.44
233.5502, 11632.94
234.0323, 11640.86
234.5144, 11656.24
234.9965, 11686.44
235.4786, 11711.45
235.9608, 11725.06
236.4429, 11725.59
236.9250, 11721.60
237.4071, 11710.76
237.8892, 11696.87
238.3713, 11686.01
238.8535, 11679.74
239.3356, 11673.80
239.8177, 11665.27
240.2998, 11650.70
240.7819, 11647.31
241.2640, 11658.19
241.7462, 11678.39
242.2283, 11701.39
242.7104, 11735.59
243.1925, 11758.63
243.6746, 11760.66
244.1567, 11733.82
244.6389, 11712.10
245.1210, 11694.05
245.6031, 11681.93
246.0852, 11681.79
246.5673, 11702.96
247.0494, 11720.14
247.5316, 11722.31
248.0137, 11702.00
248.4958, 11693.55
248.9779, 11707.10
249.4600, 11726.83
249.9421, 11719.68
250.4243, 11666.09
250.9064, 11620.54
251.3885, 11604.16
251.8706, 11624.91
252.3527, 11649.52
252.8348, 11681.06
253.3170, 11714.50
253.7991, 11740.47
254.2812, 11758.54
254.7633, 11769.41
255.2454, 11770.81
255.7275, 11757.63
256.2097, 11754.97
256.6918, 11768.02
257.1739, 11788.06
257.6560, 11799.04
258.1381, 11798.56
258.6202, 11793.88
259.1024, 11785.83
259.5845, 11771.64
260.0666, 11767.39
260.5487, 11779.65
261.0308, 11796.84
261.5129, 11795.55
261.9951, 11767.07
262.4772, 11740.95
262.9593, 11728.51
263.4414, 11731.02
263.9235, 11741.83
264.4056, 11764.80
264.8878, 11792.62
265.3699, 11811.83
265.8520, 11819.04
266.3341, 11827.96
266.8162, 11847.96
267.2983, 11883.54
267.7805, 11898.24
268.2626, 11885.38
268.7447, 11858.81
269.2268, 11839.76
269.7089, 11827.00
270.1910, 11826.37
270.6732, 11846.35
271.1553, 11890.87
271.6374, 11914.80
272.1195, 11913.22
272.6016, 11898.27
273.0837, 11889.03
273.5659, 11886.44
274.0480, 11884.48
274.5301, 11879.16
275.0122, 11870.13
275.4943, 11869.94
275.9764, 11880.35
276.4586, 11896.29
276.9407, 11911.63
277.4228, 11926.46
277.9049, 11938.18
278.3870, 11943.80
278.8691, 11943.77
279.3513, 11948.88
279.8334, 11960.15
280.3155, 11973.95
280.7976, 11989.28
281.2798, 12006.62
281.7619, 12011.57
282.2440, 11990.37
282.7261, 11948.45
283.2082, 11931.21
283.6903, 11943.39
284.1725, 11962.79
284.6546, 11958.41
285.1367, 11931.39
285.6188, 11910.72
286.1009, 11907.91
286.5830, 11919.88
287.0652, 11937.85
287.5473, 11963.72
288.0294, 11983.35
288.5115, 11972.42
288.9936, 11935.48
289.4757, 11911.05
289.9579, 11920.35
290.4400, 11949.24
290.9221, 11955.01
291.4042, 11935.89
291.8863, 11915.76
292.3684, 11924.80
292.8506, 11955.59
293.3327, 11975.41
293.8148, 11966.69
294.2969, 11944.96
294.7790, 11944.84
295.2611, 11966.36
295.7433, 11984.89
296.2254, 11971.25
296.7075, 11936.68
297.1896, 11913.08
297.6717, 11910.19
298.1538, 11921.87
298.6360, 11946.99
299.1181, 11983.96
299.6002, 12011.47
300.0823, 12001.17
300.5644, 11971.37
301.0465, 11958.14
301.5287, 11979.99
302.0108, 12010.81
302.4929, 12023.30
302.9750, 12019.00
303.4571, 12005.97
303.9392, 11974.52
304.4214, 11942.12
304.9035, 11934.55
305.3856, 11970.09
305.8677, 12012.78
306.3498, 12029.00
306.8319, 12024.91
307.3141, 12022.56
307.7962, 12037.35
308.2783, 12059.00
308.7604, 12079.73
309.2425, 12102.17
309.7246, 12113.26
310.2068, 12083.10
310.6889, 12032.37
311.1710, 12014.19
311.6531, 12099.62
312.1352, 12199.71
312.6173, 12244.22
313.0995, 12206.45
313.5816, 12157.06
314.0637, 12118.78
314.5458, 12092.30
315.0279, 12078.44
315.5100, 12093.32
315.9922, 12109.00
316.4743, 12106.87
316.9564, 12078.18
317.4385, 12059.06
317.9206, 12072.12
318.4027, 12099.44
318.8849, 12115.97
319.3670, 12109.34
319.8491, 12095.75
320.3312, 12075.94
320.8133, 12046.20
321.2954, 12033.56
321.7776, 12061.99
322.2597, 12102.73
322.7418, 12125.16
323.2239, 12102.82
323.7060, 12083.79
324.1881, 12081.42
324.6703, 12097.69
325.1524, 12110.14
325.6345, 12110.08
326.1166, 12109.30
326.5987, 12117.56
327.0808, 12161.44
327.5630, 12182.82
328.0451, 12160.79
328.5272, 12098.56
329.0093, 12067.64
329.4914, 12094.98
329.9735, 12129.78
330.4557, 12137.26
330.9378, 12090.53
331.4199, 12064.04
331.9020, 12071.86
332.3841, 12105.64
332.8662, 12123.67
333.3484, 12117.60
333.8305, 12108.19
334.3126, 12107.04
334.7947, 12117.22
335.2768, 12126.50
335.7589, 12135.21
336.2411, 12142.16
336.7232, 12142.93
337.2053, 12134.45
337.6874, 12128.79
338.1695, 12136.17
338.6516, 12160.03
339.1338, 12163.10
339.6159, 12137.73
340.0980, 12102.57
340.5801, 12091.85
341.0622, 12108.07
341.5443, 12124.73
342.0265, 12132.48
342.5086, 12131.60
342.9907, 12122.54
343.4728, 12103.19
343.9549, 12084.26
344.4370, 12079.96
344.9192, 12089.20
345.4013, 12101.94
345.8834, 12117.38
346.3655, 12132.97
346.8476, 12141.71
347.3297, 12143.56
347.8119, 12139.54
348.2940, 12119.58
348.7761, 12092.97
349.2582, 12090.25
349.7403, 12135.64
350.2225, 12192.77
350.7046, 12204.56
351.1867, 12176.06
351.6688, 12145.57
352.1509, 12141.77
352.6331, 12153.30
353.1152, 12163.40
353.5973, 12168.18
354.0794, 12171.00
354.5615, 12173.31
355.0436, 12175.78
355.5258, 12180.48
356.0079, 12196.71
356.4900, 12211.11
356.9721, 12210.24
357.4542, 12188.30
357.9363, 12163.74
358.4185, 12140.73
358.9006, 12122.75
359.3827, 12115.87
359.8648, 12144.23
360.3469, 12167.03
360.8290, 12152.19
361.3112, 12088.41
361.7933, 12051.05
362.2754, 12089.57
362.7575, 12156.92
363.2396, 12202.19
363.7217, 12198.02
364.2039, 12185.94
364.6860, 12169.90
365.1681, 12150.15
365.6502, 12146.59
366.1323, 12183.27
366.6144, 12223.58
367.0966, 12242.21
367.5787, 12209.24
368.0608, 12190.24
368.5429, 12197.73
369.0250, 12225.11
369.5071, 12237.34
369.9893, 12218.40
370.4714, 12202.86
370.9535, 12209.49
371.4356, 12253.63
371.9177, 12284.80
372.3998, 12300.00
372.8820, 12303.14
373.3641, 12299.45
373.8462, 12282.15
374.3283, 12275.91
374.8104, 12297.11
375.2925, 12350.23
375.7747, 12376.87
376.2568, 12369.83
376.7389, 12351.02
377.2210, 12350.31
377.7031, 12368.88
378.1852, 12388.73
378.6674, 12404.42
379.1495, 12417.01
379.6316, 12430.52
380.1137, 12444.52
380.5958, 12462.37
381.0779, 12486.47
381.5601, 12517.04
382.0422, 12555.17
382.5243, 12608.28
383.0064, 12660.80
383.4885, 12679.00
383.9706, 12667.80
384.4528, 12662.27
384.9349, 12691.22
385.4170, 12740.21
385.8991, 12787.92
386.3812, 12833.48
386.8633, 12871.37
387.3455, 12887.79
387.8276, 12892.20
388.3097, 12906.71
388.7918, 12953.13
389.2739, 13007.13
389.7560, 13049.71
390.2382, 13078.88
390.7203, 13102.74
391.2024, 13122.11
391.6845, 13139.66
392.1666, 13158.70
392.6487, 13163.41
393.1309, 13185.64
393.6130, 13255.18
394.0951, 13366.00
394.5772, 13446.03
395.0593, 13441.39
395.5414, 13422.77
396.0236, 13434.42
396.5057, 13513.04
396.9878, 13585.97
397.4699, 13644.42
397.9520, 13691.92
398.4341, 13738.96
398.9163, 13784.20
399.3984, 13830.33
399.8805, 13877.97
400.3626, 13926.31
400.8447, 13978.73
401.3268, 14036.59
401.8090, 14097.51
402.2911, 14159.91
402.7732, 14224.46
403.2553, 14286.84
403.7374, 14343.59
404.2195, 14395.51
404.7017, 14459.50
405.1838, 14539.97
405.6659, 14621.31
406.1480, 14681.15
406.6301, 14719.00
407.1122, 14786.98
407.5944, 14906.49
408.0765, 15049.45
408.5586, 15142.00
409.0407, 15185.44
409.5228, 15224.48
410.0049, 15289.19
410.4871, 15371.78
410.9692, 15453.70
411.4513, 15534.93
411.9334, 15608.71
412.4155, 15655.62
412.8976, 15688.15
413.3798, 15739.89
413.8619, 15854.35
414.3440, 15980.34
414.8261, 16062.81
415.3082, 16100.89
415.7903, 16128.23
416.2725, 16163.88
416.7546, 16202.53
417.2367, 16238.98
417.7188, 16269.42
418.2009, 16298.73
418.6830, 16335.19
419.1652, 16373.97
419.6473, 16395.92
420.1294, 16383.33
420.6115, 16360.85
421.0937, 16342.32
421.5758, 16335.69
422.0579, 16320.42
422.5400, 16285.61
423.0221, 16242.27
423.5042, 16207.77
423.9864, 16190.83
424.4685, 16173.93
424.9506, 16151.56
425.4327, 16123.11
425.9148, 16101.09
426.3969, 16086.06
426.8791, 16076.82
427.3612, 16073.86
427.8433, 16080.29
428.3254, 16083.77
428.8075, 16084.09
429.2896, 16079.69
429.7718, 16065.07
430.2539, 16039.64
430.7360, 16007.46
431.2181, 15958.79
431.7002, 15897.21
432.1823, 15881.04
432.6645, 15920.29
433.1466, 15981.44
433.6287, 16028.71
434.1108, 16060.86
434.5929, 16069.98
435.0750, 16031.79
435.5572, 15977.39
436.0393, 15971.29
436.5214, 16011.02
437.0035, 16043.70
437.4856, 16019.04
437.9677, 15964.12
438.4499, 15916.38
438.9320, 15887.53
439.4141, 15864.34
439.8962, 15837.34
440.3783, 15808.79
440.8604, 15783.70
441.3426, 15766.17
441.8247, 15751.67
442.3068, 15738.58
442.7889, 15727.48
443.2710, 15714.12
443.7531, 15691.65
444.2353, 15668.62
444.7174, 15654.06
445.1995, 15656.33
445.6816, 15659.69
446.1637, 15661.12
446.6458, 15660.97
447.1280, 15663.50
447.6101, 15668.68
448.0922, 15676.63
448.5743, 15689.75
449.0564, 15717.13
449.5385, 15723.00
450.0207, 15696.08
450.5028, 15656.76
450.9849, 15643.45
451.4670, 15658.83
451.9491, 15687.67
452.4312, 15730.52
452.9134, 15784.03
453.3955, 15826.92
453.8776, 15860.32
454.3597, 15874.63
454.8418, 15841.07
455.3239, 15774.74
455.8061, 15743.30
456.2882, 15774.14
456.7703, 15827.04
457.2524, 15845.82
457.7345, 15836.51
458.2166, 15823.97
458.6988, 15814.95
459.1809, 15814.52
459.6630, 15832.74
460.1451, 15873.66
460.6272, 15911.85
461.1093, 15932.44
461.5915, 15940.50
462.0736, 15941.84
462.5557, 15927.69
463.0378, 15917.66
463.5199, 15925.17
464.0020, 15946.75
464.4842, 15956.29
464.9663, 15939.09
465.4484, 15915.19
465.9305, 15895.19
466.4126, 15883.94
466.8947, 15868.42
467.3769, 15847.89
467.8590, 15823.52
468.3411, 15796.33
468.8232, 15764.21
469.3053, 15733.77
469.7874, 15707.49
470.2696, 15684.97
470.7517, 15657.74
471.2338, 15623.97
471.7159, 15591.33
472.1980, 15559.58
472.6801, 15529.37
473.1623, 15538.62
473.6444, 15609.81
474.1265, 15689.04
474.6086, 15677.51
475.0907, 15585.11
475.5728, 15475.93
476.0550, 15367.42
476.5371, 15269.03
477.0192, 15192.70
477.5013, 15138.12
477.9834, 15117.78
478.4655, 15189.15
478.9477, 15285.78
479.4298, 15317.83
479.9119, 15218.72
480.3940, 15100.04
480.8761, 15017.06
481.3582, 14960.27
481.8404, 14903.53
482.3225, 14829.80
482.8046, 14761.29
483.2867, 14709.43
483.7688, 14680.58
484.2509, 14649.57
484.7331, 14601.58
485.2152, 14557.29
485.6973, 14537.17
486.1794, 14563.09
486.6615, 14575.66
487.1436, 14564.68
487.6258, 14533.99
488.1079, 14499.99
488.5900, 14461.02
489.0721, 14423.92
489.5542, 14398.65
490.0363, 14385.44
490.5185, 14338.11
491.0006, 14244.08
491.4827, 14155.33
491.9648, 14156.26
492.4470, 14230.67
492.9291, 14291.00
493.4112, 14305.35
493.8933, 14290.19
494.3754, 14258.68
494.8575, 14214.33
495.3397, 14181.29
495.8218, 14181.60
496.3039, 14198.13
496.7860, 14213.95
497.2681, 14227.97
497.7502, 14236.26
498.2324, 14227.50
498.7145, 14214.43
499.1966, 14214.22
499.6787, 14245.08
500.1608, 14276.36
500.6429, 14297.24
501.1251, 14308.41
501.6072, 14324.13
502.0893, 14356.84
502.5714, 14384.38
503.0535, 14394.28
503.5356, 14372.47
504.0178, 14367.61
504.4999, 14386.67
504.9820, 14416.43
505.4641, 14438.21
505.9462, 14451.64
506.4283, 14458.93
506.9105, 14460.45
507.3926, 14456.29
507.8747, 14448.20
508.3568, 14436.40
508.8389, 14415.23
509.3210, 14365.87
509.8032, 14303.60
510.2853, 14274.79
510.7674, 14290.89
511.2495, 14316.14
511.7316, 14322.14
512.2137, 14309.73
512.6959, 14280.85
513.1780, 14222.13
513.6601, 14158.92
514.1422, 14103.24
514.6243, 14055.94
515.1064, 14021.25
515.5886, 14019.76
516.0707, 14018.00
516.5528, 13993.54
517.0349, 13927.35
517.5170, 13871.96
517.9991, 13832.55
518.4813, 13806.87
518.9634, 13794.39
519.4455, 13807.28
519.9276, 13811.97
520.4097, 13797.43
520.8918, 13768.17
521.3740, 13751.70
521.8561, 13748.71
522.3382, 13756.26
522.8203, 13779.19
523.3024, 13815.66
523.7845, 13832.66
524.2667, 13823.99
524.7488, 13812.91
525.2309, 13833.99
525.7130, 13878.06
526.1951, 13911.77
526.6772, 13912.44
527.1594, 13908.21
527.6415, 13938.04
528.1236, 13994.20
528.6057, 14043.55
529.0878, 14047.40
529.5699, 14049.76
530.0521, 14089.43
530.5342, 14182.25
531.0163, 14264.11
531.4984, 14302.21
531.9805, 14325.00
532.4626, 14362.96
532.9448, 14444.16
533.4269, 14511.19
533.9090, 14544.54
534.3911, 14557.63
534.8732, 14604.08
535.3553, 14702.68
535.8375, 14800.62
536.3196, 14869.80
536.8017, 14908.89
537.2838, 14966.91
537.7659, 15046.21
538.2480, 15138.63
538.7302, 15239.41
539.2123, 15347.94
539.6944, 15451.23
540.1765, 15540.31
540.6586, 15634.38
541.1407, 15769.57
541.6229, 15936.93
542.1050, 16106.05
542.5871, 16265.60
543.0692, 16416.59
543.5513, 16558.77
544.0334, 16690.95
544.5156, 16813.29
544.9977, 16917.55
545.4798, 17016.76
545.9619, 17119.45
546.4440, 17220.69
546.9261, 17335.36
547.4083, 17496.81
547.8904, 17667.04
548.3725, 17773.41
548.8546, 17780.23
549.3367, 17782.32
549.8188, 17798.52
550.3010, 17828.80
550.7831, 17878.37
551.2652, 17955.22
551.7473, 18024.93
552.2294, 18065.11
552.7115, 18076.61
553.1937, 18058.50
553.6758, 18004.95
554.1579, 17945.73
554.6400, 17926.25
555.1221, 17931.85
555.6042, 17920.48
556.0864, 17865.78
556.5685, 17798.89
557.0506, 17753.12
557.5327, 17721.87
558.0148, 17681.28
558.4969, 17621.24
558.9791, 17546.81
559.4612, 17452.52
559.9433, 17328.69
560.4254, 17235.07
560.9075, 17200.78
561.3896, 17191.79
561.8718, 17178.48
562.3539, 17171.97
562.8360, 17139.20
563.3181, 17059.99
563.8002, 16961.90
564.2823, 16914.87
564.7645, 16929.26
565.2466, 16949.94
565.7287, 16954.10
566.2108, 16946.64
566.6929, 16953.60
567.1750, 16975.49
567.6572, 16999.11
568.1393, 17007.70
568.6214, 17010.73
569.1035, 17027.21
569.5856, 17061.33
570.0677, 17104.62
570.5499, 17168.22
571.0320, 17233.01
571.5141, 17269.36
571.9962, 17249.94
572.4783, 17216.43
572.9604, 17175.97
573.4426, 17132.46
573.9247, 17103.22
574.4068, 17099.12
574.8889, 17103.24
575.3710, 17114.42
575.8531, 17139.24
576.3353, 17133.75
576.8174, 17084.80
577.2995, 17025.14
577.7816, 16981.62
578.2637, 16954.19
578.7458, 16951.64
579.2280, 16985.17
579.7101, 17025.91
580.1922, 17018.08
580.6743, 16968.46
581.1564, 16915.31
581.6385, 16875.93
582.1207, 16843.19
582.6028, 16806.22
583.0849, 16766.66
583.5670, 16734.73
584.0491, 16727.26
584.5313, 16723.03
585.0134, 16705.50
585.4955, 16670.15
585.9776, 16628.39
586.4597, 16573.79
586.9418, 16518.24
587.4240, 16476.50
587.9061, 16463.65
588.3882, 16440.32
588.8703, 16395.60
589.3524, 16339.52
589.8345, 16302.29
590.3167, 16287.06
590.7988, 16278.82
591.2809, 16273.63
591.7630, 16270.49
592.2451, 16262.69
592.7272, 16249.87
593.2094, 16240.59
593.6915, 16247.35
594.1736, 16261.60
594.6557, 16267.65
595.1378, 16262.96
595.6199, 16249.54
596.1021, 16206.60
596.5842, 16161.74
597.0663, 16154.36
597.5485, 16254.07
598.0306, 16333.76
598.5127, 16340.50
598.9948, 16290.19
599.4769, 16254.45
599.9590, 16260.72
600.4412, 16253.72
600.9233, 16207.10
601.4054, 16115.77
601.8875, 16065.85
602.3696, 16069.87
602.8517, 16085.49
603.3339, 16081.22
603.8160, 16057.54
604.2981, 16015.15
604.7802, 15950.45
605.2623, 15881.32
605.7444, 15838.30
606.2266, 15810.13
606.7087, 15767.66
607.1908, 15674.66
607.6729, 15588.64
608.1550, 15576.30
608.6371, 15612.29
609.1193, 15613.85
609.6014, 15505.10
610.0835, 15390.66
610.5656, 15326.61
611.0477, 15324.60
611.5298, 15307.29
612.0120, 15260.38
612.4941, 15209.30
612.9762, 15173.95
613.4583, 15164.07
613.9404, 15132.58
614.4225, 15070.79
614.9047, 14999.18
615.3868, 14944.47
615.8689, 14905.68
616.3510, 14876.15
616.8331, 14854.83
617.3152, 14840.49
617.7974, 14837.75
618.2795, 14842.09
618.7616, 14836.01
619.2437, 14786.72
619.7258, 14740.63
620.2079, 14740.89
620.6901, 14789.17
621.1722, 14827.46
621.6543, 14819.21
622.1364, 14805.96
622.6185, 14816.99
623.1006, 14874.08
623.5828, 14908.32
624.0649, 14899.60
624.5470, 14886.46
625.0291, 14922.41
625.5112, 15020.25
625.9933, 15096.97
626.4755, 15131.60
626.9576, 15144.27
627.4397, 15173.78
627.9218, 15218.80
628.4039, 15269.08
628.8860, 15322.88
629.3682, 15377.50
629.8503, 15429.21
630.3324, 15478.16
630.8145, 15524.13
631.2966, 15564.37
631.7787, 15602.85
632.2609, 15645.80
632.7430, 15700.09
633.2251, 15734.66
633.7072, 15723.01
634.1893, 15701.31
634.6714, 15701.72
635.1536, 15745.42
635.6357, 15763.52
636.1178, 15745.65
636.5999, 15705.58
637.0820, 15665.81
637.5641, 15626.46
638.0463, 15587.64
638.5284, 15546.10
639.0105, 15507.57
639.4926, 15492.64
639.9747, 15495.20
640.4568, 15480.72
640.9390, 15420.45
641.4211, 15338.25
641.9032, 15248.66
642.3853, 15153.17
642.8674, 15072.50
643.3495, 15024.96
643.8317, 14988.71
644.3138, 14948.12
644.7959, 14899.26
645.2780, 14851.14
645.7601, 14806.27
646.2422, 14760.16
646.7244, 14709.07
647.2065, 14655.66
647.6886, 14581.47
648.1707, 14473.15
