##NAMES=Arrojadite-(NaFe)
##RRUFFID=R070298
##IDEAL CHEMISTRY=Na_2_Fe^2+^(CaNa2)Fe^2+^_13_Al(PO_4_)_11_(PO_3_OH)(OH)_2_
##LOCALITY=Boundary Creek, Richardson Mountains, Dawson mining district, Yukon Territory, Canada
##OWNER=RRUFF
##SOURCE=Mark Mauthner
##DESCRIPTION=Dark bluish grey fragments
##STATUS=The identification of this mineral is confirmed by single-crystal X-ray diffraction and chemical analysis.
##URL=rruff.info/R070298
##MEASURED CHEMISTRY=(Na_1.80_K_0.20_)_Σ=2_Fe^2+^_1.00_(Ca_0.90_Na_2.10_)_Σ=3_(Fe^2+^_10.71_Mg_1.40_Mn_0.89_)_Σ=13_(Al_0.90_Ti_0.05_Fe^3+^_0.05_)_Σ=1_(P_1.00_O_4_)_11_(P_1.00_O_3_OH)((OH)_1.15_F_0.85_)_Σ=2_; (OH) by stoichiometry and charge balance
159.1066, 2122.953
159.5887, 2149.879
160.0709, 2189.824
160.5530, 2230.696
161.0351, 2253.610
161.5172, 2255.546
161.9993, 2248.825
162.4814, 2234.959
162.9636, 2218.741
163.4457, 2209.764
163.9278, 2216.438
164.4099, 2231.055
164.8920, 2238.899
165.3741, 2237.412
165.8563, 2236.283
166.3384, 2243.761
166.8205, 2255.538
167.3026, 2264.286
167.7847, 2265.917
168.2668, 2263.030
168.7490, 2262.216
169.2311, 2266.250
169.7132, 2265.732
170.1953, 2251.149
170.6774, 2229.777
171.1595, 2213.058
171.6417, 2207.328
172.1238, 2209.133
172.6059, 2210.207
173.0880, 2210.646
173.5701, 2210.043
174.0522, 2206.354
174.5344, 2201.952
175.0165, 2201.017
175.4986, 2207.985
175.9807, 2218.266
176.4628, 2218.494
176.9449, 2203.823
177.4271, 2187.497
177.9092, 2172.941
178.3913, 2160.502
178.8734, 2150.586
179.3555, 2142.970
179.8376, 2138.263
180.3197, 2139.163
180.8019, 2150.792
181.2840, 2158.835
181.7661, 2156.914
182.2482, 2150.009
182.7303, 2143.547
183.2124, 2139.412
183.6946, 2138.559
184.1767, 2144.800
184.6588, 2164.027
185.1409, 2180.003
185.6230, 2190.250
186.1051, 2194.848
186.5873, 2192.294
187.0694, 2180.584
187.5515, 2164.998
188.0336, 2160.332
188.5157, 2174.711
188.9978, 2186.397
189.4800, 2189.220
189.9621, 2187.960
190.4442, 2188.719
190.9263, 2194.623
191.4084, 2201.025
191.8905, 2194.986
192.3727, 2164.269
192.8548, 2143.050
193.3369, 2141.878
193.8190, 2148.943
194.3011, 2153.062
194.7832, 2149.785
195.2654, 2142.410
195.7475, 2138.108
196.2296, 2138.704
196.7117, 2139.044
197.1938, 2140.798
197.6759, 2140.854
198.1581, 2135.562
198.6402, 2123.827
199.1223, 2109.145
199.6044, 2097.627
200.0865, 2088.917
200.5686, 2084.667
201.0508, 2089.180
201.5329, 2094.760
202.0150, 2095.469
202.4971, 2089.692
202.9792, 2080.009
203.4613, 2069.734
203.9435, 2056.408
204.4256, 2048.466
204.9077, 2054.770
205.3898, 2059.931
205.8719, 2051.128
206.3540, 2026.923
206.8362, 1997.964
207.3183, 1978.893
207.8004, 1974.082
208.2825, 1968.759
208.7646, 1967.999
209.2467, 1962.933
209.7289, 1944.685
210.2110, 1914.394
210.6931, 1882.912
211.1752, 1862.926
211.6573, 1856.940
212.1395, 1854.082
212.6216, 1856.832
213.1037, 1860.357
213.5858, 1864.548
214.0679, 1867.976
214.5500, 1867.127
215.0322, 1857.535
215.5143, 1837.501
215.9964, 1820.140
216.4785, 1804.799
216.9606, 1792.592
217.4427, 1787.209
217.9249, 1785.946
218.4070, 1781.434
218.8891, 1766.090
219.3712, 1739.363
219.8533, 1721.873
220.3354, 1722.059
220.8176, 1723.841
221.2997, 1723.584
221.7818, 1721.630
222.2639, 1720.142
222.7460, 1721.376
223.2281, 1724.436
223.7103, 1719.485
224.1924, 1694.625
224.6745, 1674.416
225.1566, 1666.060
225.6387, 1665.081
226.1208, 1664.375
226.6030, 1659.730
227.0851, 1652.632
227.5672, 1649.534
228.0493, 1654.700
228.5314, 1658.256
229.0135, 1657.005
229.4957, 1653.905
229.9778, 1652.578
230.4599, 1654.703
230.9420, 1658.754
231.4241, 1660.794
231.9062, 1658.746
232.3884, 1658.279
232.8705, 1659.723
233.3526, 1662.979
233.8347, 1669.536
234.3168, 1679.594
234.7989, 1689.088
235.2811, 1690.365
235.7632, 1679.590
236.2453, 1669.470
236.7274, 1658.883
237.2095, 1650.615
237.6916, 1646.928
238.1738, 1648.087
238.6559, 1652.121
239.1380, 1658.092
239.6201, 1668.322
240.1022, 1671.658
240.5843, 1661.367
241.0665, 1649.306
241.5486, 1640.592
242.0307, 1635.577
242.5128, 1632.071
242.9949, 1627.621
243.4770, 1621.913
243.9592, 1619.087
244.4413, 1622.553
244.9234, 1625.807
245.4055, 1627.910
245.8876, 1627.963
246.3697, 1624.081
246.8519, 1613.138
247.3340, 1596.403
247.8161, 1585.877
248.2982, 1583.343
248.7803, 1585.382
249.2624, 1595.648
249.7446, 1608.408
250.2267, 1613.793
250.7088, 1604.603
251.1909, 1586.764
251.6730, 1577.576
252.1551, 1580.236
252.6373, 1585.400
253.1194, 1596.070
253.6015, 1605.021
254.0836, 1600.798
254.5657, 1576.228
255.0478, 1548.782
255.5300, 1551.800
256.0121, 1596.728
256.4942, 1628.486
256.9763, 1620.407
257.4584, 1599.161
257.9406, 1582.204
258.4227, 1573.172
258.9048, 1567.199
259.3869, 1558.746
259.8690, 1547.575
260.3511, 1539.095
260.8333, 1533.041
261.3154, 1531.566
261.7975, 1536.518
262.2796, 1547.738
262.7617, 1562.047
263.2438, 1581.436
263.7260, 1603.696
264.2081, 1614.564
264.6902, 1607.114
265.1723, 1596.199
265.6544, 1592.297
266.1365, 1593.982
266.6187, 1596.891
267.1008, 1601.156
267.5829, 1604.861
268.0650, 1602.269
268.5471, 1590.712
269.0292, 1581.167
269.5114, 1586.864
269.9935, 1599.370
270.4756, 1603.623
270.9577, 1589.929
271.4398, 1571.171
271.9219, 1561.128
272.4041, 1559.930
272.8862, 1563.390
273.3683, 1572.495
273.8504, 1583.650
274.3325, 1589.707
274.8146, 1587.763
275.2968, 1585.407
275.7789, 1589.106
276.2610, 1597.099
276.7431, 1602.114
277.2252, 1601.374
277.7073, 1596.678
278.1895, 1590.493
278.6716, 1582.317
279.1537, 1575.234
279.6358, 1572.123
280.1179, 1570.444
280.6000, 1564.855
281.0822, 1553.560
281.5643, 1542.095
282.0464, 1538.184
282.5285, 1542.717
283.0106, 1543.620
283.4927, 1533.148
283.9749, 1522.541
284.4570, 1525.338
284.9391, 1541.362
285.4212, 1555.037
285.9033, 1552.493
286.3854, 1533.945
286.8676, 1522.361
287.3497, 1524.826
287.8318, 1526.707
288.3139, 1519.042
288.7960, 1504.816
289.2781, 1492.457
289.7603, 1486.565
290.2424, 1486.146
290.7245, 1487.355
291.2066, 1493.590
291.6887, 1497.172
292.1708, 1496.773
292.6530, 1493.153
293.1351, 1486.400
293.6172, 1476.635
294.0993, 1465.874
294.5814, 1457.729
295.0635, 1453.280
295.5457, 1449.690
296.0278, 1445.762
296.5099, 1443.475
296.9920, 1445.704
297.4741, 1451.864
297.9562, 1457.935
298.4384, 1460.333
298.9205, 1459.470
299.4026, 1451.587
299.8847, 1422.794
300.3668, 1401.022
300.8489, 1400.012
301.3311, 1413.602
301.8131, 1428.299
302.2953, 1435.830
302.7774, 1436.672
303.2595, 1432.764
303.7416, 1419.432
304.2237, 1408.157
304.7058, 1402.556
305.1880, 1399.447
305.6701, 1394.600
306.1522, 1386.322
306.6343, 1378.459
307.1164, 1379.157
307.5985, 1392.313
308.0807, 1399.449
308.5628, 1393.087
309.0449, 1382.462
309.5270, 1370.455
310.0091, 1358.171
310.4912, 1349.618
310.9734, 1351.559
311.4555, 1362.527
311.9376, 1365.003
312.4197, 1350.542
312.9018, 1338.043
313.3839, 1341.379
313.8661, 1355.761
314.3482, 1368.950
314.8303, 1378.569
315.3124, 1382.272
315.7945, 1372.132
316.2766, 1345.078
316.7588, 1322.321
317.2409, 1317.870
317.7230, 1324.540
318.2051, 1331.201
318.6872, 1338.826
319.1693, 1342.274
319.6515, 1333.574
320.1336, 1316.018
320.6157, 1304.790
321.0978, 1306.438
321.5799, 1314.489
322.0620, 1319.215
322.5442, 1320.595
323.0263, 1320.378
323.5084, 1319.145
323.9905, 1316.551
324.4726, 1311.232
324.9547, 1302.967
325.4369, 1295.028
325.9190, 1290.228
326.4011, 1288.898
326.8832, 1290.449
327.3653, 1298.132
327.8474, 1305.612
328.3296, 1308.969
328.8117, 1309.060
329.2938, 1309.572
329.7759, 1313.196
330.2580, 1318.024
330.7401, 1315.253
331.2223, 1293.940
331.7044, 1278.556
332.1865, 1273.747
332.6686, 1275.085
333.1507, 1279.981
333.6328, 1286.976
334.1150, 1291.860
334.5971, 1287.019
335.0792, 1265.548
335.5613, 1253.346
336.0434, 1254.651
336.5255, 1260.256
337.0077, 1267.437
337.4898, 1274.996
337.9719, 1281.680
338.4540, 1286.441
338.9361, 1289.401
339.4182, 1291.659
339.9004, 1293.193
340.3825, 1293.943
340.8646, 1293.572
341.3467, 1292.637
341.8288, 1292.248
342.3109, 1293.130
342.7931, 1293.231
343.2752, 1287.736
343.7573, 1275.137
344.2394, 1267.958
344.7215, 1274.666
345.2036, 1283.556
345.6858, 1285.017
346.1679, 1278.687
346.6500, 1270.974
347.1321, 1262.840
347.6142, 1256.427
348.0963, 1259.669
348.5785, 1276.421
349.0606, 1293.308
349.5427, 1299.072
350.0248, 1296.429
350.5069, 1292.695
350.9890, 1285.522
351.4712, 1280.563
351.9533, 1286.423
352.4354, 1300.298
352.9175, 1306.466
353.3996, 1295.307
353.8817, 1274.442
354.3639, 1264.016
354.8460, 1266.011
355.3281, 1271.344
355.8102, 1280.815
356.2923, 1291.337
356.7744, 1299.912
357.2566, 1305.752
357.7387, 1307.683
358.2208, 1303.336
358.7029, 1290.211
359.1850, 1285.263
359.6671, 1298.721
360.1493, 1309.010
360.6314, 1302.176
361.1135, 1284.736
361.5956, 1272.411
362.0777, 1274.976
362.5598, 1287.562
363.0420, 1291.872
363.5241, 1279.568
364.0062, 1272.347
364.4883, 1277.222
364.9704, 1284.872
365.4525, 1286.730
365.9347, 1281.320
366.4168, 1274.568
366.8989, 1274.543
367.3810, 1281.975
367.8631, 1283.304
368.3452, 1271.837
368.8274, 1261.571
369.3095, 1260.208
369.7916, 1265.382
370.2737, 1271.264
370.7558, 1275.343
371.2379, 1278.399
371.7201, 1281.482
372.2022, 1284.528
372.6843, 1287.930
373.1664, 1290.032
373.6485, 1293.939
374.1306, 1306.187
374.6128, 1331.291
375.0949, 1349.134
375.5770, 1340.899
376.0591, 1319.336
376.5412, 1311.934
377.0233, 1325.569
377.5055, 1343.186
377.9876, 1346.078
378.4697, 1332.204
378.9518, 1327.543
379.4339, 1339.736
379.9160, 1354.614
380.3982, 1363.528
380.8803, 1368.055
381.3624, 1374.126
381.8445, 1385.223
382.3266, 1399.093
382.8087, 1409.046
383.2909, 1410.838
383.7730, 1413.962
384.2551, 1419.590
384.7372, 1425.971
385.2193, 1430.163
385.7014, 1432.606
386.1836, 1438.262
386.6657, 1454.201
387.1478, 1481.339
387.6299, 1499.474
388.1120, 1496.592
388.5941, 1498.693
389.0763, 1518.381
389.5584, 1547.406
390.0405, 1572.557
390.5226, 1588.286
391.0047, 1598.218
391.4868, 1606.933
391.9690, 1613.972
392.4511, 1623.901
392.9332, 1638.639
393.4153, 1656.263
393.8974, 1674.907
394.3795, 1694.585
394.8617, 1714.739
395.3438, 1734.832
395.8259, 1755.292
396.3080, 1778.866
396.7901, 1806.162
397.2722, 1828.287
397.7544, 1835.598
398.2365, 1832.301
398.7186, 1841.000
399.2007, 1875.013
399.6828, 1905.738
400.1649, 1917.873
400.6471, 1920.398
401.1292, 1926.943
401.6113, 1942.042
402.0934, 1959.652
402.5755, 1977.769
403.0576, 1992.132
403.5398, 2002.947
404.0219, 1999.571
404.5040, 2014.517
404.9861, 2022.120
405.4682, 2029.422
405.9503, 2046.946
406.4325, 2045.636
406.9146, 2062.999
407.3967, 2072.906
407.8788, 2086.226
408.3609, 2092.158
408.8430, 2103.208
409.3252, 2110.809
409.8073, 2112.856
410.2894, 2110.087
410.7715, 2108.755
411.2536, 2116.361
411.7357, 2130.697
412.2179, 2139.133
412.7000, 2137.981
413.1821, 2137.790
413.6642, 2149.127
414.1463, 2166.436
414.6284, 2178.447
415.1106, 2182.107
415.5927, 2181.196
416.0748, 2172.241
416.5569, 2160.192
417.0390, 2164.113
417.5211, 2193.692
418.0033, 2229.538
418.4854, 2241.211
418.9675, 2218.696
419.4496, 2205.341
419.9317, 2207.521
420.4138, 2215.271
420.8960, 2222.236
421.3781, 2228.706
421.8602, 2238.928
422.3423, 2256.586
422.8244, 2278.209
423.3065, 2288.407
423.7887, 2278.128
424.2708, 2270.175
424.7529, 2266.615
425.2350, 2266.281
425.7171, 2270.555
426.1992, 2278.421
426.6814, 2283.693
427.1635, 2276.338
427.6456, 2258.264
428.1277, 2255.575
428.6098, 2279.213
429.0919, 2297.124
429.5741, 2288.115
430.0562, 2264.335
430.5383, 2242.137
431.0204, 2223.524
431.5025, 2211.188
431.9846, 2211.064
432.4668, 2219.711
432.9489, 2225.046
433.4310, 2224.050
433.9131, 2218.751
434.3952, 2211.371
434.8773, 2201.947
435.3595, 2189.124
435.8416, 2165.999
436.3237, 2145.633
436.8058, 2137.413
437.2879, 2138.552
437.7701, 2141.895
438.2522, 2144.110
438.7343, 2144.135
439.2164, 2138.959
439.6985, 2124.583
440.1806, 2112.035
440.6628, 2100.986
441.1449, 2091.932
441.6270, 2082.674
442.1091, 2075.092
442.5912, 2076.107
443.0733, 2095.515
443.5555, 2125.815
444.0376, 2136.067
444.5197, 2119.596
445.0018, 2101.736
445.4839, 2091.114
445.9660, 2084.283
446.4482, 2079.961
446.9303, 2078.993
447.4124, 2072.713
447.8945, 2050.471
448.3766, 2020.168
448.8587, 1996.792
449.3409, 1981.993
449.8230, 1978.637
450.3051, 1995.719
450.7872, 2028.594
451.2693, 2033.791
451.7514, 1983.664
452.2336, 1940.269
452.7157, 1932.706
453.1978, 1940.981
453.6799, 1935.792
454.1620, 1909.133
454.6441, 1875.479
455.1263, 1852.962
455.6084, 1842.683
456.0905, 1837.413
456.5726, 1841.803
457.0547, 1846.710
457.5368, 1852.549
458.0190, 1856.331
458.5011, 1853.035
458.9832, 1839.864
459.4653, 1822.157
459.9474, 1806.878
460.4295, 1794.108
460.9117, 1782.138
461.3938, 1770.622
461.8759, 1759.899
462.3580, 1749.380
462.8401, 1739.444
463.3222, 1732.567
463.8044, 1731.700
464.2865, 1732.339
464.7686, 1730.906
465.2507, 1727.558
465.7328, 1722.676
466.2149, 1715.938
466.6971, 1709.553
467.1792, 1708.425
467.6613, 1718.683
468.1434, 1720.880
468.6255, 1711.574
469.1076, 1697.399
469.5898, 1677.652
470.0719, 1656.400
470.5540, 1643.674
471.0361, 1646.973
471.5182, 1659.641
472.0003, 1661.238
472.4825, 1646.699
472.9646, 1634.875
473.4467, 1631.584
473.9288, 1631.076
474.4109, 1630.822
474.8930, 1630.322
475.3752, 1628.348
475.8573, 1624.264
476.3394, 1618.246
476.8215, 1610.427
477.3036, 1600.818
477.7857, 1589.389
478.2679, 1574.717
478.7500, 1559.391
479.2321, 1550.088
479.7142, 1548.833
480.1963, 1547.512
480.6784, 1548.700
481.1606, 1546.412
481.6427, 1530.771
482.1248, 1504.361
482.6069, 1482.526
483.0890, 1477.510
483.5711, 1485.668
484.0533, 1486.562
484.5354, 1476.606
485.0175, 1464.864
485.4996, 1451.286
485.9817, 1437.647
486.4638, 1427.209
486.9460, 1419.332
487.4281, 1407.811
487.9102, 1385.868
488.3923, 1356.634
488.8744, 1328.327
489.3565, 1300.316
489.8387, 1277.609
490.3208, 1263.847
490.8029, 1256.886
491.2850, 1252.339
491.7671, 1252.442
492.2492, 1248.522
492.7314, 1233.781
493.2135, 1215.700
493.6956, 1202.306
494.1777, 1194.524
494.6598, 1190.064
495.1419, 1187.752
495.6241, 1186.914
496.1062, 1183.229
496.5883, 1179.122
497.0704, 1168.205
497.5525, 1141.128
498.0346, 1113.276
498.5168, 1098.170
498.9989, 1096.645
499.4810, 1099.527
499.9631, 1100.881
500.4452, 1100.536
500.9273, 1097.473
501.4095, 1091.183
501.8916, 1084.242
502.3737, 1077.285
502.8558, 1070.570
503.3379, 1065.320
503.8200, 1062.800
504.3022, 1056.507
504.7843, 1037.793
505.2664, 1017.599
505.7485, 1010.968
506.2306, 1017.356
506.7127, 1024.387
507.1949, 1024.114
507.6770, 1017.454
508.1591, 1001.012
508.6412, 1003.469
509.1233, 1002.174
509.6054, 997.3262
510.0876, 978.2896
510.5697, 977.5753
511.0518, 969.5189
511.5339, 961.1611
512.0161, 963.0243
512.4982, 946.0522
512.9803, 947.7552
513.4624, 942.0031
513.9445, 939.6626
514.4266, 929.9351
514.9088, 941.3450
515.3909, 937.1757
515.8730, 913.9896
516.3551, 898.0347
516.8372, 902.7275
517.3193, 914.0170
517.8015, 920.1984
518.2836, 921.0646
518.7657, 919.6085
519.2478, 917.1993
519.7299, 914.3604
520.2120, 911.9351
520.6942, 906.4805
521.1763, 908.3588
521.6584, 924.7386
522.1405, 940.8357
522.6226, 947.4286
523.1047, 947.1634
523.5869, 947.5856
524.0690, 951.9707
524.5511, 960.5697
525.0332, 977.9830
525.5153, 1004.083
525.9974, 1016.165
526.4796, 1000.511
526.9617, 982.8245
527.4438, 996.0135
527.9259, 1035.765
528.4080, 1064.864
528.8901, 1071.089
529.3723, 1072.293
529.8544, 1075.189
530.3365, 1081.451
530.8186, 1094.503
531.3007, 1115.408
531.7828, 1139.697
532.2650, 1161.600
532.7471, 1181.223
533.2292, 1198.222
533.7113, 1209.996
534.1934, 1222.149
534.6755, 1233.148
535.1577, 1246.738
535.6398, 1269.287
536.1219, 1303.440
536.6040, 1339.647
537.0861, 1370.413
537.5682, 1396.092
538.0504, 1415.385
538.5325, 1426.735
539.0146, 1441.677
539.4967, 1469.111
539.9788, 1506.786
540.4609, 1542.502
540.9431, 1576.727
541.4252, 1609.068
541.9073, 1640.131
542.3894, 1668.813
542.8715, 1691.100
543.3536, 1708.879
543.8358, 1731.802
544.3179, 1769.232
544.8000, 1816.427
545.2821, 1852.300
545.7642, 1874.113
546.2463, 1892.035
546.7285, 1908.965
547.2106, 1922.257
547.6927, 1930.667
548.1748, 1933.916
548.6569, 1930.451
549.1390, 1915.551
549.6211, 1896.404
550.1032, 1881.010
550.5853, 1868.518
551.0674, 1854.547
551.5496, 1837.008
552.0317, 1818.332
552.5138, 1803.150
552.9959, 1795.201
553.4780, 1777.533
553.9601, 1734.649
554.4423, 1699.913
554.9244, 1695.741
555.4065, 1705.743
555.8886, 1702.930
556.3707, 1677.150
556.8528, 1643.124
557.3350, 1615.467
557.8171, 1594.375
558.2992, 1584.131
558.7813, 1589.765
559.2634, 1591.293
559.7455, 1571.656
560.2277, 1538.125
560.7098, 1514.810
561.1919, 1504.377
561.6740, 1499.659
562.1561, 1502.545
562.6382, 1507.544
563.1204, 1507.834
563.6025, 1503.658
564.0846, 1501.250
564.5667, 1505.821
565.0488, 1514.497
565.5309, 1514.838
566.0131, 1501.260
566.4952, 1493.458
566.9773, 1497.745
567.4594, 1506.689
567.9415, 1518.264
568.4236, 1531.098
568.9058, 1540.561
569.3879, 1544.533
569.8700, 1544.484
570.3521, 1537.685
570.8342, 1527.635
571.3163, 1528.288
571.7985, 1544.749
572.2806, 1564.422
572.7627, 1571.408
573.2448, 1563.748
573.7269, 1562.202
574.2090, 1570.293
574.6912, 1579.953
575.1733, 1592.328
575.6554, 1603.581
576.1375, 1608.334
576.6196, 1605.969
577.1017, 1603.154
577.5839, 1606.232
578.0660, 1613.699
578.5481, 1620.478
579.0302, 1626.349
579.5123, 1633.146
579.9944, 1643.310
580.4766, 1653.444
580.9587, 1655.709
581.4408, 1647.956
581.9229, 1643.013
582.4050, 1648.335
582.8871, 1651.843
583.3693, 1641.690
583.8514, 1623.810
584.3335, 1611.416
584.8156, 1610.638
585.2977, 1617.514
585.7798, 1627.800
586.2620, 1642.218
586.7441, 1650.281
587.2262, 1646.217
587.7083, 1644.594
588.1904, 1660.481
588.6725, 1682.485
589.1547, 1690.807
589.6368, 1678.568
590.1189, 1663.994
590.6010, 1652.956
591.0831, 1646.061
591.5652, 1644.790
592.0474, 1648.763
592.5295, 1656.495
593.0116, 1667.729
593.4937, 1679.875
593.9758, 1684.805
594.4579, 1680.243
594.9401, 1673.824
595.4222, 1659.346
595.9043, 1649.483
596.3864, 1655.420
596.8685, 1671.033
597.3506, 1680.220
597.8328, 1674.604
598.3149, 1665.476
598.7970, 1664.264
599.2791, 1667.389
599.7612, 1665.335
600.2433, 1656.247
600.7255, 1643.986
601.2076, 1630.938
601.6897, 1617.678
602.1718, 1608.927
602.6539, 1608.418
603.1360, 1607.502
603.6182, 1607.600
604.1003, 1605.451
604.5824, 1596.976
605.0645, 1583.570
605.5466, 1571.307
606.0287, 1563.819
606.5109, 1559.068
606.9930, 1556.309
607.4751, 1554.546
607.9572, 1543.557
608.4393, 1517.884
608.9214, 1494.222
609.4036, 1492.918
609.8857, 1514.051
610.3678, 1515.048
610.8499, 1475.827
611.3320, 1443.937
611.8141, 1435.853
612.2963, 1436.830
612.7784, 1434.413
613.2605, 1425.717
613.7426, 1410.888
614.2247, 1386.120
614.7068, 1358.534
615.1890, 1350.579
615.6711, 1363.645
616.1532, 1363.278
616.6353, 1334.491
617.1174, 1297.879
617.5995, 1275.171
618.0817, 1266.678
618.5638, 1263.889
619.0459, 1270.032
619.5280, 1277.727
620.0101, 1284.658
620.4922, 1291.288
620.9744, 1301.402
621.4565, 1313.864
621.9386, 1318.009
622.4207, 1299.409
622.9028, 1266.872
623.3849, 1258.406
623.8671, 1278.911
624.3492, 1294.023
624.8313, 1287.841
625.3134, 1278.275
625.7955, 1289.120
626.2776, 1319.022
626.7598, 1345.202
627.2419, 1359.849
627.7240, 1375.080
628.2061, 1398.338
628.6882, 1425.343
629.1703, 1449.799
629.6525, 1470.105
630.1346, 1487.867
630.6167, 1503.123
631.0988, 1517.401
631.5809, 1541.042
632.0630, 1577.566
632.5452, 1609.774
633.0273, 1629.620
633.5094, 1645.860
633.9915, 1668.183
634.4736, 1696.229
634.9557, 1725.317
635.4379, 1753.051
635.9200, 1782.872
636.4021, 1825.603
636.8842, 1868.375
637.3663, 1888.676
637.8484, 1882.720
638.3306, 1867.573
638.8127, 1858.391
639.2948, 1855.117
639.7769, 1861.116
640.2590, 1883.451
640.7411, 1889.129
641.2233, 1857.986
641.7054, 1816.489
642.1875, 1795.819
642.6696, 1793.503
643.1517, 1778.030
643.6339, 1735.973
644.1160, 1686.581
644.5981, 1636.607
645.0802, 1587.596
645.5623, 1539.929
646.0444, 1494.651
646.5266, 1457.778
647.0087, 1438.757
647.4908, 1430.856
647.9729, 1398.375
648.4550, 1333.469
