##NAMES=Arsenopyrite
##RRUFFID=R050071
##IDEAL CHEMISTRY=Fe^3+^(AsS)^3-^
##LOCALITY=Yaogangxian mine, Yizhang County, Hunan Province, China
##OWNER=RRUFF
##SOURCE=Rock Currier
##DESCRIPTION=Steel-gray tabular
##STATUS=The identification of this mineral has been confirmed by X-ray diffraction and chemical analysis
##URL=rruff.info/R050071
##MEASURED CHEMISTRY=FeAsS
115.4565, 2509.644
115.9386, 2470.538
116.4207, 2434.753
116.9028, 2401.352
117.3850, 2374.629
117.8671, 2362.104
118.3492, 2356.875
118.8313, 2342.522
119.3134, 2309.608
119.7955, 2273.358
120.2777, 2250.504
120.7598, 2241.096
121.2419, 2242.117
121.7240, 2256.034
122.2061, 2283.756
122.6882, 2307.023
123.1704, 2315.470
123.6525, 2318.326
124.1346, 2324.211
124.6167, 2337.874
125.0988, 2349.001
125.5809, 2333.148
126.0631, 2264.269
126.5452, 2216.917
127.0273, 2222.254
127.5094, 2253.459
127.9915, 2278.330
128.4736, 2276.307
128.9558, 2250.236
129.4379, 2233.699
129.9200, 2247.842
130.4021, 2252.220
130.8842, 2233.206
131.3663, 2195.061
131.8485, 2149.864
132.3306, 2107.279
132.8127, 2064.268
133.2948, 2039.866
133.7769, 2053.071
134.2590, 2067.086
134.7412, 2058.534
135.2233, 2023.675
135.7054, 1974.790
136.1875, 1927.486
136.6696, 1873.990
137.1517, 1841.161
137.6339, 1855.307
138.1160, 1884.016
138.5981, 1880.155
139.0802, 1822.457
139.5623, 1739.699
140.0444, 1697.491
140.5266, 1708.141
141.0087, 1718.408
141.4908, 1704.433
141.9729, 1670.754
142.4550, 1634.814
142.9371, 1597.427
143.4193, 1567.902
143.9014, 1561.113
144.3835, 1590.327
144.8656, 1626.651
145.3477, 1643.698
145.8299, 1640.393
146.3120, 1624.031
146.7941, 1586.521
147.2762, 1540.956
147.7583, 1501.340
148.2404, 1470.419
148.7226, 1449.982
149.2047, 1447.332
149.6868, 1475.617
150.1689, 1500.952
150.6510, 1509.483
151.1331, 1505.482
151.6153, 1495.915
152.0974, 1417.185
152.5795, 1489.368
153.0616, 1528.173
153.5437, 1535.392
154.0258, 1416.428
154.5080, 1460.404
154.9901, 1439.081
155.4722, 1415.080
155.9543, 1481.990
156.4364, 1381.379
156.9185, 1446.847
157.4007, 1446.018
157.8828, 1475.532
158.3649, 1439.344
158.8470, 1423.448
159.3291, 1473.277
159.8112, 1486.714
160.2934, 1442.961
160.7755, 1474.404
161.2576, 1371.498
161.7397, 1386.485
162.2218, 1452.337
162.7039, 1411.889
163.1861, 1444.532
163.6682, 1449.338
164.1503, 1327.634
164.6324, 1425.945
165.1145, 1429.106
165.5966, 1412.404
166.0788, 1454.405
166.5609, 1485.668
167.0430, 1506.015
167.5251, 1515.803
168.0072, 1510.450
168.4893, 1501.265
168.9715, 1492.677
169.4536, 1484.581
169.9357, 1476.314
170.4178, 1468.129
170.8999, 1459.271
171.3820, 1447.980
171.8642, 1440.145
172.3463, 1426.236
172.8284, 1389.493
173.3105, 1325.694
173.7926, 1271.205
174.2747, 1265.064
174.7569, 1286.556
175.2390, 1299.367
175.7211, 1288.610
176.2032, 1262.891
176.6853, 1237.461
177.1674, 1210.091
177.6496, 1188.289
178.1317, 1176.866
178.6138, 1173.686
179.0959, 1174.339
179.5780, 1178.261
180.0602, 1184.748
180.5423, 1189.481
181.0244, 1194.551
181.5065, 1194.682
181.9886, 1178.991
182.4707, 1153.630
182.9529, 1139.089
183.4350, 1166.245
183.9171, 1243.822
184.3992, 1279.620
184.8813, 1225.212
185.3634, 1160.681
185.8456, 1111.730
186.3277, 1083.206
186.8098, 1071.960
187.2919, 1078.970
187.7740, 1115.728
188.2561, 1137.181
188.7383, 1129.888
189.2204, 1117.771
189.7025, 1113.986
190.1846, 1121.882
190.6667, 1137.417
191.1488, 1155.328
191.6310, 1182.847
192.1131, 1199.292
192.5952, 1198.263
193.0773, 1190.569
193.5594, 1186.758
194.0415, 1190.348
194.5237, 1195.039
195.0058, 1186.483
195.4879, 1137.641
195.9700, 1106.981
196.4521, 1108.215
196.9342, 1124.220
197.4164, 1136.443
197.8985, 1088.103
198.3806, 1140.704
198.8627, 1166.951
199.3448, 1168.268
199.8270, 1069.530
200.3091, 1100.340
200.7912, 1079.447
201.2733, 1056.579
201.7554, 1106.057
202.2375, 1022.655
202.7197, 1071.291
203.2018, 1067.433
203.6839, 1087.822
204.1660, 1056.188
204.6481, 1040.821
205.1302, 1077.798
205.6124, 1086.027
206.0945, 1048.994
206.5766, 1071.827
207.0587, 988.1226
207.5408, 998.1914
208.0229, 1048.805
208.5051, 1015.155
208.9872, 1039.702
209.4693, 1042.294
209.9514, 944.5746
210.4335, 1021.724
210.9156, 1023.466
211.3978, 947.7759
211.8799, 1019.395
212.3620, 954.7053
212.8441, 938.8758
213.3262, 959.8542
213.8083, 942.7721
214.2905, 986.0878
214.7726, 971.5164
215.2547, 951.9115
215.7368, 955.0886
216.2189, 894.2910
216.7010, 952.6134
217.1832, 929.8222
217.6653, 947.5785
218.1474, 974.6429
218.6295, 929.0033
219.1116, 915.7651
219.5937, 893.9267
220.0759, 854.5619
220.5580, 828.8188
221.0401, 849.9750
221.5222, 899.0318
222.0043, 937.4229
222.4864, 943.0433
222.9686, 923.9196
223.4507, 903.9941
223.9328, 882.4794
224.4149, 861.7341
224.8970, 842.6116
225.3791, 825.0774
225.8613, 809.0721
226.3434, 792.0878
226.8255, 775.6350
227.3076, 770.0949
227.7897, 784.9675
228.2719, 798.9346
228.7540, 797.6277
229.2361, 786.3353
229.7182, 779.1766
230.2003, 789.8656
230.6824, 816.9980
231.1646, 834.7213
231.6467, 835.9594
232.1288, 834.2639
232.6109, 837.4869
233.0930, 843.3863
233.5751, 844.6271
234.0573, 831.3105
234.5394, 802.5900
235.0215, 786.6126
235.5036, 797.0808
235.9857, 808.8444
236.4678, 812.7964
236.9500, 809.5270
237.4321, 803.8071
237.9142, 798.2452
238.3963, 792.1277
238.8784, 793.0369
239.3605, 813.9648
239.8427, 831.1827
240.3248, 835.9039
240.8069, 828.4821
241.2890, 813.5809
241.7711, 792.6136
242.2532, 762.3387
242.7354, 745.7946
243.2175, 753.0941
243.6996, 765.2780
244.1817, 779.5392
244.6638, 792.9388
245.1459, 799.6681
245.6281, 790.0653
246.1102, 756.3086
246.5923, 745.3635
247.0744, 775.8463
247.5565, 811.4391
248.0386, 841.2020
248.5208, 861.8203
249.0029, 871.7111
249.4850, 867.9274
249.9671, 847.0383
250.4492, 826.6895
250.9313, 797.8998
251.4135, 777.0498
251.8956, 779.5560
252.3777, 801.2012
252.8598, 820.8780
253.3419, 813.0421
253.8240, 765.1140
254.3062, 743.4610
254.7883, 769.2728
255.2704, 798.5545
255.7525, 808.4373
256.2346, 798.7141
256.7167, 783.7532
257.1989, 778.7361
257.6810, 786.9005
258.1631, 791.6426
258.6452, 787.9445
259.1273, 785.7308
259.6094, 793.9457
260.0916, 810.5295
260.5737, 823.7997
261.0558, 820.1065
261.5379, 792.4664
262.0200, 779.0801
262.5021, 787.1168
262.9843, 799.8488
263.4664, 809.0807
263.9485, 814.3512
264.4306, 819.9154
264.9127, 831.1915
265.3948, 852.0296
265.8770, 857.8784
266.3591, 832.2314
266.8412, 808.8291
267.3233, 808.4160
267.8054, 828.8029
268.2875, 852.5385
268.7697, 862.1324
269.2518, 853.1155
269.7339, 857.9282
270.2160, 899.2093
270.6981, 931.6136
271.1802, 926.2760
271.6624, 888.2068
272.1445, 843.9636
272.6266, 815.8821
273.1087, 804.6334
273.5908, 806.6415
274.0729, 831.8124
274.5551, 858.0354
275.0372, 881.0606
275.5193, 897.1790
276.0014, 896.7300
276.4835, 867.1830
276.9656, 803.3586
277.4478, 782.2733
277.9299, 842.1680
278.4120, 897.8453
278.8941, 906.6642
279.3762, 878.2172
279.8583, 849.1708
280.3405, 848.0806
280.8226, 875.5718
281.3047, 894.6881
281.7868, 896.9398
282.2689, 901.0495
282.7510, 920.0801
283.2332, 947.3713
283.7153, 964.0227
284.1974, 954.5166
284.6795, 921.0054
285.1616, 910.7631
285.6437, 941.9426
286.1259, 973.5851
286.6080, 993.7567
287.0901, 1004.929
287.5722, 1012.880
288.0543, 1020.634
288.5364, 1028.856
289.0186, 1043.959
289.5007, 1086.294
289.9828, 1112.586
290.4649, 1099.889
290.9471, 1065.140
291.4292, 1038.849
291.9113, 1038.725
292.3934, 1057.982
292.8755, 1063.336
293.3576, 1035.495
293.8398, 1016.246
294.3219, 1021.346
294.8040, 1036.942
295.2861, 1042.427
295.7682, 1027.564
296.2503, 998.5620
296.7325, 975.4987
297.2146, 971.2356
297.6967, 957.7809
298.1788, 918.8920
298.6609, 874.6911
299.1430, 850.7928
299.6252, 857.7324
300.1073, 883.5165
300.5894, 900.6166
301.0715, 907.9786
301.5536, 906.2728
302.0357, 884.3504
302.5179, 858.9114
303.0000, 847.9254
303.4821, 856.6115
303.9642, 874.7755
304.4463, 883.6946
304.9284, 875.1688
305.4106, 870.1376
305.8927, 867.3079
306.3748, 868.3530
306.8569, 878.8812
307.3390, 898.3822
307.8211, 916.0243
308.3033, 915.3185
308.7854, 885.8116
309.2675, 862.2509
309.7496, 835.7639
310.2317, 820.5674
310.7138, 835.5568
311.1960, 877.0127
311.6781, 917.2772
312.1602, 922.5823
312.6423, 879.9286
313.1244, 852.8926
313.6065, 856.0887
314.0887, 859.9800
314.5708, 847.1088
315.0529, 820.4634
315.5350, 796.0217
316.0171, 789.8987
316.4992, 804.3798
316.9814, 811.0896
317.4635, 805.6759
317.9456, 796.7176
318.4277, 780.2365
318.9098, 762.0444
319.3919, 754.4134
319.8741, 768.3419
320.3562, 802.0108
320.8383, 826.3672
321.3204, 838.8973
321.8025, 843.4700
322.2846, 834.6240
322.7668, 819.5776
323.2489, 809.2154
323.7310, 810.2797
324.2131, 820.1485
324.6952, 829.1700
325.1773, 842.9503
325.6595, 846.4291
326.1416, 825.0135
326.6237, 796.9639
327.1058, 786.5486
327.5879, 806.2639
328.0700, 837.4450
328.5522, 836.5546
329.0343, 783.3748
329.5164, 742.0925
329.9985, 728.4903
330.4806, 728.5561
330.9627, 731.6650
331.4449, 734.6344
331.9270, 740.6695
332.4091, 758.9498
332.8912, 796.4096
333.3733, 816.4520
333.8554, 787.3911
334.3376, 755.5721
334.8197, 752.2484
335.3018, 780.4817
335.7839, 815.6755
336.2660, 837.1512
336.7481, 845.0532
337.2303, 837.2695
337.7124, 799.9670
338.1945, 759.6257
338.6766, 727.2332
339.1587, 704.6425
339.6408, 695.5985
340.1230, 709.7910
340.6051, 742.3477
341.0872, 766.9512
341.5693, 780.7703
342.0514, 788.6913
342.5335, 795.0114
343.0157, 798.8299
343.4978, 797.3394
343.9799, 786.2178
344.4620, 769.4584
344.9441, 754.6651
345.4262, 741.3579
345.9084, 731.7931
346.3905, 728.4260
346.8726, 729.6943
347.3547, 734.4225
347.8368, 745.9584
348.3189, 757.5934
348.8011, 760.7409
349.2832, 755.2550
349.7653, 749.3820
350.2474, 748.9290
350.7295, 749.6498
351.2116, 741.6456
351.6938, 713.9057
352.1759, 695.6840
352.6580, 720.1616
353.1401, 775.3163
353.6222, 807.2980
354.1043, 791.1760
354.5865, 748.7528
355.0686, 718.5125
355.5507, 701.9168
356.0328, 689.4418
356.5149, 680.4775
356.9970, 672.8483
357.4792, 663.9421
357.9613, 653.5828
358.4434, 638.2934
358.9255, 607.0234
359.4076, 551.3220
359.8897, 526.4952
360.3719, 567.0699
360.8540, 624.3613
361.3361, 653.7065
361.8182, 649.5392
362.3003, 626.7180
362.7824, 595.4216
363.2646, 553.6927
363.7467, 526.7421
364.2288, 525.0143
364.7109, 527.0804
365.1930, 519.2226
365.6751, 504.7801
366.1573, 497.6019
366.6394, 508.8506
367.1215, 535.0784
367.6036, 544.3682
368.0857, 513.2875
368.5678, 493.4301
369.0500, 507.2082
369.5321, 536.3339
370.0142, 553.6700
370.4963, 546.6751
370.9784, 523.4626
371.4605, 504.3452
371.9427, 490.5777
372.4248, 479.7454
372.9069, 481.6518
373.3890, 480.4339
373.8712, 454.8358
374.3533, 403.1451
374.8354, 351.7548
375.3175, 340.1284
375.7996, 385.7247
376.2817, 417.5038
376.7639, 431.8558
377.2460, 435.9256
377.7281, 429.1514
378.2102, 413.9647
378.6923, 396.3312
379.1744, 380.9268
379.6566, 367.6713
380.1387, 353.9444
380.6208, 332.0671
381.1029, 320.5995
381.5850, 340.3455
382.0671, 372.4433
382.5493, 382.1403
383.0314, 343.7919
383.5135, 282.0237
383.9956, 252.3275
384.4777, 263.9390
384.9598, 278.7009
385.4420, 282.4972
385.9241, 281.4813
386.4062, 280.3611
386.8883, 279.3051
387.3704, 281.3621
387.8525, 293.7398
388.3347, 315.3473
388.8168, 326.8170
389.2989, 317.7842
389.7810, 301.7139
390.2631, 293.1442
390.7452, 292.0061
391.2274, 297.3336
391.7095, 316.8322
392.1916, 341.0554
392.6737, 347.9038
393.1558, 330.5381
393.6379, 311.2101
394.1201, 314.7596
394.6022, 339.1084
395.0843, 355.0304
395.5664, 350.7868
396.0485, 342.5791
396.5306, 346.0263
397.0128, 359.8348
397.4949, 370.7222
397.9770, 370.4746
398.4591, 359.7612
398.9412, 344.0994
399.4233, 301.5591
399.9055, 279.3719
400.3876, 308.9655
400.8697, 365.5869
401.3518, 408.9798
401.8339, 422.7213
402.3160, 414.9391
402.7982, 401.8511
403.2803, 371.1685
403.7624, 354.5719
404.2445, 359.3704
404.7266, 372.7902
405.2087, 390.8590
405.6909, 409.7069
406.1730, 418.7457
406.6551, 402.5916
407.1372, 354.2096
407.6193, 325.1537
408.1014, 332.2045
408.5836, 342.3540
409.0657, 347.2648
409.5478, 346.4007
410.0299, 340.1554
410.5120, 327.0462
410.9941, 310.5678
411.4763, 305.2154
411.9584, 317.5840
412.4405, 328.8515
412.9226, 333.7230
413.4047, 334.9833
413.8868, 334.8678
414.3690, 333.8876
414.8511, 332.8790
415.3332, 336.1403
415.8153, 344.2891
416.2974, 339.7817
416.7795, 311.0306
417.2617, 275.3257
417.7438, 244.3037
418.2259, 218.5463
418.7080, 204.3267
419.1901, 210.2784
419.6722, 229.4074
420.1544, 247.4850
420.6365, 263.0797
421.1186, 277.8535
421.6007, 296.4117
422.0828, 315.8004
422.5649, 323.2026
423.0471, 305.7156
423.5292, 285.4074
424.0113, 279.1068
424.4934, 284.1317
424.9755, 287.6902
425.4576, 283.0603
425.9398, 273.3195
426.4219, 267.6996
426.9040, 268.6208
427.3861, 269.1367
427.8682, 266.3878
428.3503, 263.3986
428.8325, 265.6866
429.3146, 273.9440
429.7967, 280.7909
430.2788, 275.7358
430.7609, 253.1752
431.2430, 239.0557
431.7252, 231.9741
432.2073, 232.6913
432.6894, 248.3831
433.1715, 272.6569
433.6536, 290.8534
434.1357, 292.2650
434.6179, 279.5596
435.1000, 265.8087
435.5821, 245.3545
436.0642, 233.4248
436.5463, 236.4379
437.0284, 246.8294
437.5106, 259.4348
437.9927, 272.9496
438.4748, 281.2037
438.9569, 271.8677
439.4390, 243.1587
439.9211, 224.1866
440.4033, 222.2346
440.8854, 229.5091
441.3675, 245.4006
441.8496, 267.3836
442.3317, 279.4982
442.8138, 264.6755
443.2960, 236.8759
443.7781, 226.5462
444.2602, 238.3120
444.7423, 244.7695
445.2244, 219.6419
445.7065, 175.7023
446.1887, 156.2705
446.6708, 180.0804
447.1529, 210.6812
447.6350, 232.8357
448.1171, 246.3737
448.5992, 249.4778
449.0814, 240.4469
449.5635, 224.6803
450.0456, 212.0347
450.5277, 206.3071
451.0098, 195.2789
451.4919, 168.3352
451.9741, 143.0800
452.4562, 133.1179
452.9383, 139.3486
453.4204, 156.2542
453.9025, 181.4569
454.3847, 214.9898
454.8668, 233.5579
455.3489, 225.2097
455.8310, 213.8593
456.3131, 197.8396
456.7953, 183.6124
457.2774, 181.9128
457.7595, 197.9743
458.2416, 219.0947
458.7237, 220.0934
459.2058, 193.6763
459.6880, 176.3603
460.1701, 179.0354
460.6522, 189.5396
461.1343, 200.4511
461.6164, 211.7847
462.0985, 203.0212
462.5807, 233.7335
463.0628, 250.7018
463.5449, 254.6648
464.0270, 206.6695
464.5091, 225.7675
464.9912, 217.9775
465.4734, 209.0849
465.9555, 237.6259
466.4376, 197.1878
466.9197, 225.1352
467.4018, 225.7844
467.8839, 238.9272
468.3661, 225.0161
468.8482, 219.4611
469.3303, 240.9688
469.8124, 247.4916
470.2945, 230.4662
470.7766, 244.4032
471.2588, 203.0200
471.7409, 210.1811
472.2230, 238.2868
472.7051, 222.6216
473.1872, 237.0534
473.6693, 207.0803
474.1515, 193.8973
474.6336, 199.0969
475.1157, 260.1453
475.5978, 293.2603
476.0799, 259.9223
476.5620, 203.2692
477.0442, 173.1957
477.5263, 186.2560
478.0084, 213.9317
478.4905, 216.7845
478.9726, 192.0147
479.4547, 170.1110
479.9369, 149.7224
480.4190, 138.8388
480.9011, 147.5696
481.3832, 170.7588
481.8653, 189.0963
482.3474, 193.6101
482.8296, 187.8294
483.3117, 168.9900
483.7938, 136.2733
484.2759, 125.2798
484.7580, 166.8948
485.2401, 235.1873
485.7223, 265.3212
486.2044, 243.7828
486.6865, 214.3750
487.1686, 186.0419
487.6507, 160.7814
488.1328, 140.6407
488.6150, 126.3028
489.0971, 119.9297
489.5792, 125.5101
490.0613, 145.8215
490.5434, 158.0571
491.0255, 152.4041
491.5077, 150.2986
491.9898, 159.9872
492.4719, 178.7890
492.9540, 206.2061
493.4361, 243.2189
493.9182, 275.8495
494.4004, 268.4241
494.8825, 202.2892
495.3646, 149.2917
495.8467, 117.1467
496.3288, 103.4604
496.8109, 118.1473
497.2931, 155.8235
497.7752, 186.8017
498.2573, 186.0481
498.7394, 163.7110
499.2215, 145.7594
499.7036, 132.2379
500.1858, 125.2574
500.6679, 128.2915
501.1500, 138.5075
501.6321, 149.0421
502.1142, 160.3730
502.5963, 170.6329
503.0785, 178.2342
503.5606, 184.3150
504.0427, 193.5938
504.5248, 207.5938
505.0069, 215.9735
505.4890, 203.1651
505.9712, 159.9861
506.4533, 141.9589
506.9354, 167.9542
507.4175, 197.2549
507.8996, 214.8193
508.3817, 221.2693
508.8639, 219.7814
509.3460, 211.6025
509.8281, 199.6702
510.3102, 190.7317
510.7923, 184.6187
511.2744, 182.1277
511.7566, 192.3174
512.2387, 199.2356
512.7208, 189.0263
513.2029, 163.5238
513.6851, 140.0350
514.1672, 128.8129
514.6493, 128.5452
515.1314, 139.9912
515.6135, 166.7724
516.0956, 185.1837
516.5778, 177.1720
517.0599, 153.1720
517.5420, 138.4804
518.0241, 136.0506
518.5062, 138.5022
518.9883, 144.9598
519.4705, 153.5215
519.9526, 161.6143
520.4347, 168.6136
520.9168, 174.5527
521.3989, 180.4783
521.8810, 187.7948
522.3632, 182.9749
522.8453, 149.7499
523.3274, 123.9401
523.8095, 116.8497
524.2916, 125.4170
524.7737, 148.9177
525.2559, 187.4083
525.7380, 225.1797
526.2201, 230.1382
526.7022, 193.2570
527.1843, 167.3815
527.6664, 169.1902
528.1486, 173.3152
528.6307, 160.2834
529.1128, 135.4547
529.5949, 120.4320
530.0770, 134.8153
530.5591, 159.5903
531.0413, 169.1767
531.5234, 163.7876
532.0055, 145.7055
532.4876, 106.9322
532.9697, 64.97710
533.4518, 62.18320
533.9340, 113.6437
534.4161, 151.2346
534.8982, 142.7234
535.3803, 127.4986
535.8624, 156.7881
536.3445, 224.1337
536.8267, 267.5432
537.3088, 233.2917
537.7909, 134.3571
538.2730, 81.66977
538.7551, 111.2616
539.2372, 139.0788
539.7194, 156.2133
540.2015, 164.0061
540.6836, 161.8155
541.1657, 150.2852
541.6478, 135.8418
542.1299, 120.2804
542.6121, 105.4194
543.0942, 107.0310
543.5763, 131.7636
544.0584, 158.7973
544.5405, 177.0666
545.0226, 187.9905
545.5048, 193.8260
545.9869, 196.3544
546.4690, 191.6001
546.9511, 167.6657
547.4332, 136.1839
547.9153, 125.8387
548.3975, 144.7123
548.8796, 167.3577
549.3617, 161.3065
549.8438, 117.8623
550.3259, 100.0378
550.8080, 134.8882
551.2902, 161.9598
551.7723, 151.5042
552.2544, 120.2709
552.7365, 93.82310
553.2186, 82.96780
553.7007, 86.02209
554.1829, 106.5344
554.6650, 149.4412
555.1471, 172.6297
555.6292, 157.6443
556.1113, 137.3858
556.5934, 135.3348
557.0756, 146.2079
557.5577, 152.1147
558.0398, 146.4844
558.5219, 133.1197
559.0040, 106.0524
559.4861, 71.16412
559.9683, 61.82790
560.4504, 94.73779
560.9325, 146.0217
561.4146, 178.6230
561.8967, 191.0119
562.3788, 185.0373
562.8610, 146.1662
563.3431, 101.9026
563.8252, 58.93396
564.3073, 24.79844
564.7894, 15.25677
565.2715, 41.67025
565.7537, 87.85108
566.2358, 112.9248
566.7179, 108.6512
567.2000, 107.9264
567.6821, 118.8852
568.1642, 132.6018
568.6464, 146.2483
569.1285, 158.5700
569.6106, 165.2883
570.0927, 160.8398
570.5748, 151.2536
571.0569, 147.2134
571.5391, 147.9450
572.0212, 138.9556
572.5033, 107.3106
572.9854, 71.85914
573.4675, 75.16460
573.9496, 140.6695
574.4318, 180.2675
574.9139, 166.7487
575.3960, 139.7589
575.8781, 124.1953
576.3602, 121.6701
576.8423, 126.1605
577.3245, 134.1936
577.8066, 145.1567
578.2887, 157.4313
578.7708, 172.1459
579.2529, 185.5410
579.7350, 209.3908
580.2172, 221.9952
580.6993, 196.2374
581.1814, 138.1776
581.6635, 96.53787
582.1456, 114.7294
582.6277, 158.0178
583.1099, 171.5721
583.5920, 156.0392
584.0741, 137.3162
584.5562, 126.3181
585.0383, 120.5670
585.5204, 114.7036
586.0026, 106.4967
586.4847, 103.5340
586.9668, 116.1357
587.4489, 126.4554
587.9310, 114.3761
588.4131, 87.18243
588.8953, 71.08318
589.3774, 84.17635
589.8595, 115.7329
590.3416, 131.6840
590.8237, 122.9458
591.3058, 125.5747
591.7880, 175.2348
592.2701, 215.2016
592.7522, 191.7342
593.2343, 113.9044
593.7164, 56.18958
594.1985, 68.83632
594.6807, 110.9015
595.1628, 134.8017
595.6449, 140.9991
596.1270, 135.6698
596.6091, 118.5599
597.0912, 98.57096
597.5734, 94.09180
598.0555, 119.0400
598.5376, 127.2595
599.0197, 93.04384
599.5018, 65.56819
599.9839, 85.41171
600.4661, 135.4998
600.9482, 170.2061
601.4303, 162.8806
601.9124, 134.8835
602.3945, 132.5019
602.8766, 162.2607
603.3588, 176.8363
603.8409, 163.7920
604.3230, 138.1785
604.8051, 102.5345
605.2872, 62.28566
605.7693, 43.24300
606.2515, 72.09788
606.7336, 108.5363
607.2157, 118.4970
607.6978, 109.4918
608.1799, 103.1562
608.6620, 107.0591
609.1442, 115.6122
609.6263, 120.4904
610.1084, 119.5186
610.5905, 124.1575
611.0726, 142.5097
611.5547, 157.2560
612.0369, 165.8055
612.5190, 165.7365
613.0011, 150.4274
