##NAMES=Arseniosiderite
##RRUFFID=R150061
##IDEAL CHEMISTRY=Ca_2_Fe^3+^_3_O_2_(As^5+^O_4_)_3_&#183;3H_2_O
##LOCALITY=Las Animas mine, La Mur, Sonora, Mexico
##OWNER=RRUFF
##SOURCE=Bob Jenkins
##DESCRIPTION=Dark red platy crystals, associated with bright red granular or prismatic sewardite (R060720)
##STATUS=The identification of this mineral has been confirmed by single-crystal X-ray diffraction.
##URL=rruff.info/R150061
99.82780, 214.2899
100.3099, 215.6040
100.7920, 216.0702
101.2742, 215.6859
101.7563, 213.9914
102.2384, 210.1788
102.7205, 206.0294
103.2026, 203.8426
103.6847, 203.7606
104.1668, 205.4198
104.6490, 209.1615
105.1311, 216.6307
105.6132, 221.7488
106.0953, 222.7075
106.5774, 221.3965
107.0595, 223.6242
107.5417, 231.6389
108.0238, 241.0965
108.5059, 249.8747
108.9880, 255.9072
109.4701, 263.7000
109.9522, 274.0397
110.4344, 286.8460
110.9165, 299.2047
111.3986, 308.4149
111.8807, 318.5626
112.3628, 332.4694
112.8449, 354.1897
113.3271, 376.1129
113.8092, 396.7969
114.2913, 415.9891
114.7734, 434.5764
115.2555, 450.9247
115.7376, 467.1914
116.2198, 485.7352
116.7019, 508.2301
117.1840, 532.4589
117.6661, 558.3711
118.1482, 587.1699
118.6303, 613.7791
119.1124, 632.1356
119.5946, 645.8766
120.0767, 663.2783
120.5588, 690.1910
121.0409, 721.7042
121.5230, 754.2846
122.0051, 789.0977
122.4873, 821.7049
122.9694, 847.3284
123.4515, 866.7686
123.9336, 883.9455
124.4157, 900.3248
124.8979, 916.4219
125.3800, 933.1803
125.8621, 952.4796
126.3442, 971.8211
126.8263, 988.0829
127.3084, 1001.135
127.7905, 1011.292
128.2727, 1018.552
128.7548, 1023.020
129.2369, 1024.872
129.7190, 1021.200
130.2011, 1014.759
130.6832, 1014.061
131.1654, 1020.065
131.6475, 1029.740
132.1296, 1038.525
132.6117, 1046.517
133.0938, 1056.218
133.5759, 1068.438
134.0581, 1083.326
134.5402, 1102.372
135.0223, 1126.546
135.5044, 1154.297
135.9865, 1180.968
136.4686, 1205.888
136.9508, 1232.376
137.4329, 1265.596
137.9150, 1307.267
138.3971, 1340.180
138.8792, 1360.115
139.3613, 1368.652
139.8434, 1376.909
140.3256, 1384.168
140.8077, 1392.642
141.2898, 1405.219
141.7719, 1423.754
142.2540, 1441.371
142.7361, 1456.847
143.2183, 1470.429
143.7004, 1480.413
144.1825, 1485.133
144.6646, 1487.476
145.1467, 1491.599
145.6288, 1500.953
146.1110, 1506.998
146.5931, 1506.407
147.0752, 1495.409
147.5573, 1487.739
148.0394, 1486.043
148.5215, 1487.238
149.0037, 1484.783
149.4858, 1477.010
149.9679, 1467.113
150.4500, 1456.102
150.9321, 1444.126
151.4142, 1431.085
151.8964, 1414.658
152.3785, 1396.649
152.8606, 1383.649
153.3427, 1379.645
153.8248, 1378.288
154.3069, 1376.352
154.7890, 1375.015
155.2712, 1371.590
155.7533, 1364.411
156.2354, 1354.050
156.7175, 1345.145
157.1996, 1337.015
157.6817, 1331.360
158.1639, 1329.428
158.6460, 1334.994
159.1281, 1341.010
159.6102, 1343.370
160.0923, 1341.605
160.5744, 1345.113
161.0566, 1363.787
161.5387, 1387.333
162.0208, 1404.105
162.5029, 1403.657
162.9850, 1400.318
163.4671, 1400.906
163.9493, 1406.292
164.4314, 1413.627
164.9135, 1425.157
165.3956, 1437.389
165.8777, 1444.683
166.3598, 1442.379
166.8420, 1435.665
167.3241, 1427.008
167.8062, 1415.153
168.2883, 1406.567
168.7704, 1408.474
169.2525, 1417.292
169.7346, 1424.100
170.2168, 1423.392
170.6989, 1418.562
171.1810, 1412.214
171.6631, 1402.943
172.1452, 1395.875
172.6273, 1397.405
173.1095, 1405.737
173.5916, 1413.399
174.0737, 1413.288
174.5558, 1409.946
175.0379, 1410.370
175.5201, 1418.113
176.0022, 1428.263
176.4843, 1435.813
176.9664, 1440.762
177.4485, 1443.399
177.9306, 1441.194
178.4128, 1436.801
178.8949, 1435.720
179.3770, 1438.569
179.8591, 1446.428
180.3412, 1462.995
180.8233, 1488.518
181.3055, 1515.467
181.7876, 1535.209
182.2697, 1550.183
182.7518, 1569.388
183.2339, 1597.903
183.7160, 1632.701
184.1982, 1664.979
184.6803, 1694.089
185.1624, 1725.316
185.6445, 1769.620
186.1266, 1823.903
186.6087, 1871.784
187.0908, 1898.041
187.5730, 1910.281
188.0551, 1939.540
188.5372, 1990.046
189.0193, 2046.150
189.5014, 2086.085
189.9835, 2110.856
190.4657, 2134.299
190.9478, 2167.463
191.4299, 2207.785
191.9120, 2233.195
192.3941, 2240.557
192.8762, 2237.292
193.3584, 2237.681
193.8405, 2242.271
194.3226, 2239.566
194.8047, 2220.743
195.2868, 2186.411
195.7689, 2151.971
196.2511, 2119.537
196.7332, 2085.891
197.2153, 2043.056
197.6974, 1990.031
198.1795, 1933.725
198.6616, 1878.000
199.1438, 1822.362
199.6259, 1767.039
200.1080, 1711.137
200.5901, 1655.841
201.0722, 1605.384
201.5543, 1559.178
202.0364, 1518.771
202.5186, 1485.813
203.0007, 1460.714
203.4828, 1439.865
203.9649, 1423.752
204.4470, 1411.255
204.9291, 1397.326
205.4113, 1380.930
205.8934, 1365.553
206.3755, 1353.648
206.8576, 1345.144
207.3397, 1340.526
207.8218, 1340.452
208.3040, 1344.513
208.7861, 1350.028
209.2682, 1357.821
209.7503, 1365.432
210.2324, 1369.981
210.7145, 1370.114
211.1967, 1372.039
211.6788, 1376.433
212.1609, 1383.424
212.6430, 1396.902
213.1251, 1421.693
213.6072, 1445.555
214.0894, 1454.198
214.5715, 1441.005
215.0536, 1431.200
215.5357, 1431.351
216.0178, 1441.687
216.4999, 1450.779
216.9820, 1458.559
217.4642, 1464.918
217.9463, 1469.914
218.4284, 1473.747
218.9105, 1475.360
219.3926, 1473.708
219.8747, 1468.287
220.3569, 1464.994
220.8390, 1465.234
221.3211, 1466.299
221.8032, 1464.698
222.2853, 1459.893
222.7674, 1453.739
223.2496, 1447.475
223.7317, 1441.898
224.2138, 1430.447
224.6959, 1408.537
225.1780, 1384.423
225.6601, 1369.783
226.1423, 1368.974
226.6244, 1369.811
227.1065, 1369.548
227.5886, 1368.873
228.0707, 1363.445
228.5528, 1350.748
229.0350, 1334.709
229.5171, 1321.524
229.9992, 1310.439
230.4813, 1303.098
230.9634, 1301.073
231.4455, 1306.787
231.9276, 1308.625
232.4098, 1305.218
232.8919, 1298.657
233.3740, 1292.582
233.8561, 1286.373
234.3382, 1281.648
234.8203, 1279.302
235.3025, 1280.513
235.7846, 1280.480
236.2667, 1278.948
236.7488, 1276.317
237.2309, 1273.514
237.7130, 1271.438
238.1952, 1267.854
238.6773, 1261.541
239.1594, 1250.916
239.6415, 1242.139
240.1236, 1235.101
240.6057, 1229.913
241.0879, 1226.874
241.5700, 1226.927
242.0521, 1227.725
242.5342, 1228.385
243.0163, 1228.602
243.4984, 1229.709
243.9806, 1233.310
244.4627, 1237.138
244.9448, 1235.665
245.4269, 1224.499
245.9090, 1214.572
246.3911, 1210.873
246.8732, 1217.882
247.3554, 1218.868
247.8375, 1209.890
248.3196, 1196.265
248.8017, 1190.890
249.2838, 1199.540
249.7659, 1207.349
250.2481, 1208.115
250.7302, 1198.926
251.2123, 1190.450
251.6944, 1182.139
252.1765, 1174.880
252.6586, 1170.977
253.1408, 1173.102
253.6229, 1174.265
254.1050, 1171.644
254.5871, 1164.571
255.0692, 1155.556
255.5513, 1143.117
256.0334, 1129.471
256.5156, 1119.685
256.9977, 1115.963
257.4798, 1112.051
257.9619, 1104.972
258.4440, 1092.865
258.9261, 1083.175
259.4083, 1076.594
259.8904, 1071.884
260.3725, 1066.261
260.8546, 1058.674
261.3367, 1052.076
261.8188, 1047.648
262.3010, 1045.509
262.7831, 1045.477
263.2652, 1049.610
263.7473, 1054.407
264.2294, 1051.461
264.7115, 1036.760
265.1937, 1023.697
265.6758, 1019.012
266.1579, 1025.199
266.6400, 1028.437
267.1221, 1028.150
267.6042, 1025.418
268.0864, 1022.194
268.5685, 1018.407
269.0506, 1014.307
269.5327, 1010.171
270.0148, 1006.218
270.4969, 1000.591
270.9791, 992.1238
271.4612, 983.3731
271.9433, 980.1559
272.4254, 984.4241
272.9075, 987.0417
273.3896, 983.1733
273.8718, 971.9518
274.3539, 963.8214
274.8360, 959.0325
275.3181, 956.8302
275.8002, 956.5947
276.2823, 958.8148
276.7645, 960.3798
277.2466, 959.6508
277.7287, 956.5010
278.2108, 954.5152
278.6929, 953.8959
279.1750, 953.9473
279.6572, 954.5184
280.1393, 955.9495
280.6214, 954.4827
281.1035, 946.2719
281.5856, 932.1112
282.0677, 926.2093
282.5499, 930.3225
283.0320, 937.8002
283.5141, 939.7618
283.9962, 936.0548
284.4783, 932.0580
284.9604, 930.7352
285.4425, 931.1940
285.9247, 926.0443
286.4068, 914.1398
286.8889, 901.8488
287.3710, 897.7708
287.8531, 901.4144
288.3352, 904.5837
288.8174, 904.3672
289.2995, 901.4576
289.7816, 897.7795
290.2637, 893.1530
290.7458, 889.5584
291.2279, 890.2580
291.7101, 894.4664
292.1922, 897.2663
292.6743, 896.5447
293.1564, 893.5021
293.6385, 890.6133
294.1206, 887.8612
294.6028, 886.0693
295.0849, 887.8328
295.5670, 891.6441
296.0491, 891.6113
296.5312, 883.0452
297.0133, 871.8290
297.4955, 870.1854
297.9776, 877.8102
298.4597, 885.5781
298.9418, 884.3150
299.4239, 877.4686
299.9060, 873.2169
300.3882, 875.4962
300.8703, 879.5364
301.3524, 877.9964
301.8345, 871.5116
302.3166, 865.2593
302.7987, 861.8400
303.2809, 861.2629
303.7630, 864.2527
304.2451, 873.6100
304.7272, 882.4988
305.2093, 881.1545
305.6914, 871.8173
306.1736, 864.8219
306.6557, 871.5971
307.1378, 882.3845
307.6199, 884.0890
308.1020, 869.9067
308.5841, 855.2943
309.0663, 853.4877
309.5484, 861.4430
310.0305, 870.3817
310.5126, 879.1989
310.9947, 885.0931
311.4768, 884.4828
311.9590, 874.8414
312.4411, 864.7031
312.9232, 858.0049
313.4053, 854.5927
313.8874, 854.2138
314.3695, 860.8060
314.8517, 867.5377
315.3337, 870.0699
315.8159, 867.5111
316.2980, 862.3961
316.7801, 850.3148
317.2622, 837.3119
317.7443, 832.4911
318.2264, 848.7752
318.7086, 865.9052
319.1907, 874.3316
319.6728, 872.1632
320.1549, 868.8696
320.6370, 866.3283
321.1191, 864.3958
321.6013, 862.9012
322.0834, 862.1749
322.5655, 861.5204
323.0476, 860.5880
323.5297, 859.3009
324.0118, 858.5124
324.4940, 859.1964
324.9761, 859.9922
325.4582, 859.7642
325.9403, 856.6485
326.4224, 854.3520
326.9045, 853.4673
327.3867, 853.9806
327.8688, 855.1804
328.3509, 858.4853
328.8330, 861.5013
329.3151, 862.8423
329.7972, 863.0561
330.2794, 860.6393
330.7615, 851.7631
331.2436, 838.9935
331.7257, 837.0585
332.2078, 856.4023
332.6899, 874.7237
333.1721, 879.6533
333.6542, 863.6119
334.1363, 849.7582
334.6184, 837.6432
335.1005, 828.4317
335.5826, 825.1730
336.0648, 829.0600
336.5469, 836.6412
337.0290, 848.4628
337.5111, 868.0990
337.9932, 876.3697
338.4753, 868.6152
338.9575, 854.6168
339.4396, 852.3833
339.9217, 864.7794
340.4038, 877.0843
340.8859, 883.8878
341.3680, 885.1473
341.8502, 884.2698
342.3323, 880.2667
342.8144, 876.8045
343.2965, 879.9371
343.7786, 889.8655
344.2607, 897.9819
344.7429, 900.5014
345.2250, 899.1152
345.7071, 901.4458
346.1892, 907.9827
346.6713, 914.7929
347.1534, 916.8044
347.6355, 915.2791
348.1176, 917.2369
348.5998, 926.2838
349.0819, 938.2083
349.5640, 944.6453
350.0461, 945.8824
350.5282, 946.0711
351.0103, 948.8605
351.4925, 952.8252
351.9746, 954.6185
352.4567, 952.3469
352.9388, 949.9830
353.4209, 953.9522
353.9030, 962.3778
354.3852, 968.2443
354.8673, 962.7103
355.3494, 954.4362
355.8315, 954.2604
356.3136, 965.2477
356.7957, 978.0392
357.2779, 984.7520
357.7600, 988.2108
358.2421, 993.8138
358.7242, 1006.870
359.2063, 1020.912
359.6884, 1031.629
360.1706, 1038.512
360.6527, 1043.928
361.1348, 1046.866
361.6169, 1049.638
362.0990, 1054.916
362.5811, 1064.725
363.0633, 1076.039
363.5454, 1088.376
364.0275, 1101.624
364.5096, 1114.145
364.9917, 1125.450
365.4738, 1135.913
365.9560, 1145.847
366.4381, 1154.517
366.9202, 1163.432
367.4023, 1171.427
367.8844, 1179.344
368.3665, 1191.438
368.8487, 1212.317
369.3308, 1234.027
369.8129, 1253.046
370.2950, 1267.852
370.7771, 1282.437
371.2592, 1295.845
371.7414, 1309.247
372.2235, 1325.448
372.7056, 1345.225
373.1877, 1366.759
373.6698, 1391.053
374.1519, 1420.095
374.6341, 1438.298
375.1162, 1440.935
375.5983, 1438.403
376.0804, 1444.701
376.5625, 1462.234
377.0446, 1478.350
377.5267, 1489.347
378.0089, 1495.898
378.4910, 1502.410
378.9731, 1508.941
379.4552, 1515.248
379.9373, 1521.586
380.4194, 1527.953
380.9016, 1531.854
381.3837, 1532.095
381.8658, 1530.560
382.3479, 1530.847
382.8300, 1532.976
383.3121, 1537.207
383.7943, 1547.187
384.2764, 1559.403
384.7585, 1562.847
385.2406, 1553.989
385.7227, 1543.330
386.2048, 1547.687
386.6870, 1561.647
387.1691, 1569.191
387.6512, 1557.466
388.1333, 1537.038
388.6154, 1519.555
389.0975, 1505.847
389.5797, 1492.526
390.0618, 1475.672
390.5439, 1458.087
391.0260, 1443.985
391.5081, 1440.225
391.9902, 1435.956
392.4724, 1424.261
392.9545, 1405.977
393.4366, 1387.309
393.9187, 1373.184
394.4008, 1358.549
394.8829, 1338.982
395.3651, 1307.097
395.8472, 1279.576
396.3293, 1262.210
396.8114, 1252.354
397.2935, 1243.029
397.7756, 1237.625
398.2578, 1228.596
398.7399, 1211.414
399.2220, 1179.388
399.7041, 1155.692
400.1862, 1145.502
400.6683, 1141.469
401.1505, 1134.378
401.6326, 1123.218
402.1147, 1110.409
402.5968, 1095.587
403.0789, 1078.741
403.5610, 1064.211
404.0432, 1051.913
404.5253, 1042.089
405.0074, 1035.982
405.4895, 1035.128
405.9716, 1030.512
406.4537, 1018.754
406.9359, 1003.945
407.4180, 998.5999
407.9001, 1003.636
408.3822, 1011.996
408.8643, 1022.924
409.3464, 1035.250
409.8285, 1036.672
410.3106, 1024.293
410.7928, 1007.885
411.2749, 1000.661
411.7570, 1001.276
412.2391, 1002.572
412.7212, 1002.516
413.2033, 1000.780
413.6855, 995.3359
414.1676, 986.2906
414.6497, 978.7618
415.1318, 977.2430
415.6139, 979.9748
416.0960, 984.5655
416.5782, 992.2251
417.0603, 999.0292
417.5424, 1000.906
418.0245, 999.0237
418.5066, 997.5182
418.9887, 998.7919
419.4709, 1000.917
419.9530, 1002.895
420.4351, 1005.100
420.9172, 1005.565
421.3993, 1002.403
421.8814, 997.3747
422.3636, 993.0624
422.8457, 988.9968
423.3278, 986.7544
423.8099, 988.3203
424.2920, 994.4333
424.7741, 996.3792
425.2563, 989.4659
425.7384, 981.2134
426.2205, 977.0839
426.7026, 979.5456
427.1847, 981.8876
427.6668, 983.6233
428.1490, 984.8069
428.6311, 985.8425
429.1132, 987.3056
429.5953, 987.3887
430.0774, 984.7141
430.5595, 978.7507
431.0417, 973.5544
431.5238, 968.7767
432.0059, 965.5245
432.4880, 967.4464
432.9701, 974.6955
433.4522, 977.1274
433.9344, 968.1702
434.4165, 952.7490
434.8986, 947.3044
435.3807, 952.0195
435.8628, 957.4001
436.3449, 954.2994
436.8271, 945.7957
437.3092, 939.4357
437.7913, 937.4487
438.2734, 936.8840
438.7555, 935.4542
439.2376, 932.9810
439.7197, 928.9369
440.2018, 922.2253
440.6840, 914.2932
441.1661, 905.8841
441.6482, 896.9600
442.1303, 889.1470
442.6124, 884.1191
443.0945, 880.3504
443.5767, 876.1636
444.0588, 871.2053
444.5409, 865.5862
445.0230, 859.1041
445.5051, 851.8429
445.9872, 844.6309
446.4694, 836.2840
446.9515, 829.0620
447.4336, 824.2523
447.9157, 823.5313
448.3978, 822.2869
448.8799, 820.3445
449.3621, 817.9607
449.8442, 815.7668
450.3263, 814.4198
450.8084, 811.9509
451.2905, 807.9107
451.7726, 802.3233
452.2548, 793.8047
452.7369, 780.6274
453.2190, 768.8632
453.7011, 765.0875
454.1832, 769.4147
454.6653, 772.7894
455.1475, 773.9216
455.6296, 773.0135
456.1117, 769.7435
456.5938, 764.3391
457.0759, 759.0223
457.5580, 755.4601
458.0402, 752.8807
458.5223, 749.5880
459.0044, 745.3604
459.4865, 741.4284
459.9686, 738.6878
460.4507, 736.9982
460.9329, 736.0762
461.4150, 736.8395
461.8971, 737.4617
462.3792, 736.7468
462.8613, 734.8452
463.3434, 732.4716
463.8256, 729.9053
464.3077, 727.0227
464.7898, 723.2614
465.2719, 716.8049
465.7540, 713.4596
466.2361, 716.2816
466.7183, 722.3910
467.2004, 727.4101
467.6825, 730.9997
468.1646, 733.4520
468.6467, 734.0715
469.1288, 732.8289
469.6110, 734.4006
470.0930, 741.9387
470.5752, 747.8578
471.0573, 745.3669
471.5394, 731.2101
472.0215, 722.4194
472.5036, 721.4372
472.9857, 725.3370
473.4679, 728.5458
473.9500, 731.0130
474.4321, 733.2305
474.9142, 734.9496
475.3963, 736.5706
475.8784, 740.6583
476.3606, 747.4953
476.8427, 752.7436
477.3248, 749.5486
477.8069, 741.9248
478.2890, 739.1009
478.7711, 746.5728
479.2533, 754.6283
479.7354, 751.6647
480.2175, 741.2232
480.6996, 733.8427
481.1817, 736.2295
481.6638, 742.7761
482.1460, 750.9915
482.6281, 761.1501
483.1102, 768.3166
483.5923, 768.8124
484.0744, 766.2917
484.5565, 764.3368
485.0387, 764.5715
485.5208, 764.2552
486.0029, 762.1617
486.4850, 758.9368
486.9671, 757.3666
487.4492, 757.1293
487.9314, 759.0517
488.4135, 765.0469
488.8956, 777.9504
489.3777, 780.9040
489.8598, 769.6758
490.3419, 755.3152
490.8241, 753.1726
491.3062, 764.5847
491.7883, 773.4324
492.2704, 776.3375
492.7525, 773.6623
493.2346, 763.3285
493.7168, 745.8389
494.1989, 731.2972
494.6810, 729.6287
495.1631, 735.4227
495.6452, 736.9445
496.1273, 732.2368
496.6095, 727.1224
497.0916, 728.3091
497.5737, 732.5851
498.0558, 734.6918
498.5379, 730.1229
499.0201, 724.8640
499.5022, 723.1785
499.9843, 724.2851
500.4664, 723.5825
500.9485, 714.5747
501.4306, 706.8444
501.9127, 707.0946
502.3948, 723.8000
502.8770, 732.0833
503.3591, 721.3532
503.8412, 704.7540
504.3233, 699.3901
504.8054, 714.8368
505.2875, 725.0238
505.7697, 722.7501
506.2518, 710.1589
506.7339, 705.0707
507.2160, 709.4876
507.6981, 715.3159
508.1802, 716.5298
508.6624, 713.3533
509.1445, 713.2714
509.6266, 716.9800
510.1087, 723.1074
510.5908, 731.7914
511.0729, 741.9046
511.5551, 748.4881
512.0372, 747.0595
512.5193, 743.1289
513.0014, 742.9899
513.4835, 746.5821
513.9656, 753.6649
514.4478, 771.1613
514.9299, 788.0234
515.4120, 791.9170
515.8941, 775.6829
516.3762, 764.6635
516.8583, 773.3724
517.3405, 791.8639
517.8226, 807.6314
518.3047, 816.6206
518.7868, 824.3137
519.2689, 832.1848
519.7510, 839.9718
520.2332, 844.9265
520.7153, 843.2714
521.1974, 843.6436
521.6795, 851.3215
522.1616, 869.2357
522.6437, 882.1858
523.1259, 889.2114
523.6080, 892.7838
524.0901, 895.3998
524.5722, 897.0561
525.0543, 899.4106
525.5364, 903.3212
526.0186, 907.8526
526.5007, 909.5614
526.9828, 909.0297
527.4649, 911.5757
527.9470, 926.8686
528.4291, 944.8264
528.9113, 949.3823
529.3934, 937.4385
529.8755, 926.0436
530.3576, 929.1967
530.8397, 938.8132
531.3218, 945.1176
531.8040, 944.9357
532.2861, 940.9172
532.7682, 930.8751
533.2503, 917.0204
533.7324, 907.5405
534.2145, 907.6998
534.6967, 908.5477
535.1788, 907.4290
535.6609, 904.4586
536.1430, 898.8321
536.6251, 889.6752
537.1072, 879.1464
537.5894, 868.3283
538.0715, 856.3093
538.5536, 850.4219
539.0357, 854.1132
539.5178, 861.5048
539.9999, 858.6552
540.4821, 846.0969
540.9642, 834.7538
541.4463, 830.4672
541.9284, 830.9368
542.4105, 832.5897
542.8926, 835.2882
543.3748, 836.0969
543.8569, 831.5553
544.3390, 824.2421
544.8211, 817.0108
545.3032, 809.9023
545.7853, 804.0987
546.2675, 801.5633
546.7495, 800.4993
547.2316, 797.8276
547.7137, 789.6997
548.1959, 783.0024
548.6780, 780.9846
549.1601, 783.5662
549.6422, 782.2734
550.1243, 772.5474
550.6064, 764.3917
551.0886, 764.7252
551.5707, 777.7995
552.0528, 782.8853
552.5349, 778.2053
553.0170, 768.4098
553.4991, 758.2722
553.9813, 747.8652
554.4634, 740.7397
554.9455, 738.1826
555.4276, 739.2209
555.9097, 743.3853
556.3918, 750.0532
556.8740, 755.7036
557.3561, 758.5787
557.8382, 759.0607
558.3203, 757.1691
558.8024, 752.7906
559.2845, 747.6765
559.7667, 740.0982
560.2488, 733.5350
560.7309, 731.3149
561.2130, 738.0140
561.6951, 744.5059
562.1772, 750.0550
562.6594, 754.2067
563.1415, 756.0151
563.6236, 755.9567
564.1057, 752.6470
564.5878, 743.8996
565.0699, 730.0651
565.5521, 722.1221
566.0342, 720.5771
566.5163, 723.5546
566.9984, 733.1357
567.4805, 748.3489
567.9626, 752.9750
568.4448, 743.6967
568.9269, 730.6273
569.4090, 726.4848
569.8911, 729.0797
570.3732, 731.9583
570.8553, 732.9858
571.3375, 732.9396
571.8196, 731.4531
572.3017, 729.1932
572.7838, 728.8047
573.2659, 735.0106
573.7480, 740.7530
574.2302, 741.0162
574.7123, 733.7878
575.1944, 728.7471
575.6765, 729.2723
576.1586, 731.5512
576.6407, 732.5409
577.1229, 731.3652
577.6050, 730.8913
578.0871, 732.5197
578.5692, 734.1298
579.0513, 729.7908
579.5334, 718.1278
580.0156, 709.4692
580.4977, 708.5363
580.9798, 713.1945
581.4619, 716.8897
581.9440, 719.5969
582.4261, 720.7952
582.9083, 718.0477
583.3904, 714.1570
583.8725, 714.1884
584.3546, 719.4289
584.8367, 724.4185
585.3188, 725.6420
585.8010, 724.3794
586.2831, 722.2565
586.7652, 716.9512
587.2473, 713.9404
587.7294, 717.0402
588.2115, 723.8634
588.6937, 726.3517
589.1758, 720.0947
589.6579, 714.8044
590.1400, 713.9843
590.6221, 717.7902
591.1042, 718.8037
591.5864, 716.3716
592.0685, 712.8927
592.5506, 709.9510
593.0327, 707.5512
593.5148, 705.7610
593.9969, 704.6478
594.4791, 703.9205
594.9612, 702.6386
595.4433, 701.4165
595.9254, 701.9650
