##NAMES=Arsenbrackebuschite
##RRUFFID=R100184
##IDEAL CHEMISTRY=Pb^2+^_2_(Fe^3+^,Zn^2+^)(As^5+^O_4_)_2_(OH,H_2_O)
##LOCALITY=Mina Ojuela (Campo Sur), Mapimi, Durango, Mexico
##OWNER=RRUFF
##SOURCE=Marcus Origlieri
##DESCRIPTION=Yellow to yellowish-orange wedge shaped crystals associated with mimetite and segnitite
##STATUS=The identification of this mineral has been confirmed only by single crystal X-ray diffraction.
##URL=rruff.info/R100184
151.8342, 934.6777
152.3164, 929.6506
152.7985, 924.9944
153.2806, 920.4122
153.7627, 915.7601
154.2448, 911.0276
154.7269, 906.1899
155.2091, 901.8275
155.6912, 896.8642
156.1733, 890.4045
156.6554, 882.4884
157.1375, 874.2358
157.6196, 866.9753
158.1018, 860.9929
158.5839, 855.2207
159.0660, 849.5920
159.5481, 844.1097
160.0302, 838.7510
160.5123, 833.5271
160.9945, 828.5310
161.4766, 823.9788
161.9587, 820.0578
162.4408, 816.3044
162.9229, 812.5071
163.4050, 808.9622
163.8871, 805.9901
164.3693, 803.6974
164.8514, 801.9486
165.3335, 800.4524
165.8156, 799.5923
166.2977, 798.4612
166.7798, 796.1191
167.2620, 793.5903
167.7441, 792.8007
168.2262, 794.9111
168.7083, 798.5059
169.1904, 799.3814
169.6725, 796.2010
170.1547, 793.3752
170.6368, 792.6988
171.1189, 793.7985
171.6010, 795.4772
172.0831, 797.4361
172.5652, 799.4944
173.0474, 801.3187
173.5295, 802.8167
174.0116, 804.2510
174.4937, 805.8245
174.9758, 807.5401
175.4579, 809.2294
175.9401, 810.8804
176.4222, 812.4348
176.9043, 813.8365
177.3864, 815.1035
177.8685, 816.1645
178.3506, 816.7902
178.8328, 816.7601
179.3149, 817.1078
179.7970, 818.2983
180.2791, 819.9539
180.7612, 821.7295
181.2433, 823.4700
181.7255, 825.4207
182.2076, 828.2956
182.6897, 833.0872
183.1718, 836.9203
183.6539, 838.5416
184.1360, 839.3425
184.6181, 840.6601
185.1003, 843.1349
185.5824, 846.5858
186.0645, 850.3783
186.5466, 855.2299
187.0287, 859.5446
187.5108, 862.5862
187.9930, 865.0999
188.4751, 867.9786
188.9572, 871.7023
189.4393, 876.1990
189.9214, 881.0648
190.4035, 887.3074
190.8857, 892.7975
191.3678, 896.9015
191.8499, 899.9791
192.3320, 902.6282
192.8141, 905.1597
193.2962, 907.5996
193.7784, 910.1866
194.2605, 913.4869
194.7426, 916.3137
195.2247, 918.1178
195.7068, 919.0928
196.1889, 919.9086
196.6711, 921.1174
197.1532, 922.3795
197.6353, 922.2654
198.1174, 919.6746
198.5995, 916.8610
199.0816, 915.2607
199.5638, 914.6708
200.0459, 913.7452
200.5280, 911.6308
201.0101, 908.5530
201.4922, 905.4974
201.9743, 902.6217
202.4565, 899.6351
202.9386, 896.2255
203.4207, 892.3781
203.9028, 888.5179
204.3849, 885.1785
204.8670, 881.8585
205.3492, 877.7977
205.8313, 872.5563
206.3134, 866.9242
206.7955, 861.9032
207.2776, 857.5885
207.7597, 853.4484
208.2419, 849.7285
208.7240, 845.8665
209.2061, 841.1508
209.6882, 835.1254
210.1703, 828.6084
210.6524, 823.0204
211.1346, 818.6614
211.6167, 814.5716
212.0988, 810.4527
212.5809, 806.4316
213.0630, 802.6934
213.5451, 799.3845
214.0273, 796.1921
214.5094, 792.3503
214.9915, 787.3211
215.4736, 782.6068
215.9557, 778.8499
216.4378, 775.3474
216.9200, 771.2345
217.4021, 766.1258
217.8842, 760.5333
218.3663, 756.0003
218.8484, 753.5543
219.3305, 750.7546
219.8127, 746.9174
220.2948, 742.7615
220.7769, 738.9332
221.2590, 735.7263
221.7411, 733.1641
222.2232, 731.3494
222.7054, 732.0424
223.1875, 731.3239
223.6696, 728.0264
224.1517, 723.5407
224.6338, 719.2911
225.1159, 715.8894
225.5980, 713.3351
226.0802, 711.6600
226.5623, 711.9474
227.0444, 711.8543
227.5265, 711.0065
228.0086, 709.7445
228.4907, 708.4231
228.9729, 707.1733
229.4550, 706.0975
229.9371, 705.5118
230.4192, 705.5800
230.9013, 705.8356
231.3834, 706.5876
231.8656, 707.4042
232.3477, 707.5224
232.8298, 706.5732
233.3119, 705.1110
233.7940, 704.2557
234.2761, 703.7498
234.7583, 704.1951
235.2404, 706.6084
235.7225, 709.9423
236.2046, 712.2727
236.6867, 712.8162
237.1688, 712.5323
237.6510, 713.2668
238.1331, 715.2589
238.6152, 716.6700
239.0973, 715.9590
239.5794, 714.2823
240.0615, 714.2985
240.5437, 717.1017
241.0258, 721.0161
241.5079, 723.9001
241.9900, 725.8129
242.4721, 727.4625
242.9542, 729.1388
243.4364, 730.7706
243.9185, 732.0094
244.4006, 732.4160
244.8827, 733.1409
245.3648, 735.5515
245.8469, 739.4265
246.3290, 743.2971
246.8112, 746.5243
247.2933, 749.1924
247.7754, 751.4938
248.2575, 753.0477
248.7396, 754.9325
249.2217, 758.3132
249.7039, 762.7642
250.1860, 766.8192
250.6681, 769.4352
251.1502, 770.9731
251.6323, 772.7774
252.1144, 774.8167
252.5966, 777.2896
253.0787, 780.6510
253.5608, 784.4827
254.0429, 787.8425
254.5250, 789.6392
255.0071, 790.5032
255.4893, 793.1391
255.9714, 798.8787
256.4535, 804.2646
256.9356, 807.7803
257.4177, 809.9733
257.8998, 811.7029
258.3820, 813.3049
258.8641, 814.8273
259.3462, 816.3721
259.8283, 817.6029
260.3104, 819.4774
260.7925, 822.9145
261.2747, 826.9119
261.7568, 830.0692
262.2389, 831.5917
262.7210, 832.0664
263.2031, 833.3273
263.6852, 836.2518
264.1674, 838.4299
264.6495, 838.9669
265.1316, 838.7333
265.6137, 838.6747
266.0958, 839.2136
266.5779, 840.0032
267.0601, 840.2275
267.5422, 839.7481
268.0243, 838.8818
268.5064, 837.9482
268.9885, 836.5988
269.4706, 834.4352
269.9528, 831.3322
270.4349, 827.6379
270.9170, 824.0258
271.3991, 820.7770
271.8812, 817.0626
272.3633, 812.8350
272.8455, 808.2178
273.3276, 803.2783
273.8097, 798.0400
274.2918, 792.5765
274.7739, 786.9355
275.2560, 780.8101
275.7382, 775.1788
276.2202, 770.1887
276.7024, 765.4541
277.1845, 760.7134
277.6666, 755.9216
278.1487, 751.2059
278.6308, 746.7087
279.1129, 742.4636
279.5951, 738.3626
280.0772, 733.9252
280.5593, 729.9803
281.0414, 727.2896
281.5235, 725.6345
282.0056, 724.0068
282.4878, 721.3373
282.9699, 717.3074
283.4520, 714.5020
283.9341, 713.3126
284.4162, 712.7490
284.8983, 712.1200
285.3805, 711.7441
285.8626, 712.6584
286.3447, 715.8672
286.8268, 721.3015
287.3089, 725.2782
287.7910, 726.3967
288.2732, 727.6874
288.7553, 729.6098
289.2374, 732.3484
289.7195, 736.1214
290.2016, 741.0967
290.6837, 747.1139
291.1659, 753.4974
291.6480, 760.7556
292.1301, 767.7300
292.6122, 774.0290
293.0943, 779.9776
293.5764, 785.9496
294.0586, 792.1345
294.5407, 798.5834
295.0228, 805.4720
295.5049, 813.1642
295.9870, 820.8932
296.4691, 828.5182
296.9513, 836.2202
297.4334, 844.1024
297.9155, 852.1804
298.3976, 860.6950
298.8797, 870.1038
299.3618, 881.5075
299.8440, 891.6992
300.3261, 899.2222
300.8082, 906.3931
301.2903, 915.4319
301.7724, 926.5938
302.2545, 938.3113
302.7367, 948.7664
303.2188, 957.4197
303.7009, 966.7094
304.1830, 977.0399
304.6651, 987.6400
305.1472, 998.1664
305.6294, 1008.541
306.1115, 1018.771
306.5936, 1028.917
307.0757, 1039.042
307.5578, 1048.141
308.0399, 1056.458
308.5221, 1063.750
309.0042, 1069.602
309.4863, 1074.308
309.9684, 1078.788
310.4505, 1083.880
310.9326, 1089.048
311.4148, 1090.106
311.8969, 1084.964
312.3790, 1078.866
312.8611, 1072.890
313.3432, 1066.802
313.8253, 1060.215
314.3075, 1053.019
314.7896, 1045.001
315.2717, 1035.472
315.7538, 1023.426
316.2359, 1011.268
316.7180, 998.6543
317.2001, 986.2487
317.6823, 975.0170
318.1644, 965.1542
318.6465, 955.7835
319.1286, 945.4564
319.6107, 933.2773
320.0928, 922.5399
320.5750, 913.4518
321.0571, 905.5498
321.5392, 898.5821
322.0213, 892.4828
322.5034, 887.1371
322.9855, 882.6049
323.4677, 879.0375
323.9498, 874.8284
324.4319, 868.8057
324.9140, 863.2996
325.3961, 859.5641
325.8782, 857.3785
326.3604, 855.8248
326.8425, 854.3361
327.3246, 852.9003
327.8067, 851.3105
328.2888, 848.8502
328.7709, 847.0735
329.2531, 846.5904
329.7352, 847.0323
330.2173, 847.9381
330.6994, 849.1276
331.1815, 850.3601
331.6636, 850.9767
332.1458, 850.3631
332.6279, 849.8672
333.1100, 849.4709
333.5921, 849.2405
334.0742, 849.1368
334.5563, 849.1795
335.0385, 849.6301
335.5206, 850.9300
336.0027, 853.6066
336.4848, 855.7972
336.9669, 857.6766
337.4490, 859.0139
337.9312, 859.7722
338.4133, 859.8856
338.8954, 859.0914
339.3775, 857.0010
339.8596, 853.4327
340.3417, 850.7984
340.8239, 850.2564
341.3060, 849.3224
341.7881, 847.3700
342.2702, 844.3346
342.7523, 840.2433
343.2344, 835.1110
343.7166, 829.0040
344.1987, 822.2853
344.6808, 814.3170
345.1629, 806.3940
345.6450, 799.4763
346.1271, 792.3674
346.6093, 783.3549
347.0914, 771.9540
347.5735, 759.5084
348.0556, 748.9576
348.5377, 742.5594
349.0198, 733.8155
349.5020, 721.0966
349.9841, 707.5911
350.4662, 695.4272
350.9483, 684.9117
351.4304, 675.1262
351.9125, 665.1127
352.3947, 654.7293
352.8768, 645.1959
353.3589, 636.4255
353.8410, 628.5927
354.3231, 622.1514
354.8052, 616.7180
355.2874, 611.4566
355.7695, 605.7651
356.2516, 599.8674
356.7337, 594.9672
357.2158, 592.0023
357.6979, 588.8060
358.1800, 584.5936
358.6621, 580.1227
359.1443, 576.2987
359.6264, 573.4474
360.1085, 571.1497
360.5906, 568.5323
361.0727, 565.1782
361.5548, 562.6310
362.0370, 561.5010
362.5191, 560.8241
363.0012, 560.1303
363.4833, 559.3181
363.9654, 558.4422
364.4475, 557.4227
364.9297, 556.2162
365.4118, 555.6427
365.8939, 556.8429
366.3760, 557.3942
366.8581, 555.7755
367.3402, 552.8310
367.8224, 550.3434
368.3045, 549.4962
368.7866, 549.7161
369.2687, 549.2706
369.7508, 547.8345
370.2329, 546.4457
370.7151, 545.6976
371.1972, 545.0545
371.6793, 543.7835
372.1614, 541.5891
372.6435, 539.4851
373.1256, 539.0494
373.6078, 540.4476
374.0899, 541.1457
374.5720, 540.3028
375.0541, 538.8174
375.5362, 537.2705
376.0183, 535.6916
376.5005, 534.0892
376.9826, 532.0897
377.4647, 530.0093
377.9468, 529.2628
378.4289, 530.6173
378.9110, 531.7772
379.3932, 530.7716
379.8753, 528.5121
380.3574, 526.6904
380.8395, 525.9709
381.3216, 525.7870
381.8037, 525.4971
382.2859, 525.0977
382.7680, 524.7555
383.2501, 524.6157
383.7322, 524.5275
384.2143, 524.2870
384.6964, 523.9132
385.1786, 523.3227
385.6607, 522.3572
386.1428, 521.1443
386.6249, 519.9706
387.1070, 518.8649
387.5891, 517.9411
388.0713, 517.5721
388.5534, 517.6959
389.0355, 517.2778
389.5176, 515.6779
389.9997, 513.7106
390.4818, 512.2157
390.9640, 511.2127
391.4461, 510.1837
391.9282, 508.6548
392.4103, 506.8292
392.8924, 505.7363
393.3745, 506.1010
393.8567, 506.3315
394.3388, 505.3616
394.8209, 503.8634
395.3030, 503.1628
395.7851, 503.7647
396.2672, 505.2664
396.7494, 507.1087
397.2315, 509.8732
397.7136, 511.4702
398.1957, 510.7751
398.6778, 509.5800
399.1599, 509.2822
399.6420, 510.0388
400.1241, 511.3612
400.6063, 512.8765
401.0884, 514.6022
401.5705, 516.1301
402.0526, 517.2872
402.5347, 518.4774
403.0168, 519.9279
403.4990, 521.4800
403.9811, 522.8015
404.4632, 523.7241
404.9453, 524.4922
405.4274, 525.6907
405.9095, 527.4675
406.3917, 529.4679
406.8738, 532.0875
407.3559, 534.6034
407.8380, 536.1761
408.3201, 536.9228
408.8022, 537.9482
409.2844, 540.4387
409.7665, 544.4711
410.2486, 548.6194
410.7307, 553.8251
411.2128, 558.0383
411.6949, 559.8851
412.1771, 560.4987
412.6592, 561.6024
413.1413, 563.9934
413.6234, 567.5022
414.1055, 572.1012
414.5876, 578.5117
415.0698, 583.8650
415.5519, 586.1077
416.0340, 587.9630
416.5161, 591.4832
416.9982, 596.8568
417.4803, 602.3669
417.9625, 606.4886
418.4446, 609.4211
418.9267, 612.5919
419.4088, 615.9388
419.8909, 619.8057
420.3730, 624.8354
420.8552, 630.4647
421.3373, 635.4631
421.8194, 639.1066
422.3015, 642.2623
422.7836, 646.0977
423.2657, 650.5912
423.7479, 654.6478
424.2300, 657.7348
424.7121, 660.2064
425.1942, 662.7639
425.6763, 665.5009
426.1584, 667.8440
426.6406, 669.1194
427.1227, 669.9691
427.6048, 671.6122
428.0869, 674.3172
428.5690, 677.1180
429.0511, 679.2220
429.5333, 680.5692
430.0154, 681.4307
430.4975, 682.4047
430.9796, 682.3297
431.4617, 679.8342
431.9438, 675.7339
432.4260, 672.1190
432.9081, 670.0207
433.3902, 668.8490
433.8723, 667.2401
434.3544, 664.9918
434.8365, 662.6033
435.3187, 660.1596
435.8008, 657.5291
436.2829, 654.5858
436.7650, 651.3342
437.2471, 647.8934
437.7292, 644.3730
438.2114, 640.7594
438.6935, 637.0775
439.1756, 632.4811
439.6577, 628.7675
440.1398, 627.0306
440.6219, 626.2203
441.1040, 624.8564
441.5862, 622.3269
442.0683, 619.3786
442.5504, 617.4874
443.0325, 617.1083
443.5146, 616.3855
443.9967, 614.8782
444.4789, 613.2341
444.9610, 611.5363
445.4431, 609.9578
445.9252, 608.9045
446.4073, 608.7947
446.8894, 609.4349
447.3716, 610.1884
447.8537, 611.2550
448.3358, 611.9190
448.8179, 611.2704
449.3000, 610.3065
449.7821, 610.2559
450.2643, 611.5535
450.7464, 612.8818
451.2285, 612.5378
451.7106, 611.0397
452.1927, 611.2208
452.6748, 614.1474
453.1570, 617.8126
453.6391, 620.0996
454.1212, 621.3183
454.6033, 622.8478
455.0854, 625.1474
455.5675, 627.7746
456.0497, 630.2849
456.5318, 632.7257
457.0139, 635.5645
457.4960, 639.1708
457.9781, 643.1730
458.4602, 646.5298
458.9424, 648.9352
459.4245, 651.4653
459.9066, 654.2310
460.3887, 657.2448
460.8708, 660.5670
461.3529, 664.1829
461.8351, 667.9646
462.3172, 671.8551
462.7993, 675.8428
463.2814, 679.5820
463.7635, 682.8948
464.2456, 686.1784
464.7278, 689.5424
465.2099, 692.9606
465.6920, 696.3770
466.1741, 699.7863
466.6562, 703.1873
467.1383, 706.6725
467.6205, 710.5182
468.1026, 713.6631
468.5847, 716.0352
469.0668, 717.7195
469.5489, 718.4894
470.0310, 718.5596
470.5132, 718.4603
470.9953, 718.6035
471.4774, 718.7171
471.9595, 718.1717
472.4416, 717.0260
472.9237, 715.0283
473.4059, 712.0428
473.8880, 708.1326
474.3701, 703.3010
474.8522, 697.5730
475.3343, 690.9899
475.8164, 683.3795
476.2986, 674.9886
476.7807, 666.3760
477.2628, 657.6906
477.7449, 648.4766
478.2270, 638.0568
478.7091, 626.7582
479.1913, 616.1485
479.6734, 606.8978
480.1555, 597.7065
480.6376, 587.9235
481.1197, 577.7181
481.6018, 567.2679
482.0839, 556.5949
482.5660, 546.1380
483.0482, 536.4880
483.5303, 527.9402
484.0124, 519.3079
484.4945, 510.5201
484.9766, 501.7425
485.4587, 492.6625
485.9409, 483.6308
486.4230, 475.4486
486.9051, 468.5484
487.3872, 462.6457
487.8693, 457.0204
488.3514, 451.7682
488.8336, 446.5389
489.3157, 441.0177
489.7978, 435.7416
490.2799, 431.0367
490.7620, 426.9396
491.2441, 423.4178
491.7263, 420.6499
492.2084, 418.4392
492.6905, 415.7608
493.1726, 412.3625
493.6547, 409.1242
494.1368, 406.7263
494.6190, 404.5405
495.1011, 401.8915
495.5832, 398.6263
496.0653, 395.2225
496.5474, 391.7865
497.0295, 388.5064
497.5117, 386.1280
497.9938, 384.9236
498.4759, 383.9268
498.9580, 382.3957
499.4401, 380.3751
499.9222, 378.2190
500.4044, 375.6608
500.8865, 373.2595
501.3686, 371.3876
501.8507, 369.8574
502.3328, 368.2161
502.8149, 366.3090
503.2971, 364.3954
503.7792, 362.8584
504.2613, 361.8027
504.7434, 360.7379
505.2255, 359.9473
505.7076, 358.8775
506.1898, 356.9634
506.6719, 354.5995
507.1540, 352.5576
507.6361, 351.2355
508.1182, 350.5093
508.6003, 350.1667
509.0825, 350.3957
509.5646, 350.5031
510.0467, 350.8446
510.5288, 350.6863
511.0109, 349.1424
511.4930, 346.6204
511.9752, 344.5908
512.4573, 344.2129
512.9394, 344.7845
513.4215, 344.6437
513.9036, 343.6714
514.3857, 342.7113
514.8679, 341.8853
515.3500, 341.3962
515.8321, 341.6440
516.3142, 342.7559
516.7963, 343.4933
517.2784, 342.9421
517.7606, 341.8824
518.2427, 341.4908
518.7248, 341.8389
519.2069, 342.1662
519.6890, 342.0077
520.1711, 341.4037
520.6533, 340.5396
521.1354, 338.8218
521.6175, 337.6613
522.0996, 337.3369
522.5817, 337.6508
523.0638, 338.7814
523.5460, 340.5370
524.0281, 341.9592
524.5102, 342.0182
524.9923, 340.7672
525.4744, 340.0787
525.9565, 340.3316
526.4387, 340.6967
526.9208, 340.8730
527.4029, 341.1394
527.8850, 341.9923
528.3671, 343.5060
528.8492, 344.8483
529.3314, 344.8531
529.8135, 343.7126
530.2956, 343.4325
530.7777, 344.5297
531.2598, 345.6486
531.7419, 345.9196
532.2241, 345.6602
532.7062, 345.2738
533.1883, 344.6208
533.6704, 344.2844
534.1525, 344.7973
534.6346, 345.9082
535.1168, 347.1462
535.5989, 348.4385
536.0810, 349.4652
536.5631, 349.7993
537.0452, 349.3992
537.5273, 349.4154
538.0095, 350.5653
538.4916, 351.2931
538.9737, 350.4385
539.4558, 348.9960
539.9379, 348.5089
540.4200, 349.4547
540.9022, 351.0860
541.3843, 352.4978
541.8664, 353.8018
542.3485, 354.2465
542.8306, 352.7213
543.3127, 351.5240
543.7948, 351.6112
544.2769, 352.4196
544.7590, 353.1061
545.2411, 353.3742
545.7233, 353.3712
546.2054, 353.2546
546.6875, 353.0219
547.1696, 352.5857
547.6517, 351.7350
548.1339, 351.0518
548.6160, 351.1322
549.0981, 351.7789
549.5802, 352.5225
550.0623, 353.7284
550.5444, 354.5229
551.0266, 353.9308
551.5087, 352.5362
551.9908, 351.9024
552.4729, 352.5441
552.9550, 353.1634
553.4371, 352.0282
553.9193, 348.7007
554.4014, 346.2452
554.8835, 345.1718
555.3656, 344.2743
555.8477, 342.9147
556.3298, 341.5111
556.8120, 340.8837
557.2941, 341.2930
557.7762, 341.9609
558.2583, 341.8039
558.7404, 340.7626
559.2225, 339.3890
559.7047, 337.4876
560.1868, 335.5260
560.6689, 333.4880
561.1510, 331.5942
561.6331, 330.2910
562.1152, 329.9131
562.5974, 329.5976
563.0795, 328.5952
563.5616, 326.9971
564.0437, 324.9350
564.5258, 322.2500
565.0079, 319.9520
565.4901, 319.1611
565.9722, 319.8096
566.4543, 319.8636
566.9364, 319.3242
567.4185, 318.2054
567.9006, 316.0452
568.3828, 313.4903
568.8649, 311.3986
569.3470, 310.0110
569.8291, 309.0591
570.3112, 308.3377
570.7933, 307.8816
571.2755, 306.9691
571.7576, 305.2467
572.2397, 303.4835
572.7218, 301.6231
573.2039, 299.9314
573.6860, 298.7853
574.1682, 298.2587
574.6503, 297.8629
575.1324, 297.0017
575.6145, 295.8493
576.0966, 295.3964
576.5787, 296.0028
577.0609, 296.0969
577.5430, 294.3626
578.0251, 291.5445
578.5072, 289.4160
578.9893, 287.9408
579.4714, 287.3167
579.9536, 288.8391
580.4357, 290.6208
580.9178, 289.6713
581.3999, 286.0522
581.8820, 282.9918
582.3641, 283.1170
582.8463, 285.7510
583.3284, 286.9339
583.8105, 285.7175
584.2926, 284.3483
584.7747, 282.8337
585.2568, 281.3595
585.7390, 279.8324
586.2211, 278.4159
586.7032, 277.6991
587.1853, 278.3991
587.6674, 279.8836
588.1495, 280.3607
588.6317, 279.6827
589.1138, 278.8885
589.5959, 278.1432
590.0780, 277.5883
590.5601, 277.3945
591.0422, 277.5541
591.5244, 277.8356
592.0065, 278.5521
592.4886, 279.0594
592.9707, 278.4436
593.4528, 277.0543
593.9349, 276.1567
594.4171, 276.3366
594.8992, 277.0702
595.3813, 277.4580
595.8634, 277.4100
596.3455, 277.2621
596.8276, 276.8662
597.3098, 276.5383
597.7919, 276.3163
598.2740, 276.2766
598.7561, 276.6090
599.2382, 277.4099
599.7203, 278.2653
600.2025, 278.6322
600.6846, 278.5208
601.1667, 278.0993
601.6488, 276.9790
602.1309, 276.3732
602.6130, 277.6831
603.0952, 280.0372
603.5773, 281.6362
604.0594, 281.9159
604.5415, 282.0719
605.0236, 282.8363
605.5057, 283.8242
605.9879, 284.2542
606.4700, 284.0792
606.9521, 284.2350
607.4342, 285.6117
607.9163, 287.9580
608.3984, 289.3637
608.8806, 288.5364
609.3627, 288.5339
609.8448, 290.4666
610.3269, 292.6485
610.8090, 293.6280
611.2911, 293.4821
611.7733, 293.3662
612.2554, 294.1735
612.7375, 295.4664
613.2196, 296.1625
613.7017, 296.1973
614.1838, 296.3802
614.6660, 297.0629
615.1481, 297.8644
615.6302, 298.3018
616.1123, 298.4062
616.5944, 298.5989
617.0765, 299.1649
617.5587, 299.6596
618.0408, 299.5674
618.5229, 299.2009
619.0050, 299.5366
619.4871, 300.8832
619.9692, 301.9550
620.4514, 300.7867
620.9335, 296.8839
621.4156, 294.4879
621.8977, 295.2477
622.3798, 295.5978
622.8619, 294.4350
623.3441, 292.4897
623.8262, 290.5890
624.3083, 288.9401
624.7904, 287.2884
625.2725, 285.4859
625.7546, 283.5184
626.2367, 281.1828
626.7188, 278.3982
627.2009, 276.1180
627.6830, 275.1030
628.1652, 274.6843
628.6473, 273.1085
629.1294, 269.7536
629.6115, 267.4408
630.0936, 267.3652
630.5757, 267.7878
631.0579, 267.6609
631.5400, 266.9374
632.0221, 265.7003
632.5042, 263.9740
632.9863, 262.2172
633.4684, 261.3883
633.9506, 261.7092
634.4327, 261.8514
634.9148, 261.7559
635.3969, 261.4530
635.8790, 260.9275
636.3611, 260.2354
636.8433, 259.4253
637.3254, 258.4293
637.8075, 257.5851
638.2896, 257.2030
638.7717, 257.1294
639.2538, 257.1328
639.7360, 257.1712
640.2181, 257.0616
640.7002, 256.6192
641.1823, 255.9766
641.6644, 255.6726
642.1465, 256.2990
642.6287, 256.4446
643.1108, 255.8067
643.5929, 254.9363
644.0750, 253.9522
644.5571, 253.0582
645.0392, 252.7146
645.5214, 253.2957
646.0035, 254.1613
646.4856, 253.9742
646.9677, 252.7421
647.4498, 252.4699
