##NAMES=Arsenolite
##RRUFFID=R080095
##IDEAL CHEMISTRY=As^3+^_2_O_3_
##LOCALITY=JÃ¡chymov, Erzgebirge Region, Czech Republic
##OWNER=RRUFF
##SOURCE=University of Arizona Mineral Museum
##DESCRIPTION=Colorless octahedra crystals on black matrix associated with colorless prismatic claudetite, R050313.
##STATUS=The identification of this mineral has been confirmed by single-crystal X-ray diffraction.
##URL=rruff.info/R080095
92.52344, 1838.021
93.00555, 1815.180
93.48767, 1819.191
93.96979, 1898.492
94.45190, 1973.755
94.93402, 2035.056
95.41614, 2060.256
95.89825, 2062.113
96.38037, 2058.951
96.86249, 2051.367
97.34460, 2042.245
97.82672, 2036.842
98.30884, 2028.406
98.79095, 2014.809
99.27307, 1995.125
99.75519, 1971.629
100.2373, 1951.699
100.7194, 1936.503
101.2015, 1923.122
101.6837, 1912.339
102.1658, 1901.641
102.6479, 1887.615
103.1300, 1869.481
103.6121, 1853.963
104.0942, 1848.199
104.5764, 1848.028
105.0585, 1848.072
105.5406, 1846.646
106.0227, 1843.906
106.5048, 1840.045
106.9869, 1832.849
107.4691, 1826.602
107.9512, 1823.500
108.4333, 1822.831
108.9154, 1822.879
109.3975, 1822.615
109.8796, 1822.216
110.3618, 1819.868
110.8439, 1813.260
111.3260, 1806.520
111.8081, 1801.512
112.2902, 1798.419
112.7723, 1796.152
113.2544, 1793.233
113.7366, 1789.284
114.2187, 1785.300
114.7008, 1780.953
115.1829, 1776.693
115.6650, 1772.917
116.1471, 1769.744
116.6293, 1767.097
117.1114, 1764.865
117.5935, 1762.950
118.0756, 1761.469
118.5577, 1760.352
119.0398, 1759.662
119.5220, 1759.794
120.0041, 1761.572
120.4862, 1763.613
120.9683, 1762.939
121.4504, 1758.004
121.9325, 1752.961
122.4147, 1751.697
122.8968, 1754.549
123.3789, 1756.950
123.8610, 1756.198
124.3431, 1753.877
124.8252, 1751.129
125.3074, 1747.974
125.7895, 1744.971
126.2716, 1743.646
126.7537, 1745.744
127.2358, 1746.322
127.7179, 1742.012
128.2001, 1735.898
128.6822, 1732.256
129.1643, 1734.224
129.6464, 1741.198
130.1285, 1745.309
130.6107, 1743.695
131.0928, 1741.760
131.5749, 1740.963
132.0570, 1740.923
132.5391, 1740.443
133.0212, 1738.437
133.5034, 1734.645
133.9855, 1730.939
134.4676, 1725.535
134.9497, 1721.572
135.4318, 1721.917
135.9139, 1726.390
136.3960, 1731.392
136.8782, 1732.623
137.3603, 1729.104
137.8424, 1726.720
138.3245, 1726.627
138.8066, 1727.511
139.2887, 1727.688
139.7709, 1726.613
140.2530, 1725.512
140.7351, 1726.116
141.2172, 1728.222
141.6993, 1730.524
142.1814, 1733.248
142.6636, 1735.909
143.1457, 1736.446
143.6278, 1732.882
144.1099, 1728.735
144.5920, 1727.097
145.0741, 1727.992
145.5563, 1729.486
146.0384, 1729.534
146.5205, 1727.801
147.0026, 1727.534
147.4847, 1731.324
147.9668, 1735.475
148.4490, 1738.014
148.9311, 1738.518
149.4132, 1737.849
149.8953, 1737.152
150.3774, 1736.100
150.8595, 1735.744
151.3417, 1736.305
151.8238, 1737.345
152.3059, 1738.755
152.7880, 1740.439
153.2701, 1742.041
153.7522, 1742.640
154.2344, 1740.861
154.7165, 1739.539
155.1986, 1739.137
155.6807, 1739.141
156.1628, 1738.790
156.6449, 1737.656
157.1271, 1736.085
157.6092, 1735.561
158.0913, 1735.994
158.5734, 1737.298
159.0555, 1739.464
159.5376, 1742.496
160.0198, 1746.243
160.5019, 1750.280
160.9840, 1755.372
161.4661, 1763.378
161.9482, 1776.262
162.4303, 1789.850
162.9125, 1801.771
163.3946, 1812.041
163.8767, 1820.887
164.3588, 1828.700
164.8409, 1834.820
165.3230, 1838.072
165.8052, 1836.854
166.2873, 1833.927
166.7694, 1832.825
167.2515, 1833.873
167.7336, 1835.675
168.2157, 1837.255
168.6979, 1839.216
169.1800, 1842.352
169.6621, 1846.972
170.1442, 1853.021
170.6263, 1860.473
171.1084, 1869.978
171.5906, 1879.995
172.0727, 1890.283
172.5548, 1900.650
173.0369, 1910.831
173.5190, 1920.604
174.0011, 1930.053
174.4833, 1939.884
174.9654, 1949.808
175.4475, 1960.557
175.9296, 1971.660
176.4117, 1983.692
176.8938, 1997.740
177.3760, 2014.686
177.8581, 2034.583
178.3402, 2055.483
178.8223, 2076.395
179.3044, 2099.040
179.7865, 2122.863
180.2687, 2148.671
180.7508, 2178.389
181.2329, 2213.627
181.7150, 2255.045
182.1971, 2298.815
182.6792, 2368.083
183.1614, 2420.946
183.6435, 2434.035
184.1256, 2406.160
184.6077, 2347.239
185.0898, 2257.528
185.5719, 2135.029
186.0541, 2033.453
186.5362, 1957.089
187.0183, 1900.420
187.5004, 1862.481
187.9825, 1843.649
188.4646, 1833.150
188.9468, 1823.214
189.4289, 1814.014
189.9110, 1806.431
190.3931, 1800.721
190.8752, 1796.752
191.3573, 1794.503
191.8395, 1794.301
192.3216, 1794.969
192.8037, 1796.186
193.2858, 1797.615
193.7679, 1798.383
194.2500, 1798.427
194.7322, 1797.557
195.2143, 1794.824
195.6964, 1788.843
196.1785, 1783.135
196.6606, 1780.362
197.1427, 1779.312
197.6249, 1777.315
198.1070, 1772.021
198.5891, 1763.865
199.0712, 1757.352
199.5533, 1753.717
200.0354, 1750.491
200.5176, 1746.437
200.9997, 1742.007
201.4818, 1738.336
201.9639, 1736.472
202.4460, 1736.457
202.9281, 1736.281
203.4103, 1735.287
203.8924, 1734.741
204.3745, 1735.917
204.8566, 1738.021
205.3387, 1738.994
205.8208, 1736.715
206.3030, 1730.566
206.7851, 1727.000
207.2672, 1727.556
207.7493, 1728.936
208.2314, 1730.354
208.7135, 1731.548
209.1957, 1732.308
209.6778, 1732.363
210.1599, 1731.552
210.6420, 1731.303
211.1241, 1732.489
211.6062, 1733.358
212.0884, 1732.751
212.5705, 1730.816
213.0526, 1728.724
213.5347, 1727.664
214.0168, 1727.826
214.4989, 1726.397
214.9811, 1720.327
215.4632, 1715.127
215.9453, 1715.750
216.4274, 1721.986
216.9095, 1728.113
217.3916, 1729.075
217.8737, 1724.602
218.3559, 1720.789
218.8380, 1716.368
219.3201, 1713.508
219.8022, 1715.392
220.2843, 1722.250
220.7664, 1728.643
221.2486, 1729.838
221.7307, 1726.740
222.2128, 1723.432
222.6949, 1719.132
223.1770, 1715.565
223.6591, 1715.358
224.1413, 1719.027
224.6234, 1722.842
225.1055, 1724.224
225.5876, 1723.810
226.0697, 1722.479
226.5518, 1720.042
227.0340, 1717.010
227.5161, 1713.594
227.9982, 1709.157
228.4803, 1706.586
228.9624, 1710.135
229.4445, 1715.986
229.9267, 1718.797
230.4088, 1714.929
230.8909, 1708.346
231.3730, 1707.301
231.8551, 1714.310
232.3372, 1720.526
232.8194, 1721.715
233.3015, 1720.334
233.7836, 1718.929
234.2657, 1718.316
234.7478, 1718.646
235.2299, 1720.552
235.7121, 1725.239
236.1942, 1729.093
236.6763, 1731.040
237.1584, 1731.781
237.6405, 1731.830
238.1227, 1731.294
238.6048, 1730.613
239.0869, 1731.031
239.5690, 1733.558
240.0511, 1735.414
240.5332, 1734.250
241.0154, 1733.026
241.4975, 1735.115
241.9796, 1741.990
242.4617, 1751.689
242.9438, 1758.998
243.4259, 1760.651
243.9081, 1765.227
244.3902, 1773.226
244.8723, 1784.374
245.3544, 1796.864
245.8365, 1810.250
246.3186, 1827.926
246.8008, 1857.957
247.2829, 1904.601
247.7650, 1959.412
248.2471, 2031.085
248.7292, 2105.435
249.2113, 2173.007
249.6935, 2229.780
250.1756, 2272.471
250.6577, 2293.927
251.1398, 2274.610
251.6219, 2260.464
252.1040, 2250.083
252.5862, 2245.367
253.0683, 2248.396
253.5504, 2259.658
254.0325, 2277.680
254.5146, 2300.193
254.9967, 2327.925
255.4789, 2359.876
255.9610, 2397.110
256.4431, 2437.671
256.9252, 2480.170
257.4073, 2524.325
257.8894, 2570.308
258.3716, 2618.404
258.8537, 2668.805
259.3358, 2721.764
259.8179, 2772.989
260.3000, 2829.485
260.7821, 2897.643
261.2643, 2978.653
261.7464, 3068.725
262.2285, 3164.593
262.7106, 3267.853
263.1927, 3375.111
263.6748, 3475.065
264.1570, 3585.909
264.6391, 3723.358
265.1212, 3888.615
265.6033, 4072.380
266.0854, 4269.264
266.5675, 4479.551
267.0497, 4679.671
267.5318, 4977.036
268.0139, 5188.375
268.4960, 5157.287
268.9781, 4878.880
269.4602, 4449.654
269.9424, 3877.385
270.4245, 3199.369
270.9066, 2665.245
271.3887, 2323.801
271.8708, 2094.368
272.3529, 1939.628
272.8351, 1854.234
273.3172, 1800.908
273.7993, 1765.191
274.2814, 1745.054
274.7635, 1728.260
275.2456, 1714.788
275.7278, 1704.546
276.2099, 1698.677
276.6920, 1696.730
277.1741, 1694.915
277.6562, 1691.120
278.1383, 1686.668
278.6205, 1684.479
279.1026, 1685.845
279.5847, 1686.631
280.0668, 1682.632
280.5489, 1674.905
281.0310, 1670.198
281.5132, 1672.455
281.9953, 1677.292
282.4774, 1678.200
282.9595, 1674.614
283.4416, 1670.550
283.9237, 1668.063
284.4059, 1667.003
284.8880, 1666.994
285.3701, 1668.833
285.8522, 1670.445
286.3343, 1668.958
286.8164, 1664.560
287.2986, 1661.416
287.7807, 1663.427
288.2628, 1668.654
288.7449, 1670.258
289.2270, 1665.615
289.7091, 1660.299
290.1913, 1659.614
290.6734, 1662.337
291.1555, 1664.060
291.6376, 1661.825
292.1197, 1657.229
292.6018, 1653.909
293.0840, 1652.092
293.5661, 1651.496
294.0482, 1652.973
294.5303, 1655.414
295.0124, 1656.683
295.4945, 1655.085
295.9767, 1652.293
296.4588, 1651.493
296.9409, 1653.229
297.4230, 1655.102
297.9051, 1656.380
298.3872, 1656.930
298.8694, 1656.314
299.3515, 1654.032
299.8336, 1651.193
300.3157, 1649.135
300.7978, 1647.875
301.2799, 1647.242
301.7621, 1647.812
302.2442, 1648.663
302.7263, 1648.941
303.2084, 1648.431
303.6905, 1647.703
304.1726, 1647.287
304.6548, 1647.189
305.1369, 1647.290
305.6190, 1648.091
306.1011, 1648.625
306.5832, 1648.145
307.0653, 1646.614
307.5475, 1644.543
308.0296, 1641.712
308.5117, 1638.304
308.9938, 1636.688
309.4759, 1638.522
309.9580, 1640.677
310.4402, 1640.805
310.9223, 1639.353
311.4044, 1638.116
311.8865, 1638.096
312.3686, 1639.191
312.8507, 1641.320
313.3329, 1645.774
313.8150, 1648.912
314.2971, 1647.998
314.7792, 1644.649
315.2613, 1641.880
315.7434, 1641.583
316.2256, 1642.347
316.7077, 1640.514
317.1898, 1634.502
317.6719, 1630.292
318.1540, 1632.408
318.6361, 1636.944
319.1183, 1639.763
319.6004, 1639.471
320.0825, 1637.600
320.5646, 1636.046
321.0467, 1634.843
321.5288, 1633.730
322.0110, 1632.141
322.4931, 1630.947
322.9752, 1631.214
323.4573, 1633.145
323.9394, 1635.076
324.4215, 1635.435
324.9037, 1634.249
325.3858, 1632.615
325.8679, 1629.629
326.3500, 1627.442
326.8321, 1628.077
327.3142, 1631.128
327.7964, 1633.983
328.2785, 1634.782
328.7606, 1633.885
329.2427, 1633.094
329.7248, 1632.836
330.2069, 1632.083
330.6891, 1629.459
331.1712, 1625.945
331.6533, 1623.666
332.1354, 1623.979
332.6175, 1625.921
333.0996, 1627.870
333.5818, 1630.169
334.0639, 1631.372
334.5460, 1629.941
335.0281, 1627.274
335.5102, 1624.611
335.9923, 1621.888
336.4745, 1620.093
336.9566, 1620.961
337.4387, 1624.681
337.9208, 1627.691
338.4029, 1628.033
338.8850, 1627.723
339.3671, 1628.750
339.8492, 1631.335
340.3314, 1634.372
340.8135, 1637.061
341.2956, 1639.497
341.7777, 1641.975
342.2598, 1643.975
342.7419, 1646.944
343.2241, 1652.230
343.7062, 1659.525
344.1883, 1667.334
344.6704, 1674.514
345.1525, 1681.786
345.6346, 1689.550
346.1168, 1696.307
346.5989, 1708.393
347.0810, 1729.465
347.5631, 1759.040
348.0452, 1798.698
348.5273, 1847.973
349.0095, 1908.253
349.4916, 1982.135
349.9737, 2069.420
350.4558, 2167.634
350.9379, 2287.268
351.4200, 2409.514
351.9022, 2506.522
352.3843, 2575.017
352.8664, 2622.698
353.3485, 2644.878
353.8306, 2647.731
354.3127, 2654.045
354.7949, 2666.970
355.2770, 2691.124
355.7591, 2732.822
356.2412, 2790.838
356.7233, 2859.502
357.2054, 2936.206
357.6876, 3022.469
358.1697, 3122.309
358.6518, 3237.121
359.1339, 3359.221
359.6160, 3479.230
360.0981, 3600.368
360.5803, 3735.365
361.0624, 3886.540
361.5445, 4051.264
362.0266, 4225.820
362.5087, 4410.844
362.9908, 4608.718
363.4730, 4819.592
363.9551, 5046.015
364.4372, 5295.082
364.9193, 5565.327
365.4014, 5855.536
365.8835, 6176.175
366.3657, 6513.897
366.8478, 6854.617
367.3299, 7199.491
367.8120, 7517.852
368.2941, 7783.032
368.7762, 8034.441
369.2584, 8075.137
369.7405, 7860.103
370.2226, 7432.046
370.7047, 6757.223
371.1868, 5850.216
371.6689, 4917.206
372.1511, 4117.021
372.6332, 3458.810
373.1153, 2950.879
373.5974, 2631.335
374.0795, 2402.263
374.5616, 2239.737
375.0438, 2129.733
375.5259, 2047.310
376.0080, 1981.127
376.4901, 1929.283
376.9722, 1886.257
377.4543, 1855.972
377.9365, 1829.279
378.4186, 1805.568
378.9007, 1784.839
379.3828, 1767.719
379.8649, 1754.232
380.3470, 1743.128
380.8292, 1732.913
381.3113, 1724.300
381.7934, 1714.189
382.2755, 1700.559
382.7576, 1687.367
383.2397, 1676.998
383.7219, 1669.196
384.2040, 1662.591
384.6861, 1656.235
385.1682, 1650.101
385.6503, 1643.844
386.1324, 1636.230
386.6146, 1629.963
387.0967, 1627.149
387.5788, 1625.467
388.0609, 1621.679
388.5430, 1614.434
389.0251, 1605.509
389.5073, 1598.354
389.9894, 1593.229
390.4715, 1589.469
390.9536, 1587.040
391.4357, 1585.695
391.9178, 1586.250
392.4000, 1588.154
392.8821, 1589.092
393.3642, 1586.582
393.8463, 1580.506
394.3284, 1574.376
394.8105, 1566.273
395.2927, 1560.453
395.7748, 1559.100
396.2569, 1560.755
396.7390, 1563.244
397.2211, 1565.827
397.7032, 1567.897
398.1854, 1567.642
398.6675, 1563.964
399.1496, 1561.314
399.6317, 1561.978
400.1138, 1563.518
400.5959, 1564.229
401.0781, 1563.815
401.5602, 1562.858
402.0423, 1561.459
402.5244, 1559.741
403.0065, 1559.208
403.4886, 1560.755
403.9708, 1562.483
404.4529, 1563.045
404.9350, 1562.720
405.4171, 1562.273
405.8992, 1562.426
406.3813, 1562.439
406.8635, 1560.558
407.3456, 1556.448
407.8277, 1553.476
408.3098, 1553.483
408.7919, 1555.662
409.2740, 1558.808
409.7562, 1563.646
410.2383, 1567.381
410.7204, 1567.423
411.2025, 1564.978
411.6846, 1563.599
412.1667, 1564.266
412.6489, 1565.969
413.1310, 1568.320
413.6131, 1571.372
414.0952, 1571.760
414.5773, 1566.666
415.0594, 1560.173
415.5416, 1556.155
416.0237, 1554.613
416.5058, 1553.282
416.9879, 1550.651
417.4700, 1547.018
417.9521, 1544.022
418.4343, 1540.690
418.9164, 1538.989
419.3985, 1540.550
419.8806, 1543.739
420.3627, 1546.480
420.8448, 1548.097
421.3270, 1548.344
421.8091, 1546.525
422.2912, 1540.938
422.7733, 1538.409
423.2554, 1541.750
423.7375, 1545.448
424.2197, 1546.481
424.7018, 1544.920
425.1839, 1541.896
425.6660, 1537.937
426.1481, 1533.492
426.6302, 1531.635
427.1124, 1535.509
427.5945, 1538.245
428.0766, 1537.916
428.5587, 1536.635
429.0408, 1536.921
429.5229, 1539.406
430.0051, 1542.238
430.4872, 1542.532
430.9693, 1539.481
431.4514, 1537.311
431.9335, 1537.004
432.4156, 1536.843
432.8978, 1536.537
433.3799, 1535.838
433.8620, 1534.160
434.3441, 1530.608
434.8262, 1526.264
435.3083, 1524.629
435.7905, 1526.830
436.2726, 1528.624
436.7547, 1527.315
437.2368, 1525.533
437.7189, 1526.061
438.2010, 1529.571
438.6832, 1533.006
439.1653, 1533.415
439.6474, 1531.345
440.1295, 1529.689
440.6116, 1528.769
441.0938, 1528.565
441.5759, 1528.728
442.0580, 1529.465
442.5401, 1531.814
443.0222, 1539.694
443.5043, 1546.797
443.9865, 1544.533
444.4686, 1534.109
444.9507, 1526.686
445.4328, 1528.285
445.9149, 1535.292
446.3970, 1539.224
446.8792, 1538.735
447.3613, 1539.587
447.8434, 1545.614
448.3255, 1552.784
448.8076, 1555.013
449.2897, 1551.603
449.7719, 1548.429
450.2540, 1551.428
450.7361, 1561.041
451.2182, 1567.800
451.7003, 1568.569
452.1824, 1570.364
452.6646, 1576.238
453.1467, 1584.777
453.6288, 1593.877
454.1109, 1602.642
454.5930, 1610.440
455.0751, 1615.817
455.5573, 1616.410
456.0394, 1619.224
456.5215, 1624.854
457.0036, 1631.782
457.4857, 1640.015
457.9678, 1648.863
458.4500, 1656.806
458.9321, 1662.476
459.4142, 1666.320
459.8963, 1670.963
460.3784, 1676.146
460.8605, 1682.669
461.3427, 1690.007
461.8248, 1699.024
462.3069, 1711.452
462.7890, 1727.711
463.2711, 1744.274
463.7532, 1756.316
464.2354, 1764.409
464.7175, 1776.078
465.1996, 1794.126
465.6817, 1812.770
466.1638, 1828.256
466.6459, 1841.191
467.1281, 1852.955
467.6102, 1864.378
468.0923, 1874.408
468.5744, 1882.003
469.0565, 1887.202
469.5386, 1890.398
470.0208, 1893.058
470.5029, 1892.045
470.9850, 1880.828
471.4671, 1858.599
471.9492, 1834.359
472.4313, 1810.169
472.9135, 1785.092
473.3956, 1756.543
473.8777, 1725.053
474.3598, 1695.976
474.8419, 1674.097
475.3240, 1658.448
475.8062, 1639.838
476.2883, 1613.407
476.7704, 1590.326
477.2525, 1573.229
477.7346, 1560.574
478.2167, 1551.425
478.6989, 1545.139
479.1810, 1540.003
479.6631, 1533.606
480.1452, 1525.469
480.6273, 1518.739
481.1094, 1513.489
481.5916, 1509.622
482.0737, 1507.807
482.5558, 1507.250
483.0379, 1506.699
483.5200, 1505.561
484.0021, 1504.062
484.4843, 1502.748
484.9664, 1501.795
485.4485, 1500.144
485.9306, 1496.827
486.4127, 1493.389
486.8948, 1491.039
487.3770, 1489.608
487.8591, 1487.949
488.3412, 1485.002
488.8233, 1481.528
489.3054, 1478.859
489.7875, 1476.995
490.2697, 1476.285
490.7518, 1477.692
491.2339, 1479.972
491.7160, 1480.604
492.1981, 1479.129
492.6802, 1477.356
493.1624, 1475.745
493.6445, 1474.419
494.1266, 1473.666
494.6087, 1473.517
495.0908, 1473.558
495.5729, 1473.499
496.0551, 1473.326
496.5372, 1472.694
497.0193, 1471.419
497.5014, 1469.978
497.9835, 1468.143
498.4656, 1466.355
498.9478, 1465.314
499.4299, 1465.216
499.9120, 1465.507
500.3941, 1465.366
500.8762, 1464.615
501.3583, 1464.122
501.8405, 1464.462
502.3226, 1464.470
502.8047, 1462.995
503.2868, 1460.998
503.7689, 1460.385
504.2510, 1462.245
504.7331, 1465.249
505.2152, 1467.193
505.6974, 1468.107
506.1795, 1467.752
506.6616, 1464.969
507.1437, 1461.929
507.6258, 1460.035
508.1079, 1459.265
508.5901, 1459.325
509.0722, 1460.606
509.5543, 1462.372
510.0364, 1463.950
510.5185, 1465.310
511.0006, 1465.088
511.4828, 1461.922
511.9649, 1457.421
512.4470, 1455.104
512.9291, 1455.448
513.4113, 1455.827
513.8934, 1455.454
514.3755, 1454.864
514.8576, 1454.838
515.3397, 1455.303
515.8218, 1455.143
516.3040, 1453.265
516.7861, 1450.160
517.2682, 1449.411
517.7503, 1453.672
518.2324, 1457.019
518.7145, 1458.903
519.1967, 1459.669
519.6788, 1459.537
520.1609, 1458.630
520.6430, 1457.108
521.1251, 1454.821
521.6072, 1451.821
522.0894, 1450.406
522.5715, 1451.377
523.0536, 1452.715
523.5357, 1454.041
524.0178, 1455.164
524.4999, 1455.805
524.9821, 1455.871
525.4642, 1455.711
525.9463, 1455.495
526.4284, 1455.294
526.9105, 1455.309
527.3926, 1455.399
527.8748, 1456.253
528.3569, 1459.022
528.8390, 1463.068
529.3211, 1466.208
529.8032, 1468.393
530.2853, 1469.439
530.7675, 1468.608
531.2496, 1466.668
531.7317, 1464.916
532.2138, 1463.717
532.6959, 1463.338
533.1780, 1464.296
533.6602, 1466.987
534.1423, 1468.505
534.6244, 1469.236
535.1065, 1468.596
535.5886, 1464.924
536.0707, 1460.161
536.5529, 1457.059
537.0350, 1456.732
537.5171, 1458.503
537.9992, 1461.534
538.4813, 1466.007
538.9634, 1470.711
539.4456, 1474.118
539.9277, 1479.517
540.4098, 1488.283
540.8919, 1500.025
541.3740, 1513.760
541.8561, 1528.792
542.3383, 1546.303
542.8204, 1568.906
543.3025, 1596.007
543.7846, 1622.259
544.2667, 1647.119
544.7488, 1669.208
545.2310, 1686.347
545.7131, 1698.992
546.1952, 1710.146
546.6773, 1715.694
547.1594, 1723.999
547.6415, 1743.021
548.1237, 1769.114
548.6058, 1792.168
549.0879, 1807.776
549.5700, 1822.712
550.0521, 1848.554
550.5342, 1889.317
551.0164, 1928.757
551.4985, 1961.967
551.9806, 1998.710
552.4627, 2044.406
552.9448, 2096.861
553.4269, 2151.917
553.9091, 2207.652
554.3912, 2264.622
554.8733, 2322.559
555.3554, 2380.754
555.8375, 2446.845
556.3196, 2527.424
556.8018, 2609.889
557.2839, 2691.523
557.7660, 2769.269
558.2481, 2834.642
558.7302, 2890.426
559.2123, 2925.366
559.6945, 2932.807
560.1766, 2910.677
560.6587, 2845.929
561.1408, 2730.717
561.6229, 2583.252
562.1050, 2417.488
562.5872, 2228.733
563.0693, 2063.708
563.5514, 1924.877
564.0335, 1808.595
564.5156, 1716.594
564.9977, 1645.799
565.4799, 1592.947
565.9620, 1556.716
566.4441, 1531.649
566.9262, 1509.781
567.4083, 1491.540
567.8904, 1474.726
568.3726, 1457.821
568.8547, 1444.150
569.3368, 1436.693
569.8189, 1432.783
570.3010, 1428.196
570.7831, 1421.274
571.2653, 1413.547
571.7474, 1405.818
572.2295, 1398.438
572.7116, 1394.809
573.1937, 1397.123
573.6758, 1399.149
574.1580, 1394.085
574.6401, 1384.124
575.1222, 1377.920
575.6043, 1379.201
576.0864, 1381.081
576.5685, 1380.355
577.0507, 1377.958
577.5328, 1375.071
578.0149, 1372.079
578.4970, 1369.684
578.9791, 1368.789
579.4612, 1369.491
579.9434, 1369.354
580.4255, 1367.368
580.9076, 1365.720
581.3897, 1365.162
581.8718, 1364.948
582.3539, 1364.012
582.8361, 1362.220
583.3182, 1360.748
583.8003, 1361.362
584.2824, 1363.602
584.7645, 1363.616
585.2466, 1360.237
585.7288, 1357.942
586.2108, 1359.852
586.6929, 1363.751
587.1750, 1366.771
587.6572, 1368.916
588.1393, 1369.266
588.6214, 1365.865
