##NAMES=Arsenogorceixite
##RRUFFID=R060686
##IDEAL CHEMISTRY=BaAl_3_As^5+^O_4_(As^5+^O_3_OH)(OH)_6_
##LOCALITY=Clara mine, Rankach Valley, Oberwolfach, Wolfach, Black Forest, Baden-WÃ¼rttemberg, Germany
##OWNER=RRUFF
##SOURCE=Michael Scott
##DESCRIPTION=Stacked aggregates of pale greenish-yellow hexagonal plates
##STATUS=The identification of this mineral has been confirmed only by single crystal X-ray diffraction.
##URL=rruff.info/R060686
186.6130, 15360.00
187.0950, 15525.44
187.5770, 15713.35
188.0590, 15900.88
188.5420, 16043.85
189.0240, 16131.68
189.5060, 16215.25
189.9880, 16328.99
190.4700, 16462.42
190.9520, 16599.74
191.4340, 16741.97
191.9170, 16883.54
192.3990, 17017.73
192.8810, 17146.64
193.3630, 17263.11
193.8450, 17359.02
194.3270, 17440.51
194.8090, 17513.84
195.2910, 17586.99
195.7730, 17650.74
196.2550, 17682.45
196.7380, 17672.15
197.2200, 17669.64
197.7020, 17734.27
198.1840, 17822.66
198.6660, 17866.94
199.1480, 17832.71
199.6300, 17753.80
200.1120, 17675.03
200.5950, 17595.30
201.0770, 17519.42
201.5590, 17456.21
202.0410, 17397.46
202.5230, 17330.43
203.0050, 17244.60
203.4870, 17155.25
203.9690, 17085.48
204.4520, 17038.94
204.9340, 16993.32
205.4160, 16937.53
205.8980, 16874.89
206.3800, 16808.56
206.8620, 16733.43
207.3440, 16660.59
207.8260, 16603.05
208.3080, 16561.01
208.7910, 16531.78
209.2730, 16525.66
209.7550, 16528.26
210.2370, 16520.57
210.7190, 16495.22
211.2010, 16463.88
211.6830, 16438.03
212.1650, 16417.90
212.6480, 16401.22
213.1300, 16379.41
213.6120, 16370.91
214.0940, 16419.03
214.5760, 16453.41
215.0580, 16474.79
215.5400, 16444.19
216.0220, 16480.70
216.5040, 16490.32
216.9860, 16498.83
217.4690, 16544.79
217.9510, 16521.75
218.4330, 16567.11
218.9150, 16585.17
219.3970, 16615.72
219.8790, 16619.22
220.3610, 16631.07
220.8440, 16669.99
221.3260, 16693.92
221.8080, 16694.30
222.2900, 16725.65
222.7720, 16701.67
223.2540, 16726.25
223.7360, 16771.76
224.2180, 16773.50
224.7000, 16780.93
225.1820, 16821.00
225.6650, 16849.46
226.1470, 16866.01
226.6290, 16873.77
227.1110, 16866.81
227.5930, 16850.77
228.0750, 16849.24
228.5570, 16877.96
229.0400, 16907.72
229.5220, 16900.91
230.0040, 16857.23
230.4860, 16803.93
230.9680, 16744.98
231.4500, 16685.41
231.9320, 16637.59
232.4140, 16605.58
232.8960, 16582.51
233.3780, 16566.62
233.8610, 16558.04
234.3430, 16534.83
234.8250, 16482.11
235.3070, 16412.44
235.7890, 16344.33
236.2710, 16279.27
236.7530, 16219.88
237.2350, 16171.58
237.7180, 16133.18
238.2000, 16095.52
238.6820, 16050.10
239.1640, 16007.47
239.6460, 15984.64
240.1280, 15984.33
240.6100, 15983.85
241.0920, 15962.18
241.5740, 15920.05
242.0570, 15879.74
242.5390, 15843.09
243.0210, 15809.04
243.5030, 15775.23
243.9850, 15742.18
244.4670, 15714.56
244.9490, 15695.02
245.4310, 15685.09
245.9130, 15686.53
246.3960, 15712.71
246.8780, 15738.49
247.3600, 15745.06
247.8420, 15736.29
248.3240, 15729.84
248.8060, 15735.37
249.2880, 15752.50
249.7700, 15777.29
250.2530, 15824.34
250.7350, 15862.22
251.2170, 15876.46
251.6990, 15872.27
252.1810, 15856.09
252.6630, 15826.36
253.1450, 15795.20
253.6270, 15808.08
254.1090, 15919.58
254.5920, 16002.66
255.0740, 16013.54
255.5560, 15987.05
256.0380, 15973.52
256.5200, 15992.86
257.0020, 16029.30
257.4840, 16049.23
257.9660, 16027.97
258.4490, 16026.02
258.9310, 16059.16
259.4130, 16105.51
259.8950, 16147.98
260.3770, 16181.06
260.8590, 16201.85
261.3410, 16203.59
261.8230, 16165.40
262.3060, 16157.14
262.7880, 16207.97
263.2700, 16264.38
263.7520, 16282.44
264.2340, 16261.95
264.7160, 16240.09
265.1980, 16220.60
265.6800, 16240.91
266.1620, 16251.55
266.6450, 16253.05
267.1270, 16218.05
267.6090, 16230.19
268.0910, 16223.44
268.5730, 16215.91
269.0550, 16234.68
269.5370, 16204.99
270.0190, 16223.35
270.5010, 16219.01
270.9840, 16241.95
271.4660, 16251.22
271.9480, 16247.66
272.4300, 16231.25
272.9120, 16198.70
273.3940, 16158.22
273.8760, 16145.41
274.3580, 16189.63
274.8410, 16216.74
275.3230, 16197.23
275.8050, 16159.39
276.2870, 16129.44
276.7690, 16116.81
277.2510, 16126.41
277.7330, 16178.52
278.2150, 16299.68
278.6980, 16385.16
279.1800, 16387.02
279.6620, 16361.25
280.1440, 16341.51
280.6260, 16335.62
281.1080, 16346.46
281.5900, 16388.93
282.0720, 16467.21
282.5540, 16516.70
283.0360, 16512.22
283.5190, 16486.55
284.0010, 16449.72
284.4830, 16406.10
284.9650, 16384.64
285.4470, 16423.73
285.9290, 16507.53
286.4110, 16560.53
286.8930, 16569.91
287.3760, 16557.61
287.8580, 16535.23
288.3400, 16505.33
288.8220, 16475.49
289.3040, 16440.86
289.7860, 16411.13
290.2680, 16403.24
290.7500, 16419.89
291.2330, 16448.35
291.7150, 16492.94
292.1970, 16542.61
292.6790, 16567.83
293.1610, 16536.78
293.6430, 16503.13
294.1250, 16516.93
294.6070, 16572.00
295.0890, 16621.70
295.5720, 16638.48
296.0540, 16637.32
296.5360, 16662.37
297.0180, 16736.20
297.5000, 16796.69
297.9820, 16800.96
298.4640, 16775.57
298.9460, 16773.91
299.4280, 16815.61
299.9110, 16882.48
300.3930, 16946.10
300.8750, 17010.02
301.3570, 17060.42
301.8390, 17075.35
302.3210, 17087.11
302.8030, 17092.74
303.2850, 17144.59
303.7670, 17185.23
304.2500, 17215.25
304.7320, 17202.85
305.2140, 17244.48
305.6960, 17251.88
306.1780, 17262.40
306.6600, 17248.61
307.1420, 17215.92
307.6250, 17187.49
308.1070, 17181.60
308.5890, 17196.54
309.0710, 17203.75
309.5530, 17192.91
310.0350, 17185.30
310.5170, 17204.01
310.9990, 17223.15
311.4810, 17201.15
311.9640, 17116.05
312.4460, 16997.32
312.9280, 16917.38
313.4100, 16895.89
313.8920, 16876.64
314.3740, 16856.59
314.8560, 16832.79
315.3380, 16805.13
315.8200, 16773.04
316.3030, 16731.44
316.7850, 16667.40
317.2670, 16576.66
317.7490, 16504.26
318.2310, 16466.77
318.7130, 16437.71
319.1950, 16400.54
319.6770, 16357.30
320.1590, 16319.63
320.6420, 16300.57
321.1240, 16293.48
321.6060, 16273.91
322.0880, 16234.79
322.5700, 16197.63
323.0520, 16173.48
323.5340, 16160.33
324.0160, 16157.50
324.4990, 16176.67
324.9810, 16195.12
325.4630, 16184.88
325.9450, 16146.70
326.4270, 16103.80
326.9090, 16061.58
327.3910, 16024.94
327.8730, 16004.29
328.3550, 16007.98
328.8380, 16009.47
329.3200, 15995.75
329.8020, 15971.83
330.2840, 15945.03
330.7660, 15916.49
331.2480, 15891.94
331.7300, 15880.91
332.2120, 15888.55
332.6950, 15892.20
333.1770, 15893.80
333.6590, 15888.87
334.1410, 15872.09
334.6230, 15844.12
335.1050, 15810.54
335.5870, 15774.35
336.0690, 15735.29
336.5520, 15707.65
337.0340, 15701.39
337.5160, 15694.45
337.9980, 15679.65
338.4800, 15659.39
338.9620, 15636.98
339.4440, 15613.64
339.9260, 15592.40
340.4080, 15584.64
340.8910, 15611.05
341.3730, 15614.77
341.8550, 15568.36
342.3370, 15513.11
342.8190, 15483.97
343.3010, 15487.98
343.7830, 15505.14
344.2650, 15513.24
344.7470, 15511.22
345.2300, 15507.62
345.7120, 15494.00
346.1940, 15488.14
346.6760, 15502.46
347.1580, 15532.60
347.6400, 15563.88
348.1220, 15587.08
348.6040, 15605.53
349.0860, 15629.83
349.5690, 15663.52
350.0510, 15691.16
350.5330, 15707.04
351.0150, 15710.39
351.4970, 15695.75
351.9790, 15649.40
352.4610, 15605.98
352.9440, 15601.36
353.4260, 15626.02
353.9080, 15635.84
354.3900, 15612.15
354.8720, 15572.61
355.3540, 15546.77
355.8360, 15536.05
356.3180, 15527.25
356.8000, 15521.65
357.2830, 15514.51
357.7650, 15497.43
358.2470, 15470.21
358.7290, 15446.22
359.2110, 15440.64
359.6930, 15456.58
360.1750, 15449.27
360.6570, 15386.34
361.1390, 15337.59
361.6220, 15345.44
362.1040, 15386.44
362.5860, 15410.56
363.0680, 15389.88
363.5500, 15342.56
364.0320, 15323.69
364.5140, 15352.84
364.9960, 15380.12
365.4780, 15410.04
365.9610, 15430.99
366.4430, 15424.59
366.9250, 15391.58
367.4070, 15361.91
367.8890, 15375.39
368.3710, 15435.62
368.8530, 15477.71
369.3350, 15487.02
369.8180, 15492.61
370.3000, 15504.96
370.7820, 15525.03
371.2640, 15555.02
371.7460, 15603.22
372.2280, 15656.58
372.7100, 15692.85
373.1920, 15710.40
373.6740, 15722.84
374.1570, 15738.59
374.6390, 15750.89
375.1210, 15747.36
375.6030, 15719.67
376.0850, 15696.37
376.5670, 15696.91
377.0490, 15711.77
377.5310, 15719.52
378.0130, 15713.86
378.4960, 15708.22
378.9780, 15722.57
379.4600, 15765.39
379.9420, 15780.47
380.4240, 15738.13
380.9060, 15692.22
381.3880, 15683.84
381.8710, 15704.53
382.3530, 15715.92
382.8350, 15690.07
383.3170, 15639.04
383.7990, 15627.12
384.2810, 15706.87
384.7630, 15762.14
385.2450, 15768.93
385.7270, 15753.96
386.2100, 15741.89
386.6920, 15739.94
387.1740, 15741.50
387.6560, 15734.21
388.1380, 15713.54
388.6200, 15713.89
389.1020, 15755.69
389.5840, 15799.88
390.0660, 15829.96
390.5490, 15847.53
391.0310, 15858.09
391.5130, 15858.77
391.9950, 15857.93
392.4770, 15872.82
392.9590, 15904.85
393.4410, 15941.95
393.9230, 15984.26
394.4050, 16025.31
394.8880, 16053.40
395.3700, 16062.18
395.8520, 16074.49
396.3340, 16106.55
396.8160, 16149.13
397.2980, 16185.92
397.7800, 16213.50
398.2630, 16232.13
398.7450, 16241.12
399.2270, 16238.58
399.7090, 16235.38
400.1910, 16217.86
400.6730, 16212.27
401.1550, 16241.51
401.6370, 16293.91
402.1190, 16341.62
402.6020, 16368.92
403.0840, 16380.89
403.5660, 16391.97
404.0480, 16395.02
404.5300, 16410.21
405.0120, 16457.53
405.4940, 16503.97
405.9760, 16515.88
406.4580, 16493.75
406.9410, 16474.18
407.4230, 16499.25
407.9050, 16566.62
408.3870, 16618.01
408.8690, 16644.81
409.3510, 16669.83
409.8330, 16706.91
410.3150, 16749.86
410.7970, 16788.28
411.2800, 16819.30
411.7620, 16843.93
412.2440, 16856.35
412.7260, 16859.58
413.2080, 16877.45
413.6900, 16920.52
414.1720, 16976.66
414.6540, 17030.09
415.1370, 17082.87
415.6190, 17123.79
416.1010, 17141.80
416.5830, 17152.88
417.0650, 17175.85
417.5470, 17208.96
418.0290, 17232.56
418.5110, 17231.24
418.9930, 17207.61
419.4760, 17185.30
419.9580, 17141.27
420.4400, 17127.15
420.9220, 17178.56
421.4040, 17249.79
421.8860, 17295.45
422.3680, 17302.13
422.8500, 17281.60
423.3320, 17236.54
423.8150, 17159.14
424.2970, 17126.55
424.7790, 17188.48
425.2610, 17241.56
425.7430, 17232.74
426.2250, 17176.88
426.7070, 17109.01
427.1900, 17030.82
427.6720, 16961.95
428.1540, 16944.03
428.6360, 16975.39
429.1180, 16983.77
429.6000, 16934.00
430.0820, 16856.24
430.5640, 16799.01
431.0460, 16763.54
431.5290, 16736.80
432.0110, 16732.49
432.4930, 16725.25
432.9750, 16673.96
433.4570, 16582.41
433.9390, 16507.96
434.4210, 16501.91
434.9030, 16556.54
435.3850, 16563.67
435.8680, 16476.93
436.3500, 16398.10
436.8320, 16344.93
437.3140, 16307.51
437.7960, 16276.40
438.2780, 16248.21
438.7600, 16218.46
439.2420, 16175.00
439.7240, 16113.72
440.2070, 16084.08
440.6890, 16123.85
441.1710, 16151.01
441.6530, 16103.43
442.1350, 16013.75
442.6170, 15958.74
443.0990, 15989.95
443.5810, 16041.88
444.0640, 16030.84
444.5460, 15962.85
445.0280, 15896.44
445.5100, 15846.53
445.9920, 15816.05
446.4740, 15822.38
446.9560, 15877.23
447.4380, 15899.66
447.9210, 15846.11
448.4030, 15777.01
448.8850, 15747.07
449.3670, 15753.15
449.8490, 15758.47
450.3310, 15737.08
450.8130, 15695.95
451.2950, 15669.56
451.7770, 15662.62
452.2590, 15666.03
452.7420, 15691.19
453.2240, 15718.06
453.7060, 15731.25
454.1880, 15727.63
454.6700, 15712.38
455.1520, 15678.47
455.6340, 15630.96
456.1160, 15623.86
456.5990, 15678.30
457.0810, 15729.56
457.5630, 15733.16
458.0450, 15711.78
458.5270, 15696.83
459.0090, 15687.85
459.4910, 15697.28
459.9730, 15742.88
460.4560, 15696.64
460.9380, 15782.64
461.4200, 15836.53
461.9020, 15860.06
462.3840, 15762.23
462.8660, 15821.10
463.3480, 15817.18
463.8300, 15810.67
464.3120, 15891.60
464.7950, 15811.43
465.2770, 15890.96
465.7590, 15906.75
466.2410, 15951.71
466.7230, 15933.49
467.2050, 15934.78
467.6870, 15999.28
468.1690, 16028.78
468.6510, 16003.29
469.1340, 16050.10
469.6160, 15967.72
470.0980, 15998.71
470.5800, 16078.62
471.0620, 16056.31
471.5440, 16104.28
472.0260, 16125.48
472.5080, 16025.02
472.9910, 16136.14
473.4730, 16155.76
473.9550, 16081.43
474.4370, 16185.30
474.9190, 16123.92
475.4010, 16121.53
475.8830, 16163.52
476.3650, 16174.09
476.8480, 16215.13
477.3300, 16242.04
477.8120, 16260.68
478.2940, 16274.11
478.7760, 16284.37
479.2580, 16301.87
479.7400, 16343.81
480.2220, 16364.33
480.7040, 16331.26
481.1860, 16296.32
481.6690, 16306.45
482.1510, 16362.43
482.6330, 16421.24
483.1150, 16442.55
483.5970, 16439.45
484.0790, 16459.95
484.5610, 16509.90
485.0430, 16557.63
485.5260, 16589.78
486.0080, 16606.62
486.4900, 16609.63
486.9720, 16588.52
487.4540, 16576.82
487.9360, 16597.25
488.4180, 16595.27
488.9000, 16628.48
489.3830, 16653.15
489.8650, 16669.74
490.3470, 16654.02
490.8290, 16680.02
491.3110, 16689.30
491.7930, 16697.89
492.2750, 16729.76
492.7570, 16734.26
493.2400, 16745.07
493.7220, 16752.47
494.2040, 16751.20
494.6860, 16747.11
495.1680, 16748.74
495.6500, 16753.97
496.1320, 16746.05
496.6140, 16720.43
497.0960, 16692.47
497.5780, 16666.37
498.0610, 16645.69
498.5430, 16638.09
499.0250, 16645.10
499.5070, 16663.73
499.9890, 16707.66
500.4710, 16757.23
500.9530, 16776.32
501.4350, 16759.10
501.9180, 16732.85
502.4000, 16721.03
502.8820, 16723.31
503.3640, 16753.63
503.8460, 16849.34
504.3280, 16930.37
504.8100, 16978.73
505.2920, 17005.89
505.7750, 17016.57
506.2570, 17014.11
506.7390, 17022.62
507.2210, 17072.36
507.7030, 17158.44
508.1850, 17245.14
508.6670, 17332.16
509.1490, 17415.90
509.6310, 17492.86
510.1140, 17565.21
510.5960, 17636.81
511.0780, 17707.05
511.5600, 17778.53
512.0420, 17850.95
512.5240, 17925.88
513.0060, 18009.11
513.4880, 18100.40
513.9710, 18187.57
514.4530, 18256.49
514.9350, 18307.33
515.4170, 18365.75
515.8990, 18427.23
516.3810, 18502.45
516.8630, 18622.66
517.3450, 18741.42
517.8270, 18801.22
518.3100, 18791.18
518.7920, 18770.77
519.2740, 18803.00
519.7560, 18872.99
520.2380, 18915.56
520.7200, 18922.35
521.2020, 18920.74
521.6840, 18920.55
522.1660, 18925.64
522.6490, 18945.66
523.1310, 18991.02
523.6130, 19032.72
524.0950, 19073.01
524.5770, 19098.49
525.0590, 19092.39
525.5410, 19053.71
526.0230, 18991.12
526.5050, 18906.66
526.9880, 18806.23
527.4700, 18737.20
527.9520, 18732.51
528.4340, 18704.45
528.9160, 18627.02
529.3980, 18528.23
529.8800, 18428.79
530.3620, 18331.90
530.8440, 18236.15
531.3270, 18141.29
531.8090, 18045.93
532.2910, 17942.39
532.7730, 17830.33
533.2550, 17731.70
533.7370, 17665.32
534.2190, 17611.82
534.7010, 17519.84
535.1840, 17357.46
535.6660, 17228.36
536.1480, 17172.66
536.6300, 17129.67
537.1120, 17053.46
537.5940, 16947.38
538.0760, 16838.87
538.5580, 16743.75
539.0410, 16660.24
539.5230, 16586.61
540.0050, 16527.33
540.4870, 16459.80
540.9690, 16376.97
541.4510, 16286.43
541.9330, 16185.91
542.4150, 16079.60
542.8980, 15991.84
543.3800, 15934.43
543.8620, 15897.26
544.3440, 15889.80
544.8260, 15897.16
545.3080, 15862.44
545.7900, 15761.38
546.2720, 15639.52
546.7540, 15566.86
547.2370, 15560.75
547.7190, 15537.29
548.2010, 15479.90
548.6830, 15424.58
549.1650, 15382.58
549.6470, 15351.71
550.1290, 15329.15
550.6110, 15314.33
551.0930, 15300.22
551.5760, 15273.67
552.0580, 15238.15
552.5400, 15220.62
553.0220, 15229.82
553.5040, 15239.15
553.9860, 15227.66
554.4680, 15199.87
554.9500, 15179.47
555.4320, 15171.19
555.9150, 15164.48
556.3970, 15161.21
556.8790, 15155.17
557.3610, 15133.93
557.8430, 15099.14
558.3250, 15070.80
558.8070, 15069.29
559.2890, 15088.48
559.7710, 15083.86
560.2540, 15035.32
560.7360, 15007.11
561.2180, 15044.41
561.7000, 15090.90
562.1820, 15098.17
562.6640, 15064.00
563.1460, 15030.15
563.6280, 15019.14
564.1110, 15017.09
564.5930, 15010.44
565.0750, 14998.21
565.5570, 14979.24
566.0390, 14952.55
566.5210, 14920.19
567.0030, 14885.88
567.4850, 14849.28
567.9680, 14811.14
568.4500, 14760.85
568.9320, 14720.15
569.4140, 14696.48
569.8960, 14689.73
570.3780, 14704.84
570.8600, 14748.27
571.3420, 14787.37
571.8250, 14767.66
572.3070, 14703.54
572.7890, 14682.16
573.2710, 14724.41
573.7530, 14778.12
574.2350, 14808.93
574.7170, 14817.33
575.1990, 14812.15
575.6820, 14773.97
576.1640, 14747.86
576.6460, 14751.87
577.1280, 14768.10
577.6100, 14784.55
578.0920, 14796.01
578.5740, 14792.97
579.0560, 14761.09
579.5380, 14714.12
580.0210, 14711.94
580.5030, 14770.30
580.9850, 14812.08
581.4670, 14810.09
581.9490, 14787.05
582.4310, 14764.34
582.9130, 14741.89
583.3950, 14723.00
583.8770, 14703.79
584.3600, 14692.49
584.8420, 14708.54
585.3240, 14736.22
585.8060, 14732.56
586.2880, 14682.16
586.7700, 14620.92
587.2520, 14602.55
587.7340, 14634.49
588.2160, 14654.22
588.6990, 14658.42
589.1810, 14654.08
589.6630, 14637.34
590.1450, 14617.13
590.6270, 14605.56
591.1090, 14606.17
591.5910, 14607.81
592.0730, 14605.47
592.5550, 14598.55
593.0380, 14579.62
593.5200, 14550.66
594.0020, 14538.82
594.4840, 14564.60
594.9660, 14609.25
595.4480, 14619.05
595.9300, 14559.96
596.4120, 14525.28
596.8950, 14526.64
597.3770, 14538.37
597.8590, 14558.83
598.3410, 14577.54
598.8230, 14570.28
599.3050, 14517.69
599.7870, 14461.10
600.2690, 14457.54
600.7520, 14494.08
601.2340, 14510.59
601.7160, 14493.87
602.1980, 14472.39
602.6800, 14469.40
603.1620, 14483.06
603.6440, 14495.18
604.1260, 14518.74
604.6090, 14524.05
605.0910, 14487.22
605.5730, 14444.27
606.0550, 14424.55
606.5370, 14430.28
607.0190, 14450.01
607.5010, 14485.13
607.9830, 14518.37
608.4650, 14503.87
608.9480, 14440.71
609.4300, 14385.73
609.9120, 14350.18
610.3940, 14336.75
610.8760, 14358.85
611.3580, 14418.49
611.8400, 14447.89
612.3220, 14442.71
612.8040, 14410.23
613.2870, 14321.08
613.7690, 14221.35
614.2510, 14169.95
614.7330, 14178.34
615.2150, 14215.93
615.6970, 14264.59
616.1790, 14317.23
616.6610, 14337.21
617.1430, 14320.76
617.6260, 14289.05
618.1080, 14240.50
618.5900, 14189.03
619.0720, 14150.19
619.5540, 14121.69
620.0360, 14120.77
620.5180, 14191.65
621.0000, 14249.96
621.4820, 14221.65
621.9650, 14149.76
622.4470, 14118.08
622.9290, 14153.28
623.4110, 14209.30
623.8930, 14232.71
624.3750, 14224.11
624.8570, 14203.67
625.3390, 14166.43
625.8220, 14130.62
626.3040, 14101.10
626.7860, 14079.84
627.2680, 14073.74
627.7500, 14089.07
628.2320, 14086.87
628.7140, 14039.91
629.1960, 13986.50
629.6790, 13946.18
630.1610, 13924.91
630.6430, 13936.74
631.1250, 13987.34
631.6070, 14048.66
632.0890, 14079.78
632.5710, 14079.84
633.0530, 14063.29
633.5360, 14024.14
634.0180, 13980.44
634.5000, 13927.77
634.9820, 13881.93
635.4640, 13873.87
635.9460, 13919.56
636.4280, 13949.33
636.9100, 13920.31
637.3920, 13881.47
637.8750, 13879.43
638.3570, 13906.27
638.8390, 13929.55
639.3210, 13933.54
639.8030, 13928.47
640.2850, 13933.12
640.7670, 13949.03
641.2490, 13956.05
641.7310, 13950.57
642.2140, 13941.21
642.6960, 13929.54
643.1780, 13918.15
643.6600, 13912.26
644.1420, 13914.83
644.6240, 13915.31
645.1060, 13910.53
645.5880, 13902.09
646.0700, 13895.35
646.5530, 13886.63
647.0350, 13861.01
647.5170, 13810.14
647.9990, 13754.52
648.4810, 13732.14
648.9630, 13745.72
649.4450, 13758.03
649.9270, 13767.17
650.4090, 13775.01
650.8920, 13786.36
651.3740, 13795.81
651.8560, 13790.21
652.3380, 13759.43
652.8200, 13739.04
653.3020, 13745.74
653.7840, 13761.98
654.2660, 13779.26
654.7490, 13792.50
655.2310, 13789.53
655.7130, 13763.38
656.1950, 13732.83
656.6770, 13733.30
657.1590, 13765.35
657.6410, 13780.60
658.1230, 13771.79
658.6060, 13756.66
659.0880, 13744.91
659.5700, 13733.67
660.0520, 13715.03
660.5340, 13682.97
661.0160, 13659.53
661.4980, 13648.69
661.9800, 13648.58
662.4630, 13668.15
662.9450, 13696.22
663.4270, 13705.91
663.9090, 13684.96
664.3910, 13657.14
664.8730, 13661.62
665.3550, 13693.36
665.8370, 13700.88
666.3190, 13676.51
666.8020, 13649.26
667.2840, 13633.55
667.7660, 13626.03
668.2480, 13619.30
668.7300, 13613.14
669.2120, 13608.22
669.6940, 13604.19
670.1760, 13601.76
670.6580, 13598.15
671.1410, 13597.26
671.6230, 13582.34
672.1050, 13594.71
672.5870, 13600.45
673.0690, 13599.93
673.5510, 13574.37
674.0330, 13581.13
674.5150, 13574.95
674.9970, 13568.23
675.4800, 13579.55
675.9620, 13557.63
676.4440, 13568.66
676.9260, 13566.54
677.4080, 13570.44
677.8900, 13561.30
678.3720, 13556.19
678.8540, 13564.12
679.3360, 13564.83
679.8190, 13554.20
680.3010, 13558.48
680.7830, 13536.10
681.2650, 13537.12
681.7470, 13548.23
682.2290, 13538.25
