##NAMES=Arsenolite
##RRUFFID=R080095
##IDEAL CHEMISTRY=As^3+^_2_O_3_
##LOCALITY=JÃ¡chymov, Erzgebirge Region, Czech Republic
##OWNER=RRUFF
##SOURCE=University of Arizona Mineral Museum
##DESCRIPTION=Colorless octahedra crystals on black matrix associated with colorless prismatic claudetite, R050313.
##STATUS=The identification of this mineral has been confirmed by single-crystal X-ray diffraction.
##URL=rruff.info/R080095
91.87140, 0.0000000E+00
92.35352, 42.26875
92.83563, 38.19378
93.31775, 36.45848
93.79987, 38.49824
94.28198, 43.06794
94.76410, 46.50997
95.24622, 47.78291
95.72833, 47.87827
96.21045, 48.47943
96.69257, 49.55321
97.17468, 51.62206
97.65680, 55.40946
98.13892, 60.89937
98.62103, 66.65862
99.10315, 71.96987
99.58527, 77.11166
100.0674, 83.95843
100.5495, 92.82629
101.0316, 102.5773
101.5137, 111.4364
101.9958, 118.9261
102.4780, 127.4345
102.9601, 137.9253
103.4422, 150.7723
103.9243, 162.6826
104.4064, 171.9114
104.8885, 181.3650
105.3707, 197.0561
105.8528, 222.5997
106.3349, 249.1333
106.8170, 273.1768
107.2991, 293.2114
107.7813, 313.6028
108.2634, 333.9863
108.7455, 354.7770
109.2276, 376.5893
109.7097, 402.5094
110.1918, 427.4049
110.6740, 449.1842
111.1561, 465.6010
111.6382, 481.3635
112.1203, 496.2995
112.6024, 510.7152
113.0845, 525.6072
113.5667, 539.1418
114.0488, 554.2346
114.5309, 573.0298
115.0130, 597.7062
115.4951, 624.3768
115.9772, 653.9623
116.4594, 686.4966
116.9415, 715.2844
117.4236, 734.3483
117.9057, 749.5562
118.3878, 767.1115
118.8699, 791.8583
119.3521, 817.8176
119.8342, 842.5877
120.3163, 866.1351
120.7984, 887.0598
121.2805, 903.1290
121.7626, 916.0829
122.2448, 928.8963
122.7269, 944.9585
123.2090, 960.5894
123.6911, 970.9735
124.1732, 974.3268
124.6553, 977.7865
125.1375, 989.1800
125.6196, 1006.496
126.1017, 1023.371
126.5838, 1035.231
127.0659, 1044.255
127.5480, 1054.614
128.0302, 1067.440
128.5123, 1080.806
128.9944, 1092.294
129.4765, 1101.964
129.9586, 1110.359
130.4407, 1116.238
130.9229, 1120.684
131.4050, 1128.372
131.8871, 1140.597
132.3692, 1155.990
132.8513, 1171.257
133.3334, 1184.448
133.8156, 1193.219
134.2977, 1201.588
134.7798, 1213.497
135.2619, 1221.000
135.7440, 1220.562
136.2261, 1214.542
136.7083, 1215.137
137.1904, 1224.164
137.6725, 1234.035
138.1546, 1236.108
138.6367, 1228.846
139.1188, 1222.802
139.6010, 1220.484
140.0831, 1221.871
140.5652, 1225.455
141.0473, 1232.787
141.5294, 1240.222
142.0115, 1242.332
142.4937, 1236.584
142.9758, 1231.484
143.4579, 1229.137
143.9400, 1229.488
144.4221, 1232.962
144.9042, 1241.832
145.3864, 1252.445
145.8685, 1258.162
146.3506, 1255.781
146.8327, 1252.937
147.3148, 1251.938
147.7969, 1252.963
148.2791, 1255.400
148.7612, 1259.594
149.2433, 1265.131
149.7254, 1271.241
150.2075, 1282.094
150.6896, 1289.925
151.1718, 1291.476
151.6539, 1278.387
152.1360, 1271.302
152.6181, 1274.082
153.1002, 1283.633
153.5823, 1290.706
154.0645, 1290.373
154.5466, 1290.583
155.0287, 1295.136
155.5108, 1312.080
155.9929, 1324.225
156.4750, 1326.557
156.9572, 1321.243
157.4393, 1317.004
157.9214, 1313.496
158.4035, 1312.870
158.8856, 1316.434
159.3677, 1328.368
159.8499, 1340.623
160.3320, 1347.627
160.8141, 1351.186
161.2962, 1362.730
161.7783, 1384.734
162.2604, 1417.052
162.7426, 1459.554
163.2247, 1516.256
163.7068, 1579.494
164.1889, 1652.478
164.6710, 1733.203
165.1531, 1803.215
165.6353, 1853.215
166.1174, 1887.829
166.5995, 1912.022
167.0816, 1916.334
167.5637, 1919.124
168.0458, 1933.871
168.5280, 1960.576
169.0101, 1987.107
169.4922, 2003.482
169.9743, 2015.074
170.4564, 2029.282
170.9385, 2048.873
171.4207, 2072.493
171.9028, 2099.842
172.3849, 2130.899
172.8670, 2163.159
173.3491, 2194.615
173.8312, 2226.112
174.3134, 2259.407
174.7955, 2290.259
175.2776, 2325.170
175.7597, 2370.853
176.2418, 2427.988
176.7239, 2496.410
177.2061, 2569.063
177.6882, 2652.998
178.1703, 2765.464
178.6524, 2905.146
179.1345, 3082.391
179.6166, 3310.712
180.0988, 3592.697
180.5809, 3926.720
181.0630, 4325.972
181.5451, 4783.771
182.0272, 5256.147
182.5093, 5916.113
182.9915, 6572.487
183.4736, 6711.210
183.9557, 6247.010
184.4378, 5460.815
184.9199, 4583.944
185.4020, 3657.907
185.8842, 2863.595
186.3663, 2340.998
186.8484, 2042.056
187.3305, 1824.526
187.8126, 1684.479
188.2947, 1598.473
188.7769, 1537.314
189.2590, 1500.377
189.7411, 1475.541
190.2232, 1458.850
190.7053, 1449.417
191.1874, 1441.151
191.6696, 1433.553
192.1517, 1426.787
192.6338, 1421.512
193.1159, 1417.790
193.5980, 1413.916
194.0801, 1407.461
194.5623, 1398.883
195.0444, 1395.587
195.5265, 1400.064
196.0086, 1407.556
196.4907, 1406.975
196.9728, 1397.403
197.4550, 1387.410
197.9371, 1381.874
198.4192, 1380.824
198.9013, 1382.257
199.3834, 1387.122
199.8655, 1393.207
200.3477, 1394.554
200.8298, 1390.237
201.3119, 1385.322
201.7940, 1382.897
202.2761, 1383.182
202.7582, 1383.438
203.2404, 1383.152
203.7225, 1382.910
204.2046, 1384.744
204.6867, 1389.289
205.1688, 1393.780
205.6509, 1396.359
206.1331, 1396.771
206.6152, 1397.012
207.0973, 1397.039
207.5794, 1397.111
208.0615, 1398.347
208.5436, 1401.363
209.0258, 1403.921
209.5079, 1404.214
209.9900, 1401.513
210.4721, 1400.098
210.9542, 1400.895
211.4363, 1402.991
211.9185, 1403.006
212.4006, 1399.957
212.8827, 1396.909
213.3648, 1395.552
213.8469, 1395.761
214.3290, 1398.241
214.8112, 1404.298
215.2933, 1412.363
215.7754, 1416.695
216.2575, 1415.804
216.7396, 1413.972
217.2217, 1413.546
217.7039, 1414.575
218.1860, 1417.181
218.6681, 1422.951
219.1502, 1430.066
219.6323, 1430.599
220.1144, 1420.032
220.5966, 1410.648
221.0787, 1410.369
221.5608, 1423.483
222.0429, 1434.065
222.5250, 1440.872
223.0071, 1444.537
223.4893, 1446.853
223.9714, 1447.065
224.4535, 1447.195
224.9356, 1448.517
225.4177, 1451.949
225.8998, 1454.235
226.3820, 1454.454
226.8641, 1453.513
227.3462, 1454.688
227.8283, 1459.055
228.3104, 1463.866
228.7925, 1467.839
229.2747, 1471.392
229.7568, 1473.135
230.2389, 1472.599
230.7210, 1470.290
231.2031, 1467.463
231.6852, 1462.455
232.1674, 1459.365
232.6495, 1460.565
233.1316, 1468.287
233.6137, 1475.395
234.0958, 1482.033
234.5779, 1487.830
235.0601, 1491.419
235.5422, 1491.499
236.0243, 1491.324
236.5064, 1492.233
236.9885, 1494.145
237.4706, 1497.353
237.9528, 1502.047
238.4349, 1507.948
238.9170, 1514.219
239.3991, 1520.158
239.8812, 1527.510
240.3633, 1537.282
240.8455, 1550.766
241.3276, 1563.393
241.8097, 1574.512
242.2918, 1584.848
242.7739, 1595.236
243.2560, 1602.464
243.7382, 1614.697
244.2203, 1635.017
244.7024, 1664.280
245.1845, 1698.171
245.6666, 1730.203
246.1487, 1769.893
246.6309, 1832.818
247.1130, 1904.686
247.5951, 2023.679
248.0772, 2200.380
248.5593, 2435.259
249.0414, 2736.394
249.5236, 3151.481
250.0057, 3602.197
250.4878, 3971.713
250.9699, 4261.038
251.4520, 4466.223
251.9341, 4564.363
252.4163, 4525.401
252.8984, 4533.315
253.3805, 4607.167
253.8626, 4713.882
254.3447, 4801.241
254.8268, 4857.121
255.3090, 4920.674
255.7911, 5000.226
256.2732, 5095.538
256.7553, 5211.784
257.2374, 5353.129
257.7195, 5512.006
258.2017, 5677.783
258.6838, 5846.429
259.1659, 6033.757
259.6480, 6242.228
260.1301, 6469.292
260.6122, 6726.078
261.0944, 6985.495
261.5765, 7310.525
262.0586, 7741.021
262.5407, 8215.299
263.0228, 8958.795
263.5049, 10021.72
263.9871, 11409.09
264.4692, 13018.49
264.9513, 14927.60
265.4334, 16956.12
265.9155, 18909.46
266.3976, 20600.72
266.8798, 22889.31
267.3619, 26650.55
267.8440, 31387.46
268.3261, 32554.32
268.8082, 29341.99
269.2903, 24281.60
269.7725, 18960.29
270.2546, 13117.11
270.7367, 8529.420
271.2188, 5644.845
271.7009, 4208.373
272.1830, 3189.042
272.6652, 2662.676
273.1473, 2367.974
273.6294, 2152.541
274.1115, 2025.336
274.5936, 1930.546
275.0757, 1867.893
275.5579, 1829.246
276.0400, 1793.744
276.5221, 1760.676
277.0042, 1733.559
277.4863, 1716.409
277.9684, 1710.063
278.4506, 1701.628
278.9327, 1689.241
279.4148, 1675.610
279.8969, 1667.073
280.3790, 1664.303
280.8611, 1661.969
281.3433, 1656.536
281.8254, 1648.038
282.3075, 1643.389
282.7896, 1644.026
283.2717, 1645.781
283.7538, 1641.214
284.2360, 1630.090
284.7181, 1619.013
285.2002, 1610.209
285.6823, 1603.721
286.1644, 1600.295
286.6465, 1600.269
287.1287, 1602.142
287.6108, 1604.948
288.0929, 1608.550
288.5750, 1610.547
289.0571, 1609.660
289.5392, 1606.429
290.0214, 1602.452
290.5035, 1597.549
290.9856, 1593.473
291.4677, 1592.578
291.9498, 1594.434
292.4319, 1596.358
292.9141, 1597.534
293.3962, 1598.285
293.8783, 1599.579
294.3604, 1601.436
294.8425, 1602.870
295.3246, 1602.351
295.8068, 1600.615
296.2889, 1600.247
296.7710, 1602.481
297.2531, 1605.663
297.7352, 1607.048
298.2173, 1606.760
298.6995, 1605.855
299.1816, 1603.918
299.6637, 1601.990
300.1458, 1602.640
300.6279, 1607.000
301.1100, 1612.526
301.5922, 1617.011
302.0743, 1620.193
302.5564, 1621.072
303.0385, 1616.363
303.5206, 1609.831
304.0027, 1607.115
304.4849, 1609.438
304.9670, 1613.549
305.4491, 1616.459
305.9312, 1618.764
306.4133, 1621.905
306.8954, 1629.456
307.3776, 1636.713
307.8597, 1637.525
308.3418, 1630.982
308.8239, 1624.691
309.3060, 1624.632
309.7881, 1628.499
310.2703, 1632.625
310.7524, 1636.384
311.2345, 1639.292
311.7166, 1640.753
312.1987, 1640.797
312.6808, 1640.343
313.1630, 1638.679
313.6451, 1637.227
314.1272, 1637.516
314.6093, 1641.596
315.0914, 1646.017
315.5735, 1648.980
316.0557, 1650.722
316.5378, 1652.549
317.0199, 1655.228
317.5020, 1658.068
317.9841, 1660.534
318.4662, 1661.783
318.9484, 1663.672
319.4305, 1667.233
319.9126, 1671.945
320.3947, 1676.433
320.8768, 1680.076
321.3589, 1683.575
321.8411, 1687.731
322.3232, 1694.036
322.8053, 1697.441
323.2874, 1693.649
323.7695, 1686.968
324.2516, 1684.216
324.7338, 1691.105
325.2159, 1697.762
325.6980, 1700.263
326.1801, 1696.773
326.6622, 1696.659
327.1443, 1704.842
327.6265, 1714.849
328.1086, 1720.159
328.5907, 1715.937
329.0728, 1712.289
329.5549, 1710.848
330.0370, 1711.642
330.5192, 1712.356
331.0013, 1712.554
331.4834, 1713.060
331.9655, 1714.487
332.4476, 1717.405
332.9297, 1720.396
333.4119, 1724.252
333.8940, 1728.181
334.3761, 1727.923
334.8582, 1720.123
335.3403, 1713.431
335.8224, 1712.450
336.3046, 1718.831
336.7867, 1726.275
337.2688, 1735.602
337.7509, 1745.231
338.2330, 1751.804
338.7151, 1754.352
339.1973, 1756.668
339.6794, 1759.127
340.1615, 1761.450
340.6436, 1770.531
341.1257, 1788.000
341.6078, 1808.527
342.0900, 1825.184
342.5721, 1837.393
343.0542, 1849.849
343.5363, 1862.150
344.0184, 1875.767
344.5005, 1897.020
344.9827, 1925.627
345.4648, 1962.679
345.9469, 2007.732
346.4290, 2061.770
346.9111, 2124.094
347.3932, 2188.179
347.8754, 2269.628
348.3575, 2382.631
348.8396, 2529.205
349.3217, 2743.900
349.8038, 3036.711
350.2859, 3414.191
350.7681, 3910.073
351.2502, 4545.638
351.7323, 5231.860
352.2144, 5930.310
352.6965, 6611.173
353.1786, 7163.454
353.6608, 7469.754
354.1429, 7647.140
354.6250, 7825.663
355.1071, 8010.811
355.5892, 8206.357
356.0714, 8409.588
356.5535, 8626.436
357.0356, 8865.490
357.5177, 9122.283
357.9998, 9410.243
358.4819, 9722.691
358.9641, 10065.38
359.4462, 10465.00
359.9283, 10921.43
360.4104, 11448.29
360.8925, 12046.90
361.3746, 12665.17
361.8568, 13446.02
362.3389, 14344.75
362.8210, 15442.89
363.3031, 16943.71
363.7852, 18905.70
364.2673, 21287.36
364.7495, 24145.85
365.2316, 27611.34
365.7137, 31103.53
366.1958, 34418.38
366.6779, 37696.15
367.1600, 41132.09
367.6422, 44932.54
368.1243, 48699.51
368.6064, 53406.76
369.0885, 59248.39
369.5706, 60985.96
370.0527, 56869.27
370.5349, 50033.49
371.0170, 42199.25
371.4991, 31750.23
371.9812, 23189.18
372.4633, 17054.61
372.9454, 12988.07
373.4276, 9913.553
373.9097, 8052.421
374.3918, 6742.329
374.8739, 5767.621
375.3560, 5169.262
375.8381, 4670.552
376.3203, 4286.858
376.8024, 3989.547
377.2845, 3746.245
377.7666, 3564.208
378.2487, 3407.217
378.7308, 3269.998
379.2130, 3149.855
379.6951, 3042.175
380.1772, 2946.129
380.6593, 2862.040
381.1414, 2792.713
381.6235, 2737.196
382.1057, 2680.267
382.5878, 2618.015
383.0699, 2554.706
383.5520, 2499.852
384.0341, 2452.281
384.5162, 2405.134
384.9984, 2349.991
385.4805, 2292.178
385.9626, 2243.418
386.4447, 2205.667
386.9268, 2172.625
387.4089, 2138.724
387.8911, 2104.484
388.3732, 2071.867
388.8553, 2040.532
389.3374, 2011.844
389.8195, 1988.142
390.3016, 1969.522
390.7838, 1952.483
391.2659, 1937.240
391.7480, 1921.734
392.2301, 1903.338
392.7122, 1876.581
393.1943, 1853.435
393.6765, 1841.918
394.1586, 1838.925
394.6407, 1835.781
395.1228, 1828.361
395.6049, 1820.923
396.0870, 1815.660
396.5692, 1813.465
397.0513, 1811.513
397.5334, 1809.423
398.0155, 1807.227
398.4976, 1804.993
398.9797, 1800.207
399.4619, 1798.046
399.9440, 1801.909
400.4261, 1811.720
400.9082, 1814.199
401.3903, 1801.811
401.8724, 1789.190
402.3546, 1786.279
402.8367, 1799.028
403.3188, 1808.381
403.8009, 1812.027
404.2830, 1812.209
404.7651, 1814.724
405.2473, 1820.254
405.7294, 1826.079
406.2115, 1830.319
406.6936, 1832.781
407.1757, 1839.827
407.6578, 1852.312
408.1400, 1867.173
408.6221, 1880.820
409.1042, 1893.320
409.5863, 1907.823
410.0684, 1926.541
410.5505, 1946.683
411.0327, 1961.311
411.5148, 1970.682
411.9969, 1980.738
412.4790, 1999.539
412.9611, 2022.126
413.4432, 2037.597
413.9254, 2045.578
414.4075, 2042.792
414.8896, 2021.830
415.3717, 1987.297
415.8538, 1949.970
416.3359, 1909.847
416.8181, 1872.780
417.3002, 1845.008
417.7823, 1826.197
418.2644, 1812.603
418.7465, 1804.081
419.2286, 1798.271
419.7108, 1792.851
420.1929, 1785.184
420.6750, 1780.412
421.1571, 1782.852
421.6392, 1789.833
422.1213, 1794.385
422.6035, 1793.241
423.0856, 1790.511
423.5677, 1787.035
424.0498, 1781.665
424.5319, 1780.143
425.0140, 1786.893
425.4962, 1795.849
425.9783, 1800.905
426.4604, 1799.934
426.9425, 1798.129
427.4246, 1795.252
427.9067, 1791.816
428.3889, 1791.754
428.8710, 1796.395
429.3531, 1802.055
429.8352, 1807.240
430.3173, 1812.251
430.7994, 1814.629
431.2816, 1813.897
431.7637, 1811.128
432.2458, 1806.588
432.7279, 1799.910
433.2100, 1797.442
433.6921, 1803.004
434.1743, 1814.252
434.6564, 1823.231
435.1385, 1830.078
435.6206, 1834.149
436.1027, 1831.673
436.5848, 1825.913
437.0670, 1826.737
437.5491, 1837.981
438.0312, 1851.414
438.5133, 1856.744
438.9954, 1856.599
439.4775, 1858.239
439.9597, 1865.988
440.4418, 1876.856
440.9239, 1889.827
441.4060, 1904.854
441.8881, 1916.663
442.3702, 1920.225
442.8524, 1919.914
443.3345, 1919.839
443.8166, 1917.713
444.2987, 1919.918
444.7808, 1931.348
445.2629, 1948.961
445.7451, 1963.991
446.2272, 1970.364
446.7093, 1977.198
447.1914, 1987.481
447.6735, 2001.195
448.1556, 2019.060
448.6378, 2041.319
449.1199, 2067.357
449.6020, 2096.677
450.0841, 2128.257
450.5662, 2164.045
451.0483, 2204.881
451.5305, 2250.299
452.0126, 2296.812
452.4947, 2344.354
452.9768, 2394.383
453.4589, 2449.351
453.9410, 2509.872
454.4232, 2567.117
454.9053, 2621.047
455.3874, 2673.711
455.8695, 2729.688
456.3516, 2788.413
456.8337, 2843.633
457.3159, 2892.847
457.7980, 2938.581
458.2801, 2983.130
458.7622, 3027.135
459.2443, 3076.984
459.7264, 3138.089
460.2086, 3206.910
460.6907, 3277.100
461.1728, 3346.467
461.6549, 3422.752
462.1370, 3506.517
462.6191, 3600.720
463.1013, 3707.982
463.5834, 3825.898
464.0655, 3960.333
464.5476, 4118.290
465.0297, 4296.690
465.5118, 4477.960
465.9940, 4662.099
466.4761, 4840.743
466.9582, 5008.305
467.4403, 5165.103
467.9224, 5312.894
468.4045, 5468.132
468.8867, 5607.204
469.3688, 5700.584
469.8509, 5755.654
470.3330, 5748.622
470.8151, 5672.318
471.2972, 5528.360
471.7794, 5327.387
472.2615, 5057.167
472.7436, 4757.857
473.2257, 4443.915
473.7078, 4113.369
474.1899, 3815.879
474.6721, 3553.688
475.1542, 3323.558
475.6363, 3123.835
476.1184, 2953.305
476.6005, 2804.568
477.0826, 2676.270
477.5648, 2567.266
478.0469, 2476.006
478.5290, 2401.707
479.0111, 2337.302
479.4932, 2279.953
479.9753, 2228.775
480.4575, 2182.829
480.9396, 2142.053
481.4217, 2105.857
481.9038, 2074.547
482.3859, 2048.010
482.8680, 2026.563
483.3502, 2014.470
483.8323, 2003.411
484.3144, 1990.159
484.7965, 1974.921
485.2786, 1960.591
485.7607, 1947.089
486.2429, 1935.154
486.7250, 1925.194
487.2071, 1918.145
487.6892, 1911.346
488.1713, 1905.169
488.6534, 1899.022
489.1356, 1891.526
489.6177, 1881.510
490.0998, 1873.609
490.5819, 1868.893
491.0640, 1867.109
491.5461, 1867.609
492.0283, 1870.771
492.5104, 1873.656
492.9925, 1873.286
493.4746, 1870.583
493.9567, 1871.165
494.4388, 1876.129
494.9210, 1880.617
495.4031, 1877.225
495.8852, 1868.914
496.3673, 1863.092
496.8494, 1863.146
497.3315, 1866.262
497.8137, 1872.570
498.2958, 1880.528
498.7779, 1883.625
499.2600, 1871.351
499.7421, 1857.938
500.2242, 1854.707
500.7064, 1865.694
501.1885, 1874.617
501.6706, 1874.048
502.1527, 1870.162
502.6348, 1869.185
503.1169, 1876.150
503.5991, 1881.021
504.0812, 1881.722
504.5633, 1879.457
505.0454, 1878.368
505.5275, 1877.495
506.0096, 1879.599
506.4918, 1887.331
506.9739, 1901.720
507.4560, 1908.807
507.9381, 1906.585
508.4202, 1902.441
508.9023, 1905.732
509.3845, 1915.768
509.8666, 1919.920
510.3487, 1914.401
510.8308, 1904.649
511.3129, 1899.853
511.7950, 1899.036
512.2772, 1897.616
512.7593, 1892.788
513.2414, 1886.246
513.7235, 1878.726
514.2056, 1870.464
514.6877, 1865.043
515.1699, 1864.667
515.6520, 1868.208
516.1341, 1875.199
516.6162, 1888.193
517.0983, 1899.369
517.5804, 1904.301
518.0626, 1906.195
518.5447, 1910.320
519.0268, 1921.180
519.5089, 1930.396
519.9910, 1935.464
520.4731, 1936.698
520.9553, 1938.350
521.4374, 1938.731
521.9195, 1942.016
522.4016, 1952.187
522.8837, 1971.668
523.3658, 1984.203
523.8480, 1988.041
524.3301, 1988.460
524.8122, 1991.762
525.2943, 1997.879
525.7764, 2005.939
526.2585, 2015.834
526.7407, 2027.433
527.2228, 2041.019
527.7049, 2056.490
528.1870, 2072.739
528.6691, 2089.759
529.1512, 2107.053
529.6334, 2125.212
530.1155, 2144.547
530.5976, 2160.083
531.0797, 2166.634
531.5618, 2169.137
532.0439, 2172.290
532.5261, 2176.663
533.0082, 2182.635
533.4903, 2193.785
533.9724, 2206.333
534.4545, 2212.378
534.9366, 2202.999
535.4188, 2196.578
535.9009, 2199.650
536.3830, 2211.841
536.8651, 2213.947
537.3472, 2199.513
537.8293, 2187.777
538.3115, 2191.696
538.7936, 2211.921
539.2757, 2236.941
539.7578, 2265.012
540.2399, 2300.842
540.7220, 2347.309
541.2042, 2405.743
541.6863, 2486.755
542.1684, 2596.871
542.6505, 2728.573
543.1326, 2875.304
543.6147, 3035.043
544.0969, 3204.603
544.5790, 3392.787
545.0611, 3578.847
545.5432, 3744.736
546.0253, 3887.881
546.5074, 4020.932
546.9896, 4137.057
547.4717, 4250.670
547.9538, 4373.317
548.4359, 4507.388
548.9180, 4650.070
549.4001, 4791.985
549.8823, 4945.754
550.3644, 5130.407
550.8465, 5339.257
551.3286, 5594.864
551.8107, 5899.404
552.2928, 6256.351
552.7750, 6674.970
553.2571, 7156.163
553.7392, 7702.758
554.2213, 8341.711
554.7034, 9052.945
555.1855, 9754.896
555.6677, 10443.27
556.1498, 11127.24
556.6319, 11799.84
557.1140, 12470.90
557.5961, 13164.12
558.0782, 13926.18
558.5604, 14647.13
559.0425, 15388.41
559.5246, 16017.21
560.0067, 16226.74
560.4888, 15902.16
560.9709, 15116.47
561.4531, 13740.49
561.9352, 11777.38
562.4173, 9953.855
562.8994, 8283.530
563.3815, 6850.798
563.8636, 5690.155
564.3458, 4850.360
564.8279, 4182.722
565.3100, 3711.514
565.7921, 3372.543
566.2742, 3101.077
566.7563, 2898.773
567.2385, 2733.931
567.7206, 2606.127
568.2027, 2505.842
568.6848, 2420.143
569.1669, 2347.644
569.6490, 2287.114
570.1312, 2241.422
570.6133, 2204.716
571.0954, 2169.533
571.5775, 2135.363
572.0596, 2104.318
572.5417, 2077.810
573.0239, 2054.414
573.5060, 2033.478
573.9881, 2015.057
574.4702, 1998.014
574.9523, 1980.795
575.4344, 1965.004
575.9166, 1952.869
576.3987, 1945.937
576.8808, 1940.578
577.3629, 1937.640
577.8450, 1935.843
578.3271, 1930.365
578.8093, 1919.671
579.2914, 1909.864
579.7735, 1903.856
580.2556, 1901.161
580.7377, 1897.618
581.2198, 1893.176
581.7020, 1888.266
582.1841, 1883.184
582.6662, 1877.909
583.1483, 1871.328
583.6304, 1862.647
584.1125, 1856.870
584.5947, 1862.011
585.0768, 1872.013
585.5589, 1878.005
586.0410, 1875.228
586.5231, 1869.896
587.0052, 1862.315
587.4874, 1854.033
