##NAMES=Arsenuranospathite
##RRUFFID=R100008
##IDEAL CHEMISTRY=Al(U^6+^O_2_)_2_(As^5+^O_4_)_2_F&#183;20H_2_O
##LOCALITY=Krunkelbach valley, Menzenschwand, Schwarzwald, Germany
##OWNER=RRUFF
##SOURCE=William Pinch
##DESCRIPTION=Blocky aggregates of yellowish-brown platy crystals, cell parameters are consistent with a partially dehydrated sample
##STATUS=The identification of this mineral has been confirmed by single-crystal X-ray diffraction.
##URL=rruff.info/R100008
91.18097, 0.0000000E+00
91.66309, 2135.725
92.14520, 2152.905
92.62732, 2171.232
93.10944, 2175.722
93.59155, 2165.002
94.07367, 2138.381
94.55579, 2099.411
95.03790, 2056.025
95.52002, 2014.174
96.00214, 1973.974
96.48425, 1934.262
96.96637, 1895.430
97.44849, 1858.356
97.93060, 1823.583
98.41272, 1789.194
98.89484, 1753.876
99.37695, 1720.949
99.85907, 1692.079
100.3412, 1663.760
100.8233, 1633.214
101.3054, 1602.759
101.7875, 1576.053
102.2697, 1555.192
102.7518, 1539.900
103.2339, 1524.552
103.7160, 1508.871
104.1981, 1493.101
104.6802, 1477.492
105.1624, 1461.931
105.6445, 1445.563
106.1266, 1427.111
106.6087, 1406.458
107.0908, 1386.770
107.5729, 1368.852
108.0551, 1351.534
108.5372, 1333.186
109.0193, 1313.111
109.5014, 1293.277
109.9835, 1275.687
110.4656, 1259.819
110.9478, 1244.701
111.4299, 1229.873
111.9120, 1215.344
112.3941, 1201.217
112.8762, 1187.127
113.3583, 1173.899
113.8405, 1162.010
114.3226, 1151.492
114.8047, 1141.853
115.2868, 1132.931
115.7689, 1125.209
116.2510, 1116.468
116.7332, 1104.680
117.2153, 1093.025
117.6974, 1083.846
118.1795, 1077.800
118.6616, 1073.681
119.1437, 1068.812
119.6259, 1063.675
120.1080, 1056.927
120.5901, 1047.111
121.0722, 1036.000
121.5543, 1025.733
122.0364, 1017.409
122.5186, 1010.795
123.0007, 1004.932
123.4828, 998.8055
123.9649, 994.1456
124.4470, 992.8866
124.9291, 994.1119
125.4113, 994.2755
125.8934, 990.7870
126.3755, 984.1323
126.8576, 978.1053
127.3397, 972.4739
127.8218, 967.6683
128.3040, 964.1571
128.7861, 962.0558
129.2682, 960.7570
129.7503, 960.5488
130.2324, 960.8239
130.7145, 960.5510
131.1967, 959.0739
131.6788, 956.7377
132.1609, 954.7359
132.6430, 953.8642
133.1251, 952.0579
133.6072, 947.4628
134.0894, 941.2018
134.5715, 935.7567
135.0536, 933.0985
135.5357, 933.3800
136.0178, 934.3704
136.4999, 938.3789
136.9821, 941.1562
137.4642, 940.1716
137.9463, 935.9406
138.4284, 931.2104
138.9105, 929.3298
139.3926, 932.0007
139.8748, 933.0585
140.3569, 931.4225
140.8390, 929.2458
141.3211, 926.8397
141.8032, 924.6493
142.2853, 924.6479
142.7675, 930.6571
143.2496, 949.1404
143.7317, 961.4075
144.2138, 963.1898
144.6959, 959.2809
145.1780, 955.0250
145.6602, 951.9498
146.1423, 950.5497
146.6244, 952.3025
147.1065, 957.4487
147.5886, 963.6527
148.0707, 970.2747
148.5529, 977.2956
149.0350, 984.5069
149.5171, 991.3654
149.9992, 998.9835
150.4813, 1009.258
150.9634, 1023.433
151.4456, 1037.182
151.9277, 1045.715
152.4098, 1048.423
152.8919, 1052.942
153.3740, 1063.292
153.8561, 1076.539
154.3383, 1091.351
154.8204, 1107.701
155.3025, 1124.135
155.7846, 1137.614
156.2667, 1145.476
156.7488, 1156.253
157.2310, 1172.663
157.7131, 1192.355
158.1952, 1213.374
158.6773, 1234.755
159.1594, 1256.582
159.6415, 1279.111
160.1237, 1302.372
160.6058, 1326.678
161.0879, 1350.658
161.5700, 1375.815
162.0521, 1404.704
162.5342, 1439.250
163.0164, 1479.071
163.4985, 1514.923
163.9806, 1543.227
164.4627, 1571.816
164.9448, 1601.905
165.4269, 1634.018
165.9091, 1668.236
166.3912, 1705.134
166.8733, 1744.719
167.3554, 1783.833
167.8375, 1821.588
168.3196, 1859.863
168.8018, 1899.455
169.2839, 1940.553
169.7660, 1982.710
170.2481, 2025.917
170.7302, 2070.098
171.2123, 2113.907
171.6945, 2155.838
172.1766, 2198.039
172.6587, 2243.079
173.1408, 2291.470
173.6229, 2340.427
174.1050, 2387.691
174.5872, 2433.827
175.0693, 2479.901
175.5514, 2527.207
176.0335, 2574.755
176.5156, 2619.947
176.9977, 2662.284
177.4799, 2703.651
177.9620, 2745.609
178.4441, 2787.836
178.9262, 2828.979
179.4083, 2869.471
179.8904, 2909.015
180.3726, 2943.521
180.8547, 2973.036
181.3368, 2996.317
181.8189, 3012.840
182.3010, 3023.215
182.7831, 3028.831
183.2653, 3030.746
183.7474, 3028.996
184.2295, 3023.100
184.7116, 3014.418
185.1937, 2999.817
185.6758, 2977.633
186.1580, 2948.110
186.6401, 2912.466
187.1222, 2871.375
187.6043, 2823.814
188.0864, 2774.891
188.5685, 2727.219
189.0507, 2676.163
189.5328, 2619.132
190.0149, 2556.014
190.4970, 2489.351
190.9791, 2420.817
191.4612, 2349.991
191.9434, 2280.004
192.4255, 2211.096
192.9076, 2143.066
193.3897, 2075.538
193.8718, 2008.689
194.3539, 1942.949
194.8361, 1878.707
195.3182, 1815.219
195.8003, 1756.329
196.2824, 1703.964
196.7645, 1655.434
197.2466, 1608.247
197.7288, 1561.832
198.2109, 1517.146
198.6930, 1475.967
199.1751, 1438.563
199.6572, 1401.937
200.1393, 1364.147
200.6215, 1327.361
201.1036, 1294.807
201.5857, 1267.496
202.0678, 1242.880
202.5499, 1217.616
203.0320, 1191.836
203.5142, 1166.788
203.9963, 1142.856
204.4784, 1119.934
204.9605, 1097.721
205.4426, 1075.705
205.9247, 1055.394
206.4069, 1038.901
206.8890, 1025.691
207.3711, 1012.586
207.8532, 997.0816
208.3353, 979.8584
208.8174, 964.6849
209.2996, 952.4135
209.7817, 942.1833
210.2638, 934.3291
210.7459, 928.3028
211.2280, 921.0722
211.7101, 909.1287
212.1923, 892.6890
212.6744, 879.1458
213.1565, 872.1478
213.6386, 865.5551
214.1207, 855.7581
214.6028, 843.3020
215.0850, 830.9788
215.5671, 822.0004
216.0492, 816.9285
216.5313, 810.3565
217.0134, 798.3019
217.4955, 787.9353
217.9777, 783.8383
218.4598, 784.8356
218.9419, 785.5123
219.4240, 779.5178
219.9061, 764.6038
220.3882, 754.4946
220.8704, 752.2828
221.3525, 751.8723
221.8346, 752.0696
222.3167, 751.9672
222.7988, 749.9797
223.2809, 743.7625
223.7631, 731.0286
224.2452, 723.9504
224.7273, 726.5335
225.2094, 730.2443
225.6915, 731.4294
226.1736, 729.6595
226.6558, 725.9567
227.1379, 720.9430
227.6200, 713.5545
228.1021, 710.3078
228.5842, 714.3935
229.0663, 719.2573
229.5485, 721.2257
230.0306, 720.1039
230.5127, 717.8455
230.9948, 716.4642
231.4769, 716.3303
231.9590, 714.5384
232.4412, 708.4466
232.9233, 702.8979
233.4054, 701.1447
233.8875, 703.2977
234.3696, 707.3504
234.8517, 711.8281
235.3339, 716.8099
235.8160, 720.3058
236.2981, 721.3736
236.7802, 721.6855
237.2623, 722.1671
237.7444, 722.9459
238.2266, 724.2680
238.7087, 726.6258
239.1908, 729.9236
239.6729, 732.3500
240.1550, 733.8693
240.6371, 734.4615
241.1193, 733.9508
241.6014, 732.3385
242.0835, 730.0853
242.5656, 727.0512
243.0477, 723.6080
243.5298, 721.1830
244.0120, 719.7900
244.4941, 719.5712
244.9762, 721.5486
245.4583, 725.8928
245.9404, 729.0758
246.4225, 727.5892
246.9047, 723.4680
247.3868, 721.2134
247.8689, 722.5215
248.3510, 725.0578
248.8331, 725.5932
249.3152, 723.7197
249.7974, 724.0759
250.2795, 732.9837
250.7616, 744.4080
251.2437, 749.4164
251.7258, 744.2118
252.2079, 735.1179
252.6901, 728.4418
253.1722, 724.1589
253.6543, 722.6843
254.1364, 726.3021
254.6185, 732.0814
255.1006, 737.5001
255.5828, 742.0919
256.0649, 745.9549
256.5470, 748.5794
257.0291, 749.5292
257.5112, 751.9772
257.9933, 759.4389
258.4755, 767.6064
258.9576, 772.9513
259.4397, 774.4639
259.9218, 775.0013
260.4039, 778.3123
260.8860, 785.0712
261.3682, 790.7208
261.8503, 794.0375
262.3324, 795.9124
262.8145, 795.7606
263.2966, 793.6542
263.7787, 792.4445
264.2609, 796.0188
264.7430, 805.3787
265.2251, 813.9039
265.7072, 821.7776
266.1893, 827.6462
266.6714, 829.3890
267.1536, 827.4068
267.6357, 825.3778
268.1178, 827.7336
268.5999, 835.4628
269.0820, 841.7453
269.5641, 846.1400
270.0463, 849.0333
270.5284, 850.1279
271.0105, 849.6428
271.4926, 848.2653
271.9747, 846.1540
272.4568, 842.9891
272.9390, 841.8470
273.4211, 846.1644
273.9032, 849.5431
274.3853, 849.2183
274.8674, 845.9040
275.3495, 842.1376
275.8317, 840.2606
276.3138, 840.3343
276.7959, 838.0602
277.2780, 828.8309
277.7601, 821.5959
278.2422, 821.1259
278.7244, 824.4473
279.2065, 825.3455
279.6886, 818.9859
280.1707, 806.3450
280.6528, 797.8114
281.1349, 798.9223
281.6171, 798.5309
282.0992, 792.9863
282.5813, 784.8887
283.0634, 778.5504
283.5455, 776.7167
284.0276, 777.9067
284.5098, 775.3037
284.9919, 764.4391
285.4740, 755.0189
285.9561, 748.2924
286.4382, 743.6179
286.9203, 740.2349
287.4025, 737.8134
287.8846, 736.3625
288.3667, 736.1076
288.8488, 739.9583
289.3309, 740.7034
289.8130, 735.0680
290.2952, 727.7900
290.7773, 723.4049
291.2594, 723.3653
291.7415, 725.6161
292.2236, 726.4301
292.7057, 724.4037
293.1879, 723.2446
293.6700, 723.0106
294.1521, 723.4781
294.6342, 724.9474
295.1163, 727.2543
295.5984, 729.3189
296.0806, 729.3956
296.5627, 725.6350
297.0448, 725.4557
297.5269, 731.9413
298.0090, 738.8583
298.4911, 742.1318
298.9733, 741.8912
299.4554, 741.0497
299.9375, 742.4912
300.4196, 746.5637
300.9017, 750.7471
301.3839, 755.5355
301.8660, 759.9577
302.3481, 763.1224
302.8302, 765.5145
303.3123, 768.5228
303.7944, 773.3040
304.2766, 779.7818
304.7587, 785.5877
305.2408, 792.9365
305.7229, 797.3367
306.2050, 795.2531
306.6871, 789.6102
307.1693, 785.0850
307.6514, 784.2428
308.1335, 786.8712
308.6156, 792.0259
309.0977, 804.2015
309.5798, 813.7101
310.0620, 817.6255
310.5441, 819.0557
311.0262, 821.8483
311.5083, 827.5740
311.9904, 835.0302
312.4725, 841.4752
312.9547, 845.0475
313.4368, 850.2836
313.9189, 859.7028
314.4010, 869.2754
314.8831, 874.8811
315.3652, 875.7842
315.8474, 875.2157
316.3295, 877.8688
316.8116, 885.9313
317.2937, 891.4811
317.7758, 894.2465
318.2579, 895.1260
318.7401, 894.6097
319.2222, 892.7476
319.7043, 889.4180
320.1864, 884.6457
320.6685, 878.6677
321.1506, 869.1312
321.6328, 854.2513
322.1149, 838.2557
322.5970, 822.2210
323.0791, 806.3450
323.5612, 790.5381
324.0433, 774.3969
324.5255, 758.1992
325.0076, 744.9957
325.4897, 736.8376
325.9718, 729.3255
326.4539, 721.9216
326.9360, 714.5656
327.4182, 707.7249
327.9003, 701.6488
328.3824, 695.2303
328.8645, 685.1250
329.3466, 663.9999
329.8287, 649.1611
330.3109, 644.5945
330.7930, 644.5459
331.2751, 644.8781
331.7572, 644.0391
332.2393, 641.3657
332.7214, 635.2582
333.2036, 622.0336
333.6857, 614.1472
334.1678, 615.5116
334.6499, 618.0956
335.1320, 617.0682
335.6141, 612.1846
336.0963, 605.9197
336.5784, 600.5197
337.0605, 595.8758
337.5426, 592.9908
338.0247, 593.0400
338.5068, 593.5780
338.9890, 594.7921
339.4711, 595.8348
339.9532, 595.1094
340.4353, 591.3738
340.9174, 585.1719
341.3995, 579.8775
341.8817, 574.8259
342.3638, 571.7604
342.8459, 572.2467
343.3280, 574.3091
343.8101, 575.6802
344.2922, 575.3937
344.7744, 574.0859
345.2565, 573.0648
345.7386, 572.2432
346.2207, 571.9377
346.7028, 572.5292
347.1849, 573.3005
347.6671, 573.5674
348.1492, 573.2928
348.6313, 573.1342
349.1134, 574.1037
349.5955, 576.6649
350.0776, 578.2787
350.5598, 576.8935
351.0419, 576.3913
351.5240, 580.1600
352.0061, 586.4806
352.4882, 590.3838
352.9703, 587.2643
353.4525, 578.0349
353.9346, 572.0329
354.4167, 570.3605
354.8988, 570.8350
355.3809, 574.6184
355.8630, 579.4337
356.3452, 582.0144
356.8273, 580.5963
357.3094, 577.0569
357.7915, 575.4348
358.2736, 576.1504
358.7557, 577.7778
359.2379, 580.9453
359.7200, 584.2535
360.2021, 586.3605
360.6842, 587.0342
361.1663, 587.6750
361.6484, 590.5963
362.1306, 596.1817
362.6127, 599.0544
363.0948, 595.8836
363.5769, 592.4208
364.0590, 591.6993
364.5411, 593.5192
365.0233, 596.4246
365.5054, 599.8224
365.9875, 603.5646
366.4696, 607.0786
366.9517, 610.5644
367.4338, 613.4140
367.9160, 614.8434
368.3981, 615.6058
368.8802, 616.7904
369.3623, 618.7593
369.8444, 621.3652
370.3265, 624.8214
370.8087, 629.3581
371.2908, 632.7094
371.7729, 632.1445
372.2550, 631.2312
372.7371, 634.2480
373.2192, 642.1133
373.7014, 650.1562
374.1835, 654.4982
374.6656, 655.9280
375.1477, 658.0784
375.6298, 661.6417
376.1119, 666.1063
376.5941, 671.5739
377.0762, 677.7571
377.5583, 682.9501
378.0404, 685.9070
378.5225, 687.7422
379.0046, 689.5803
379.4868, 691.3542
379.9689, 694.6961
380.4510, 701.8758
380.9331, 711.4466
381.4152, 718.8944
381.8973, 722.9382
382.3795, 725.8160
382.8616, 728.3133
383.3437, 730.7008
383.8258, 734.1857
384.3079, 739.5474
384.7900, 745.8476
385.2722, 751.3674
385.7543, 756.2156
386.2364, 760.2920
386.7185, 762.8676
387.2006, 764.9163
387.6827, 767.8451
388.1649, 771.9435
388.6470, 776.2447
389.1291, 779.6494
389.6112, 781.9730
390.0933, 785.1564
390.5754, 790.8525
391.0576, 795.9547
391.5397, 798.1841
392.0218, 798.0742
392.5039, 797.7059
392.9860, 798.3174
393.4681, 799.6906
393.9503, 800.7722
394.4324, 801.6717
394.9145, 802.1747
395.3966, 802.7190
395.8787, 802.6581
396.3608, 801.1922
396.8430, 798.0795
397.3251, 793.7045
397.8072, 788.5173
398.2893, 781.8935
398.7714, 776.1415
399.2535, 772.3754
399.7357, 768.3787
400.2178, 762.3964
400.6999, 754.9197
401.1820, 747.9974
401.6641, 743.3799
402.1462, 740.7662
402.6284, 736.0022
403.1105, 727.2858
403.5926, 718.3943
404.0747, 709.1678
404.5568, 700.4539
405.0389, 693.2928
405.5211, 688.0844
406.0032, 684.1292
406.4853, 680.3676
406.9674, 676.8981
407.4495, 673.2352
407.9316, 668.8111
408.4138, 664.6093
408.8959, 661.7403
409.3780, 659.8419
409.8601, 657.2364
410.3422, 652.0240
410.8243, 644.6426
411.3065, 638.5036
411.7886, 633.3730
412.2707, 629.9832
412.7528, 629.4058
413.2349, 630.3280
413.7170, 630.9327
414.1992, 630.5594
414.6813, 629.7012
415.1634, 629.0685
415.6455, 628.6934
416.1276, 627.8871
416.6097, 626.0530
417.0919, 624.0573
417.5740, 623.3839
418.0561, 624.0988
418.5382, 623.2275
419.0203, 616.8940
419.5024, 608.2091
419.9846, 604.2022
420.4667, 606.1400
420.9488, 610.4520
421.4309, 616.0008
421.9130, 621.7943
422.3951, 624.1965
422.8773, 620.2496
423.3594, 615.0187
423.8415, 611.1063
424.3236, 608.6586
424.8057, 608.5605
425.2878, 611.7483
425.7700, 616.4375
426.2521, 618.5137
426.7342, 616.6008
427.2163, 616.3902
427.6984, 620.2366
428.1805, 625.4682
428.6627, 629.6600
429.1448, 632.3604
429.6269, 633.7868
430.1090, 633.9660
430.5911, 632.8046
431.0732, 632.3313
431.5554, 632.7590
432.0375, 633.4869
432.5196, 634.1716
433.0017, 635.0464
433.4838, 636.5460
433.9659, 638.8713
434.4481, 641.8044
434.9302, 644.9669
435.4123, 648.9001
435.8944, 652.0014
436.3765, 653.0143
436.8586, 654.2526
437.3408, 657.6956
437.8229, 663.0570
438.3050, 668.2724
438.7871, 671.4225
439.2692, 672.6576
439.7513, 674.6579
440.2335, 677.9733
440.7156, 681.3100
441.1977, 684.1684
441.6798, 686.8854
442.1619, 689.8385
442.6440, 693.1671
443.1262, 696.8442
443.6083, 701.2227
444.0904, 706.4527
444.5725, 710.4166
445.0546, 711.5204
445.5367, 712.4333
446.0189, 715.2885
446.5010, 719.8265
446.9831, 724.3889
447.4652, 728.4863
447.9473, 731.9219
448.4294, 734.0817
448.9116, 734.8083
449.3937, 735.3559
449.8758, 735.6784
450.3579, 736.6621
450.8400, 740.4035
451.3221, 749.1658
451.8043, 756.2433
452.2864, 756.4922
452.7685, 752.6771
453.2506, 750.6165
453.7327, 751.8154
454.2148, 754.8079
454.6970, 758.5330
455.1791, 763.3959
455.6612, 765.1741
456.1433, 760.8338
456.6254, 756.0712
457.1075, 754.1542
457.5897, 754.7303
458.0718, 756.1903
458.5539, 757.7264
459.0360, 759.2654
459.5181, 760.6178
460.0002, 763.5218
460.4824, 763.7230
460.9645, 759.7299
461.4466, 754.0438
461.9287, 747.9658
462.4108, 742.0640
462.8929, 737.2740
463.3751, 734.9963
463.8572, 735.2741
464.3393, 732.5423
464.8214, 724.2714
465.3035, 715.9193
465.7856, 708.3679
466.2678, 701.7890
466.7499, 696.2863
467.2320, 691.9114
467.7141, 688.5051
468.1962, 686.2882
468.6783, 685.4425
469.1605, 683.5388
469.6426, 679.1754
470.1247, 674.7491
470.6068, 672.3342
471.0889, 671.4480
471.5710, 670.0110
472.0532, 666.9613
472.5353, 662.8073
473.0174, 657.9147
473.4995, 652.2189
473.9816, 647.4485
474.4637, 644.6144
474.9459, 643.1494
475.4280, 641.9514
475.9101, 641.4012
476.3922, 639.9785
476.8743, 636.7934
477.3564, 632.5056
477.8386, 627.9269
478.3207, 623.1885
478.8028, 618.4258
479.2849, 613.6160
479.7670, 608.7618
480.2491, 605.2748
480.7313, 603.2503
481.2134, 602.2416
481.6955, 603.3177
482.1776, 604.9720
482.6597, 604.5684
483.1418, 601.2178
483.6240, 596.9025
484.1061, 595.2031
484.5882, 597.8502
485.0703, 598.1659
485.5524, 593.5545
486.0345, 589.2849
486.5167, 588.5856
486.9988, 590.1666
487.4809, 590.7432
487.9630, 588.2608
488.4451, 583.7575
488.9272, 579.4368
489.4094, 574.7447
489.8915, 572.0103
490.3736, 574.3348
490.8557, 577.1674
491.3378, 577.2080
491.8199, 574.3035
492.3021, 570.8294
492.7842, 567.6819
493.2663, 565.1980
493.7484, 564.7086
494.2305, 566.7148
494.7126, 568.1506
495.1948, 566.6390
495.6769, 563.3682
496.1590, 561.4147
496.6411, 561.3395
497.1232, 561.6843
497.6053, 562.2161
498.0875, 562.5865
498.5696, 561.9415
499.0517, 560.0891
499.5338, 558.1260
500.0159, 557.2482
500.4980, 557.5751
500.9802, 557.7831
501.4623, 559.2330
501.9444, 559.1316
502.4265, 554.4561
502.9086, 547.9970
503.3907, 544.6112
503.8729, 546.1929
504.3550, 550.1013
504.8371, 551.7119
505.3192, 550.1959
505.8013, 548.6619
506.2834, 547.1777
506.7656, 545.6144
507.2477, 543.3909
507.7298, 541.0630
508.2119, 539.9614
508.6940, 541.1182
509.1761, 543.3655
509.6583, 544.2477
510.1404, 543.5200
510.6225, 542.8136
511.1046, 542.5756
511.5867, 542.5356
512.0688, 542.7264
512.5510, 543.0856
513.0331, 542.6313
513.5152, 539.2633
513.9973, 535.5780
514.4794, 536.6920
514.9615, 542.6483
515.4437, 546.3316
515.9258, 542.8677
516.4079, 535.0074
516.8900, 531.2177
517.3721, 533.6485
517.8542, 534.9932
518.3364, 532.7242
518.8185, 529.1639
519.3006, 526.2365
519.7827, 524.4066
520.2648, 524.0723
520.7469, 525.9802
521.2291, 529.8041
521.7112, 530.5953
522.1933, 524.8859
522.6754, 520.2260
523.1575, 518.0289
523.6396, 517.0833
524.1218, 516.4613
524.6039, 515.8198
525.0860, 514.8272
525.5681, 512.5486
526.0502, 509.0614
526.5323, 507.8634
527.0145, 510.4782
527.4966, 512.7592
527.9787, 512.2680
528.4608, 510.4288
528.9429, 509.1954
529.4250, 509.1269
529.9072, 509.3931
530.3893, 510.0108
530.8714, 510.4746
531.3535, 508.6054
531.8356, 503.4890
532.3177, 498.2890
532.7999, 496.2787
533.2820, 497.2887
533.7641, 496.8366
534.2462, 492.1847
534.7283, 488.8887
535.2104, 490.7861
535.6926, 495.4626
536.1747, 498.6951
536.6568, 499.0744
537.1389, 498.1736
537.6210, 498.2884
538.1031, 500.0555
538.5853, 499.9658
539.0674, 495.7521
539.5495, 492.2097
540.0316, 491.0385
540.5137, 491.5951
540.9958, 493.0984
541.4780, 495.3021
541.9601, 497.0777
542.4422, 496.0826
542.9243, 491.9953
543.4064, 489.8021
543.8885, 491.4936
544.3707, 493.4316
544.8528, 492.7680
545.3349, 490.4138
545.8170, 488.7552
546.2991, 488.7006
546.7813, 489.4583
547.2634, 490.7700
547.7455, 492.3643
548.2276, 492.9751
548.7097, 492.0027
549.1918, 490.6555
549.6740, 490.4151
550.1561, 491.4357
550.6382, 493.1426
551.1203, 498.3298
551.6024, 501.4589
552.0845, 497.6591
552.5667, 489.9761
553.0488, 484.3345
553.5309, 483.3309
554.0130, 485.0989
554.4951, 486.4950
554.9772, 487.4863
555.4594, 488.1851
555.9415, 490.4880
556.4236, 490.5728
556.9057, 484.2133
557.3878, 474.8844
557.8699, 469.3885
558.3521, 471.2145
558.8342, 476.5784
559.3163, 481.6948
559.7984, 486.4128
560.2805, 486.5445
560.7626, 478.4707
561.2448, 470.1995
561.7269, 471.5145
562.2090, 480.1166
562.6911, 485.4214
563.1732, 484.1291
563.6553, 480.2390
564.1375, 474.2150
564.6196, 467.7324
565.1017, 465.2231
565.5838, 468.3372
566.0659, 473.5157
566.5480, 475.8104
567.0302, 474.7133
567.5123, 472.9182
567.9944, 469.3964
568.4765, 466.3780
568.9586, 464.7342
569.4407, 464.1159
569.9229, 464.4720
570.4050, 465.7573
570.8871, 466.3176
571.3692, 462.5822
571.8513, 454.1883
572.3334, 450.0223
572.8156, 452.6909
573.2977, 456.7885
573.7798, 460.2145
574.2619, 462.5892
574.7440, 463.0347
575.2261, 460.9213
575.7083, 457.6551
576.1904, 452.6389
576.6725, 447.4153
577.1546, 446.6446
577.6367, 451.6150
578.1188, 457.1180
578.6010, 457.8886
579.0831, 453.9492
579.5652, 452.7165
580.0473, 457.3714
580.5294, 460.4815
581.0115, 459.1141
581.4937, 455.6070
581.9758, 452.0523
582.4579, 449.2416
582.9400, 447.9179
583.4221, 449.1827
583.9042, 452.9072
584.3864, 456.1688
584.8685, 459.8574
585.3506, 461.4643
585.8327, 457.8871
