##NAMES=Arsenbrackebuschite
##RRUFFID=R100184
##IDEAL CHEMISTRY=Pb^2+^_2_(Fe^3+^,Zn^2+^)(As^5+^O_4_)_2_(OH,H_2_O)
##LOCALITY=Mina Ojuela (Campo Sur), Mapimi, Durango, Mexico
##OWNER=RRUFF
##SOURCE=Marcus Origlieri
##DESCRIPTION=Yellow to yellowish-orange wedge shaped crystals associated with mimetite and segnitite
##STATUS=The identification of this mineral has been confirmed only by single crystal X-ray diffraction.
##URL=rruff.info/R100184
150.8177, 260.3002
151.2998, 273.5086
151.7819, 286.5281
152.2640, 299.2144
152.7462, 311.7762
153.2283, 324.3348
153.7104, 337.4749
154.1925, 350.1579
154.6746, 362.0653
155.1567, 373.5147
155.6389, 383.3013
156.1210, 390.8948
156.6031, 396.7287
157.0852, 401.9752
157.5673, 407.1811
158.0495, 411.6189
158.5316, 414.9686
159.0137, 416.9698
159.4958, 418.1107
159.9779, 417.9703
160.4600, 416.9497
160.9422, 416.3589
161.4243, 416.8310
161.9064, 417.7693
162.3885, 418.7475
162.8706, 419.2467
163.3527, 420.2745
163.8349, 422.3759
164.3170, 425.4225
164.7991, 428.8027
165.2812, 431.9885
165.7633, 435.4814
166.2454, 439.7460
166.7276, 445.4105
167.2097, 451.4420
167.6918, 457.2252
168.1739, 462.7815
168.6560, 468.7188
169.1381, 476.1449
169.6203, 483.7563
170.1024, 486.9526
170.5845, 486.1200
171.0666, 484.8751
171.5487, 484.7581
172.0309, 485.7036
172.5130, 486.9682
172.9951, 488.8929
173.4772, 490.6880
173.9593, 491.1006
174.4414, 488.9520
174.9236, 485.5873
175.4057, 482.2911
175.8878, 479.0343
176.3699, 475.9753
176.8520, 473.5670
177.3341, 471.4259
177.8163, 468.7093
178.2984, 465.1343
178.7805, 460.7766
179.2626, 455.5260
179.7447, 449.4200
180.2268, 443.0426
180.7090, 436.8869
181.1911, 430.9706
181.6732, 425.4326
182.1553, 420.9344
182.6374, 416.7926
183.1195, 411.4113
183.6017, 404.4887
184.0838, 397.4819
184.5659, 391.8167
185.0480, 387.3955
185.5301, 383.4815
186.0123, 379.8436
186.4944, 376.4497
186.9765, 373.4186
187.4586, 370.7868
187.9407, 368.2514
188.4228, 365.1899
188.9050, 361.6861
189.3871, 358.5315
189.8692, 356.4623
190.3513, 355.2202
190.8334, 353.3603
191.3155, 350.6983
191.7977, 347.7505
192.2798, 345.3601
192.7619, 343.5272
193.2440, 341.7579
193.7261, 339.5114
194.2082, 336.9078
194.6904, 335.4330
195.1725, 335.4895
195.6546, 336.0672
196.1367, 335.1787
196.6188, 332.7307
197.1009, 330.1013
197.5831, 327.8847
198.0652, 326.0581
198.5473, 324.7946
199.0294, 324.1812
199.5115, 324.0077
199.9937, 323.9391
200.4758, 324.0083
200.9579, 323.9601
201.4400, 323.5093
201.9221, 322.5921
202.4042, 322.2037
202.8864, 322.6071
203.3685, 323.3537
203.8506, 323.2794
204.3327, 322.1892
204.8148, 321.0715
205.2969, 320.4615
205.7791, 320.4091
206.2612, 320.5296
206.7433, 320.9102
207.2254, 321.3685
207.7075, 321.3848
208.1896, 320.8324
208.6718, 320.2110
209.1539, 319.8489
209.6360, 319.8623
210.1181, 319.5314
210.6002, 318.6604
211.0823, 317.5159
211.5645, 316.8341
212.0466, 316.6672
212.5287, 316.8532
213.0108, 317.3710
213.4929, 318.3302
213.9750, 319.2503
214.4572, 320.2171
214.9393, 321.0866
215.4214, 321.3906
215.9035, 320.9174
216.3856, 320.3040
216.8678, 319.8033
217.3499, 319.2490
217.8320, 319.3607
218.3141, 320.4610
218.7962, 322.1501
219.2783, 323.1690
219.7605, 323.3380
220.2426, 323.1295
220.7247, 322.7407
221.2068, 322.0895
221.6889, 321.4287
222.1710, 320.5206
222.6532, 319.6711
223.1353, 320.0612
223.6174, 322.6097
224.0995, 324.8821
224.5816, 325.4855
225.0637, 323.4778
225.5459, 322.2689
226.0280, 322.2892
226.5101, 323.1042
226.9922, 323.3197
227.4743, 322.4733
227.9564, 321.7587
228.4386, 321.8161
228.9207, 323.0746
229.4028, 324.0373
229.8849, 324.5434
230.3670, 324.7696
230.8492, 325.2356
231.3313, 326.0181
231.8134, 326.9139
232.2955, 327.8518
232.7776, 328.8231
233.2597, 329.8325
233.7419, 330.8824
234.2240, 331.9814
234.7061, 333.0972
235.1882, 334.1264
235.6703, 335.3366
236.1524, 336.9333
236.6346, 339.3080
237.1167, 341.1502
237.5988, 342.3124
238.0809, 343.0071
238.5630, 343.6539
239.0451, 343.8436
239.5273, 344.5932
240.0094, 346.5003
240.4915, 350.4020
240.9736, 353.1726
241.4557, 354.0854
241.9378, 354.1955
242.4200, 355.8013
242.9021, 359.8819
243.3842, 363.9545
243.8663, 367.0452
244.3484, 368.7631
244.8306, 370.6533
245.3127, 372.6627
245.7948, 374.8538
246.2769, 377.3601
246.7590, 380.2751
247.2411, 383.2987
247.7233, 386.2774
248.2054, 389.0838
248.6875, 392.3643
249.1696, 396.2285
249.6517, 400.4640
250.1338, 404.6753
250.6160, 408.6804
251.0981, 413.0216
251.5802, 417.9237
252.0623, 423.5810
252.5444, 428.9410
253.0265, 433.8484
253.5087, 438.5541
253.9908, 443.2877
254.4729, 448.0277
254.9550, 452.8990
255.4371, 457.8950
255.9192, 462.9230
256.4014, 468.4973
256.8835, 474.8516
257.3656, 481.5233
257.8477, 488.2528
258.3298, 495.3841
258.8120, 501.7930
259.2941, 506.9414
259.7762, 510.7180
260.2583, 515.5714
260.7404, 522.0720
261.2225, 528.9827
261.7047, 535.1121
262.1868, 540.1878
262.6689, 545.2016
263.1510, 550.4396
263.6331, 555.8416
264.1152, 561.1285
264.5974, 566.4462
265.0795, 571.3650
265.5616, 575.1942
266.0437, 577.6207
266.5258, 580.2509
267.0079, 583.5763
267.4901, 587.4675
267.9722, 590.5244
268.4543, 592.8821
268.9364, 594.2361
269.4185, 594.3035
269.9006, 592.9942
270.3828, 590.7963
270.8649, 587.5675
271.3470, 583.5080
271.8291, 579.6456
272.3112, 576.1901
272.7933, 572.2155
273.2755, 567.0179
273.7576, 560.4775
274.2397, 553.4760
274.7218, 546.1338
275.2039, 538.4228
275.6860, 530.2601
276.1682, 521.5228
276.6503, 512.5119
277.1324, 503.2378
277.6145, 493.7486
278.0966, 484.6441
278.5787, 476.1505
279.0609, 467.9301
279.5430, 458.7407
280.0251, 448.3635
280.5072, 438.7318
280.9893, 431.2009
281.4715, 425.8227
281.9536, 420.0565
282.4357, 413.6912
282.9178, 407.1007
283.3999, 400.7498
283.8820, 394.6074
284.3642, 389.0930
284.8463, 384.3255
285.3284, 380.2934
285.8105, 377.2885
286.2926, 375.4183
286.7747, 374.1243
287.2569, 372.6624
287.7390, 371.0414
288.2211, 369.5933
288.7032, 368.1778
289.1853, 367.0048
289.6674, 367.0636
290.1496, 368.4248
290.6317, 370.5394
291.1138, 372.9101
291.5959, 375.5501
292.0780, 378.4193
292.5602, 381.4752
293.0423, 384.7914
293.5244, 388.4416
294.0065, 392.4003
294.4886, 397.0352
294.9707, 402.8422
295.4529, 409.6945
295.9350, 416.9626
296.4171, 424.4488
296.8992, 432.4022
297.3813, 441.3470
297.8634, 451.1820
298.3456, 461.2969
298.8277, 471.1059
299.3098, 480.7642
299.7919, 490.4144
300.2740, 499.6584
300.7561, 509.5578
301.2383, 521.2161
301.7204, 534.6057
302.2025, 548.8511
302.6846, 564.1254
303.1667, 579.7936
303.6488, 595.0336
304.1310, 609.2958
304.6131, 623.9955
305.0952, 640.7614
305.5773, 658.9949
306.0594, 677.0027
306.5415, 694.6876
307.0237, 711.4135
307.5058, 726.5383
307.9879, 739.7486
308.4700, 752.4251
308.9521, 766.5095
309.4343, 780.7411
309.9164, 793.2377
310.3985, 803.5184
310.8806, 811.6382
311.3627, 817.8920
311.8448, 822.3586
312.3270, 824.0634
312.8091, 821.4666
313.2912, 816.1043
313.7733, 809.7921
314.2554, 804.0283
314.7375, 796.7435
315.2197, 786.5809
315.7018, 773.6588
316.1839, 759.7430
316.6660, 745.0744
317.1481, 729.9595
317.6302, 714.7806
318.1124, 698.8219
318.5945, 683.6923
319.0766, 669.7606
319.5587, 657.0057
320.0408, 645.1285
320.5229, 634.2789
321.0051, 624.1069
321.4872, 614.3463
321.9693, 604.8372
322.4514, 596.1721
322.9335, 588.5632
323.4156, 581.8773
323.8978, 575.8580
324.3799, 570.2153
324.8620, 565.4460
325.3441, 561.7941
325.8262, 559.5356
326.3083, 557.6999
326.7905, 556.1749
327.2726, 555.0427
327.7547, 554.4208
328.2368, 554.1992
328.7189, 554.5948
329.2010, 555.6552
329.6832, 557.3720
330.1653, 559.7333
330.6474, 563.2521
331.1295, 567.0437
331.6116, 570.3272
332.0938, 571.8723
332.5759, 574.9374
333.0580, 580.5067
333.5401, 588.1949
334.0222, 594.6887
334.5043, 599.5018
334.9865, 603.8659
335.4686, 608.4703
335.9507, 613.2134
336.4328, 618.5928
336.9149, 625.0346
337.3970, 632.0187
337.8792, 637.8549
338.3613, 642.3301
338.8434, 646.5089
339.3255, 650.9294
339.8076, 655.6823
340.2898, 660.2691
340.7719, 664.9612
341.2540, 669.1155
341.7361, 671.9741
342.2182, 673.5078
342.7003, 673.6404
343.1825, 672.1956
343.6646, 669.2692
344.1467, 665.7462
344.6288, 661.7092
345.1109, 656.4964
345.5930, 649.0687
346.0752, 639.6385
346.5573, 629.5060
347.0394, 618.8480
347.5215, 607.7118
348.0036, 595.9230
348.4857, 583.5241
348.9679, 570.5729
349.4500, 556.7897
349.9321, 542.3279
350.4142, 527.6522
350.8963, 512.6612
351.3784, 497.7570
351.8606, 483.5526
352.3427, 470.1042
352.8248, 457.2963
353.3069, 445.0159
353.7890, 433.5357
354.2711, 423.1328
354.7533, 413.9207
355.2354, 405.3076
355.7175, 396.9961
356.1996, 389.0141
356.6817, 381.4093
357.1638, 373.8666
357.6460, 366.9597
358.1281, 361.0858
358.6102, 356.2422
359.0923, 352.0403
359.5744, 348.7853
360.0565, 345.8866
360.5387, 342.7619
361.0208, 339.0341
361.5029, 335.3093
361.9850, 331.6958
362.4671, 328.2802
362.9492, 325.3849
363.4314, 323.3812
363.9135, 321.7401
364.3956, 320.1521
364.8777, 318.4522
365.3598, 317.0910
365.8419, 316.6383
366.3241, 316.4790
366.8062, 315.6909
367.2883, 312.9955
367.7704, 310.7674
368.2526, 310.0149
368.7347, 311.2090
369.2168, 311.1826
369.6989, 308.6160
370.1810, 305.6007
370.6631, 303.8465
371.1453, 304.1925
371.6274, 304.5812
372.1095, 305.0114
372.5916, 305.3695
373.0737, 304.7917
373.5558, 302.5751
374.0380, 300.4572
374.5201, 299.5202
375.0022, 300.3061
375.4843, 300.4493
375.9664, 299.6377
376.4485, 298.3550
376.9307, 297.4447
377.4128, 296.8689
377.8949, 296.8760
378.3770, 297.8704
378.8591, 299.7635
379.3412, 300.7321
379.8234, 300.6048
380.3055, 300.1263
380.7876, 300.2247
381.2697, 300.8537
381.7518, 301.0939
382.2339, 300.4472
382.7161, 299.4610
383.1982, 299.6245
383.6803, 300.8971
384.1624, 302.1076
384.6445, 302.3725
385.1266, 301.9060
385.6088, 301.1748
386.0909, 300.1873
386.5730, 299.1548
387.0551, 298.5172
387.5372, 298.0821
388.0193, 297.2777
388.5015, 295.7146
388.9836, 293.6836
389.4657, 291.3204
389.9478, 288.6154
390.4299, 286.1356
390.9120, 284.5543
391.3942, 283.3263
391.8763, 281.7993
392.3584, 279.2437
392.8405, 276.8143
393.3226, 275.3273
393.8047, 274.5602
394.2869, 273.4915
394.7690, 271.3079
395.2511, 268.9842
395.7332, 267.1078
396.2154, 265.8308
396.6975, 264.8854
397.1796, 264.4274
397.6617, 264.2254
398.1438, 263.8852
398.6259, 263.0946
399.1081, 262.4076
399.5902, 262.0079
400.0723, 261.9392
400.5544, 261.8597
401.0365, 262.1171
401.5186, 262.0953
402.0008, 261.1642
402.4829, 258.2974
402.9650, 256.5048
403.4471, 256.5816
403.9292, 257.9754
404.4113, 258.3282
404.8935, 257.3570
405.3756, 256.0113
405.8577, 254.6448
406.3398, 253.2070
406.8219, 252.2824
407.3040, 251.9926
407.7862, 252.0026
408.2683, 251.9109
408.7504, 251.7256
409.2325, 251.2431
409.7146, 250.0010
410.1967, 248.5085
410.6789, 248.6850
411.1610, 250.5887
411.6431, 252.7095
412.1252, 253.5670
412.6073, 253.5846
413.0894, 253.9318
413.5716, 254.8113
414.0537, 256.1252
414.5358, 257.8902
415.0179, 260.0096
415.5000, 262.2339
415.9821, 264.2863
416.4643, 266.4154
416.9464, 269.0179
417.4285, 272.1460
417.9106, 275.0922
418.3927, 276.9201
418.8748, 278.4667
419.3570, 280.6920
419.8391, 284.5905
420.3212, 288.6012
420.8033, 292.0301
421.2854, 295.0053
421.7675, 298.1995
422.2497, 301.9666
422.7318, 305.9059
423.2139, 309.8451
423.6960, 314.0014
424.1781, 317.6351
424.6602, 320.1396
425.1424, 322.2082
425.6245, 324.8559
426.1066, 329.0680
426.5887, 332.5539
427.0709, 334.4314
427.5530, 334.7007
428.0351, 336.1506
428.5172, 339.5619
428.9993, 343.1012
429.4814, 345.4925
429.9636, 346.5928
430.4457, 347.0362
430.9278, 346.7521
431.4099, 345.9562
431.8920, 345.0062
432.3741, 343.8473
432.8563, 342.8967
433.3384, 342.5224
433.8205, 342.5862
434.3026, 342.1837
434.7847, 341.3047
435.2668, 340.0495
435.7490, 338.6145
436.2311, 336.9023
436.7132, 334.4898
437.1953, 330.8105
437.6774, 327.0197
438.1595, 324.7960
438.6417, 323.8558
439.1238, 323.0248
439.6059, 321.4121
440.0880, 319.6443
440.5701, 318.4118
441.0522, 317.8297
441.5344, 317.4825
442.0165, 317.1620
442.4986, 316.9059
442.9807, 316.7626
443.4628, 316.6708
443.9449, 316.7691
444.4271, 317.0388
444.9092, 317.5123
445.3913, 318.3799
445.8734, 320.0595
446.3555, 321.8372
446.8376, 323.2941
447.3198, 323.9208
447.8019, 325.1957
448.2840, 327.4761
448.7661, 330.2617
449.2482, 332.8292
449.7303, 334.7828
450.2125, 337.1751
450.6946, 340.4235
451.1767, 344.4570
451.6588, 347.8504
452.1409, 350.2673
452.6230, 352.8893
453.1052, 356.7944
453.5873, 362.1714
454.0694, 366.6097
454.5515, 369.6317
455.0337, 372.2342
455.5158, 375.9917
455.9979, 380.8829
456.4800, 386.1120
456.9621, 391.3533
457.4442, 396.7417
457.9264, 402.7601
458.4085, 409.3641
458.8906, 416.1009
459.3727, 422.2285
459.8548, 428.2904
460.3369, 435.1113
460.8191, 443.2003
461.3012, 451.4980
461.7833, 458.8427
462.2654, 465.7980
462.7475, 473.4976
463.2296, 483.4577
463.7118, 493.5609
464.1939, 502.3232
464.6760, 509.7083
465.1581, 517.7830
465.6402, 527.3687
466.1223, 537.6960
466.6045, 548.1047
467.0866, 558.6257
467.5687, 569.0158
468.0508, 579.4700
468.5329, 589.8135
469.0150, 599.8416
469.4972, 609.6440
469.9793, 618.7981
470.4614, 626.9591
470.9435, 634.0761
471.4256, 641.4900
471.9077, 649.7450
472.3899, 657.2331
472.8720, 662.3914
473.3541, 665.1533
473.8362, 667.1807
474.3183, 668.9089
474.8004, 669.7493
475.2826, 668.6592
475.7647, 665.6457
476.2468, 660.8187
476.7289, 653.9136
477.2110, 645.2537
477.6931, 635.6823
478.1753, 625.1712
478.6574, 613.5818
479.1395, 600.5049
479.6216, 586.3597
480.1037, 571.7247
480.5858, 556.5791
481.0680, 541.1857
481.5501, 525.1268
482.0322, 508.9439
482.5143, 493.9097
482.9964, 481.9389
483.4786, 470.0167
483.9607, 456.3037
484.4428, 440.6355
484.9249, 425.8285
485.4070, 413.0075
485.8892, 401.0230
486.3713, 389.0517
486.8534, 376.2010
487.3355, 364.8116
487.8176, 355.3604
488.2997, 347.2849
488.7819, 339.1424
489.2640, 330.5737
489.7461, 322.6960
490.2282, 316.0655
490.7103, 310.5413
491.1924, 304.6533
491.6746, 298.2531
492.1567, 291.9365
492.6388, 286.2054
493.1209, 280.9892
493.6030, 276.4320
494.0851, 272.6003
494.5673, 269.0829
495.0494, 265.4136
495.5315, 261.5892
496.0136, 257.7398
496.4957, 253.5856
496.9778, 249.6144
497.4600, 246.3420
497.9421, 243.7348
498.4242, 241.2910
498.9063, 239.0065
499.3884, 236.5682
499.8705, 233.5462
500.3527, 229.5011
500.8348, 225.8244
501.3169, 223.3680
501.7990, 221.5447
502.2811, 219.5108
502.7632, 216.8584
503.2454, 214.2977
503.7275, 212.0363
504.2096, 210.0448
504.6917, 207.8261
505.1738, 205.1227
505.6559, 202.5813
506.1381, 200.6401
506.6202, 199.5091
507.1023, 198.1328
507.5844, 196.4848
508.0665, 194.6497
508.5486, 192.6445
509.0308, 190.4498
509.5129, 188.6180
509.9950, 187.4035
510.4771, 186.5045
510.9592, 185.2655
511.4413, 183.7094
511.9235, 182.0437
512.4056, 180.1903
512.8877, 178.3887
513.3698, 177.0671
513.8519, 176.2875
514.3340, 175.4981
514.8162, 174.1438
515.2983, 172.6045
515.7804, 171.3517
516.2625, 170.8615
516.7446, 170.2545
517.2267, 168.9469
517.7089, 167.2616
518.1910, 166.0029
518.6731, 165.7159
519.1552, 165.5341
519.6373, 165.2349
520.1194, 164.8330
520.6016, 164.1077
521.0837, 162.7341
521.5658, 161.4059
522.0479, 160.6289
522.5300, 160.5042
523.0121, 160.6521
523.4943, 161.2265
523.9764, 161.8197
524.4585, 161.5355
524.9406, 160.3554
525.4227, 159.3737
525.9048, 159.0948
526.3870, 159.2322
526.8691, 158.9398
527.3513, 158.2606
527.8334, 157.8457
528.3155, 158.5899
528.7976, 159.7331
529.2797, 160.1425
529.7618, 159.6233
530.2440, 158.7424
530.7261, 157.6133
531.2082, 156.4512
531.6903, 155.5518
532.1724, 155.2621
532.6545, 154.9706
533.1367, 154.2890
533.6188, 153.4060
534.1009, 152.9714
534.5830, 153.5000
535.0651, 154.1018
535.5472, 154.5576
536.0294, 154.9048
536.5115, 154.8163
536.9936, 154.0619
537.4757, 153.1952
537.9578, 152.7995
538.4399, 153.0355
538.9221, 152.5820
539.4042, 151.0435
539.8863, 149.2052
540.3684, 148.5562
540.8505, 149.0081
541.3326, 149.5171
541.8148, 149.7321
542.2969, 149.6975
542.7790, 149.4809
543.2611, 149.0827
543.7432, 148.5077
544.2253, 147.5518
544.7075, 146.5311
545.1896, 145.7796
545.6717, 145.3666
546.1538, 145.0876
546.6359, 145.2254
547.1180, 145.2848
547.6002, 144.7361
548.0823, 142.6352
548.5644, 140.8612
549.0465, 139.8513
549.5286, 139.4080
550.0107, 138.9743
550.4929, 138.6305
550.9750, 138.1775
551.4571, 137.5794
551.9392, 136.8320
552.4213, 135.7043
552.9034, 134.0093
553.3856, 132.4945
553.8677, 132.1012
554.3498, 132.6763
554.8319, 132.1752
555.3140, 130.1812
555.7961, 127.8723
556.2783, 126.8702
556.7604, 126.8200
557.2425, 126.7405
557.7246, 126.2323
558.2067, 125.5782
558.6888, 125.0906
559.1710, 124.7019
559.6531, 124.1837
560.1352, 123.3847
560.6173, 122.4604
561.0994, 121.4206
561.5815, 120.2173
562.0637, 119.3138
562.5458, 119.0375
563.0279, 118.9426
563.5100, 118.7179
563.9921, 118.5234
564.4742, 117.8523
564.9564, 116.3847
565.4385, 114.6776
565.9206, 113.7386
566.4027, 113.7148
566.8848, 113.7750
567.3669, 113.7714
567.8491, 113.6383
568.3312, 113.0182
568.8133, 111.9368
569.2954, 111.0047
569.7775, 110.9561
570.2596, 111.2347
570.7418, 110.6385
571.2239, 109.0623
571.7060, 107.6397
572.1881, 107.3974
572.6702, 107.7029
573.1523, 107.8843
573.6345, 107.8630
574.1166, 107.5350
574.5987, 106.5218
575.0808, 105.2474
575.5629, 104.4004
576.0450, 104.5272
576.5272, 104.6315
577.0093, 104.5898
577.4914, 104.3928
577.9735, 103.9309
578.4556, 103.0884
578.9377, 102.2283
579.4199, 101.4909
579.9020, 100.8860
580.3841, 100.4224
580.8662, 100.0944
581.3483, 99.94566
581.8304, 100.2209
582.3126, 100.7437
582.7947, 100.8416
583.2768, 100.2916
583.7589, 99.58932
584.2410, 99.20276
584.7231, 99.05504
585.2053, 98.99432
585.6874, 99.17665
586.1696, 99.22121
586.6517, 98.78446
587.1338, 97.98727
587.6159, 97.37640
588.0980, 96.89620
588.5801, 96.80482
589.0623, 97.41477
589.5444, 98.91655
590.0265, 99.79046
590.5086, 99.92448
590.9907, 99.57597
591.4728, 98.73354
591.9550, 97.21172
592.4371, 96.55457
592.9192, 97.07834
593.4013, 98.02789
593.8834, 98.29337
594.3655, 97.97346
594.8477, 97.68481
595.3298, 97.67382
595.8119, 97.73617
596.2940, 97.46110
596.7761, 96.99529
597.2582, 96.82188
597.7404, 97.69396
598.2225, 98.56465
598.7046, 98.58057
599.1867, 97.70274
599.6688, 96.93024
600.1509, 96.33640
600.6331, 96.09493
601.1152, 96.40123
601.5973, 97.66685
602.0794, 98.49342
602.5615, 98.78421
603.0436, 98.72099
603.5258, 98.40842
604.0079, 97.75072
604.4900, 97.36698
604.9721, 97.36870
605.4542, 97.68168
605.9363, 98.29094
606.4185, 99.15012
606.9006, 99.88651
607.3827, 100.2877
607.8648, 100.4831
608.3469, 100.5707
608.8290, 100.5799
609.3112, 100.6691
609.7933, 100.8941
610.2754, 101.2615
610.7575, 101.8550
611.2396, 102.7178
611.7217, 103.4256
612.2039, 103.7102
612.6860, 103.8778
613.1681, 104.1651
613.6502, 104.6306
614.1323, 105.1311
614.6144, 105.7541
615.0966, 106.3261
615.5787, 106.5616
616.0608, 106.3984
616.5429, 106.2949
617.0250, 106.3851
617.5071, 106.5681
617.9893, 106.5785
618.4714, 106.4440
618.9535, 106.3734
619.4356, 106.5935
619.9177, 106.8758
620.3998, 106.6738
620.8820, 106.0965
621.3641, 106.1211
621.8462, 108.5227
622.3283, 110.8936
622.8104, 111.2095
623.2925, 108.6081
623.7747, 106.4798
624.2568, 105.6495
624.7389, 105.4047
625.2210, 105.1784
625.7031, 104.8906
626.1852, 104.8613
626.6674, 105.3507
627.1495, 105.8270
627.6316, 105.1912
628.1137, 103.3835
628.5958, 101.9359
629.0779, 101.3202
629.5601, 101.2834
630.0422, 101.5230
630.5243, 101.9640
631.0064, 102.2577
631.4885, 102.2726
631.9706, 102.0097
632.4528, 101.2531
632.9349, 100.0797
633.4170, 99.25271
633.8991, 99.39830
634.3812, 99.77579
634.8633, 99.93914
635.3455, 99.75919
635.8276, 99.62107
636.3097, 99.45022
636.7918, 99.40179
637.2739, 99.64563
637.7560, 100.2720
638.2382, 100.8270
638.7203, 101.2880
639.2024, 101.6281
639.6845, 101.8047
640.1666, 101.8213
640.6487, 101.6914
641.1309, 101.3202
641.6130, 100.9406
642.0951, 100.8811
642.5772, 101.0819
643.0594, 101.3814
643.5415, 101.7443
644.0236, 102.1448
644.5057, 102.6954
644.9879, 103.3481
645.4700, 103.6594
645.9521, 103.2585
646.4342, 102.7370
