##NAMES=Arsenolamprite
##RRUFFID=R060680
##IDEAL CHEMISTRY=As
##LOCALITY=Copiapo, Atacama, Chile
##OWNER=RRUFF
##SOURCE=Michael Scott
##DESCRIPTION=Black oxidized coating of arsenolite over a group of elongated bladed and platy crystals
##STATUS=The identification of this mineral has been confirmed by X-ray diffraction and chemical analysis
##URL=rruff.info/R060680
##MEASURED CHEMISTRY=light phase: As_1.00_ ; dark phase: As_2.00_O_3_
126.826, 1201.672
127.308, 1216.291
127.791, 1231.018
128.273, 1234.063
128.755, 1224.237
129.237, 1212.739
129.719, 1214.542
130.201, 1227.355
130.683, 1237.353
131.165, 1237.362
131.648, 1228.813
132.130, 1215.495
132.612, 1195.100
133.094, 1174.849
133.576, 1169.981
134.058, 1181.383
134.540, 1195.650
135.022, 1203.907
135.504, 1206.049
135.986, 1207.778
136.469, 1207.310
136.951, 1207.659
137.433, 1182.394
137.915, 1211.068
138.397, 1226.649
138.879, 1229.840
139.361, 1183.533
139.844, 1201.142
140.326, 1193.137
140.808, 1184.082
141.290, 1210.687
141.772, 1171.580
142.254, 1197.619
142.736, 1197.654
143.218, 1209.590
143.700, 1195.754
144.182, 1189.878
144.665, 1209.782
145.147, 1215.412
145.629, 1185.507
146.111, 1168.250
146.593, 1172.496
147.075, 1220.415
147.557, 1267.307
148.040, 1292.143
148.522, 1276.880
149.004, 1264.401
149.486, 1257.541
149.968, 1255.688
150.450, 1252.112
150.932, 1245.047
151.414, 1237.308
151.896, 1230.824
152.378, 1219.392
152.861, 1215.644
153.343, 1226.874
153.825, 1255.521
154.307, 1272.327
154.789, 1271.618
155.271, 1258.781
155.753, 1239.180
156.235, 1200.637
156.718, 1167.112
157.200, 1146.240
157.682, 1139.866
158.164, 1141.220
158.646, 1153.878
159.128, 1172.744
159.610, 1189.095
160.092, 1198.701
160.574, 1205.879
161.057, 1211.575
161.539, 1210.959
162.021, 1217.720
162.503, 1247.947
162.985, 1292.301
163.467, 1321.570
163.949, 1311.235
164.431, 1286.212
164.913, 1266.612
165.396, 1263.279
165.878, 1261.377
166.360, 1251.515
166.842, 1234.827
167.324, 1220.328
167.806, 1209.452
168.288, 1204.774
168.770, 1209.255
169.253, 1237.745
169.735, 1266.712
170.217, 1275.070
170.699, 1261.767
171.181, 1247.427
171.663, 1246.734
172.145, 1255.653
172.627, 1266.669
173.109, 1285.369
173.592, 1300.427
174.074, 1295.379
174.556, 1265.316
175.038, 1232.698
175.520, 1215.954
176.002, 1213.361
176.484, 1219.558
176.966, 1240.964
177.449, 1267.214
177.931, 1280.470
178.413, 1276.026
178.895, 1262.824
179.377, 1248.112
179.859, 1232.661
180.341, 1222.159
180.823, 1224.800
181.305, 1235.490
181.788, 1240.865
182.270, 1234.358
182.752, 1225.015
183.234, 1232.018
183.716, 1255.117
184.198, 1277.087
184.680, 1277.432
185.162, 1262.271
185.645, 1258.052
186.127, 1281.511
186.609, 1318.177
187.091, 1326.479
187.573, 1304.089
188.055, 1274.493
188.537, 1264.590
189.019, 1272.245
189.501, 1277.996
189.984, 1268.412
190.466, 1249.587
190.948, 1253.985
191.430, 1285.944
191.912, 1326.404
192.394, 1349.581
192.876, 1355.381
193.358, 1357.263
193.840, 1360.438
194.323, 1364.764
194.805, 1368.213
195.287, 1370.105
195.769, 1372.275
196.251, 1378.699
196.733, 1389.845
197.215, 1401.051
197.697, 1409.248
198.180, 1414.388
198.662, 1421.768
199.144, 1433.542
199.626, 1446.071
200.108, 1448.538
200.590, 1438.456
201.072, 1428.621
201.554, 1425.977
202.036, 1430.410
202.519, 1442.992
203.001, 1463.760
203.483, 1492.762
203.965, 1534.209
204.447, 1593.692
204.929, 1649.931
205.411, 1676.124
205.893, 1661.590
206.376, 1677.705
206.858, 1744.499
207.340, 1854.778
207.822, 1948.900
208.304, 2017.236
208.786, 2088.395
209.268, 2183.368
209.750, 2295.996
210.232, 2453.564
210.715, 2665.940
211.197, 2932.707
211.679, 3221.628
212.161, 3527.700
212.643, 3865.557
213.125, 4249.462
213.607, 4678.531
214.089, 5162.307
214.572, 5707.146
215.054, 6309.381
215.536, 6958.532
216.018, 7650.268
216.500, 8393.792
216.982, 9221.412
217.464, 10139.530
217.946, 11112.050
218.428, 12132.650
218.911, 13232.770
219.393, 14288.580
219.875, 15374.370
220.357, 16375.100
220.839, 17041.461
221.321, 17248.740
221.803, 17359.891
222.285, 17454.279
222.768, 17398.461
223.250, 17764.480
223.732, 18765.199
224.214, 20100.279
224.696, 21192.051
225.178, 22364.939
225.660, 22750.471
226.142, 21872.439
226.624, 19208.150
227.107, 16457.391
227.589, 13476.430
228.071, 10435.970
228.553, 8004.023
229.035, 6280.342
229.517, 4987.015
229.999, 3991.274
230.481, 3365.400
230.964, 2862.068
231.446, 2488.880
231.928, 2228.581
232.410, 2023.566
232.892, 1889.464
233.374, 1789.946
233.856, 1708.030
234.338, 1649.043
234.820, 1595.337
235.303, 1543.717
235.785, 1495.524
236.267, 1454.848
236.749, 1403.543
237.231, 1381.412
237.713, 1414.181
238.195, 1501.891
238.677, 1648.868
239.160, 1888.473
239.642, 2206.967
240.124, 2433.491
240.606, 2499.904
241.088, 2550.325
241.570, 2689.497
242.052, 2911.246
242.534, 3236.536
243.016, 3687.490
243.499, 4261.285
243.981, 4855.438
244.463, 5486.811
244.945, 6120.946
245.427, 6732.246
245.909, 7316.824
246.391, 7868.119
246.873, 8349.851
247.355, 8761.437
247.838, 9307.867
248.320, 10019.910
248.802, 10837.440
249.284, 11681.870
249.766, 12422.740
250.248, 13422.060
250.730, 14706.920
251.212, 16276.450
251.695, 18447.891
252.177, 21914.680
252.659, 25289.650
253.141, 27216.029
253.623, 27769.609
254.105, 26638.770
254.587, 23243.330
255.069, 17318.359
255.551, 12554.980
256.034, 9075.843
256.516, 6570.998
256.998, 4751.903
257.480, 3822.168
257.962, 3175.491
258.444, 2700.500
258.926, 2411.161
259.408, 2172.198
259.891, 1996.454
260.373, 1860.103
260.855, 1735.879
261.337, 1623.972
261.819, 1525.715
262.301, 1441.594
262.783, 1370.883
263.265, 1316.230
263.747, 1280.923
264.229, 1257.226
264.712, 1236.712
265.194, 1222.781
265.676, 1202.758
266.158, 1170.065
266.640, 1122.486
267.122, 1089.081
267.604, 1074.185
268.086, 1067.589
268.569, 1056.097
269.051, 1038.058
269.533, 1020.137
270.015, 1004.994
270.497, 992.659
270.979, 977.712
271.461, 958.300
271.943, 939.263
272.426, 928.850
272.908, 929.409
273.390, 928.653
273.872, 921.964
274.354, 909.326
274.836, 897.207
275.318, 884.823
275.800, 874.455
276.282, 870.628
276.765, 874.567
277.247, 877.609
277.729, 876.039
278.211, 870.050
278.693, 866.628
279.175, 866.203
279.657, 867.311
280.139, 869.371
280.621, 872.823
281.104, 872.265
281.586, 864.449
282.068, 850.159
282.550, 835.567
283.032, 819.303
283.514, 806.964
283.996, 810.568
284.478, 830.432
284.961, 842.110
285.443, 829.890
285.925, 799.642
286.407, 791.944
286.889, 810.716
287.371, 834.593
287.853, 828.951
288.335, 796.744
288.818, 785.144
289.300, 777.148
289.782, 782.442
290.264, 784.511
290.746, 783.526
291.228, 770.344
291.710, 772.913
292.192, 769.169
292.674, 765.167
293.156, 769.952
293.639, 764.402
294.121, 757.570
294.603, 760.439
295.085, 765.351
295.567, 764.617
296.049, 759.395
296.531, 753.861
297.013, 748.834
297.496, 744.751
297.978, 742.423
298.460, 741.872
298.942, 742.739
299.424, 738.624
299.906, 735.213
300.388, 720.172
300.870, 740.337
301.353, 751.956
301.835, 755.489
302.317, 726.715
302.799, 739.658
303.281, 735.883
303.763, 731.422
304.245, 750.237
304.727, 741.678
305.209, 736.147
305.691, 732.942
306.174, 731.760
306.656, 729.476
307.138, 721.842
307.620, 712.299
308.102, 705.951
308.584, 709.960
309.066, 712.022
309.548, 697.432
310.031, 669.317
310.513, 647.307
310.995, 645.782
311.477, 654.984
311.959, 665.087
312.441, 676.614
312.923, 684.495
313.405, 685.373
313.888, 679.816
314.370, 670.506
314.852, 648.320
315.334, 628.341
315.816, 623.911
316.298, 652.126
316.780, 676.488
317.262, 680.083
317.744, 667.458
318.227, 653.474
318.709, 636.841
319.191, 624.829
319.673, 623.069
320.155, 642.219
320.637, 655.852
321.119, 646.886
321.601, 626.588
322.083, 623.225
322.566, 603.065
323.048, 631.320
323.530, 647.824
324.012, 653.206
324.494, 614.159
324.976, 632.483
325.458, 627.816
325.940, 622.206
326.422, 648.604
326.905, 616.020
327.387, 638.772
327.869, 641.961
328.351, 642.318
328.833, 634.356
329.315, 625.002
329.797, 625.493
330.280, 648.042
330.762, 666.000
331.244, 671.090
331.726, 659.500
332.208, 651.146
332.690, 645.771
333.172, 643.828
333.654, 646.703
334.136, 659.127
334.618, 667.776
335.101, 668.542
335.583, 660.826
336.065, 655.049
336.547, 650.769
337.029, 648.937
337.511, 650.230
337.993, 654.202
338.475, 663.781
338.958, 684.084
339.440, 712.401
339.922, 719.122
340.404, 698.294
340.886, 672.305
341.368, 660.194
341.850, 662.673
342.332, 672.217
342.815, 691.013
343.297, 713.966
343.779, 715.051
344.261, 689.906
344.743, 680.031
345.225, 649.600
345.707, 683.045
346.189, 700.984
346.671, 704.251
347.154, 648.902
347.636, 669.243
348.118, 659.252
348.600, 664.278
349.082, 667.298
349.564, 682.963
350.046, 693.968
350.528, 698.609
351.010, 696.579
351.493, 680.922
351.975, 656.254
352.457, 639.306
352.939, 647.300
353.421, 666.024
353.903, 675.646
354.385, 673.718
354.867, 667.020
355.349, 656.215
355.832, 645.033
356.314, 640.834
356.796, 659.562
357.278, 678.396
357.760, 676.440
358.242, 651.648
358.724, 624.588
359.207, 600.734
359.689, 583.388
360.171, 576.534
360.653, 596.796
361.135, 614.461
361.617, 614.055
362.099, 596.056
362.581, 575.612
363.063, 549.989
363.546, 528.265
364.028, 517.576
364.510, 527.361
364.992, 539.932
365.474, 555.465
365.956, 572.163
366.438, 580.737
366.920, 547.156
367.402, 529.008
367.885, 501.939
368.367, 520.134
368.849, 527.343
369.331, 524.154
369.813, 479.428
370.295, 488.339
370.777, 475.753
371.259, 473.810
371.741, 464.355
372.224, 485.589
372.706, 499.925
373.188, 506.527
373.670, 506.656
374.152, 500.346
374.634, 482.888
375.116, 471.039
375.598, 472.055
376.081, 486.411
376.563, 493.772
377.045, 490.572
377.527, 487.507
378.009, 483.972
378.491, 474.878
378.973, 447.457
379.455, 470.004
379.938, 480.422
380.420, 479.362
380.902, 432.449
381.384, 444.746
381.866, 433.314
382.348, 420.909
382.830, 441.540
383.312, 423.318
383.794, 466.106
384.276, 475.875
384.759, 456.361
385.241, 436.318
385.723, 435.331
386.205, 446.505
386.687, 459.068
387.169, 472.942
387.651, 482.944
388.134, 481.782
388.616, 472.451
389.098, 462.107
389.580, 448.750
390.062, 439.448
390.544, 443.975
391.026, 464.261
391.508, 481.684
391.990, 484.988
392.473, 479.284
392.955, 470.875
393.437, 454.401
393.919, 442.560
394.401, 444.586
394.883, 459.442
395.365, 470.022
395.847, 464.609
396.329, 457.096
396.812, 457.164
397.294, 484.342
397.776, 498.780
398.258, 481.655
398.740, 443.935
399.222, 420.891
399.704, 450.892
400.186, 468.016
400.668, 472.957
401.151, 429.220
401.633, 448.339
402.115, 442.269
402.597, 435.166
403.079, 463.132
403.561, 426.476
404.043, 453.886
404.525, 455.722
405.008, 469.262
405.490, 457.457
405.972, 453.481
406.454, 474.858
406.936, 482.196
407.418, 467.474
407.900, 481.758
408.382, 444.217
408.865, 452.153
409.347, 479.712
409.829, 466.263
410.311, 481.011
410.793, 485.021
411.275, 459.325
411.757, 446.190
412.239, 440.710
412.721, 440.223
413.203, 443.122
413.686, 448.538
414.168, 452.715
414.650, 447.515
415.132, 442.418
415.614, 452.738
416.096, 481.830
416.578, 509.783
417.060, 518.420
417.543, 516.321
418.025, 516.585
418.507, 534.247
418.989, 547.367
419.471, 537.446
419.953, 506.172
420.435, 484.754
420.917, 489.736
421.400, 507.073
421.882, 526.306
422.364, 547.849
422.846, 568.024
423.328, 587.921
423.810, 606.373
424.292, 619.705
424.774, 624.013
425.256, 626.494
425.738, 630.224
426.221, 637.678
426.703, 639.516
427.185, 632.817
427.667, 622.330
428.149, 615.342
428.631, 613.888
429.113, 611.086
429.595, 603.823
430.078, 592.537
430.560, 587.642
431.042, 590.726
431.524, 595.506
432.006, 594.842
432.488, 588.567
432.970, 587.027
433.452, 591.001
433.935, 601.907
434.417, 631.992
434.899, 679.284
435.381, 711.038
435.863, 686.905
436.345, 633.097
436.827, 618.589
437.309, 655.359
437.791, 699.542
438.274, 700.733
438.756, 674.864
439.238, 656.159
439.720, 665.797
440.202, 684.683
440.684, 699.637
441.166, 710.247
441.648, 714.803
442.130, 699.566
442.613, 684.196
443.095, 686.321
443.577, 720.859
444.059, 759.518
444.541, 797.534
445.023, 833.594
445.505, 864.222
445.987, 881.753
446.470, 898.918
446.952, 922.092
447.434, 957.893
447.916, 982.183
448.398, 984.008
448.880, 980.741
449.362, 994.160
449.844, 1033.765
450.327, 1072.177
450.809, 1106.498
451.291, 1135.771
451.773, 1152.483
452.255, 1155.126
452.737, 1148.941
453.219, 1132.548
453.701, 1104.729
454.183, 1095.135
454.665, 1113.938
455.148, 1139.247
455.630, 1128.759
456.112, 1084.427
456.594, 1035.265
457.076, 992.141
457.558, 955.115
458.040, 924.904
458.522, 901.837
459.005, 881.656
459.487, 863.173
459.969, 844.875
460.451, 823.825
460.933, 798.125
461.415, 770.420
461.897, 738.808
462.379, 706.028
462.862, 682.642
463.344, 678.044
463.826, 681.850
464.308, 689.474
464.790, 705.256
465.272, 711.691
465.754, 697.698
466.236, 673.349
466.718, 653.144
467.201, 641.246
467.683, 630.518
468.165, 614.456
468.647, 592.453
469.129, 595.127
469.611, 639.781
470.093, 689.168
470.575, 718.051
471.057, 723.113
471.540, 716.735
472.022, 693.801
472.504, 665.500
472.986, 663.239
473.468, 690.817
473.950, 713.379
474.432, 711.523
474.914, 689.698
475.397, 670.492
475.879, 653.534
476.361, 642.560
476.843, 642.246
477.325, 651.082
477.807, 665.750
478.289, 690.841
478.771, 714.749
479.254, 724.625
479.736, 722.175
480.218, 714.206
480.700, 697.974
481.182, 681.744
481.664, 672.952
482.146, 673.361
482.628, 677.221
483.110, 689.596
483.592, 701.803
484.075, 702.839
484.557, 671.381
485.039, 647.852
485.521, 645.608
486.003, 664.111
486.485, 679.346
486.967, 696.880
487.449, 705.657
487.931, 698.073
488.414, 666.180
488.896, 638.070
489.378, 613.102
489.860, 593.395
490.342, 582.768
490.824, 582.314
491.306, 584.925
491.789, 591.468
492.271, 599.221
492.753, 591.455
493.235, 566.635
493.717, 543.286
494.199, 543.072
494.681, 556.656
495.163, 556.462
495.645, 532.219
496.128, 503.958
496.610, 495.386
497.092, 500.835
497.574, 505.451
498.056, 499.949
498.538, 492.274
499.020, 490.272
499.502, 494.688
499.984, 493.397
500.467, 473.674
500.949, 449.964
501.431, 434.979
501.913, 435.261
502.395, 439.063
502.877, 445.481
503.359, 454.424
503.841, 465.664
504.323, 482.918
504.806, 497.665
505.288, 507.772
505.770, 513.585
506.252, 509.680
506.734, 491.954
507.216, 472.039
507.698, 463.294
508.181, 466.457
508.663, 468.358
509.145, 464.752
509.627, 460.593
510.109, 467.258
510.591, 484.133
511.073, 503.756
511.555, 508.699
512.037, 517.171
512.519, 491.027
513.002, 507.043
513.484, 512.823
513.966, 508.922
514.448, 466.330
514.930, 473.697
515.412, 461.044
515.894, 447.570
516.376, 461.969
516.859, 425.004
517.341, 438.963
517.823, 432.591
518.305, 435.525
518.787, 414.152
519.269, 417.581
519.751, 422.301
520.233, 429.234
520.716, 432.509
521.198, 423.983
521.680, 394.559
522.162, 377.450
522.644, 381.825
523.126, 400.203
523.608, 407.516
524.090, 402.359
524.572, 395.318
525.055, 390.465
525.537, 388.289
526.019, 393.315
526.501, 406.641
526.983, 418.609
527.465, 418.936
527.947, 410.434
528.429, 398.919
528.911, 384.189
529.394, 369.910
529.876, 357.556
530.358, 347.904
530.840, 342.979
531.322, 343.327
531.804, 349.063
532.286, 364.513
532.768, 393.765
533.250, 409.822
533.733, 390.684
534.215, 364.608
534.697, 357.773
535.179, 392.755
535.661, 412.922
536.143, 406.744
536.625, 384.053
537.107, 377.674
537.589, 394.025
538.072, 407.440
538.554, 404.268
539.036, 385.689
539.518, 376.252
540.000, 376.992
540.482, 380.816
540.964, 383.137
541.446, 382.970
541.929, 374.659
542.411, 351.591
542.893, 331.134
543.375, 340.131
543.857, 368.643
544.339, 389.732
544.821, 382.748
545.303, 368.750
545.786, 348.662
546.268, 322.637
546.750, 309.726
547.232, 341.137
547.714, 361.789
548.196, 372.260
548.678, 342.057
549.160, 364.375
549.643, 365.647
550.125, 377.338
550.607, 374.522
551.089, 376.356
551.571, 379.124
552.053, 381.221
552.535, 383.147
553.017, 392.967
553.499, 413.653
553.982, 425.575
554.464, 403.304
554.946, 357.285
555.428, 336.204
555.910, 349.261
556.392, 370.991
556.874, 369.211
557.356, 354.957
557.838, 351.716
558.321, 388.062
558.803, 423.008
559.285, 425.020
559.767, 399.620
560.249, 373.145
560.731, 344.779
561.213, 326.604
561.695, 327.968
562.177, 358.798
562.660, 380.930
563.142, 391.036
563.624, 392.143
564.106, 384.953
564.588, 362.258
565.070, 349.643
565.552, 353.254
566.034, 367.403
566.516, 377.333
566.999, 382.918
567.481, 385.465
567.963, 385.385
568.445, 382.800
568.927, 376.436
569.409, 366.203
569.891, 358.233
570.373, 358.559
570.856, 364.521
571.338, 373.576
571.820, 389.426
572.302, 398.331
572.784, 384.634
573.266, 359.258
573.748, 341.055
574.230, 336.681
574.713, 340.111
575.195, 354.165
575.677, 378.086
576.159, 392.710
576.641, 395.408
577.123, 391.304
577.605, 380.518
578.087, 358.277
578.570, 349.965
579.052, 361.259
579.534, 376.139
580.016, 371.769
580.498, 348.995
580.980, 328.529
581.462, 315.334
581.944, 307.492
582.426, 300.542
582.909, 295.412
583.391, 296.845
583.873, 316.597
584.355, 338.670
584.837, 343.221
585.319, 329.152
585.801, 321.278
586.283, 337.609
586.765, 361.856
587.248, 381.712
587.730, 401.735
588.212, 406.092
588.694, 374.368
589.176, 332.002
589.658, 319.016
590.140, 355.307
590.622, 381.385
591.104, 380.877
591.587, 358.924
592.069, 343.897
592.551, 336.262
593.033, 331.776
593.515, 326.149
593.997, 321.254
594.479, 319.661
594.961, 319.927
595.443, 302.129
595.926, 324.231
596.408, 336.647
596.890, 339.899
597.372, 306.535
597.854, 320.452
598.336, 315.421
598.818, 309.613
599.300, 330.185
599.783, 302.147
600.265, 322.300
600.747, 323.216
601.229, 332.937
601.711, 323.592
602.193, 320.136
602.675, 335.752
603.157, 340.807
603.640, 329.268
604.122, 339.548
604.604, 310.844
605.086, 316.349
605.568, 336.614
606.050, 326.034
606.532, 336.663
607.014, 339.214
607.497, 305.055
607.979, 334.738
608.461, 336.812
608.943, 310.537
609.425, 338.033
609.907, 319.322
610.389, 321.443
610.871, 349.658
611.353, 366.346
611.836, 349.011
612.318, 325.864
612.800, 314.518
613.282, 322.834
613.764, 325.166
614.246, 320.906
614.728, 311.225
615.210, 298.665
615.692, 273.733
616.175, 308.845
616.657, 329.381
617.139, 336.126
617.621, 287.771
618.103, 310.566
618.585, 304.847
619.067, 297.959
619.549, 315.068
620.031, 329.592
620.514, 329.340
620.996, 324.482
621.478, 315.645
621.960, 307.906
622.442, 305.726
622.924, 312.111
623.406, 318.003
623.888, 324.371
624.370, 328.147
624.853, 324.778
625.335, 304.785
625.817, 297.965
626.299, 312.903
626.781, 340.080
627.263, 355.167
627.745, 357.331
628.227, 358.181
628.710, 365.436
629.192, 337.019
629.674, 365.094
630.156, 379.457
630.638, 380.842
631.120, 330.387
631.602, 346.874
632.084, 336.534
632.567, 325.093
633.049, 351.003
633.531, 308.087
634.013, 333.404
634.495, 331.483
634.977, 342.029
635.459, 325.581
635.941, 317.471
636.424, 336.361
636.906, 340.302
637.388, 320.747
637.870, 332.085
638.352, 288.227
638.834, 292.804
639.316, 318.278
639.798, 300.081
640.280, 287.555
640.763, 288.049
641.245, 304.528
641.727, 318.196
642.209, 327.799
642.691, 334.203
643.173, 336.264
643.655, 336.390
644.137, 337.089
644.619, 340.397
645.102, 341.592
645.584, 334.738
646.066, 326.839
646.548, 329.234
647.030, 354.258
647.512, 365.909
647.994, 352.725
648.476, 323.906
648.958, 310.054
649.441, 312.637
649.923, 317.427
650.405, 317.913
650.887, 315.219
651.369, 310.018
651.851, 302.697
652.333, 300.513
652.815, 318.623
653.297, 339.671
653.780, 340.919
654.262, 314.036
654.744, 293.364
655.226, 294.509
655.708, 307.826
656.190, 323.902
656.672, 352.118
657.154, 368.261
657.636, 364.998
658.119, 352.643
658.601, 352.531
659.083, 368.376
659.565, 377.229
660.047, 370.911
660.529, 353.789
661.011, 332.372
661.494, 308.002
661.976, 295.471
662.458, 317.011
662.940, 347.889
663.422, 354.317
663.904, 335.475
664.386, 321.444
664.868, 336.641
665.350, 356.926
665.833, 364.762
666.315, 353.791
666.797, 338.785
667.279, 310.347
667.761, 286.015
668.243, 286.821
668.725, 321.319
669.207, 349.555
669.690, 364.954
670.172, 373.201
670.654, 386.576
671.136, 403.842
