##NAMES=Arseniopleite
##RRUFFID=R070166
##IDEAL CHEMISTRY=NaCaMn^2+^Mn^2+^_2_(As^5+^O_4_)_3_
##LOCALITY=Varenche Mine, Saint-Barthélemy, Nus, Aosta Valley, Italy
##OWNER=RRUFF
##SOURCE=Michael Scott
##DESCRIPTION=Reddish brown granular
##STATUS=The identification of this mineral is confirmed by single-crystal X-ray diffraction and chemical analysis.
##URL=rruff.info/R070166
##MEASURED CHEMISTRY=(Ca_0.70_Na_0.30_)_Σ=1_(Na_0.94_Pb^2+^_0.06_)_Σ=1_Mn^2+^_1.00_(Mn^2+^_1.30_Mg_0.40_Fe^3+^_0.24_Fe^2+^_0.06_)_Σ=2_((As_0.99_P_0.01_)_Σ=1_O_4_)_3_; Fe^2+^ and Fe^3+^ splitted by charge balance
130.8969, 920.3270
131.3791, 953.6354
131.8612, 982.2913
132.3433, 1013.253
132.8254, 1052.856
133.3075, 1099.704
133.7896, 1137.266
134.2718, 1162.810
134.7539, 1182.013
135.2360, 1205.638
135.7181, 1233.818
136.2002, 1263.115
136.6823, 1290.956
137.1645, 1316.975
137.6466, 1345.710
138.1287, 1379.825
138.6108, 1417.236
139.0929, 1447.022
139.5750, 1468.915
140.0572, 1483.649
140.5393, 1489.469
141.0214, 1480.206
141.5035, 1478.424
141.9856, 1490.490
142.4677, 1517.454
142.9499, 1541.593
143.4320, 1562.565
143.9141, 1580.554
144.3962, 1593.983
144.8783, 1593.802
145.3604, 1602.164
145.8425, 1628.201
146.3247, 1684.043
146.8068, 1727.759
147.2889, 1754.908
147.7710, 1769.715
148.2531, 1783.103
148.7352, 1787.282
149.2174, 1796.415
149.6995, 1816.218
150.1816, 1859.880
150.6637, 1898.821
151.1458, 1933.855
151.6279, 1963.976
152.1101, 1985.822
152.5922, 1995.761
153.0743, 1999.052
153.5564, 1999.077
154.0385, 1992.378
154.5206, 1986.260
155.0028, 1983.177
155.4849, 1983.497
155.9670, 1981.338
156.4491, 1973.747
156.9312, 1963.701
157.4133, 1954.383
157.8955, 1946.805
158.3776, 1939.913
158.8597, 1932.473
159.3418, 1923.302
159.8239, 1917.826
160.3060, 1921.718
160.7882, 1930.206
161.2703, 1934.853
161.7524, 1926.318
162.2345, 1916.927
162.7166, 1915.177
163.1987, 1927.436
163.6808, 1938.601
164.1630, 1939.946
164.6451, 1933.960
165.1272, 1928.786
165.6093, 1928.730
166.0914, 1931.247
166.5735, 1933.815
167.0557, 1932.428
167.5378, 1934.111
168.0199, 1948.007
168.5020, 1972.411
168.9841, 1991.709
169.4662, 1990.685
169.9484, 1979.305
170.4305, 1971.527
170.9126, 1975.588
171.3947, 1984.091
171.8768, 1990.408
172.3589, 1994.406
172.8411, 1997.271
173.3232, 1996.998
173.8053, 1996.135
174.2874, 2000.362
174.7695, 2020.221
175.2516, 2044.138
175.7338, 2054.378
176.2159, 2046.831
176.6980, 2035.615
177.1801, 2035.591
177.6622, 2044.792
178.1443, 2055.195
178.6264, 2062.991
179.1086, 2068.654
179.5907, 2072.846
180.0728, 2075.260
180.5549, 2076.997
181.0370, 2079.526
181.5191, 2082.785
182.0013, 2086.394
182.4834, 2087.098
182.9655, 2087.328
183.4476, 2096.056
183.9297, 2119.292
184.4118, 2149.003
184.8940, 2167.995
185.3761, 2176.137
185.8582, 2181.549
186.3403, 2190.872
186.8224, 2203.833
187.3046, 2219.124
187.7867, 2239.541
188.2688, 2261.782
188.7509, 2272.196
189.2330, 2268.807
189.7151, 2264.226
190.1973, 2275.399
190.6794, 2301.664
191.1615, 2326.046
191.6436, 2342.305
192.1257, 2350.989
192.6078, 2355.603
193.0900, 2354.441
193.5721, 2353.757
194.0542, 2364.905
194.5363, 2388.492
195.0184, 2412.576
195.5005, 2430.744
195.9826, 2443.064
196.4648, 2457.225
196.9469, 2474.817
197.4290, 2492.339
197.9111, 2501.631
198.3932, 2501.336
198.8753, 2499.856
199.3575, 2502.199
199.8396, 2508.675
200.3217, 2514.769
200.8038, 2519.583
201.2859, 2523.975
201.7680, 2531.156
202.2502, 2542.247
202.7323, 2552.682
203.2144, 2559.465
203.6965, 2562.478
204.1786, 2562.215
204.6607, 2557.594
205.1429, 2549.661
205.6250, 2544.923
206.1071, 2544.693
206.5892, 2544.792
207.0713, 2540.438
207.5534, 2529.618
208.0356, 2522.880
208.5177, 2524.771
208.9998, 2534.474
209.4819, 2534.832
209.9640, 2522.782
210.4461, 2506.066
210.9282, 2492.796
211.4104, 2482.855
211.8925, 2476.518
212.3746, 2474.683
212.8567, 2477.717
213.3388, 2481.000
213.8209, 2487.800
214.3031, 2491.241
214.7852, 2478.582
215.2673, 2440.137
215.7494, 2408.954
216.2315, 2397.902
216.7136, 2412.261
217.1958, 2420.898
217.6779, 2424.784
218.1600, 2422.326
218.6421, 2408.270
219.1242, 2373.718
219.6063, 2344.556
220.0885, 2333.094
220.5706, 2349.530
221.0527, 2351.536
221.5348, 2331.131
222.0169, 2299.745
222.4990, 2284.108
222.9812, 2289.792
223.4633, 2302.285
223.9454, 2316.638
224.4275, 2338.042
224.9096, 2348.819
225.3917, 2345.573
225.8739, 2331.952
226.3560, 2319.735
226.8381, 2307.743
227.3202, 2298.689
227.8023, 2295.194
228.2844, 2303.429
228.7665, 2303.582
229.2487, 2291.973
229.7308, 2271.033
230.2129, 2251.519
230.6950, 2230.360
231.1771, 2214.763
231.6592, 2210.624
232.1414, 2226.734
232.6235, 2236.772
233.1056, 2236.811
233.5877, 2227.932
234.0698, 2218.648
234.5519, 2205.179
235.0341, 2195.629
235.5162, 2197.209
235.9983, 2218.834
236.4804, 2234.808
236.9625, 2240.369
237.4446, 2235.886
237.9268, 2232.212
238.4089, 2230.107
238.8910, 2227.994
239.3731, 2224.200
239.8552, 2216.811
240.3373, 2211.212
240.8195, 2208.028
241.3016, 2207.272
241.7837, 2209.953
242.2658, 2219.073
242.7479, 2228.782
243.2300, 2232.865
243.7122, 2227.606
244.1943, 2223.456
244.6764, 2222.696
245.1585, 2225.583
245.6406, 2228.898
246.1227, 2234.300
246.6048, 2238.667
247.0870, 2238.909
247.5691, 2236.280
248.0512, 2226.988
248.5333, 2207.258
249.0154, 2174.630
249.4975, 2151.443
249.9797, 2139.543
250.4618, 2135.278
250.9439, 2134.822
251.4260, 2140.968
251.9081, 2145.734
252.3902, 2146.214
252.8724, 2141.111
253.3545, 2140.228
253.8366, 2147.552
254.3187, 2155.801
254.8008, 2153.769
255.2829, 2136.656
255.7651, 2118.417
256.2472, 2102.752
256.7293, 2089.832
257.2114, 2077.818
257.6935, 2064.395
258.1756, 2053.738
258.6577, 2054.676
259.1399, 2074.754
259.6220, 2090.415
260.1041, 2091.996
260.5862, 2075.052
261.0683, 2066.056
261.5504, 2069.042
262.0326, 2076.503
262.5147, 2074.598
262.9968, 2058.196
263.4789, 2044.580
263.9610, 2041.250
264.4431, 2050.951
264.9253, 2057.873
265.4074, 2062.159
265.8895, 2063.542
266.3716, 2060.090
266.8537, 2048.804
267.3358, 2040.888
267.8180, 2044.136
268.3001, 2063.188
268.7822, 2064.609
269.2643, 2038.881
269.7464, 2005.042
270.2285, 2001.810
270.7107, 2040.410
271.1928, 2073.510
271.6749, 2077.440
272.1570, 2046.346
272.6391, 2024.089
273.1212, 2011.260
273.6034, 2006.631
274.0855, 2009.863
274.5676, 2022.878
275.0497, 2035.482
275.5318, 2042.275
276.0139, 2042.589
276.4961, 2045.624
276.9782, 2052.491
277.4603, 2060.788
277.9424, 2065.280
278.4245, 2065.300
278.9066, 2066.089
279.3888, 2070.266
279.8709, 2077.922
280.3530, 2085.896
280.8351, 2093.671
281.3172, 2102.526
281.7993, 2115.730
282.2815, 2133.782
282.7636, 2150.636
283.2457, 2164.256
283.7278, 2174.534
284.2099, 2178.233
284.6920, 2173.230
285.1741, 2165.975
285.6563, 2167.900
286.1384, 2179.099
286.6205, 2191.444
287.1026, 2197.558
287.5847, 2199.818
288.0668, 2215.968
288.5490, 2249.939
289.0311, 2289.028
289.5132, 2315.256
289.9953, 2328.666
290.4774, 2335.932
290.9595, 2336.504
291.4417, 2332.856
291.9238, 2334.385
292.4059, 2341.792
292.8880, 2353.508
293.3701, 2369.102
293.8522, 2387.960
294.3344, 2406.353
294.8165, 2420.901
295.2986, 2433.826
295.7807, 2451.394
296.2628, 2474.804
296.7449, 2499.058
297.2271, 2517.170
297.7092, 2530.466
298.1913, 2544.286
298.6734, 2561.566
299.1555, 2580.943
299.6376, 2600.039
300.1198, 2618.968
300.6019, 2636.834
301.0840, 2649.196
301.5661, 2659.107
302.0482, 2674.733
302.5303, 2705.968
303.0125, 2742.610
303.4946, 2771.749
303.9767, 2792.017
304.4588, 2809.560
304.9409, 2828.423
305.4230, 2848.092
305.9052, 2868.266
306.3873, 2893.569
306.8694, 2916.406
307.3515, 2925.789
307.8336, 2920.439
308.3157, 2917.372
308.7979, 2931.234
309.2800, 2954.917
309.7621, 2977.548
310.2442, 2995.065
310.7263, 3009.625
311.2084, 3023.228
311.6906, 3035.907
312.1727, 3045.549
312.6548, 3051.841
313.1369, 3054.198
313.6190, 3051.760
314.1011, 3039.844
314.5833, 3026.787
315.0654, 3016.829
315.5475, 3009.943
316.0296, 3003.509
316.5117, 2997.635
316.9938, 2991.146
317.4760, 2982.878
317.9580, 2964.089
318.4402, 2951.563
318.9223, 2958.134
319.4044, 2982.140
319.8865, 2993.406
320.3686, 2974.309
320.8507, 2943.705
321.3329, 2916.027
321.8150, 2894.944
322.2971, 2876.646
322.7792, 2861.255
323.2613, 2848.496
323.7434, 2835.943
324.2256, 2823.995
324.7077, 2811.681
325.1898, 2798.239
325.6719, 2779.949
326.1540, 2764.917
326.6361, 2754.943
327.1183, 2749.322
327.6004, 2743.666
328.0825, 2744.534
328.5646, 2740.109
329.0467, 2724.137
329.5288, 2679.177
330.0110, 2648.371
330.4931, 2640.875
330.9752, 2648.537
331.4573, 2642.098
331.9394, 2609.241
332.4215, 2577.689
332.9037, 2560.936
333.3858, 2568.496
333.8679, 2569.331
334.3500, 2559.470
334.8321, 2544.494
335.3142, 2538.656
335.7964, 2547.906
336.2785, 2553.819
336.7606, 2545.203
337.2427, 2515.198
337.7248, 2503.911
338.2069, 2518.158
338.6891, 2543.010
339.1712, 2552.896
339.6533, 2545.260
340.1354, 2534.120
340.6175, 2521.184
341.0996, 2506.411
341.5818, 2508.972
342.0639, 2532.403
342.5460, 2563.884
343.0281, 2587.815
343.5102, 2603.961
343.9923, 2617.869
344.4745, 2631.917
344.9566, 2645.396
345.4387, 2649.582
345.9208, 2641.998
346.4029, 2642.441
346.8850, 2681.239
347.3672, 2750.763
347.8493, 2809.697
348.3314, 2839.896
348.8135, 2854.041
349.2956, 2875.061
349.7777, 2902.750
350.2599, 2935.375
350.7419, 2969.292
351.2241, 3007.342
351.7062, 3057.648
352.1883, 3131.149
352.6704, 3207.741
353.1525, 3259.226
353.6346, 3288.857
354.1168, 3318.676
354.5989, 3363.134
355.0810, 3416.121
355.5631, 3469.529
356.0452, 3520.946
356.5273, 3573.493
357.0095, 3633.380
357.4916, 3697.277
357.9737, 3754.117
358.4558, 3794.074
358.9379, 3828.157
359.4200, 3863.924
359.9022, 3902.151
360.3843, 3943.396
360.8664, 3990.239
361.3485, 4040.282
361.8306, 4088.357
362.3127, 4135.264
362.7949, 4178.322
363.2770, 4217.355
363.7591, 4253.619
364.2412, 4280.587
364.7233, 4294.820
365.2054, 4299.623
365.6876, 4299.015
366.1697, 4287.967
366.6518, 4277.137
367.1339, 4270.026
367.6160, 4267.536
368.0981, 4262.286
368.5803, 4252.020
369.0624, 4240.142
369.5445, 4229.860
370.0266, 4225.824
370.5087, 4216.604
370.9908, 4198.937
371.4730, 4173.714
371.9551, 4148.740
372.4372, 4116.362
372.9193, 4094.059
373.4014, 4101.034
373.8835, 4158.015
374.3657, 4178.625
374.8478, 4140.036
375.3299, 4064.978
375.8120, 4031.353
376.2941, 4049.298
376.7762, 4074.364
377.2584, 4079.388
377.7405, 4062.854
378.2226, 4052.703
378.7047, 4051.306
379.1868, 4054.961
379.6689, 4052.815
380.1511, 4044.769
380.6332, 4050.736
381.1153, 4089.009
381.5974, 4151.732
382.0795, 4200.623
382.5616, 4234.443
383.0438, 4262.888
383.5259, 4297.744
384.0080, 4337.087
384.4901, 4374.146
384.9722, 4405.967
385.4543, 4434.240
385.9364, 4461.432
386.4185, 4487.523
386.9007, 4515.542
387.3828, 4548.945
387.8649, 4585.842
388.3470, 4623.963
388.8291, 4666.187
389.3112, 4705.445
389.7934, 4732.091
390.2755, 4749.024
390.7576, 4768.046
391.2397, 4803.397
391.7218, 4839.112
392.2039, 4861.968
392.6861, 4865.548
393.1682, 4863.438
393.6503, 4853.318
394.1324, 4841.439
394.6145, 4841.034
395.0966, 4868.810
395.5788, 4898.196
396.0609, 4918.074
396.5430, 4925.905
397.0251, 4929.276
397.5072, 4928.302
397.9893, 4923.641
398.4715, 4915.993
398.9536, 4896.936
399.4357, 4884.375
399.9178, 4881.099
400.3999, 4887.167
400.8820, 4902.274
401.3642, 4932.750
401.8463, 4965.933
402.3284, 4991.854
402.8105, 5008.010
403.2926, 5023.166
403.7747, 5038.732
404.2569, 5054.097
404.7390, 5066.779
405.2211, 5076.876
405.7032, 5084.106
406.1853, 5087.605
406.6674, 5087.176
407.1496, 5087.871
407.6317, 5090.618
408.1138, 5093.572
408.5959, 5091.492
409.0780, 5084.605
409.5602, 5082.104
410.0423, 5096.686
410.5244, 5119.525
411.0065, 5119.726
411.4886, 5094.600
411.9707, 5063.412
412.4529, 5045.273
412.9350, 5036.557
413.4171, 5027.945
413.8992, 5014.543
414.3813, 5000.482
414.8634, 4994.795
415.3456, 4995.609
415.8277, 4986.765
416.3098, 4949.084
416.7919, 4899.771
417.2740, 4857.208
417.7561, 4831.976
418.2382, 4806.000
418.7203, 4770.498
419.2025, 4727.143
419.6846, 4681.335
420.1667, 4627.359
420.6488, 4576.970
421.1309, 4537.315
421.6130, 4515.144
422.0952, 4487.913
422.5773, 4454.350
423.0594, 4412.965
423.5415, 4361.278
424.0236, 4282.853
424.5057, 4211.500
424.9879, 4155.049
425.4700, 4114.578
425.9521, 4077.781
426.4342, 4052.865
426.9163, 4023.550
427.3984, 3975.665
427.8806, 3898.981
428.3627, 3828.658
428.8448, 3769.265
429.3269, 3718.511
429.8090, 3668.986
430.2911, 3620.607
430.7733, 3573.768
431.2554, 3529.199
431.7375, 3487.034
432.2196, 3443.273
432.7017, 3396.649
433.1838, 3351.924
433.6660, 3319.237
434.1481, 3296.827
434.6302, 3272.281
435.1123, 3235.320
435.5944, 3194.245
436.0765, 3169.103
436.5587, 3159.823
437.0408, 3151.108
437.5229, 3126.691
438.0050, 3094.991
438.4871, 3069.774
438.9692, 3055.894
439.4514, 3048.336
439.9335, 3046.054
440.4156, 3047.451
440.8977, 3047.266
441.3798, 3038.903
441.8619, 3030.694
442.3441, 3028.573
442.8262, 3034.673
443.3083, 3042.868
443.7904, 3048.766
444.2725, 3056.165
444.7546, 3070.312
445.2368, 3098.464
445.7189, 3127.179
446.2010, 3154.097
446.6831, 3179.510
447.1652, 3198.995
447.6473, 3201.746
448.1295, 3207.573
448.6116, 3231.565
449.0937, 3285.584
449.5758, 3333.590
450.0579, 3371.637
450.5400, 3402.027
451.0221, 3430.087
451.5042, 3454.244
451.9864, 3480.279
452.4685, 3511.884
452.9506, 3549.064
453.4327, 3585.375
453.9148, 3620.585
454.3969, 3655.167
454.8791, 3689.751
455.3612, 3724.159
455.8433, 3755.727
456.3254, 3780.166
456.8075, 3803.131
457.2896, 3838.531
457.7718, 3885.418
458.2539, 3926.368
458.7360, 3940.351
459.2181, 3943.099
459.7002, 3959.273
460.1823, 4000.342
460.6645, 4041.642
461.1466, 4065.582
461.6287, 4076.328
462.1108, 4082.879
462.5929, 4092.022
463.0750, 4095.679
463.5572, 4085.718
464.0393, 4058.908
464.5214, 4039.899
465.0035, 4048.029
465.4856, 4060.659
465.9677, 4057.374
466.4499, 4012.843
466.9320, 3979.518
467.4141, 3970.923
467.8962, 3980.145
468.3783, 3971.318
468.8604, 3936.210
469.3426, 3894.601
469.8247, 3854.502
470.3068, 3816.620
470.7889, 3778.768
471.2710, 3741.704
471.7531, 3703.573
472.2353, 3660.072
472.7174, 3610.321
473.1995, 3563.967
473.6816, 3524.720
474.1637, 3490.544
474.6458, 3452.849
475.1280, 3411.306
475.6101, 3378.249
476.0922, 3373.769
476.5743, 3385.207
477.0564, 3381.729
477.5385, 3355.579
478.0207, 3317.984
478.5028, 3270.488
478.9849, 3219.472
479.4670, 3180.828
479.9491, 3171.115
480.4312, 3170.462
480.9134, 3166.318
481.3955, 3157.776
481.8776, 3145.231
482.3597, 3126.275
482.8418, 3104.778
483.3239, 3084.209
483.8060, 3062.723
484.2881, 3044.951
484.7703, 3036.207
485.2524, 3033.009
485.7345, 3021.787
486.2166, 2996.325
486.6987, 2969.889
487.1808, 2947.629
487.6630, 2931.095
488.1451, 2911.953
488.6272, 2888.231
489.1093, 2864.734
489.5914, 2849.119
490.0735, 2843.357
490.5557, 2831.837
491.0378, 2808.535
491.5199, 2777.977
492.0020, 2755.641
492.4841, 2741.821
492.9662, 2728.430
493.4484, 2709.512
493.9305, 2686.589
494.4126, 2663.326
494.8947, 2639.407
495.3768, 2617.537
495.8589, 2602.198
496.3411, 2590.618
496.8232, 2576.916
497.3053, 2557.753
497.7874, 2536.216
498.2695, 2510.744
498.7516, 2482.716
499.2338, 2463.667
499.7159, 2465.844
500.1980, 2474.238
500.6801, 2478.534
501.1622, 2474.968
501.6443, 2470.928
502.1265, 2465.205
502.6086, 2459.987
503.0907, 2459.745
503.5728, 2473.067
504.0549, 2479.130
504.5370, 2469.670
505.0192, 2444.549
505.5013, 2428.851
505.9834, 2424.032
506.4655, 2425.559
506.9476, 2432.323
507.4297, 2444.962
507.9119, 2451.479
508.3940, 2449.695
508.8761, 2442.392
509.3582, 2434.560
509.8403, 2425.855
510.3224, 2413.641
510.8046, 2388.206
511.2867, 2361.470
511.7688, 2358.652
512.2509, 2380.026
512.7330, 2397.570
513.2151, 2384.781
513.6973, 2358.305
514.1794, 2338.478
514.6615, 2335.624
515.1436, 2332.437
515.6257, 2319.974
516.1078, 2300.890
516.5900, 2281.999
517.0721, 2267.556
517.5542, 2251.043
518.0363, 2228.200
518.5184, 2196.560
519.0005, 2172.088
519.4827, 2157.900
519.9648, 2148.275
520.4469, 2140.504
520.9290, 2139.001
521.4111, 2125.540
521.8932, 2092.179
522.3754, 2050.271
522.8575, 2031.556
523.3396, 2038.867
523.8217, 2044.960
524.3038, 2034.401
524.7859, 2011.601
525.2681, 1995.502
525.7502, 1986.282
526.2323, 1980.739
526.7144, 1978.211
527.1965, 1976.852
527.6786, 1972.526
528.1608, 1962.836
528.6429, 1952.452
529.1250, 1942.026
529.6071, 1933.845
530.0892, 1933.675
530.5714, 1955.788
531.0535, 1976.910
531.5356, 1982.276
532.0176, 1969.482
532.4998, 1958.724
532.9819, 1950.344
533.4640, 1947.842
533.9461, 1954.226
534.4282, 1978.578
534.9103, 1997.622
535.3925, 2010.832
535.8746, 2018.131
536.3567, 2018.069
536.8388, 2007.765
537.3209, 1998.910
537.8030, 1994.357
538.2852, 1994.500
538.7673, 2005.737
539.2494, 2029.509
539.7315, 2054.356
540.2136, 2070.297
540.6957, 2078.895
541.1779, 2084.475
541.6600, 2086.577
542.1421, 2089.213
542.6242, 2097.149
543.1063, 2109.089
543.5884, 2121.944
544.0706, 2136.791
544.5527, 2150.052
545.0348, 2158.249
545.5169, 2161.605
545.9990, 2165.875
546.4811, 2174.860
546.9633, 2184.249
547.4454, 2190.813
547.9275, 2187.855
548.4096, 2192.571
548.8917, 2210.755
549.3738, 2234.294
549.8560, 2251.321
550.3381, 2261.314
550.8202, 2265.546
551.3023, 2261.985
551.7844, 2252.702
552.2665, 2250.602
552.7487, 2256.714
553.2308, 2263.469
553.7129, 2266.574
554.1950, 2266.025
554.6771, 2261.091
555.1592, 2251.135
555.6414, 2239.601
556.1235, 2232.336
556.6056, 2226.070
557.0877, 2214.156
557.5698, 2188.724
558.0519, 2162.086
558.5341, 2140.998
559.0162, 2125.409
559.4983, 2115.859
559.9804, 2126.202
560.4625, 2131.232
560.9446, 2114.534
561.4268, 2065.990
561.9089, 2028.698
562.3910, 2013.203
562.8731, 2004.342
563.3552, 1989.290
563.8373, 1966.690
564.3195, 1940.980
564.8016, 1911.731
565.2837, 1880.460
565.7658, 1851.377
566.2479, 1824.243
566.7300, 1800.148
567.2122, 1781.256
567.6943, 1765.954
568.1764, 1747.318
568.6585, 1725.135
569.1406, 1705.909
569.6227, 1699.367
570.1049, 1697.870
570.5870, 1688.740
571.0691, 1667.264
571.5512, 1643.757
572.0333, 1622.389
572.5154, 1604.000
572.9976, 1590.429
573.4797, 1588.951
573.9618, 1585.470
574.4439, 1574.297
574.9260, 1555.623
575.4081, 1537.833
575.8903, 1518.264
576.3724, 1502.525
576.8545, 1494.571
577.3366, 1497.846
577.8187, 1494.450
578.3008, 1481.826
578.7830, 1467.254
579.2651, 1459.293
579.7472, 1457.860
580.2293, 1460.778
580.7114, 1470.862
581.1935, 1480.423
581.6757, 1470.347
582.1578, 1445.161
582.6399, 1426.159
583.1220, 1433.375
583.6041, 1448.021
584.0862, 1450.956
584.5684, 1441.137
585.0505, 1429.531
585.5326, 1419.689
586.0147, 1411.495
586.4968, 1404.991
586.9789, 1402.275
587.4611, 1398.078
587.9432, 1388.973
588.4253, 1378.940
588.9074, 1374.106
589.3895, 1375.821
589.8716, 1380.543
590.3538, 1389.990
590.8359, 1401.838
591.3180, 1402.882
591.8001, 1391.874
592.2822, 1378.125
592.7643, 1363.992
593.2465, 1351.479
593.7286, 1351.740
594.2107, 1366.945
594.6928, 1381.493
595.1749, 1377.128
595.6570, 1363.165
596.1392, 1355.111
596.6213, 1361.047
597.1034, 1368.479
597.5854, 1369.772
598.0676, 1367.233
598.5497, 1366.033
599.0318, 1372.287
599.5139, 1375.558
599.9960, 1369.516
600.4781, 1353.867
600.9603, 1346.371
601.4424, 1350.321
601.9245, 1357.898
602.4066, 1365.188
602.8887, 1372.553
603.3708, 1377.289
603.8530, 1379.233
604.3351, 1378.686
604.8172, 1374.769
605.2993, 1368.119
605.7814, 1363.036
606.2635, 1361.459
606.7457, 1360.926
607.2278, 1357.582
607.7099, 1352.414
608.1920, 1348.688
608.6741, 1347.362
609.1563, 1348.603
609.6384, 1353.590
610.1205, 1362.369
610.6026, 1370.057
611.0847, 1377.501
611.5668, 1381.927
612.0490, 1381.145
612.5311, 1371.696
613.0132, 1364.237
613.4953, 1359.260
613.9774, 1355.739
614.4595, 1351.659
614.9417, 1346.273
615.4238, 1345.016
615.9059, 1350.322
616.3880, 1359.177
616.8701, 1365.342
617.3522, 1368.867
617.8344, 1370.492
618.3165, 1368.395
618.7986, 1365.784
619.2807, 1367.638
619.7628, 1373.950
620.2449, 1380.359
620.7271, 1384.963
621.2092, 1388.138
621.6913, 1389.968
622.1734, 1389.533
622.6555, 1389.838
