##NAMES=Arseniosiderite
##RRUFFID=R150062
##IDEAL CHEMISTRY=Ca_2_Fe^3+^_3_O_2_(As^5+^O_4_)_3_&#183;3H_2_O
##LOCALITY=Benjamin Hill, Sonora, Mexico
##OWNER=RRUFF
##SOURCE=Michael Scott
##DESCRIPTION=Dark red platy crystals, associated with yellow tan colored granular aggregates of beudantite,  euhedral red sewardite and quartz
##STATUS=The identification of this mineral has been confirmed only by single crystal X-ray diffraction.
##URL=rruff.info/R150062
89.78320, 73.24129
90.26532, 72.44939
90.74744, 72.32446
91.22955, 72.93015
91.71167, 74.21994
92.19379, 76.70274
92.67590, 80.16185
93.15802, 82.78783
93.64014, 82.72832
94.12225, 80.74767
94.60437, 78.90015
95.08649, 77.65108
95.56860, 76.85737
96.05072, 76.36833
96.53284, 76.28495
97.01495, 76.18958
97.49707, 75.42009
97.97919, 73.99556
98.46130, 73.07322
98.94342, 72.98958
99.42554, 73.69473
99.90765, 74.85971
100.3898, 76.59222
100.8719, 78.55016
101.3540, 80.24699
101.8361, 81.65366
102.3182, 82.98611
102.8004, 84.26266
103.2825, 85.34343
103.7646, 86.88416
104.2467, 88.89684
104.7288, 91.31995
105.2109, 94.04853
105.6931, 97.27331
106.1752, 100.5521
106.6573, 103.7087
107.1394, 106.4031
107.6215, 109.5327
108.1036, 113.5583
108.5858, 118.1953
109.0679, 121.8311
109.5500, 123.5940
110.0321, 125.0466
110.5142, 127.0063
110.9963, 129.3387
111.4785, 132.3007
111.9606, 136.2187
112.4427, 141.0447
112.9248, 145.4985
113.4069, 149.2218
113.8890, 152.6026
114.3712, 155.9973
114.8533, 159.2216
115.3354, 162.6768
115.8175, 166.6897
116.2996, 171.4041
116.7817, 175.6891
117.2639, 178.6879
117.7460, 181.1918
118.2281, 184.2035
118.7102, 188.5271
119.1923, 193.1680
119.6744, 197.4607
120.1566, 201.2597
120.6387, 205.0960
121.1208, 209.4962
121.6029, 214.1555
122.0850, 218.4175
122.5671, 222.0024
123.0493, 224.9975
123.5314, 227.5017
124.0135, 229.5520
124.4956, 231.0506
124.9777, 231.6197
125.4598, 231.4411
125.9420, 231.2005
126.4241, 231.1876
126.9062, 231.4281
127.3883, 232.0415
127.8704, 233.2465
128.3525, 234.5721
128.8347, 235.7439
129.3168, 236.7043
129.7989, 236.4560
130.2810, 233.6994
130.7631, 228.9183
131.2452, 223.9498
131.7274, 219.1447
132.2095, 214.5107
132.6916, 209.9742
133.1737, 205.4606
133.6558, 201.3803
134.1379, 197.9102
134.6201, 195.0551
135.1022, 193.0645
135.5843, 192.1333
136.0664, 192.1776
136.5485, 192.6098
137.0306, 193.4077
137.5128, 194.6671
137.9949, 196.5323
138.4770, 199.0311
138.9591, 202.0704
139.4412, 205.8750
139.9233, 210.5081
140.4055, 214.5233
140.8876, 217.7970
141.3697, 220.5817
141.8518, 223.3115
142.3339, 226.0131
142.8160, 228.5647
143.2982, 230.8705
143.7803, 232.7549
144.2624, 234.8864
144.7445, 237.2502
145.2266, 239.8745
145.7087, 242.6858
146.1909, 245.6053
146.6730, 248.8706
147.1551, 252.6578
147.6372, 257.3854
148.1193, 261.8777
148.6014, 266.1219
149.0836, 270.1292
149.5657, 274.1294
150.0478, 279.0607
150.5299, 283.1494
151.0120, 285.6321
151.4941, 286.1472
151.9763, 285.4725
152.4584, 283.4321
152.9405, 280.1322
153.4226, 276.1164
153.9047, 270.7152
154.3868, 265.0643
154.8690, 259.7817
155.3511, 254.7247
155.8332, 250.2652
156.3153, 246.5584
156.7974, 243.5719
157.2795, 241.0336
157.7617, 238.9382
158.2438, 237.2462
158.7259, 235.9299
159.2080, 235.5433
159.6901, 235.0027
160.1722, 233.7181
160.6544, 231.7478
161.1365, 230.2879
161.6186, 229.6464
162.1007, 229.7587
162.5828, 230.5519
163.0649, 232.3856
163.5471, 234.5792
164.0292, 236.9124
164.5113, 239.3742
164.9934, 241.8051
165.4755, 243.9398
165.9576, 246.0516
166.4398, 248.4472
166.9219, 251.2420
167.4040, 254.3918
167.8861, 257.9216
168.3682, 261.8634
168.8503, 265.8766
169.3325, 269.7082
169.8146, 273.4884
170.2967, 277.3677
170.7788, 281.6660
171.2609, 286.0119
171.7430, 290.2152
172.2252, 294.3546
172.7073, 297.7632
173.1894, 299.6889
173.6715, 300.4761
174.1536, 300.8519
174.6357, 300.7693
175.1179, 300.6529
175.6000, 301.1088
176.0821, 302.2578
176.5642, 303.5473
177.0463, 304.4394
177.5284, 305.0296
178.0106, 305.5971
178.4927, 306.3780
178.9748, 307.2190
179.4569, 307.7841
179.9390, 307.9847
180.4211, 308.1578
180.9033, 308.5899
181.3854, 309.3066
181.8675, 310.3961
182.3496, 312.2894
182.8317, 314.5759
183.3138, 316.3325
183.7960, 317.3765
184.2781, 318.0687
184.7602, 318.7653
185.2423, 319.4892
185.7244, 320.3811
186.2065, 321.3064
186.6887, 322.4262
187.1708, 324.4228
187.6529, 327.4652
188.1350, 331.1836
188.6171, 334.8673
189.0992, 338.5560
189.5814, 342.5733
190.0635, 347.2345
190.5456, 352.5183
191.0277, 357.7784
191.5098, 362.9102
191.9919, 368.0950
192.4741, 373.4926
192.9562, 379.0668
193.4383, 385.1133
193.9204, 391.7259
194.4025, 398.9086
194.8846, 406.6905
195.3668, 414.9881
195.8489, 423.9809
196.3310, 434.1509
196.8131, 445.5411
197.2952, 457.7188
197.7773, 470.9088
198.2595, 485.0957
198.7416, 498.8963
199.2237, 512.3695
199.7058, 525.0284
200.1879, 535.6965
200.6700, 544.7089
201.1522, 550.6669
201.6343, 553.2020
202.1164, 552.5263
202.5985, 546.1022
203.0806, 533.3033
203.5627, 514.8151
204.0449, 492.2225
204.5270, 464.7935
205.0091, 435.6490
205.4912, 406.1171
205.9733, 375.6757
206.4554, 347.9483
206.9376, 323.2132
207.4197, 301.6062
207.9018, 282.8814
208.3839, 267.2410
208.8660, 253.9259
209.3481, 242.7588
209.8303, 233.8857
210.3124, 226.2215
210.7945, 219.6531
211.2766, 214.2348
211.7587, 210.0353
212.2408, 207.2686
212.7230, 205.2641
213.2051, 203.5618
213.6872, 202.1031
214.1693, 201.1714
214.6514, 200.9317
215.1335, 201.2395
215.6157, 201.3779
216.0978, 201.1172
216.5799, 201.1017
217.0620, 201.8197
217.5441, 203.5363
218.0262, 205.2493
218.5084, 206.9907
218.9905, 208.6799
219.4726, 209.7846
219.9547, 210.0732
220.4368, 210.2077
220.9189, 210.4765
221.4011, 210.5750
221.8832, 211.6778
222.3653, 214.1817
222.8474, 217.7690
223.3295, 221.2811
223.8116, 225.0592
224.2938, 228.1161
224.7759, 229.6813
225.2580, 229.0085
225.7401, 228.6721
226.2222, 229.2201
226.7043, 230.2436
227.1865, 229.9601
227.6686, 227.8728
228.1507, 225.2259
228.6328, 222.8012
229.1149, 221.0179
229.5970, 218.4449
230.0792, 214.7078
230.5613, 210.1196
231.0434, 206.0058
231.5255, 202.4746
232.0076, 199.3353
232.4897, 196.5735
232.9719, 194.3757
233.4540, 192.1564
233.9361, 189.8767
234.4182, 187.5518
234.9003, 185.2202
235.3824, 182.9982
235.8646, 180.6021
236.3467, 177.8601
236.8288, 174.5809
237.3109, 171.3624
237.7930, 168.1851
238.2751, 165.0676
238.7573, 162.1685
239.2394, 159.5119
239.7215, 157.0283
240.2036, 154.6338
240.6857, 152.1699
241.1678, 150.1657
241.6500, 148.7506
242.1321, 147.7630
242.6142, 146.7834
243.0963, 145.8189
243.5784, 144.8580
244.0605, 143.8743
244.5427, 142.7397
245.0248, 141.9173
245.5069, 141.5581
245.9890, 141.4512
246.4711, 141.1089
246.9532, 140.3125
247.4354, 139.6438
247.9175, 139.4038
248.3996, 139.8462
248.8817, 139.8707
249.3638, 139.2763
249.8459, 138.3820
250.3281, 137.8121
250.8102, 137.8302
251.2923, 137.7143
251.7744, 137.1676
252.2565, 136.0583
252.7386, 135.0915
253.2208, 134.2449
253.7029, 133.5583
254.1850, 133.1065
254.6671, 132.9978
255.1492, 132.9117
255.6313, 132.7852
256.1135, 132.6422
256.5956, 132.2921
257.0777, 131.7197
257.5598, 130.9555
258.0419, 130.0354
258.5240, 128.9636
259.0062, 127.7439
259.4883, 126.3591
259.9704, 124.8307
260.4525, 123.1796
260.9346, 121.4229
261.4167, 119.5492
261.8989, 117.4996
262.3810, 115.1782
262.8631, 113.0012
263.3452, 111.1674
263.8273, 109.6513
264.3094, 107.8204
264.7916, 105.4827
265.2737, 103.0971
265.7558, 101.1283
266.2379, 99.75564
266.7200, 98.23476
267.2021, 96.28628
267.6843, 94.00154
268.1664, 92.24747
268.6485, 91.17439
269.1306, 90.32194
269.6127, 89.30888
270.0948, 88.08357
270.5770, 86.92863
271.0591, 85.86887
271.5412, 84.92393
272.0233, 84.20787
272.5054, 83.80075
272.9875, 83.43201
273.4697, 82.87795
273.9518, 82.08694
274.4339, 81.43045
274.9160, 80.99895
275.3981, 80.70454
275.8802, 80.25119
276.3624, 79.60949
276.8445, 78.95352
277.3266, 78.39931
277.8087, 77.95427
278.2908, 77.49938
278.7729, 77.00851
279.2551, 76.52352
279.7372, 76.20087
280.2193, 76.07706
280.7014, 75.87021
281.1835, 75.38181
281.6656, 74.61674
282.1478, 73.90018
282.6299, 73.24113
283.1120, 72.64258
283.5941, 72.14722
284.0762, 71.76030
284.5583, 71.32631
285.0405, 70.68047
285.5226, 69.86829
286.0047, 69.35064
286.4868, 69.17857
286.9689, 69.13905
287.4510, 68.92064
287.9332, 68.53507
288.4153, 68.23026
288.8974, 68.19717
289.3795, 68.32973
289.8616, 68.17690
290.3438, 67.70293
290.8259, 67.18999
291.3080, 67.02263
291.7901, 67.13245
292.2722, 67.09370
292.7543, 66.71815
293.2365, 66.12841
293.7186, 65.56744
294.2007, 65.03901
294.6828, 64.60266
295.1649, 64.40314
295.6470, 64.35890
296.1292, 64.18125
296.6113, 63.74276
297.0934, 63.19619
297.5755, 62.78860
298.0576, 62.50702
298.5397, 62.23156
299.0219, 61.82607
299.5040, 61.36168
299.9861, 61.00115
300.4682, 60.79201
300.9503, 60.66462
301.4324, 60.53010
301.9146, 60.40198
302.3967, 60.32985
302.8788, 60.36055
303.3609, 60.46289
303.8430, 60.61611
304.3251, 60.84216
304.8073, 61.02378
305.2894, 61.03032
305.7715, 60.90578
306.2536, 60.75797
306.7357, 60.58712
307.2178, 60.44818
307.7000, 60.44001
308.1821, 60.58706
308.6642, 60.68648
309.1463, 60.54865
309.6284, 60.27129
310.1105, 60.00446
310.5927, 59.83618
311.0748, 59.68633
311.5569, 59.48615
312.0390, 59.23503
312.5211, 59.00330
313.0032, 58.87367
313.4854, 58.76648
313.9675, 58.59875
314.4496, 58.23790
314.9317, 57.90721
315.4138, 57.72489
315.8959, 57.67476
316.3781, 57.64678
316.8602, 57.47042
317.3423, 57.36988
317.8244, 57.56506
318.3065, 58.68485
318.7886, 59.27634
319.2708, 58.39884
319.7529, 56.55947
320.2350, 55.18101
320.7171, 55.10571
321.1992, 55.29203
321.6813, 55.21203
322.1635, 54.62957
322.6456, 54.16395
323.1277, 53.99761
323.6098, 54.01029
324.0919, 54.00105
324.5740, 53.87163
325.0562, 53.77671
325.5383, 53.78156
326.0204, 53.92459
326.5025, 54.02149
326.9846, 54.01484
327.4667, 53.97585
327.9489, 53.98124
328.4310, 54.17977
328.9131, 54.25748
329.3952, 54.10947
329.8773, 53.72798
330.3594, 53.47143
330.8416, 53.43896
331.3237, 53.45037
331.8058, 53.35467
332.2879, 52.89976
332.7700, 52.79211
333.2521, 53.30217
333.7343, 54.23692
334.2164, 54.61355
334.6985, 54.11376
335.1806, 53.54517
335.6627, 53.34218
336.1448, 53.61929
336.6270, 53.93189
337.1091, 54.31734
337.5912, 54.69246
338.0733, 54.84617
338.5554, 54.68738
339.0375, 54.59832
339.5197, 54.75148
340.0018, 55.15846
340.4839, 55.56847
340.9660, 55.96563
341.4481, 56.38366
341.9302, 56.87438
342.4124, 57.44930
342.8945, 57.99342
343.3766, 58.48502
343.8587, 58.91919
344.3408, 59.22997
344.8229, 59.38163
345.3051, 59.64711
345.7872, 60.38215
346.2693, 61.50488
346.7514, 62.45710
347.2335, 63.00334
347.7156, 63.46642
348.1978, 64.50610
348.6799, 66.09030
349.1620, 67.81219
349.6441, 69.53882
350.1262, 71.19423
350.6083, 72.57169
351.0905, 73.63387
351.5726, 74.51651
352.0547, 75.39229
352.5368, 76.22635
353.0189, 76.91293
353.5010, 77.36678
353.9832, 77.65848
354.4653, 77.88509
354.9474, 78.05506
355.4295, 78.08757
355.9116, 78.10569
356.3937, 77.90629
356.8759, 77.18765
357.3580, 75.42622
357.8401, 73.44951
358.3222, 71.77605
358.8043, 70.36660
359.2864, 69.07985
359.7686, 67.66589
360.2507, 66.42616
360.7328, 65.65707
361.2149, 65.60550
361.6970, 65.70755
362.1791, 65.74393
362.6613, 65.76836
363.1434, 65.90502
363.6255, 66.14723
364.1076, 66.54613
364.5897, 67.21324
365.0718, 68.30193
365.5540, 69.11402
366.0361, 69.27396
366.5182, 69.17667
367.0003, 69.29605
367.4824, 69.91786
367.9645, 70.52283
368.4467, 70.92091
368.9288, 71.08474
369.4109, 71.55883
369.8930, 72.53168
370.3751, 73.67186
370.8572, 74.75295
371.3394, 75.59473
371.8215, 76.67692
372.3036, 78.17522
372.7857, 79.93551
373.2678, 81.39397
373.7499, 82.37801
374.2321, 83.38735
374.7142, 84.65279
375.1963, 86.23972
375.6784, 87.83297
376.1605, 89.40799
376.6426, 91.00883
377.1248, 92.61842
377.6069, 94.22874
378.0890, 95.99747
378.5711, 98.01966
379.0532, 100.2625
379.5353, 102.3622
380.0175, 104.3381
380.4996, 106.1719
380.9817, 107.7744
381.4638, 109.1746
381.9459, 110.6979
382.4280, 112.4304
382.9102, 114.2702
383.3923, 116.0163
383.8744, 117.6804
384.3565, 119.2420
384.8386, 120.6058
385.3207, 121.8666
385.8029, 123.1617
386.2850, 124.5139
386.7671, 125.9190
387.2492, 127.3696
387.7313, 128.8800
388.2134, 130.4557
388.6956, 132.1736
389.1777, 133.8886
389.6598, 135.4782
390.1419, 136.9389
390.6240, 138.3442
391.1061, 139.9374
391.5883, 141.4320
392.0704, 142.5061
392.5525, 142.7487
393.0346, 143.0054
393.5167, 143.9866
393.9988, 145.3313
394.4810, 146.0387
394.9631, 145.4996
395.4452, 144.4402
395.9273, 143.2057
396.4094, 141.8549
396.8915, 140.2649
397.3737, 138.5053
397.8558, 136.4612
398.3379, 133.9914
398.8200, 130.7486
399.3021, 127.4257
399.7842, 124.1423
400.2664, 120.8990
400.7485, 117.5683
401.2306, 114.0490
401.7127, 110.5793
402.1948, 107.3147
402.6769, 104.2777
403.1591, 101.4038
403.6412, 98.71204
404.1233, 96.17844
404.6054, 93.61028
405.0875, 90.91048
405.5696, 88.53989
406.0518, 86.75452
406.5339, 85.57039
407.0160, 84.41056
407.4981, 83.25285
407.9802, 82.21784
408.4623, 81.46237
408.9445, 80.98286
409.4266, 80.64928
409.9087, 80.41089
410.3908, 80.31059
410.8729, 80.50420
411.3550, 80.98718
411.8372, 81.54543
412.3193, 81.99353
412.8014, 82.41023
413.2835, 82.98624
413.7656, 83.75910
414.2477, 84.65520
414.7299, 85.62745
415.2120, 86.66051
415.6941, 87.69091
416.1762, 88.56081
416.6583, 89.50949
417.1404, 90.83062
417.6226, 92.52249
418.1047, 94.17068
418.5868, 95.60945
419.0689, 96.86441
419.5510, 97.99325
420.0331, 99.12643
420.5153, 99.96152
420.9974, 100.3192
421.4795, 100.2809
421.9616, 100.0316
422.4437, 99.50254
422.9258, 98.87312
423.4080, 98.27898
423.8901, 97.84389
424.3722, 97.01128
424.8543, 95.34549
425.3364, 93.45412
425.8185, 91.93726
426.3007, 90.97791
426.7828, 90.10458
427.2649, 89.23813
427.7470, 88.40013
428.2291, 87.70438
428.7112, 87.14489
429.1934, 86.74605
429.6755, 86.56999
430.1576, 86.69459
430.6397, 86.59975
431.1218, 86.16713
431.6039, 85.67921
432.0861, 85.62418
432.5682, 86.03065
433.0503, 86.45980
433.5324, 86.74770
434.0145, 86.94700
434.4966, 87.22997
434.9788, 87.59754
435.4609, 88.04140
435.9430, 88.47640
436.4251, 88.98623
436.9072, 89.85098
437.3893, 91.23355
437.8715, 92.70811
438.3536, 93.83311
438.8357, 94.66064
439.3178, 95.33569
439.7999, 95.66309
440.2820, 96.04214
440.7642, 96.88815
441.2463, 98.23064
441.7284, 99.63860
442.2105, 100.9772
442.6926, 102.2296
443.1747, 103.3763
443.6569, 104.3205
444.1390, 105.2699
444.6211, 106.2477
445.1032, 107.2740
445.5853, 108.3764
446.0674, 109.6214
446.5496, 110.9007
447.0317, 112.1800
447.5138, 113.4697
447.9959, 114.7392
448.4780, 115.8945
448.9601, 117.1067
449.4423, 118.5920
449.9244, 120.5197
450.4065, 122.3195
450.8886, 123.7850
451.3707, 125.0612
451.8528, 126.9132
452.3350, 129.5500
452.8171, 132.1601
453.2992, 134.1631
453.7813, 135.5507
454.2634, 137.6596
454.7455, 140.6267
455.2277, 144.0135
455.7098, 147.1909
456.1919, 150.2314
456.6740, 153.8666
457.1561, 158.2537
457.6382, 163.3568
458.1204, 169.1390
458.6025, 175.5928
459.0846, 182.2616
459.5667, 188.8951
460.0488, 195.6235
460.5309, 202.7777
461.0131, 210.5086
461.4952, 218.0673
461.9773, 225.2843
462.4594, 231.8144
462.9415, 237.2419
463.4236, 241.6367
463.9058, 244.5917
464.3879, 246.2329
464.8700, 246.4248
465.3521, 244.3917
465.8342, 239.7409
466.3163, 232.9330
466.7985, 224.0535
467.2806, 211.8964
467.7627, 199.9170
468.2448, 188.1259
468.7269, 176.6769
469.2090, 165.6052
469.6912, 154.5835
470.1733, 144.3156
470.6554, 134.8803
471.1375, 126.3010
471.6196, 118.8827
472.1017, 112.7517
472.5839, 107.4079
473.0660, 102.4729
473.5481, 97.97057
474.0302, 93.73351
474.5123, 89.71606
474.9944, 86.05319
475.4766, 82.94712
475.9587, 80.38062
476.4408, 78.24930
476.9229, 76.75455
477.4050, 75.54733
477.8871, 73.97515
478.3693, 72.09274
478.8514, 70.39359
479.3335, 69.30560
479.8156, 68.55893
480.2977, 67.84615
480.7798, 67.10152
481.2620, 66.43054
481.7441, 65.88949
482.2262, 65.46252
482.7083, 65.12659
483.1904, 64.86545
483.6725, 64.69997
484.1547, 64.69473
484.6368, 64.83234
485.1189, 64.89280
485.6010, 64.75253
486.0831, 64.59980
486.5652, 64.54606
487.0474, 64.72657
487.5295, 64.69033
488.0116, 64.23984
488.4937, 63.71895
488.9758, 63.67847
489.4579, 64.34301
489.9401, 64.79925
490.4222, 64.80022
490.9043, 64.42889
491.3864, 64.06720
491.8685, 63.72361
492.3506, 63.31886
492.8328, 62.74972
493.3149, 62.06286
493.7970, 61.43359
494.2791, 60.85949
494.7612, 60.42002
495.2433, 60.37300
495.7255, 60.53524
496.2076, 60.42846
496.6897, 59.69923
497.1718, 58.80382
497.6539, 58.14094
498.1360, 57.68434
498.6182, 57.31914
499.1003, 57.10867
499.5824, 56.88739
500.0645, 56.52359
500.5466, 55.95744
501.0287, 55.43071
501.5109, 55.08214
501.9930, 54.77390
502.4751, 54.37272
502.9572, 53.81865
503.4393, 53.21742
503.9214, 52.50634
504.4036, 51.75666
504.8857, 51.14382
505.3678, 50.42005
505.8499, 50.28279
506.3320, 51.40165
506.8141, 53.96962
507.2963, 54.69767
507.7784, 53.15466
508.2605, 50.92924
508.7426, 49.55265
509.2247, 48.98232
509.7068, 48.52411
510.1890, 47.95360
510.6711, 47.61848
511.1532, 48.49704
511.6353, 50.30024
512.1174, 51.62057
512.5995, 51.34535
513.0817, 50.40527
513.5638, 49.82436
514.0459, 49.62756
514.5280, 49.68020
515.0101, 49.97321
515.4922, 50.43848
515.9744, 51.01271
516.4565, 51.70051
516.9386, 52.46741
517.4207, 53.27891
517.9028, 54.16750
518.3849, 55.18628
518.8671, 56.35888
519.3492, 57.65158
519.8313, 59.12668
520.3134, 60.75346
520.7955, 62.24702
521.2776, 63.44827
521.7598, 64.75649
522.2419, 66.39353
522.7240, 68.41306
523.2061, 70.52700
523.6882, 72.76571
524.1703, 75.04408
524.6525, 77.19616
525.1346, 79.24819
525.6167, 81.45950
526.0988, 83.76683
526.5809, 86.39411
527.0630, 90.25491
527.5452, 95.04136
528.0273, 99.07308
528.5094, 100.8549
528.9915, 101.6322
529.4736, 102.7808
529.9557, 104.4129
530.4379, 106.1758
530.9200, 108.0558
531.4021, 109.8864
531.8842, 111.5202
532.3663, 112.9989
532.8484, 114.1606
533.3306, 114.7910
533.8127, 115.0820
534.2948, 115.4267
534.7769, 116.3578
535.2590, 116.7767
535.7411, 116.4561
536.2233, 115.4077
536.7054, 113.6936
537.1875, 111.0559
537.6696, 108.2847
538.1517, 105.8780
538.6339, 103.8880
539.1160, 101.8020
539.5981, 99.54343
540.0802, 97.35973
540.5623, 95.62123
541.0444, 94.24772
541.5266, 92.72229
542.0087, 90.76788
542.4908, 88.71526
542.9729, 87.09205
543.4550, 85.83094
543.9371, 84.60943
544.4193, 83.21188
544.9014, 81.78609
545.3835, 80.47961
545.8656, 79.31299
546.3477, 78.08603
546.8298, 76.57099
547.3120, 75.02349
547.7941, 73.66866
548.2762, 72.73489
548.7583, 71.71421
549.2404, 70.52018
549.7225, 69.23081
550.2047, 67.96249
550.6868, 66.66122
551.1689, 65.48399
551.6510, 64.49691
552.1331, 63.67564
552.6152, 62.89778
553.0974, 62.16723
553.5795, 61.46515
554.0616, 60.79035
554.5437, 60.13811
555.0258, 59.46581
555.5079, 58.76258
555.9901, 58.08974
556.4722, 57.48019
556.9543, 56.94363
557.4364, 56.50837
557.9185, 56.22252
558.4006, 55.97367
558.8828, 55.65856
559.3649, 55.30908
559.8470, 54.99255
560.3291, 54.79252
560.8112, 54.57822
561.2933, 54.24249
561.7755, 53.78009
562.2576, 53.44898
562.7397, 53.28774
563.2218, 53.27084
563.7039, 53.43280
564.1860, 53.97610
564.6682, 54.13161
565.1503, 53.71723
565.6324, 53.14605
566.1145, 53.01164
566.5966, 53.37598
567.0787, 53.57272
567.5609, 53.40465
568.0430, 53.05933
568.5251, 52.94337
569.0072, 53.03463
569.4893, 53.16084
569.9714, 53.22253
570.4536, 53.26608
570.9357, 53.34861
571.4178, 53.47149
571.8999, 53.64277
572.3820, 53.93866
572.8641, 54.24293
573.3463, 54.43852
573.8284, 54.46568
574.3105, 54.49485
574.7926, 54.59048
575.2747, 54.71068
575.7568, 54.80189
576.2390, 54.82275
576.7211, 54.86594
577.2032, 54.95968
577.6853, 55.08189
578.1674, 55.14914
578.6495, 55.14478
579.1317, 55.13275
579.6138, 55.11588
580.0959, 55.10638
580.5780, 55.23565
581.0601, 55.51784
581.5422, 55.79816
582.0244, 55.89862
582.5065, 55.90222
582.9886, 56.06084
583.4707, 56.45353
583.9528, 56.76397
584.4349, 56.52491
584.9171, 56.06752
