##NAMES=Arsenolite
##RRUFFID=R050383
##IDEAL CHEMISTRY=As^3+^_2_O_3_
##LOCALITY=Eureka, Nevada, USA
##OWNER=RRUFF
##SOURCE=University of Arizona Mineral Museum
##DESCRIPTION=Colorless hoppered octahedra
##STATUS=The identification of this mineral has been confirmed by X-ray diffraction and chemical analysis
##URL=rruff.info/R050383
##MEASURED CHEMISTRY=As_2.00_O_3_
92.52344, 997.0166
93.00555, 1007.305
93.48767, 1007.703
93.96979, 1010.297
94.45190, 1009.786
94.93402, 1002.429
95.41614, 978.7836
95.89825, 946.2733
96.38037, 914.3365
96.86249, 882.7770
97.34460, 851.3619
97.82672, 820.9561
98.30884, 791.2992
98.79095, 762.8664
99.27307, 734.1719
99.75519, 703.5662
100.2373, 671.8655
100.7194, 640.2826
101.2015, 611.9286
101.6837, 587.0315
102.1658, 564.2178
102.6479, 542.3422
103.1300, 521.1599
103.6121, 501.5439
104.0942, 484.3878
104.5764, 469.0256
105.0585, 455.3683
105.5406, 443.1584
106.0227, 432.4252
106.5048, 423.6524
106.9869, 417.7396
107.4691, 412.3760
107.9512, 406.5631
108.4333, 400.3071
108.9154, 393.7531
109.3975, 386.8227
109.8796, 379.3347
110.3618, 372.5390
110.8439, 366.6575
111.3260, 361.2084
111.8081, 356.5164
112.2902, 352.3660
112.7723, 347.8449
113.2544, 341.5977
113.7366, 332.2261
114.2187, 323.6020
114.7008, 315.6840
115.1829, 308.4184
115.6650, 301.8047
116.1471, 295.8144
116.6293, 290.4440
117.1114, 285.8345
117.5935, 282.3817
118.0756, 278.8270
118.5577, 275.1539
119.0398, 271.1871
119.5220, 266.2564
120.0041, 259.5555
120.4862, 252.1828
120.9683, 246.4431
121.4504, 242.5514
121.9325, 239.8363
122.4147, 238.3818
122.8968, 238.3457
123.3789, 237.6309
123.8610, 234.4445
124.3431, 230.2387
124.8252, 226.2018
125.3074, 222.5368
125.7895, 219.4325
126.2716, 217.4683
126.7537, 217.5217
127.2358, 217.1876
127.7179, 215.6477
128.2001, 213.3538
128.6822, 210.8169
129.1643, 208.2896
129.6464, 205.7973
130.1285, 203.8033
130.6107, 203.4562
131.0928, 202.5148
131.5749, 200.1689
132.0570, 196.7505
132.5391, 193.0114
133.0212, 189.5601
133.5034, 186.3319
133.9855, 183.9802
134.4676, 183.3540
134.9497, 182.7392
135.4318, 180.9229
135.9139, 177.9012
136.3960, 174.7983
136.8782, 172.9483
137.3603, 172.6452
137.8424, 172.2405
138.3245, 171.3649
138.8066, 170.4513
139.2887, 170.1482
139.7709, 170.7178
140.2530, 171.4288
140.7351, 171.2637
141.2172, 170.3203
141.6993, 169.3592
142.1814, 168.8239
142.6636, 168.5652
143.1457, 167.9560
143.6278, 166.4899
144.1099, 165.0816
144.5920, 164.5303
145.0741, 164.8375
145.5563, 165.3650
146.0384, 165.5753
146.5205, 165.4334
147.0026, 165.2777
147.4847, 164.8603
147.9668, 164.6516
148.4490, 165.1193
148.9311, 166.3058
149.4132, 167.6363
149.8953, 168.1709
150.3774, 167.3608
150.8595, 166.8564
151.3417, 166.8158
151.8238, 167.0510
152.3059, 167.5014
152.7880, 168.1249
153.2701, 168.8003
153.7522, 169.2092
154.2344, 168.6393
154.7165, 168.6279
155.1986, 169.5217
155.6807, 170.9225
156.1628, 172.1865
156.6449, 172.9260
157.1271, 173.5232
157.6092, 175.6635
158.0913, 179.5098
158.5734, 184.3330
159.0555, 188.6925
159.5376, 193.6705
160.0198, 201.9756
160.5019, 214.8769
160.9840, 232.8895
161.4661, 255.3427
161.9482, 285.0756
162.4303, 316.0461
162.9125, 347.4473
163.3946, 378.9717
163.8767, 401.8396
164.3588, 406.5470
164.8409, 399.6424
165.3230, 392.0964
165.8052, 384.3904
166.2873, 377.9246
166.7694, 374.6430
167.2515, 374.7663
167.7336, 377.4359
168.2157, 382.0111
168.6979, 388.7380
169.1800, 398.4345
169.6621, 411.9095
170.1442, 428.2648
170.6263, 445.1579
171.1084, 462.8432
171.5906, 480.6808
172.0727, 499.3401
172.5548, 517.8874
173.0369, 534.8187
173.5190, 548.7950
174.0011, 560.4045
174.4833, 574.5872
174.9654, 593.0743
175.4475, 612.8718
175.9296, 632.4507
176.4117, 652.8623
176.8938, 676.1112
177.3760, 703.6378
177.8581, 735.4664
178.3402, 771.0029
178.8223, 800.9481
179.3044, 842.6616
179.7865, 895.1268
180.2687, 963.1943
180.7508, 1059.448
181.2329, 1197.197
181.7150, 1381.805
182.1971, 1556.862
182.6792, 1818.156
183.1614, 1995.988
183.6435, 1965.010
184.1256, 1731.434
184.6077, 1415.520
185.0898, 1099.833
185.5719, 788.6772
186.0541, 548.5974
186.5362, 408.6214
187.0183, 325.2338
187.5004, 267.1723
187.9825, 231.7966
188.4646, 209.4781
188.9468, 195.8620
189.4289, 189.3908
189.9110, 184.3030
190.3931, 180.0584
190.8752, 176.2656
191.3573, 172.1458
191.8395, 167.3950
192.3216, 163.0446
192.8037, 159.7869
193.2858, 157.4763
193.7679, 155.9891
194.2500, 155.7169
194.7322, 156.2800
195.2143, 156.4044
195.6964, 155.7647
196.1785, 155.1525
196.6606, 155.2204
197.1427, 155.6557
197.6249, 155.7531
198.1070, 154.8196
198.5891, 153.0046
199.0712, 151.8784
199.5533, 152.2848
200.0354, 152.4673
200.5176, 151.2380
200.9997, 149.2201
201.4818, 147.8773
201.9639, 148.6554
202.4460, 151.6387
202.9281, 153.3427
203.4103, 152.5388
203.8924, 151.4679
204.3745, 150.5881
204.8566, 149.9702
205.3387, 149.5684
205.8208, 149.3324
206.3030, 149.2484
206.7851, 149.4848
207.2672, 150.7155
207.7493, 151.6136
208.2314, 151.3033
208.7135, 150.0736
209.1957, 148.9027
209.6778, 148.6370
210.1599, 149.3301
210.6420, 150.7491
211.1241, 154.2640
211.6062, 157.1817
212.0884, 157.6514
212.5705, 155.9449
213.0526, 153.8950
213.5347, 153.0488
214.0168, 153.5692
214.4989, 154.6058
214.9811, 157.4406
215.4632, 159.7747
215.9453, 159.6635
216.4274, 157.1612
216.9095, 154.2868
217.3916, 152.6660
217.8737, 152.4021
218.3559, 152.4417
218.8380, 152.7301
219.3201, 153.3419
219.8022, 154.5865
220.2843, 156.4855
220.7664, 158.1696
221.2486, 158.7679
221.7307, 158.5175
222.2128, 158.4492
222.6949, 158.6330
223.1770, 159.1039
223.6591, 160.0271
224.1413, 161.4753
224.6234, 162.8932
225.1055, 164.0598
225.5876, 164.8906
226.0697, 165.1078
226.5518, 164.2593
227.0340, 162.9492
227.5161, 162.0996
227.9982, 161.8351
228.4803, 161.5965
228.9624, 160.8569
229.4445, 159.9863
229.9267, 159.4695
230.4088, 159.4547
230.8909, 159.9192
231.3730, 160.8987
231.8551, 162.5624
232.3372, 164.3230
232.8194, 166.0872
233.3015, 167.7686
233.7836, 169.2751
234.2657, 170.5813
234.7478, 171.6724
235.2299, 172.5180
235.7121, 173.1357
236.1942, 173.4427
236.6763, 172.5277
237.1584, 171.6756
237.6405, 172.4728
238.1227, 175.7646
238.6048, 180.4905
239.0869, 183.7467
239.5690, 183.8882
240.0511, 185.5385
240.5332, 190.5004
241.0154, 196.7281
241.4975, 201.6678
241.9796, 204.1786
242.4617, 206.0889
242.9438, 211.7335
243.4259, 220.9491
243.9081, 235.0400
244.3902, 248.3695
244.8723, 268.5099
245.3544, 299.2734
245.8365, 342.7192
246.3186, 403.6045
246.8008, 493.9630
247.2829, 625.3478
247.7650, 773.8638
248.2471, 970.4600
248.7292, 1166.212
249.2113, 1323.406
249.6935, 1427.619
250.1756, 1479.097
250.6577, 1475.076
251.1398, 1348.120
251.6219, 1261.859
252.1040, 1229.971
252.5862, 1229.748
253.0683, 1243.082
253.5504, 1264.237
254.0325, 1296.821
254.5146, 1347.343
254.9967, 1425.322
255.4789, 1506.019
255.9610, 1588.034
256.4431, 1673.010
256.9252, 1765.678
257.4073, 1866.557
257.8894, 1966.819
258.3716, 2054.175
258.8537, 2121.246
259.3358, 2193.665
259.8179, 2266.728
260.3000, 2348.140
260.7821, 2443.619
261.2643, 2554.604
261.7464, 2679.973
262.2285, 2817.281
262.7106, 2967.229
263.1927, 3145.896
263.6748, 3308.803
264.1570, 3528.698
264.6391, 3855.758
265.1212, 4296.529
265.6033, 4850.838
266.0854, 5517.228
266.5675, 6309.344
267.0497, 7202.363
267.5318, 8758.051
268.0139, 10021.02
268.4960, 10143.81
268.9781, 9106.600
269.4602, 7536.241
269.9424, 5672.346
270.4245, 3634.752
270.9066, 2109.130
271.3887, 1316.864
271.8708, 883.6686
272.3529, 602.9410
272.8351, 460.2786
273.3172, 377.8629
273.7993, 324.4983
274.2814, 296.5119
274.7635, 273.1133
275.2456, 254.6694
275.7278, 240.1225
276.2099, 229.7919
276.6920, 223.3331
277.1741, 217.9684
277.6562, 212.6147
278.1383, 207.5529
278.6205, 203.2000
279.1026, 199.5240
279.5847, 196.5280
280.0668, 194.6620
280.5489, 193.6782
281.0310, 192.0609
281.5132, 188.8683
281.9953, 185.2109
282.4774, 182.5954
282.9595, 181.0772
283.4416, 180.1971
283.9237, 179.9597
284.4059, 180.2127
284.8880, 180.3192
285.3701, 180.1236
285.8522, 179.7262
286.3343, 179.2136
286.8164, 178.5924
287.2986, 177.9837
287.7807, 177.1445
288.2628, 176.3284
288.7449, 176.6079
289.2270, 178.8360
289.7091, 180.8768
290.1913, 180.5525
290.6734, 178.4774
291.1555, 176.8327
291.6376, 177.0298
292.1197, 178.3414
292.6018, 179.0014
293.0840, 178.7103
293.5661, 178.2859
294.0482, 178.3374
294.5303, 178.6402
295.0124, 178.7579
295.4945, 178.1952
295.9767, 177.5237
296.4588, 177.9833
296.9409, 179.9709
297.4230, 181.7280
297.9051, 182.3825
298.3872, 182.2750
298.8694, 181.6390
299.3515, 180.3882
299.8336, 178.8974
300.3157, 177.5560
300.7978, 176.3196
301.2799, 175.4671
301.7621, 175.4956
302.2442, 175.7650
302.7263, 175.6379
303.2084, 174.9324
303.6905, 174.2372
304.1726, 174.2311
304.6548, 174.9458
305.1369, 175.5981
305.6190, 176.0117
306.1011, 176.2827
306.5832, 176.4440
307.0653, 176.5053
307.5475, 176.5799
308.0296, 176.7505
308.5117, 177.0138
308.9938, 177.3713
309.4759, 178.0611
309.9580, 178.5403
310.4402, 178.1935
310.9223, 177.2674
311.4044, 176.6992
311.8865, 177.4929
312.3686, 179.2320
312.8507, 180.0543
313.3329, 179.5988
313.8150, 178.7574
314.2971, 177.5284
314.7792, 176.3300
315.2613, 175.9946
315.7434, 177.1718
316.2256, 179.2650
316.7077, 181.0593
317.1898, 182.5814
317.6719, 183.7544
318.1540, 184.1955
318.6361, 184.4173
319.1183, 185.0602
319.6004, 186.4546
320.0825, 187.9409
320.5646, 188.5509
321.0467, 188.1508
321.5288, 187.7180
322.0110, 187.1570
322.4931, 186.9565
322.9752, 187.8780
323.4573, 190.0719
323.9394, 192.0167
324.4215, 191.9141
324.9037, 189.8186
325.3858, 188.4374
325.8679, 188.6011
326.3500, 189.2938
326.8321, 189.7792
327.3142, 190.0834
327.7964, 190.5052
328.2785, 191.8305
328.7606, 193.6163
329.2427, 193.4176
329.7248, 189.8343
330.2069, 186.4599
330.6891, 185.4712
331.1712, 186.2447
331.6533, 187.5603
332.1354, 189.0880
332.6175, 190.7042
333.0996, 192.1673
333.5818, 193.4789
334.0639, 194.6521
334.5460, 195.2585
335.0281, 195.8758
335.5102, 197.2962
335.9923, 199.9644
336.4745, 202.9492
336.9566, 204.9548
337.4387, 205.8760
337.9208, 207.4921
338.4029, 210.9155
338.8850, 214.9432
339.3671, 218.0956
339.8492, 220.1688
340.3314, 222.8804
340.8135, 227.5526
341.2956, 234.0450
341.7777, 241.2553
342.2598, 249.0207
342.7419, 257.4962
343.2241, 265.5567
343.7062, 273.7941
344.1883, 285.5576
344.6704, 301.4153
345.1525, 322.0597
345.6346, 347.3671
346.1168, 375.1232
346.5989, 414.4687
347.0810, 463.2921
347.5631, 528.6752
348.0452, 629.7446
348.5273, 767.0048
349.0095, 945.7928
349.4916, 1183.361
349.9737, 1479.777
350.4558, 1794.339
350.9379, 2147.243
351.4200, 2479.168
351.9022, 2703.911
352.3843, 2803.222
352.8664, 2832.127
353.3485, 2787.393
353.8306, 2691.916
354.3127, 2635.420
354.7949, 2642.353
355.2770, 2698.308
355.7591, 2787.577
356.2412, 2907.608
356.7233, 3052.131
357.2054, 3223.618
357.6876, 3416.700
358.1697, 3626.004
358.6518, 3852.209
359.1339, 4085.485
359.6160, 4316.656
360.0981, 4547.705
360.5803, 4781.075
361.0624, 5001.521
361.5445, 5235.491
362.0266, 5494.249
362.5087, 5780.827
362.9908, 6108.007
363.4730, 6475.857
363.9551, 6897.591
364.4372, 7397.742
364.9193, 7925.060
365.4014, 8596.771
365.8835, 9466.930
366.3657, 10511.04
366.8478, 11704.52
367.3299, 13047.03
367.8120, 14495.00
368.2941, 16134.78
368.7762, 18210.78
369.2584, 19421.23
369.7405, 19648.24
370.2226, 18890.16
370.7047, 16752.78
371.1868, 13292.54
371.6689, 9679.029
372.1511, 6868.131
372.6332, 4913.298
373.1153, 3447.499
373.5974, 2621.981
374.0795, 2066.220
374.5616, 1672.684
375.0438, 1405.374
375.5259, 1210.373
376.0080, 1064.350
376.4901, 959.5578
376.9722, 871.4243
377.4543, 805.9482
377.9365, 749.0974
378.4186, 701.6391
378.9007, 661.1215
379.3828, 625.9438
379.8649, 595.4261
380.3470, 568.5452
380.8292, 544.1961
381.3113, 523.4133
381.7934, 501.8938
382.2755, 477.8407
382.7576, 454.6624
383.2397, 434.4863
383.7219, 417.0246
384.2040, 401.1455
384.6861, 386.1578
385.1682, 371.9686
385.6503, 357.5149
386.1324, 341.9710
386.6146, 327.1496
387.0967, 313.0153
387.5788, 300.0252
388.0609, 288.9193
388.5430, 280.0434
389.0251, 272.4477
389.5073, 264.0424
389.9894, 253.7533
390.4715, 244.9442
390.9536, 237.6497
391.4357, 231.7437
391.9178, 227.4384
392.4000, 224.5700
392.8821, 222.4558
393.3642, 220.6434
393.8463, 219.1544
394.3284, 217.0085
394.8105, 213.1306
395.2927, 209.8269
395.7748, 208.2764
396.2569, 207.7342
396.7390, 206.9062
397.2211, 205.0956
397.7032, 202.7479
398.1854, 200.8678
398.6675, 199.5606
399.1496, 198.3883
399.6317, 197.0911
400.1138, 195.9610
400.5959, 195.2690
401.0781, 195.0576
401.5602, 195.1020
402.0423, 195.0746
402.5244, 195.0320
403.0065, 195.7505
403.4886, 197.9421
403.9708, 199.9888
404.4529, 200.3753
404.9350, 199.6875
405.4171, 199.6072
405.8992, 201.4676
406.3813, 204.0316
406.8635, 205.1217
407.3456, 204.5470
407.8277, 204.2592
408.3098, 205.2094
408.7919, 207.0912
409.2740, 209.2786
409.7562, 211.7043
410.2383, 214.5391
410.7204, 217.9930
411.2025, 221.9621
411.6846, 226.2404
412.1667, 230.8821
412.6489, 235.6041
413.1310, 240.8468
413.6131, 246.6962
414.0952, 249.2794
414.5773, 246.6405
415.0594, 241.3225
415.5416, 235.1090
416.0237, 228.2543
416.5058, 221.1277
416.9879, 213.7441
417.4700, 206.3647
417.9521, 200.3846
418.4343, 196.0686
418.9164, 192.5520
419.3985, 189.6020
419.8806, 187.3041
420.3627, 185.8010
420.8448, 185.1300
421.3270, 185.2822
421.8091, 186.4219
422.2912, 189.4151
422.7733, 190.7616
423.2554, 189.1410
423.7375, 187.1605
424.2197, 186.3960
424.7018, 186.6921
425.1839, 186.9812
425.6660, 186.4391
426.1481, 185.2809
426.6302, 184.9958
427.1124, 186.5729
427.5945, 187.8556
428.0766, 187.9200
428.5587, 187.9009
429.0408, 189.5497
429.5229, 193.1905
430.0051, 196.6822
430.4872, 196.3145
430.9693, 190.5139
431.4514, 187.4612
431.9335, 190.7253
432.4156, 193.8403
432.8978, 193.7164
433.3799, 191.2912
433.8620, 189.3869
434.3441, 189.9665
434.8262, 192.1035
435.3083, 192.9854
435.7905, 192.0198
436.2726, 191.4342
436.7547, 192.3866
437.2368, 193.8925
437.7189, 195.1178
438.2010, 195.8955
438.6832, 196.5957
439.1653, 197.3637
439.6474, 198.2654
440.1295, 199.7461
440.6116, 202.0520
441.0938, 204.6022
441.5759, 207.2131
442.0580, 209.7234
442.5401, 211.4861
443.0222, 210.9660
443.5043, 210.5440
443.9865, 213.0597
444.4686, 218.2123
444.9507, 223.2893
445.4328, 226.9488
445.9149, 229.8405
446.3970, 233.2850
446.8792, 236.9626
447.3613, 241.8270
447.8434, 248.3811
448.3255, 256.1575
448.8076, 264.3491
449.2897, 272.9156
449.7719, 282.9044
450.2540, 295.5636
450.7361, 311.1140
451.2182, 325.7460
451.7003, 337.8983
452.1824, 350.9651
452.6646, 367.3603
453.1467, 385.3260
453.6288, 401.7821
454.1109, 415.4189
454.5930, 427.1152
455.0751, 438.7975
455.5573, 451.2492
456.0394, 462.0309
456.5215, 469.0021
457.0036, 476.3852
457.4857, 486.1531
457.9678, 498.5902
458.4500, 513.6304
458.9321, 531.5748
459.4142, 551.9564
459.8963, 572.2236
460.3784, 592.1852
460.8605, 612.2986
461.3427, 631.1278
461.8248, 651.1317
462.3069, 675.0743
462.7890, 703.6407
463.2711, 734.7261
463.7532, 765.1313
464.2354, 795.3713
464.7175, 830.5236
465.1996, 872.2281
465.6817, 917.4305
466.1638, 964.2448
466.6459, 1012.620
467.1281, 1063.010
467.6102, 1118.944
468.0923, 1173.683
468.5744, 1222.374
469.0565, 1264.704
469.5386, 1294.526
470.0208, 1311.455
470.5029, 1311.858
470.9850, 1288.058
471.4671, 1240.507
471.9492, 1177.788
472.4313, 1093.924
472.9135, 1000.401
473.3956, 905.9010
473.8777, 812.7518
474.3598, 725.1881
474.8419, 646.4456
475.3240, 576.4562
475.8062, 516.7181
476.2883, 468.4216
476.7704, 427.0207
477.2525, 393.5223
477.7346, 365.7634
478.2167, 341.9499
478.6989, 321.2797
479.1810, 303.4068
479.6631, 287.6865
480.1452, 274.2763
480.6273, 262.7716
481.1094, 254.5782
481.5916, 246.9261
482.0737, 238.4799
482.5558, 230.0545
483.0379, 223.3250
483.5200, 219.2194
484.0021, 216.3816
484.4843, 211.8149
484.9664, 204.7103
485.4485, 199.5679
485.9306, 198.9622
486.4127, 199.1847
486.8948, 197.7216
487.3770, 194.7411
487.8591, 191.9013
488.3412, 190.3790
488.8233, 189.5636
489.3054, 188.1104
489.7875, 185.9078
490.2697, 184.1550
490.7518, 183.4681
491.2339, 183.6761
491.7160, 184.5176
492.1981, 186.6082
492.6802, 187.5230
493.1624, 185.0446
493.6445, 181.1910
494.1266, 179.2922
494.6087, 179.8590
495.0908, 180.5199
495.5729, 178.9030
496.0551, 175.0703
496.5372, 173.4134
497.0193, 175.5838
497.5014, 177.6531
497.9835, 178.6467
498.4656, 178.7383
498.9478, 177.7757
499.4299, 175.8372
499.9120, 174.2518
500.3941, 175.3113
500.8762, 180.3081
501.3583, 182.8038
501.8405, 180.3698
502.3226, 177.8927
502.8047, 176.9666
503.2868, 177.2791
503.7689, 178.1751
504.2510, 179.4377
504.7331, 180.6919
505.2152, 181.0455
505.6974, 180.2530
506.1795, 180.1097
506.6616, 181.4262
507.1437, 183.1017
507.6258, 184.3016
508.1079, 185.1016
508.5901, 185.9731
509.0722, 187.4447
509.5543, 188.9732
510.0364, 190.0122
510.5185, 190.5445
511.0006, 189.8122
511.4828, 187.0502
511.9649, 183.1564
512.4470, 179.7816
512.9291, 176.4656
513.4113, 174.9164
513.8934, 176.8492
514.3755, 180.0091
514.8576, 182.1771
515.3397, 183.1445
515.8218, 183.6364
516.3040, 184.1567
516.7861, 184.6976
517.2682, 185.1959
517.7503, 185.6258
518.2324, 186.0413
518.7145, 186.3357
519.1967, 186.6881
519.6788, 187.1656
520.1609, 187.8372
520.6430, 188.8944
521.1251, 190.5467
521.6072, 192.7961
522.0894, 195.3854
522.5715, 198.7589
523.0536, 201.7631
523.5357, 203.8226
524.0178, 205.4360
524.4999, 207.1051
524.9821, 208.9428
525.4642, 211.0189
525.9463, 213.1159
526.4284, 215.4311
526.9105, 219.2853
527.3926, 225.4021
527.8748, 231.3611
528.3569, 234.9726
528.8390, 236.8511
529.3211, 239.1886
529.8032, 242.3322
530.2853, 245.8092
530.7675, 249.8081
531.2496, 253.8731
531.7317, 256.9544
532.2138, 258.7486
532.6959, 260.0451
533.1780, 261.6534
533.6602, 263.4063
534.1423, 266.6444
534.6244, 272.1235
535.1065, 278.0275
535.5886, 284.2542
536.0707, 290.2746
536.5529, 294.8376
537.0350, 297.4959
537.5171, 300.2838
537.9992, 305.6956
538.4813, 313.1254
538.9634, 326.0665
539.4456, 343.1452
539.9277, 368.0650
540.4098, 402.0398
540.8919, 444.6183
541.3740, 494.8950
541.8561, 552.5945
542.3383, 617.5404
542.8204, 694.6439
543.3025, 781.7174
543.7846, 858.2629
544.2667, 920.2972
544.7488, 968.2261
545.2310, 997.3060
545.7131, 1009.711
546.1952, 1023.546
546.6773, 1037.101
547.1594, 1056.781
547.6415, 1086.884
548.1237, 1126.477
548.6058, 1173.661
549.0879, 1227.489
549.5700, 1287.818
550.0521, 1354.647
550.5342, 1428.800
551.0164, 1506.610
551.4985, 1588.513
551.9806, 1672.394
552.4627, 1755.646
552.9448, 1841.043
553.4269, 1932.250
553.9091, 2030.490
554.3912, 2140.658
554.8733, 2268.595
555.3554, 2413.302
555.8375, 2587.055
556.3196, 2799.984
556.8018, 3034.650
557.2839, 3290.889
557.7660, 3559.573
558.2481, 3816.220
558.7302, 4078.103
559.2123, 4292.185
559.6945, 4436.294
560.1766, 4494.067
560.6587, 4375.177
561.1408, 4035.162
561.6229, 3561.886
562.1050, 3031.439
562.5872, 2427.634
563.0693, 1915.865
563.5514, 1513.115
564.0335, 1189.660
564.5156, 950.2720
564.9977, 777.3804
565.4799, 646.6947
565.9620, 548.5677
566.4441, 475.9106
566.9262, 419.3558
567.4083, 381.6828
567.8904, 348.8530
568.3726, 322.8573
568.8547, 300.0331
569.3368, 278.9189
569.8189, 260.2250
570.3010, 245.7762
570.7831, 236.4794
571.2653, 229.5492
571.7474, 221.8542
572.2295, 213.5514
572.7116, 205.4915
573.1937, 197.5371
573.6758, 190.6342
574.1580, 186.1016
574.6401, 183.4030
575.1222, 180.4171
575.6043, 176.5512
576.0864, 172.8107
576.5685, 169.6252
577.0507, 166.9399
577.5328, 164.7254
578.0149, 162.9591
578.4970, 161.4849
578.9791, 160.1700
579.4612, 159.0252
579.9434, 157.7738
580.4255, 156.4554
580.9076, 154.9766
581.3897, 152.8754
581.8718, 150.8230
582.3539, 149.6590
582.8361, 149.5122
583.3182, 149.6612
583.8003, 149.4627
584.2824, 148.9405
584.7645, 148.2370
585.2466, 147.2601
585.7288, 146.3484
586.2108, 145.4899
586.6929, 144.8900
587.1750, 145.0624
587.6572, 146.3525
588.1393, 147.0476
588.6214, 145.7437
589.1035, 143.7130
589.5856, 142.4500
590.0677, 142.1430
