##NAMES=Arsenic
##RRUFFID=R050653
##IDEAL CHEMISTRY=As
##LOCALITY=Japan
##OWNER=RRUFF
##SOURCE=University of Arizona Mineral Museum
##DESCRIPTION=Gray massive
##STATUS=The identification of this mineral has been confirmed by X-ray diffraction and chemical analysis
##URL=rruff.info/R050653
##MEASURED CHEMISTRY=As
90.26367, 5.789741
90.74579, 5.988246
91.22791, 5.900673
91.71002, 5.559262
92.19214, 5.247188
92.67426, 5.212385
93.15637, 5.389174
93.63850, 5.609601
94.12061, 5.872727
94.60273, 6.130000
95.08485, 6.263365
95.56696, 6.265832
96.04908, 6.183693
96.53120, 6.062027
97.01331, 5.902728
97.49543, 5.699357
97.97755, 5.394324
98.45966, 5.002366
98.94178, 4.766837
99.42390, 4.721107
99.90602, 4.786136
100.3881, 4.820376
100.8703, 4.821970
101.3524, 4.798885
101.8345, 4.727817
102.3166, 4.571399
102.7987, 4.539442
103.2808, 4.687347
103.7630, 4.969415
104.2451, 5.194328
104.7272, 5.412973
105.2093, 5.509745
105.6914, 5.383932
106.1735, 4.842168
106.6557, 4.409722
107.1378, 4.151336
107.6199, 4.067328
108.1020, 4.090741
108.5841, 4.352667
109.0662, 4.653427
109.5484, 4.817278
110.0305, 4.645094
110.5126, 4.535583
110.9947, 4.583199
111.4768, 4.833395
111.9590, 5.036096
112.4411, 5.139854
112.9232, 5.192224
113.4053, 5.251330
113.8874, 5.331415
114.3695, 5.417616
114.8517, 5.487633
115.3338, 5.497538
115.8159, 5.597402
116.2980, 5.929655
116.7801, 6.389049
117.2622, 6.743642
117.7444, 6.755277
118.2265, 6.726265
118.7086, 6.860212
119.1907, 7.256060
119.6728, 7.739988
120.1549, 8.239399
120.6371, 8.753939
121.1192, 9.284445
121.6013, 9.784432
122.0834, 10.31108
122.5655, 10.93074
123.0477, 11.72998
123.5298, 12.57200
124.0119, 13.32506
124.4940, 13.99496
124.9761, 14.66650
125.4582, 15.43440
125.9404, 16.24727
126.4225, 16.99679
126.9046, 17.46809
127.3867, 17.90299
127.8688, 18.79767
128.3509, 20.19729
128.8331, 21.61638
129.3152, 22.40969
129.7973, 22.70405
130.2794, 23.11532
130.7615, 23.98968
131.2436, 25.21560
131.7258, 26.41287
132.2079, 27.56590
132.6900, 28.69440
133.1721, 29.82850
133.6542, 30.96331
134.1364, 32.09697
134.6185, 33.21233
135.1006, 34.31825
135.5827, 35.51423
136.0648, 36.83522
136.5469, 38.23064
137.0291, 39.61770
137.5112, 41.01294
137.9933, 42.29276
138.4754, 43.41843
138.9575, 44.39508
139.4396, 45.09269
139.9218, 45.37580
140.4039, 45.36831
140.8860, 45.72977
141.3681, 46.65332
141.8502, 47.59888
142.3323, 48.04839
142.8145, 47.69660
143.2966, 47.66626
143.7787, 48.24533
144.2608, 49.42455
144.7429, 50.29290
145.2251, 50.67927
145.7072, 50.91799
146.1893, 51.32764
146.6714, 51.99562
147.1535, 52.69927
147.6356, 53.34300
148.1178, 53.87205
148.5999, 54.69738
149.0820, 56.04189
149.5641, 57.58685
150.0462, 58.94529
150.5283, 59.94026
151.0105, 60.90810
151.4926, 61.35440
151.9747, 61.74624
152.4568, 62.18143
152.9389, 62.67170
153.4210, 63.20030
153.9032, 63.75341
154.3853, 64.62953
154.8674, 65.26376
155.3495, 65.44202
155.8316, 64.98447
156.3138, 64.48928
156.7959, 63.93983
157.2780, 63.41851
157.7601, 63.08485
158.2422, 63.09322
158.7243, 63.19805
159.2065, 63.25904
159.6886, 63.11906
160.1707, 63.16716
160.6528, 63.68248
161.1349, 64.48904
161.6170, 65.12237
162.0992, 65.22053
162.5813, 65.21052
163.0634, 65.39956
163.5455, 66.13741
164.0276, 66.70069
164.5097, 66.55738
164.9919, 65.89885
165.4740, 65.46937
165.9561, 65.72573
166.4382, 66.32947
166.9203, 66.98046
167.4025, 67.59748
167.8846, 68.23528
168.3667, 68.96788
168.8488, 69.77753
169.3309, 70.54665
169.8130, 71.21680
170.2952, 71.80514
170.7773, 72.32204
171.2594, 72.69915
171.7415, 73.06584
172.2236, 73.51065
172.7057, 74.03391
173.1879, 74.65989
173.6700, 75.48392
174.1521, 76.41362
174.6342, 77.29540
175.1163, 78.07720
175.5984, 78.78765
176.0806, 79.39256
176.5627, 79.89180
177.0448, 80.46853
177.5269, 81.35969
178.0090, 82.45435
178.4911, 83.51529
178.9733, 84.37752
179.4554, 85.15172
179.9375, 86.02336
180.4196, 86.99052
180.9017, 88.02029
181.3839, 89.11510
181.8660, 90.24753
182.3481, 91.35997
182.8302, 92.42722
183.3123, 93.45006
183.7944, 94.41075
184.2766, 95.31093
184.7587, 96.19396
185.2408, 97.16669
185.7229, 98.19920
186.2050, 99.16132
186.6871, 99.88503
187.1693, 100.4699
187.6514, 101.2326
188.1335, 102.2043
188.6156, 103.3210
189.0977, 104.5339
189.5798, 105.8351
190.0620, 107.1843
190.5441, 108.6640
191.0262, 110.2257
191.5083, 111.5550
191.9904, 112.6586
192.4725, 113.5254
192.9547, 114.0767
193.4368, 114.3094
193.9189, 114.4895
194.4010, 114.8812
194.8831, 115.4482
195.3652, 115.5462
195.8474, 115.0427
196.3295, 114.2026
196.8116, 113.5946
197.2937, 113.2620
197.7758, 112.7839
198.2579, 111.8294
198.7401, 110.3853
199.2222, 109.0649
199.7043, 107.8984
200.1864, 106.9107
200.6685, 106.2430
201.1507, 105.9740
201.6328, 105.6660
202.1149, 105.0362
202.5970, 104.0559
203.0791, 103.0003
203.5612, 101.7916
204.0434, 100.6069
204.5255, 100.0397
205.0076, 100.2466
205.4897, 100.5326
205.9718, 100.4832
206.4539, 100.0619
206.9361, 99.51595
207.4182, 98.81452
207.9003, 98.02917
208.3824, 97.35064
208.8645, 96.76562
209.3466, 96.31937
209.8288, 96.06129
210.3109, 96.03345
210.7930, 96.02208
211.2751, 96.04988
211.7572, 96.07112
212.2393, 95.83054
212.7215, 95.12774
213.2036, 94.60463
213.6857, 94.85133
214.1678, 96.31332
214.6499, 96.97340
215.1321, 96.37821
215.6142, 94.87256
216.0963, 93.98766
216.5784, 93.90450
217.0605, 94.09485
217.5426, 94.24255
218.0248, 94.32554
218.5069, 94.42545
218.9890, 94.54554
219.4711, 94.68834
219.9532, 94.91643
220.4353, 95.40556
220.9175, 95.69842
221.3996, 95.41497
221.8817, 94.20042
222.3638, 93.35341
222.8459, 93.07191
223.3280, 93.26029
223.8102, 93.47041
224.2923, 93.75959
224.7744, 93.98797
225.2565, 94.06454
225.7386, 93.96237
226.2208, 93.75823
226.7029, 93.38091
227.1850, 92.89265
227.6671, 92.63757
228.1492, 92.66261
228.6313, 92.85267
229.1135, 93.17116
229.5956, 93.75039
230.0777, 94.16614
230.5598, 94.36316
231.0419, 94.37129
231.5240, 94.32222
232.0062, 94.14059
232.4883, 94.00636
232.9704, 94.00012
233.4525, 94.02926
233.9346, 94.40475
234.4167, 95.27424
234.8989, 96.52268
235.3810, 97.61900
235.8631, 98.58459
236.3452, 99.38540
236.8273, 99.97404
237.3095, 100.1634
237.7916, 100.5505
238.2737, 101.2685
238.7558, 102.2151
239.2379, 102.9712
239.7200, 103.4613
240.2022, 103.8618
240.6843, 104.2337
241.1664, 104.4279
241.6485, 104.9340
242.1306, 105.8845
242.6127, 107.1659
243.0949, 108.3146
243.5770, 109.2881
244.0591, 110.1966
244.5412, 111.0634
245.0233, 111.7973
245.5054, 112.7006
245.9876, 113.7432
246.4697, 114.9648
246.9518, 116.5526
247.4339, 118.6635
247.9160, 120.9163
248.3981, 123.0749
248.8803, 124.9672
249.3624, 127.2315
249.8445, 130.0640
250.3266, 133.2253
250.8087, 136.1009
251.2909, 138.7020
251.7730, 140.9543
252.2551, 142.9127
252.7372, 145.0054
253.2193, 145.7191
253.7014, 144.8661
254.1836, 142.7178
254.6657, 139.8145
255.1478, 135.9287
255.6299, 131.6724
256.1120, 127.0732
256.5941, 121.7462
257.0763, 117.4889
257.5584, 114.6908
258.0405, 112.6719
258.5226, 110.0856
259.0047, 106.6224
259.4868, 103.1842
259.9690, 100.0894
260.4511, 97.33046
260.9332, 94.96373
261.4153, 93.00706
261.8974, 91.39702
262.3795, 90.08780
262.8617, 89.15356
263.3438, 88.31554
263.8259, 87.49862
264.3080, 86.72218
264.7901, 85.80690
265.2722, 84.62016
265.7544, 83.45065
266.2365, 82.87230
266.7186, 83.20904
267.2007, 83.14000
267.6829, 82.14163
268.1650, 80.13246
268.6471, 78.38628
269.1292, 76.89723
269.6113, 75.62881
270.0934, 74.56314
270.5756, 73.73205
271.0577, 72.93721
271.5398, 72.08874
272.0219, 71.18758
272.5040, 70.55338
272.9861, 70.25497
273.4683, 70.08843
273.9504, 69.83718
274.4325, 69.48136
274.9146, 69.16495
275.3967, 68.96028
275.8788, 68.83492
276.3610, 68.49528
276.8431, 67.87150
277.3252, 67.25626
277.8073, 66.93996
278.2894, 66.94447
278.7715, 67.01614
279.2537, 67.16521
279.7358, 67.33042
280.2179, 67.21095
280.7000, 66.75561
281.1821, 66.24593
281.6642, 65.88271
282.1464, 65.66623
282.6285, 65.56048
283.1106, 65.59584
283.5927, 65.70795
284.0748, 65.73933
284.5569, 65.69001
285.0391, 65.54942
285.5212, 65.18866
286.0033, 64.64723
286.4854, 64.46030
286.9675, 64.80642
287.4496, 65.36391
287.9318, 65.41347
288.4139, 64.94630
288.8960, 64.52047
289.3781, 64.56666
289.8602, 64.97306
290.3424, 65.13551
290.8245, 64.94648
291.3066, 64.64712
291.7887, 64.66060
292.2708, 64.95309
292.7530, 65.20473
293.2351, 65.21907
293.7172, 65.05544
294.1993, 64.87422
294.6814, 64.67264
295.1635, 64.50097
295.6457, 64.45792
296.1278, 64.51308
296.6099, 64.53875
297.0920, 64.47153
297.5741, 64.33533
298.0562, 64.15150
298.5384, 63.91610
299.0205, 63.70681
299.5026, 63.48535
299.9847, 63.33916
300.4668, 62.87782
300.9489, 63.26710
301.4311, 63.42840
301.9132, 63.37400
302.3953, 62.45784
302.8774, 62.65447
303.3595, 62.59503
303.8416, 63.02702
304.3238, 63.33877
304.8059, 63.14773
305.2880, 62.84319
305.7701, 62.85550
306.2522, 63.13807
306.7343, 63.40679
307.2165, 63.53829
307.6986, 63.52652
308.1807, 63.32200
308.6628, 62.72731
309.1449, 62.23573
309.6270, 62.33036
310.1092, 62.86444
310.5913, 63.36490
311.0734, 63.60589
311.5555, 63.68143
312.0376, 63.64573
312.5197, 63.46563
313.0019, 63.29144
313.4840, 63.19005
313.9661, 63.15405
314.4482, 63.16674
314.9304, 63.21238
315.4125, 63.31129
315.8946, 63.53133
316.3767, 63.93627
316.8588, 64.18130
317.3409, 63.99530
317.8231, 63.60347
318.3052, 63.30359
318.7873, 63.26702
319.2694, 63.26732
319.7515, 63.19546
320.2336, 63.03674
320.7158, 62.93517
321.1979, 62.88999
321.6800, 62.93887
322.1621, 63.11669
322.6442, 63.75386
323.1263, 64.18659
323.6085, 64.16301
324.0906, 63.71308
324.5727, 63.33863
325.0548, 63.15670
325.5369, 63.04628
326.0190, 62.93523
326.5012, 62.61251
326.9833, 62.53027
327.4654, 62.88142
327.9475, 63.54359
328.4296, 64.02055
328.9117, 64.26878
329.3939, 64.36890
329.8760, 64.34879
330.3581, 64.16963
330.8402, 63.92682
331.3223, 63.47583
331.8044, 62.99730
332.2866, 62.88427
332.7687, 63.39490
333.2508, 63.89180
333.7329, 64.17265
334.2150, 64.19588
334.6971, 64.19504
335.1793, 64.15654
335.6614, 64.10718
336.1435, 64.10193
336.6256, 64.19897
337.1077, 64.17954
337.5899, 63.92581
338.0720, 63.45861
338.5541, 63.27024
339.0362, 63.43771
339.5183, 63.71235
340.0005, 63.85873
340.4826, 63.85527
340.9647, 63.90255
341.4468, 64.06950
341.9289, 64.29205
342.4110, 64.34003
342.8932, 64.19090
343.3753, 64.00797
343.8574, 63.92592
344.3395, 63.93208
344.8216, 63.81141
345.3037, 63.46996
345.7859, 63.13538
346.2680, 63.29150
346.7501, 63.90880
347.2322, 64.49607
347.7143, 64.77687
348.1964, 64.82324
348.6786, 64.87589
349.1607, 64.95023
349.6428, 64.99516
350.1249, 64.86997
350.6070, 64.65244
351.0891, 64.59023
351.5713, 64.93965
352.0534, 65.42848
352.5355, 65.64241
353.0176, 65.58617
353.4997, 65.45655
353.9818, 65.35645
354.4640, 65.29483
354.9461, 65.29273
355.4282, 65.40591
355.9103, 65.51737
356.3924, 65.51727
356.8745, 65.42430
357.3567, 65.31264
357.8388, 65.14314
358.3209, 65.01750
358.8030, 65.03172
359.2851, 65.22999
359.7672, 65.49741
360.2494, 65.82419
360.7315, 66.17467
361.2136, 66.47807
361.6957, 66.67009
362.1779, 66.84246
362.6600, 66.99998
363.1421, 67.12313
363.6242, 67.39999
364.1063, 67.95504
364.5884, 68.66550
365.0706, 69.40089
365.5527, 70.29395
366.0348, 71.03993
366.5169, 71.53226
366.9990, 71.78147
367.4811, 71.99265
367.9633, 72.32359
368.4454, 72.52585
368.9275, 72.45634
369.4096, 72.12708
369.8917, 71.50796
370.3738, 70.36433
370.8560, 68.93385
371.3381, 67.90794
371.8202, 67.48443
372.3023, 67.18357
372.7844, 66.81916
373.2665, 66.34302
373.7487, 66.01196
374.2308, 65.86805
374.7129, 65.82749
375.1950, 65.77043
375.6771, 65.67429
376.1592, 65.64196
376.6414, 65.74274
377.1235, 65.95000
377.6056, 65.96215
378.0877, 65.72519
378.5698, 65.47231
379.0519, 65.44376
379.5341, 65.64188
380.0162, 65.74970
380.4983, 65.69321
380.9804, 65.54145
381.4625, 65.47045
381.9446, 65.47672
382.4268, 65.43738
382.9089, 65.18228
383.3910, 64.81297
383.8731, 64.70819
384.3553, 64.94448
384.8374, 65.21714
385.3195, 65.09855
385.8016, 64.71177
386.2837, 64.41831
386.7658, 64.45341
387.2480, 64.63567
387.7301, 64.71764
388.2122, 64.70488
388.6943, 64.74712
389.1764, 65.05302
389.6585, 65.44653
390.1407, 65.69135
390.6228, 65.64677
391.1049, 65.54528
391.5870, 65.50455
392.0691, 65.52380
392.5512, 65.60078
393.0334, 65.93472
393.5155, 66.18694
393.9976, 66.04733
394.4797, 65.28731
394.9618, 64.78871
395.4439, 65.12479
395.9261, 65.80206
396.4082, 66.16306
396.8903, 65.74332
397.3724, 65.32017
397.8545, 65.12797
398.3366, 65.18343
398.8188, 65.19389
399.3009, 64.97813
399.7830, 64.81926
400.2651, 64.90682
400.7472, 65.51920
401.2293, 65.96153
401.7115, 66.18336
402.1936, 66.21634
402.6757, 66.13497
403.1578, 65.85007
403.6399, 65.60424
404.1220, 65.53688
404.6042, 65.70745
405.0863, 65.67181
405.5684, 65.33630
406.0505, 64.94540
406.5326, 64.84351
407.0147, 65.06709
407.4969, 65.31275
407.9790, 65.53260
408.4611, 65.70683
408.9432, 65.70383
409.4254, 65.50414
409.9075, 65.33565
410.3896, 65.43561
410.8717, 65.73607
411.3538, 65.90016
411.8359, 65.82283
412.3181, 65.73103
412.8002, 65.45558
413.2823, 65.89877
413.7644, 66.11400
414.2465, 66.11352
414.7286, 65.25125
415.2108, 65.50179
415.6929, 65.30637
416.1750, 66.35954
416.6571, 66.47201
417.1392, 66.28762
417.6213, 66.17826
418.1035, 66.36008
418.5856, 66.55044
419.0677, 66.57875
419.5498, 66.47673
420.0319, 66.36137
420.5140, 66.26649
420.9962, 66.18198
421.4783, 66.09151
421.9604, 65.96497
422.4425, 65.90888
422.9246, 66.01794
423.4067, 66.19108
423.8889, 66.29105
424.3710, 66.23484
424.8531, 66.17267
425.3352, 66.13453
425.8173, 66.12053
426.2994, 66.10998
426.7816, 66.11002
427.2637, 66.10631
427.7458, 66.09567
428.2279, 66.10082
428.7100, 66.03321
429.1921, 65.84965
429.6743, 65.61501
430.1564, 65.47238
430.6385, 65.41437
431.1206, 65.48273
431.6028, 65.80620
432.0849, 66.36124
432.5670, 66.41174
433.0491, 65.84135
433.5312, 65.24525
434.0133, 65.39723
434.4955, 66.16905
434.9776, 66.67017
435.4597, 66.59275
435.9418, 66.24544
436.4239, 66.17370
436.9060, 66.33976
437.3882, 66.49588
437.8703, 66.50021
438.3524, 66.39194
438.8345, 66.16974
439.3166, 65.80017
439.7987, 65.54210
440.2809, 65.70040
440.7630, 66.08654
441.2451, 66.40504
441.7272, 66.54148
442.2093, 66.57875
442.6914, 66.51813
443.1736, 66.37647
443.6557, 66.25888
444.1378, 66.17741
444.6199, 66.15073
445.1020, 66.21244
445.5841, 66.49149
446.0663, 66.61874
446.5484, 66.38945
447.0305, 66.01219
447.5126, 65.83996
447.9947, 66.18825
448.4768, 66.36054
448.9590, 66.06161
449.4411, 65.27338
449.9232, 65.04664
450.4053, 65.68324
450.8874, 66.44129
451.3695, 66.73457
451.8517, 66.43496
452.3338, 66.26118
452.8159, 66.33769
453.2980, 66.50093
453.7801, 66.33224
454.2622, 65.79916
454.7444, 65.43338
455.2265, 65.59860
455.7086, 66.14501
456.1907, 66.43642
456.6729, 66.46841
457.1550, 66.34209
457.6371, 65.99218
458.1192, 65.56064
458.6013, 65.42918
459.0834, 65.83299
459.5656, 66.30791
460.0477, 66.33671
460.5298, 66.01857
461.0119, 65.64870
461.4940, 65.21029
461.9761, 64.89056
462.4583, 64.91424
462.9404, 65.32671
463.4225, 65.66500
463.9046, 65.62656
464.3867, 65.45606
464.8688, 65.38595
465.3510, 65.59946
465.8331, 65.77215
466.3152, 65.88024
466.7973, 65.90556
467.2794, 65.78046
467.7615, 65.17512
468.2437, 64.74055
468.7258, 64.76399
469.2079, 65.40162
469.6900, 65.76020
470.1721, 65.71835
470.6542, 65.52556
471.1364, 65.43894
471.6185, 65.48277
472.1006, 65.54917
472.5827, 65.66181
473.0648, 65.75889
473.5469, 65.59223
474.0291, 65.13632
474.5112, 64.71970
474.9933, 64.57972
475.4754, 64.64791
475.9575, 64.58154
476.4396, 64.34238
476.9218, 64.17384
477.4039, 64.44532
477.8860, 64.98557
478.3681, 65.40066
478.8503, 65.58318
479.3324, 65.56679
479.8145, 65.19610
480.2966, 64.59933
480.7787, 64.26144
481.2608, 64.79002
481.7430, 65.40644
482.2251, 65.50259
482.7072, 64.91092
483.1893, 64.38332
483.6714, 64.10886
484.1535, 64.05793
484.6357, 64.19738
485.1178, 64.75998
485.5999, 65.24072
486.0820, 65.61147
486.5641, 65.85300
487.0462, 65.87277
487.5284, 65.51187
488.0105, 65.14439
488.4926, 64.93209
488.9747, 64.91831
489.4568, 64.78553
489.9389, 64.50029
490.4211, 64.15824
490.9032, 63.81011
491.3853, 63.43904
491.8674, 63.33669
492.3495, 63.66189
492.8316, 64.17065
493.3138, 64.28154
493.7959, 64.02878
494.2780, 63.79283
494.7601, 63.88459
495.2422, 64.12251
495.7243, 64.10011
496.2065, 63.78662
496.6886, 63.53777
497.1707, 63.75406
497.6528, 64.17238
498.1349, 64.43272
498.6170, 64.39436
499.0992, 64.23570
499.5813, 63.92432
500.0634, 63.56123
500.5455, 63.39002
501.0276, 63.73815
501.5097, 64.07185
501.9919, 64.12793
502.4740, 63.83048
502.9561, 63.67666
503.4382, 63.83685
503.9203, 64.05663
504.4025, 64.16561
504.8846, 64.12476
505.3667, 64.03548
505.8488, 63.82203
506.3309, 63.61484
506.8130, 63.81166
507.2952, 64.57367
507.7773, 64.99884
508.2594, 64.53669
508.7415, 63.42367
509.2236, 63.12789
509.7057, 63.71132
510.1879, 64.32535
510.6700, 64.06817
511.1521, 63.27284
511.6342, 63.01833
512.1163, 63.60482
512.5984, 64.27966
513.0806, 64.16695
513.5627, 63.55574
514.0448, 63.05001
514.5269, 62.99794
515.0090, 63.07159
515.4911, 63.05342
515.9733, 62.95874
516.4554, 62.91315
516.9375, 63.07997
517.4196, 63.22526
517.9017, 63.19436
518.3839, 62.88095
518.8660, 62.60742
519.3481, 62.41699
519.8302, 62.27975
520.3123, 62.16803
520.7944, 62.06962
521.2766, 62.02110
521.7587, 62.04559
522.2408, 62.12302
522.7229, 62.15758
523.2050, 62.12242
523.6871, 62.14783
524.1693, 62.35783
524.6514, 62.72593
525.1335, 62.94355
525.6156, 63.00324
526.0977, 62.96554
526.5798, 62.83851
527.0620, 62.65923
527.5441, 62.54492
528.0262, 62.53907
528.5083, 62.57258
528.9904, 62.59080
529.4725, 62.59101
529.9547, 62.56694
530.4368, 62.53070
530.9189, 62.45526
531.4010, 62.25434
531.8831, 61.93173
532.3652, 61.78441
532.8474, 62.07145
533.3295, 62.44838
533.8116, 62.69991
534.2937, 62.73565
534.7758, 62.75477
535.2579, 62.78055
535.7401, 62.78444
536.2222, 62.73018
536.7043, 62.62663
537.1865, 62.42788
537.6686, 62.04220
538.1507, 61.56345
538.6328, 61.50350
539.1149, 61.92582
539.5970, 62.37234
540.0792, 62.56029
540.5613, 62.53501
541.0434, 62.45533
541.5255, 62.31559
542.0076, 62.23328
542.4897, 62.44082
542.9719, 62.77546
543.4540, 62.89485
543.9361, 62.60895
544.4182, 62.24789
544.9003, 61.89386
545.3824, 61.16629
545.8646, 61.73871
546.3467, 62.08315
546.8288, 62.21189
547.3109, 61.47886
547.7930, 61.85863
548.2751, 61.79243
548.7573, 61.70796
549.2394, 62.24435
549.7215, 61.63665
550.2036, 62.16320
550.6857, 62.23698
551.1678, 62.51797
551.6500, 62.35027
552.1321, 62.32113
552.6142, 62.74087
553.0963, 62.91207
553.5784, 62.26232
554.0605, 62.31195
554.5427, 61.97338
555.0248, 62.48382
555.5069, 62.76630
555.9890, 62.83308
556.4711, 62.03807
556.9532, 62.35588
557.4354, 62.22772
557.9175, 62.08128
558.3996, 62.55570
558.8817, 61.88604
559.3638, 62.35063
559.8459, 62.36244
560.3281, 62.58147
560.8102, 62.35179
561.2923, 62.26070
561.7744, 62.61847
562.2565, 62.72771
562.7386, 62.44637
563.2208, 62.67857
563.7029, 61.99324
564.1850, 62.11306
564.6671, 62.58027
565.1492, 61.99226
565.6313, 61.81482
566.1135, 61.69911
566.5956, 61.93768
567.0777, 61.61412
567.5598, 62.05632
568.0419, 62.27057
568.5240, 62.26910
569.0062, 61.40584
569.4883, 61.65541
569.9704, 61.45901
570.4525, 61.24433
570.9346, 61.65052
571.4167, 62.00430
571.8989, 62.26333
572.3810, 62.46867
572.8631, 62.34275
573.3452, 61.93095
573.8273, 61.54766
574.3094, 61.13536
574.7916, 60.92430
575.2737, 61.13190
575.7558, 62.03691
576.2379, 62.50742
576.7200, 62.19599
577.2021, 61.70606
577.6843, 61.59430
578.1664, 62.03195
578.6485, 62.33282
579.1306, 62.40147
579.6127, 62.32763
580.0948, 62.30853
580.5770, 62.34455
581.0591, 62.28844
581.5412, 61.98186
582.0233, 61.60138
582.5054, 61.60431
582.9875, 61.94308
583.4697, 62.25793
583.9518, 62.33055
584.4340, 62.23604
584.9161, 61.97544
585.3982, 61.51520
585.8803, 61.23451
586.3624, 61.54542
586.8445, 62.01388
587.3267, 62.23783
587.8088, 61.78384
588.2909, 61.53346
588.7730, 61.76517
589.2551, 62.21227
