##NAMES=Arsenic
##RRUFFID=R050653
##IDEAL CHEMISTRY=As
##LOCALITY=Japan
##OWNER=RRUFF
##SOURCE=University of Arizona Mineral Museum
##DESCRIPTION=Gray massive
##STATUS=The identification of this mineral has been confirmed by X-ray diffraction and chemical analysis
##URL=rruff.info/R050653
##MEASURED CHEMISTRY=As
91.54327, 0.0000000E+00
92.02539, 64.00668
92.50751, 64.17538
92.98962, 64.71880
93.47174, 64.97536
93.95386, 65.14553
94.43597, 64.88742
94.91809, 64.09478
95.40021, 62.97409
95.88232, 61.94619
96.36444, 60.95703
96.84655, 60.14150
97.32867, 59.68384
97.81078, 59.43376
98.29290, 59.13651
98.77502, 58.53730
99.25713, 57.50194
99.73925, 56.61949
100.2214, 55.97653
100.7035, 55.38086
101.1856, 54.70525
101.6677, 53.95298
102.1498, 53.23841
102.6320, 52.68067
103.1141, 52.22108
103.5962, 52.15911
104.0783, 52.78231
104.5604, 53.67491
105.0425, 54.45758
105.5247, 55.06596
106.0068, 55.36583
106.4889, 54.99015
106.9710, 53.87331
107.4531, 52.74701
107.9352, 51.97849
108.4173, 51.49963
108.8995, 50.91553
109.3816, 49.92725
109.8637, 48.89404
110.3458, 48.18608
110.8279, 47.86315
111.3100, 47.76895
111.7922, 47.74343
112.2743, 47.80317
112.7564, 47.87988
113.2385, 48.05308
113.7206, 48.19165
114.2027, 48.14932
114.6849, 47.84441
115.1670, 47.36499
115.6491, 47.02777
116.1312, 46.95066
116.6133, 46.89130
117.0954, 46.83232
117.5776, 46.75991
118.0597, 46.66084
118.5418, 46.52553
119.0239, 46.35313
119.5060, 46.14989
119.9881, 45.72017
120.4703, 45.43952
120.9524, 45.58020
121.4345, 46.07073
121.9166, 46.56478
122.3987, 46.74364
122.8808, 46.54235
123.3630, 46.30507
123.8451, 45.92727
124.3272, 45.56519
124.8093, 45.38995
125.2914, 45.44047
125.7735, 45.59586
126.2557, 45.80095
126.7378, 46.03746
127.2199, 46.13667
127.7020, 45.98098
128.1841, 45.62860
128.6662, 45.24111
129.1483, 44.73342
129.6305, 44.34810
130.1126, 44.33415
130.5947, 44.65199
131.0768, 44.94069
131.5589, 44.79952
132.0410, 44.14589
132.5232, 43.74114
133.0053, 43.93158
133.4874, 44.23035
133.9695, 44.41493
134.4516, 44.43616
134.9337, 44.36551
135.4159, 44.30386
135.8980, 44.23626
136.3801, 44.21123
136.8622, 44.21834
137.3443, 44.26636
137.8264, 44.41156
138.3086, 44.66815
138.7907, 44.94055
139.2728, 44.95843
139.7549, 44.37870
140.2370, 43.92804
140.7191, 43.72320
141.2013, 43.66897
141.6834, 43.62054
142.1655, 43.49921
142.6476, 43.33500
143.1297, 43.26394
143.6118, 43.33361
144.0939, 43.42403
144.5761, 43.51443
145.0582, 43.59594
145.5403, 43.62193
146.0224, 43.53420
146.5045, 43.37719
146.9866, 43.28955
147.4688, 43.32338
147.9509, 43.38989
148.4330, 43.39674
148.9151, 43.33296
149.3972, 43.27794
149.8793, 43.22964
150.3615, 43.22873
150.8436, 43.36382
151.3257, 43.77870
151.8078, 44.29387
152.2899, 44.43922
152.7720, 43.92666
153.2542, 43.55527
153.7363, 43.73644
154.2184, 44.23159
154.7005, 44.67580
155.1826, 44.81456
155.6647, 44.68864
156.1469, 44.72059
156.6290, 45.09912
157.1111, 45.46342
157.5932, 45.70335
158.0753, 45.85227
158.5574, 45.99413
159.0396, 46.20083
159.5217, 46.48074
160.0038, 46.74976
160.4859, 47.03423
160.9680, 47.28744
161.4501, 47.46891
161.9323, 47.59035
162.4144, 47.69870
162.8965, 47.83221
163.3786, 47.98117
163.8607, 48.24237
164.3428, 48.58105
164.8250, 49.03996
165.3071, 49.74376
165.7892, 50.69271
166.2713, 51.61115
166.7534, 52.11879
167.2355, 52.13987
167.7177, 52.30175
168.1998, 52.67447
168.6819, 53.22309
169.1640, 53.95626
169.6461, 54.91823
170.1282, 55.90318
170.6104, 56.59364
171.0925, 57.02574
171.5746, 57.53111
172.0567, 58.23802
172.5388, 59.11552
173.0209, 60.09093
173.5031, 61.21157
173.9852, 62.34476
174.4673, 63.38416
174.9494, 64.33482
175.4315, 65.26765
175.9136, 66.22015
176.3958, 67.19384
176.8779, 68.18349
177.3600, 69.23875
177.8421, 70.26628
178.3242, 71.18394
178.8063, 72.00253
179.2885, 72.80786
179.7706, 73.67913
180.2527, 74.61283
180.7348, 75.64259
181.2169, 76.94979
181.6990, 78.22190
182.1812, 79.24702
182.6633, 80.01530
183.1454, 80.69115
183.6275, 81.51907
184.1096, 82.62033
184.5917, 83.61641
185.0738, 84.57237
185.5560, 85.40483
186.0381, 85.99406
186.5202, 86.33192
187.0023, 86.56837
187.4844, 86.96085
187.9665, 87.70142
188.4487, 88.29518
188.9308, 88.72742
189.4129, 89.02524
189.8950, 89.24108
190.3771, 89.38920
190.8592, 89.39000
191.3414, 89.04893
191.8235, 88.09278
192.3056, 87.31463
192.7877, 86.91833
193.2698, 86.71516
193.7519, 86.50437
194.2341, 86.24280
194.7162, 85.84453
195.1983, 85.06860
195.6804, 83.88243
196.1625, 82.60638
196.6446, 81.22916
197.1268, 79.82751
197.6089, 78.58910
198.0910, 77.62098
198.5731, 76.77751
199.0552, 75.83936
199.5373, 74.80492
200.0195, 73.69852
200.5016, 72.45094
200.9837, 71.10394
201.4658, 69.89967
201.9479, 68.97884
202.4300, 68.16069
202.9122, 67.20979
203.3943, 66.09642
203.8764, 65.06290
204.3585, 64.36122
204.8406, 63.98755
205.3227, 63.54738
205.8048, 62.92131
206.2870, 62.21041
206.7691, 61.45150
207.2512, 60.65345
207.7333, 59.89898
208.2154, 59.29063
208.6975, 58.84767
209.1797, 58.43746
209.6618, 58.09678
210.1439, 57.74263
210.6260, 57.31541
211.1081, 56.80983
211.5902, 56.28343
212.0724, 55.79755
212.5545, 55.34182
213.0366, 54.97316
213.5187, 54.72694
214.0008, 54.53733
214.4829, 54.38945
214.9651, 54.27044
215.4472, 54.14333
215.9293, 53.94567
216.4114, 53.61625
216.8935, 53.34340
217.3756, 53.19470
217.8578, 53.04673
218.3399, 52.78808
218.8220, 52.40710
219.3041, 51.99791
219.7862, 51.71008
220.2683, 51.62445
220.7505, 51.51418
221.2326, 51.32642
221.7147, 51.14861
222.1968, 51.08765
222.6789, 51.15508
223.1610, 51.22636
223.6432, 51.11068
224.1253, 50.67616
224.6074, 50.31059
225.0895, 49.94881
225.5716, 49.68824
226.0537, 49.69900
226.5358, 50.00738
227.0180, 50.35279
227.5001, 50.33100
227.9822, 49.74495
228.4643, 49.42895
228.9464, 49.61525
229.4285, 50.01120
229.9107, 50.28489
230.3928, 50.35749
230.8749, 50.42985
231.3570, 50.81350
231.8391, 51.55000
232.3212, 52.13139
232.8034, 52.37320
233.2855, 52.45690
233.7676, 52.61495
234.2497, 52.89734
234.7318, 53.20240
235.2139, 53.37336
235.6961, 53.43155
236.1782, 53.60726
236.6603, 53.98372
237.1424, 54.50448
237.6245, 55.12683
238.1066, 55.88999
238.5888, 56.61495
239.0709, 57.03080
239.5530, 57.24321
240.0351, 57.61498
240.5172, 58.47749
240.9993, 59.53841
241.4815, 60.17826
241.9636, 60.22118
242.4457, 60.21087
242.9278, 60.47865
243.4099, 60.98096
243.8920, 61.68144
244.3742, 62.74586
244.8563, 63.96957
245.3384, 64.86632
245.8205, 65.34709
246.3026, 65.68576
246.7847, 65.98717
247.2668, 66.26817
247.7490, 66.56630
248.2311, 66.96146
248.7132, 67.35368
249.1953, 67.48046
249.6774, 67.24052
250.1595, 66.92683
250.6417, 66.78612
251.1238, 66.62841
251.6059, 66.18903
252.0880, 65.31312
252.5701, 64.12642
253.0522, 62.92006
253.5344, 61.70308
254.0165, 60.45784
254.4986, 59.14530
254.9807, 57.82074
255.4628, 56.54681
255.9449, 55.36498
256.4271, 54.21862
256.9092, 52.93626
257.3913, 51.35865
257.8734, 49.96738
258.3555, 48.84952
258.8376, 47.92812
259.3198, 47.14178
259.8019, 46.47085
260.2840, 45.89750
260.7661, 45.40720
261.2482, 45.11198
261.7303, 44.67720
262.2125, 43.96757
262.6946, 43.17954
263.1767, 42.42402
263.6588, 41.74557
264.1409, 41.21737
264.6230, 41.01245
265.1052, 41.44407
265.5873, 41.57942
266.0694, 41.23334
266.5515, 40.72434
267.0336, 40.25782
267.5157, 39.89229
267.9979, 39.58477
268.4800, 39.26198
268.9621, 38.85060
269.4442, 38.60130
269.9263, 38.62912
270.4084, 38.70129
270.8906, 38.69086
271.3727, 38.56967
271.8548, 38.36066
272.3369, 38.07385
272.8190, 37.64951
273.3011, 37.36146
273.7833, 37.28206
274.2654, 37.25004
274.7475, 37.19340
275.2296, 37.09953
275.7117, 36.97835
276.1938, 36.83400
276.6760, 36.65503
277.1581, 36.52641
277.6402, 36.47637
278.1223, 36.43763
278.6044, 36.39358
279.0865, 36.33524
279.5686, 36.24125
280.0508, 36.08278
280.5329, 35.85626
281.0150, 35.74861
281.4971, 35.85563
281.9792, 35.95789
282.4613, 35.95535
282.9435, 35.88106
283.4256, 35.82446
283.9077, 35.84406
284.3898, 35.93159
284.8719, 36.01410
285.3540, 36.08262
285.8362, 36.15688
286.3183, 36.25997
286.8004, 36.37057
287.2825, 36.46071
287.7646, 36.52094
288.2467, 36.53627
288.7289, 36.44716
289.2110, 36.10574
289.6931, 35.85054
290.1752, 35.81454
290.6573, 35.87554
291.1394, 35.86047
291.6216, 35.70117
292.1037, 35.45317
292.5858, 35.21055
293.0679, 34.85973
293.5500, 34.73895
294.0321, 35.04527
294.5143, 35.52808
294.9964, 35.96036
295.4785, 36.28076
295.9606, 36.43538
296.4427, 36.30845
296.9248, 35.74102
297.4070, 35.37782
297.8891, 35.38928
298.3712, 35.52487
298.8533, 35.57538
299.3354, 35.50690
299.8175, 35.38177
300.2997, 35.23970
300.7818, 35.06904
301.2639, 35.04094
301.7460, 35.36106
302.2281, 35.66043
302.7102, 35.59106
303.1924, 35.19653
303.6745, 34.90778
304.1566, 35.11363
304.6387, 35.77220
305.1208, 36.04463
305.6029, 35.68462
306.0851, 35.22152
306.5672, 34.83138
307.0493, 34.54199
307.5314, 34.42554
308.0135, 34.55967
308.4956, 34.86952
308.9778, 35.02074
309.4599, 34.88606
309.9420, 34.78160
310.4241, 34.88800
310.9062, 35.08883
311.3883, 35.13540
311.8705, 34.90721
312.3526, 34.53204
312.8347, 34.28869
313.3168, 34.17649
313.7989, 34.16039
314.2810, 34.38781
314.7632, 34.65533
315.2453, 34.62232
315.7274, 34.18152
316.2095, 33.66796
316.6916, 33.56828
317.1737, 34.00460
317.6559, 34.32042
318.1379, 34.40879
318.6201, 34.38824
319.1022, 34.32058
319.5843, 34.22517
320.0664, 33.89649
320.5485, 34.29095
321.0306, 34.51498
321.5128, 34.57775
321.9949, 33.99625
322.4770, 34.24669
322.9591, 34.16372
323.4412, 34.06709
323.9233, 34.43462
324.4055, 33.94683
324.8876, 34.30700
325.3697, 34.32868
325.8518, 34.50528
326.3339, 34.34641
326.8160, 34.29116
327.2982, 34.57148
327.7803, 34.66599
328.2624, 34.46851
328.7445, 34.37056
329.2266, 34.44286
329.7087, 34.52245
330.1909, 34.55264
330.6730, 34.45841
331.1551, 34.33119
331.6372, 34.33087
332.1193, 34.50674
332.6014, 34.68487
333.0836, 34.58177
333.5657, 34.01971
334.0478, 33.72157
334.5299, 33.92769
335.0120, 34.26489
335.4941, 34.42982
335.9763, 34.38820
336.4584, 34.28722
336.9405, 34.26590
337.4226, 34.33477
337.9047, 34.33788
338.3868, 34.22076
338.8690, 34.09707
339.3511, 33.99144
339.8332, 33.92340
340.3153, 33.94582
340.7974, 34.10409
341.2795, 34.37113
341.7617, 34.57076
342.2438, 34.63957
342.7259, 34.72627
343.2080, 34.96004
343.6901, 35.20982
344.1722, 35.23944
344.6544, 34.94642
345.1365, 34.49682
345.6186, 34.23694
346.1007, 34.35728
346.5828, 34.38839
347.0649, 34.18409
347.5471, 33.97380
348.0292, 34.00868
348.5113, 34.31310
348.9934, 34.66761
349.4755, 34.80123
349.9576, 34.64668
350.4398, 34.53844
350.9219, 34.49381
351.4040, 34.47118
351.8861, 34.43745
352.3682, 34.40429
352.8503, 34.42904
353.3325, 34.57472
353.8146, 34.82170
354.2967, 34.85201
354.7788, 34.32069
355.2609, 33.96695
355.7430, 34.05799
356.2252, 34.39177
356.7073, 34.69617
357.1894, 34.84293
357.6715, 34.86052
358.1536, 34.81533
358.6357, 34.62855
359.1178, 34.49955
359.5999, 34.45885
360.0821, 34.45889
360.5642, 34.44892
361.0463, 34.42519
361.5284, 34.44027
362.0105, 34.58614
362.4926, 34.94289
362.9748, 35.11547
363.4569, 34.94066
363.9390, 34.74742
364.4211, 34.66679
364.9032, 34.68925
365.3853, 34.74667
365.8675, 34.78446
366.3496, 34.36094
366.8317, 34.68048
367.3138, 34.82959
367.7959, 34.81745
368.2780, 34.16103
368.7602, 34.33654
369.2423, 34.17866
369.7244, 34.00711
370.2065, 34.29972
370.6886, 33.81204
371.1707, 34.26184
371.6529, 34.61971
372.1350, 34.65470
372.6171, 34.62485
373.0992, 34.72620
373.5813, 34.97064
374.0634, 35.19605
374.5456, 35.23641
375.0277, 35.08654
375.5098, 34.85498
375.9919, 34.32473
376.4740, 33.97053
376.9561, 34.14421
377.4383, 34.65375
377.9204, 35.05171
378.4025, 35.04846
378.8846, 34.77919
379.3667, 34.61384
379.8488, 34.57101
380.3310, 34.58663
380.8131, 34.70315
381.2952, 34.83334
381.7773, 34.89444
382.2594, 34.86874
382.7415, 34.75580
383.2237, 34.48435
383.7058, 34.05561
384.1879, 33.79150
384.6700, 33.81578
385.1521, 33.99659
385.6342, 34.25183
386.1164, 34.56792
386.5985, 34.80887
387.0806, 34.85603
387.5627, 34.77606
388.0448, 34.74457
388.5269, 34.80363
389.0091, 34.81414
389.4912, 34.53421
389.9733, 34.12937
390.4554, 33.99456
390.9375, 34.42603
391.4196, 34.95747
391.9018, 35.15387
392.3839, 35.04549
392.8660, 34.90087
393.3481, 34.83612
393.8302, 34.80115
394.3123, 34.69285
394.7945, 34.48988
395.2766, 34.29155
395.7587, 34.11412
396.2408, 33.97226
396.7229, 33.89475
397.2050, 33.88846
397.6872, 33.93829
398.1693, 34.05013
398.6514, 34.23236
399.1335, 34.34202
399.6156, 34.34931
400.0977, 34.30196
400.5798, 34.18675
401.0620, 34.03318
401.5441, 33.94759
402.0262, 33.99917
402.5083, 34.16805
402.9904, 34.35811
403.4725, 34.80126
403.9547, 34.98003
404.4368, 34.55257
404.9189, 33.89935
405.4010, 33.46662
405.8831, 33.39879
406.3652, 33.62555
406.8474, 33.72937
407.3295, 34.13364
407.8116, 34.36749
408.2937, 34.44007
408.7758, 33.86838
409.2579, 34.12863
409.7401, 34.05548
410.2222, 33.96865
410.7043, 34.02007
411.1864, 33.69967
411.6685, 33.58917
412.1506, 33.98303
412.6328, 34.22857
413.1149, 34.09077
413.5970, 33.82103
414.0791, 33.73605
414.5612, 33.93579
415.0433, 34.20164
415.5255, 34.14277
416.0076, 33.59804
416.4897, 33.28691
416.9718, 33.51384
417.4539, 33.76365
417.9360, 33.79200
418.4182, 33.62291
418.9003, 33.41019
419.3824, 33.23401
419.8645, 33.10612
420.3466, 33.08654
420.8287, 33.21418
421.3109, 33.37142
421.7930, 33.54230
422.2751, 33.70148
422.7572, 33.82176
423.2393, 33.89790
423.7214, 33.92403
424.2036, 33.86483
424.6857, 33.72526
425.1678, 33.64150
425.6499, 33.69785
426.1320, 33.74945
426.6141, 33.62194
427.0963, 33.34396
427.5784, 33.14219
428.0605, 33.17101
428.5426, 33.30973
429.0247, 33.35766
429.5068, 33.29798
429.9890, 33.27828
430.4711, 33.45637
430.9532, 33.72502
431.4353, 33.74270
431.9174, 33.27334
432.3995, 32.90219
432.8817, 33.07503
433.3638, 33.54306
433.8459, 33.72835
434.3280, 33.42111
434.8101, 32.98687
435.2922, 32.96844
435.7744, 33.52617
436.2565, 33.84190
436.7386, 33.75640
437.2207, 33.52627
437.7028, 33.25112
438.1849, 32.97975
438.6671, 32.82282
439.1492, 32.87134
439.6313, 33.07840
440.1134, 33.16704
440.5955, 32.94635
441.0776, 32.84350
441.5597, 33.02238
442.0418, 33.28177
442.5240, 33.41085
443.0061, 33.35756
443.4882, 33.22034
443.9703, 33.12424
444.4524, 33.08095
444.9345, 33.02360
445.4167, 32.88040
445.8988, 32.79503
446.3809, 32.89864
446.8630, 33.09116
447.3451, 33.16777
447.8272, 32.99104
448.3094, 32.67779
448.7915, 32.53460
449.2736, 32.62623
449.7557, 32.70273
450.2378, 32.69004
450.7199, 32.64855
451.2021, 32.61081
451.6842, 32.58295
452.1663, 32.57155
452.6484, 32.59692
453.1305, 32.64664
453.6126, 32.67284
454.0948, 32.68666
454.5769, 32.64287
455.0590, 32.40928
455.5411, 32.10887
456.0232, 31.98047
456.5053, 32.17851
456.9875, 32.42282
457.4696, 32.47855
457.9517, 32.37564
458.4338, 32.23271
458.9159, 32.05657
459.3980, 31.92017
459.8802, 31.97894
460.3623, 32.25542
460.8444, 32.44671
461.3265, 32.53869
461.8086, 32.49490
462.2907, 32.15852
462.7729, 31.59550
463.2550, 31.19728
463.7371, 31.26468
464.2192, 31.69586
464.7013, 31.90239
465.1834, 31.70334
465.6656, 31.52727
466.1477, 31.41065
466.6298, 31.35765
467.1119, 31.41682
467.5940, 31.57865
468.0761, 31.70590
468.5583, 31.59968
469.0404, 31.18284
469.5225, 31.03094
470.0046, 31.42150
470.4867, 31.79383
470.9688, 32.00195
471.4510, 32.07259
471.9331, 32.05759
472.4152, 31.97663
472.8973, 31.85445
473.3794, 31.70628
473.8615, 31.49016
474.3437, 31.42928
474.8258, 31.73595
475.3079, 32.07502
475.7900, 32.25529
476.2721, 32.27557
476.7542, 32.21656
477.2364, 32.05515
477.7185, 31.86284
478.2006, 31.84789
478.6827, 32.05467
479.1648, 32.16871
479.6469, 31.92821
480.1291, 31.53882
480.6112, 31.37688
481.0933, 31.51649
481.5754, 31.71968
482.0575, 31.96620
482.5396, 32.17225
483.0217, 32.14617
483.5038, 31.84249
483.9860, 30.92119
484.4681, 31.30818
484.9502, 31.52475
485.4323, 31.58006
485.9144, 30.99110
486.3965, 31.23407
486.8787, 31.43079
487.3608, 31.26643
487.8429, 31.11627
488.3250, 31.50503
488.8071, 31.72336
489.2892, 31.78042
489.7714, 31.19323
490.2535, 31.43796
490.7356, 31.34930
491.2177, 31.16761
491.6998, 31.12520
492.1819, 31.15865
492.6641, 31.19461
493.1462, 31.18859
493.6283, 31.15019
494.1104, 31.10134
494.5925, 31.02858
495.0746, 30.98244
495.5568, 30.98801
496.0389, 31.01580
496.5210, 31.06987
497.0031, 31.14102
497.4852, 31.16447
497.9673, 31.05111
498.4495, 30.85821
498.9316, 30.75241
499.4137, 30.75381
499.8958, 30.77463
500.3779, 30.77917
500.8600, 30.76416
501.3422, 30.72216
501.8243, 30.63760
502.3064, 30.55919
502.7885, 30.50077
503.2706, 30.46709
503.7527, 30.48149
504.2349, 30.55003
504.7170, 30.61358
505.1991, 30.62045
505.6812, 30.56832
506.1633, 30.45202
506.6454, 30.17593
507.1276, 29.94897
507.6097, 29.83081
508.0918, 29.81604
508.5739, 29.92115
509.0560, 30.14664
509.5381, 30.40770
510.0203, 30.57987
510.5024, 30.67600
510.9845, 30.63889
511.4666, 30.26822
511.9487, 29.96301
512.4308, 29.95817
512.9130, 30.12480
513.3951, 30.17705
513.8772, 29.94160
514.3593, 29.60781
514.8414, 29.55358
515.3235, 29.82338
515.8057, 30.03154
516.2878, 30.07170
516.7699, 30.03897
517.2520, 30.02697
517.7341, 30.02682
518.2162, 29.96943
518.6984, 29.71927
519.1805, 29.45635
519.6626, 29.44362
520.1447, 29.66859
520.6268, 29.92633
521.1089, 30.16168
521.5911, 30.32235
522.0732, 30.24820
522.5553, 29.85645
523.0374, 29.52175
523.5195, 29.27331
524.0016, 29.13077
524.4838, 29.14611
524.9659, 29.29832
525.4480, 29.50854
525.9301, 29.73517
526.4122, 29.95088
526.8943, 30.00837
527.3765, 29.72091
527.8586, 29.54030
528.3407, 29.57686
528.8228, 29.67840
529.3049, 29.75394
529.7870, 29.77409
530.2692, 29.71329
530.7513, 29.51899
531.2334, 29.22102
531.7155, 28.96413
532.1976, 28.67349
532.6797, 28.60321
533.1619, 29.12784
533.6440, 29.79853
534.1261, 30.16040
534.6082, 30.12711
535.0903, 29.94173
535.5724, 29.65318
536.0546, 29.34715
536.5367, 29.24734
537.0188, 29.39613
537.5009, 29.53706
537.9830, 29.46559
538.4651, 29.22598
538.9473, 29.08017
539.4294, 29.06414
539.9115, 29.08597
540.3936, 29.12119
540.8757, 29.17955
541.3578, 29.31884
541.8400, 29.52841
542.3221, 29.66198
542.8042, 29.55055
543.2863, 29.18878
543.7684, 28.91390
544.2505, 28.72762
544.7326, 28.63847
545.2147, 28.69769
545.6968, 28.83013
546.1790, 28.96434
546.6611, 29.07969
547.1432, 29.18184
547.6253, 29.31911
548.1074, 29.47489
548.5895, 29.40202
549.0717, 28.94194
549.5538, 28.57488
550.0359, 28.73211
550.5180, 29.13022
551.0001, 29.34689
551.4822, 29.26551
551.9644, 29.11508
552.4465, 28.96978
552.9286, 28.87028
553.4107, 28.95583
553.8928, 29.25862
554.3749, 29.51682
554.8571, 29.46694
555.3392, 29.12039
555.8213, 28.93807
556.3034, 29.01958
556.7855, 29.11718
557.2676, 29.19214
557.7498, 29.23691
558.2319, 29.23165
558.7140, 29.17868
559.1961, 29.12026
559.6782, 29.10314
560.1603, 29.12778
560.6425, 29.16372
561.1246, 29.29843
561.6067, 29.30772
562.0888, 29.00279
562.5709, 28.61112
563.0530, 28.40989
563.5352, 28.47077
564.0173, 28.57605
564.4994, 28.53340
564.9815, 28.38567
565.4636, 28.23412
565.9457, 28.05725
566.4279, 28.05716
566.9100, 28.51355
567.3921, 29.23115
567.8742, 29.52099
568.3563, 29.14501
568.8384, 28.74331
569.3206, 28.46575
569.8027, 28.31417
570.2848, 28.32205
570.7669, 28.47642
571.2490, 28.69399
571.7311, 28.92261
572.2133, 29.14608
572.6954, 29.17046
573.1775, 28.72895
573.6596, 28.45517
574.1417, 28.53426
574.6238, 28.73517
575.1060, 28.89557
575.5881, 28.97555
576.0702, 28.96739
576.5523, 28.83479
577.0344, 28.61164
577.5165, 28.40911
577.9987, 28.21537
578.4808, 28.09774
578.9629, 28.12271
579.4450, 28.21869
579.9271, 28.28650
580.4092, 28.32294
580.8914, 28.34337
581.3735, 28.33882
581.8556, 28.33032
582.3377, 28.36294
582.8198, 28.42393
583.3019, 28.42058
583.7841, 28.28398
584.2662, 28.08561
584.7483, 28.02301
585.2304, 28.18195
585.7125, 28.34327
586.1946, 28.52494
586.6768, 28.69368
587.1589, 28.87546
587.6410, 29.02712
588.1231, 29.03428
588.6052, 28.80787
589.0873, 28.47070
589.5695, 28.27392
590.0516, 28.22722
