##NAMES=Arsenuranospathite
##RRUFFID=R100008
##IDEAL CHEMISTRY=Al(U^6+^O_2_)_2_(As^5+^O_4_)_2_F&#183;20H_2_O
##LOCALITY=Krunkelbach valley, Menzenschwand, Schwarzwald, Germany
##OWNER=RRUFF
##SOURCE=William Pinch
##DESCRIPTION=Blocky aggregates of yellowish-brown platy crystals, cell parameters are consistent with a partially dehydrated sample
##STATUS=The identification of this mineral has been confirmed by single-crystal X-ray diffraction.
##URL=rruff.info/R100008
89.60352, 87.02537
90.08563, 86.87233
90.56775, 86.82368
91.04987, 86.83389
91.53198, 86.99241
92.01410, 87.50265
92.49622, 88.34901
92.97833, 89.21447
93.46045, 89.86934
93.94257, 90.32192
94.42468, 90.57897
94.90680, 90.48003
95.38892, 90.18719
95.87103, 90.25703
96.35315, 90.74686
96.83527, 91.36938
97.31738, 91.68796
97.79950, 91.69093
98.28162, 91.83268
98.76373, 92.49873
99.24585, 93.71824
99.72797, 94.34766
100.2101, 94.15366
100.6922, 93.56064
101.1743, 93.61250
101.6564, 94.49776
102.1385, 95.51645
102.6207, 96.26208
103.1028, 96.62136
103.5849, 97.04115
104.0670, 97.56819
104.5491, 98.19089
105.0313, 98.83227
105.5134, 99.57582
105.9955, 100.2577
106.4776, 100.7497
106.9597, 100.8906
107.4418, 101.0647
107.9240, 101.3610
108.4061, 101.8104
108.8882, 102.1405
109.3703, 102.2171
109.8524, 102.2252
110.3345, 102.3584
110.8167, 102.5981
111.2988, 102.9829
111.7809, 103.5527
112.2630, 104.3805
112.7451, 105.1817
113.2272, 105.9160
113.7094, 106.5978
114.1915, 107.2625
114.6736, 107.6259
115.1557, 108.1757
115.6378, 109.1864
116.1199, 110.9864
116.6021, 112.7809
117.0842, 114.1754
117.5663, 115.3297
118.0484, 116.7234
118.5305, 118.2076
119.0126, 120.1873
119.4948, 122.9622
119.9769, 126.4732
120.4590, 130.9686
120.9411, 136.3950
121.4232, 142.8173
121.9053, 150.6137
122.3875, 160.2712
122.8696, 171.4044
123.3517, 183.4783
123.8338, 195.7774
124.3159, 209.2434
124.7980, 224.5229
125.2802, 241.6647
125.7623, 260.8973
126.2444, 282.2067
126.7265, 305.7327
127.2086, 331.8467
127.6907, 359.8040
128.1729, 390.5931
128.6550, 425.8459
129.1371, 465.6283
129.6192, 510.5063
130.1013, 561.6487
130.5834, 618.6866
131.0656, 682.4046
131.5477, 753.8074
132.0298, 832.4195
132.5119, 916.3751
132.9940, 1007.118
133.4761, 1101.102
133.9583, 1196.138
134.4404, 1292.408
134.9225, 1388.108
135.4046, 1482.654
135.8867, 1576.612
136.3688, 1662.762
136.8510, 1739.735
137.3331, 1807.800
137.8152, 1872.029
138.2973, 1930.900
138.7794, 1990.645
139.2615, 2056.993
139.7437, 2129.519
140.2258, 2207.567
140.7079, 2290.838
141.1900, 2379.144
141.6721, 2475.680
142.1542, 2580.235
142.6364, 2692.609
143.1185, 2813.287
143.6006, 2943.347
144.0827, 3077.691
144.5648, 3215.353
145.0469, 3359.810
145.5291, 3497.108
146.0112, 3628.147
146.4933, 3753.176
146.9754, 3875.230
147.4575, 3994.737
147.9396, 4109.085
148.4218, 4218.750
148.9039, 4322.964
149.3860, 4422.483
149.8681, 4516.643
150.3502, 4604.893
150.8323, 4686.473
151.3145, 4758.141
151.7966, 4825.025
152.2787, 4889.065
152.7608, 4946.599
153.2429, 5006.330
153.7250, 5069.491
154.2072, 5135.330
154.6893, 5201.750
155.1714, 5245.819
155.6535, 5263.200
156.1356, 5287.163
156.6177, 5327.749
157.0999, 5370.035
157.5820, 5409.963
158.0641, 5448.961
158.5462, 5492.971
159.0283, 5544.539
159.5104, 5600.890
159.9926, 5660.197
160.4747, 5725.577
160.9568, 5790.344
161.4389, 5854.013
161.9210, 5915.451
162.4031, 5972.701
162.8853, 6022.640
163.3674, 6068.409
163.8495, 6112.873
164.3316, 6159.354
164.8137, 6202.690
165.2958, 6240.025
165.7780, 6271.505
166.2601, 6299.296
166.7422, 6324.359
167.2243, 6346.840
167.7064, 6366.622
168.1885, 6383.521
168.6707, 6398.074
169.1528, 6410.123
169.6349, 6419.617
170.1170, 6428.533
170.5991, 6437.806
171.0812, 6447.629
171.5634, 6458.162
172.0455, 6470.459
172.5276, 6483.125
173.0097, 6494.058
173.4918, 6502.749
173.9739, 6512.716
174.4561, 6528.122
174.9382, 6547.404
175.4203, 6566.886
175.9024, 6585.868
176.3845, 6603.384
176.8666, 6617.086
177.3488, 6625.896
177.8309, 6634.361
178.3130, 6648.931
178.7951, 6668.013
179.2772, 6685.117
179.7593, 6693.921
180.2415, 6698.642
180.7236, 6708.110
181.2057, 6724.360
181.6878, 6743.214
182.1699, 6761.099
182.6520, 6777.407
183.1342, 6790.350
183.6163, 6796.247
184.0984, 6797.446
184.5805, 6801.144
185.0626, 6809.569
185.5447, 6818.907
186.0269, 6822.084
186.5090, 6819.251
186.9911, 6815.606
187.4732, 6814.907
187.9553, 6816.578
188.4374, 6818.186
188.9196, 6819.689
189.4017, 6820.531
189.8838, 6819.286
190.3659, 6815.901
190.8480, 6811.735
191.3301, 6808.436
191.8123, 6805.742
192.2944, 6800.667
192.7765, 6792.056
193.2586, 6781.146
193.7407, 6771.256
194.2228, 6762.317
194.7050, 6755.161
195.1871, 6751.525
195.6692, 6751.382
196.1513, 6749.893
196.6334, 6745.698
197.1155, 6739.500
197.5977, 6733.768
198.0798, 6728.471
198.5619, 6723.674
199.0440, 6718.995
199.5261, 6714.222
200.0082, 6711.894
200.4904, 6713.695
200.9725, 6718.557
201.4546, 6719.597
201.9367, 6716.287
202.4188, 6710.458
202.9009, 6703.379
203.3831, 6694.668
203.8652, 6686.739
204.3473, 6680.077
204.8294, 6674.646
205.3115, 6670.468
205.7936, 6667.897
206.2758, 6665.861
206.7579, 6663.530
207.2400, 6661.213
207.7221, 6657.522
208.2042, 6651.784
208.6863, 6644.077
209.1685, 6637.094
209.6506, 6630.818
210.1327, 6625.394
210.6148, 6620.920
211.0969, 6617.430
211.5790, 6615.226
212.0612, 6614.781
212.5433, 6616.159
213.0254, 6616.720
213.5075, 6615.945
213.9896, 6614.952
214.4717, 6615.628
214.9538, 6619.383
215.4360, 6620.624
215.9181, 6616.644
216.4002, 6606.836
216.8823, 6601.556
217.3644, 6602.938
217.8465, 6606.335
218.3287, 6605.460
218.8108, 6597.756
219.2929, 6591.618
219.7750, 6589.624
220.2571, 6592.353
220.7392, 6594.274
221.2214, 6595.741
221.7035, 6596.145
222.1856, 6594.435
222.6677, 6589.539
223.1498, 6584.894
223.6319, 6581.649
224.1141, 6580.001
224.5962, 6577.723
225.0783, 6574.163
225.5604, 6570.542
226.0425, 6568.349
226.5246, 6567.500
227.0068, 6568.312
227.4889, 6571.500
227.9710, 6577.806
228.4531, 6581.700
228.9352, 6583.067
229.4173, 6582.089
229.8995, 6578.563
230.3816, 6570.345
230.8637, 6563.395
231.3458, 6559.970
231.8279, 6560.916
232.3100, 6559.433
232.7922, 6554.112
233.2743, 6547.571
233.7564, 6542.866
234.2385, 6539.442
234.7206, 6539.084
235.2027, 6543.423
235.6849, 6553.787
236.1670, 6560.323
236.6491, 6562.129
237.1312, 6560.912
237.6133, 6558.466
238.0954, 6553.298
238.5776, 6549.492
239.0597, 6548.443
239.5418, 6550.662
240.0239, 6552.042
240.5060, 6552.484
240.9881, 6552.177
241.4703, 6551.284
241.9524, 6549.470
242.4345, 6547.698
242.9166, 6546.034
243.3987, 6544.354
243.8808, 6544.145
244.3630, 6546.771
244.8451, 6549.758
245.3272, 6549.577
245.8093, 6542.761
246.2914, 6539.313
246.7735, 6542.953
247.2557, 6554.843
247.7378, 6561.552
248.2199, 6560.165
248.7020, 6556.389
249.1841, 6556.828
249.6662, 6564.171
250.1484, 6570.166
250.6305, 6572.569
251.1126, 6571.055
251.5947, 6569.923
252.0768, 6568.502
252.5589, 6567.997
253.0411, 6570.315
253.5232, 6577.972
254.0053, 6582.749
254.4874, 6582.177
254.9695, 6576.153
255.4516, 6571.753
255.9338, 6569.344
256.4159, 6568.283
256.8980, 6568.203
257.3801, 6569.732
257.8622, 6571.248
258.3444, 6573.234
258.8265, 6575.661
259.3086, 6574.292
259.7907, 6567.422
260.2728, 6559.517
260.7549, 6554.241
261.2371, 6551.389
261.7192, 6551.938
262.2013, 6557.425
262.6834, 6567.114
263.1655, 6572.429
263.6476, 6570.940
264.1298, 6569.070
264.6119, 6572.801
265.0940, 6584.629
265.5761, 6593.095
266.0582, 6595.532
266.5403, 6593.011
267.0225, 6592.213
267.5046, 6594.055
267.9867, 6595.527
268.4688, 6593.745
268.9509, 6587.363
269.4330, 6583.415
269.9152, 6583.307
270.3973, 6586.095
270.8794, 6588.078
271.3615, 6589.078
271.8436, 6589.779
272.3257, 6590.968
272.8079, 6593.019
273.2900, 6593.200
273.7721, 6590.592
274.2542, 6586.497
274.7363, 6584.651
275.2184, 6585.425
275.7006, 6587.373
276.1827, 6590.346
276.6648, 6594.673
277.1469, 6596.748
277.6290, 6595.719
278.1111, 6593.054
278.5933, 6591.493
279.0754, 6590.845
279.5575, 6592.214
280.0396, 6598.134
280.5217, 6608.559
281.0038, 6612.484
281.4860, 6607.623
281.9681, 6599.072
282.4502, 6596.343
282.9323, 6599.760
283.4144, 6603.272
283.8965, 6603.095
284.3787, 6599.700
284.8608, 6599.055
285.3429, 6601.670
285.8250, 6605.962
286.3071, 6609.703
286.7892, 6612.944
287.2714, 6616.705
287.7535, 6622.817
288.2356, 6630.378
288.7177, 6633.621
289.1998, 6632.330
289.6819, 6628.514
290.1641, 6622.607
290.6462, 6615.269
291.1283, 6611.690
291.6104, 6616.196
292.0925, 6625.628
292.5746, 6630.520
293.0568, 6630.685
293.5389, 6629.011
294.0210, 6626.813
294.5031, 6624.805
294.9852, 6626.135
295.4673, 6633.646
295.9495, 6644.004
296.4316, 6650.130
296.9137, 6652.086
297.3958, 6653.682
297.8779, 6658.576
298.3600, 6665.518
298.8422, 6671.540
299.3243, 6675.563
299.8064, 6678.583
300.2885, 6681.856
300.7706, 6685.357
301.2527, 6689.067
301.7349, 6693.507
302.2170, 6698.036
302.6991, 6701.110
303.1812, 6701.494
303.6633, 6702.155
304.1454, 6707.021
304.6276, 6715.108
305.1097, 6723.000
305.5918, 6728.450
306.0739, 6732.586
306.5560, 6736.743
307.0381, 6741.387
307.5203, 6745.414
308.0024, 6747.107
308.4845, 6747.432
308.9666, 6748.647
309.4487, 6752.836
309.9308, 6757.901
310.4130, 6761.899
310.8951, 6764.455
311.3772, 6767.088
311.8593, 6770.102
312.3414, 6773.923
312.8235, 6779.229
313.3057, 6788.540
313.7878, 6797.774
314.2699, 6803.553
314.7520, 6805.435
315.2341, 6808.805
315.7162, 6817.500
316.1984, 6828.567
316.6805, 6838.594
317.1626, 6847.406
317.6447, 6854.197
318.1268, 6858.314
318.6089, 6859.880
319.0911, 6860.248
319.5732, 6859.563
320.0553, 6858.070
320.5374, 6855.988
321.0195, 6848.794
321.5016, 6845.964
321.9838, 6853.596
322.4659, 6868.943
322.9480, 6878.497
323.4301, 6875.378
323.9122, 6868.833
324.3943, 6863.565
324.8765, 6858.350
325.3586, 6856.736
325.8407, 6862.668
326.3228, 6872.542
326.8049, 6877.286
327.2870, 6869.938
327.7692, 6862.786
328.2513, 6860.006
328.7334, 6863.108
329.2155, 6867.199
329.6976, 6874.344
330.1797, 6881.794
330.6619, 6884.929
331.1440, 6879.272
331.6261, 6875.329
332.1082, 6876.327
332.5903, 6883.068
333.0724, 6889.216
333.5546, 6895.709
334.0367, 6900.789
334.5188, 6901.967
335.0009, 6896.815
335.4830, 6893.373
335.9651, 6893.890
336.4473, 6897.921
336.9294, 6899.331
337.4115, 6896.552
337.8936, 6894.296
338.3757, 6896.962
338.8578, 6905.812
339.3399, 6913.767
339.8221, 6920.203
340.3042, 6925.111
340.7863, 6927.321
341.2684, 6926.279
341.7505, 6925.782
342.2326, 6928.632
342.7148, 6934.789
343.1969, 6940.390
343.6790, 6945.166
344.1611, 6949.081
344.6432, 6950.372
345.1253, 6949.028
345.6075, 6951.063
346.0896, 6962.344
346.5717, 6979.915
347.0538, 6989.904
347.5359, 6991.126
348.0180, 6990.251
348.5002, 6996.188
348.9823, 7007.102
349.4644, 7015.554
349.9465, 7018.412
350.4286, 7017.478
350.9107, 7015.116
351.3929, 7011.503
351.8750, 7008.125
352.3571, 7005.915
352.8392, 7005.063
353.3213, 7005.828
353.8034, 7008.540
354.2856, 7012.892
354.7677, 7020.004
355.2498, 7029.055
355.7319, 7036.623
356.2140, 7037.976
356.6961, 7037.989
357.1783, 7041.938
357.6604, 7051.627
358.1425, 7062.071
358.6246, 7069.942
359.1067, 7076.197
359.5888, 7082.893
360.0710, 7091.713
360.5531, 7100.385
361.0352, 7107.937
361.5173, 7114.320
361.9994, 7118.807
362.4815, 7119.596
362.9637, 7118.952
363.4458, 7119.318
363.9279, 7123.303
364.4100, 7126.552
364.8921, 7126.261
365.3742, 7122.936
365.8564, 7123.273
366.3385, 7133.612
366.8206, 7144.577
367.3027, 7150.539
367.7848, 7147.086
368.2669, 7143.442
368.7491, 7138.391
369.2312, 7133.440
369.7133, 7133.253
370.1954, 7142.278
370.6775, 7151.479
371.1596, 7157.506
371.6418, 7159.602
372.1239, 7161.088
372.6060, 7161.439
373.0881, 7161.694
373.5702, 7162.909
374.0523, 7164.015
374.5345, 7168.692
375.0166, 7178.948
375.4987, 7194.648
375.9808, 7207.783
376.4629, 7217.826
376.9450, 7226.183
377.4272, 7234.222
377.9093, 7241.857
378.3914, 7248.840
378.8735, 7255.203
379.3556, 7260.693
379.8377, 7264.072
380.3199, 7265.022
380.8020, 7267.268
381.2841, 7275.042
381.7662, 7286.982
382.2483, 7295.245
382.7304, 7299.244
383.2126, 7299.826
383.6947, 7295.677
384.1768, 7288.229
384.6589, 7284.250
385.1410, 7289.249
385.6231, 7298.964
386.1053, 7306.413
386.5874, 7311.456
387.0695, 7315.774
387.5516, 7320.613
388.0337, 7325.766
388.5158, 7330.931
388.9980, 7336.962
389.4801, 7341.937
389.9622, 7342.702
390.4443, 7340.393
390.9264, 7339.854
391.4085, 7345.147
391.8907, 7352.499
392.3728, 7358.756
392.8549, 7362.625
393.3370, 7366.997
393.8191, 7373.450
394.3012, 7381.075
394.7834, 7388.355
395.2655, 7394.316
395.7476, 7400.235
396.2297, 7407.335
396.7118, 7416.134
397.1939, 7421.930
397.6761, 7420.622
398.1582, 7417.705
398.6403, 7417.771
399.1224, 7425.989
399.6045, 7431.492
400.0866, 7431.102
400.5688, 7426.413
401.0509, 7426.981
401.5330, 7437.297
402.0151, 7447.622
402.4972, 7452.802
402.9793, 7449.408
403.4615, 7450.350
403.9436, 7457.260
404.4257, 7467.190
404.9078, 7475.585
405.3899, 7483.026
405.8720, 7486.563
406.3542, 7482.829
406.8363, 7472.818
407.3184, 7471.779
407.8005, 7481.068
408.2826, 7493.118
408.7647, 7500.783
409.2469, 7504.259
409.7290, 7507.029
410.2111, 7508.942
410.6932, 7511.615
411.1753, 7519.953
411.6574, 7533.253
412.1396, 7545.019
412.6217, 7550.505
413.1038, 7551.741
413.5859, 7551.766
414.0680, 7550.526
414.5501, 7550.610
415.0323, 7555.053
415.5144, 7562.554
415.9965, 7570.653
416.4786, 7579.018
416.9607, 7586.808
417.4428, 7593.883
417.9250, 7599.963
418.4071, 7603.866
418.8892, 7601.012
419.3713, 7597.627
419.8534, 7599.279
420.3355, 7610.367
420.8177, 7621.368
421.2998, 7631.893
421.7819, 7640.222
422.2640, 7642.849
422.7461, 7630.251
423.2282, 7619.859
423.7104, 7618.991
424.1925, 7630.943
424.6746, 7641.104
425.1567, 7647.501
425.6388, 7652.876
426.1209, 7659.658
426.6031, 7668.088
427.0852, 7677.425
427.5673, 7688.235
428.0494, 7699.866
428.5315, 7708.468
429.0136, 7712.708
429.4958, 7715.988
429.9779, 7720.332
430.4600, 7726.094
430.9421, 7729.182
431.4242, 7728.493
431.9063, 7726.859
432.3885, 7728.813
432.8706, 7734.401
433.3527, 7740.985
433.8348, 7748.908
434.3169, 7756.937
434.7990, 7760.034
435.2812, 7758.261
435.7633, 7756.873
436.2454, 7761.540
436.7275, 7769.959
437.2096, 7776.804
437.6917, 7780.968
438.1739, 7783.600
438.6560, 7784.442
439.1381, 7784.567
439.6202, 7786.799
440.1023, 7795.121
440.5844, 7804.491
441.0666, 7810.398
441.5487, 7812.384
442.0308, 7814.757
442.5129, 7820.305
442.9950, 7827.003
443.4771, 7832.912
443.9593, 7836.910
444.4414, 7840.648
444.9235, 7843.450
445.4056, 7846.021
445.8877, 7851.048
446.3698, 7861.566
446.8520, 7872.109
447.3341, 7880.214
447.8162, 7884.424
448.2983, 7890.000
448.7804, 7898.233
449.2625, 7906.729
449.7447, 7912.691
450.2268, 7915.806
450.7089, 7916.910
451.1910, 7914.979
451.6731, 7911.170
452.1552, 7912.239
452.6374, 7919.516
453.1195, 7927.109
453.6016, 7930.648
454.0837, 7930.374
454.5658, 7932.770
455.0479, 7938.857
455.5301, 7946.119
456.0122, 7951.132
456.4943, 7954.161
456.9764, 7956.135
457.4585, 7956.377
457.9406, 7956.415
458.4228, 7959.477
458.9049, 7965.195
459.3870, 7970.515
459.8691, 7971.170
460.3512, 7970.799
460.8333, 7974.195
461.3155, 7983.127
461.7976, 7993.392
462.2797, 8003.872
462.7618, 8013.619
463.2439, 8020.807
463.7260, 8022.444
464.2082, 8023.465
464.6903, 8026.601
465.1724, 8031.955
465.6545, 8035.475
466.1366, 8034.275
466.6187, 8032.360
467.1009, 8032.346
467.5830, 8035.843
468.0651, 8039.397
468.5472, 8042.875
469.0293, 8046.448
469.5114, 8050.436
469.9936, 8054.618
470.4757, 8059.717
470.9578, 8066.748
471.4399, 8075.640
471.9220, 8080.493
472.4041, 8080.341
472.8863, 8078.751
473.3684, 8078.318
473.8505, 8079.022
474.3326, 8081.811
474.8147, 8087.625
475.2968, 8093.951
475.7790, 8095.040
476.2611, 8091.862
476.7432, 8090.867
477.2253, 8097.740
477.7074, 8107.942
478.1895, 8114.370
478.6717, 8116.917
479.1538, 8117.854
479.6359, 8118.099
480.1180, 8118.088
480.6001, 8118.257
481.0822, 8118.202
481.5644, 8119.377
482.0465, 8122.921
482.5286, 8128.315
483.0107, 8134.380
483.4928, 8142.735
483.9749, 8149.971
484.4571, 8153.961
484.9392, 8153.986
485.4213, 8155.575
485.9034, 8159.115
486.3855, 8164.266
486.8676, 8170.976
487.3498, 8180.578
487.8319, 8188.938
488.3140, 8195.432
488.7961, 8200.458
489.2782, 8205.056
489.7603, 8209.217
490.2425, 8212.553
490.7246, 8214.871
491.2067, 8216.225
491.6888, 8216.598
492.1709, 8215.911
492.6530, 8215.343
493.1352, 8217.415
493.6173, 8221.050
494.0994, 8220.831
494.5815, 8214.950
495.0636, 8207.298
495.5457, 8202.063
496.0279, 8199.229
496.5100, 8198.541
496.9921, 8200.397
497.4742, 8204.018
497.9563, 8208.694
498.4384, 8214.415
498.9206, 8221.296
499.4027, 8231.651
499.8848, 8241.838
500.3669, 8248.824
500.8490, 8248.959
501.3311, 8250.572
501.8133, 8257.808
502.2954, 8267.302
502.7775, 8272.754
503.2596, 8269.149
503.7417, 8266.473
504.2238, 8266.637
504.7060, 8269.559
505.1881, 8274.692
505.6702, 8284.057
506.1523, 8292.177
506.6344, 8294.185
507.1165, 8288.713
507.5987, 8287.257
508.0808, 8291.354
508.5629, 8297.983
509.0450, 8303.112
509.5271, 8306.786
510.0092, 8308.931
510.4914, 8308.393
510.9735, 8307.187
511.4556, 8310.403
511.9377, 8317.495
512.4199, 8323.621
512.9020, 8323.472
513.3841, 8321.350
513.8662, 8323.116
514.3483, 8330.437
514.8304, 8337.210
515.3126, 8338.133
515.7947, 8336.659
516.2768, 8337.213
516.7589, 8344.127
517.2410, 8349.935
517.7231, 8351.249
518.2053, 8349.055
518.6874, 8348.466
519.1695, 8353.223
519.6516, 8356.721
520.1337, 8355.949
520.6158, 8349.238
521.0980, 8346.205
521.5801, 8348.118
522.0622, 8352.292
522.5443, 8356.260
523.0264, 8360.053
523.5085, 8364.043
523.9907, 8368.537
524.4728, 8373.041
524.9549, 8375.823
525.4370, 8377.035
525.9191, 8379.568
526.4012, 8388.109
526.8834, 8398.341
527.3655, 8398.824
527.8476, 8389.726
528.3297, 8380.884
528.8118, 8379.925
529.2939, 8383.740
529.7761, 8389.059
530.2582, 8396.191
530.7403, 8401.900
531.2224, 8401.892
531.7045, 8399.568
532.1866, 8400.549
532.6688, 8410.609
533.1509, 8419.754
533.6330, 8424.110
534.1151, 8423.735
534.5972, 8425.137
535.0793, 8431.016
535.5615, 8435.881
536.0436, 8436.986
536.5257, 8433.457
537.0078, 8428.933
537.4899, 8421.988
537.9720, 8416.572
538.4542, 8420.826
538.9363, 8435.958
539.4184, 8441.686
539.9005, 8430.370
540.3826, 8410.931
540.8647, 8402.494
541.3469, 8404.073
541.8290, 8407.665
542.3111, 8409.829
542.7932, 8410.781
543.2753, 8409.756
543.7574, 8406.762
544.2396, 8405.652
544.7217, 8410.935
545.2038, 8418.373
545.6859, 8423.559
546.1680, 8424.108
546.6501, 8424.549
547.1323, 8427.188
547.6144, 8430.443
548.0965, 8431.652
548.5786, 8426.696
549.0607, 8423.786
549.5428, 8425.838
550.0250, 8432.155
550.5071, 8434.832
550.9892, 8431.821
551.4713, 8429.030
551.9534, 8430.877
552.4355, 8438.384
552.9177, 8439.573
553.3998, 8433.033
553.8819, 8424.618
554.3640, 8421.401
554.8461, 8422.590
555.3282, 8423.826
555.8104, 8424.121
556.2925, 8423.777
556.7746, 8422.986
557.2567, 8421.854
557.7388, 8420.728
558.2209, 8419.677
558.7031, 8418.831
559.1852, 8418.850
559.6673, 8419.673
560.1494, 8419.235
560.6315, 8415.004
561.1136, 8410.490
561.5958, 8408.096
562.0779, 8409.341
562.5600, 8410.504
563.0421, 8411.360
563.5242, 8412.008
564.0063, 8412.506
564.4885, 8412.662
564.9706, 8412.784
565.4527, 8412.483
565.9348, 8412.172
566.4169, 8413.897
566.8990, 8417.848
567.3812, 8421.230
567.8633, 8421.457
568.3454, 8419.783
568.8275, 8422.306
569.3096, 8429.153
569.7917, 8434.348
570.2739, 8430.855
570.7560, 8422.956
571.2381, 8417.207
571.7202, 8415.390
572.2023, 8414.723
572.6844, 8414.792
573.1666, 8414.663
573.6487, 8412.882
574.1308, 8407.097
574.6129, 8401.771
575.0950, 8398.746
575.5771, 8397.621
576.0593, 8395.403
576.5414, 8390.459
577.0235, 8386.325
577.5056, 8384.325
577.9877, 8384.589
578.4698, 8385.260
578.9520, 8386.162
579.4341, 8387.685
579.9162, 8391.678
580.3983, 8397.649
580.8804, 8397.852
581.3625, 8389.949
581.8447, 8379.718
582.3268, 8375.536
582.8089, 8375.663
583.2910, 8374.845
583.7731, 8368.768
584.2552, 8362.938
