##NAMES=Arseniosiderite
##RRUFFID=R150062
##IDEAL CHEMISTRY=Ca_2_Fe^3+^_3_O_2_(As^5+^O_4_)_3_&#183;3H_2_O
##LOCALITY=Benjamin Hill, Sonora, Mexico
##OWNER=RRUFF
##SOURCE=Michael Scott
##DESCRIPTION=Dark red platy crystals, associated with yellow tan colored granular aggregates of beudantite,  euhedral red sewardite and quartz
##STATUS=The identification of this mineral has been confirmed only by single crystal X-ray diffraction.
##URL=rruff.info/R150062
90.59570, 180.8050
91.07782, 174.2578
91.55994, 171.9384
92.04205, 177.0804
92.52417, 184.2509
93.00629, 191.7066
93.48840, 197.7954
93.97052, 201.0889
94.45264, 200.8880
94.93475, 199.8508
95.41687, 197.9727
95.89898, 195.0145
96.38110, 191.7587
96.86321, 188.8731
97.34533, 186.4998
97.82745, 184.1534
98.30956, 182.0189
98.79168, 179.5537
99.27380, 177.8576
99.75591, 177.0967
100.2380, 177.2029
100.7201, 178.1501
101.2023, 180.0167
101.6844, 182.7775
102.1665, 185.7924
102.6486, 189.5824
103.1307, 193.2869
103.6128, 196.0081
104.0950, 197.6366
104.5771, 198.9374
105.0592, 200.3088
105.5413, 201.6591
106.0234, 202.8215
106.5055, 203.4233
106.9877, 203.7216
107.4698, 204.7983
107.9519, 206.7801
108.4340, 209.5008
108.9161, 212.8552
109.3982, 216.8065
109.8804, 221.2780
110.3625, 226.3761
110.8446, 232.2989
111.3267, 237.6700
111.8088, 242.7189
112.2909, 247.1218
112.7731, 250.6818
113.2552, 253.3719
113.7373, 255.3418
114.2194, 256.7694
114.7015, 257.5211
115.1836, 257.8423
115.6658, 257.4481
116.1479, 256.7777
116.6300, 256.1591
117.1121, 255.6896
117.5942, 255.4758
118.0763, 255.8464
118.5584, 256.8294
119.0406, 258.1246
119.5227, 259.6717
120.0048, 261.4658
120.4869, 263.5862
120.9690, 266.2972
121.4511, 269.1482
121.9333, 271.4352
122.4154, 273.3523
122.8975, 274.3832
123.3796, 273.7553
123.8617, 271.2923
124.3438, 268.6572
124.8260, 265.9717
125.3081, 263.7688
125.7902, 262.7289
126.2723, 263.2827
126.7544, 264.9072
127.2365, 266.4873
127.7187, 268.1076
128.2008, 269.5240
128.6829, 270.9621
129.1650, 272.1495
129.6471, 272.7391
130.1292, 272.5251
130.6114, 271.5182
131.0935, 269.8360
131.5756, 266.6251
132.0577, 263.5086
132.5398, 260.7216
133.0219, 258.3445
133.5041, 256.4259
133.9862, 254.9898
134.4683, 254.0404
134.9504, 253.7263
135.4325, 254.1640
135.9146, 254.9949
136.3968, 255.8549
136.8789, 256.7668
137.3610, 258.2355
137.8431, 260.9243
138.3252, 265.1320
138.8073, 269.3363
139.2895, 273.2681
139.7716, 277.2397
140.2537, 281.7226
140.7358, 286.8842
141.2179, 292.2277
141.7000, 297.0650
142.1821, 301.4399
142.6643, 305.7396
143.1464, 310.1474
143.6285, 314.6085
144.1106, 318.8966
144.5927, 322.6756
145.0748, 326.6200
145.5570, 331.1276
146.0391, 336.2061
146.5212, 342.0114
147.0033, 348.8247
147.4854, 356.7403
147.9675, 364.8553
148.4497, 373.7084
148.9318, 382.3403
149.4139, 390.6122
149.8960, 398.3722
150.3781, 404.9430
150.8602, 409.4295
151.3424, 412.2878
151.8245, 411.6508
152.3066, 406.5094
152.7887, 399.1202
153.2708, 390.9657
153.7529, 382.6808
154.2351, 374.1720
154.7172, 365.1927
155.1993, 354.3273
155.6814, 344.8106
156.1635, 336.7238
156.6456, 330.0446
157.1278, 324.9638
157.6099, 321.6197
158.0920, 319.6830
158.5741, 317.8322
159.0562, 316.0326
159.5383, 314.3345
160.0205, 312.4080
160.5026, 310.5647
160.9847, 309.5762
161.4668, 310.0081
161.9489, 311.6161
162.4310, 313.0512
162.9131, 314.1599
163.3953, 315.2519
163.8774, 316.6261
164.3595, 318.2363
164.8416, 319.5798
165.3237, 320.2295
165.8058, 320.3973
166.2880, 320.5936
166.7701, 320.6105
167.2522, 320.8851
167.7343, 322.0108
168.2164, 324.1163
168.6985, 326.4540
169.1807, 328.6539
169.6628, 330.7977
170.1449, 333.0363
170.6270, 335.5815
171.1091, 338.1534
171.5912, 340.2542
172.0734, 342.3268
172.5555, 342.9308
173.0376, 341.3515
173.5197, 338.2901
174.0018, 334.6587
174.4839, 330.9149
174.9661, 327.0599
175.4482, 323.1244
175.9303, 318.8350
176.4124, 314.7880
176.8945, 311.1784
177.3766, 307.9178
177.8588, 304.8739
178.3409, 301.9315
178.8230, 299.0845
179.3051, 296.4884
179.7872, 294.2154
180.2693, 292.1122
180.7515, 290.2004
181.2336, 288.4340
181.7157, 286.7302
182.1978, 284.9947
182.6799, 283.1918
183.1620, 281.7570
183.6441, 281.1205
184.1263, 280.3864
184.6084, 279.0179
185.0905, 277.0725
185.5726, 275.0100
186.0547, 273.2079
186.5368, 271.6940
187.0190, 270.6094
187.5011, 269.6311
187.9832, 269.2787
188.4653, 270.0099
188.9474, 271.8560
189.4296, 274.4328
189.9117, 277.5366
190.3938, 281.1596
190.8759, 284.8895
191.3580, 288.7302
191.8401, 292.6200
192.3223, 296.5224
192.8044, 300.4476
193.2865, 304.3446
193.7686, 307.8614
194.2507, 311.2101
194.7328, 315.2571
195.2150, 320.3949
195.6971, 326.4005
196.1792, 332.8318
196.6613, 339.5830
197.1434, 346.9698
197.6255, 355.3853
198.1077, 364.6067
198.5898, 373.9656
199.0719, 383.6581
199.5540, 393.3908
200.0361, 401.9587
200.5182, 409.9954
201.0004, 415.6436
201.4825, 418.9477
201.9646, 419.5920
202.4467, 416.7957
202.9288, 410.0343
203.4109, 399.3415
203.8930, 385.0721
204.3752, 364.3816
204.8573, 342.7923
205.3394, 321.5251
205.8215, 301.0945
206.3036, 281.9983
206.7857, 264.5937
207.2679, 248.8405
207.7500, 235.5923
208.2321, 226.1932
208.7142, 218.2444
209.1963, 211.2910
209.6784, 205.2558
210.1606, 200.2237
210.6427, 196.3113
211.1248, 193.6065
211.6069, 191.4816
212.0890, 189.8754
212.5711, 188.8311
213.0533, 188.4873
213.5354, 188.7584
214.0175, 189.3872
214.4996, 190.1198
214.9817, 190.8933
215.4638, 192.3318
215.9460, 194.7727
216.4281, 197.4175
216.9102, 199.9879
217.3923, 202.4199
217.8744, 204.7244
218.3565, 206.8861
218.8387, 208.8842
219.3208, 210.8701
219.8029, 212.7448
220.2850, 214.6947
220.7671, 216.8760
221.2492, 219.2737
221.7314, 221.7146
222.2135, 224.0416
222.6956, 226.2465
223.1777, 228.5553
223.6598, 231.1219
224.1419, 233.6823
224.6240, 236.1745
225.1062, 238.5706
225.5883, 240.5581
226.0704, 241.9769
226.5525, 242.7104
227.0346, 242.5409
227.5167, 241.1179
227.9989, 238.9891
228.4810, 236.5757
228.9631, 233.8999
229.4452, 231.0039
229.9273, 227.6510
230.4094, 224.1214
230.8916, 221.1736
231.3737, 218.9410
231.8558, 217.3545
232.3379, 216.5800
232.8200, 216.7470
233.3021, 216.8139
233.7843, 215.8247
234.2664, 214.3527
234.7485, 213.2769
235.2306, 212.9567
235.7127, 213.0090
236.1948, 212.9200
236.6770, 212.6511
237.1591, 212.3991
237.6412, 212.3524
238.1233, 212.3526
238.6054, 212.1875
239.0875, 211.7061
239.5697, 211.1570
240.0518, 210.9613
240.5339, 211.2083
241.0160, 211.5271
241.4981, 211.8519
241.9802, 212.1424
242.4624, 212.3760
242.9445, 212.5616
243.4266, 212.6295
243.9087, 212.3933
244.3908, 211.6802
244.8729, 211.1378
245.3550, 211.2118
245.8372, 211.3840
246.3193, 211.2370
246.8014, 210.6300
247.2835, 209.6492
247.7656, 208.3753
248.2477, 206.6636
248.7299, 205.0038
249.2120, 203.5963
249.6941, 202.2080
250.1762, 200.6670
250.6583, 198.9172
251.1404, 197.0218
251.6226, 195.0199
252.1047, 192.7580
252.5868, 190.7817
253.0689, 189.2795
253.5510, 187.9384
254.0331, 186.4930
254.5153, 184.8955
254.9974, 183.3274
255.4795, 182.1120
255.9616, 181.5838
256.4437, 180.6811
256.9258, 179.2188
257.4080, 177.5763
257.8901, 175.9929
258.3722, 174.5147
258.8543, 173.0276
259.3364, 171.4151
259.8185, 169.8158
260.3007, 167.6780
260.7828, 164.6845
261.2649, 161.4983
261.7470, 158.5047
262.2291, 155.7466
262.7112, 153.0807
263.1934, 150.3015
263.6755, 147.2900
264.1576, 144.6272
264.6397, 142.4289
265.1218, 140.4129
265.6039, 138.4488
266.0861, 136.5289
266.5682, 134.7064
267.0503, 133.0427
267.5324, 131.5666
268.0145, 130.1073
268.4966, 128.5259
268.9788, 127.0792
269.4609, 125.8666
269.9430, 124.9028
270.4251, 124.1942
270.9072, 123.7674
271.3893, 123.6349
271.8715, 123.5155
272.3536, 123.3676
272.8357, 123.2688
273.3178, 123.2731
273.7999, 123.3573
274.2820, 123.4723
274.7642, 123.6022
275.2463, 123.7336
275.7284, 123.6820
276.2105, 123.3731
276.6926, 123.0112
277.1747, 122.5487
277.6568, 122.0805
278.1389, 121.8568
278.6211, 122.0638
279.1032, 122.5456
279.5853, 122.6092
280.0674, 121.9618
280.5495, 121.3345
281.0316, 121.1683
281.5138, 121.1154
281.9959, 120.4911
282.4780, 118.9529
282.9601, 116.8380
283.4422, 115.0186
283.9243, 113.5175
284.4065, 112.1868
284.8886, 111.0869
285.3707, 110.1175
285.8528, 109.0909
286.3349, 107.9254
286.8170, 106.8049
287.2992, 106.0810
287.7813, 105.8791
288.2634, 105.6135
288.7455, 105.1322
289.2276, 104.5677
289.7097, 104.1021
290.1919, 103.7802
290.6740, 103.4776
291.1561, 103.0304
291.6382, 102.4206
292.1203, 101.8075
292.6024, 101.0474
293.0846, 100.3803
293.5667, 100.1278
294.0488, 100.3215
294.5309, 100.5765
295.0130, 100.5522
295.4951, 100.2319
295.9773, 99.86354
296.4594, 99.40443
296.9415, 98.93572
297.4236, 98.54194
297.9057, 98.21797
298.3878, 97.84193
298.8700, 97.25610
299.3521, 96.54715
299.8342, 96.18245
300.3163, 96.32578
300.7984, 96.65528
301.2805, 97.04533
301.7627, 97.48134
302.2448, 97.90780
302.7269, 98.28584
303.2090, 98.64587
303.6911, 99.09030
304.1732, 99.73657
304.6554, 100.2784
305.1375, 100.4423
305.6196, 100.3888
306.1017, 100.5788
306.5838, 101.2573
307.0659, 102.1260
307.5481, 102.5857
308.0302, 102.5911
308.5123, 102.5196
308.9944, 102.4823
309.4765, 102.4486
309.9586, 102.3743
310.4408, 102.2535
310.9229, 102.0684
311.4050, 101.7658
311.8871, 101.3416
312.3692, 100.9441
312.8513, 100.6543
313.3335, 100.3819
313.8156, 99.99512
314.2977, 99.47163
314.7798, 98.94026
315.2619, 98.54868
315.7440, 98.27834
316.2262, 97.88071
316.7083, 97.20757
317.1904, 96.48992
317.6725, 95.94627
318.1546, 95.56825
318.6367, 95.16995
319.1188, 94.62011
319.6010, 93.94625
320.0831, 93.30291
320.5652, 92.62385
321.0473, 92.03533
321.5294, 91.62092
322.0115, 91.35924
322.4937, 91.17921
322.9758, 91.06969
323.4579, 90.99988
323.9400, 90.88084
324.4221, 90.64739
324.9042, 90.50684
325.3864, 90.55709
325.8685, 90.74612
326.3506, 90.99494
326.8327, 91.29256
327.3148, 91.59669
327.7969, 91.87892
328.2791, 92.18656
328.7612, 92.25517
329.2433, 91.85911
329.7254, 91.27913
330.2075, 90.79288
330.6896, 90.44809
331.1718, 90.28336
331.6539, 90.42152
332.1360, 90.89079
332.6181, 91.06357
333.1002, 90.70375
333.5823, 90.20509
334.0645, 89.95898
334.5466, 89.91534
335.0287, 89.56192
335.5108, 88.41863
335.9929, 86.65434
336.4750, 85.54909
336.9572, 85.62995
337.4393, 85.72086
337.9214, 85.31383
338.4035, 84.53706
338.8856, 83.68807
339.3677, 82.88419
339.8499, 82.13965
340.3320, 81.50211
340.8141, 80.92738
341.2962, 80.51311
341.7783, 80.28899
342.2604, 80.23140
342.7426, 80.36857
343.2247, 80.70858
343.7068, 81.07996
344.1889, 81.19582
344.6710, 80.81553
345.1531, 80.96348
345.6353, 81.92977
346.1174, 83.22865
346.5995, 84.53835
347.0816, 85.80634
347.5637, 87.11327
348.0458, 88.51746
348.5280, 90.02952
349.0101, 91.55253
349.4922, 92.90404
349.9743, 94.44229
350.4564, 96.48460
350.9385, 98.82668
351.4207, 101.0347
351.9028, 102.8544
352.3849, 104.3225
352.8670, 105.5965
353.3491, 106.8870
353.8312, 107.7242
354.3134, 107.8382
354.7955, 107.5514
355.2776, 107.2270
355.7597, 106.9917
356.2418, 106.7449
356.7239, 106.3052
357.2061, 105.5460
357.6882, 104.8401
358.1703, 104.1196
358.6524, 103.4945
359.1345, 102.9013
359.6166, 102.4204
360.0987, 102.3735
360.5808, 103.1388
361.0630, 104.8257
361.5451, 106.2685
362.0272, 107.2008
362.5093, 108.1782
362.9914, 109.3990
363.4735, 110.8051
363.9557, 112.2302
364.4378, 113.5704
364.9199, 114.8709
365.4020, 116.3240
365.8841, 117.9843
366.3662, 119.7409
366.8484, 121.4774
367.3305, 123.3413
367.8126, 125.5353
368.2947, 128.0985
368.7768, 130.8280
369.2589, 133.3896
369.7411, 135.6315
370.2232, 138.1183
370.7053, 140.7803
371.1874, 143.7492
371.6695, 147.1496
372.1516, 150.9536
372.6338, 155.0985
373.1159, 159.5484
373.5980, 164.2878
374.0801, 169.1227
374.5622, 174.0209
375.0443, 179.0854
375.5265, 184.3579
376.0086, 189.8094
376.4907, 195.3563
376.9728, 201.0025
377.4549, 206.7061
377.9370, 212.4369
378.4192, 218.2742
378.9013, 223.9045
379.3834, 228.9403
379.8655, 233.9261
380.3476, 239.4847
380.8297, 245.7243
381.3119, 251.7602
381.7940, 256.4111
382.2761, 259.7230
382.7582, 263.5720
383.2403, 268.6310
383.7224, 273.7716
384.2046, 278.3682
384.6867, 282.4276
385.1688, 286.1301
385.6509, 289.3551
386.1330, 292.2867
386.6151, 295.2588
387.0973, 298.1499
387.5794, 301.4929
388.0615, 306.0498
388.5436, 311.1528
389.0257, 315.9156
389.5078, 320.2326
389.9900, 324.0616
390.4721, 327.2390
390.9542, 329.8316
391.4363, 332.3562
391.9184, 335.2689
392.4005, 337.7885
392.8827, 338.9634
393.3648, 338.8372
393.8469, 337.7100
394.3290, 335.8130
394.8111, 332.9523
395.2932, 328.8512
395.7754, 323.4302
396.2575, 316.8030
396.7396, 308.7236
397.2217, 299.2638
397.7038, 289.8328
398.1859, 280.6695
398.6681, 271.2939
399.1501, 261.2878
399.6323, 250.7596
400.1144, 240.0449
400.5965, 229.2404
401.0786, 218.4792
401.5607, 208.3174
402.0428, 198.6922
402.5250, 189.6243
403.0071, 181.1486
403.4892, 173.2082
403.9713, 165.7619
404.4534, 158.8322
404.9355, 152.4576
405.4177, 146.6702
405.8998, 141.4903
406.3819, 137.1665
406.8640, 133.8283
407.3461, 131.1115
407.8282, 128.9735
408.3104, 127.3028
408.7925, 125.8691
409.2746, 124.4997
409.7567, 123.2833
410.2388, 122.6094
410.7209, 123.0553
411.2031, 123.3250
411.6852, 122.9838
412.1673, 122.5997
412.6494, 122.8054
413.1315, 123.7245
413.6136, 124.8807
414.0958, 125.5903
414.5779, 125.6609
415.0600, 126.0732
415.5421, 126.8553
416.0242, 127.9675
416.5063, 129.6533
416.9885, 131.6804
417.4706, 133.4831
417.9527, 134.6273
418.4348, 135.3675
418.9169, 136.6663
419.3990, 138.8548
419.8812, 140.8519
420.3633, 142.5351
420.8454, 143.7728
421.3275, 144.3481
421.8096, 144.2015
422.2917, 143.6380
422.7739, 142.8599
423.2560, 141.8796
423.7381, 140.9372
424.2202, 140.0658
424.7023, 139.2459
425.1844, 138.3639
425.6666, 137.4859
426.1487, 136.8613
426.6308, 136.8017
427.1129, 136.9614
427.5950, 136.8021
428.0771, 136.3030
428.5593, 135.7974
429.0414, 135.4977
429.5235, 135.2854
430.0056, 134.8723
430.4877, 134.1099
430.9698, 133.4849
431.4520, 133.3733
431.9341, 133.5512
432.4162, 133.5533
432.8983, 133.2521
433.3804, 132.8495
433.8625, 132.5258
434.3447, 132.2733
434.8268, 132.3107
435.3089, 132.7897
435.7910, 133.4371
436.2731, 134.1111
436.7552, 134.7997
437.2374, 135.5116
437.7195, 136.2488
438.2016, 137.0173
438.6837, 137.8293
439.1658, 138.4371
439.6479, 139.4184
440.1301, 141.0221
440.6122, 142.8944
441.0943, 144.8105
441.5764, 146.6624
442.0585, 148.2986
442.5406, 149.4827
443.0227, 150.1260
443.5049, 150.9926
443.9870, 152.2974
444.4691, 153.6052
444.9512, 154.9222
445.4333, 156.1177
445.9154, 157.0103
446.3976, 157.4891
446.8797, 157.6549
447.3618, 157.7643
447.8439, 157.9268
448.3260, 157.6994
448.8081, 156.7205
449.2903, 155.5216
449.7724, 154.4710
450.2545, 153.5623
450.7366, 152.4695
451.2187, 150.8154
451.7008, 148.7440
452.1830, 146.9191
452.6651, 145.4171
453.1472, 144.0199
453.6293, 142.4917
454.1114, 141.0148
454.5935, 139.9113
455.0757, 139.3866
455.5578, 138.9881
456.0399, 138.1584
456.5220, 137.0801
457.0041, 136.5499
457.4862, 136.8291
457.9684, 137.6591
458.4505, 138.7942
458.9326, 140.2132
459.4147, 141.8354
459.8968, 143.7256
460.3789, 145.7530
460.8611, 147.7951
461.3432, 149.8606
461.8253, 152.1308
462.3074, 154.8705
462.7895, 157.7628
463.2716, 159.5131
463.7538, 159.9953
464.2359, 159.6015
464.7180, 158.4662
465.2001, 156.4197
465.6822, 153.1772
466.1643, 148.7328
466.6465, 143.4829
467.1286, 137.8172
467.6107, 131.6526
468.0928, 125.4252
468.5749, 118.7803
469.0570, 112.4502
469.5392, 106.6489
470.0213, 101.3000
470.5034, 96.25439
470.9855, 91.42988
471.4676, 87.06011
471.9497, 83.65988
472.4319, 81.42908
472.9140, 79.30891
473.3961, 77.18533
473.8782, 75.12853
474.3603, 73.10763
474.8424, 71.17982
475.3246, 69.49422
475.8067, 68.19778
476.2888, 67.19637
476.7709, 66.27235
477.2530, 65.42104
477.7351, 64.70147
478.2173, 64.16420
478.6994, 63.77436
479.1815, 63.45636
479.6636, 63.19499
480.1457, 63.05223
480.6278, 63.13375
481.1100, 63.33654
481.5920, 63.46882
482.0742, 63.49491
482.5563, 63.49275
483.0384, 63.49913
483.5205, 63.52512
484.0026, 63.73535
484.4847, 64.16988
484.9669, 64.72969
485.4490, 65.46006
485.9311, 66.27323
486.4132, 66.98936
486.8953, 67.54530
487.3774, 68.09324
487.8596, 68.92287
488.3417, 70.33727
488.8238, 71.19634
489.3059, 71.24818
489.7880, 71.08475
490.2701, 70.93092
490.7523, 70.79692
491.2344, 70.63267
491.7165, 70.41100
492.1986, 70.13303
492.6807, 69.83409
493.1628, 69.60658
493.6450, 69.10461
494.1271, 67.94930
494.6092, 66.71856
495.0913, 65.87116
495.5734, 65.39161
496.0555, 64.81404
496.5377, 63.64972
497.0198, 62.16196
497.5019, 61.12745
497.9840, 60.64443
498.4661, 60.22516
498.9482, 59.68492
499.4304, 58.99343
499.9125, 58.07655
500.3946, 56.79113
500.8767, 55.61620
501.3588, 54.86079
501.8409, 54.35009
502.3231, 53.74785
502.8052, 52.98620
503.2873, 52.24202
503.7694, 51.71376
504.2515, 51.40783
504.7336, 50.91029
505.2158, 50.05764
505.6979, 49.21970
506.1800, 48.46553
506.6621, 47.82806
507.1442, 47.39989
507.6263, 47.20327
508.1085, 47.07319
508.5906, 46.73693
509.0727, 46.09481
509.5548, 45.60564
510.0369, 45.31676
510.5190, 45.13569
511.0012, 45.06616
511.4833, 45.07419
511.9654, 45.09881
512.4475, 45.10233
512.9296, 45.13323
513.4117, 45.27558
513.8939, 45.53345
514.3760, 45.87860
514.8581, 46.33225
515.3402, 46.85304
515.8223, 47.44324
516.3044, 48.08205
516.7866, 48.63859
517.2687, 48.91114
517.7508, 49.15860
518.2329, 49.78090
518.7150, 50.75274
519.1971, 51.63922
519.6793, 52.15418
520.1614, 52.55883
520.6435, 53.49169
521.1256, 55.12830
521.6077, 56.66402
522.0898, 57.88580
522.5720, 59.00266
523.0541, 60.13836
523.5362, 61.32594
524.0183, 62.59973
524.5004, 63.96467
524.9825, 65.44420
525.4647, 67.22409
525.9468, 69.70242
526.4289, 71.88942
526.9110, 73.57992
527.3931, 75.05570
527.8752, 76.44121
528.3574, 77.81206
528.8395, 79.32940
529.3216, 81.23399
529.8037, 83.42132
530.2858, 85.31166
530.7679, 86.95915
531.2501, 88.16550
531.7322, 88.65259
532.2143, 88.73690
532.6964, 88.70237
533.1785, 88.58853
533.6606, 88.35899
534.1428, 88.07545
534.6249, 87.64317
535.1070, 86.78531
535.5891, 85.44266
536.0712, 83.99570
536.5533, 82.74535
537.0355, 81.63693
537.5176, 80.36198
537.9997, 78.92941
538.4818, 77.33350
538.9639, 75.33456
539.4460, 73.27328
539.9282, 71.59870
540.4103, 70.38953
540.8924, 69.37788
541.3745, 68.30795
541.8566, 67.17911
542.3387, 66.00937
542.8209, 64.73142
543.3029, 63.50150
543.7850, 62.34441
544.2672, 61.25753
544.7493, 60.24203
545.2314, 59.29670
545.7135, 58.41809
546.1956, 57.68690
546.6777, 57.07257
547.1599, 56.19451
547.6420, 54.87132
548.1241, 53.63133
548.6062, 52.95825
549.0883, 52.55592
549.5704, 51.93145
550.0526, 50.91911
550.5347, 49.86380
551.0168, 48.94636
551.4989, 48.14454
551.9810, 47.40544
552.4631, 46.71761
552.9453, 46.11195
553.4274, 45.63187
553.9095, 45.27666
554.3916, 44.89964
554.8737, 44.53662
555.3558, 44.11314
555.8380, 43.52394
556.3201, 42.89842
556.8022, 42.42528
557.2843, 42.13812
557.7664, 41.88970
558.2485, 41.47389
558.7307, 40.87894
559.2128, 40.52071
559.6949, 40.59406
560.1770, 40.63309
560.6591, 40.47258
561.1412, 40.19883
561.6234, 39.87900
562.1055, 39.51869
562.5876, 39.24708
563.0697, 39.24471
563.5518, 39.42637
564.0339, 39.49232
564.5161, 39.38878
564.9982, 39.27252
565.4803, 39.27718
565.9624, 39.36016
566.4445, 39.33316
566.9266, 39.10626
567.4088, 38.89838
567.8909, 38.77276
568.3730, 38.71275
568.8551, 38.68086
569.3372, 38.67865
569.8193, 38.77864
570.3015, 39.07714
570.7836, 39.55465
571.2657, 39.81374
571.7478, 39.73659
572.2299, 39.58458
572.7120, 39.16203
573.1942, 38.83162
573.6763, 39.08232
574.1584, 39.90871
574.6405, 40.64586
575.1226, 40.59177
575.6047, 39.95177
576.0869, 39.59288
576.5690, 39.56849
577.0511, 39.60138
577.5332, 39.55366
578.0153, 39.49591
578.4974, 39.54934
578.9796, 39.74293
579.4617, 39.92509
579.9438, 40.03985
580.4259, 40.11280
580.9080, 40.14336
581.3901, 40.14892
581.8723, 40.22213
582.3544, 40.43635
582.8365, 40.73299
583.3186, 40.91439
583.8007, 40.94254
584.2828, 40.90454
584.7650, 40.74102
585.2471, 40.56765
585.7292, 40.40392
