##NAMES=Arsenolamprite
##RRUFFID=R060680
##IDEAL CHEMISTRY=As
##LOCALITY=Copiapo, Atacama, Chile
##OWNER=RRUFF
##SOURCE=Michael Scott
##DESCRIPTION=Black oxidized coating of arsenolite over a group of elongated bladed and platy crystals
##STATUS=The identification of this mineral has been confirmed by X-ray diffraction and chemical analysis
##URL=rruff.info/R060680
##MEASURED CHEMISTRY=light phase: As_1.00_ ; dark phase: As_2.00_O_3_
105.136, 289.987
105.618, 287.692
106.100, 288.019
106.582, 287.858
107.064, 286.030
107.547, 282.621
108.029, 277.396
108.511, 268.040
108.993, 259.903
109.475, 256.963
109.957, 258.927
110.439, 263.008
110.921, 268.085
111.404, 274.154
111.886, 278.716
112.368, 280.640
112.850, 281.338
113.332, 281.400
113.814, 280.934
114.296, 280.141
114.778, 278.768
115.260, 276.191
115.743, 275.704
116.225, 278.279
116.707, 282.643
117.189, 290.056
117.671, 300.436
118.153, 309.308
118.635, 308.076
119.117, 288.906
119.600, 276.337
120.082, 275.600
120.564, 279.648
121.046, 283.733
121.528, 285.992
122.010, 286.251
122.492, 283.622
122.974, 271.955
123.456, 266.438
123.939, 271.150
124.421, 280.998
124.903, 290.251
125.385, 296.023
125.867, 300.424
126.349, 310.962
126.831, 332.761
127.313, 355.610
127.796, 379.719
128.278, 404.018
128.760, 427.347
129.242, 448.894
129.724, 468.975
130.206, 488.854
130.688, 506.858
131.170, 526.613
131.652, 551.302
132.135, 578.604
132.617, 603.620
133.099, 623.394
133.581, 638.120
134.063, 649.781
134.545, 655.914
135.027, 662.083
135.509, 672.020
135.992, 684.419
136.474, 694.636
136.956, 699.339
137.438, 698.521
137.920, 696.563
138.402, 694.481
138.884, 690.558
139.366, 684.277
139.848, 675.488
140.331, 663.035
140.813, 645.131
141.295, 622.054
141.777, 600.313
142.259, 579.338
142.741, 560.247
143.223, 541.184
143.705, 522.026
144.188, 512.315
144.670, 524.018
145.152, 553.038
145.634, 579.543
146.116, 600.833
146.598, 618.393
147.080, 632.616
147.562, 642.974
148.044, 653.905
148.527, 670.354
149.009, 690.402
149.491, 708.927
149.973, 726.265
150.455, 740.974
150.937, 749.744
151.419, 750.995
151.901, 750.992
152.383, 755.314
152.866, 762.126
153.348, 767.149
153.830, 770.357
154.312, 770.472
154.794, 764.139
155.276, 749.839
155.758, 731.831
156.240, 710.424
156.723, 687.565
157.205, 668.015
157.687, 655.000
158.169, 647.255
158.651, 640.873
159.133, 636.403
159.615, 632.403
160.097, 627.036
160.579, 621.228
161.062, 617.396
161.544, 618.680
162.026, 623.716
162.508, 624.559
162.990, 615.469
163.472, 610.337
163.954, 619.539
164.436, 638.171
164.919, 654.042
165.401, 657.397
165.883, 649.819
166.365, 644.855
166.847, 642.392
167.329, 643.232
167.811, 649.213
168.293, 658.661
168.775, 667.742
169.258, 674.524
169.740, 678.911
170.222, 678.680
170.704, 667.780
171.186, 658.852
171.668, 658.776
172.150, 664.858
172.632, 670.055
173.115, 668.767
173.597, 661.131
174.079, 653.876
174.561, 648.011
175.043, 641.399
175.525, 630.937
176.007, 618.838
176.489, 610.522
176.971, 611.460
177.454, 621.664
177.936, 627.890
178.418, 629.714
178.900, 627.266
179.382, 618.159
179.864, 604.492
180.346, 590.582
180.828, 578.911
181.311, 569.461
181.793, 566.320
182.275, 578.064
182.757, 588.671
183.239, 593.124
183.721, 592.663
184.203, 590.847
184.685, 589.911
185.167, 589.844
185.650, 592.833
186.132, 601.286
186.614, 610.835
187.096, 621.076
187.578, 631.594
188.060, 642.038
188.542, 652.763
189.024, 663.638
189.507, 669.797
189.989, 660.113
190.471, 656.424
190.953, 669.440
191.435, 692.822
191.917, 712.986
192.399, 719.275
192.881, 712.524
193.363, 713.342
193.846, 734.006
194.328, 750.372
194.810, 752.076
195.292, 745.619
195.774, 744.202
196.256, 757.960
196.738, 784.992
197.220, 800.648
197.702, 790.085
198.185, 782.588
198.667, 785.158
199.149, 794.662
199.631, 805.200
200.113, 813.107
200.595, 818.841
201.077, 825.752
201.559, 834.941
202.042, 844.345
202.524, 852.376
203.006, 860.634
203.488, 871.919
203.970, 888.114
204.452, 907.891
204.934, 924.215
205.416, 923.579
205.898, 935.126
206.380, 960.561
206.863, 1000.931
207.345, 1057.629
207.827, 1131.608
208.309, 1221.208
208.791, 1320.069
209.273, 1422.461
209.755, 1543.857
210.238, 1679.365
210.720, 1835.473
211.202, 2018.290
211.684, 2229.624
212.166, 2470.047
212.648, 2742.647
213.130, 3038.264
213.612, 3383.609
214.094, 3769.631
214.577, 4204.233
215.059, 4701.361
215.541, 5263.389
216.023, 5882.657
216.505, 6547.978
216.987, 7256.729
217.469, 8020.173
217.951, 8834.463
218.434, 9700.894
218.916, 10677.130
219.398, 11764.720
219.880, 12830.220
220.362, 13646.230
220.844, 14167.410
221.326, 14497.000
221.808, 14462.580
222.290, 14387.530
222.773, 14511.950
223.255, 14881.770
223.737, 15373.880
224.219, 15895.860
224.701, 16750.461
225.183, 16850.910
225.665, 16052.810
226.147, 14752.190
226.629, 12971.070
227.112, 10826.130
227.594, 8645.934
228.076, 6762.147
228.558, 5181.935
229.040, 3925.064
229.522, 3103.058
230.004, 2487.494
230.486, 2034.500
230.969, 1712.226
231.451, 1474.200
231.933, 1282.443
232.415, 1139.834
232.897, 1022.115
233.379, 938.961
233.861, 873.972
234.343, 829.125
234.825, 799.136
235.307, 773.296
235.790, 742.219
236.272, 706.574
236.754, 683.210
237.236, 678.154
237.718, 680.213
238.200, 687.365
238.682, 699.223
239.165, 714.989
239.647, 733.117
240.129, 755.468
240.611, 789.720
241.093, 829.266
241.575, 893.590
242.057, 987.788
242.539, 1106.295
243.021, 1240.956
243.503, 1387.379
243.986, 1549.422
244.468, 1739.406
244.950, 1969.246
245.432, 2203.940
245.914, 2419.336
246.396, 2641.583
246.878, 2899.019
247.361, 3202.131
247.843, 3533.933
248.325, 3864.525
248.807, 4186.073
249.289, 4534.529
249.771, 4875.964
250.253, 5272.991
250.735, 5803.784
251.217, 6480.323
251.699, 7195.696
252.182, 7966.710
252.664, 8858.258
253.146, 9198.752
253.628, 8595.212
254.110, 7587.099
254.592, 6334.056
255.074, 4902.261
255.556, 3571.424
256.039, 2576.223
256.521, 1905.194
257.003, 1409.538
257.485, 1141.712
257.967, 981.636
258.449, 855.135
258.931, 759.408
259.413, 687.655
259.896, 642.141
260.378, 617.741
260.860, 598.520
261.342, 585.641
261.824, 574.554
262.306, 562.391
262.788, 549.729
263.270, 537.874
263.752, 529.444
264.234, 521.003
264.717, 504.788
265.199, 478.526
265.681, 455.468
266.163, 444.414
266.645, 441.294
267.127, 438.439
267.609, 423.293
268.091, 421.883
268.574, 413.527
269.056, 413.388
269.538, 411.254
270.020, 407.233
270.502, 395.672
270.984, 393.846
271.466, 389.019
271.948, 385.453
272.431, 378.112
272.913, 368.745
273.395, 364.499
273.877, 369.957
274.359, 377.520
274.841, 372.902
275.323, 353.520
275.805, 348.162
276.287, 353.343
276.770, 355.965
277.252, 356.167
277.734, 346.698
278.216, 349.717
278.698, 347.731
279.180, 345.540
279.662, 350.316
280.144, 342.254
280.626, 346.920
281.109, 345.574
281.591, 343.228
282.073, 344.639
282.555, 347.493
283.037, 351.801
283.519, 352.479
284.001, 346.847
284.483, 340.559
284.966, 336.158
285.448, 333.375
285.930, 330.818
286.412, 327.568
286.894, 323.995
287.376, 322.311
287.858, 325.540
288.340, 326.939
288.823, 323.060
289.305, 317.298
289.787, 315.121
290.269, 318.760
290.751, 324.533
291.233, 324.297
291.715, 309.664
292.197, 301.633
292.679, 303.357
293.161, 309.251
293.644, 316.747
294.126, 324.495
294.608, 330.157
295.090, 330.252
295.572, 322.865
296.054, 317.087
296.536, 314.275
297.018, 311.723
297.501, 307.507
297.983, 302.332
298.465, 298.578
298.947, 298.454
299.429, 301.691
299.911, 304.363
300.393, 307.290
300.875, 308.401
301.358, 306.211
301.840, 302.133
302.322, 298.379
302.804, 296.208
303.286, 294.581
303.768, 290.768
304.250, 283.492
304.732, 277.521
305.214, 273.868
305.697, 272.332
306.179, 273.564
306.661, 277.939
307.143, 282.780
307.625, 285.428
308.107, 285.883
308.589, 285.227
309.071, 282.905
309.553, 280.305
310.036, 279.032
310.518, 278.987
311.000, 278.187
311.482, 276.397
311.964, 273.010
312.446, 264.924
312.928, 249.684
313.410, 236.551
313.892, 234.663
314.375, 241.487
314.857, 249.970
315.339, 262.564
315.821, 273.583
316.303, 276.655
316.785, 272.141
317.267, 265.343
317.750, 257.505
318.232, 250.422
318.714, 250.035
319.196, 263.067
319.678, 273.700
320.160, 274.890
320.642, 269.548
321.124, 262.591
321.606, 255.555
322.089, 249.404
322.571, 246.224
323.053, 248.428
323.535, 248.628
324.017, 242.122
324.499, 236.193
324.981, 238.932
325.463, 250.396
325.945, 263.009
326.428, 268.859
326.910, 267.170
327.392, 263.795
327.874, 255.172
328.356, 248.630
328.838, 247.200
329.320, 250.094
329.802, 255.828
330.284, 263.909
330.767, 273.236
331.249, 278.749
331.731, 276.650
332.213, 276.363
332.695, 282.844
333.177, 289.901
333.659, 290.597
334.141, 282.845
334.624, 272.332
335.106, 266.738
335.588, 266.528
336.070, 267.090
336.552, 260.949
337.034, 270.440
337.516, 276.136
337.998, 278.242
338.480, 266.004
338.963, 272.288
339.445, 271.149
339.927, 269.706
340.409, 274.510
340.891, 270.059
341.373, 272.234
341.855, 277.787
342.337, 280.669
342.819, 275.645
343.302, 271.076
343.784, 268.079
344.266, 272.480
344.748, 275.085
345.230, 275.991
345.712, 270.108
346.194, 272.992
346.677, 272.362
347.159, 271.589
347.641, 275.706
348.123, 270.810
348.605, 274.850
349.087, 275.323
349.569, 277.428
350.051, 275.269
350.533, 265.610
351.016, 261.517
351.498, 265.711
351.980, 272.878
352.462, 283.665
352.944, 295.263
353.426, 299.498
353.908, 289.699
354.390, 269.251
354.872, 259.080
355.355, 270.604
355.837, 279.999
356.319, 286.704
356.801, 289.228
357.283, 283.854
357.765, 269.917
358.247, 254.582
358.729, 244.312
359.211, 231.471
359.694, 223.466
360.176, 229.340
360.658, 231.845
361.140, 231.163
361.622, 217.743
362.104, 220.771
362.586, 217.207
363.069, 213.373
363.551, 218.715
364.033, 207.148
364.515, 212.345
364.997, 210.850
365.479, 207.804
365.961, 198.777
366.443, 201.955
366.925, 210.504
367.408, 222.081
367.890, 235.230
368.372, 238.064
368.854, 222.089
369.336, 201.190
369.818, 197.404
370.300, 212.326
370.782, 221.820
371.264, 215.025
371.747, 201.636
372.229, 191.222
372.711, 185.178
373.193, 184.218
373.675, 190.643
374.157, 204.077
374.639, 208.575
375.121, 198.491
375.603, 187.267
376.086, 176.914
376.568, 168.969
377.050, 165.774
377.532, 168.370
378.014, 175.085
378.496, 183.137
378.978, 196.671
379.460, 203.326
379.943, 199.107
380.425, 192.096
380.907, 186.853
381.389, 183.799
381.871, 181.359
382.353, 178.158
382.835, 174.290
383.317, 170.607
383.799, 165.187
384.282, 163.315
384.764, 170.792
385.246, 181.403
385.728, 185.982
386.210, 180.022
386.692, 171.483
387.174, 170.098
387.656, 175.550
388.138, 180.473
388.621, 182.845
389.103, 183.960
389.585, 186.249
390.067, 189.889
390.549, 190.088
391.031, 179.465
391.513, 167.468
391.996, 167.983
392.478, 181.598
392.960, 195.695
393.442, 201.423
393.924, 199.427
394.406, 196.374
394.888, 188.544
395.370, 184.096
395.852, 188.746
396.335, 197.215
396.817, 201.659
397.299, 199.390
397.781, 194.105
398.263, 192.196
398.745, 196.855
399.227, 196.180
399.709, 183.260
400.191, 171.917
400.674, 169.928
401.156, 175.627
401.638, 183.033
402.120, 188.939
402.602, 192.869
403.084, 192.467
403.566, 185.727
404.048, 179.473
404.530, 175.928
405.013, 173.986
405.495, 172.398
405.977, 170.760
406.459, 171.199
406.941, 176.985
407.423, 186.524
407.905, 194.013
408.387, 198.653
408.870, 200.625
409.352, 198.521
409.834, 193.132
410.316, 190.034
410.798, 192.683
411.280, 195.512
411.762, 194.213
412.244, 189.753
412.727, 185.102
413.209, 181.406
413.691, 179.262
414.173, 180.204
414.655, 188.813
415.137, 193.736
415.619, 188.716
416.101, 184.519
416.583, 191.368
417.065, 208.528
417.548, 226.616
418.030, 237.441
418.512, 241.438
418.994, 244.965
419.476, 250.180
419.958, 251.497
420.440, 242.254
420.922, 230.882
421.405, 227.794
421.887, 236.623
422.369, 250.671
422.851, 264.277
423.333, 277.171
423.815, 286.409
424.297, 290.500
424.779, 292.220
425.262, 294.898
425.744, 297.917
426.226, 297.212
426.708, 288.018
427.190, 277.400
427.672, 272.743
428.154, 272.965
428.636, 271.429
429.118, 264.440
429.601, 254.347
430.083, 247.365
430.565, 244.371
431.047, 243.046
431.529, 244.981
432.011, 247.361
432.493, 247.712
432.975, 245.926
433.457, 243.245
433.940, 240.120
434.422, 236.838
434.904, 239.367
435.386, 256.252
435.868, 266.728
436.350, 255.811
436.832, 240.885
437.314, 245.977
437.797, 279.227
438.279, 313.377
438.761, 311.806
439.243, 278.796
439.725, 264.703
440.207, 284.163
440.689, 309.954
441.171, 318.370
441.654, 313.746
442.136, 309.861
442.618, 306.413
443.100, 307.631
443.582, 318.273
444.064, 336.606
444.546, 357.718
445.028, 380.044
445.510, 402.034
445.992, 420.725
446.475, 435.009
446.957, 447.673
447.439, 456.790
447.921, 465.877
448.403, 478.891
448.885, 494.330
449.367, 506.114
449.849, 509.121
450.332, 506.436
450.814, 513.454
451.296, 540.831
451.778, 555.801
452.260, 543.175
452.742, 521.097
453.224, 502.386
453.706, 489.269
454.189, 480.498
454.671, 478.446
455.153, 479.954
455.635, 476.385
456.117, 467.489
456.599, 450.968
457.081, 419.365
457.563, 379.025
458.045, 353.955
458.527, 357.121
459.010, 359.539
459.492, 346.603
459.974, 326.230
460.456, 311.388
460.938, 305.353
461.420, 301.032
461.902, 289.526
462.384, 268.887
462.867, 253.608
463.349, 243.531
463.831, 238.760
464.313, 244.000
464.795, 253.357
465.277, 258.266
465.759, 255.019
466.241, 247.194
466.724, 239.547
467.206, 232.026
467.688, 225.043
468.170, 216.297
468.652, 211.222
469.134, 216.022
469.616, 228.183
470.098, 237.552
470.580, 241.822
471.063, 241.077
471.545, 230.557
472.027, 213.564
472.509, 206.434
472.991, 217.611
473.473, 236.951
473.955, 245.542
474.437, 236.967
474.919, 231.544
475.402, 229.437
475.884, 230.482
476.366, 236.139
476.848, 244.992
477.330, 253.665
477.812, 260.125
478.294, 264.660
478.776, 268.615
479.259, 273.786
479.741, 273.635
480.223, 261.601
480.705, 247.589
481.187, 235.861
481.669, 227.527
482.151, 225.751
482.633, 238.923
483.116, 257.359
483.598, 262.915
484.080, 254.968
484.562, 245.417
485.044, 238.702
485.526, 235.651
486.008, 240.093
486.490, 259.406
486.972, 269.032
487.454, 256.677
487.937, 237.963
488.419, 226.227
488.901, 222.737
489.383, 222.523
489.865, 221.919
490.347, 221.105
490.829, 221.725
491.311, 227.827
491.794, 228.137
492.276, 214.177
492.758, 198.489
493.240, 193.246
493.722, 199.294
494.204, 205.328
494.686, 200.847
495.168, 190.145
495.651, 185.073
496.133, 186.639
496.615, 189.427
497.097, 191.141
497.579, 191.598
498.061, 190.622
498.543, 188.986
499.025, 184.609
499.507, 173.305
499.990, 161.064
500.472, 154.354
500.954, 153.776
501.436, 156.191
501.918, 159.169
502.400, 162.743
502.882, 167.563
503.364, 177.211
503.846, 182.320
504.329, 179.280
504.811, 172.842
505.293, 166.347
505.775, 160.592
506.257, 156.428
506.739, 153.986
507.221, 153.689
507.703, 158.070
508.185, 168.082
508.668, 176.237
509.150, 178.270
509.632, 175.456
510.114, 171.562
510.596, 166.499
511.078, 160.676
511.560, 152.134
512.042, 144.100
512.525, 140.469
513.007, 141.191
513.489, 143.380
513.971, 145.149
514.453, 146.152
514.935, 143.646
515.417, 132.987
515.899, 127.125
516.381, 129.930
516.864, 136.804
517.346, 146.134
517.828, 156.894
518.310, 164.625
518.792, 165.399
519.274, 161.249
519.756, 154.697
520.239, 145.615
520.721, 140.671
521.203, 144.949
521.685, 154.018
522.167, 156.973
522.649, 151.612
523.131, 146.905
523.613, 144.433
524.095, 142.907
524.578, 140.968
525.060, 138.927
525.542, 138.727
526.024, 142.118
526.506, 146.874
526.988, 145.568
527.470, 135.606
527.952, 126.517
528.434, 118.747
528.917, 113.367
529.399, 110.649
529.881, 110.827
530.363, 114.829
530.845, 128.057
531.327, 142.117
531.809, 144.274
532.291, 136.807
532.773, 134.222
533.256, 143.553
533.738, 155.987
534.220, 156.592
534.702, 139.066
535.184, 128.854
535.666, 132.086
536.148, 136.321
536.630, 133.913
537.112, 126.252
537.595, 137.669
538.077, 144.455
538.559, 146.858
539.041, 131.754
539.523, 139.258
540.005, 137.701
540.487, 135.773
540.969, 146.458
541.452, 142.309
541.934, 139.855
542.416, 138.899
542.898, 131.461
543.380, 123.322
543.862, 115.698
544.344, 110.346
544.826, 111.749
545.308, 120.648
545.791, 131.734
546.273, 139.978
546.755, 145.415
547.237, 146.109
547.719, 137.296
548.201, 129.531
548.683, 124.184
549.166, 121.199
549.648, 120.543
550.130, 122.164
550.612, 125.608
551.094, 132.887
551.576, 141.456
552.058, 142.945
552.540, 136.328
553.022, 130.883
553.505, 132.706
553.987, 138.117
554.469, 136.770
554.951, 123.835
555.433, 116.839
555.915, 124.037
556.397, 133.563
556.879, 136.068
557.362, 132.313
557.844, 127.361
558.326, 123.941
558.808, 122.585
559.290, 125.823
559.772, 135.591
560.254, 141.133
560.736, 139.436
561.218, 134.321
561.701, 125.731
562.183, 115.680
562.665, 111.877
563.147, 122.620
563.629, 134.523
564.111, 137.178
564.593, 133.167
565.075, 127.424
565.557, 121.389
566.040, 116.766
566.522, 115.364
567.004, 117.132
567.486, 122.843
567.968, 140.607
568.450, 152.702
568.932, 153.592
569.414, 147.938
569.896, 139.169
570.379, 128.455
570.861, 119.967
571.343, 118.172
571.825, 121.054
572.307, 124.339
572.789, 127.961
573.271, 129.203
573.753, 126.033
574.235, 120.218
574.718, 115.635
575.200, 111.602
575.682, 110.319
576.164, 115.626
576.646, 120.505
577.128, 118.767
577.610, 112.689
578.093, 109.008
578.575, 111.477
579.057, 116.294
579.539, 115.170
580.021, 107.405
580.503, 105.772
580.985, 114.952
581.467, 125.634
581.949, 130.871
582.432, 131.958
582.914, 131.852
583.396, 129.890
583.878, 128.190
584.360, 129.227
584.842, 130.471
585.324, 126.249
585.806, 116.807
586.289, 111.289
586.771, 119.253
587.253, 137.482
587.735, 142.075
588.217, 124.303
588.699, 111.185
589.181, 112.663
589.663, 118.082
590.145, 120.081
590.628, 118.478
591.110, 116.832
591.592, 118.141
592.074, 119.093
592.556, 115.239
593.038, 107.864
593.520, 100.469
594.002, 93.959
594.484, 91.867
594.967, 100.362
595.449, 122.341
595.931, 136.715
596.413, 142.045
596.895, 140.926
597.377, 127.600
597.859, 111.111
598.341, 102.546
598.823, 104.384
599.306, 109.193
599.788, 111.787
600.270, 112.875
600.752, 114.684
601.234, 117.252
601.716, 116.366
602.198, 108.312
602.680, 98.068
603.162, 96.896
603.645, 111.937
604.127, 120.700
604.609, 117.861
605.091, 114.131
605.573, 115.186
606.055, 119.518
606.537, 123.840
607.019, 126.916
607.502, 128.350
607.984, 126.050
608.466, 121.068
608.948, 112.210
609.430, 122.750
609.912, 128.582
610.394, 129.958
610.876, 113.532
611.359, 120.093
611.841, 117.442
612.323, 114.414
612.805, 124.210
613.287, 110.374
613.769, 119.967
614.251, 120.207
614.733, 124.728
615.216, 119.980
615.698, 117.851
616.180, 120.655
616.662, 115.388
617.144, 111.889
617.626, 112.162
618.108, 113.575
618.590, 114.058
619.072, 113.926
619.555, 114.688
620.037, 118.795
620.519, 120.775
621.001, 115.107
621.483, 108.929
621.965, 110.665
622.447, 120.138
622.929, 131.222
623.411, 140.440
623.894, 146.258
624.376, 143.026
624.858, 129.136
625.340, 115.947
625.822, 104.601
626.304, 96.086
626.786, 91.851
627.268, 91.329
627.750, 92.561
628.233, 95.709
628.715, 100.075
629.197, 108.422
629.679, 116.330
630.161, 116.062
630.643, 107.697
631.125, 100.512
631.607, 103.404
632.089, 112.795
632.572, 111.888
633.054, 96.188
633.536, 89.357
634.018, 104.665
634.500, 122.680
634.982, 122.257
635.464, 106.286
635.946, 96.521
636.429, 99.885
636.911, 107.446
637.393, 118.163
637.875, 128.594
638.357, 132.898
638.839, 130.451
639.321, 126.545
639.803, 126.185
640.286, 128.460
640.768, 128.115
641.250, 123.974
641.732, 119.670
642.214, 112.459
642.696, 118.437
643.178, 121.213
643.660, 120.960
644.143, 108.603
644.625, 111.875
645.107, 108.884
645.589, 105.636
646.071, 111.108
646.553, 100.512
647.035, 104.990
647.517, 103.803
647.999, 110.685
648.482, 122.666
648.964, 121.720
649.446, 102.874
649.928, 91.334
650.410, 97.564
650.892, 110.226
651.374, 119.215
651.856, 124.620
652.338, 125.635
652.821, 114.898
653.303, 107.637
653.785, 115.195
654.267, 129.301
654.749, 140.572
655.231, 145.928
655.713, 142.910
656.195, 126.032
656.677, 101.129
