##NAMES=Arseniopleite
##RRUFFID=R070144
##IDEAL CHEMISTRY=NaCaMn^2+^Mn^2+^_2_(As^5+^O_4_)_3_
##LOCALITY=Sjögruvan mine, Grythyttan, Västmanland, Sweden
##OWNER=RRUFF
##SOURCE=Michael Scott
##DESCRIPTION=Vitreous brownish red massive
##STATUS=The identification of this mineral is confirmed by single-crystal X-ray diffraction and chemical analysis.
##URL=rruff.info/R070144
##MEASURED CHEMISTRY=(Ca_0.81_Na_0.19_)_Σ=1_(Na_0.99_Pb^2+^_0.01_)_Σ=1_Mn^2+^_1.00_(Mn^2+^_1.10_Mg_0.65_Fe^3+^_0.18_Fe^2+^_0.07_)_Σ=2_(As_1.00_O_4_)_3_; trace amounts of P; Fe^2+^ and Fe^3+^ splitted by charge balance
55.25977, 40.07792
55.74188, 35.50863
56.22400, 32.74343
56.70612, 32.58294
57.18823, 33.06653
57.67035, 33.87657
58.15247, 35.35067
58.63458, 38.49179
59.11670, 44.12472
59.59882, 50.44931
60.08093, 52.73096
60.56305, 49.24570
61.04517, 45.99240
61.52728, 46.03737
62.00940, 48.70105
62.49151, 51.10432
62.97363, 52.43289
63.45575, 52.13748
63.93786, 49.37637
64.41998, 41.91793
64.90210, 34.57283
65.38422, 32.74959
65.86633, 37.41930
66.34845, 42.65378
66.83057, 46.87407
67.31268, 49.50827
67.79479, 49.15007
68.27691, 43.58830
68.75903, 35.43044
69.24114, 32.14512
69.72326, 37.11549
70.20538, 41.95782
70.68749, 43.85933
71.16961, 43.38227
71.65173, 41.36559
72.13384, 37.85573
72.61596, 32.88436
73.09808, 29.73111
73.58019, 29.21889
74.06231, 30.04188
74.54443, 32.70262
75.02654, 36.63142
75.50866, 40.54819
75.99078, 43.17243
76.47289, 44.35849
76.95501, 44.68383
77.43713, 43.21029
77.91924, 41.78138
78.40136, 41.58257
78.88348, 42.73357
79.36559, 44.39343
79.84771, 45.23566
80.32983, 43.43995
80.81194, 44.75226
81.29406, 53.76743
81.77618, 63.78382
82.25829, 67.25860
82.74041, 61.55524
83.22253, 51.25303
83.70464, 45.44424
84.18676, 45.37499
84.66888, 46.05202
85.15099, 47.68473
85.63311, 49.30199
86.11523, 48.21894
86.59734, 42.08585
87.07946, 34.51197
87.56158, 33.32525
88.04369, 40.93838
88.52581, 49.02237
89.00793, 52.24416
89.49004, 51.19184
89.97216, 50.94683
90.45428, 55.66426
90.93639, 61.37904
91.41851, 61.93444
91.90063, 54.49849
92.38274, 45.17181
92.86485, 40.64693
93.34697, 41.65969
93.82909, 43.64479
94.31120, 44.57856
94.79332, 45.35264
95.27544, 47.19616
95.75755, 51.27602
96.23967, 55.85028
96.72179, 56.48051
97.20390, 49.90634
97.68602, 45.67890
98.16814, 49.09277
98.65025, 55.99069
99.13237, 60.90143
99.61449, 60.33672
100.0966, 55.33123
100.5787, 51.89307
101.0608, 51.67359
101.5430, 51.24925
102.0251, 49.20023
102.5072, 46.30318
102.9893, 43.95647
103.4714, 43.13329
103.9535, 43.83609
104.4357, 45.85189
104.9178, 51.40054
105.3999, 56.14941
105.8820, 58.43704
106.3641, 58.59579
106.8462, 57.96471
107.3284, 57.70022
107.8105, 57.80791
108.2926, 58.34928
108.7747, 58.59402
109.2568, 59.72651
109.7389, 63.26836
110.2211, 68.88530
110.7032, 74.16421
111.1853, 76.30799
111.6674, 73.87883
112.1495, 73.25702
112.6316, 75.46487
113.1138, 78.74339
113.5959, 81.61102
114.0780, 83.80534
114.5601, 86.12770
115.0422, 89.87757
115.5243, 95.54461
116.0065, 100.3067
116.4886, 102.5332
116.9707, 104.1563
117.4528, 107.4082
117.9349, 112.8399
118.4170, 120.0807
118.8991, 130.1052
119.3813, 143.3684
119.8634, 153.6403
120.3455, 154.9594
120.8276, 152.1134
121.3097, 155.7867
121.7918, 169.7400
122.2740, 189.4949
122.7561, 209.5400
123.2382, 229.9860
123.7203, 250.4875
124.2024, 271.6917
124.6845, 293.2134
125.1667, 312.4435
125.6488, 326.5489
126.1309, 340.5658
126.6130, 359.6721
127.0951, 384.1651
127.5772, 410.1454
128.0594, 435.9090
128.5415, 461.4978
129.0236, 482.9980
129.5057, 497.9250
129.9878, 508.9724
130.4699, 516.6652
130.9521, 520.9800
131.4342, 525.7321
131.9163, 536.3697
132.3984, 554.5775
132.8805, 569.1323
133.3626, 573.7021
133.8448, 576.1605
134.3269, 579.9849
134.8090, 586.0889
135.2911, 595.9500
135.7732, 612.4705
136.2553, 638.1391
136.7375, 663.5626
137.2196, 683.1737
137.7017, 704.5265
138.1838, 734.3329
138.6659, 774.3530
139.1480, 820.0939
139.6302, 863.4366
140.1123, 904.6844
140.5944, 943.3138
141.0765, 975.4189
141.5586, 1007.454
142.0407, 1044.528
142.5229, 1088.434
143.0050, 1137.607
143.4871, 1188.945
143.9692, 1245.720
144.4513, 1299.390
144.9334, 1351.056
145.4156, 1399.002
145.8977, 1441.133
146.3798, 1476.648
146.8619, 1506.540
147.3440, 1532.984
147.8261, 1550.036
148.3083, 1570.974
148.7904, 1603.393
149.2725, 1637.348
149.7546, 1660.930
150.2367, 1668.794
150.7188, 1666.042
151.2010, 1667.481
151.6831, 1678.501
152.1652, 1687.507
152.6473, 1690.500
153.1294, 1691.719
153.6115, 1697.393
154.0937, 1710.608
154.5758, 1728.493
155.0579, 1742.255
155.5400, 1748.229
156.0221, 1754.757
156.5042, 1761.901
156.9864, 1770.558
157.4685, 1782.618
157.9506, 1799.266
158.4327, 1818.908
158.9148, 1836.700
159.3969, 1850.059
159.8791, 1865.393
160.3612, 1884.386
160.8433, 1906.390
161.3254, 1930.620
161.8075, 1957.210
162.2896, 1984.969
162.7718, 2010.473
163.2539, 2032.769
163.7360, 2054.762
164.2181, 2077.509
164.7002, 2100.707
165.1823, 2123.509
165.6645, 2145.555
166.1466, 2166.995
166.6287, 2187.996
167.1108, 2208.773
167.5929, 2228.969
168.0750, 2248.535
168.5572, 2267.465
169.0393, 2286.354
169.5214, 2306.474
170.0035, 2325.206
170.4856, 2336.381
170.9677, 2335.885
171.4499, 2338.786
171.9320, 2357.469
172.4141, 2386.895
172.8962, 2407.765
173.3783, 2407.877
173.8604, 2401.676
174.3426, 2414.646
174.8247, 2452.533
175.3068, 2488.159
175.7889, 2505.239
176.2710, 2506.620
176.7531, 2504.240
177.2353, 2497.850
177.7174, 2493.974
178.1995, 2501.415
178.6816, 2521.805
179.1637, 2544.341
179.6458, 2566.224
180.1279, 2586.120
180.6101, 2595.232
181.0922, 2582.781
181.5743, 2567.603
182.0564, 2571.729
182.5385, 2596.664
183.0206, 2625.703
183.5028, 2650.971
183.9849, 2672.233
184.4670, 2686.037
184.9491, 2684.903
185.4312, 2683.429
185.9133, 2697.167
186.3955, 2726.353
186.8776, 2755.968
187.3597, 2776.597
187.8418, 2788.943
188.3239, 2797.951
188.8060, 2802.402
189.2882, 2805.939
189.7703, 2811.244
190.2524, 2818.310
190.7345, 2826.763
191.2166, 2836.159
191.6987, 2846.638
192.1809, 2859.147
192.6630, 2875.538
193.1451, 2892.019
193.6272, 2905.659
194.1093, 2916.864
194.5914, 2927.746
195.0736, 2937.272
195.5557, 2946.647
196.0378, 2964.301
196.5199, 2996.614
197.0020, 3030.011
197.4841, 3057.295
197.9663, 3078.677
198.4484, 3094.935
198.9305, 3100.956
199.4126, 3084.289
199.8947, 3114.451
200.3768, 3136.331
200.8590, 3150.376
201.3411, 3133.109
201.8232, 3156.272
202.3053, 3163.233
202.7874, 3169.529
203.2695, 3198.382
203.7517, 3185.671
204.2338, 3214.167
204.7159, 3226.213
205.1980, 3245.788
205.6801, 3249.060
206.1622, 3257.367
206.6444, 3281.984
207.1265, 3281.910
207.6086, 3293.536
208.0907, 3302.435
208.5728, 3313.122
209.0549, 3328.596
209.5371, 3346.613
210.0192, 3363.866
210.5013, 3378.282
210.9834, 3391.548
211.4655, 3407.692
211.9476, 3427.284
212.4298, 3448.466
212.9119, 3471.715
213.3940, 3495.593
213.8761, 3518.229
214.3582, 3538.898
214.8403, 3558.058
215.3225, 3576.950
215.8046, 3596.814
216.2867, 3612.462
216.7688, 3615.791
217.2509, 3617.282
217.7330, 3627.019
218.2152, 3648.590
218.6973, 3676.454
219.1794, 3704.511
219.6615, 3733.911
220.1436, 3758.448
220.6257, 3771.186
221.1079, 3781.187
221.5900, 3795.531
222.0721, 3815.902
222.5542, 3836.885
223.0363, 3852.268
223.5184, 3861.727
224.0006, 3868.288
224.4827, 3865.458
224.9648, 3865.055
225.4469, 3877.485
225.9290, 3903.118
226.4111, 3929.384
226.8933, 3943.466
227.3754, 3945.036
227.8575, 3945.760
228.3396, 3939.960
228.8217, 3940.981
229.3038, 3961.422
229.7859, 3998.624
230.2681, 4034.447
230.7502, 4054.248
231.2323, 4059.251
231.7144, 4062.630
232.1965, 4061.311
232.6786, 4063.549
233.1608, 4074.250
233.6429, 4091.978
234.1250, 4112.332
234.6071, 4137.746
235.0892, 4164.764
235.5714, 4176.306
236.0535, 4163.596
236.5356, 4150.328
237.0177, 4145.472
237.4998, 4148.972
237.9819, 4162.143
238.4641, 4191.154
238.9462, 4227.303
239.4283, 4250.030
239.9104, 4254.151
240.3925, 4258.543
240.8746, 4277.168
241.3568, 4300.037
241.8389, 4314.045
242.3210, 4312.453
242.8031, 4303.922
243.2852, 4298.362
243.7673, 4294.858
244.2495, 4299.930
244.7316, 4329.287
245.2137, 4362.458
245.6958, 4376.801
246.1779, 4363.955
246.6600, 4345.641
247.1422, 4346.039
247.6243, 4365.217
248.1064, 4376.737
248.5885, 4364.163
249.0706, 4347.729
249.5527, 4349.260
250.0349, 4371.372
250.5170, 4395.910
250.9991, 4413.699
251.4812, 4424.319
251.9633, 4423.701
252.4454, 4404.679
252.9276, 4382.716
253.4097, 4370.691
253.8918, 4368.140
254.3739, 4374.525
254.8560, 4396.891
255.3381, 4427.470
255.8203, 4448.188
256.3024, 4456.385
256.7845, 4456.064
257.2666, 4445.172
257.7487, 4427.338
258.2308, 4414.478
258.7130, 4411.917
259.1951, 4415.428
259.6772, 4421.334
260.1593, 4430.084
260.6414, 4435.473
261.1235, 4430.308
261.6057, 4418.554
262.0878, 4411.682
262.5699, 4415.059
263.0520, 4420.458
263.5341, 4420.751
264.0162, 4416.498
264.4984, 4413.431
264.9805, 4416.514
265.4626, 4421.314
265.9447, 4416.647
266.4268, 4397.390
266.9089, 4377.877
267.3911, 4364.467
267.8732, 4356.272
268.3553, 4351.342
268.8374, 4349.531
269.3195, 4349.580
269.8016, 4349.375
270.2838, 4349.072
270.7659, 4348.179
271.2480, 4345.568
271.7301, 4342.635
272.2122, 4342.931
272.6943, 4347.647
273.1765, 4350.082
273.6586, 4339.452
274.1407, 4310.939
274.6228, 4296.404
275.1049, 4309.651
275.5870, 4329.149
276.0692, 4338.631
276.5513, 4336.492
277.0334, 4326.737
277.5155, 4310.397
277.9976, 4287.206
278.4797, 4276.593
278.9619, 4287.276
279.4440, 4300.248
279.9261, 4309.209
280.4082, 4313.559
280.8903, 4312.044
281.3724, 4302.893
281.8546, 4288.851
282.3367, 4284.001
282.8188, 4302.122
283.3009, 4312.413
283.7830, 4298.160
284.2651, 4277.189
284.7473, 4277.021
285.2294, 4307.993
285.7115, 4350.679
286.1936, 4365.677
286.6757, 4327.782
287.1578, 4301.134
287.6400, 4292.271
288.1221, 4289.413
288.6042, 4282.843
289.0863, 4271.578
289.5684, 4262.458
290.0505, 4264.771
290.5327, 4282.917
291.0148, 4292.005
291.4969, 4282.530
291.9790, 4273.706
292.4611, 4277.118
292.9432, 4288.357
293.4254, 4294.310
293.9075, 4284.052
294.3896, 4259.803
294.8717, 4243.675
295.3538, 4240.101
295.8359, 4239.736
296.3181, 4243.053
296.8002, 4247.259
297.2823, 4247.460
297.7644, 4240.713
298.2465, 4233.165
298.7286, 4239.984
299.2108, 4269.591
299.6929, 4291.242
300.1750, 4289.484
300.6571, 4283.713
301.1392, 4288.690
301.6213, 4307.065
302.1035, 4329.408
302.5855, 4346.804
303.0677, 4359.195
303.5498, 4368.354
304.0319, 4372.212
304.5140, 4375.079
304.9961, 4379.336
305.4782, 4384.921
305.9604, 4391.215
306.4425, 4395.021
306.9246, 4399.248
307.4067, 4415.264
307.8888, 4449.187
308.3709, 4478.814
308.8531, 4485.126
309.3352, 4478.455
309.8173, 4474.440
310.2994, 4478.309
310.7815, 4485.069
311.2636, 4488.733
311.7458, 4489.506
312.2279, 4493.358
312.7100, 4505.589
313.1921, 4520.226
313.6742, 4526.573
314.1563, 4522.507
314.6385, 4516.848
315.1206, 4506.744
315.6027, 4498.650
316.0848, 4512.080
316.5669, 4556.588
317.0490, 4604.575
317.5312, 4616.638
318.0133, 4588.987
318.4954, 4571.074
318.9775, 4575.151
319.4596, 4587.655
319.9417, 4597.666
320.4239, 4604.184
320.9060, 4610.639
321.3881, 4620.271
321.8702, 4632.658
322.3523, 4639.194
322.8344, 4635.792
323.3166, 4631.969
323.7987, 4629.838
324.2808, 4629.833
324.7629, 4634.097
325.2450, 4644.088
325.7271, 4655.047
326.2093, 4654.889
326.6914, 4628.942
327.1735, 4611.443
327.6556, 4607.274
328.1377, 4608.438
328.6198, 4608.050
329.1020, 4605.085
329.5841, 4603.777
330.0662, 4610.421
330.5483, 4628.259
331.0304, 4636.559
331.5125, 4627.766
331.9947, 4616.851
332.4768, 4605.060
332.9589, 4595.441
333.4410, 4593.479
333.9231, 4604.072
334.4052, 4623.380
334.8874, 4636.999
335.3695, 4643.763
335.8516, 4646.502
336.3337, 4642.432
336.8158, 4637.017
337.2979, 4635.692
337.7801, 4640.087
338.2622, 4647.448
338.7443, 4656.020
339.2264, 4666.041
339.7085, 4671.435
340.1906, 4665.566
340.6728, 4660.715
341.1549, 4666.598
341.6370, 4682.310
342.1191, 4700.147
342.6012, 4716.989
343.0833, 4733.051
343.5655, 4748.052
344.0476, 4761.494
344.5297, 4776.522
345.0118, 4796.916
345.4939, 4820.418
345.9760, 4841.002
346.4582, 4855.440
346.9403, 4869.745
347.4224, 4889.594
347.9045, 4913.107
348.3866, 4932.438
348.8687, 4942.576
349.3509, 4950.413
349.8330, 4971.712
350.3151, 5012.367
350.7972, 5046.496
351.2793, 5060.830
351.7614, 5071.244
352.2436, 5096.404
352.7257, 5138.155
353.2078, 5182.865
353.6899, 5217.366
354.1720, 5240.483
354.6541, 5264.895
355.1363, 5288.413
355.6184, 5315.216
356.1005, 5345.733
356.5826, 5380.804
357.0647, 5423.186
357.5468, 5474.952
358.0290, 5530.907
358.5111, 5576.088
358.9932, 5607.907
359.4753, 5632.570
359.9574, 5642.944
360.4395, 5652.649
360.9217, 5671.696
361.4038, 5701.499
361.8859, 5737.047
362.3680, 5776.526
362.8501, 5820.417
363.3322, 5853.152
363.8144, 5872.090
364.2965, 5881.769
364.7786, 5883.552
365.2607, 5878.576
365.7428, 5867.151
366.2249, 5844.487
366.7071, 5822.178
367.1892, 5825.473
367.6713, 5858.493
368.1534, 5878.608
368.6355, 5865.825
369.1176, 5835.033
369.5998, 5805.502
370.0819, 5778.811
370.5640, 5747.940
371.0461, 5701.820
371.5282, 5649.815
372.0103, 5613.062
372.4925, 5596.130
372.9746, 5587.969
373.4567, 5582.854
373.9388, 5579.799
374.4209, 5562.888
374.9030, 5519.988
375.3852, 5473.454
375.8673, 5430.912
376.3494, 5395.314
376.8315, 5375.550
377.3136, 5378.019
377.7957, 5392.805
378.2779, 5393.709
378.7600, 5367.629
379.2421, 5344.594
379.7242, 5327.276
380.2063, 5311.734
380.6884, 5294.057
381.1706, 5274.095
381.6527, 5255.612
382.1348, 5242.496
382.6169, 5234.993
383.0990, 5228.132
383.5811, 5208.711
384.0633, 5190.552
384.5454, 5214.234
385.0275, 5229.633
385.5096, 5237.195
385.9917, 5213.447
386.4738, 5230.130
386.9560, 5230.611
387.4381, 5230.426
387.9202, 5252.799
388.4023, 5233.605
388.8844, 5255.620
389.3665, 5261.186
389.8487, 5274.280
390.3308, 5271.072
390.8129, 5272.898
391.2950, 5291.033
391.7771, 5300.138
392.2592, 5295.052
392.7414, 5308.626
393.2235, 5288.863
393.7056, 5298.352
394.1877, 5320.462
394.6698, 5316.197
395.1519, 5330.067
395.6341, 5337.032
396.1162, 5312.604
396.5983, 5342.768
397.0804, 5349.324
397.5625, 5331.637
398.0446, 5359.931
398.5268, 5345.587
399.0089, 5346.462
399.4910, 5358.790
399.9731, 5359.179
400.4552, 5370.752
400.9373, 5381.588
401.4194, 5394.833
401.9016, 5411.068
402.3837, 5427.848
402.8658, 5434.357
403.3479, 5419.941
403.8300, 5411.791
404.3121, 5417.317
404.7943, 5427.128
405.2764, 5433.405
405.7585, 5434.760
406.2406, 5435.020
406.7227, 5440.675
407.2048, 5451.130
407.6870, 5450.032
408.1691, 5430.604
408.6512, 5409.630
409.1333, 5397.260
409.6154, 5389.621
410.0975, 5380.931
410.5797, 5374.363
411.0618, 5358.698
411.5439, 5314.493
412.0260, 5246.558
412.5081, 5189.865
412.9902, 5157.965
413.4724, 5138.346
413.9545, 5115.792
414.4366, 5091.682
414.9187, 5057.145
415.4008, 4998.150
415.8829, 4936.238
416.3651, 4892.467
416.8472, 4865.625
417.3293, 4840.390
417.8114, 4805.805
418.2935, 4764.678
418.7756, 4733.679
419.2578, 4736.184
419.7399, 4719.452
420.2220, 4661.382
420.7041, 4591.594
421.1862, 4538.390
421.6683, 4507.468
422.1505, 4486.000
422.6326, 4461.645
423.1147, 4434.672
423.5968, 4399.732
424.0789, 4343.796
424.5610, 4296.561
425.0432, 4275.922
425.5253, 4268.887
426.0074, 4254.518
426.4895, 4223.222
426.9716, 4186.862
427.4537, 4160.401
427.9359, 4143.354
428.4180, 4126.161
428.9001, 4104.030
429.3822, 4084.430
429.8643, 4083.119
430.3464, 4098.121
430.8286, 4092.717
431.3107, 4031.284
431.7928, 3963.101
432.2749, 3943.369
432.7570, 3965.776
433.2391, 3981.054
433.7213, 3960.633
434.2034, 3916.429
434.6855, 3886.438
435.1676, 3882.757
435.6497, 3876.423
436.1318, 3865.133
436.6140, 3851.166
437.0961, 3835.738
437.5782, 3819.461
438.0603, 3802.516
438.5424, 3783.912
439.0245, 3764.295
439.5067, 3756.409
439.9888, 3773.251
440.4709, 3782.625
440.9530, 3771.292
441.4351, 3751.474
441.9172, 3734.659
442.3994, 3723.848
442.8815, 3720.354
443.3636, 3729.954
443.8457, 3750.100
444.3278, 3762.394
444.8099, 3762.838
445.2921, 3758.879
445.7742, 3752.641
446.2563, 3746.283
446.7384, 3747.352
447.2205, 3767.269
447.7026, 3785.632
448.1848, 3785.540
448.6669, 3773.103
449.1490, 3763.498
449.6311, 3761.912
450.1132, 3766.441
450.5953, 3774.480
451.0775, 3787.174
451.5596, 3800.326
452.0417, 3817.916
452.5238, 3832.306
453.0059, 3837.892
453.4880, 3836.925
453.9702, 3834.657
454.4523, 3833.867
454.9344, 3834.605
455.4165, 3838.627
455.8986, 3850.558
456.3807, 3852.852
456.8629, 3827.950
457.3450, 3803.694
457.8271, 3799.369
458.3092, 3813.405
458.7913, 3828.284
459.2734, 3832.830
459.7556, 3831.478
460.2377, 3833.794
460.7198, 3840.265
461.2019, 3843.315
461.6840, 3838.673
462.1661, 3828.690
462.6483, 3817.231
463.1304, 3801.059
463.6125, 3792.438
464.0946, 3802.772
464.5767, 3817.753
465.0588, 3821.553
465.5410, 3813.025
466.0231, 3800.711
466.5052, 3791.123
466.9873, 3783.919
467.4694, 3776.157
467.9515, 3769.381
468.4337, 3759.808
468.9158, 3744.515
469.3979, 3727.737
469.8800, 3712.299
470.3621, 3699.166
470.8442, 3690.072
471.3264, 3691.034
471.8085, 3700.008
472.2906, 3692.597
472.7727, 3658.000
473.2548, 3630.842
473.7369, 3642.054
474.2191, 3668.224
474.7012, 3676.411
475.1833, 3655.443
475.6654, 3632.302
476.1475, 3626.450
476.6296, 3630.099
477.1118, 3625.728
477.5939, 3609.754
478.0760, 3594.240
478.5581, 3590.746
479.0402, 3599.407
479.5223, 3604.914
480.0045, 3606.629
480.4866, 3606.434
480.9687, 3603.112
481.4508, 3598.900
481.9329, 3599.118
482.4150, 3604.325
482.8972, 3605.546
483.3793, 3587.165
483.8614, 3545.818
484.3435, 3523.567
484.8256, 3531.916
485.3077, 3544.679
485.7899, 3554.960
486.2720, 3561.238
486.7541, 3559.427
487.2362, 3545.506
487.7183, 3532.868
488.2004, 3539.885
488.6826, 3559.349
489.1647, 3562.195
489.6468, 3540.294
490.1289, 3512.242
490.6110, 3494.708
491.0931, 3487.812
491.5753, 3479.520
492.0574, 3469.476
492.5395, 3458.413
493.0216, 3443.425
493.5037, 3428.669
493.9858, 3421.360
494.4680, 3423.446
494.9501, 3429.618
495.4322, 3433.676
495.9143, 3435.976
496.3964, 3433.586
496.8785, 3425.134
497.3607, 3413.166
497.8428, 3392.444
498.3249, 3370.865
498.8070, 3360.250
499.2891, 3365.391
499.7712, 3377.363
500.2533, 3393.141
500.7354, 3409.504
501.2176, 3406.698
501.6997, 3376.110
502.1818, 3344.053
502.6639, 3331.133
503.1460, 3336.673
503.6281, 3347.974
504.1103, 3377.998
504.5924, 3398.986
505.0745, 3390.478
505.5566, 3369.035
506.0387, 3359.140
506.5208, 3366.976
507.0030, 3383.012
507.4851, 3397.773
507.9672, 3411.774
508.4493, 3416.175
508.9314, 3397.260
509.4135, 3385.855
509.8957, 3401.096
510.3778, 3423.111
510.8599, 3424.827
511.3420, 3398.434
511.8241, 3369.080
512.3063, 3363.731
512.7884, 3375.624
513.2705, 3375.936
513.7526, 3358.842
514.2347, 3345.568
514.7169, 3356.715
515.1990, 3382.972
515.6811, 3385.606
516.1632, 3339.695
516.6453, 3306.910
517.1274, 3317.940
517.6096, 3345.990
518.0917, 3360.080
518.5738, 3355.683
519.0559, 3347.010
519.5380, 3347.473
520.0201, 3355.428
520.5023, 3352.064
520.9844, 3327.474
521.4665, 3307.849
521.9486, 3300.311
522.4307, 3298.191
522.9128, 3295.212
523.3950, 3290.744
523.8771, 3289.473
524.3592, 3297.529
524.8413, 3310.300
525.3234, 3318.628
525.8055, 3322.226
526.2877, 3320.698
526.7698, 3312.671
527.2519, 3300.394
527.7340, 3287.955
528.2161, 3270.462
528.6982, 3264.915
529.1804, 3284.262
529.6625, 3308.022
530.1446, 3320.011
530.6267, 3321.611
531.1088, 3322.642
531.5909, 3329.257
532.0731, 3338.636
532.5552, 3343.126
533.0373, 3341.109
533.5194, 3339.178
534.0015, 3337.225
534.4836, 3336.553
534.9658, 3334.782
535.4479, 3334.363
535.9300, 3344.114
536.4121, 3376.619
536.8942, 3411.886
537.3763, 3427.708
537.8585, 3427.613
538.3406, 3423.676
538.8227, 3418.567
539.3048, 3416.550
539.7869, 3423.739
540.2690, 3442.235
540.7512, 3457.671
541.2333, 3474.364
541.7154, 3483.654
542.1975, 3473.414
542.6796, 3457.307
543.1617, 3455.016
543.6439, 3472.519
544.1260, 3498.014
544.6081, 3519.586
545.0902, 3537.137
545.5723, 3548.100
546.0544, 3550.126
546.5366, 3550.484
547.0187, 3552.229
