##NAMES=Arsentsumebite
##RRUFFID=R070629
##IDEAL CHEMISTRY=Pb^2+^_2_Cu^2+^(As^5+^O_4_)(S^6+^O_4_)(OH)
##LOCALITY=Tsumeb mine, Tsumeb, Otavi District, Oshikoto, Namibia
##OWNER=RRUFF
##SOURCE=Royal Ontario Museum
##DESCRIPTION=Pale green tabular crystals coating white anglesite
##STATUS=The identification of this mineral has been confirmed only by single crystal X-ray diffraction.
##URL=rruff.info/R070629
148.9056, 5207.542
149.3877, 5207.229
149.8698, 5219.776
150.3519, 5215.987
150.8340, 5178.490
151.3161, 5112.467
151.7983, 5078.532
152.2804, 5105.050
152.7625, 5149.887
153.2446, 5183.608
153.7267, 5203.602
154.2088, 5211.744
154.6909, 5203.633
155.1731, 5175.758
155.6552, 5154.436
156.1373, 5146.445
156.6194, 5146.971
157.1015, 5150.093
157.5836, 5167.093
158.0658, 5176.624
158.5479, 5165.213
159.0300, 5115.118
159.5121, 5080.864
159.9942, 5098.418
160.4763, 5145.638
160.9585, 5171.204
161.4406, 5134.431
161.9227, 5082.150
162.4048, 5046.248
162.8869, 5045.108
163.3690, 5049.830
163.8512, 5043.215
164.3333, 5028.347
164.8154, 5025.266
165.2975, 5072.127
165.7796, 5126.784
166.2617, 5143.785
166.7439, 5056.619
167.2260, 4961.418
167.7081, 4929.529
168.1902, 4967.000
168.6723, 5010.275
169.1544, 5023.594
169.6366, 5014.215
170.1187, 4994.837
170.6008, 4962.528
171.0829, 4927.190
171.5650, 4901.657
172.0471, 4891.202
172.5293, 4877.604
173.0114, 4839.931
173.4935, 4784.522
173.9756, 4732.719
174.4577, 4703.123
174.9398, 4683.144
175.4220, 4651.872
175.9041, 4596.808
176.3862, 4541.402
176.8683, 4520.385
177.3504, 4529.779
177.8326, 4534.228
178.3147, 4495.464
178.7968, 4430.981
179.2789, 4380.951
179.7610, 4369.141
180.2431, 4373.104
180.7253, 4350.701
181.2074, 4300.946
181.6895, 4248.099
182.1716, 4213.479
182.6537, 4195.818
183.1358, 4188.567
183.6180, 4206.430
184.1001, 4233.589
184.5822, 4218.955
185.0643, 4155.602
185.5464, 4075.352
186.0285, 4014.683
186.5107, 3973.253
186.9928, 3943.674
187.4749, 3929.780
187.9570, 3926.943
188.4391, 3910.686
188.9212, 3876.244
189.4034, 3832.188
189.8855, 3790.669
190.3676, 3751.763
190.8497, 3719.598
191.3318, 3700.336
191.8139, 3692.829
192.2961, 3685.463
192.7782, 3680.118
193.2603, 3671.410
193.7424, 3639.529
194.2245, 3581.119
194.7066, 3517.137
195.1888, 3468.460
195.6709, 3435.588
196.1530, 3397.869
196.6351, 3344.423
197.1172, 3280.299
197.5993, 3243.228
198.0815, 3239.615
198.5636, 3244.978
199.0457, 3231.598
199.5278, 3198.360
200.0099, 3154.162
200.4920, 3095.153
200.9742, 3021.318
201.4563, 2965.222
201.9384, 2926.568
202.4205, 2905.855
202.9026, 2914.296
203.3847, 2962.930
203.8668, 2994.067
204.3490, 2972.229
204.8311, 2887.575
205.3132, 2821.525
205.7953, 2775.942
206.2774, 2750.631
206.7595, 2749.909
207.2417, 2781.563
207.7238, 2816.237
208.2059, 2840.414
208.6880, 2856.714
209.1701, 2849.004
209.6522, 2807.885
210.1344, 2742.692
210.6165, 2694.996
211.0986, 2668.938
211.5807, 2652.239
212.0628, 2634.423
212.5449, 2610.996
213.0271, 2602.384
213.5092, 2619.769
213.9913, 2659.923
214.4734, 2671.724
214.9555, 2648.062
215.4376, 2606.866
215.9198, 2560.999
216.4019, 2499.029
216.8840, 2461.349
217.3661, 2464.146
217.8482, 2510.699
218.3303, 2539.519
218.8125, 2543.132
219.2946, 2536.131
219.7767, 2539.221
220.2588, 2561.544
220.7409, 2574.344
221.2230, 2563.565
221.7052, 2519.270
222.1873, 2501.022
222.6694, 2524.442
223.1515, 2564.188
223.6336, 2570.678
224.1157, 2521.302
224.5979, 2477.875
225.0800, 2468.566
225.5621, 2514.912
226.0442, 2533.148
226.5263, 2505.477
227.0084, 2454.899
227.4906, 2444.415
227.9727, 2500.530
228.4548, 2557.390
228.9369, 2580.227
229.4190, 2547.744
229.9011, 2529.966
230.3833, 2534.700
230.8654, 2556.475
231.3475, 2572.634
231.8296, 2577.668
232.3117, 2583.903
232.7938, 2600.061
233.2760, 2633.635
233.7581, 2661.177
234.2402, 2679.966
234.7223, 2690.717
235.2044, 2698.031
235.6865, 2700.522
236.1687, 2701.243
236.6508, 2702.292
237.1329, 2703.331
237.6150, 2705.038
238.0971, 2704.476
238.5792, 2701.892
239.0614, 2715.785
239.5435, 2757.109
240.0256, 2804.029
240.5077, 2836.313
240.9898, 2849.521
241.4719, 2856.314
241.9541, 2857.719
242.4362, 2853.202
242.9183, 2850.659
243.4004, 2855.306
243.8825, 2857.583
244.3646, 2843.904
244.8468, 2798.504
245.3289, 2764.421
245.8110, 2752.333
246.2931, 2764.509
246.7752, 2788.685
247.2573, 2840.464
247.7395, 2892.848
248.2216, 2901.397
248.7037, 2833.996
249.1858, 2778.266
249.6679, 2763.174
250.1500, 2800.786
250.6322, 2833.264
251.1143, 2867.820
251.5964, 2892.721
252.0785, 2880.842
252.5606, 2803.463
253.0427, 2738.288
253.5248, 2719.878
254.0070, 2772.943
254.4891, 2793.766
254.9712, 2772.193
255.4533, 2723.233
255.9354, 2675.255
256.4175, 2616.207
256.8997, 2579.119
257.3818, 2585.383
257.8639, 2660.773
258.3460, 2705.478
258.8281, 2707.313
259.3102, 2682.160
259.7924, 2674.278
260.2745, 2691.617
260.7566, 2711.764
261.2387, 2727.817
261.7208, 2747.335
262.2029, 2734.627
262.6851, 2673.045
263.1672, 2581.445
263.6493, 2525.614
264.1314, 2510.512
264.6135, 2520.170
265.0956, 2552.625
265.5778, 2618.946
266.0599, 2664.262
266.5420, 2678.914
267.0241, 2669.688
267.5062, 2661.811
267.9883, 2655.509
268.4705, 2650.069
268.9526, 2648.442
269.4347, 2655.012
269.9168, 2642.173
270.3989, 2594.302
270.8810, 2526.434
271.3632, 2510.812
271.8453, 2566.055
272.3274, 2626.516
272.8095, 2636.249
273.2916, 2582.737
273.7737, 2548.661
274.2559, 2549.945
274.7380, 2579.354
275.2201, 2606.879
275.7022, 2633.632
276.1843, 2654.711
276.6664, 2661.213
277.1486, 2650.386
277.6307, 2652.592
278.1128, 2679.315
278.5949, 2722.776
279.0770, 2744.544
279.5591, 2739.988
280.0413, 2731.752
280.5234, 2745.233
281.0055, 2781.982
281.4876, 2802.417
281.9697, 2787.004
282.4518, 2750.979
282.9340, 2762.537
283.4161, 2828.577
283.8982, 2906.419
284.3803, 2954.066
284.8624, 2972.476
285.3445, 2992.655
285.8267, 3021.267
286.3088, 3057.394
286.7909, 3097.051
287.2730, 3139.796
287.7551, 3188.786
288.2372, 3252.917
288.7194, 3329.284
289.2015, 3397.334
289.6836, 3448.948
290.1657, 3488.188
290.6478, 3520.608
291.1299, 3545.075
291.6121, 3576.782
292.0942, 3632.399
292.5763, 3709.160
293.0584, 3794.749
293.5405, 3893.938
294.0226, 3994.899
294.5048, 4071.318
294.9869, 4122.993
295.4690, 4162.551
295.9511, 4193.556
296.4332, 4221.106
296.9153, 4262.011
297.3975, 4332.188
297.8796, 4413.494
298.3617, 4466.940
298.8438, 4492.442
299.3259, 4531.181
299.8080, 4640.341
300.2902, 4791.117
300.7723, 4919.345
301.2544, 4985.506
301.7365, 5024.819
302.2186, 5084.043
302.7007, 5162.197
303.1829, 5241.071
303.6650, 5299.598
304.1471, 5348.496
304.6292, 5405.997
305.1113, 5496.754
305.5934, 5587.739
306.0756, 5639.673
306.5577, 5654.791
307.0398, 5668.602
307.5219, 5706.809
308.0040, 5759.470
308.4861, 5812.010
308.9683, 5873.215
309.4504, 5922.933
309.9325, 5938.011
310.4146, 5920.895
310.8967, 5909.523
311.3788, 5936.561
311.8610, 5978.322
312.3431, 6008.708
312.8252, 6013.428
313.3073, 6008.302
313.7894, 6003.612
314.2715, 5998.585
314.7537, 5982.711
315.2358, 5942.291
315.7179, 5892.347
316.2000, 5847.064
316.6821, 5815.052
317.1642, 5784.119
317.6464, 5749.449
318.1285, 5711.320
318.6106, 5675.242
319.0927, 5638.646
319.5748, 5607.087
320.0569, 5584.979
320.5391, 5589.579
321.0212, 5587.230
321.5033, 5564.186
321.9854, 5522.891
322.4675, 5489.133
322.9496, 5473.728
323.4318, 5464.157
323.9139, 5451.985
324.3960, 5429.025
324.8781, 5411.278
325.3602, 5396.154
325.8423, 5385.256
326.3245, 5393.353
326.8066, 5445.481
327.2887, 5500.569
327.7708, 5535.214
328.2529, 5527.489
328.7350, 5526.273
329.2171, 5535.913
329.6992, 5554.831
330.1814, 5573.406
330.6635, 5587.075
331.1456, 5604.889
331.6277, 5632.087
332.1098, 5672.083
332.5919, 5717.142
333.0741, 5779.239
333.5562, 5847.042
334.0383, 5871.545
334.5204, 5834.713
335.0025, 5784.326
335.4846, 5742.555
335.9668, 5703.492
336.4489, 5693.819
336.9310, 5726.852
337.4131, 5784.999
337.8952, 5818.686
338.3773, 5826.907
338.8595, 5813.700
339.3416, 5774.512
339.8237, 5704.731
340.3058, 5650.021
340.7879, 5621.621
341.2701, 5597.926
341.7522, 5524.088
342.2343, 5394.708
342.7164, 5269.924
343.1985, 5187.142
343.6806, 5142.520
344.1628, 5099.019
344.6449, 5059.212
345.1270, 5008.905
345.6091, 4914.212
346.0912, 4778.980
346.5733, 4648.416
347.0555, 4549.957
347.5376, 4474.040
348.0197, 4384.745
348.5018, 4276.088
348.9839, 4169.937
349.4660, 4105.926
349.9482, 4071.028
350.4303, 4015.197
350.9124, 3889.729
351.3945, 3736.791
351.8766, 3620.047
352.3587, 3543.649
352.8409, 3491.216
353.3230, 3466.782
353.8051, 3455.235
354.2872, 3427.478
354.7693, 3360.329
355.2514, 3278.105
355.7336, 3197.402
356.2157, 3118.707
356.6978, 3053.987
357.1799, 3028.647
357.6620, 3016.803
358.1441, 2984.066
358.6263, 2889.046
359.1084, 2793.938
359.5905, 2734.536
360.0726, 2709.382
360.5547, 2691.576
361.0368, 2674.660
361.5190, 2657.267
362.0011, 2638.016
362.4832, 2622.263
362.9653, 2598.779
363.4474, 2560.333
363.9295, 2509.087
364.4117, 2460.373
364.8938, 2405.403
365.3759, 2361.843
365.8580, 2340.453
366.3401, 2372.231
366.8222, 2391.207
367.3044, 2383.885
367.7865, 2356.865
368.2686, 2339.418
368.7507, 2347.223
369.2328, 2351.625
369.7149, 2338.956
370.1971, 2287.732
370.6792, 2256.091
371.1613, 2247.792
371.6434, 2257.985
372.1255, 2276.395
372.6076, 2308.767
373.0898, 2339.633
373.5719, 2363.668
374.0540, 2381.635
374.5361, 2388.071
375.0182, 2378.365
375.5003, 2361.905
375.9825, 2353.304
376.4646, 2352.979
376.9467, 2359.303
377.4288, 2378.535
377.9109, 2409.372
378.3930, 2410.928
378.8752, 2375.791
379.3573, 2333.555
379.8394, 2322.438
380.3215, 2341.485
380.8036, 2366.220
381.2857, 2392.777
381.7679, 2418.138
382.2500, 2430.226
382.7321, 2427.820
383.2142, 2429.204
383.6963, 2455.884
384.1784, 2501.173
384.6606, 2544.701
385.1427, 2583.530
385.6248, 2614.197
386.1069, 2631.054
386.5890, 2634.414
387.0711, 2626.687
387.5533, 2597.159
388.0354, 2561.497
388.5175, 2542.582
388.9996, 2557.138
389.4817, 2571.927
389.9638, 2563.059
390.4460, 2534.247
390.9281, 2497.078
391.4102, 2434.517
391.8923, 2380.212
392.3744, 2365.346
392.8565, 2417.498
393.3387, 2453.985
393.8208, 2435.750
394.3029, 2380.967
394.7850, 2322.908
395.2671, 2253.282
395.7492, 2196.770
396.2314, 2165.782
396.7135, 2166.592
397.1956, 2173.498
397.6777, 2192.846
398.1598, 2213.235
398.6419, 2220.510
399.1241, 2192.179
399.6062, 2175.860
400.0883, 2188.193
400.5704, 2232.750
401.0525, 2251.140
401.5346, 2226.540
402.0168, 2192.365
402.4989, 2177.836
402.9810, 2190.802
403.4631, 2204.847
403.9452, 2217.674
404.4273, 2228.607
404.9095, 2231.621
405.3916, 2223.428
405.8737, 2216.748
406.3558, 2222.429
406.8379, 2241.396
407.3200, 2255.114
407.8022, 2258.970
408.2843, 2260.381
408.7664, 2283.958
409.2485, 2329.577
409.7306, 2356.888
410.2127, 2327.990
410.6949, 2260.677
411.1770, 2213.023
411.6591, 2187.603
412.1412, 2185.973
412.6233, 2225.097
413.1054, 2292.176
413.5876, 2349.997
414.0697, 2381.716
414.5518, 2394.195
415.0339, 2387.423
415.5160, 2361.144
415.9981, 2341.022
416.4803, 2342.988
416.9624, 2363.069
417.4445, 2395.748
417.9266, 2467.472
418.4087, 2526.316
418.8908, 2528.057
419.3730, 2483.668
419.8551, 2466.636
420.3372, 2526.809
420.8193, 2611.761
421.3014, 2684.442
421.7835, 2734.837
422.2657, 2779.344
422.7478, 2810.867
423.2299, 2837.845
423.7120, 2884.397
424.1941, 2975.718
424.6762, 3067.346
425.1584, 3141.571
425.6404, 3189.390
426.1226, 3247.440
426.6047, 3318.794
427.0868, 3398.573
427.5689, 3478.726
428.0510, 3558.839
428.5331, 3639.259
429.0153, 3718.241
429.4974, 3795.071
429.9795, 3888.030
430.4616, 3998.203
430.9437, 4120.471
431.4258, 4249.987
431.9080, 4386.758
432.3901, 4524.856
432.8722, 4657.604
433.3543, 4795.140
433.8364, 4973.385
434.3185, 5190.706
434.8007, 5413.075
435.2828, 5612.144
435.7649, 5795.919
436.2470, 5987.998
436.7291, 6194.375
437.2112, 6396.956
437.6934, 6593.303
438.1755, 6771.904
438.6576, 6900.153
439.1397, 6941.552
439.6218, 6936.659
440.1039, 6931.317
440.5861, 6933.548
441.0682, 6883.387
441.5503, 6709.519
442.0324, 6476.795
442.5145, 6260.235
442.9966, 6088.367
443.4788, 5931.549
443.9609, 5782.173
444.4430, 5639.179
444.9251, 5500.918
445.4072, 5346.601
445.8893, 5210.836
446.3715, 5114.703
446.8536, 5108.801
447.3357, 5079.424
447.8178, 5021.090
448.2999, 4938.994
448.7820, 4845.150
449.2642, 4737.521
449.7463, 4625.265
450.2284, 4514.550
450.7105, 4410.338
451.1926, 4279.189
451.6747, 4105.545
452.1569, 3929.318
452.6390, 3808.195
453.1211, 3747.757
453.6032, 3684.014
454.0853, 3587.524
454.5674, 3475.385
455.0496, 3415.787
455.5317, 3411.472
456.0138, 3408.174
456.4959, 3352.434
456.9780, 3261.191
457.4601, 3176.776
457.9423, 3106.708
458.4244, 3050.678
458.9065, 3017.761
459.3886, 3001.699
459.8707, 2981.000
460.3528, 2945.373
460.8350, 2898.793
461.3171, 2842.741
461.7992, 2776.109
462.2813, 2708.459
462.7634, 2634.104
463.2455, 2564.929
463.7277, 2517.492
464.2098, 2529.381
464.6919, 2531.735
465.1740, 2497.802
465.6561, 2427.126
466.1382, 2358.646
466.6204, 2290.004
467.1025, 2228.805
467.5846, 2180.320
468.0667, 2159.555
468.5488, 2126.185
469.0309, 2071.121
469.5131, 2004.835
469.9952, 1956.125
470.4773, 1929.824
470.9594, 1909.427
471.4415, 1889.338
471.9236, 1869.479
472.4058, 1848.034
472.8879, 1825.158
473.3700, 1800.878
473.8521, 1773.610
474.3342, 1743.892
474.8163, 1718.513
475.2985, 1702.156
475.7806, 1689.656
476.2627, 1668.962
476.7448, 1640.942
477.2269, 1613.928
477.7090, 1587.006
478.1912, 1567.095
478.6733, 1569.977
479.1554, 1611.186
479.6375, 1643.931
480.1196, 1625.910
480.6017, 1573.363
481.0839, 1520.792
481.5660, 1464.831
482.0481, 1426.440
482.5302, 1426.710
483.0123, 1473.181
483.4944, 1501.565
483.9766, 1480.589
484.4587, 1442.276
484.9408, 1414.288
485.4229, 1404.750
485.9050, 1398.743
486.3871, 1392.617
486.8693, 1388.514
487.3514, 1399.486
487.8335, 1440.884
488.3156, 1472.039
488.7977, 1467.355
489.2798, 1416.458
489.7620, 1387.325
490.2441, 1385.465
490.7262, 1396.325
491.2083, 1402.967
491.6904, 1405.359
492.1725, 1394.361
492.6547, 1359.317
493.1368, 1311.760
493.6189, 1273.557
494.1010, 1245.287
494.5831, 1240.493
495.0652, 1296.594
495.5474, 1378.816
496.0295, 1421.849
496.5116, 1400.543
496.9937, 1364.890
497.4758, 1346.825
497.9579, 1344.228
498.4401, 1351.789
498.9222, 1381.971
499.4043, 1409.734
499.8864, 1418.096
500.3685, 1402.182
500.8506, 1393.071
501.3328, 1400.380
501.8149, 1416.224
502.2970, 1433.609
502.7791, 1469.439
503.2612, 1484.472
503.7433, 1465.153
504.2255, 1421.417
504.7076, 1395.226
505.1897, 1393.103
505.6718, 1396.204
506.1539, 1392.888
506.6360, 1379.895
507.1182, 1389.273
507.6003, 1429.266
508.0824, 1472.778
508.5645, 1483.588
509.0466, 1463.655
509.5287, 1433.427
510.0109, 1393.689
510.4930, 1351.816
510.9751, 1324.253
511.4572, 1309.812
511.9393, 1296.840
512.4214, 1272.076
512.9036, 1245.617
513.3857, 1231.420
513.8678, 1234.940
514.3499, 1241.918
514.8320, 1246.088
515.3141, 1247.382
515.7963, 1245.670
516.2784, 1255.984
516.7605, 1249.278
517.2426, 1198.038
517.7247, 1098.753
518.2068, 1040.873
518.6890, 1076.780
519.1711, 1126.988
519.6532, 1142.184
520.1353, 1095.002
520.6174, 1067.812
521.0995, 1073.805
521.5817, 1096.217
522.0638, 1092.234
522.5459, 1052.316
523.0280, 1026.645
523.5101, 1046.402
523.9922, 1102.228
524.4744, 1120.829
524.9565, 1098.425
525.4386, 1068.775
525.9207, 1070.358
526.4028, 1091.703
526.8849, 1098.210
527.3671, 1075.418
527.8492, 1045.733
528.3313, 1031.071
528.8134, 1028.949
529.2955, 1031.572
529.7776, 1039.826
530.2598, 1047.905
530.7419, 1051.300
531.2240, 1049.185
531.7061, 1046.384
532.1882, 1048.376
532.6703, 1048.491
533.1525, 1040.637
533.6346, 998.9865
534.1167, 980.2713
534.5988, 1006.577
535.0809, 1060.388
535.5630, 1078.111
536.0452, 1042.662
536.5273, 1004.169
537.0094, 986.8393
537.4915, 993.8084
537.9736, 978.0496
538.4557, 932.4203
538.9379, 884.5148
539.4200, 860.8864
539.9021, 861.3821
540.3842, 894.5350
540.8663, 984.5826
541.3484, 1079.759
541.8306, 1078.510
542.3127, 1000.364
542.7948, 936.2480
543.2769, 957.3754
543.7590, 1009.106
544.2411, 1039.570
544.7233, 1041.525
545.2054, 1036.484
545.6875, 1030.719
546.1696, 1025.032
546.6517, 1020.248
547.1339, 1019.881
547.6160, 1016.769
548.0981, 1001.742
548.5802, 980.8626
549.0623, 981.9250
549.5444, 1027.375
550.0266, 1064.079
550.5087, 1066.994
550.9908, 1028.421
551.4729, 1001.398
551.9550, 987.4270
552.4371, 981.2636
552.9193, 975.8288
553.4014, 971.4716
553.8835, 976.7430
554.3656, 996.5733
554.8477, 1023.542
555.3298, 1047.581
555.8120, 1067.928
556.2941, 1079.607
556.7762, 1074.627
557.2583, 1061.902
557.7404, 1050.313
558.2225, 1040.598
558.7047, 1033.423
559.1868, 1030.409
559.6689, 1029.475
560.1510, 1028.482
560.6331, 1029.958
561.1152, 1027.851
561.5974, 1020.674
562.0795, 1008.766
562.5616, 992.7178
563.0437, 957.0608
563.5258, 938.3829
564.0079, 957.5024
564.4901, 1021.427
564.9722, 1051.089
565.4543, 1035.890
565.9364, 1010.465
566.4185, 1015.340
566.9006, 1048.387
567.3828, 1060.970
567.8649, 1038.001
568.3470, 1001.194
568.8291, 985.2615
569.3112, 986.7850
569.7933, 991.9182
570.2755, 990.7079
570.7576, 990.9783
571.2397, 1005.159
571.7218, 1033.430
572.2039, 1054.217
572.6860, 1052.428
573.1682, 1040.062
573.6503, 1027.228
574.1323, 1018.176
574.6144, 1005.387
575.0966, 974.7205
575.5787, 941.4883
576.0608, 938.2348
576.5429, 985.9900
577.0250, 1029.274
577.5071, 1052.965
577.9893, 1057.991
578.4714, 1058.187
578.9535, 1052.428
579.4356, 1045.990
579.9177, 1040.061
580.3998, 1035.772
580.8820, 1044.183
581.3641, 1069.609
581.8462, 1096.840
582.3283, 1103.429
582.8104, 1096.928
583.2925, 1096.015
583.7747, 1122.671
584.2568, 1146.734
584.7389, 1135.389
585.2210, 1096.726
585.7031, 1074.762
586.1852, 1104.655
586.6674, 1144.103
587.1495, 1169.323
587.6316, 1172.313
588.1137, 1175.053
588.5958, 1172.598
589.0779, 1174.260
589.5601, 1192.240
590.0422, 1234.753
590.5243, 1270.267
591.0064, 1291.780
591.4885, 1304.055
591.9706, 1323.523
592.4528, 1351.111
592.9349, 1371.230
593.4170, 1361.206
593.8991, 1338.686
594.3812, 1358.883
594.8633, 1424.182
595.3455, 1491.255
595.8276, 1521.363
596.3097, 1532.200
596.7918, 1547.743
597.2739, 1578.267
597.7560, 1607.010
598.2382, 1607.955
598.7203, 1603.726
599.2024, 1638.247
599.6845, 1782.567
600.1666, 1902.334
600.6487, 1965.904
601.1309, 1973.968
601.6130, 1939.464
602.0951, 1833.688
602.5772, 1735.237
603.0593, 1707.206
603.5414, 1757.893
604.0236, 1760.289
604.5057, 1696.154
604.9878, 1621.020
605.4699, 1621.733
605.9520, 1679.868
606.4341, 1717.448
606.9163, 1700.468
607.3984, 1661.499
607.8805, 1635.243
608.3626, 1618.882
608.8447, 1601.875
609.3268, 1579.653
609.8090, 1554.756
610.2911, 1522.889
610.7732, 1479.283
611.2553, 1460.559
611.7374, 1501.622
612.2195, 1552.413
612.7017, 1574.651
613.1838, 1555.122
613.6659, 1531.650
614.1480, 1501.240
614.6301, 1471.777
615.1122, 1461.783
615.5944, 1473.154
616.0765, 1484.980
616.5586, 1489.820
617.0407, 1489.774
617.5228, 1492.453
618.0049, 1497.255
618.4871, 1495.901
618.9692, 1479.564
619.4513, 1455.125
619.9334, 1431.401
620.4155, 1409.952
620.8976, 1385.232
621.3798, 1345.595
621.8619, 1304.972
622.3440, 1278.464
622.8261, 1281.229
623.3082, 1284.366
623.7903, 1292.563
624.2725, 1297.698
624.7546, 1273.474
625.2367, 1199.103
625.7188, 1142.247
626.2009, 1132.509
626.6830, 1164.017
627.1652, 1180.507
627.6473, 1181.177
628.1294, 1173.434
628.6115, 1159.883
629.0936, 1142.783
629.5757, 1126.543
630.0579, 1110.832
630.5400, 1100.409
631.0221, 1097.400
631.5042, 1102.935
631.9863, 1118.801
632.4684, 1169.054
632.9506, 1205.129
633.4327, 1206.392
633.9148, 1178.915
634.3969, 1145.172
634.8790, 1085.933
635.3611, 1046.073
635.8433, 1044.423
636.3254, 1083.727
636.8075, 1116.085
637.2896, 1143.365
637.7717, 1159.963
638.2538, 1155.150
638.7360, 1131.886
639.2181, 1119.914
639.7002, 1125.106
640.1823, 1132.361
640.6644, 1117.172
641.1465, 1090.796
641.6287, 1077.891
642.1108, 1101.164
642.5929, 1127.493
643.0750, 1132.742
643.5571, 1123.070
644.0392, 1119.609
644.5214, 1141.294
645.0035, 1159.161
645.4856, 1160.576
