##NAMES=Arsenogorceixite
##RRUFFID=R060686
##IDEAL CHEMISTRY=BaAl_3_As^5+^O_4_(As^5+^O_3_OH)(OH)_6_
##LOCALITY=Clara mine, Rankach Valley, Oberwolfach, Wolfach, Black Forest, Baden-WÃ¼rttemberg, Germany
##OWNER=RRUFF
##SOURCE=Michael Scott
##DESCRIPTION=Stacked aggregates of pale greenish-yellow hexagonal plates
##STATUS=The identification of this mineral has been confirmed only by single crystal X-ray diffraction.
##URL=rruff.info/R060686
133.576, 9430.439
134.058, 9660.962
134.540, 9881.351
135.022, 10091.320
135.504, 10295.010
135.986, 10491.380
136.469, 10676.640
136.951, 10874.520
137.433, 11111.420
137.915, 11394.160
138.397, 11633.260
138.879, 11821.240
139.361, 11964.170
139.843, 12077.790
140.326, 12154.880
140.808, 12222.070
141.290, 12296.250
141.772, 12376.710
142.254, 12466.820
142.736, 12573.620
143.218, 12695.030
143.700, 12788.630
144.182, 12839.690
144.665, 12877.880
145.147, 12927.730
145.629, 12986.250
146.111, 13061.430
146.593, 13160.780
147.075, 13292.690
147.557, 13402.380
148.039, 13474.880
148.521, 13530.360
149.004, 13596.710
149.486, 13689.260
149.968, 13776.220
150.450, 13853.520
150.932, 13931.140
151.414, 13977.290
151.896, 13986.550
152.378, 13965.720
152.861, 13927.940
153.343, 13878.150
153.825, 13809.950
154.307, 13721.630
154.789, 13611.910
155.271, 13483.930
155.753, 13321.030
156.235, 13136.410
156.717, 12974.060
157.200, 12860.260
157.682, 12758.980
158.164, 12647.490
158.646, 12501.650
159.128, 12362.660
159.610, 12238.140
160.092, 12127.730
160.574, 12032.090
161.057, 11952.830
161.539, 11886.790
162.021, 11831.040
162.503, 11799.990
162.985, 11765.520
163.467, 11708.390
163.949, 11626.700
164.431, 11553.190
164.913, 11499.790
165.396, 11464.940
165.878, 11446.520
166.360, 11462.130
166.842, 11482.430
167.324, 11485.610
167.806, 11466.770
168.288, 11447.380
168.770, 11441.600
169.253, 11445.720
169.735, 11451.640
170.217, 11441.370
170.699, 11437.700
171.181, 11467.450
171.663, 11545.470
172.145, 11631.600
172.627, 11693.810
173.109, 11736.140
173.592, 11774.480
174.074, 11807.540
174.556, 11845.240
175.038, 11902.410
175.520, 11988.130
176.002, 12086.610
176.484, 12180.820
176.966, 12270.790
177.449, 12360.750
177.931, 12446.740
178.413, 12534.490
178.895, 12638.390
179.377, 12768.430
179.859, 12912.830
180.341, 13050.780
180.823, 13183.580
181.305, 13324.940
181.788, 13489.490
182.270, 13673.500
182.752, 13871.290
183.234, 14085.400
183.716, 14309.920
184.198, 14521.050
184.680, 14716.230
185.162, 14917.860
185.645, 15167.910
186.127, 15454.600
186.609, 15723.190
187.091, 15908.060
187.573, 16047.030
188.055, 16295.240
188.537, 16677.641
189.019, 17097.830
189.501, 17433.490
189.984, 17690.090
190.466, 17920.961
190.948, 18156.020
191.430, 18392.740
191.912, 18593.109
192.394, 18750.029
192.876, 18881.539
193.358, 19026.830
193.840, 19187.490
194.323, 19321.609
194.805, 19405.270
195.287, 19439.180
195.769, 19430.910
196.251, 19371.320
196.733, 19280.770
197.215, 19212.551
197.697, 19170.961
198.180, 19123.029
198.662, 19051.029
199.144, 18954.551
199.626, 18829.971
200.108, 18670.900
200.590, 18485.510
201.072, 18299.221
201.554, 18106.289
202.036, 17928.590
202.519, 17789.189
203.001, 17693.270
203.483, 17592.260
203.965, 17473.930
204.447, 17342.381
204.929, 17230.641
205.411, 17145.160
205.893, 17059.760
206.376, 16942.461
206.858, 16780.420
207.340, 16646.641
207.822, 16564.980
208.304, 16530.730
208.786, 16474.279
209.268, 16389.430
209.750, 16295.960
210.232, 16213.870
210.714, 16145.970
211.197, 16085.720
211.679, 16036.050
212.161, 15997.790
212.643, 15941.400
213.125, 15850.600
213.607, 15765.080
214.089, 15740.310
214.572, 15709.785
215.054, 15740.199
215.536, 15755.821
216.018, 15757.446
216.500, 15703.150
216.982, 15721.064
217.464, 15710.040
217.946, 15697.829
218.428, 15725.906
218.911, 15679.744
219.393, 15707.183
219.875, 15699.860
220.357, 15699.600
220.839, 15723.350
221.321, 15761.820
221.803, 15802.590
222.285, 15850.730
222.767, 15891.800
223.250, 15919.730
223.732, 15931.960
224.214, 15942.650
224.696, 15951.200
225.178, 15959.300
225.660, 15972.810
226.142, 16002.390
226.624, 16018.970
227.107, 16005.920
227.589, 15942.280
228.071, 15906.820
228.553, 15914.510
229.035, 15944.650
229.517, 15946.200
229.999, 15906.160
230.481, 15856.880
230.963, 15813.060
231.445, 15782.370
231.928, 15737.040
232.410, 15666.740
232.892, 15583.320
233.374, 15527.510
233.856, 15522.550
234.338, 15510.930
234.820, 15461.510
235.303, 15344.450
235.785, 15256.610
236.267, 15216.670
236.749, 15206.240
237.231, 15160.700
237.713, 15053.780
238.195, 14949.110
238.677, 14882.100
239.159, 14879.050
239.641, 14856.690
240.124, 14796.380
240.606, 14713.570
241.088, 14670.830
241.570, 14684.480
242.052, 14717.050
242.534, 14751.480
243.016, 14798.420
243.498, 14823.030
243.980, 14812.510
244.463, 14776.360
244.945, 14759.970
245.427, 14775.550
245.909, 14793.930
246.391, 14794.180
246.873, 14752.380
247.355, 14744.340
247.837, 14737.014
248.320, 14759.741
248.802, 14775.174
249.284, 14783.703
249.766, 14764.652
250.248, 14781.217
250.730, 14783.508
251.212, 14785.213
251.694, 14798.930
252.176, 14847.150
252.659, 14891.560
253.141, 14935.230
253.623, 14972.590
254.105, 15001.210
254.587, 15022.230
255.069, 15031.710
255.551, 15022.980
256.033, 15001.620
256.516, 14997.100
256.998, 15014.050
257.480, 15040.960
257.962, 15071.950
258.444, 15111.580
258.926, 15142.190
259.408, 15158.520
259.890, 15163.380
260.372, 15171.810
260.855, 15178.300
261.337, 15196.570
261.819, 15242.650
262.301, 15336.360
262.783, 15397.650
263.265, 15407.100
263.747, 15376.980
264.229, 15372.510
264.711, 15407.470
265.194, 15442.270
265.676, 15444.880
266.158, 15402.620
266.640, 15376.010
267.122, 15377.220
267.604, 15399.130
268.086, 15409.360
268.569, 15405.940
269.051, 15396.250
269.533, 15385.550
270.015, 15374.870
270.497, 15359.490
270.979, 15337.490
271.461, 15311.080
271.943, 15287.520
272.425, 15264.870
272.908, 15251.220
273.390, 15256.370
273.872, 15284.220
274.354, 15304.960
274.836, 15313.180
275.318, 15313.030
275.800, 15321.190
276.282, 15341.310
276.764, 15355.700
277.247, 15341.650
277.729, 15292.750
278.211, 15283.820
278.693, 15337.050
279.175, 15423.970
279.657, 15462.460
280.139, 15446.320
280.621, 15413.410
281.103, 15379.990
281.586, 15345.660
282.068, 15334.310
282.550, 15352.120
283.032, 15390.220
283.514, 15434.550
283.996, 15487.070
284.478, 15527.580
284.960, 15539.790
285.443, 15525.250
285.925, 15504.440
286.407, 15473.990
286.889, 15447.620
287.371, 15460.940
287.853, 15514.710
288.335, 15565.150
288.817, 15574.880
289.299, 15553.020
289.782, 15561.150
290.264, 15613.730
290.746, 15678.230
291.228, 15690.740
291.710, 15655.080
292.192, 15629.660
292.674, 15658.640
293.156, 15727.040
293.638, 15786.200
294.121, 15833.190
294.603, 15865.400
295.085, 15868.100
295.567, 15847.340
296.049, 15838.450
296.531, 15870.990
297.013, 15929.440
297.496, 15978.270
297.978, 16013.770
298.460, 16043.020
298.942, 16070.850
299.424, 16098.160
299.906, 16127.260
300.388, 16150.610
300.870, 16178.420
301.352, 16234.720
301.835, 16324.920
302.317, 16411.039
302.799, 16447.740
303.281, 16450.510
303.763, 16458.770
304.245, 16501.619
304.727, 16553.869
305.209, 16582.490
305.691, 16584.631
306.174, 16581.650
306.656, 16590.410
307.138, 16606.311
307.620, 16621.189
308.102, 16642.301
308.584, 16655.039
309.066, 16647.449
309.548, 16619.471
310.030, 16576.100
310.513, 16507.080
310.995, 16428.221
311.477, 16360.910
311.959, 16322.830
312.441, 16291.120
312.923, 16254.310
313.405, 16212.040
313.887, 16164.910
314.370, 16106.420
314.852, 16045.210
315.334, 15989.600
315.816, 15949.270
316.298, 15908.750
316.780, 15857.210
317.262, 15797.280
317.744, 15745.320
318.226, 15724.260
318.709, 15705.420
319.191, 15667.490
319.673, 15586.620
320.155, 15507.500
320.637, 15442.450
321.119, 15389.240
321.601, 15338.100
322.083, 15287.600
322.565, 15237.860
323.048, 15188.150
323.530, 15125.350
324.012, 15079.940
324.494, 15071.450
324.976, 15085.340
325.458, 15079.260
325.940, 15019.580
326.422, 14961.870
326.905, 14930.480
327.387, 14954.820
327.869, 14956.640
328.351, 14916.130
328.833, 14854.280
329.315, 14811.150
329.797, 14802.840
330.279, 14796.430
330.762, 14780.000
331.244, 14745.110
331.726, 14727.180
332.208, 14742.440
332.690, 14766.260
333.172, 14759.880
333.654, 14706.080
334.136, 14650.950
334.618, 14601.090
335.100, 14554.290
335.583, 14543.160
336.065, 14590.060
336.547, 14646.670
337.029, 14651.620
337.511, 14581.020
337.993, 14530.100
338.475, 14528.520
338.957, 14570.330
339.440, 14584.320
339.922, 14559.120
340.404, 14532.410
340.886, 14549.690
341.368, 14618.500
341.850, 14655.380
342.332, 14633.760
342.814, 14572.650
343.297, 14542.210
343.779, 14546.410
344.261, 14553.970
344.743, 14530.230
345.225, 14480.970
345.707, 14468.560
346.189, 14513.280
346.671, 14583.500
347.153, 14619.270
347.635, 14621.760
348.118, 14620.520
348.600, 14632.960
349.082, 14655.910
349.564, 14684.410
350.046, 14722.150
350.528, 14750.900
351.010, 14737.500
351.492, 14692.280
351.975, 14653.970
352.457, 14657.700
352.939, 14676.000
353.421, 14661.010
353.903, 14605.040
354.385, 14555.410
354.867, 14560.260
355.349, 14601.010
355.832, 14642.370
356.314, 14676.510
356.796, 14700.960
357.278, 14710.110
357.760, 14704.370
358.242, 14696.930
358.724, 14688.740
359.206, 14685.740
359.688, 14694.440
360.171, 14743.100
360.653, 14780.080
361.135, 14766.430
361.617, 14711.200
362.099, 14676.040
362.581, 14705.050
363.063, 14749.280
363.545, 14774.240
364.027, 14752.400
364.510, 14737.780
364.992, 14744.640
365.474, 14768.340
365.956, 14795.360
366.438, 14836.420
366.920, 14869.800
367.402, 14884.600
367.884, 14865.390
368.366, 14857.670
368.849, 14865.550
369.331, 14886.000
369.813, 14913.760
370.295, 14946.130
370.777, 14989.550
371.259, 15056.630
371.741, 15160.910
372.224, 15207.670
372.706, 15159.090
373.188, 15085.070
373.670, 15068.570
374.152, 15134.800
374.634, 15196.150
375.116, 15234.890
375.598, 15252.220
376.080, 15255.680
376.562, 15235.880
377.045, 15223.810
377.527, 15220.634
378.009, 15251.997
378.491, 15274.974
378.973, 15290.018
379.455, 15273.369
379.937, 15297.645
380.419, 15305.521
380.902, 15312.726
381.384, 15333.730
381.866, 15353.700
382.348, 15399.210
382.830, 15474.420
383.312, 15556.680
383.794, 15611.290
384.276, 15641.920
384.759, 15668.480
385.241, 15687.340
385.723, 15711.700
386.205, 15776.390
386.687, 15884.690
387.169, 15985.440
387.651, 16023.150
388.133, 16019.780
388.615, 16015.840
389.098, 16021.860
389.580, 16036.840
390.062, 16066.080
390.544, 16107.290
391.026, 16141.180
391.508, 16152.190
391.990, 16153.350
392.472, 16156.490
392.954, 16163.800
393.437, 16176.040
393.919, 16195.740
394.401, 16221.370
394.883, 16248.890
395.365, 16270.040
395.847, 16298.370
396.329, 16344.380
396.811, 16421.529
397.293, 16483.990
397.776, 16521.039
398.258, 16539.529
398.740, 16550.340
399.222, 16533.869
399.704, 16529.891
400.186, 16546.730
400.668, 16585.211
401.151, 16635.539
401.633, 16702.760
402.115, 16777.510
402.597, 16854.801
403.079, 16942.430
403.561, 17015.100
404.043, 17065.320
404.525, 17098.100
405.007, 17135.170
405.490, 17174.650
405.972, 17224.189
406.454, 17293.141
406.936, 17383.990
407.418, 17463.240
407.900, 17526.141
408.382, 17581.100
408.864, 17648.090
409.346, 17727.051
409.828, 17796.150
410.311, 17838.141
410.793, 17860.779
411.275, 17893.289
411.757, 17936.840
412.239, 17982.881
412.721, 18020.760
413.203, 18054.471
413.685, 18095.859
414.168, 18160.211
414.650, 18223.461
415.132, 18241.359
415.614, 18222.580
416.096, 18221.529
416.578, 18306.539
417.060, 18413.699
417.542, 18468.859
418.025, 18439.910
418.507, 18393.359
418.989, 18349.740
419.471, 18316.430
419.953, 18307.670
420.435, 18370.381
420.917, 18426.131
421.399, 18428.391
421.881, 18363.320
422.364, 18307.170
422.846, 18284.160
423.328, 18275.641
423.810, 18263.400
424.292, 18254.461
424.774, 18231.881
425.256, 18182.510
425.738, 18109.869
426.220, 18063.811
426.703, 18069.301
427.185, 18073.430
427.667, 18043.961
428.149, 17961.510
428.631, 17891.779
429.113, 17834.461
429.595, 17774.391
430.077, 17760.316
430.560, 17735.076
431.042, 17699.266
431.524, 17621.252
432.006, 17597.744
432.488, 17552.393
432.970, 17506.146
433.452, 17490.307
433.934, 17418.428
434.417, 17402.105
434.899, 17359.551
435.381, 17335.840
435.863, 17321.779
436.345, 17279.971
436.827, 17213.369
437.309, 17147.369
437.791, 17106.779
438.273, 17076.750
438.755, 17032.900
439.238, 16967.381
439.720, 16901.080
440.202, 16843.859
440.684, 16798.400
441.166, 16770.010
441.648, 16781.439
442.130, 16794.660
442.612, 16784.580
443.095, 16749.080
443.577, 16712.600
444.059, 16683.381
444.541, 16657.230
445.023, 16630.689
445.505, 16584.100
445.987, 16558.750
446.469, 16576.010
446.952, 16624.170
447.434, 16654.670
447.916, 16661.449
448.398, 16655.891
448.880, 16640.039
449.362, 16607.090
449.844, 16582.789
450.326, 16562.480
450.808, 16554.961
451.290, 16577.770
451.773, 16641.561
452.255, 16696.471
452.737, 16727.859
453.219, 16738.971
453.701, 16748.789
454.183, 16755.859
454.665, 16768.711
455.147, 16802.350
455.630, 16851.471
456.112, 16882.029
456.594, 16886.930
457.076, 16876.980
457.558, 16856.801
458.040, 16831.900
458.522, 16825.150
459.004, 16837.721
459.487, 16880.131
459.969, 16993.211
460.451, 17179.221
460.933, 17331.051
461.415, 17335.820
461.897, 17272.430
462.379, 17232.609
462.861, 17254.170
463.343, 17295.750
463.826, 17349.570
464.308, 17410.391
464.790, 17461.400
465.272, 17500.160
465.754, 17524.961
466.236, 17529.660
466.718, 17495.789
467.200, 17489.461
467.682, 17529.000
468.165, 17591.520
468.647, 17653.641
469.129, 17724.600
469.611, 17778.061
470.093, 17801.090
470.575, 17798.580
471.057, 17818.600
471.539, 17864.859
472.022, 17924.400
472.504, 17994.061
472.986, 18075.330
473.468, 18142.020
473.950, 18190.859
474.432, 18226.311
474.914, 18249.580
475.396, 18262.439
475.878, 18281.131
476.361, 18314.609
476.843, 18359.150
477.325, 18409.000
477.807, 18464.580
478.289, 18518.070
478.771, 18567.619
479.253, 18610.510
479.735, 18639.170
480.217, 18639.430
480.700, 18649.051
481.182, 18703.520
481.664, 18786.561
482.146, 18861.990
482.628, 18905.439
483.110, 18943.480
483.592, 18991.881
484.074, 19054.490
484.556, 19100.770
485.039, 19100.189
485.521, 19092.090
486.003, 19110.820
486.485, 19191.539
486.967, 19250.830
487.449, 19275.740
487.931, 19275.240
488.414, 19280.400
488.896, 19299.051
489.378, 19309.141
489.860, 19296.680
490.342, 19259.529
490.824, 19243.561
491.306, 19255.461
491.788, 19272.230
492.270, 19259.131
492.753, 19220.109
493.235, 19202.359
493.717, 19162.512
494.199, 19177.633
494.681, 19179.414
495.163, 19168.570
495.645, 19107.283
496.127, 19111.133
496.609, 19088.873
497.092, 19065.549
497.574, 19078.564
498.056, 19024.615
498.538, 19033.490
499.020, 19033.170
499.502, 19051.670
499.984, 19129.730
500.466, 19187.430
500.948, 19177.100
501.431, 19112.789
501.913, 19071.270
502.395, 19084.480
502.877, 19109.859
503.359, 19124.760
503.841, 19111.949
504.323, 19132.080
504.805, 19201.020
505.288, 19290.471
505.770, 19367.170
506.252, 19430.580
506.734, 19482.850
507.216, 19522.221
507.698, 19550.920
508.180, 19571.539
508.662, 19580.270
509.145, 19610.750
509.627, 19706.000
510.109, 19847.631
510.591, 19945.721
511.073, 19986.971
511.555, 20018.350
512.037, 20107.680
512.519, 20229.631
513.001, 20320.699
513.484, 20329.090
513.966, 20321.211
514.448, 20354.150
514.930, 20421.381
515.412, 20491.289
515.894, 20547.721
516.376, 20601.449
516.858, 20658.730
517.341, 20720.869
517.823, 20784.961
518.305, 20862.381
518.787, 20936.920
519.269, 20987.619
519.751, 21003.430
520.233, 21008.131
520.715, 20994.199
521.197, 20968.820
521.680, 20984.000
522.162, 21064.990
522.644, 21132.939
523.126, 21136.010
523.608, 21069.211
524.090, 21019.301
524.572, 20989.510
525.054, 20971.619
525.536, 20963.160
526.019, 20960.230
526.501, 20938.859
526.983, 20886.750
527.465, 20817.830
527.947, 20747.471
528.429, 20677.740
528.911, 20612.641
529.393, 20572.199
529.875, 20528.211
530.358, 20452.939
530.840, 20341.461
531.322, 20215.740
531.804, 20054.020
532.286, 19897.189
532.768, 19792.869
533.250, 19840.779
533.732, 19837.520
534.214, 19716.311
534.697, 19510.480
535.179, 19341.619
535.661, 19221.740
536.143, 19125.391
536.625, 19051.430
537.107, 19003.020
537.589, 18938.350
538.071, 18853.381
538.554, 18761.811
539.036, 18675.189
539.518, 18593.811
540.000, 18524.359
540.482, 18470.131
540.964, 18426.740
541.446, 18389.240
541.928, 18356.740
542.411, 18324.949
542.893, 18284.369
543.375, 18246.471
543.857, 18234.520
544.339, 18247.730
544.821, 18247.289
545.303, 18193.109
545.785, 18122.811
546.267, 18071.930
546.750, 18060.689
547.232, 18048.119
547.714, 18011.330
548.196, 17968.480
548.678, 17951.840
549.160, 18013.170
549.642, 18043.609
550.124, 18007.730
550.606, 17910.420
551.089, 17845.641
551.571, 17819.240
552.053, 17813.730
552.535, 17824.500
553.017, 17852.920
553.499, 17865.930
553.981, 17857.980
554.463, 17845.779
554.945, 17860.410
555.428, 17894.061
555.910, 17906.740
556.392, 17874.660
556.874, 17826.090
557.356, 17788.381
557.838, 17763.420
558.320, 17758.789
558.802, 17802.471
559.284, 17852.600
559.767, 17872.150
560.249, 17850.920
560.731, 17841.029
561.213, 17873.461
561.695, 17917.961
562.177, 17947.240
562.659, 17927.590
563.141, 17931.051
563.624, 17974.020
564.106, 18039.330
564.588, 18086.461
565.070, 18111.990
565.552, 18125.500
566.034, 18128.760
566.516, 18122.109
566.998, 18105.789
567.481, 18077.311
567.963, 18056.270
568.445, 18062.369
568.927, 18089.580
569.409, 18122.820
569.891, 18164.711
570.373, 18192.480
570.855, 18162.420
571.338, 18101.600
571.820, 18064.320
572.302, 18089.430
572.784, 18127.900
573.266, 18157.539
573.748, 18177.980
574.230, 18190.369
574.712, 18188.699
575.194, 18184.100
575.677, 18183.939
576.159, 18193.971
576.641, 18188.010
577.123, 18150.789
577.605, 18112.850
578.087, 18105.400
578.569, 18138.619
579.051, 18163.660
579.533, 18172.721
580.016, 18173.221
580.498, 18184.070
580.980, 18204.520
581.462, 18213.580
581.944, 18191.461
582.426, 18155.240
582.908, 18142.980
583.390, 18152.561
583.872, 18159.680
584.355, 18132.631
584.837, 18101.730
585.319, 18102.311
585.801, 18150.939
586.283, 18193.570
586.765, 18203.760
587.247, 18196.070
587.729, 18188.439
588.211, 18183.301
588.694, 18179.141
589.176, 18173.721
589.658, 18169.150
590.140, 18173.859
590.622, 18192.930
591.104, 18211.051
591.586, 18225.471
592.068, 18235.660
592.551, 18222.420
593.033, 18182.641
593.515, 18138.939
593.997, 18106.250
594.479, 18085.939
594.961, 18085.070
595.443, 18108.850
595.925, 18136.670
596.407, 18142.830
596.890, 18138.930
597.372, 18146.160
597.854, 18199.949
598.336, 18241.430
598.818, 18230.811
599.300, 18179.250
599.782, 18139.160
600.265, 18125.330
600.747, 18121.980
601.229, 18121.119
601.711, 18120.029
602.193, 18139.570
602.675, 18194.980
603.157, 18248.590
603.639, 18268.471
604.121, 18252.000
604.604, 18222.391
605.086, 18174.551
605.568, 18130.520
606.050, 18132.570
606.532, 18172.180
607.014, 18206.490
607.496, 18216.730
607.978, 18214.971
608.460, 18214.051
608.943, 18213.131
609.425, 18208.910
609.907, 18196.631
610.389, 18182.520
610.871, 18169.680
611.353, 18158.051
611.835, 18150.330
612.317, 18155.100
612.799, 18158.730
613.282, 18149.311
613.764, 18105.760
614.246, 18096.920
614.728, 18145.900
615.210, 18210.410
615.692, 18211.529
616.174, 18142.760
616.656, 18084.590
617.138, 18065.859
617.621, 18068.051
618.103, 18035.600
618.585, 17976.500
619.067, 17947.811
619.549, 18026.330
620.031, 18130.189
620.513, 18158.520
620.995, 18103.410
621.477, 18053.119
621.960, 18055.711
622.442, 18081.199
622.924, 18106.900
623.406, 18134.990
623.888, 18152.090
624.370, 18155.510
624.852, 18147.619
625.334, 18127.141
625.817, 18078.609
626.299, 18058.100
626.781, 18087.730
627.263, 18144.801
627.745, 18157.881
628.227, 18125.971
628.709, 18084.740
629.191, 18040.609
