##NAMES=Arsenopyrite
##RRUFFID=R070585
##IDEAL CHEMISTRY=Fe^3+^(AsS)^3-^
##LOCALITY=Standard Consolidated mine, Sumpter District, Baker County, Oregon, USA
##OWNER=RRUFF
##SOURCE=James Shigley
##DESCRIPTION=Tin-yellow, metallic striated crystal associated with calcite
##STATUS=The identification of this mineral is confirmed by single-crystal X-ray diffraction and chemical analysis.
##URL=rruff.info/R070585
##MEASURED CHEMISTRY=Fe_1.00_As_1.00_S_1.00_
93.35510, 1825.627
93.83722, 1835.743
94.31934, 1864.297
94.80145, 1912.247
95.28357, 1948.047
95.76569, 1956.960
96.24780, 1967.627
96.72992, 1991.353
97.21204, 2028.002
97.69415, 2069.702
98.17627, 2107.474
98.65839, 2138.161
99.14051, 2172.795
99.62263, 2215.779
100.1047, 2260.559
100.5869, 2296.865
101.0690, 2308.682
101.5511, 2267.532
102.0332, 2256.647
102.5153, 2279.888
102.9974, 2303.010
103.4796, 2313.561
103.9617, 2314.641
104.4438, 2319.115
104.9259, 2346.499
105.4080, 2369.801
105.8901, 2345.664
106.3723, 2250.614
106.8544, 2133.331
107.3365, 2043.440
107.8186, 1982.873
108.3007, 1938.721
108.7828, 1911.052
109.2650, 1892.582
109.7471, 1874.764
110.2292, 1851.461
110.7113, 1824.828
111.1934, 1806.581
111.6755, 1801.510
112.1577, 1800.349
112.6398, 1801.152
113.1219, 1803.004
113.6040, 1804.544
114.0861, 1804.508
114.5682, 1802.694
115.0504, 1799.718
115.5325, 1802.675
116.0146, 1799.660
116.4967, 1779.784
116.9788, 1742.387
117.4609, 1698.857
117.9431, 1668.450
118.4252, 1659.248
118.9073, 1654.564
119.3894, 1652.394
119.8715, 1655.179
120.3536, 1669.090
120.8358, 1698.444
121.3179, 1735.934
121.8000, 1752.019
122.2821, 1740.928
122.7642, 1720.980
123.2464, 1693.287
123.7285, 1660.007
124.2106, 1628.552
124.6927, 1602.080
125.1748, 1582.253
125.6569, 1570.517
126.1391, 1575.677
126.6212, 1583.936
127.1033, 1580.552
127.5854, 1563.079
128.0675, 1544.288
128.5496, 1538.370
129.0318, 1539.052
129.5139, 1532.491
129.9960, 1506.726
130.4781, 1468.447
130.9602, 1440.839
131.4423, 1434.237
131.9245, 1427.087
132.4066, 1403.663
132.8887, 1367.053
133.3708, 1331.347
133.8529, 1306.019
134.3350, 1290.705
134.8172, 1288.892
135.2993, 1315.073
135.7814, 1345.179
136.2635, 1370.912
136.7456, 1389.619
137.2277, 1399.930
137.7099, 1399.316
138.1920, 1384.805
138.6741, 1363.223
139.1562, 1331.010
139.6383, 1295.295
140.1204, 1259.201
140.6026, 1224.347
141.0847, 1194.059
141.5668, 1179.948
142.0489, 1199.102
142.5310, 1216.850
143.0131, 1230.703
143.4953, 1240.520
143.9774, 1246.546
144.4595, 1248.883
144.9416, 1247.510
145.4237, 1242.793
145.9058, 1228.630
146.3880, 1217.474
146.8701, 1216.263
147.3522, 1224.000
147.8343, 1233.877
148.3164, 1240.819
148.7985, 1244.677
149.2807, 1249.003
149.7628, 1255.946
150.2449, 1262.317
150.7270, 1261.888
151.2091, 1252.391
151.6912, 1246.683
152.1734, 1266.605
152.6555, 1305.608
153.1376, 1333.691
153.6197, 1334.359
154.1018, 1316.973
154.5839, 1303.272
155.0661, 1296.380
155.5482, 1294.434
156.0303, 1296.564
156.5124, 1302.355
156.9945, 1307.374
157.4766, 1307.192
157.9588, 1301.980
158.4409, 1299.675
158.9230, 1304.412
159.4051, 1310.680
159.8872, 1316.105
160.3694, 1320.236
160.8515, 1321.898
161.3336, 1317.653
161.8157, 1303.456
162.2978, 1296.752
162.7799, 1308.766
163.2621, 1323.796
163.7442, 1332.546
164.2263, 1331.743
164.7084, 1321.197
165.1905, 1298.195
165.6726, 1245.074
166.1548, 1207.785
166.6369, 1199.098
167.1190, 1205.085
167.6011, 1212.138
168.0832, 1213.474
168.5653, 1209.691
169.0475, 1203.643
169.5296, 1192.523
170.0117, 1181.964
170.4938, 1175.857
170.9759, 1170.774
171.4580, 1160.139
171.9402, 1138.671
172.4223, 1106.745
172.9044, 1082.397
173.3865, 1063.530
173.8686, 1052.060
174.3507, 1052.245
174.8329, 1061.730
175.3150, 1072.618
175.7971, 1079.289
176.2792, 1081.218
176.7613, 1077.570
177.2434, 1063.665
177.7256, 1047.966
178.2077, 1036.033
178.6898, 1028.516
179.1719, 1023.402
179.6540, 1019.143
180.1361, 1015.766
180.6183, 1012.612
181.1004, 1007.477
181.5825, 1003.370
182.0646, 1005.716
182.5467, 1016.878
183.0288, 1028.336
183.5110, 1026.189
183.9931, 1012.349
184.4752, 1005.124
184.9573, 1020.481
185.4394, 1047.036
185.9215, 1054.895
186.4037, 1029.144
186.8858, 997.5456
187.3679, 990.5634
187.8500, 1007.080
188.3321, 1022.877
188.8142, 1019.457
189.2964, 999.6779
189.7785, 987.3937
190.2606, 990.9901
190.7427, 1001.231
191.2248, 1013.021
191.7069, 1026.086
192.1891, 1034.602
192.6712, 1030.673
193.1533, 1012.734
193.6354, 997.5672
194.1175, 989.6848
194.5996, 985.4095
195.0818, 983.9280
195.5639, 985.0398
196.0460, 986.5034
196.5281, 983.8369
197.0102, 973.3546
197.4923, 970.1440
197.9745, 987.0614
198.4566, 1005.905
198.9387, 1011.833
199.4208, 999.7832
199.9029, 978.6262
200.3850, 965.2897
200.8672, 962.0743
201.3493, 963.6002
201.8314, 975.9027
202.3135, 988.6962
202.7956, 991.5231
203.2777, 979.5705
203.7599, 957.5358
204.2420, 938.7910
204.7241, 925.6004
205.2062, 913.3171
205.6883, 896.9523
206.1704, 882.4526
206.6526, 879.2199
207.1347, 893.1307
207.6168, 918.5118
208.0989, 928.1548
208.5810, 899.7054
209.0631, 878.7735
209.5453, 877.3046
210.0274, 887.0020
210.5095, 894.5023
210.9916, 891.7184
211.4737, 879.8118
211.9559, 869.6293
212.4380, 861.5410
212.9201, 854.4968
213.4022, 848.3828
213.8843, 843.1097
214.3664, 838.4423
214.8486, 834.0415
215.3307, 830.0405
215.8128, 828.7941
216.2949, 838.0128
216.7770, 842.0150
217.2591, 829.1929
217.7413, 804.0590
218.2234, 782.1361
218.7055, 774.6824
219.1876, 781.8482
219.6697, 789.3650
220.1518, 799.0065
220.6340, 807.4478
221.1161, 814.3774
221.5982, 819.1542
222.0803, 818.6947
222.5624, 809.4696
223.0445, 791.3915
223.5267, 775.7303
224.0088, 761.9739
224.4909, 750.9191
224.9730, 741.5652
225.4551, 734.2156
225.9372, 734.0687
226.4194, 750.3557
226.9015, 780.4361
227.3836, 795.3826
227.8657, 781.8489
228.3478, 759.3848
228.8299, 746.1035
229.3121, 743.4677
229.7942, 742.9586
230.2763, 735.7665
230.7584, 724.2065
231.2405, 719.9059
231.7226, 731.4824
232.2048, 748.0276
232.6869, 756.9916
233.1690, 757.1979
233.6511, 752.3212
234.1332, 741.4537
234.6153, 727.1308
235.0975, 717.3131
235.5796, 713.5584
236.0617, 715.6721
236.5438, 727.1975
237.0259, 752.4519
237.5080, 772.2190
237.9902, 760.5037
238.4723, 730.3043
238.9544, 712.9325
239.4365, 731.5963
239.9186, 767.1179
240.4007, 783.0112
240.8829, 773.2383
241.3650, 755.5486
241.8471, 738.4537
242.3292, 722.8834
242.8113, 711.7185
243.2934, 705.4951
243.7756, 704.5256
244.2577, 710.6341
244.7398, 726.6351
245.2219, 743.9629
245.7040, 758.7031
246.1861, 770.8002
246.6683, 779.4434
247.1504, 783.6147
247.6325, 784.0399
248.1146, 782.8298
248.5967, 780.1956
249.0788, 775.3378
249.5610, 765.1547
250.0431, 752.6177
250.5252, 744.0304
251.0073, 745.4089
251.4894, 753.3790
251.9715, 755.4371
252.4537, 746.1364
252.9358, 740.1842
253.4179, 748.6912
253.9000, 765.3786
254.3821, 777.8206
254.8642, 775.5145
255.3464, 763.4963
255.8285, 761.6202
256.3106, 774.8729
256.7927, 791.0676
257.2748, 807.2134
257.7570, 821.8074
258.2391, 831.9323
258.7212, 834.5583
259.2033, 831.5018
259.6854, 830.9582
260.1675, 838.2415
260.6497, 839.2656
261.1318, 819.6691
261.6139, 791.6735
262.0960, 777.1968
262.5781, 794.3120
263.0602, 833.2792
263.5424, 853.0213
264.0245, 840.3380
264.5066, 828.0634
264.9887, 831.7955
265.4708, 843.5078
265.9529, 849.7516
266.4351, 840.6014
266.9172, 821.7452
267.3993, 815.4169
267.8814, 829.6638
268.3635, 844.3100
268.8456, 853.9756
269.3278, 859.4078
269.8099, 861.0574
270.2920, 857.8961
270.7741, 852.2791
271.2562, 852.7593
271.7383, 864.2393
272.2205, 873.9052
272.7026, 876.3958
273.1847, 875.4763
273.6668, 876.2599
274.1489, 881.8918
274.6310, 889.8480
275.1132, 891.8843
275.5953, 881.8700
276.0774, 876.9459
276.5595, 887.8634
277.0416, 903.3917
277.5237, 910.2769
278.0059, 901.7709
278.4880, 883.2712
278.9701, 867.1339
279.4522, 853.7643
279.9343, 842.4971
280.4164, 833.0916
280.8986, 825.3246
281.3807, 818.7035
281.8628, 812.9435
282.3449, 808.8920
282.8270, 809.2618
283.3091, 817.7762
283.7913, 822.3773
284.2734, 819.1553
284.7555, 812.1759
285.2376, 804.2649
285.7197, 796.3012
286.2018, 789.0572
286.6840, 783.5321
287.1661, 778.8252
287.6482, 778.3453
288.1303, 787.1190
288.6124, 797.3454
289.0945, 803.2751
289.5767, 803.2697
290.0588, 799.5063
290.5409, 794.8061
291.0230, 789.0152
291.5051, 782.8062
291.9872, 776.1492
292.4694, 769.2114
292.9515, 750.4348
293.4336, 762.9644
293.9157, 769.7261
294.3978, 771.0299
294.8799, 750.5286
295.3621, 758.1839
295.8442, 754.5554
296.3263, 750.4642
296.8084, 762.0825
297.2905, 744.7528
297.7726, 756.1220
298.2548, 756.0350
298.7369, 761.1913
299.2190, 754.9940
299.7011, 752.3035
300.1832, 760.9702
300.6653, 763.3483
301.1475, 755.8439
301.6296, 761.3335
302.1117, 743.6072
302.5938, 746.2531
303.0759, 757.6888
303.5580, 750.7554
304.0402, 740.0384
304.5223, 742.8090
305.0044, 752.7984
305.4865, 762.2897
305.9686, 764.3912
306.4507, 760.1940
306.9329, 760.4951
307.4150, 769.8088
307.8971, 777.6495
308.3792, 778.1617
308.8613, 773.7219
309.3434, 769.5285
309.8256, 768.7032
310.3077, 770.4550
310.7898, 771.2344
311.2719, 768.0248
311.7540, 769.7400
312.2361, 786.0428
312.7183, 808.3532
313.2004, 822.4802
313.6825, 818.7436
314.1646, 806.0280
314.6467, 804.6104
315.1288, 820.0277
315.6110, 831.4902
316.0931, 823.5771
316.5752, 808.9418
317.0573, 801.9592
317.5394, 808.3019
318.0215, 822.0591
318.5037, 837.4637
318.9858, 855.8405
319.4679, 868.1485
319.9500, 869.4012
320.4321, 863.0978
320.9142, 849.6476
321.3964, 826.5008
321.8785, 805.6016
322.3606, 801.8151
322.8427, 815.2147
323.3248, 825.8201
323.8069, 825.5636
324.2891, 821.3597
324.7712, 821.1602
325.2533, 826.0552
325.7354, 829.9829
326.2175, 829.9642
326.6996, 825.7585
327.1818, 814.3036
327.6639, 788.4654
328.1460, 763.8367
328.6281, 756.9541
329.1102, 767.4412
329.5923, 781.8657
330.0745, 799.0788
330.5566, 815.3295
331.0387, 820.5314
331.5208, 811.2944
332.0029, 795.4758
332.4850, 774.9940
332.9672, 751.6459
333.4493, 740.0357
333.9314, 754.5347
334.4135, 779.1810
334.8957, 792.1917
335.3778, 791.0507
335.8599, 784.0454
336.3420, 775.4530
336.8241, 765.9488
337.3062, 759.2166
337.7884, 756.0137
338.2705, 755.4695
338.7526, 759.5325
339.2347, 767.4489
339.7168, 770.0842
340.1989, 757.7808
340.6811, 736.1133
341.1632, 730.0048
341.6453, 759.8658
342.1274, 784.7495
342.6095, 778.1208
343.0916, 748.9561
343.5738, 723.5483
344.0559, 713.8573
344.5380, 716.4835
345.0201, 722.0070
345.5022, 732.6852
345.9843, 741.9883
346.4665, 748.6288
346.9486, 752.7715
347.4307, 755.3728
347.9128, 756.9473
348.3949, 755.1144
348.8770, 744.5412
349.3592, 715.9222
349.8413, 698.2097
350.3234, 704.1785
350.8055, 715.4290
351.2876, 711.4615
351.7697, 689.7444
352.2519, 667.8621
352.7340, 668.5446
353.2161, 702.4053
353.6982, 717.6602
354.1803, 697.6989
354.6624, 675.7069
355.1446, 673.0703
355.6267, 687.3653
356.1088, 701.9385
356.5909, 702.7604
357.0730, 689.5033
357.5551, 677.7083
358.0373, 670.4745
358.5194, 661.3168
359.0015, 642.1983
359.4836, 620.4908
359.9657, 610.8669
360.4478, 623.0036
360.9300, 650.1456
361.4121, 663.5495
361.8942, 653.3097
362.3763, 641.5326
362.8584, 627.0952
363.3405, 614.4477
363.8227, 610.2516
364.3048, 616.8085
364.7869, 626.0368
365.2690, 621.7204
365.7511, 595.3338
366.2332, 577.2859
366.7154, 577.0067
367.1975, 580.8739
367.6796, 580.9385
368.1617, 575.9118
368.6438, 568.7319
369.1259, 560.8956
369.6081, 551.9899
370.0902, 548.8008
370.5723, 557.4022
371.0544, 566.1442
371.5365, 570.0779
372.0186, 569.3523
372.5008, 565.4777
372.9829, 557.9883
373.4650, 547.9744
373.9471, 539.6219
374.4292, 532.8714
374.9113, 528.0209
375.3935, 526.2781
375.8756, 526.1979
376.3577, 525.5410
376.8398, 523.2033
377.3219, 520.3472
377.8040, 517.4420
378.2862, 514.2234
378.7683, 514.9546
379.2504, 523.9158
379.7325, 536.7626
380.2146, 548.2537
380.6967, 560.4131
381.1789, 565.0144
381.6610, 549.8505
382.1431, 521.2535
382.6252, 503.1920
383.1073, 504.8675
383.5894, 514.8188
384.0716, 517.1029
384.5537, 511.6182
385.0358, 504.9229
385.5179, 496.6818
386.0000, 489.1353
386.4821, 483.8973
386.9643, 481.2310
387.4464, 484.5318
387.9285, 499.5886
388.4106, 528.0010
388.8927, 544.4455
389.3748, 542.4674
389.8570, 534.5638
390.3391, 526.3257
390.8212, 518.3980
391.3033, 510.6534
391.7854, 502.6994
392.2675, 495.0315
392.7497, 491.1566
393.2318, 496.1784
393.7139, 498.5968
394.1960, 493.6268
394.6781, 485.7808
395.1602, 481.9063
395.6424, 484.5113
396.1245, 489.2480
396.6066, 487.1364
397.0887, 469.7601
397.5708, 461.0196
398.0529, 467.2920
398.5351, 476.2614
399.0172, 480.0676
399.4993, 477.8235
399.9814, 472.9114
400.4635, 467.9919
400.9456, 462.8231
401.4278, 460.7299
401.9099, 463.8081
402.3920, 468.0749
402.8741, 473.4701
403.3562, 478.9797
403.8383, 482.9846
404.3205, 484.5347
404.8026, 483.9818
405.2847, 481.5303
405.7668, 475.3268
406.2489, 471.9782
406.7310, 478.1476
407.2132, 486.2409
407.6953, 487.7238
408.1774, 479.4767
408.6595, 470.1421
409.1416, 469.3640
409.6237, 476.5931
410.1059, 482.6145
410.5880, 486.1597
411.0701, 486.5355
411.5522, 481.2173
412.0343, 470.3762
412.5164, 463.7819
412.9986, 469.4849
413.4807, 480.8739
413.9628, 486.7346
414.4449, 485.5071
414.9270, 481.9538
415.4091, 479.8502
415.8913, 478.8383
416.3734, 475.8812
416.8555, 466.3077
417.3376, 458.8402
417.8197, 460.9439
418.3018, 470.0504
418.7840, 478.0769
419.2661, 481.2023
419.7482, 480.0553
420.2303, 476.3146
420.7124, 466.3586
421.1945, 458.9501
421.6767, 458.3816
422.1588, 459.2148
422.6409, 453.8839
423.1230, 441.2574
423.6051, 428.9284
424.0872, 427.4510
424.5694, 441.5320
425.0515, 449.1208
425.5336, 443.2763
426.0157, 438.4161
426.4978, 442.8253
426.9799, 453.8709
427.4621, 464.3038
427.9442, 470.0380
428.4263, 470.3412
428.9084, 459.5463
429.3905, 422.7677
429.8727, 399.7397
430.3548, 409.6100
430.8369, 431.4371
431.3190, 442.6442
431.8011, 435.8403
432.2833, 422.3792
432.7654, 416.2838
433.2475, 417.9116
433.7296, 419.3797
434.2117, 416.8645
434.6938, 416.5018
435.1760, 427.1884
435.6581, 447.0547
436.1402, 458.5165
436.6223, 442.9621
437.1044, 415.6769
437.5865, 408.1888
438.0687, 425.2488
438.5508, 443.5328
439.0329, 445.9049
439.5150, 436.2968
439.9971, 431.2333
440.4792, 436.9001
440.9614, 442.0542
441.4435, 437.9521
441.9256, 428.2657
442.4077, 423.6131
442.8898, 429.0192
443.3719, 438.5898
443.8541, 440.4793
444.3362, 429.2540
444.8183, 421.2486
445.3004, 420.4437
445.7825, 420.9757
446.2646, 417.4301
446.7468, 409.6200
447.2289, 401.2852
447.7110, 395.8938
448.1931, 393.5292
448.6752, 391.5019
449.1573, 388.3737
449.6395, 387.1873
450.1216, 388.0997
450.6037, 391.5966
451.0858, 399.6940
451.5679, 413.8825
452.0500, 429.0095
452.5322, 433.8872
453.0143, 425.0078
453.4964, 417.4030
453.9785, 415.4714
454.4606, 414.5374
454.9427, 410.1556
455.4249, 402.6790
455.9070, 398.7372
456.3891, 406.8716
456.8712, 422.9103
457.3533, 431.8048
457.8354, 431.5863
458.3176, 427.1561
458.7997, 418.6430
459.2818, 408.4449
459.7639, 402.3295
460.2460, 405.3281
460.7281, 408.6066
461.2103, 403.0245
461.6924, 391.4405
462.1745, 385.9801
462.6566, 393.0526
463.1387, 404.9495
463.6208, 405.4457
464.1030, 386.9756
464.5851, 377.6736
465.0672, 390.2515
465.5493, 407.1607
466.0314, 410.6566
466.5135, 400.7107
466.9957, 391.7155
467.4778, 397.0778
467.9599, 416.7505
468.4420, 430.2537
468.9241, 435.3175
469.4063, 436.4418
469.8884, 431.5312
470.3705, 424.1570
470.8526, 418.8823
471.3347, 417.5128
471.8168, 418.0564
472.2990, 418.0388
472.7811, 418.3780
473.2632, 413.9447
473.7453, 394.9276
474.2274, 378.8636
474.7095, 377.5071
475.1917, 389.2566
475.6738, 403.2046
476.1559, 416.5946
476.6380, 426.8986
477.1201, 425.5324
477.6022, 409.8396
478.0844, 396.9914
478.5665, 399.1871
479.0486, 409.9272
479.5307, 414.0368
480.0128, 406.5202
480.4949, 399.9405
480.9771, 403.3897
481.4592, 411.8832
481.9413, 415.4301
482.4234, 411.1456
482.9055, 403.0014
483.3876, 394.6874
483.8698, 384.2587
484.3519, 383.9889
484.8340, 405.4810
485.3161, 425.7656
485.7982, 431.2961
486.2803, 425.3303
486.7625, 417.7652
487.2446, 414.4765
487.7267, 413.6305
488.2088, 408.1147
488.6909, 389.8799
489.1730, 382.0843
489.6552, 396.6836
490.1373, 414.8377
490.6194, 422.2519
491.1015, 417.1503
491.5836, 407.2149
492.0657, 395.8152
492.5479, 384.1779
493.0300, 383.6529
493.5121, 400.8477
493.9942, 416.1512
494.4763, 415.2540
494.9584, 405.0092
495.4406, 396.4067
495.9227, 391.9282
496.4048, 389.6793
496.8869, 387.6162
497.3690, 386.4048
497.8511, 389.6626
498.3333, 399.8894
498.8154, 410.8154
499.2975, 412.4415
499.7796, 401.6181
500.2617, 394.6129
500.7438, 395.5948
501.2260, 398.0398
501.7081, 396.0756
502.1902, 391.1327
502.6723, 389.5032
503.1544, 395.6339
503.6365, 407.4709
504.1187, 415.6439
504.6008, 418.5613
505.0829, 419.9295
505.5650, 421.1844
506.0471, 420.5740
506.5292, 415.0189
507.0114, 404.7921
507.4935, 395.3855
507.9756, 394.0480
508.4577, 399.6963
508.9398, 398.9074
509.4219, 387.3337
509.9041, 377.0986
510.3862, 374.9810
510.8683, 378.6703
511.3504, 385.1301
511.8325, 394.9167
512.3146, 405.2558
512.7968, 416.0044
513.2789, 425.7911
513.7610, 429.3067
514.2431, 424.1458
514.7252, 415.1678
515.2073, 407.9592
515.6895, 402.3323
516.1716, 400.3878
516.6537, 405.9818
517.1358, 411.9122
517.6179, 413.1728
518.1000, 410.9586
518.5822, 409.7140
519.0643, 412.2195
519.5464, 416.3044
520.0285, 414.6546
520.5106, 401.2735
520.9927, 393.5264
521.4749, 394.5115
521.9570, 399.6487
522.4391, 409.1982
522.9212, 421.1340
523.4033, 427.9552
523.8854, 420.7313
524.3676, 403.4105
524.8497, 390.8806
525.3318, 382.8601
525.8139, 380.7287
526.2960, 391.7592
526.7781, 406.6450
527.2603, 408.4026
527.7424, 388.2657
528.2245, 373.1718
528.7066, 385.7780
529.1887, 410.8725
529.6708, 417.3155
530.1530, 398.6926
530.6351, 379.7404
531.1172, 387.0847
531.5993, 423.5633
532.0814, 441.8072
532.5635, 428.9712
533.0457, 415.2333
533.5278, 410.5793
534.0099, 411.2646
534.4920, 411.1141
534.9741, 407.7642
535.4562, 403.2980
535.9384, 401.3379
536.4205, 402.7783
536.9026, 402.2107
537.3847, 396.6962
537.8668, 391.9059
538.3489, 390.1347
538.8311, 391.2454
539.3132, 394.6670
539.7953, 400.7964
540.2774, 408.4324
540.7595, 417.2492
541.2416, 426.9220
541.7238, 433.0215
542.2059, 432.7195
542.6880, 430.1929
543.1701, 432.5089
543.6522, 440.5883
544.1343, 446.9684
544.6165, 447.6878
545.0986, 448.6217
545.5807, 454.0940
546.0628, 463.9339
546.5449, 477.4763
547.0270, 495.1871
547.5092, 513.4376
547.9913, 519.1345
548.4734, 500.6205
548.9555, 489.8697
549.4376, 495.0128
549.9197, 503.6008
550.4019, 507.6502
550.8840, 506.4799
551.3661, 503.5069
551.8482, 503.4763
552.3303, 503.2434
552.8124, 490.5237
553.2946, 461.9755
553.7767, 436.6351
554.2588, 423.5357
554.7409, 419.1186
555.2230, 416.5089
555.7051, 415.7161
556.1873, 416.3882
556.6694, 422.7871
557.1515, 428.4334
557.6336, 420.4791
558.1157, 399.4408
558.5978, 384.2271
559.0800, 391.8666
559.5621, 419.2604
560.0442, 433.6759
560.5263, 426.3223
561.0084, 415.8822
561.4905, 399.3295
561.9727, 383.5839
562.4548, 375.9928
562.9369, 377.5145
563.4190, 381.9691
563.9011, 383.4241
564.3832, 382.2098
564.8654, 381.1323
565.3475, 378.2496
565.8296, 380.0207
566.3117, 397.7753
566.7938, 420.0293
567.2759, 428.3505
567.7581, 415.2808
568.2402, 400.5167
568.7223, 395.8760
569.2044, 396.6721
569.6865, 394.0899
570.1686, 386.5607
570.6508, 378.4174
571.1329, 372.9613
571.6150, 370.2108
572.0971, 373.5719
572.5792, 392.2654
573.0613, 405.5363
573.5435, 406.1921
574.0256, 400.4854
574.5077, 395.3364
574.9898, 392.6606
575.4719, 390.3361
575.9540, 384.2547
576.4362, 374.7000
576.9183, 373.6507
577.4004, 387.2551
577.8825, 397.9278
578.3646, 391.7265
578.8467, 377.4415
579.3289, 368.3230
579.8110, 367.4910
580.2932, 370.0917
580.7753, 374.0652
581.2574, 379.1847
581.7395, 386.4531
582.2216, 395.9686
582.7037, 402.2419
583.1859, 399.0078
583.6680, 386.1888
584.1501, 379.9882
584.6322, 382.1253
585.1143, 388.4179
585.5964, 405.0596
586.0786, 421.9232
586.5607, 426.1612
587.0428, 415.2424
587.5249, 400.2951
588.0070, 394.2914
588.4891, 396.3064
