##NAMES=Arsentsumebite
##RRUFFID=R110041
##IDEAL CHEMISTRY=Pb^2+^_2_Cu^2+^(As^5+^O_4_)(S^6+^O_4_)(OH)
##LOCALITY=Tsumeb, Namibia
##OWNER=RRUFF
##SOURCE=William W Pinch
##DESCRIPTION=Green tabular crystals associated with linarite and goethite
##STATUS=The identification of this mineral has been confirmed only by single crystal X-ray diffraction.
##URL=rruff.info/R110041
199.5977, 192.1605
200.0798, 188.2617
200.5619, 183.9803
201.0440, 180.6167
201.5261, 178.2641
202.0082, 176.0957
202.4904, 174.1465
202.9725, 172.2602
203.4546, 170.3302
203.9367, 168.3555
204.4188, 166.4307
204.9009, 164.7707
205.3831, 163.6169
205.8652, 161.9691
206.3473, 159.0678
206.8294, 156.2459
207.3115, 154.4674
207.7936, 153.7921
208.2758, 153.4334
208.7579, 152.2325
209.2400, 149.4945
209.7221, 147.4518
210.2042, 146.1057
210.6863, 145.3115
211.1685, 145.2659
211.6506, 145.8751
212.1327, 146.5222
212.6148, 146.3151
213.0969, 144.9304
213.5790, 143.2089
214.0612, 140.9351
214.5433, 138.4931
215.0254, 136.1129
215.5075, 133.8780
215.9896, 131.7380
216.4717, 129.5565
216.9539, 126.8615
217.4360, 125.4958
217.9181, 126.7844
218.4002, 128.7687
218.8823, 129.5009
219.3644, 128.5040
219.8466, 126.6577
220.3287, 124.9944
220.8108, 123.4631
221.2929, 122.3527
221.7750, 121.8108
222.2571, 121.6717
222.7393, 121.8418
223.2214, 122.3522
223.7035, 122.8728
224.1856, 123.0642
224.6677, 122.9675
225.1498, 122.4011
225.6320, 120.3493
226.1141, 118.0309
226.5962, 117.8033
227.0783, 120.5865
227.5604, 123.8814
228.0425, 125.2366
228.5247, 125.0126
229.0068, 124.2768
229.4889, 122.9636
229.9710, 121.4612
230.4531, 120.7287
230.9352, 121.1367
231.4174, 121.7530
231.8995, 121.8053
232.3816, 121.4753
232.8637, 121.2528
233.3458, 121.4422
233.8279, 121.9277
234.3101, 122.3235
234.7922, 122.5361
235.2743, 122.8015
235.7564, 123.1290
236.2385, 123.5906
236.7206, 124.3950
237.2028, 126.0869
237.6849, 128.2410
238.1670, 128.8589
238.6491, 126.5590
239.1312, 124.7744
239.6133, 125.4267
240.0955, 127.4122
240.5776, 128.8250
241.0597, 128.3600
241.5418, 126.4759
242.0239, 125.4184
242.5060, 125.7313
242.9882, 126.1903
243.4703, 126.6468
243.9524, 126.9599
244.4345, 126.9292
244.9166, 126.4100
245.3987, 125.4934
245.8809, 124.6472
246.3630, 124.3207
246.8451, 123.4302
247.3272, 121.0159
247.8093, 118.1432
248.2914, 116.2797
248.7736, 116.2729
249.2557, 117.6283
249.7378, 118.3459
250.2199, 118.1531
250.7020, 117.5678
251.1841, 116.0790
251.6663, 114.4384
252.1484, 113.6842
252.6305, 114.3326
253.1126, 115.8143
253.5947, 116.3280
254.0768, 114.4382
254.5590, 113.2694
255.0411, 113.6243
255.5232, 114.5507
256.0053, 114.9011
256.4874, 114.1942
256.9695, 112.9463
257.4517, 112.4078
257.9338, 113.9460
258.4159, 114.5504
258.8980, 113.5880
259.3801, 111.9487
259.8622, 110.3586
260.3444, 109.0907
260.8265, 108.3319
261.3086, 108.4879
261.7907, 110.8146
262.2728, 112.0491
262.7549, 110.9792
263.2371, 109.3724
263.7192, 109.0791
264.2013, 110.5755
264.6834, 112.9131
265.1655, 114.7665
265.6476, 116.1099
266.1298, 116.8400
266.6119, 116.3486
267.0940, 115.5812
267.5761, 115.3839
268.0582, 115.9259
268.5403, 116.9272
269.0225, 118.1774
269.5046, 119.8183
269.9867, 120.9081
270.4688, 120.9127
270.9509, 120.6742
271.4330, 120.8588
271.9152, 121.5530
272.3973, 122.5877
272.8794, 123.9194
273.3615, 125.5706
273.8436, 126.8199
274.3257, 127.5435
274.8079, 127.9479
275.2900, 127.5303
275.7721, 126.4502
276.2542, 126.7705
276.7363, 130.7589
277.2184, 137.8414
277.7006, 142.5785
278.1827, 143.3077
278.6648, 142.9642
279.1469, 143.2663
279.6290, 144.2286
280.1111, 145.6361
280.5933, 147.4554
281.0754, 149.6359
281.5575, 151.8857
282.0396, 154.1712
282.5217, 156.5574
283.0038, 159.1125
283.4860, 161.8181
283.9681, 164.6286
284.4502, 167.6096
284.9323, 170.6047
285.4144, 173.2048
285.8965, 175.0496
286.3787, 177.3593
286.8608, 181.2324
287.3429, 186.2169
287.8250, 190.5752
288.3071, 193.2975
288.7892, 195.7832
289.2714, 200.3070
289.7535, 207.1070
290.2356, 213.5794
290.7177, 218.1251
291.1998, 221.4126
291.6819, 225.2239
292.1641, 229.9191
292.6462, 235.3210
293.1283, 241.4864
293.6104, 248.2997
294.0925, 254.9780
294.5746, 260.8655
295.0568, 266.4437
295.5389, 272.7308
296.0210, 279.9724
296.5031, 287.5262
296.9852, 294.7894
297.4673, 301.9201
297.9495, 309.5031
298.4316, 318.0581
298.9137, 327.0152
299.3958, 335.3499
299.8779, 342.8598
300.3600, 350.6474
300.8422, 359.5981
301.3243, 369.3055
301.8064, 379.0289
302.2885, 388.8429
302.7706, 398.5081
303.2527, 407.6028
303.7349, 416.1048
304.2170, 424.9920
304.6991, 436.1317
305.1812, 447.1600
305.6633, 454.5201
306.1454, 456.6571
306.6276, 457.8128
307.1097, 462.1934
307.5918, 469.5453
308.0739, 475.5437
308.5560, 478.4572
309.0381, 479.4891
309.5203, 480.5738
310.0024, 481.9262
310.4845, 481.5778
310.9666, 477.1435
311.4487, 469.4956
311.9308, 463.1195
312.4130, 459.6401
312.8951, 456.5746
313.3772, 451.6698
313.8593, 445.1293
314.3414, 438.2795
314.8235, 431.2132
315.3057, 424.3329
315.7878, 418.8999
316.2699, 415.7080
316.7520, 412.3567
317.2341, 406.9652
317.7162, 400.1382
318.1984, 392.9409
318.6805, 384.8449
319.1626, 377.0420
319.6447, 371.6640
320.1268, 369.0593
320.6089, 367.1465
321.0911, 365.0434
321.5732, 362.8296
322.0553, 360.6068
322.5374, 358.3593
323.0195, 356.1503
323.5016, 353.9383
323.9838, 351.7056
324.4659, 349.9466
324.9480, 349.0697
325.4301, 348.6472
325.9122, 347.9407
326.3943, 346.7211
326.8765, 346.2015
327.3586, 347.7029
327.8407, 350.8536
328.3228, 353.5093
328.8049, 354.9417
329.2870, 356.0641
329.7692, 357.7304
330.2513, 359.9039
330.7334, 362.3956
331.2155, 365.4987
331.6976, 368.8137
332.1797, 371.4625
332.6619, 373.3871
333.1440, 374.5432
333.6261, 374.4604
334.1082, 373.5547
334.5903, 372.7389
335.0724, 372.0835
335.5546, 371.7666
336.0367, 372.3458
336.5188, 373.9500
337.0009, 375.0411
337.4830, 374.3716
337.9651, 372.6892
338.4473, 371.5409
338.9294, 371.7520
339.4115, 371.4783
339.8936, 369.1745
340.3757, 364.9926
340.8578, 360.0708
341.3400, 354.5288
341.8221, 348.6845
342.3042, 343.1092
342.7863, 337.8859
343.2684, 332.3684
343.7505, 326.0236
344.2327, 319.1538
344.7148, 312.5327
345.1969, 306.4057
345.6790, 300.3335
346.1611, 293.6918
346.6432, 286.5812
347.1254, 279.6005
347.6075, 272.9465
348.0896, 266.4944
348.5717, 260.2393
349.0538, 254.1589
349.5359, 248.1468
350.0181, 242.1692
350.5002, 236.1662
350.9823, 229.9315
351.4644, 223.1899
351.9465, 216.4744
352.4286, 209.8401
352.9108, 203.4326
353.3929, 197.8688
353.8750, 193.6300
354.3571, 190.3043
354.8392, 186.8551
355.3214, 183.2898
355.8035, 179.6279
356.2856, 175.7217
356.7677, 171.7632
357.2498, 168.1216
357.7319, 164.9142
358.2141, 161.9557
358.6962, 159.0058
359.1783, 156.0910
359.6604, 153.0175
360.1425, 149.6974
360.6246, 146.2332
361.1068, 142.3037
361.5889, 137.9936
362.0710, 134.7042
362.5531, 133.9049
363.0352, 135.5494
363.5173, 135.8585
363.9995, 134.5349
364.4816, 132.3273
364.9637, 128.8477
365.4458, 124.7194
365.9279, 121.5994
366.4100, 120.5113
366.8922, 120.6362
367.3743, 119.2932
367.8564, 115.2661
368.3385, 111.6012
368.8206, 108.2856
369.3027, 105.6952
369.7849, 104.7602
370.2670, 105.6407
370.7491, 106.7993
371.2312, 106.0037
371.7133, 102.2634
372.1954, 99.54288
372.6776, 98.22485
373.1597, 97.51924
373.6418, 97.39527
374.1239, 97.54001
374.6060, 96.98235
375.0881, 94.68420
375.5703, 90.77503
376.0524, 89.44420
376.5345, 93.38599
377.0166, 96.74917
377.4987, 98.10973
377.9808, 98.11225
378.4630, 97.64417
378.9451, 97.10838
379.4272, 96.66987
379.9093, 96.78728
380.3914, 98.25210
380.8735, 98.92017
381.3557, 97.79163
381.8378, 96.57337
382.3199, 96.56480
382.8020, 97.91147
383.2841, 99.87292
383.7662, 101.6805
384.2484, 103.3361
384.7305, 104.8658
385.2126, 106.3529
385.6947, 107.6254
386.1768, 108.6761
386.6589, 109.4595
387.1411, 109.8370
387.6232, 109.6381
388.1053, 109.1122
388.5874, 109.1899
389.0695, 110.1909
389.5516, 111.2125
390.0338, 112.3135
390.5159, 113.2018
390.9980, 113.7018
391.4801, 113.7570
391.9622, 113.1602
392.4443, 111.1937
392.9265, 107.5887
393.4086, 105.2730
393.8907, 105.5197
394.3728, 106.3597
394.8549, 107.1201
395.3370, 107.5826
395.8192, 107.1946
396.3013, 104.8541
396.7834, 101.4067
397.2655, 99.85147
397.7476, 100.8232
398.2297, 102.0483
398.7119, 102.4376
399.1940, 102.3335
399.6761, 102.1271
400.1582, 101.9325
400.6403, 101.6237
401.1224, 100.7788
401.6046, 99.46411
402.0867, 98.98448
402.5688, 100.0309
403.0509, 101.7760
403.5330, 103.2791
404.0151, 104.5444
404.4973, 105.6063
404.9794, 106.7013
405.4615, 107.5409
405.9436, 107.2876
406.4257, 105.6777
406.9078, 104.3843
407.3900, 105.1634
407.8721, 107.5440
408.3542, 108.9463
408.8363, 108.4646
409.3184, 107.6137
409.8005, 107.1245
410.2827, 107.0310
410.7648, 107.6100
411.2469, 109.2138
411.7290, 111.0993
412.2111, 111.4064
412.6932, 109.5134
413.1754, 107.8809
413.6575, 106.6738
414.1396, 106.0617
414.6217, 106.5488
415.1038, 108.1038
415.5859, 109.6410
416.0681, 109.9641
416.5502, 108.8737
417.0323, 108.8548
417.5144, 110.7673
417.9965, 112.6669
418.4786, 113.9710
418.9608, 114.6607
419.4429, 114.6922
419.9250, 114.0053
420.4071, 112.9663
420.8892, 112.6498
421.3713, 114.3452
421.8535, 114.7588
422.3356, 112.2232
422.8177, 109.5529
423.2998, 108.8664
423.7819, 110.4395
424.2640, 113.2978
424.7462, 116.5679
425.2283, 120.2924
425.7104, 123.9673
426.1925, 126.9363
426.6746, 130.6145
427.1567, 135.8557
427.6389, 141.9636
428.1210, 147.7801
428.6031, 152.7101
429.0852, 157.2801
429.5673, 162.3379
430.0494, 167.6968
430.5316, 174.2251
431.0137, 182.7868
431.4958, 192.1610
431.9779, 201.9476
432.4600, 211.9996
432.9421, 221.5893
433.4243, 229.2061
433.9064, 235.6931
434.3885, 245.0889
434.8706, 258.6048
435.3527, 272.7334
435.8348, 285.0914
436.3170, 296.5919
436.7991, 309.0276
437.2812, 323.5900
437.7633, 338.0749
438.2454, 350.2963
438.7275, 360.5252
439.2097, 370.4827
439.6918, 381.1429
440.1739, 391.1079
440.6560, 398.4377
441.1381, 403.4214
441.6202, 405.7975
442.1024, 405.5739
442.5845, 402.6522
443.0666, 396.5644
443.5487, 387.3756
444.0308, 376.2533
444.5129, 363.8568
444.9951, 350.2682
445.4772, 335.9178
445.9593, 319.5859
446.4414, 304.1136
446.9235, 290.9181
447.4056, 278.9628
447.8878, 266.3557
448.3699, 252.4854
448.8520, 238.7869
449.3341, 227.4606
449.8162, 219.4632
450.2983, 211.3591
450.7805, 202.7485
451.2626, 194.4308
451.7447, 186.6245
452.2268, 179.4387
452.7089, 172.9112
453.1910, 167.0719
453.6732, 161.9805
454.1553, 158.0688
454.6374, 156.3490
455.1195, 154.0892
455.6016, 150.3556
456.0837, 146.3026
456.5659, 143.0482
457.0480, 140.7159
457.5301, 138.4654
458.0122, 134.9068
458.4943, 130.0880
458.9764, 127.4827
459.4586, 128.8764
459.9407, 129.9829
460.4228, 128.3927
460.9049, 125.0616
461.3870, 121.6137
461.8691, 118.5162
462.3513, 115.6957
462.8334, 113.1870
463.3155, 110.9753
463.7976, 108.6630
464.2797, 106.0600
464.7618, 103.3863
465.2440, 100.7874
465.7261, 98.23302
466.2082, 96.19862
466.6903, 95.16592
467.1724, 94.55593
467.6545, 93.65273
468.1367, 92.41806
468.6188, 91.23857
469.1009, 90.47644
469.5830, 89.95879
470.0651, 88.78301
470.5472, 86.43858
471.0294, 84.19192
471.5115, 82.20767
471.9936, 80.56337
472.4757, 79.40281
472.9578, 78.75025
473.4399, 78.43571
473.9221, 78.34435
474.4042, 78.64182
474.8863, 78.16431
475.3684, 76.00150
475.8505, 74.11668
476.3326, 73.27857
476.8148, 73.21015
477.2969, 73.38203
477.7790, 73.53761
478.2611, 73.78564
478.7432, 74.64896
479.2253, 76.99486
479.7075, 77.45110
480.1896, 72.84782
480.6717, 68.57811
481.1538, 68.31425
481.6359, 71.39865
482.1180, 74.13958
482.6002, 73.70328
483.0823, 71.22796
483.5644, 70.12217
484.0465, 70.89515
484.5286, 71.15437
485.0107, 68.91707
485.4929, 66.08715
485.9750, 65.10578
486.4571, 66.54583
486.9392, 68.15186
487.4213, 68.81303
487.9034, 68.62171
488.3856, 67.57721
488.8677, 65.57436
489.3498, 63.49094
489.8319, 62.05502
490.3140, 61.25884
490.7961, 60.55107
491.2783, 60.20514
491.7604, 59.65229
492.2425, 58.29447
492.7246, 56.60621
493.2067, 55.62551
493.6888, 55.72097
494.1710, 56.05612
494.6531, 55.24841
495.1352, 52.58900
495.6173, 51.05779
496.0994, 51.68176
496.5815, 52.26766
497.0637, 51.24287
497.5458, 49.38043
498.0279, 48.65413
498.5100, 50.29727
498.9921, 53.10947
499.4742, 53.96962
499.9564, 52.09670
500.4385, 50.22068
500.9206, 48.18644
501.4027, 46.68053
501.8848, 46.55650
502.3669, 47.56102
502.8491, 48.32037
503.3312, 47.47083
503.8133, 45.78888
504.2954, 45.69623
504.7775, 47.64506
505.2596, 49.01699
505.7418, 48.13290
506.2239, 46.21291
506.7060, 44.95626
507.1881, 44.49064
507.6702, 44.52163
508.1523, 45.62770
508.6345, 46.90196
509.1166, 46.59625
509.5987, 44.44636
510.0808, 41.89357
510.5629, 39.96531
511.0450, 38.67509
511.5272, 37.91452
512.0093, 38.45703
512.4914, 38.53546
512.9735, 37.07771
513.4556, 35.08701
513.9377, 33.88551
514.4199, 33.82558
514.9020, 34.35085
515.3841, 34.85252
515.8662, 35.39539
516.3483, 35.46660
516.8304, 34.44175
517.3126, 33.60033
517.7947, 33.48353
518.2768, 33.72068
518.7589, 33.83674
519.2410, 33.65884
519.7231, 33.07840
520.2053, 31.68887
520.6874, 29.39661
521.1695, 27.73232
521.6516, 27.11242
522.1337, 26.91397
522.6158, 26.70856
523.0980, 26.54059
523.5801, 26.53584
524.0622, 26.67035
524.5443, 27.05440
525.0264, 28.20455
525.5085, 29.88832
525.9907, 30.54048
526.4728, 29.38446
526.9549, 27.48344
527.4370, 26.30301
527.9191, 25.83937
528.4012, 25.97206
528.8834, 27.48436
529.3655, 28.91056
529.8476, 29.17012
530.3297, 28.46362
530.8118, 27.45737
531.2939, 26.47467
531.7761, 25.63300
532.2582, 25.27660
532.7403, 25.89832
533.2224, 26.09341
533.7045, 25.16675
534.1866, 24.44689
534.6688, 25.17128
535.1509, 26.86132
535.6330, 27.92183
536.1151, 27.17541
536.5972, 25.27653
537.0793, 23.81207
537.5615, 22.68910
538.0436, 22.45025
538.5257, 24.27732
539.0078, 26.27029
539.4899, 26.56341
539.9720, 25.19296
540.4542, 23.95418
540.9363, 23.80363
541.4184, 24.25703
541.9005, 24.71246
542.3826, 25.13842
542.8647, 25.53513
543.3469, 25.99325
543.8290, 26.33134
544.3111, 25.99414
544.7932, 24.64646
545.2753, 23.52536
545.7574, 22.68616
546.2396, 22.21954
546.7217, 22.72202
547.2038, 23.81809
547.6859, 23.90571
548.1680, 21.66129
548.6501, 17.89767
549.1323, 16.29584
549.6144, 18.11418
550.0965, 20.00799
550.5786, 22.16972
551.0607, 23.84098
551.5428, 24.28681
552.0250, 23.60357
552.5071, 22.59918
552.9892, 21.72894
553.4713, 21.01477
553.9534, 20.42901
554.4355, 19.89282
554.9177, 19.93319
555.3998, 21.10555
555.8819, 22.73157
556.3640, 24.07410
556.8461, 25.19155
557.3282, 25.43557
557.8104, 23.94154
558.2925, 21.80151
558.7746, 19.98576
559.2567, 18.66648
559.7388, 18.48517
560.2209, 20.07263
560.7031, 22.67825
561.1852, 23.90511
561.6673, 22.17099
562.1494, 21.27101
562.6315, 21.76703
563.1136, 22.70994
563.5958, 23.65351
564.0779, 24.42412
564.5600, 24.78467
565.0421, 24.52089
565.5242, 23.81322
566.0063, 23.33461
566.4885, 23.32744
566.9706, 22.84355
567.4527, 20.61827
567.9348, 18.63717
568.4169, 18.58309
568.8990, 20.28302
569.3812, 21.93579
569.8633, 22.81021
570.3454, 22.97382
570.8275, 22.06063
571.3096, 20.19638
571.7917, 19.11781
572.2739, 19.62079
572.7560, 21.19208
573.2381, 23.20437
573.7202, 26.14816
574.2023, 27.64562
574.6844, 26.21422
575.1666, 24.37138
575.6487, 23.98968
576.1308, 24.65886
576.6129, 24.90565
577.0950, 23.93758
577.5771, 22.40124
578.0593, 21.80191
578.5414, 22.63759
579.0235, 23.04869
579.5056, 22.78501
579.9877, 22.22022
580.4698, 21.00743
580.9520, 19.64808
581.4341, 19.34585
581.9162, 21.06288
582.3983, 23.17311
582.8804, 23.20916
583.3625, 21.39435
583.8447, 20.19077
584.3268, 20.35812
584.8089, 20.83573
585.2910, 20.20044
585.7731, 18.66138
586.2552, 18.47386
586.7374, 20.80670
587.2195, 23.51651
587.7016, 25.98603
588.1837, 27.94394
588.6658, 28.76563
589.1479, 28.31977
589.6301, 27.48524
590.1122, 27.37681
590.5943, 28.10974
591.0764, 28.45795
591.5585, 27.77264
592.0406, 27.46651
592.5228, 27.90860
593.0049, 28.88893
593.4870, 30.43535
593.9691, 32.51518
594.4512, 34.12346
594.9333, 33.64610
595.4155, 31.77797
595.8976, 31.70944
596.3797, 33.88627
596.8618, 36.66864
597.3439, 39.42395
597.8260, 42.00880
598.3082, 44.12780
598.7903, 45.72149
599.2724, 47.00315
599.7545, 47.86760
600.2366, 48.56259
600.7188, 49.02536
601.2009, 49.46590
601.6830, 50.91265
602.1651, 54.27112
602.6472, 58.66875
603.1293, 60.75624
603.6115, 58.91267
604.0936, 57.70619
604.5757, 57.69575
605.0578, 58.12048
605.5399, 59.06082
606.0220, 60.07566
606.5042, 60.00190
606.9863, 57.82170
607.4684, 54.77207
607.9505, 52.95153
608.4326, 52.32098
608.9147, 51.40319
609.3969, 49.74842
609.8790, 47.80530
610.3611, 45.96871
610.8432, 44.23384
611.3253, 42.71875
611.8074, 41.08953
612.2896, 40.04412
612.7717, 40.82281
613.2538, 42.18800
613.7359, 41.75738
614.2180, 38.92715
614.7001, 35.50483
615.1823, 33.60181
615.6644, 33.28577
616.1465, 33.08519
616.6286, 33.00054
617.1107, 33.04295
617.5928, 33.23123
618.0750, 33.52681
618.5571, 34.03324
619.0392, 34.73723
619.5213, 35.10759
620.0034, 34.46650
620.4855, 33.27311
620.9677, 32.62209
621.4498, 32.57815
621.9319, 32.48109
622.4140, 32.03196
622.8961, 31.30713
623.3782, 30.40251
623.8604, 29.19954
624.3425, 28.21392
624.8246, 27.71091
625.3067, 27.26509
625.7888, 26.51034
626.2709, 25.57850
626.7531, 24.91232
627.2352, 24.74421
627.7173, 24.62890
628.1994, 23.47693
628.6815, 20.84689
629.1636, 19.72032
629.6458, 21.74588
630.1279, 23.36483
630.6100, 22.20691
631.0921, 19.63045
631.5742, 18.14208
632.0563, 18.68865
632.5385, 19.40853
633.0206, 18.61448
633.5027, 17.13160
633.9848, 16.62443
634.4669, 17.33089
634.9490, 18.62375
635.4312, 20.22108
635.9133, 21.92832
636.3954, 22.82815
636.8775, 22.08644
637.3596, 21.62515
637.8417, 22.11939
638.3239, 22.41006
638.8060, 21.40289
639.2881, 19.40235
639.7702, 17.49352
640.2523, 16.21298
640.7344, 15.67321
641.2166, 16.38739
641.6987, 18.42920
642.1808, 20.16929
642.6629, 21.53936
643.1450, 22.13575
643.6271, 20.74518
644.1093, 18.09155
644.5914, 16.98415
645.0735, 19.57891
645.5556, 21.76518
646.0377, 20.90923
646.5198, 18.77238
647.0020, 17.94826
647.4841, 18.86278
647.9662, 20.27007
648.4483, 21.16092
648.9304, 21.51542
649.4125, 21.08341
649.8947, 18.98267
650.3768, 17.77826
650.8589, 18.96165
651.3410, 20.31249
651.8231, 20.04855
652.3052, 18.38915
652.7874, 17.00738
653.2695, 16.76232
653.7516, 17.18563
654.2337, 17.94065
654.7158, 18.92133
655.1979, 19.64285
655.6801, 19.96672
656.1622, 20.00799
656.6443, 19.92083
657.1264, 19.72318
657.6085, 19.01658
658.0906, 16.75489
658.5728, 15.36055
659.0549, 16.01784
659.5370, 17.44647
660.0191, 18.39269
660.5012, 18.63760
660.9833, 18.58999
661.4655, 18.39266
661.9476, 18.26533
662.4297, 19.26859
662.9118, 21.68907
663.3939, 22.83399
663.8760, 21.10208
664.3582, 18.67527
664.8403, 18.45301
665.3224, 20.22401
665.8045, 21.24879
666.2866, 20.44322
666.7687, 19.46898
667.2509, 19.28254
667.7330, 19.53550
668.2151, 19.62095
668.6972, 19.38138
669.1793, 19.03671
669.6614, 18.76140
670.1436, 18.57802
670.6257, 18.86362
671.1078, 20.01135
671.5899, 20.81579
672.0720, 20.78447
672.5541, 20.39018
673.0363, 19.76000
673.5184, 18.99175
674.0005, 18.72706
674.4826, 19.80664
674.9647, 21.05703
675.4468, 21.17591
675.9290, 20.48379
676.4111, 19.90657
676.8932, 19.72715
677.3753, 19.91663
677.8574, 20.47680
678.3395, 21.42129
678.8217, 22.38784
679.3038, 23.73733
679.7859, 24.62750
680.2680, 24.99877
680.7501, 24.79569
681.2322, 23.52396
681.7144, 21.42314
682.1965, 19.93383
682.6786, 20.38161
683.1607, 21.75644
683.6428, 22.64079
684.1249, 23.01303
684.6071, 22.34265
685.0892, 20.10655
685.5713, 18.17248
686.0534, 19.01460
686.5355, 22.88739
687.0176, 24.88229
687.4998, 23.66455
687.9819, 22.43069
688.4640, 22.06047
688.9461, 22.00869
689.4282, 21.64887
689.9103, 20.94575
690.3925, 20.32553
690.8746, 20.09204
691.3567, 20.18550
691.8388, 20.57265
692.3209, 21.27286
692.8030, 21.75161
693.2852, 21.80738
693.7673, 21.71704
694.2494, 21.82925
694.7315, 22.10683
695.2136, 22.01769
695.6957, 21.00150
696.1779, 20.27079
696.6600, 20.43173
697.1421, 20.98080
