##NAMES=Arsentsumebite
##RRUFFID=R110041
##IDEAL CHEMISTRY=Pb^2+^_2_Cu^2+^(As^5+^O_4_)(S^6+^O_4_)(OH)
##LOCALITY=Tsumeb, Namibia
##OWNER=RRUFF
##SOURCE=William W Pinch
##DESCRIPTION=Green tabular crystals associated with linarite and goethite
##STATUS=The identification of this mineral has been confirmed only by single crystal X-ray diffraction.
##URL=rruff.info/R110041
194.6294, 1362.136
195.1115, 1357.465
195.5936, 1352.756
196.0757, 1347.988
196.5579, 1343.149
197.0400, 1338.535
197.5221, 1334.267
198.0042, 1329.042
198.4863, 1321.483
198.9684, 1311.589
199.4506, 1302.804
199.9327, 1295.569
200.4148, 1289.419
200.8969, 1283.807
201.3790, 1278.909
201.8611, 1273.396
202.3433, 1265.982
202.8254, 1256.400
203.3075, 1248.212
203.7896, 1242.045
204.2717, 1237.166
204.7538, 1231.711
205.2360, 1225.430
205.7181, 1219.409
206.2002, 1214.593
206.6823, 1211.299
207.1644, 1206.896
207.6465, 1200.804
208.1287, 1193.659
208.6108, 1186.980
209.0929, 1180.529
209.5750, 1175.126
210.0571, 1171.552
210.5392, 1170.154
211.0214, 1168.963
211.5035, 1168.256
211.9856, 1167.534
212.4677, 1164.625
212.9498, 1158.594
213.4319, 1152.526
213.9140, 1148.488
214.3962, 1147.265
214.8783, 1145.210
215.3604, 1141.539
215.8425, 1136.888
216.3246, 1134.088
216.8067, 1133.786
217.2889, 1134.012
217.7710, 1133.494
218.2531, 1131.831
218.7352, 1130.593
219.2173, 1130.144
219.6994, 1130.181
220.1816, 1129.218
220.6637, 1126.539
221.1458, 1124.007
221.6279, 1122.964
222.1100, 1124.159
222.5921, 1124.869
223.0743, 1125.124
223.5564, 1124.761
224.0385, 1122.558
224.5206, 1117.034
225.0027, 1112.123
225.4848, 1110.617
225.9670, 1114.471
226.4491, 1117.076
226.9312, 1117.708
227.4133, 1116.716
227.8954, 1115.605
228.3775, 1113.987
228.8597, 1112.858
229.3418, 1112.977
229.8239, 1115.077
230.3060, 1116.686
230.7881, 1117.461
231.2702, 1117.563
231.7524, 1117.641
232.2345, 1117.124
232.7166, 1117.322
233.1987, 1119.204
233.6808, 1123.915
234.1629, 1127.699
234.6451, 1130.216
235.1272, 1131.615
235.6093, 1132.580
236.0914, 1132.897
236.5735, 1133.077
237.0556, 1133.453
237.5378, 1134.336
238.0199, 1134.778
238.5020, 1134.637
238.9841, 1134.052
239.4662, 1133.474
239.9483, 1132.650
240.4305, 1132.251
240.9126, 1132.707
241.3947, 1134.475
241.8768, 1136.158
242.3589, 1137.702
242.8410, 1139.126
243.3232, 1140.432
243.8053, 1141.143
244.2874, 1142.374
244.7695, 1144.991
245.2516, 1150.705
245.7337, 1153.835
246.2159, 1153.209
246.6980, 1149.974
247.1801, 1147.900
247.6622, 1147.577
248.1443, 1147.441
248.6264, 1146.646
249.1086, 1144.499
249.5907, 1143.388
250.0728, 1143.849
250.5549, 1145.238
251.0370, 1145.800
251.5191, 1145.158
252.0013, 1144.327
252.4834, 1143.695
252.9655, 1143.188
253.4476, 1143.224
253.9297, 1144.292
254.4118, 1145.705
254.8940, 1145.745
255.3761, 1143.434
255.8582, 1141.469
256.3403, 1141.125
256.8224, 1143.048
257.3046, 1144.365
257.7867, 1144.869
258.2688, 1144.849
258.7509, 1144.766
259.2330, 1144.330
259.7151, 1144.369
260.1973, 1145.259
260.6794, 1147.128
261.1615, 1149.297
261.6436, 1152.172
262.1257, 1154.987
262.6078, 1156.022
263.0900, 1154.018
263.5721, 1153.325
264.0542, 1156.071
264.5363, 1163.176
265.0184, 1167.893
265.5005, 1169.859
265.9827, 1170.039
266.4648, 1169.308
266.9469, 1166.774
267.4290, 1166.018
267.9111, 1168.822
268.3932, 1175.500
268.8754, 1179.953
269.3575, 1181.334
269.8396, 1181.738
270.3217, 1183.923
270.8038, 1188.358
271.2859, 1192.614
271.7681, 1195.947
272.2502, 1198.362
272.7323, 1200.776
273.2144, 1203.145
273.6965, 1205.499
274.1786, 1207.515
274.6608, 1208.890
275.1429, 1211.783
275.6250, 1217.157
276.1071, 1224.605
276.5892, 1231.341
277.0714, 1237.234
277.5535, 1242.500
278.0356, 1247.004
278.5177, 1250.606
278.9998, 1254.881
279.4819, 1260.344
279.9641, 1266.691
280.4462, 1272.424
280.9283, 1277.514
281.4104, 1282.167
281.8925, 1286.171
282.3746, 1289.504
282.8568, 1294.180
283.3389, 1300.814
283.8210, 1308.817
284.3031, 1316.432
284.7852, 1323.630
285.2673, 1331.261
285.7495, 1340.257
286.2316, 1350.532
286.7137, 1360.453
287.1958, 1369.364
287.6779, 1378.530
288.1600, 1391.534
288.6422, 1408.450
289.1243, 1424.606
289.6064, 1435.634
290.0885, 1442.744
290.5706, 1451.728
291.0527, 1463.181
291.5349, 1476.392
292.0170, 1491.387
292.4991, 1507.754
292.9812, 1522.655
293.4633, 1532.555
293.9454, 1539.478
294.4276, 1550.294
294.9097, 1565.803
295.3918, 1582.814
295.8739, 1597.791
296.3560, 1610.797
296.8381, 1622.815
297.3203, 1633.926
297.8024, 1644.290
298.2845, 1654.539
298.7666, 1664.793
299.2487, 1674.226
299.7308, 1681.420
300.2130, 1687.147
300.6951, 1693.527
301.1772, 1702.322
301.6593, 1711.779
302.1414, 1719.324
302.6235, 1724.920
303.1057, 1730.061
303.5878, 1736.671
304.0699, 1743.597
304.5520, 1748.538
305.0341, 1750.072
305.5162, 1749.947
305.9984, 1749.427
306.4805, 1748.636
306.9626, 1748.376
307.4447, 1750.348
307.9268, 1752.827
308.4089, 1753.680
308.8911, 1752.719
309.3732, 1749.446
309.8553, 1742.379
310.3374, 1732.411
310.8195, 1722.381
311.3016, 1713.285
311.7838, 1705.292
312.2659, 1698.743
312.7480, 1694.443
313.2301, 1689.881
313.7122, 1682.599
314.1943, 1673.881
314.6765, 1666.602
315.1586, 1664.323
315.6407, 1662.313
316.1228, 1657.221
316.6049, 1647.973
317.0870, 1638.573
317.5692, 1630.841
318.0513, 1624.091
318.5334, 1617.412
319.0155, 1609.687
319.4976, 1602.678
319.9797, 1597.610
320.4619, 1594.739
320.9440, 1591.453
321.4261, 1585.928
321.9082, 1580.089
322.3903, 1575.783
322.8724, 1574.618
323.3546, 1573.758
323.8367, 1572.583
324.3188, 1571.070
324.8009, 1569.404
325.2830, 1567.365
325.7651, 1565.373
326.2473, 1563.715
326.7294, 1562.070
327.2115, 1561.225
327.6936, 1561.770
328.1757, 1563.406
328.6578, 1564.547
329.1400, 1563.948
329.6221, 1563.937
330.1042, 1565.533
330.5863, 1569.535
331.0684, 1573.885
331.5505, 1578.763
332.0327, 1583.904
332.5148, 1588.662
332.9969, 1592.691
333.4790, 1596.696
333.9611, 1600.815
334.4432, 1604.801
334.9254, 1609.857
335.4075, 1616.824
335.8896, 1624.005
336.3717, 1628.855
336.8538, 1630.373
337.3359, 1631.887
337.8180, 1634.800
338.3001, 1639.051
338.7823, 1640.478
339.2644, 1638.902
339.7465, 1634.942
340.2286, 1628.533
340.7107, 1619.229
341.1928, 1610.781
341.6750, 1604.590
342.1571, 1599.715
342.6392, 1592.911
343.1213, 1584.070
343.6034, 1573.687
344.0855, 1561.458
344.5677, 1547.573
345.0498, 1533.898
345.5319, 1520.617
346.0140, 1507.881
346.4961, 1496.113
346.9782, 1485.333
347.4604, 1474.850
347.9425, 1464.069
348.4246, 1453.256
348.9067, 1444.137
349.3888, 1437.088
349.8709, 1430.292
350.3531, 1421.119
350.8352, 1410.193
351.3173, 1399.888
351.7994, 1391.095
352.2815, 1383.503
352.7636, 1376.774
353.2458, 1370.892
353.7279, 1365.177
354.2100, 1358.787
354.6921, 1352.191
355.1742, 1346.289
355.6563, 1341.789
356.1385, 1337.521
356.6206, 1332.002
357.1027, 1325.520
357.5848, 1319.677
358.0669, 1316.327
358.5490, 1313.565
359.0312, 1309.441
359.5133, 1302.930
359.9954, 1296.419
360.4775, 1291.188
360.9596, 1286.951
361.4417, 1283.164
361.9239, 1279.545
362.4060, 1276.336
362.8881, 1273.940
363.3702, 1272.663
363.8523, 1270.779
364.3344, 1265.827
364.8166, 1260.634
365.2987, 1258.411
365.7808, 1265.098
366.2629, 1269.699
366.7450, 1268.336
367.2271, 1260.983
367.7093, 1254.363
368.1914, 1248.459
368.6735, 1244.000
369.1556, 1241.464
369.6377, 1243.244
370.1198, 1243.993
370.6020, 1242.983
371.0841, 1240.708
371.5662, 1239.035
372.0483, 1238.899
372.5304, 1238.217
373.0125, 1235.873
373.4947, 1230.807
373.9768, 1227.161
374.4589, 1225.194
374.9410, 1224.395
375.4231, 1224.075
375.9052, 1224.408
376.3874, 1224.766
376.8695, 1224.796
377.3516, 1224.555
377.8337, 1225.609
378.3158, 1228.392
378.7979, 1231.388
379.2801, 1233.110
379.7622, 1233.550
380.2443, 1233.420
380.7264, 1232.694
381.2085, 1231.624
381.6906, 1230.542
382.1728, 1229.415
382.6549, 1229.245
383.1370, 1231.453
383.6191, 1235.325
384.1012, 1237.742
384.5833, 1238.048
385.0655, 1238.011
385.5476, 1240.301
386.0297, 1244.351
386.5118, 1248.026
386.9939, 1250.666
387.4760, 1252.208
387.9582, 1251.758
388.4403, 1249.292
388.9224, 1247.865
389.4045, 1251.498
389.8866, 1257.348
390.3687, 1261.399
390.8509, 1261.582
391.3330, 1260.351
391.8151, 1258.650
392.2972, 1256.775
392.7793, 1255.859
393.2614, 1257.358
393.7436, 1259.455
394.2257, 1260.976
394.7078, 1261.799
395.1899, 1261.755
395.6720, 1259.418
396.1541, 1256.393
396.6363, 1255.268
397.1184, 1258.432
397.6005, 1261.934
398.0826, 1264.492
398.5647, 1265.941
399.0468, 1267.217
399.5290, 1268.567
400.0111, 1269.683
400.4932, 1270.301
400.9753, 1269.473
401.4574, 1269.448
401.9395, 1270.743
402.4217, 1273.069
402.9038, 1274.928
403.3859, 1275.688
403.8680, 1276.923
404.3501, 1279.682
404.8322, 1284.757
405.3144, 1288.406
405.7965, 1290.181
406.2786, 1291.014
406.7607, 1292.388
407.2428, 1294.425
407.7249, 1296.323
408.2071, 1297.698
408.6892, 1298.672
409.1713, 1299.828
409.6534, 1301.078
410.1355, 1303.049
410.6176, 1307.296
411.0998, 1313.193
411.5819, 1316.711
412.0640, 1316.412
412.5461, 1314.491
413.0282, 1314.388
413.5103, 1315.892
413.9925, 1317.746
414.4746, 1319.505
414.9567, 1321.062
415.4388, 1322.034
415.9209, 1322.312
416.4030, 1322.825
416.8852, 1324.943
417.3673, 1327.738
417.8494, 1329.703
418.3315, 1330.126
418.8136, 1329.691
419.2957, 1328.163
419.7779, 1325.855
420.2600, 1324.615
420.7421, 1326.737
421.2242, 1329.405
421.7063, 1330.332
422.1884, 1327.612
422.6706, 1326.058
423.1527, 1326.993
423.6348, 1329.862
424.1169, 1333.585
424.5990, 1338.025
425.0811, 1343.302
425.5633, 1349.516
426.0454, 1356.707
426.5275, 1364.366
427.0096, 1372.410
427.4917, 1381.027
427.9738, 1390.496
428.4560, 1401.321
428.9381, 1411.709
429.4202, 1420.763
429.9023, 1429.231
430.3844, 1440.511
430.8665, 1455.259
431.3487, 1470.779
431.8308, 1485.726
432.3129, 1499.995
432.7950, 1514.353
433.2771, 1528.304
433.7592, 1543.648
434.2414, 1563.701
434.7235, 1588.121
435.2056, 1612.792
435.6877, 1636.885
436.1698, 1660.027
436.6519, 1681.454
437.1341, 1701.247
437.6162, 1720.600
438.0983, 1742.771
438.5804, 1764.791
439.0625, 1781.074
439.5446, 1789.912
440.0268, 1795.641
440.5089, 1802.807
440.9910, 1809.706
441.4731, 1812.782
441.9552, 1809.963
442.4373, 1803.219
442.9195, 1793.623
443.4016, 1781.206
443.8837, 1765.841
444.3658, 1745.443
444.8479, 1723.080
445.3300, 1701.323
445.8122, 1679.234
446.2943, 1659.353
446.7764, 1643.437
447.2585, 1629.969
447.7406, 1615.083
448.2227, 1595.307
448.7049, 1577.293
449.1870, 1563.360
449.6691, 1554.572
450.1512, 1544.105
450.6333, 1530.839
451.1154, 1517.296
451.5976, 1505.705
452.0797, 1496.168
452.5618, 1488.767
453.0439, 1483.854
453.5260, 1480.978
454.0081, 1478.608
454.4903, 1476.786
454.9724, 1475.194
455.4545, 1473.225
455.9366, 1471.128
456.4187, 1471.091
456.9008, 1473.508
457.3830, 1476.101
457.8651, 1475.158
458.3472, 1471.956
458.8293, 1470.907
459.3114, 1475.017
459.7935, 1480.291
460.2757, 1481.895
460.7578, 1480.177
461.2399, 1477.066
461.7220, 1471.842
462.2041, 1466.828
462.6862, 1464.924
463.1684, 1467.407
463.6505, 1469.132
464.1326, 1467.272
464.6147, 1463.193
465.0968, 1458.596
465.5789, 1454.004
466.0611, 1449.112
466.5432, 1443.295
467.0253, 1436.772
467.5074, 1431.503
467.9895, 1428.526
468.4716, 1426.225
468.9538, 1423.977
469.4359, 1422.294
469.9180, 1419.577
470.4001, 1415.572
470.8822, 1410.646
471.3643, 1405.076
471.8465, 1398.292
472.3286, 1392.503
472.8107, 1388.503
473.2928, 1386.003
473.7749, 1383.142
474.2570, 1379.928
474.7392, 1376.328
475.2213, 1372.023
475.7034, 1367.178
476.1855, 1362.932
476.6676, 1359.437
477.1497, 1356.475
477.6319, 1353.706
478.1140, 1351.245
478.5961, 1349.507
479.0782, 1349.645
479.5603, 1350.013
480.0424, 1348.141
480.5246, 1344.340
481.0067, 1341.218
481.4888, 1341.297
481.9709, 1342.274
482.4530, 1341.984
482.9352, 1339.432
483.4173, 1337.025
483.8994, 1336.464
484.3815, 1336.459
484.8636, 1335.063
485.3457, 1329.615
485.8279, 1325.009
486.3100, 1323.050
486.7921, 1323.769
487.2742, 1323.518
487.7563, 1321.830
488.2384, 1319.682
488.7206, 1317.629
489.2027, 1315.825
489.6848, 1313.775
490.1669, 1311.391
490.6490, 1308.879
491.1311, 1306.464
491.6133, 1304.150
492.0954, 1302.022
492.5775, 1299.976
493.0596, 1298.160
493.5417, 1297.510
494.0238, 1298.040
494.5060, 1298.055
494.9881, 1295.111
495.4702, 1290.723
495.9523, 1289.114
496.4344, 1291.332
496.9165, 1293.964
497.3987, 1293.347
497.8808, 1290.724
498.3629, 1288.455
498.8450, 1287.821
499.3271, 1287.616
499.8092, 1287.369
500.2914, 1287.003
500.7735, 1286.119
501.2556, 1283.360
501.7377, 1280.942
502.2198, 1280.552
502.7019, 1283.859
503.1841, 1285.352
503.6662, 1282.495
504.1483, 1278.264
504.6304, 1276.197
505.1125, 1277.983
505.5946, 1279.234
506.0768, 1279.227
506.5589, 1278.149
507.0410, 1276.769
507.5231, 1274.731
508.0052, 1273.350
508.4873, 1273.690
508.9695, 1275.760
509.4516, 1276.949
509.9337, 1277.224
510.4158, 1276.637
510.8979, 1274.410
511.3800, 1271.098
511.8622, 1269.544
512.3443, 1271.380
512.8264, 1274.008
513.3085, 1273.593
513.7906, 1270.887
514.2728, 1268.586
514.7549, 1268.891
515.2370, 1269.829
515.7191, 1269.540
516.2012, 1267.820
516.6833, 1266.382
517.1655, 1266.336
517.6476, 1266.759
518.1297, 1266.863
518.6118, 1266.087
519.0939, 1265.492
519.5760, 1265.228
520.0582, 1265.264
520.5403, 1265.532
521.0224, 1266.519
521.5045, 1267.016
521.9866, 1266.405
522.4688, 1264.679
522.9509, 1264.072
523.4330, 1264.911
523.9151, 1266.050
524.3972, 1266.310
524.8793, 1265.639
525.3615, 1266.463
525.8436, 1269.338
526.3257, 1272.799
526.8078, 1274.875
527.2899, 1275.660
527.7720, 1275.498
528.2542, 1273.985
528.7363, 1272.018
529.2184, 1270.804
529.7005, 1270.243
530.1826, 1269.734
530.6647, 1268.996
531.1469, 1268.114
531.6290, 1266.998
532.1111, 1265.496
532.5932, 1264.588
533.0753, 1264.910
533.5574, 1265.937
534.0396, 1267.116
534.5217, 1268.982
535.0038, 1270.294
535.4859, 1270.608
535.9680, 1270.248
536.4501, 1270.290
536.9323, 1271.215
537.4144, 1271.699
537.8965, 1270.890
538.3786, 1268.717
538.8607, 1268.466
539.3428, 1270.711
539.8250, 1273.059
540.3071, 1272.587
540.7892, 1269.722
541.2713, 1268.899
541.7534, 1271.266
542.2355, 1274.522
542.7177, 1275.209
543.1998, 1274.050
543.6819, 1273.327
544.1640, 1275.192
544.6461, 1277.212
545.1282, 1276.300
545.6104, 1273.051
546.0925, 1271.131
546.5746, 1274.063
547.0567, 1277.841
547.5388, 1279.795
548.0209, 1279.164
548.5031, 1277.982
548.9852, 1275.820
549.4673, 1273.704
549.9494, 1272.730
550.4315, 1273.633
550.9136, 1274.547
551.3958, 1275.380
551.8779, 1276.062
552.3600, 1276.283
552.8421, 1275.840
553.3242, 1275.643
553.8063, 1276.398
554.2885, 1277.855
554.7706, 1277.606
555.2527, 1275.467
555.7348, 1273.602
556.2169, 1273.642
556.6990, 1275.436
557.1812, 1279.416
557.6633, 1286.577
558.1454, 1292.323
558.6275, 1290.983
559.1096, 1285.311
559.5917, 1280.123
560.0739, 1276.958
560.5560, 1275.191
561.0381, 1275.437
561.5202, 1277.111
562.0023, 1277.708
562.4844, 1274.885
562.9666, 1272.293
563.4487, 1271.546
563.9308, 1272.825
564.4129, 1275.132
564.8950, 1279.758
565.3771, 1283.974
565.8593, 1285.228
566.3414, 1282.641
566.8235, 1280.876
567.3056, 1280.621
567.7877, 1280.983
568.2698, 1280.005
568.7520, 1277.807
569.2341, 1276.512
569.7162, 1277.557
570.1983, 1279.598
570.6804, 1280.249
571.1625, 1279.630
571.6447, 1278.527
572.1268, 1276.202
572.6089, 1274.383
573.0910, 1275.244
573.5731, 1279.400
574.0552, 1283.326
574.5374, 1285.385
575.0195, 1286.500
575.5016, 1287.541
575.9837, 1289.225
576.4658, 1290.090
576.9479, 1289.313
577.4301, 1287.754
577.9122, 1287.140
578.3943, 1287.877
578.8764, 1288.629
579.3585, 1288.881
579.8406, 1288.780
580.3228, 1289.680
580.8049, 1291.772
581.2870, 1293.610
581.7691, 1294.197
582.2512, 1293.738
582.7333, 1292.866
583.2155, 1291.570
583.6975, 1290.514
584.1796, 1290.544
584.6617, 1291.193
585.1439, 1291.590
585.6260, 1291.102
586.1081, 1291.076
586.5902, 1292.875
587.0723, 1295.677
587.5544, 1297.853
588.0366, 1297.094
588.5187, 1297.524
589.0008, 1301.631
589.4829, 1309.082
589.9650, 1313.389
590.4471, 1312.479
590.9293, 1311.039
591.4114, 1311.381
591.8935, 1313.854
592.3756, 1315.298
592.8577, 1315.347
593.3398, 1315.344
593.8220, 1316.611
594.3041, 1319.090
594.7862, 1322.619
595.2683, 1327.662
595.7504, 1332.500
596.2325, 1334.612
596.7147, 1334.783
597.1968, 1335.004
597.6789, 1335.891
598.1610, 1337.406
598.6431, 1339.630
599.1252, 1342.501
599.6074, 1345.734
600.0895, 1350.711
600.5716, 1354.791
601.0537, 1356.112
601.5358, 1353.540
602.0179, 1353.129
602.5001, 1356.529
602.9822, 1360.535
603.4643, 1362.804
603.9464, 1363.025
604.4285, 1362.788
604.9106, 1362.153
605.3928, 1361.157
605.8749, 1359.778
606.3570, 1358.025
606.8391, 1356.133
607.3212, 1354.207
607.8033, 1352.128
608.2855, 1349.141
608.7676, 1345.679
609.2497, 1343.263
609.7318, 1344.625
610.2139, 1345.982
610.6960, 1343.482
611.1782, 1337.137
611.6603, 1332.351
612.1424, 1332.196
612.6245, 1333.292
613.1066, 1333.520
613.5887, 1332.061
614.0709, 1331.380
614.5530, 1332.233
615.0351, 1333.216
615.5172, 1332.701
615.9993, 1330.267
616.4814, 1328.222
616.9636, 1326.824
617.4457, 1326.075
617.9278, 1326.202
618.4099, 1327.119
618.8920, 1327.990
619.3741, 1328.623
619.8563, 1328.879
620.3384, 1328.578
620.8205, 1327.710
621.3026, 1326.288
621.7847, 1323.229
622.2668, 1320.382
622.7490, 1319.629
623.2311, 1321.374
623.7132, 1322.203
624.1953, 1320.254
624.6774, 1317.766
625.1595, 1316.401
625.6417, 1317.594
626.1238, 1317.093
626.6059, 1314.082
627.0880, 1310.333
627.5701, 1308.398
628.0522, 1308.521
628.5344, 1308.169
629.0165, 1306.679
629.4986, 1304.623
629.9807, 1302.977
630.4628, 1301.709
630.9449, 1300.728
631.4271, 1299.486
631.9092, 1298.782
632.3913, 1300.001
632.8734, 1302.803
633.3555, 1305.079
633.8376, 1305.090
634.3198, 1304.779
634.8019, 1305.500
635.2840, 1307.718
635.7661, 1309.145
636.2482, 1309.203
636.7303, 1308.712
637.2125, 1308.020
637.6946, 1306.526
638.1767, 1306.917
638.6588, 1310.040
639.1409, 1313.803
639.6230, 1315.128
640.1052, 1314.159
640.5873, 1312.673
641.0694, 1310.995
641.5515, 1309.278
642.0336, 1307.267
642.5157, 1305.366
642.9979, 1304.731
643.4800, 1307.163
643.9621, 1310.045
644.4442, 1311.766
644.9263, 1312.361
645.4084, 1312.212
645.8906, 1310.127
646.3727, 1308.472
646.8548, 1308.770
647.3369, 1311.446
647.8190, 1312.651
648.3011, 1311.590
648.7833, 1310.240
649.2654, 1310.189
649.7475, 1311.574
650.2296, 1312.650
650.7117, 1313.386
651.1938, 1313.572
651.6760, 1312.210
652.1581, 1309.998
652.6402, 1309.277
653.1223, 1311.123
653.6044, 1313.625
654.0865, 1315.851
654.5687, 1317.411
655.0508, 1317.596
655.5329, 1313.657
656.0150, 1310.850
656.4971, 1311.894
656.9792, 1316.020
657.4614, 1319.064
657.9435, 1320.714
658.4256, 1321.434
658.9077, 1321.047
659.3898, 1319.623
659.8719, 1319.232
660.3541, 1320.100
660.8362, 1320.925
661.3183, 1320.439
661.8004, 1319.107
662.2825, 1319.072
662.7646, 1320.542
663.2468, 1321.731
663.7289, 1320.031
664.2110, 1317.513
664.6931, 1317.222
665.1752, 1320.959
665.6573, 1323.957
666.1395, 1323.289
666.6216, 1321.074
667.1037, 1319.917
667.5858, 1322.083
668.0679, 1322.782
668.5500, 1320.467
669.0322, 1317.003
669.5143, 1316.820
669.9964, 1320.608
670.4785, 1324.357
670.9606, 1327.241
671.4427, 1328.974
671.9249, 1327.746
672.4070, 1323.998
672.8891, 1321.408
673.3712, 1323.158
673.8533, 1326.649
674.3354, 1329.189
674.8176, 1330.717
675.2997, 1331.497
675.7818, 1331.230
676.2639, 1330.585
676.7460, 1329.835
677.2281, 1328.846
677.7103, 1328.512
678.1924, 1328.865
678.6745, 1329.862
679.1566, 1331.706
679.6387, 1334.762
680.1208, 1336.785
680.6030, 1337.410
681.0851, 1337.682
681.5672, 1339.156
682.0493, 1341.489
682.5314, 1343.314
683.0135, 1344.304
683.4957, 1344.604
683.9778, 1343.824
684.4599, 1342.513
684.9420, 1341.735
685.4241, 1342.766
685.9063, 1343.461
686.3884, 1342.523
686.8705, 1340.551
687.3526, 1339.622
687.8347, 1339.972
688.3168, 1341.268
688.7990, 1344.052
689.2811, 1347.861
689.7632, 1348.940
690.2453, 1346.928
690.7274, 1344.725
691.2095, 1343.859
691.6917, 1344.111
692.1738, 1345.316
