##NAMES=Arseniopleite
##RRUFFID=R070144
##IDEAL CHEMISTRY=NaCaMn^2+^Mn^2+^_2_(As^5+^O_4_)_3_
##LOCALITY=Sjögruvan mine, Grythyttan, Västmanland, Sweden
##OWNER=RRUFF
##SOURCE=Michael Scott
##DESCRIPTION=Vitreous brownish red massive
##STATUS=The identification of this mineral is confirmed by single-crystal X-ray diffraction and chemical analysis.
##URL=rruff.info/R070144
##MEASURED CHEMISTRY=(Ca_0.81_Na_0.19_)_Σ=1_(Na_0.99_Pb^2+^_0.01_)_Σ=1_Mn^2+^_1.00_(Mn^2+^_1.10_Mg_0.65_Fe^3+^_0.18_Fe^2+^_0.07_)_Σ=2_(As_1.00_O_4_)_3_; trace amounts of P; Fe^2+^ and Fe^3+^ splitted by charge balance
114.5050, 133.6827
114.9871, 146.8172
115.4692, 158.2883
115.9513, 167.9260
116.4335, 175.5475
116.9156, 176.3253
117.3977, 175.3014
117.8798, 180.9358
118.3619, 201.6597
118.8440, 227.6190
119.3262, 252.0637
119.8083, 273.9737
120.2904, 294.3157
120.7725, 311.9063
121.2546, 327.8032
121.7367, 346.2980
122.2189, 373.3256
122.7010, 403.7636
123.1831, 431.0088
123.6652, 450.8050
124.1473, 467.9130
124.6294, 487.7549
125.1115, 510.3388
125.5937, 533.3594
126.0758, 554.7095
126.5579, 574.8969
127.0400, 594.9916
127.5221, 613.2543
128.0043, 632.1530
128.4864, 657.8548
128.9685, 691.7462
129.4506, 728.9186
129.9327, 764.9343
130.4148, 799.5374
130.8969, 829.0364
131.3791, 849.3080
131.8612, 861.3818
132.3433, 871.9722
132.8254, 881.1254
133.3075, 890.0068
133.7896, 902.7774
134.2718, 920.1193
134.7539, 936.8818
135.2360, 946.3538
135.7181, 947.3930
136.2002, 954.4505
136.6823, 973.1333
137.1645, 1002.247
137.6466, 1024.614
138.1287, 1038.799
138.6108, 1049.038
139.0929, 1060.922
139.5750, 1075.557
140.0572, 1088.461
140.5393, 1098.178
141.0214, 1104.324
141.5035, 1108.314
141.9856, 1106.977
142.4677, 1104.987
142.9499, 1113.479
143.4320, 1136.228
143.9141, 1163.644
144.3962, 1191.769
144.8783, 1224.676
145.3604, 1251.032
145.8425, 1266.719
146.3247, 1273.818
146.8068, 1288.712
147.2889, 1321.983
147.7710, 1354.836
148.2531, 1375.322
148.7352, 1369.502
149.2174, 1367.144
149.6995, 1373.752
150.1816, 1390.647
150.6637, 1402.961
151.1458, 1410.205
151.6279, 1412.788
152.1101, 1411.295
152.5922, 1396.556
153.0743, 1386.121
153.5564, 1386.722
154.0385, 1404.311
154.5206, 1414.994
155.0028, 1412.015
155.4849, 1400.432
155.9670, 1388.788
156.4491, 1377.969
156.9312, 1368.109
157.4133, 1358.368
157.8955, 1343.364
158.3776, 1337.342
158.8597, 1353.055
159.3418, 1383.031
159.8239, 1402.108
160.3060, 1387.931
160.7882, 1367.477
161.2703, 1359.568
161.7524, 1383.608
162.2345, 1407.297
162.7166, 1414.882
163.1987, 1408.096
163.6808, 1403.611
164.1630, 1413.682
164.6451, 1428.720
165.1272, 1438.417
165.6093, 1434.116
166.0914, 1426.854
166.5735, 1421.995
167.0557, 1419.624
167.5378, 1422.034
168.0199, 1437.031
168.5020, 1457.320
168.9841, 1470.594
169.4662, 1465.327
169.9484, 1453.437
170.4305, 1445.116
170.9126, 1441.384
171.3947, 1441.402
171.8768, 1448.453
172.3589, 1459.558
172.8411, 1466.173
173.3232, 1457.453
173.8053, 1443.254
174.2874, 1437.909
174.7695, 1447.532
175.2516, 1460.122
175.7338, 1459.042
176.2159, 1446.969
176.6980, 1439.790
177.1801, 1454.026
177.6622, 1480.872
178.1443, 1502.056
178.6264, 1511.976
179.1086, 1515.074
179.5907, 1516.716
180.0728, 1516.943
180.5549, 1517.453
181.0370, 1520.924
181.5191, 1526.144
182.0013, 1529.236
182.4834, 1527.012
182.9655, 1522.172
183.4476, 1518.884
183.9297, 1516.543
184.4118, 1520.652
184.8940, 1543.922
185.3761, 1582.933
185.8582, 1614.480
186.3403, 1624.582
186.8224, 1618.327
187.3046, 1615.782
187.7867, 1617.346
188.2688, 1622.588
188.7509, 1634.306
189.2330, 1652.121
189.7151, 1664.577
190.1973, 1658.964
190.6794, 1638.907
191.1615, 1636.016
191.6436, 1657.312
192.1257, 1689.403
192.6078, 1703.845
193.0900, 1699.684
193.5721, 1693.182
194.0542, 1695.818
194.5363, 1707.266
195.0184, 1716.171
195.5005, 1719.906
195.9826, 1720.866
196.4648, 1727.361
196.9469, 1740.586
197.4290, 1753.028
197.9111, 1756.245
198.3932, 1749.062
198.8753, 1749.544
199.3575, 1765.753
199.8396, 1792.437
200.3217, 1798.648
200.8038, 1779.093
201.2859, 1754.450
201.7680, 1744.784
202.2502, 1751.881
202.7323, 1763.211
203.2144, 1778.950
203.6965, 1798.309
204.1786, 1803.236
204.6607, 1788.272
205.1429, 1768.934
205.6250, 1766.030
206.1071, 1784.167
206.5892, 1800.177
207.0713, 1805.840
207.5534, 1800.186
208.0356, 1798.438
208.5177, 1801.924
208.9998, 1807.734
209.4819, 1812.318
209.9640, 1816.823
210.4461, 1816.772
210.9282, 1807.588
211.4104, 1784.868
211.8925, 1775.531
212.3746, 1785.075
212.8567, 1804.180
213.3388, 1812.883
213.8209, 1807.740
214.3031, 1800.103
214.7852, 1794.278
215.2673, 1789.699
215.7494, 1789.232
216.2315, 1794.438
216.7136, 1803.349
217.1958, 1810.701
217.6779, 1817.570
218.1600, 1821.078
218.6421, 1818.341
219.1242, 1804.608
219.6063, 1797.690
220.0885, 1802.099
220.5706, 1814.244
221.0527, 1817.036
221.5348, 1803.744
222.0169, 1791.080
222.4990, 1791.459
222.9812, 1814.075
223.4633, 1827.864
223.9454, 1826.086
224.4275, 1811.172
224.9096, 1804.338
225.3917, 1810.133
225.8739, 1818.109
226.3560, 1819.485
226.8381, 1808.580
227.3202, 1803.147
227.8023, 1807.831
228.2844, 1822.088
228.7665, 1831.892
229.2487, 1838.981
229.7308, 1839.547
230.2129, 1827.515
230.6950, 1789.246
231.1771, 1765.038
231.6592, 1767.771
232.1414, 1799.316
232.6235, 1813.310
233.1056, 1800.551
233.5877, 1778.704
234.0698, 1766.245
234.5519, 1765.733
235.0341, 1770.159
235.5162, 1779.508
235.9983, 1794.633
236.4804, 1807.260
236.9625, 1818.362
237.4446, 1826.179
237.9268, 1828.219
238.4089, 1821.094
238.8910, 1813.876
239.3731, 1808.839
239.8552, 1806.368
240.3373, 1803.975
240.8195, 1801.317
241.3016, 1798.973
241.7837, 1798.306
242.2658, 1802.543
242.7479, 1802.983
243.2300, 1795.659
243.7122, 1777.282
244.1943, 1764.457
244.6764, 1757.037
245.1585, 1755.283
245.6406, 1761.120
246.1227, 1782.667
246.6048, 1798.375
247.0870, 1799.163
247.5691, 1778.086
248.0512, 1765.571
248.5333, 1765.919
249.0154, 1772.696
249.4975, 1773.921
249.9797, 1768.082
250.4618, 1759.250
250.9439, 1748.134
251.4260, 1732.701
251.9081, 1721.067
252.3902, 1714.663
252.8724, 1711.321
253.3545, 1706.126
253.8366, 1697.623
254.3187, 1689.866
254.8008, 1684.788
255.2829, 1683.720
255.7651, 1681.583
256.2472, 1677.682
256.7293, 1672.975
257.2114, 1670.013
257.6935, 1669.734
258.1756, 1669.478
258.6577, 1667.973
259.1399, 1664.680
259.6220, 1661.913
260.1041, 1660.832
260.5862, 1659.819
261.0683, 1653.690
261.5504, 1639.287
262.0326, 1626.120
262.5147, 1618.927
262.9968, 1619.204
263.4789, 1621.038
263.9610, 1625.515
264.4431, 1630.880
264.9253, 1631.649
265.4074, 1626.182
265.8895, 1619.836
266.3716, 1615.528
266.8537, 1614.040
267.3358, 1611.448
267.8180, 1606.975
268.3001, 1601.573
268.7822, 1597.366
269.2643, 1593.880
269.7464, 1592.904
270.2285, 1596.985
270.7107, 1608.093
271.1928, 1613.578
271.6749, 1611.277
272.1570, 1603.707
272.6391, 1597.872
273.1212, 1594.118
273.6034, 1590.974
274.0855, 1586.444
274.5676, 1579.676
275.0497, 1578.852
275.5318, 1585.905
276.0139, 1598.220
276.4961, 1610.587
276.9782, 1624.374
277.4603, 1632.360
277.9424, 1625.860
278.4245, 1603.652
278.9066, 1592.030
279.3888, 1595.618
279.8709, 1608.612
280.3530, 1616.884
280.8351, 1619.858
281.3172, 1621.825
281.7993, 1625.851
282.2815, 1631.879
282.7636, 1635.768
283.2457, 1636.439
283.7278, 1635.656
284.2099, 1638.648
284.6920, 1645.918
285.1741, 1650.450
285.6563, 1644.457
286.1384, 1629.487
286.6205, 1621.756
287.1026, 1623.436
287.5847, 1631.957
288.0668, 1645.907
288.5490, 1665.266
289.0311, 1679.901
289.5132, 1678.360
289.9953, 1664.926
290.4774, 1661.342
290.9595, 1671.856
291.4417, 1688.856
291.9238, 1699.926
292.4059, 1705.431
292.8880, 1711.020
293.3701, 1722.576
293.8522, 1737.203
294.3344, 1745.177
294.8165, 1744.330
295.2986, 1739.784
295.7807, 1737.292
296.2628, 1736.957
296.7449, 1739.563
297.2271, 1744.757
297.7092, 1753.270
298.1913, 1768.363
298.6734, 1792.003
299.1555, 1816.481
299.6376, 1830.082
300.1198, 1835.670
300.6019, 1843.658
301.0840, 1863.763
301.5661, 1888.849
302.0482, 1907.206
302.5303, 1916.723
303.0125, 1923.948
303.4946, 1934.227
303.9767, 1947.240
304.4588, 1962.442
304.9409, 1984.314
305.4230, 2005.783
305.9052, 2017.142
306.3873, 2015.193
306.8694, 2014.517
307.3515, 2027.786
307.8336, 2050.805
308.3157, 2075.508
308.7979, 2101.583
309.2800, 2125.337
309.7621, 2143.338
310.2442, 2154.960
310.7263, 2163.173
311.2084, 2165.717
311.6906, 2166.703
312.1727, 2172.738
312.6548, 2192.344
313.1369, 2213.805
313.6190, 2230.352
314.1011, 2241.676
314.5833, 2247.366
315.0654, 2243.737
315.5475, 2235.305
316.0296, 2227.790
316.5117, 2222.160
316.9938, 2218.735
317.4760, 2220.609
317.9580, 2228.620
318.4402, 2229.156
318.9223, 2209.479
319.4044, 2183.366
319.8865, 2164.899
320.3686, 2168.557
320.8507, 2169.880
321.3329, 2158.379
321.8150, 2133.435
322.2971, 2114.342
322.7792, 2110.669
323.2613, 2111.434
323.7434, 2107.656
324.2256, 2094.613
324.7077, 2080.601
325.1898, 2065.409
325.6719, 2049.303
326.1540, 2037.314
326.6361, 2034.837
327.1183, 2033.404
327.6004, 2027.485
328.0825, 2009.943
328.5646, 1996.579
329.0467, 1990.769
329.5288, 1991.300
330.0110, 1988.755
330.4931, 1982.501
330.9752, 1973.734
331.4573, 1962.528
331.9394, 1943.726
332.4215, 1932.162
332.9037, 1932.514
333.3858, 1940.845
333.8679, 1941.158
334.3500, 1928.179
334.8321, 1915.620
335.3142, 1911.730
335.7964, 1921.111
336.2785, 1924.251
336.7606, 1917.384
337.2427, 1905.641
337.7248, 1902.400
338.2069, 1909.310
338.6891, 1919.645
339.1712, 1932.662
339.6533, 1949.440
340.1354, 1955.867
340.6175, 1947.706
341.0996, 1935.195
341.5818, 1937.556
342.0639, 1956.089
342.5460, 1975.951
343.0281, 1990.732
343.5102, 2000.779
343.9923, 2010.362
344.4745, 2018.391
344.9566, 2029.426
345.4387, 2052.578
345.9208, 2086.126
346.4029, 2116.619
346.8850, 2133.251
347.3672, 2143.068
347.8493, 2169.224
348.3314, 2212.828
348.8135, 2257.789
349.2956, 2281.281
349.7777, 2291.153
350.2599, 2312.621
350.7419, 2364.255
351.2241, 2426.236
351.7062, 2465.557
352.1883, 2483.543
352.6704, 2503.609
353.1525, 2547.435
353.6346, 2604.621
354.1168, 2658.669
354.5989, 2699.862
355.0810, 2742.007
355.5631, 2803.189
356.0452, 2878.567
356.5273, 2944.716
357.0095, 2975.878
357.4916, 2996.645
357.9737, 3032.091
358.4558, 3096.570
358.9379, 3161.069
359.4200, 3208.186
359.9022, 3243.034
360.3843, 3279.074
360.8664, 3329.968
361.3485, 3378.275
361.8306, 3412.322
362.3127, 3426.953
362.7949, 3437.209
363.2770, 3442.695
363.7591, 3447.246
364.2412, 3457.309
364.7233, 3486.721
365.2054, 3511.065
365.6876, 3521.213
366.1697, 3514.914
366.6518, 3501.454
367.1339, 3475.903
367.6160, 3445.791
368.0981, 3419.966
368.5803, 3410.361
369.0624, 3391.536
369.5445, 3352.767
370.0266, 3291.827
370.5087, 3250.806
370.9908, 3244.473
371.4730, 3244.914
371.9551, 3227.934
372.4372, 3183.929
372.9193, 3142.281
373.4014, 3108.205
373.8835, 3080.385
374.3657, 3049.017
374.8478, 3012.249
375.3299, 2976.416
375.8120, 2945.167
376.2941, 2917.766
376.7762, 2899.975
377.2584, 2896.660
377.7405, 2899.441
378.2226, 2884.440
378.7047, 2849.018
379.1868, 2817.400
379.6689, 2807.122
380.1511, 2815.300
380.6332, 2815.056
381.1153, 2804.364
381.5974, 2786.600
382.0795, 2760.036
382.5616, 2727.271
383.0438, 2707.855
383.5259, 2714.806
384.0080, 2740.619
384.4901, 2773.848
384.9722, 2815.811
385.4543, 2850.449
385.9364, 2859.081
386.4185, 2850.051
386.9007, 2841.070
387.3828, 2834.798
387.8649, 2834.236
388.3470, 2844.956
388.8291, 2865.803
389.3112, 2887.573
389.7934, 2904.619
390.2755, 2918.960
390.7576, 2932.741
391.2397, 2948.542
391.7218, 2961.331
392.2039, 2960.078
392.6861, 2952.076
393.1682, 2959.945
393.6503, 3011.294
394.1324, 3067.669
394.6145, 3105.550
395.0966, 3111.623
395.5788, 3121.901
396.0609, 3146.323
396.5430, 3179.553
397.0251, 3212.606
397.5072, 3247.239
397.9893, 3278.710
398.4715, 3306.995
398.9536, 3333.416
399.4357, 3349.900
399.9178, 3342.770
400.3999, 3334.406
400.8820, 3348.238
401.3642, 3401.115
401.8463, 3447.280
402.3284, 3478.071
402.8105, 3494.745
403.2926, 3512.320
403.7747, 3532.117
404.2569, 3550.379
404.7390, 3562.322
405.2211, 3565.449
405.7032, 3577.823
406.1853, 3605.312
406.6674, 3639.272
407.1496, 3656.703
407.6317, 3656.014
408.1138, 3654.538
408.5959, 3666.269
409.0780, 3687.641
409.5602, 3694.197
410.0423, 3683.076
410.5244, 3663.191
411.0065, 3644.525
411.4886, 3626.491
411.9707, 3606.971
412.4529, 3586.598
412.9350, 3563.240
413.4171, 3533.435
413.8992, 3496.896
414.3813, 3457.519
414.8634, 3413.113
415.3456, 3368.511
415.8277, 3331.783
416.3098, 3309.096
416.7919, 3290.122
417.2740, 3269.987
417.7561, 3248.141
418.2382, 3220.764
418.7203, 3182.814
419.2025, 3140.946
419.6846, 3100.190
420.1667, 3061.389
420.6488, 3022.855
421.1309, 2980.019
421.6130, 2937.691
422.0952, 2902.615
422.5773, 2884.476
423.0594, 2866.487
423.5415, 2840.922
424.0236, 2803.922
424.5057, 2778.288
424.9879, 2777.633
425.4700, 2780.320
425.9521, 2765.304
426.4342, 2717.318
426.9163, 2678.381
427.3984, 2656.855
427.8806, 2650.052
428.3627, 2641.278
428.8448, 2631.029
429.3269, 2617.754
429.8090, 2598.690
430.2911, 2572.488
430.7733, 2551.593
431.2554, 2537.347
431.7375, 2528.098
432.2196, 2522.541
432.7017, 2520.838
433.1838, 2516.568
433.6660, 2504.325
434.1481, 2486.817
434.6302, 2472.883
435.1123, 2462.380
435.5944, 2457.440
436.0765, 2465.889
436.5587, 2481.919
437.0408, 2490.516
437.5229, 2482.799
438.0050, 2468.984
438.4871, 2459.022
438.9692, 2452.487
439.4514, 2447.034
439.9335, 2440.379
440.4156, 2434.548
440.8977, 2431.664
441.3798, 2433.076
441.8619, 2435.444
442.3441, 2433.667
442.8262, 2432.095
443.3083, 2438.859
443.7904, 2464.724
444.2725, 2491.997
444.7546, 2514.145
445.2368, 2529.983
445.7189, 2543.873
446.2010, 2553.115
446.6831, 2562.137
447.1652, 2574.759
447.6473, 2593.131
448.1295, 2612.273
448.6116, 2632.860
449.0937, 2654.102
449.5758, 2668.901
450.0579, 2670.622
450.5400, 2678.163
451.0221, 2705.611
451.5042, 2757.794
451.9864, 2798.712
452.4685, 2824.596
452.9506, 2843.217
453.4327, 2866.818
453.9148, 2895.317
454.3969, 2926.105
454.8791, 2961.194
455.3612, 2997.291
455.8433, 3020.160
456.3254, 3029.044
456.8075, 3038.320
457.2896, 3062.941
457.7718, 3097.462
458.2539, 3129.243
458.7360, 3154.860
459.2181, 3177.682
459.7002, 3199.099
460.1823, 3220.308
460.6645, 3244.503
461.1466, 3282.595
461.6287, 3318.422
462.1108, 3337.900
462.5929, 3336.796
463.0750, 3333.249
463.5572, 3334.802
464.0393, 3337.951
464.5214, 3338.560
465.0035, 3330.263
465.4856, 3324.937
465.9677, 3327.749
466.4499, 3338.246
466.9320, 3344.149
467.4141, 3344.705
467.8962, 3341.122
468.3783, 3333.441
468.8604, 3318.024
469.3426, 3307.026
469.8247, 3304.794
470.3068, 3304.048
470.7889, 3288.135
471.2710, 3252.477
471.7531, 3218.929
472.2353, 3195.923
472.7174, 3182.496
473.1995, 3170.688
473.6816, 3161.019
474.1637, 3149.800
474.6458, 3131.354
475.1280, 3107.552
475.6101, 3087.179
476.0922, 3072.062
476.5743, 3061.441
477.0564, 3056.645
477.5385, 3056.291
478.0207, 3054.676
478.5028, 3046.517
478.9849, 3036.412
479.4670, 3028.690
479.9491, 3023.722
480.4312, 3021.636
480.9134, 3025.896
481.3955, 3031.974
481.8776, 3034.464
482.3597, 3030.433
482.8418, 3023.796
483.3239, 3014.582
483.8060, 3003.253
484.2881, 2992.889
484.7703, 2985.804
485.2524, 2978.567
485.7345, 2969.549
486.2166, 2957.694
486.6987, 2946.454
487.1808, 2937.850
487.6630, 2928.497
488.1451, 2911.909
488.6272, 2884.685
489.1093, 2860.434
489.5914, 2844.811
490.0735, 2835.924
490.5557, 2815.983
491.0378, 2782.958
491.5199, 2750.874
492.0020, 2732.884
492.4841, 2726.839
492.9662, 2720.113
493.4484, 2712.043
493.9305, 2699.874
494.4126, 2676.556
494.8947, 2645.115
495.3768, 2616.725
495.8589, 2597.135
496.3411, 2582.959
496.8232, 2573.045
497.3053, 2567.157
497.7874, 2557.496
498.2695, 2530.454
498.7516, 2501.958
499.2338, 2487.123
499.7159, 2499.718
500.1980, 2513.273
500.6801, 2523.943
501.1622, 2530.067
501.6443, 2527.320
502.1265, 2501.045
502.6086, 2479.301
503.0907, 2471.715
503.5728, 2480.843
504.0549, 2489.053
504.5370, 2497.047
505.0192, 2503.334
505.5013, 2506.154
505.9834, 2504.717
506.4655, 2502.972
506.9476, 2501.341
507.4297, 2499.867
507.9119, 2499.997
508.3940, 2502.002
508.8761, 2500.280
509.3582, 2489.778
509.8403, 2473.063
510.3224, 2457.007
510.8046, 2441.573
511.2867, 2429.842
511.7688, 2427.726
512.2509, 2430.954
512.7330, 2431.530
513.2151, 2427.135
513.6973, 2419.021
514.1794, 2408.905
514.6615, 2396.001
515.1436, 2377.768
515.6257, 2344.411
516.1078, 2311.852
516.5900, 2291.890
517.0721, 2289.823
517.5542, 2281.456
518.0363, 2253.879
518.5184, 2222.668
519.0005, 2203.751
519.4827, 2208.899
519.9648, 2208.608
520.4469, 2200.034
520.9290, 2183.630
521.4111, 2160.372
521.8932, 2128.793
522.3754, 2094.252
522.8575, 2054.896
523.3396, 2010.484
523.8217, 1988.871
524.3038, 1994.110
524.7859, 2006.397
525.2681, 2003.566
525.7502, 1988.440
526.2323, 1973.085
526.7144, 1960.723
527.1965, 1949.709
527.6786, 1936.352
528.1608, 1922.115
528.6429, 1912.305
529.1250, 1913.617
529.6071, 1918.425
530.0892, 1920.981
530.5714, 1920.643
531.0535, 1918.502
531.5356, 1914.545
532.0176, 1909.210
532.4998, 1902.953
532.9819, 1886.894
533.4640, 1880.344
533.9461, 1893.272
534.4282, 1918.463
534.9103, 1931.667
535.3925, 1928.926
535.8746, 1920.346
536.3567, 1908.015
536.8388, 1891.224
537.3209, 1878.968
537.8030, 1870.219
538.2852, 1868.950
538.7673, 1885.357
539.2494, 1917.605
539.7315, 1936.825
540.2136, 1933.003
540.6957, 1920.683
541.1779, 1926.107
541.6600, 1944.882
542.1421, 1958.654
542.6242, 1950.474
543.1063, 1935.752
543.5884, 1931.700
544.0706, 1939.264
544.5527, 1947.563
545.0348, 1951.707
545.5169, 1953.163
545.9990, 1952.829
546.4811, 1943.427
546.9633, 1942.557
547.4454, 1963.720
547.9275, 1995.528
548.4096, 2011.389
548.8917, 1998.856
549.3738, 1985.874
549.8560, 1978.936
550.3381, 1978.055
550.8202, 1980.843
551.3023, 1989.072
551.7844, 1996.974
552.2665, 1999.270
552.7487, 1995.984
553.2308, 1995.531
553.7129, 2000.142
554.1950, 2004.100
554.6771, 1996.605
555.1592, 1980.212
555.6414, 1966.036
556.1235, 1958.906
556.6056, 1956.308
557.0877, 1959.788
557.5698, 1967.440
558.0519, 1967.167
558.5341, 1940.985
559.0162, 1910.847
559.4983, 1896.844
559.9804, 1909.298
560.4625, 1913.989
560.9446, 1893.865
561.4268, 1864.347
561.9089, 1844.036
562.3910, 1836.310
562.8731, 1835.027
563.3552, 1844.373
563.8373, 1859.953
564.3195, 1862.609
564.8016, 1850.861
565.2837, 1830.084
565.7658, 1797.450
566.2479, 1744.176
566.7300, 1752.170
567.2122, 1754.475
567.6943, 1751.402
568.1764, 1726.832
568.6585, 1730.020
569.1406, 1722.083
569.6227, 1713.691
570.1049, 1720.785
570.5870, 1699.341
571.0691, 1706.191
571.5512, 1701.746
572.0333, 1702.470
572.5154, 1692.001
572.9976, 1684.988
573.4797, 1689.174
573.9618, 1687.159
574.4439, 1675.402
574.9260, 1676.454
575.4081, 1654.620
575.8903, 1652.868
576.3724, 1659.783
576.8545, 1648.589
577.3366, 1649.846
577.8187, 1646.361
578.3008, 1621.324
578.7830, 1633.767
579.2651, 1630.002
579.7472, 1609.593
580.2293, 1620.753
580.7114, 1602.639
581.1935, 1594.974
581.6757, 1595.171
582.1578, 1587.173
582.6399, 1591.015
583.1220, 1587.944
583.6041, 1582.936
584.0862, 1576.954
584.5684, 1571.127
585.0505, 1566.832
585.5326, 1565.315
586.0147, 1564.214
586.4968, 1562.096
586.9789, 1559.853
587.4611, 1559.498
587.9432, 1563.696
588.4253, 1567.189
588.9074, 1568.836
589.3895, 1568.646
589.8716, 1566.971
590.3538, 1562.729
590.8359, 1559.314
591.3180, 1560.922
591.8001, 1567.565
592.2822, 1565.174
592.7643, 1550.316
593.2465, 1535.699
593.7286, 1541.088
594.2107, 1561.112
594.6928, 1576.938
595.1749, 1582.025
595.6570, 1581.144
596.1392, 1576.115
596.6213, 1568.482
597.1034, 1563.446
597.5854, 1567.481
598.0676, 1571.444
598.5497, 1568.159
599.0318, 1555.726
599.5139, 1549.929
599.9960, 1559.687
600.4781, 1572.303
600.9603, 1579.361
601.4424, 1577.523
601.9245, 1577.720
602.4066, 1581.075
602.8887, 1585.742
603.3708, 1590.660
603.8530, 1596.368
604.3351, 1593.169
604.8172, 1572.842
605.2993, 1545.826
605.7814, 1540.173
606.2635, 1553.215
