##NAMES=Arsentsumebite
##RRUFFID=R060949
##IDEAL CHEMISTRY=Pb^2+^_2_Cu^2+^(As^5+^O_4_)(S^6+^O_4_)(OH)
##LOCALITY=Capitana mine, Copiapo, Chile
##OWNER=RRUFF
##SOURCE=Bob Jenkins
##DESCRIPTION=Green crystalline blebs scattered on the barite matrix
##STATUS=The identification of this mineral is confirmed by single-crystal X-ray diffraction and chemical analysis.
##URL=rruff.info/R060949
##MEASURED CHEMISTRY=Pb_2.00_(Cu_0.98_Fe_0.02_)_Î£=1_(As_1.00_O_4_)(S_1.00_O_4_)(OH); OH estimated by charge balance and difference
138.4021, 1730.432
138.8843, 1736.470
139.3664, 1756.803
139.8485, 1790.892
140.3306, 1835.534
140.8127, 1887.326
141.2948, 1953.358
141.7769, 2043.824
142.2591, 2169.642
142.7412, 2291.981
143.2233, 2372.180
143.7054, 2412.073
144.1875, 2464.126
144.6696, 2560.393
145.1518, 2671.553
145.6339, 2764.516
146.1160, 2832.464
146.5981, 2889.221
147.0802, 2950.958
147.5623, 3019.197
148.0445, 3074.918
148.5266, 3108.117
149.0087, 3125.932
149.4908, 3134.418
149.9729, 3136.106
150.4550, 3125.257
150.9372, 3091.219
151.4193, 3029.707
151.9014, 2963.574
152.3835, 2891.315
152.8656, 2822.557
153.3477, 2766.451
153.8299, 2726.667
154.3120, 2698.704
154.7941, 2677.583
155.2762, 2666.476
155.7583, 2653.452
156.2404, 2629.262
156.7226, 2603.917
157.2047, 2586.561
157.6868, 2580.717
158.1689, 2584.038
158.6510, 2591.875
159.1331, 2603.747
159.6153, 2621.901
160.0974, 2653.883
160.5795, 2688.449
161.0616, 2714.028
161.5437, 2725.318
162.0258, 2726.737
162.5080, 2729.684
162.9901, 2737.430
163.4722, 2740.572
163.9543, 2738.552
164.4364, 2731.258
164.9185, 2717.655
165.4007, 2696.760
165.8828, 2671.132
166.3649, 2647.624
166.8470, 2622.981
167.3291, 2606.279
167.8112, 2605.368
168.2934, 2610.214
168.7755, 2610.229
169.2576, 2600.334
169.7397, 2582.057
170.2218, 2559.741
170.7039, 2528.543
171.1861, 2499.946
171.6682, 2475.270
172.1503, 2454.171
172.6324, 2436.118
173.1145, 2421.044
173.5966, 2408.496
174.0788, 2396.959
174.5609, 2390.352
175.0430, 2379.721
175.5251, 2362.235
176.0072, 2340.784
176.4893, 2317.325
176.9715, 2292.649
177.4536, 2268.776
177.9357, 2253.953
178.4178, 2260.494
178.8999, 2262.093
179.3820, 2251.150
179.8642, 2235.107
180.3463, 2223.675
180.8284, 2221.785
181.3105, 2226.666
181.7926, 2228.017
182.2747, 2222.418
182.7569, 2216.655
183.2390, 2212.266
183.7211, 2207.721
184.2032, 2200.852
184.6853, 2190.497
185.1674, 2177.667
185.6496, 2165.679
186.1317, 2153.338
186.6138, 2143.391
187.0959, 2136.215
187.5780, 2131.585
188.0601, 2130.635
188.5423, 2134.086
189.0244, 2139.017
189.5065, 2136.281
189.9886, 2123.696
190.4707, 2104.929
190.9528, 2073.179
191.4350, 2037.547
191.9171, 2007.961
192.3992, 1988.666
192.8813, 1979.528
193.3634, 1980.287
193.8455, 2009.352
194.3277, 2026.970
194.8098, 2024.045
195.2919, 2011.224
195.7740, 2001.028
196.2561, 1998.581
196.7382, 1999.806
197.2204, 1995.119
197.7025, 1974.640
198.1846, 1959.801
198.6667, 1952.024
199.1488, 1949.718
199.6309, 1953.276
200.1131, 1962.729
200.5952, 1973.657
201.0773, 1976.906
201.5594, 1965.455
202.0415, 1954.642
202.5236, 1946.547
203.0058, 1938.046
203.4879, 1925.109
203.9700, 1906.512
204.4521, 1885.547
204.9342, 1867.985
205.4163, 1855.641
205.8985, 1844.234
206.3806, 1832.091
206.8627, 1821.702
207.3448, 1816.535
207.8269, 1817.214
208.3090, 1820.012
208.7912, 1819.362
209.2733, 1814.303
209.7554, 1806.876
210.2375, 1794.437
210.7196, 1781.350
211.2017, 1769.761
211.6839, 1760.588
212.1660, 1755.943
212.6481, 1759.369
213.1302, 1776.432
213.6123, 1786.912
214.0944, 1787.765
214.5765, 1784.724
215.0587, 1780.568
215.5408, 1776.236
216.0229, 1772.774
216.5050, 1771.329
216.9871, 1772.232
217.4692, 1774.523
217.9514, 1783.759
218.4335, 1789.917
218.9156, 1783.950
219.3977, 1767.217
219.8798, 1749.943
220.3619, 1741.952
220.8441, 1744.464
221.3262, 1750.196
221.8083, 1767.226
222.2904, 1779.797
222.7725, 1774.779
223.2546, 1756.445
223.7368, 1741.194
224.2189, 1743.424
224.7010, 1764.460
225.1831, 1781.101
225.6652, 1794.920
226.1473, 1803.639
226.6295, 1803.840
227.1116, 1797.905
227.5937, 1790.608
228.0758, 1784.823
228.5579, 1780.757
229.0400, 1783.003
229.5222, 1800.985
230.0043, 1814.800
230.4864, 1816.722
230.9685, 1811.001
231.4506, 1804.979
231.9327, 1802.746
232.4149, 1804.300
232.8970, 1809.741
233.3791, 1827.369
233.8612, 1839.636
234.3433, 1839.556
234.8254, 1833.885
235.3076, 1832.755
235.7897, 1841.333
236.2718, 1854.745
236.7539, 1857.626
237.2360, 1834.042
237.7181, 1820.408
238.2003, 1828.892
238.6824, 1844.031
239.1645, 1849.238
239.6466, 1838.570
240.1287, 1819.239
240.6108, 1805.615
241.0930, 1801.378
241.5751, 1797.230
242.0572, 1793.887
242.5393, 1789.887
243.0214, 1783.449
243.5035, 1774.425
243.9857, 1764.877
244.4678, 1758.251
244.9499, 1757.183
245.4320, 1752.705
245.9141, 1739.202
246.3962, 1727.070
246.8784, 1724.776
247.3605, 1731.696
247.8426, 1739.002
248.3247, 1736.087
248.8068, 1720.021
249.2889, 1708.330
249.7710, 1706.706
250.2532, 1704.410
250.7353, 1694.180
251.2174, 1678.661
251.6995, 1667.073
252.1816, 1669.411
252.6637, 1685.519
253.1459, 1691.318
253.6280, 1671.213
254.1101, 1657.131
254.5922, 1665.764
255.0743, 1687.431
255.5564, 1703.141
256.0386, 1700.353
256.5207, 1682.477
257.0028, 1663.807
257.4849, 1638.081
257.9670, 1622.302
258.4492, 1630.347
258.9313, 1647.015
259.4134, 1651.518
259.8955, 1632.162
260.3776, 1601.097
260.8597, 1584.413
261.3419, 1585.942
261.8240, 1592.053
262.3061, 1603.677
262.7882, 1615.365
263.2703, 1621.280
263.7524, 1619.211
264.2346, 1615.154
264.7167, 1618.672
265.1988, 1631.803
265.6809, 1638.193
266.1630, 1629.096
266.6451, 1614.745
267.1272, 1600.752
267.6093, 1587.763
268.0915, 1578.511
268.5736, 1577.880
269.0557, 1584.880
269.5378, 1587.317
270.0199, 1580.277
270.5020, 1571.581
270.9842, 1567.982
271.4663, 1568.908
271.9484, 1569.909
272.4305, 1569.352
272.9126, 1567.028
273.3947, 1560.725
273.8769, 1547.069
274.3590, 1537.092
274.8411, 1545.482
275.3232, 1565.353
275.8053, 1577.352
276.2874, 1566.103
276.7696, 1548.068
277.2517, 1549.526
277.7338, 1573.213
278.2159, 1591.146
278.6980, 1578.418
279.1801, 1546.793
279.6623, 1530.140
280.1444, 1539.077
280.6265, 1556.541
281.1086, 1574.779
281.5907, 1592.492
282.0728, 1600.841
282.5550, 1592.442
283.0371, 1574.488
283.5192, 1565.410
284.0013, 1567.539
284.4834, 1572.842
284.9655, 1585.229
285.4477, 1597.939
285.9298, 1593.993
286.4119, 1565.300
286.8940, 1528.492
287.3761, 1513.248
287.8582, 1526.343
288.3404, 1538.537
288.8225, 1545.179
289.3046, 1549.843
289.7867, 1555.690
290.2688, 1563.446
290.7509, 1572.993
291.2331, 1584.063
291.7152, 1596.595
292.1973, 1612.368
292.6794, 1638.341
293.1615, 1661.366
293.6436, 1670.421
294.1258, 1668.631
294.6079, 1669.104
295.0900, 1682.734
295.5721, 1708.591
296.0542, 1725.237
296.5363, 1723.703
297.0185, 1723.304
297.5006, 1727.777
297.9827, 1736.636
298.4648, 1748.894
298.9469, 1764.199
299.4290, 1781.773
299.9112, 1799.532
300.3933, 1816.961
300.8754, 1835.452
301.3575, 1856.856
301.8396, 1878.227
302.3217, 1897.618
302.8039, 1914.248
303.2860, 1927.992
303.7681, 1937.262
304.2502, 1939.488
304.7323, 1946.223
305.2144, 1959.390
305.6966, 1976.053
306.1787, 1996.553
306.6608, 2019.927
307.1429, 2043.056
307.6250, 2063.794
308.1071, 2082.269
308.5893, 2098.627
309.0714, 2113.404
309.5535, 2125.029
310.0356, 2131.622
310.5177, 2135.226
310.9998, 2139.432
311.4820, 2144.983
311.9641, 2153.014
312.4462, 2168.278
312.9283, 2194.335
313.4104, 2213.787
313.8925, 2212.736
314.3747, 2203.511
314.8568, 2199.885
315.3389, 2206.122
315.8210, 2212.582
316.3031, 2209.713
316.7852, 2198.827
317.2674, 2190.041
317.7495, 2188.385
318.2316, 2187.099
318.7137, 2173.833
319.1958, 2146.733
319.6779, 2130.270
320.1601, 2143.748
320.6422, 2170.509
321.1243, 2181.789
321.6064, 2171.808
322.0885, 2159.441
322.5706, 2164.846
323.0528, 2188.326
323.5349, 2199.692
324.0170, 2189.686
324.4991, 2173.583
324.9812, 2159.927
325.4633, 2149.053
325.9455, 2139.338
326.4276, 2129.558
326.9097, 2120.208
327.3918, 2114.190
327.8739, 2114.372
328.3560, 2113.935
328.8382, 2110.856
329.3203, 2106.581
329.8024, 2103.827
330.2845, 2103.503
330.7666, 2102.954
331.2487, 2097.046
331.7309, 2080.462
332.2130, 2068.844
332.6951, 2064.108
333.1772, 2062.242
333.6593, 2063.548
334.1414, 2066.203
334.6236, 2064.436
335.1057, 2050.891
335.5878, 2024.769
336.0699, 2008.696
336.5520, 2014.568
337.0341, 2017.987
337.5162, 2010.376
337.9984, 1995.793
338.4805, 1981.333
338.9626, 1970.577
339.4447, 1962.223
339.9268, 1953.130
340.4089, 1942.849
340.8911, 1933.322
341.3732, 1930.675
341.8553, 1925.853
342.3374, 1909.263
342.8195, 1878.561
343.3016, 1845.277
343.7838, 1819.394
344.2659, 1800.137
344.7480, 1782.338
345.2301, 1765.448
345.7122, 1749.340
346.1943, 1735.108
346.6765, 1722.178
347.1586, 1705.958
347.6407, 1679.460
348.1228, 1651.372
348.6049, 1635.564
349.0870, 1632.884
349.5692, 1628.579
350.0513, 1611.197
350.5334, 1584.071
351.0155, 1564.466
351.4976, 1560.907
351.9797, 1555.611
352.4619, 1536.753
352.9440, 1510.955
353.4261, 1492.813
353.9082, 1488.526
354.3903, 1490.881
354.8724, 1486.549
355.3546, 1470.986
355.8367, 1456.151
356.3188, 1442.751
356.8009, 1429.592
357.2830, 1415.904
357.7651, 1401.571
358.2473, 1385.971
358.7294, 1367.751
359.2115, 1346.436
359.6936, 1333.444
360.1757, 1339.102
360.6578, 1342.385
361.1400, 1335.897
361.6221, 1324.145
362.1042, 1314.749
362.5863, 1311.649
363.0684, 1311.567
363.5505, 1306.161
364.0327, 1291.455
364.5148, 1282.849
364.9969, 1290.791
365.4790, 1300.932
365.9611, 1303.956
366.4432, 1298.633
366.9254, 1289.325
367.4075, 1276.466
367.8896, 1261.674
368.3717, 1253.938
368.8538, 1255.967
369.3359, 1261.252
369.8181, 1269.606
370.3002, 1277.889
370.7823, 1276.951
371.2644, 1252.562
371.7465, 1226.322
372.2286, 1222.899
372.7108, 1239.543
373.1929, 1253.929
373.6750, 1255.791
374.1571, 1248.765
374.6392, 1240.678
375.1213, 1227.188
375.6035, 1221.619
376.0856, 1233.846
376.5677, 1252.997
377.0498, 1266.428
377.5319, 1271.381
378.0140, 1271.260
378.4962, 1269.491
378.9783, 1265.889
379.4604, 1261.598
379.9425, 1256.684
380.4246, 1251.167
380.9067, 1244.166
381.3889, 1236.648
381.8710, 1229.216
382.3531, 1221.673
382.8352, 1216.822
383.3173, 1225.088
383.7994, 1259.179
384.2816, 1281.320
384.7637, 1279.884
385.2458, 1270.470
385.7279, 1262.129
386.2100, 1257.377
386.6921, 1258.478
387.1743, 1271.983
387.6564, 1296.243
388.1385, 1309.877
388.6206, 1306.146
389.1027, 1300.990
389.5848, 1307.177
390.0670, 1319.263
390.5491, 1324.937
391.0312, 1314.247
391.5133, 1301.127
391.9954, 1302.055
392.4775, 1315.730
392.9597, 1328.845
393.4418, 1335.556
393.9239, 1339.307
394.4060, 1347.617
394.8881, 1363.017
395.3702, 1374.089
395.8524, 1374.687
396.3345, 1371.263
396.8166, 1370.908
397.2987, 1374.617
397.7808, 1379.874
398.2629, 1384.775
398.7451, 1389.414
399.2272, 1390.930
399.7093, 1383.963
400.1914, 1380.205
400.6735, 1384.469
401.1556, 1393.757
401.6378, 1403.645
402.1199, 1412.282
402.6020, 1420.271
403.0841, 1429.360
403.5662, 1440.993
404.0483, 1449.376
404.5305, 1448.182
405.0126, 1448.428
405.4947, 1457.058
405.9768, 1473.152
406.4589, 1490.665
406.9410, 1508.626
407.4231, 1524.462
407.9052, 1527.739
408.3874, 1514.349
408.8695, 1503.241
409.3516, 1507.704
409.8337, 1519.205
410.3158, 1524.126
410.7979, 1518.047
411.2801, 1512.007
411.7622, 1513.995
412.2443, 1521.089
412.7264, 1527.326
413.2085, 1531.605
413.6906, 1531.990
414.1728, 1524.271
414.6549, 1505.487
415.1370, 1497.130
415.6191, 1509.048
416.1012, 1522.393
416.5833, 1526.942
417.0655, 1524.030
417.5476, 1518.534
418.0297, 1513.011
418.5118, 1507.614
418.9939, 1502.539
419.4760, 1495.856
419.9582, 1493.123
420.4403, 1497.522
420.9224, 1503.437
421.4045, 1505.294
421.8866, 1503.547
422.3687, 1504.729
422.8509, 1516.749
423.3330, 1537.868
423.8151, 1553.737
424.2972, 1563.680
424.7793, 1569.872
425.2614, 1569.304
425.7436, 1566.955
426.2257, 1569.924
426.7078, 1580.644
427.1899, 1595.120
427.6720, 1611.768
428.1541, 1629.753
428.6363, 1645.471
429.1184, 1656.968
429.6005, 1669.258
430.0826, 1688.381
430.5647, 1714.843
431.0468, 1744.445
431.5290, 1782.778
432.0111, 1819.197
432.4932, 1846.681
432.9753, 1866.361
433.4574, 1881.448
433.9395, 1893.229
434.4217, 1904.031
434.9038, 1920.792
435.3859, 1946.431
435.8680, 1973.775
436.3501, 2007.316
436.8322, 2038.805
437.3144, 2060.991
437.7965, 2074.285
438.2786, 2084.865
438.7607, 2098.040
439.2428, 2113.070
439.7249, 2126.216
440.2071, 2138.430
440.6892, 2146.582
441.1713, 2151.441
441.6534, 2150.531
442.1355, 2138.486
442.6176, 2111.371
443.0998, 2082.548
443.5819, 2065.179
444.0640, 2053.445
444.5461, 2029.365
445.0282, 1987.146
445.5103, 1943.433
445.9925, 1916.420
446.4746, 1907.982
446.9567, 1888.239
447.4388, 1848.041
447.9209, 1806.041
448.4030, 1770.032
448.8852, 1738.966
449.3673, 1708.979
449.8494, 1678.591
450.3315, 1650.108
450.8136, 1630.076
451.2957, 1626.421
451.7779, 1612.132
452.2600, 1574.292
452.7421, 1537.654
453.2242, 1515.854
453.7063, 1506.215
454.1884, 1498.959
454.6706, 1490.584
455.1527, 1478.483
455.6348, 1452.201
456.1169, 1407.771
456.5990, 1375.471
457.0811, 1374.035
457.5633, 1384.389
458.0454, 1380.800
458.5275, 1361.066
459.0096, 1341.122
459.4917, 1324.768
459.9738, 1312.945
460.4560, 1310.444
460.9381, 1316.392
461.4202, 1317.831
461.9023, 1303.926
462.3844, 1278.006
462.8665, 1262.386
463.3487, 1268.529
463.8308, 1269.740
464.3129, 1258.331
464.7950, 1242.639
465.2771, 1229.378
465.7592, 1220.666
466.2414, 1217.122
466.7235, 1222.879
467.2056, 1237.847
467.6877, 1236.449
468.1698, 1204.729
468.6519, 1178.151
469.1341, 1175.809
469.6162, 1184.709
470.0983, 1187.289
470.5804, 1178.328
471.0625, 1164.843
471.5446, 1150.552
472.0268, 1136.502
472.5089, 1127.789
472.9910, 1126.507
473.4731, 1125.708
473.9552, 1117.289
474.4373, 1101.041
474.9195, 1091.973
475.4016, 1095.992
475.8837, 1101.111
476.3658, 1103.804
476.8479, 1103.310
477.3300, 1097.938
477.8121, 1087.140
478.2943, 1073.932
478.7764, 1061.983
479.2585, 1049.076
479.7406, 1045.048
480.2227, 1060.616
480.7048, 1074.951
481.1870, 1080.330
481.6691, 1078.591
482.1512, 1074.521
482.6333, 1070.226
483.1154, 1064.724
483.5975, 1054.325
484.0797, 1039.278
484.5618, 1031.557
485.0439, 1036.955
485.5260, 1046.607
486.0081, 1050.014
486.4902, 1047.652
486.9724, 1045.110
487.4545, 1043.585
487.9366, 1042.059
488.4187, 1039.578
488.9008, 1036.429
489.3829, 1033.727
489.8651, 1032.067
490.3472, 1030.647
490.8293, 1027.549
491.3114, 1020.973
491.7935, 1016.359
492.2756, 1013.862
492.7578, 1012.953
493.2399, 1014.747
493.7220, 1017.954
494.2041, 1019.476
494.6862, 1017.145
495.1683, 1012.612
495.6505, 1008.260
496.1326, 1003.832
496.6147, 1002.993
497.0968, 1009.291
497.5789, 1016.976
498.0610, 1019.699
498.5432, 1017.596
499.0253, 1012.663
499.5074, 1000.571
499.9895, 989.5087
500.4716, 990.0649
500.9537, 998.9623
501.4359, 1002.336
501.9180, 992.4440
502.4001, 975.2256
502.8822, 964.8082
503.3643, 963.9962
503.8464, 965.3914
504.3286, 973.0502
504.8107, 979.0595
505.2928, 976.2555
505.7749, 967.5613
506.2570, 962.7603
506.7391, 969.8903
507.2213, 981.2535
507.7034, 978.3724
508.1855, 959.3951
508.6676, 946.0916
509.1497, 947.1843
509.6318, 953.8198
510.1140, 954.6924
510.5961, 949.7668
511.0782, 948.9777
511.5603, 959.8634
512.0424, 971.9437
512.5245, 975.1760
513.0067, 971.5566
513.4888, 969.7068
513.9709, 974.1494
514.4530, 980.7347
514.9351, 980.1437
515.4172, 967.0332
515.8994, 957.6605
516.3815, 955.3217
516.8636, 953.1725
517.3457, 945.1782
517.8278, 934.5468
518.3099, 930.0217
518.7921, 937.7496
519.2742, 950.5732
519.7563, 956.1912
520.2384, 954.6762
520.7205, 955.5216
521.2026, 962.2454
521.6848, 970.3483
522.1669, 975.3569
522.6490, 977.4999
523.1311, 976.6123
523.6132, 973.4911
524.0953, 966.5322
524.5775, 947.7579
525.0596, 925.1497
525.5417, 917.3549
526.0238, 931.7644
526.5059, 956.4631
526.9880, 973.1354
527.4702, 981.7949
527.9523, 982.5688
528.4344, 963.8218
528.9165, 949.0461
529.3986, 952.0239
529.8807, 963.5466
530.3629, 967.1755
530.8450, 955.8563
531.3271, 938.6851
531.8092, 921.9796
532.2913, 906.9979
532.7734, 900.8535
533.2556, 906.4399
533.7377, 913.8786
534.2198, 913.6208
534.7019, 906.0961
535.1840, 903.6824
535.6661, 907.5495
536.1483, 914.8072
536.6304, 927.8036
537.1125, 942.1468
537.5946, 953.5457
538.0767, 960.4545
538.5588, 961.8452
539.0410, 954.4656
539.5231, 938.8843
540.0052, 931.4210
540.4873, 936.8275
540.9694, 941.5302
541.4515, 938.7541
541.9337, 933.2389
542.4158, 929.9901
542.8979, 929.8605
543.3800, 930.9791
543.8621, 932.5032
544.3442, 934.5336
544.8264, 937.8012
545.3085, 942.1436
545.7906, 945.6962
546.2727, 947.5752
546.7548, 947.3604
547.2369, 943.3390
547.7191, 929.4479
548.2012, 920.5805
548.6833, 920.2323
549.1654, 922.3018
549.6475, 922.6257
550.1296, 921.3816
550.6118, 920.8246
551.0939, 922.0662
551.5760, 925.3221
552.0581, 932.8989
552.5402, 945.3195
553.0223, 952.0640
553.5045, 948.7745
553.9866, 940.7482
554.4687, 932.9280
554.9508, 925.2837
555.4329, 920.1727
555.9150, 917.4497
556.3972, 917.8005
556.8793, 925.4527
557.3614, 935.7648
557.8435, 938.6152
558.3256, 930.5683
558.8077, 919.4398
559.2899, 917.1569
559.7720, 925.4401
560.2541, 930.4355
560.7362, 931.4578
561.2183, 929.9180
561.7004, 921.7953
562.1826, 913.3524
562.6647, 915.8073
563.1468, 934.7053
563.6289, 950.5841
564.1110, 946.0737
564.5931, 929.9841
565.0753, 919.3900
565.5574, 916.3041
566.0395, 914.6049
566.5216, 910.1647
567.0037, 903.5157
567.4858, 897.1290
567.9680, 887.5948
568.4501, 883.2362
568.9322, 885.4826
569.4143, 892.0364
569.8964, 905.5811
570.3785, 922.6449
570.8607, 931.9860
571.3428, 923.5217
571.8249, 907.1147
572.3070, 903.2450
572.7891, 912.0195
573.2712, 919.8336
573.7534, 922.4380
574.2355, 923.6671
574.7176, 928.9271
575.1997, 938.3076
575.6818, 943.1025
576.1639, 940.3934
576.6461, 935.3323
577.1282, 926.1463
577.6103, 917.6562
578.0924, 919.2364
578.5745, 932.8701
579.0566, 948.6118
579.5388, 954.2580
580.0209, 949.8441
580.5030, 944.3088
580.9851, 934.9777
581.4672, 929.8292
581.9493, 934.0057
582.4314, 943.6253
582.9135, 957.0345
583.3956, 976.0016
583.8777, 986.5494
584.3599, 973.5117
584.8420, 954.2075
585.3241, 949.2919
585.8062, 957.9069
586.2883, 968.6939
586.7704, 975.8635
587.2526, 979.4315
587.7347, 978.6133
588.2168, 968.9891
588.6989, 965.7883
589.1810, 976.2952
589.6631, 986.6728
590.1453, 990.7328
590.6274, 990.1084
591.1095, 988.1776
591.5916, 984.6628
592.0737, 984.0451
592.5558, 993.0584
593.0380, 1008.143
593.5201, 1018.599
594.0022, 1022.374
594.4843, 1027.339
594.9664, 1041.243
595.4485, 1062.061
595.9307, 1073.948
596.4128, 1064.474
596.8949, 1062.109
597.3770, 1077.541
597.8591, 1094.481
598.3412, 1097.856
598.8234, 1089.384
599.3055, 1083.006
599.7876, 1087.879
600.2697, 1099.894
600.7518, 1114.100
601.2339, 1130.109
601.7161, 1140.575
602.1982, 1143.529
602.6803, 1140.001
603.1624, 1128.873
603.6445, 1109.096
604.1266, 1097.769
604.6088, 1097.134
605.0909, 1101.983
605.5730, 1118.109
606.0551, 1134.955
606.5372, 1136.641
607.0193, 1121.731
607.5015, 1106.741
607.9836, 1107.817
608.4657, 1121.785
608.9478, 1135.335
609.4299, 1148.588
609.9120, 1161.025
610.3942, 1173.279
610.8763, 1183.733
611.3584, 1189.007
611.8405, 1188.542
612.3226, 1189.529
612.8047, 1188.390
613.2869, 1193.514
613.7690, 1217.934
614.2511, 1250.384
614.7332, 1268.492
615.2153, 1264.776
615.6974, 1253.957
616.1796, 1257.096
616.6617, 1273.935
617.1438, 1278.943
617.6259, 1266.815
618.1080, 1256.101
618.5901, 1257.682
619.0723, 1264.583
619.5544, 1266.032
620.0365, 1260.982
620.5186, 1253.765
621.0007, 1244.274
621.4828, 1234.221
621.9650, 1227.932
622.4471, 1222.276
622.9292, 1207.220
623.4113, 1177.880
623.8934, 1143.708
624.3755, 1120.097
624.8577, 1107.650
625.3398, 1101.567
625.8219, 1109.683
626.3040, 1110.957
626.7861, 1086.259
627.2682, 1050.095
627.7504, 1024.605
628.2325, 1014.442
628.7146, 1007.295
629.1967, 999.7667
629.6788, 991.6850
630.1609, 981.5698
630.6431, 970.5854
631.1252, 962.2205
631.6073, 958.3187
632.0894, 959.0814
