##NAMES=Arsenopyrite
##RRUFFID=R050071
##IDEAL CHEMISTRY=Fe^3+^(AsS)^3-^
##LOCALITY=Yaogangxian mine, Yizhang County, Hunan Province, China
##OWNER=RRUFF
##SOURCE=Rock Currier
##DESCRIPTION=Steel-gray tabular
##STATUS=The identification of this mineral has been confirmed by X-ray diffraction and chemical analysis
##URL=rruff.info/R050071
##MEASURED CHEMISTRY=FeAsS
118.3257, 1394.193
118.8078, 1378.971
119.2899, 1337.760
119.7720, 1304.478
120.2541, 1306.686
120.7363, 1364.807
121.2184, 1422.591
121.7005, 1434.924
122.1826, 1414.887
122.6647, 1406.107
123.1468, 1451.224
123.6290, 1517.464
124.1111, 1563.674
124.5932, 1562.150
125.0753, 1547.300
125.5574, 1555.731
126.0395, 1587.229
126.5217, 1625.059
127.0038, 1649.328
127.4859, 1667.460
127.9680, 1698.605
128.4501, 1771.091
128.9322, 1859.529
129.4144, 1903.733
129.8965, 1889.353
130.3786, 1860.190
130.8607, 1901.436
131.3428, 2009.879
131.8249, 2097.525
132.3071, 2092.776
132.7892, 2013.768
133.2713, 1954.858
133.7534, 1937.911
134.2355, 1942.082
134.7176, 1909.940
135.1998, 1837.313
135.6819, 1755.496
136.1640, 1684.299
136.6461, 1623.415
137.1282, 1586.260
137.6103, 1583.382
138.0925, 1612.350
138.5746, 1634.487
139.0567, 1657.060
139.5388, 1661.766
140.0209, 1612.984
140.5030, 1492.238
140.9852, 1377.682
141.4673, 1296.469
141.9494, 1251.275
142.4315, 1230.127
142.9136, 1243.009
143.3957, 1276.252
143.8779, 1289.531
144.3600, 1271.145
144.8421, 1250.153
145.3242, 1216.164
145.8063, 1251.302
146.2884, 1272.871
146.7705, 1281.599
147.2527, 1239.031
147.7348, 1262.702
148.2169, 1259.827
148.6990, 1255.863
149.1811, 1288.858
149.6632, 1253.749
150.1454, 1286.158
150.6275, 1291.615
151.1096, 1309.407
151.5917, 1300.489
152.0738, 1299.820
152.5559, 1325.870
153.0381, 1337.127
153.5202, 1325.134
154.0023, 1343.710
154.4844, 1307.668
154.9665, 1319.554
155.4486, 1322.275
155.9308, 1348.982
156.4129, 1390.931
156.8950, 1408.065
157.3771, 1358.301
157.8592, 1303.505
158.3413, 1279.227
158.8235, 1318.821
159.3056, 1363.283
159.7877, 1403.382
160.2698, 1438.603
160.7519, 1459.866
161.2340, 1448.926
161.7162, 1428.817
162.1983, 1422.035
162.6804, 1454.885
163.1625, 1487.045
163.6446, 1496.195
164.1267, 1477.904
164.6089, 1461.811
165.0910, 1467.148
165.5731, 1482.813
166.0552, 1490.928
166.5373, 1468.494
167.0194, 1444.991
167.5016, 1444.364
167.9837, 1478.880
168.4658, 1514.838
168.9479, 1528.542
169.4300, 1526.222
169.9121, 1525.989
170.3943, 1543.604
170.8764, 1566.350
171.3585, 1580.755
171.8406, 1580.687
172.3227, 1574.198
172.8048, 1563.250
173.2870, 1549.156
173.7691, 1541.856
174.2512, 1557.803
174.7333, 1584.140
175.2154, 1599.963
175.6975, 1583.164
176.1797, 1558.423
176.6618, 1558.978
177.1439, 1586.406
177.6260, 1613.996
178.1081, 1616.467
178.5902, 1599.730
179.0724, 1580.062
179.5545, 1556.062
180.0366, 1535.834
180.5187, 1537.413
181.0008, 1566.018
181.4829, 1600.285
181.9651, 1611.238
182.4472, 1603.191
182.9293, 1599.734
183.4114, 1620.873
183.8935, 1657.713
184.3756, 1686.018
184.8578, 1699.545
185.3399, 1706.824
185.8220, 1723.564
186.3041, 1749.424
186.7862, 1771.426
187.2683, 1781.120
187.7504, 1779.069
188.2326, 1765.551
188.7147, 1730.507
189.1968, 1690.168
189.6789, 1694.081
190.1610, 1746.342
190.6431, 1801.096
191.1253, 1806.872
191.6074, 1767.707
192.0895, 1730.541
192.5716, 1704.226
193.0537, 1691.321
193.5358, 1714.949
194.0180, 1784.403
194.5001, 1858.334
194.9822, 1872.474
195.4643, 1824.621
195.9464, 1787.410
196.4285, 1806.904
196.9107, 1878.555
197.3928, 1903.771
197.8749, 1870.679
198.3570, 1809.566
198.8391, 1774.349
199.3212, 1768.263
199.8034, 1765.294
200.2855, 1749.709
200.7676, 1720.630
201.2497, 1697.657
201.7318, 1682.832
202.2139, 1674.296
202.6961, 1670.018
203.1782, 1672.788
203.6603, 1669.330
204.1424, 1644.467
204.6245, 1592.528
205.1066, 1558.115
205.5888, 1550.366
206.0709, 1564.344
206.5530, 1577.855
207.0351, 1592.940
207.5172, 1602.898
207.9993, 1603.058
208.4815, 1594.176
208.9636, 1571.115
209.4457, 1525.662
209.9278, 1459.840
210.4099, 1418.961
210.8920, 1409.292
211.3742, 1414.564
211.8563, 1420.325
212.3384, 1431.281
212.8205, 1427.276
213.3026, 1392.116
213.7847, 1319.713
214.2669, 1295.534
214.7490, 1340.070
215.2311, 1411.604
215.7132, 1444.669
216.1953, 1426.900
216.6774, 1399.078
217.1596, 1374.077
217.6417, 1351.984
218.1238, 1332.853
218.6059, 1317.107
219.0880, 1304.130
219.5701, 1291.493
220.0523, 1276.368
220.5344, 1266.815
221.0165, 1269.603
221.4986, 1295.473
221.9807, 1301.977
222.4628, 1275.835
222.9450, 1231.923
223.4271, 1221.434
223.9092, 1261.374
224.3913, 1308.446
224.8734, 1338.724
225.3555, 1348.837
225.8377, 1349.292
226.3198, 1335.878
226.8019, 1312.218
227.2840, 1300.427
227.7661, 1307.279
228.2482, 1317.413
228.7303, 1318.762
229.2125, 1304.048
229.6946, 1296.884
230.1767, 1304.209
230.6588, 1324.842
231.1409, 1332.847
231.6230, 1318.790
232.1052, 1302.416
232.5873, 1303.149
233.0694, 1334.074
233.5515, 1356.441
234.0336, 1362.187
234.5157, 1350.643
234.9979, 1334.281
235.4800, 1305.548
235.9621, 1278.360
236.4442, 1268.559
236.9263, 1282.307
237.4084, 1302.984
237.8906, 1331.684
238.3727, 1372.562
238.8548, 1391.451
239.3369, 1375.694
239.8190, 1347.062
240.3011, 1334.839
240.7833, 1342.669
241.2654, 1361.201
241.7475, 1391.069
242.2296, 1438.307
242.7117, 1473.910
243.1938, 1498.620
243.6760, 1511.307
244.1581, 1506.317
244.6402, 1463.865
245.1223, 1434.711
245.6044, 1441.264
246.0865, 1502.805
246.5687, 1543.761
247.0508, 1554.366
247.5329, 1547.957
248.0150, 1555.323
248.4971, 1586.974
248.9792, 1616.728
249.4614, 1632.224
249.9435, 1626.674
250.4256, 1623.523
250.9077, 1622.418
251.3898, 1623.930
251.8719, 1628.885
252.3541, 1633.656
252.8362, 1647.459
253.3183, 1678.902
253.8004, 1745.325
254.2825, 1786.368
254.7646, 1789.526
255.2468, 1765.996
255.7289, 1757.762
256.2110, 1771.907
256.6931, 1790.683
257.1752, 1803.225
257.6573, 1804.420
258.1395, 1812.822
258.6216, 1833.581
259.1037, 1863.272
259.5858, 1881.023
260.0679, 1876.650
260.5500, 1876.631
261.0322, 1903.433
261.5143, 1972.562
261.9964, 2024.130
262.4785, 2047.066
262.9606, 2045.831
263.4427, 2050.530
263.9249, 2063.066
264.4070, 2078.390
264.8891, 2092.835
265.3712, 2105.744
265.8533, 2119.593
266.3354, 2135.031
266.8176, 2151.833
267.2997, 2169.793
267.7818, 2189.853
268.2639, 2209.129
268.7460, 2229.443
269.2281, 2257.832
269.7103, 2258.145
270.1924, 2208.611
270.6745, 2117.708
271.1566, 2088.973
271.6387, 2145.258
272.1208, 2216.704
272.6030, 2228.351
273.0851, 2164.995
273.5672, 2113.118
274.0493, 2094.393
274.5314, 2105.378
275.0135, 2108.415
275.4957, 2098.866
275.9778, 2092.285
276.4599, 2112.248
276.9420, 2165.441
277.4241, 2200.213
277.9063, 2194.544
278.3884, 2154.850
278.8705, 2146.410
279.3526, 2177.849
279.8347, 2216.503
280.3168, 2221.571
280.7990, 2189.532
281.2811, 2165.620
281.7632, 2164.227
282.2453, 2182.733
282.7274, 2208.802
283.2095, 2246.821
283.6917, 2277.319
284.1738, 2268.689
284.6559, 2220.317
285.1380, 2184.049
285.6201, 2182.146
286.1022, 2207.374
286.5844, 2219.958
287.0665, 2217.390
287.5486, 2213.078
288.0307, 2223.602
288.5128, 2248.243
288.9949, 2274.786
289.4771, 2301.265
289.9591, 2326.212
290.4413, 2344.569
290.9234, 2355.856
291.4055, 2362.242
291.8876, 2363.410
292.3697, 2360.338
292.8518, 2360.079
293.3340, 2364.908
293.8161, 2374.599
294.2982, 2391.968
294.7803, 2418.674
295.2624, 2441.062
295.7445, 2442.887
296.2267, 2427.224
296.7088, 2407.458
297.1909, 2381.351
297.6730, 2355.909
298.1551, 2351.424
298.6372, 2369.281
299.1194, 2389.006
299.6015, 2385.782
300.0836, 2366.901
300.5657, 2353.092
301.0478, 2360.490
301.5299, 2375.843
302.0121, 2375.718
302.4942, 2358.971
302.9763, 2343.581
303.4584, 2340.968
303.9405, 2351.531
304.4226, 2376.184
304.9048, 2431.375
305.3869, 2493.110
305.8690, 2528.126
306.3511, 2535.639
306.8332, 2540.863
307.3153, 2569.652
307.7975, 2609.164
308.2796, 2637.082
308.7617, 2631.219
309.2438, 2618.366
309.7259, 2620.569
310.2080, 2638.383
310.6902, 2665.597
311.1723, 2703.418
311.6544, 2747.103
312.1365, 2789.621
312.6186, 2826.784
313.1007, 2863.200
313.5829, 2900.495
314.0650, 2938.444
314.5471, 2979.798
315.0292, 3029.625
315.5113, 3082.722
315.9934, 3133.371
316.4756, 3172.800
316.9577, 3215.111
317.4398, 3271.085
317.9219, 3340.777
318.4040, 3403.090
318.8861, 3445.857
319.3683, 3479.105
319.8504, 3512.382
320.3325, 3535.980
320.8146, 3571.713
321.2967, 3639.718
321.7788, 3738.529
322.2610, 3811.780
322.7431, 3827.167
323.2252, 3821.408
323.7073, 3823.763
324.1894, 3847.209
324.6715, 3870.837
325.1537, 3887.507
325.6358, 3897.678
326.1179, 3917.125
326.6000, 3969.150
327.0821, 4018.314
327.5642, 4040.367
328.0464, 3988.572
328.5285, 3960.382
329.0106, 3979.233
329.4927, 4040.354
329.9748, 4079.009
330.4569, 4094.317
330.9391, 4088.393
331.4212, 4061.063
331.9033, 3997.500
332.3854, 3935.793
332.8675, 3872.833
333.3496, 3811.972
333.8318, 3777.125
334.3139, 3784.696
334.7960, 3798.234
335.2781, 3795.867
335.7602, 3773.232
336.2423, 3746.468
336.7245, 3720.112
337.2066, 3690.220
337.6887, 3637.407
338.1708, 3553.047
338.6529, 3465.377
339.1350, 3389.215
339.6172, 3326.377
340.0993, 3269.524
340.5814, 3219.610
341.0635, 3174.323
341.5456, 3127.031
342.0277, 3078.145
342.5099, 3026.436
342.9920, 2973.663
343.4741, 2919.376
343.9562, 2852.736
344.4383, 2770.250
344.9204, 2678.957
345.4026, 2579.916
345.8847, 2472.599
346.3668, 2390.620
346.8489, 2370.217
347.3310, 2395.008
347.8131, 2381.456
348.2953, 2317.315
348.7774, 2237.947
349.2595, 2193.135
349.7416, 2177.667
350.2237, 2159.322
350.7058, 2116.654
351.1880, 2060.624
351.6701, 2015.743
352.1522, 1984.935
352.6343, 1953.159
353.1164, 1891.930
353.5985, 1816.172
354.0807, 1765.605
354.5628, 1779.923
355.0449, 1816.498
355.5270, 1829.850
356.0091, 1818.352
356.4912, 1788.377
356.9734, 1725.374
357.4555, 1649.856
357.9376, 1595.355
358.4197, 1593.843
358.9018, 1602.791
359.3839, 1589.141
359.8661, 1553.238
360.3482, 1526.755
360.8303, 1537.861
361.3124, 1562.016
361.7945, 1574.346
362.2766, 1557.829
362.7588, 1536.661
363.2409, 1520.837
363.7230, 1509.347
364.2051, 1492.460
364.6872, 1460.670
365.1693, 1426.226
365.6515, 1397.534
366.1336, 1376.924
366.6157, 1361.696
367.0978, 1358.861
367.5799, 1363.987
368.0620, 1355.158
368.5442, 1309.045
369.0263, 1264.380
369.5084, 1239.863
369.9905, 1251.817
370.4726, 1262.065
370.9547, 1275.465
371.4369, 1287.163
371.9190, 1282.672
372.4011, 1252.684
372.8832, 1218.756
373.3653, 1188.635
373.8474, 1161.670
374.3295, 1139.761
374.8116, 1122.008
375.2938, 1109.482
375.7759, 1108.410
376.2580, 1127.578
376.7401, 1133.062
377.2222, 1106.271
377.7043, 1043.819
378.1865, 998.7733
378.6686, 973.2230
379.1507, 958.9956
379.6328, 946.8079
380.1149, 936.7870
380.5970, 925.5068
381.0792, 908.4117
381.5613, 888.7784
382.0434, 885.3004
382.5255, 900.2422
383.0076, 915.0182
383.4897, 908.4073
383.9719, 884.4005
384.4540, 859.3193
384.9361, 832.3951
385.4182, 811.5515
385.9003, 818.3830
386.3824, 850.8243
386.8646, 881.7879
387.3467, 886.4304
387.8288, 876.2844
388.3109, 870.7131
388.7930, 874.5842
389.2751, 884.0754
389.7573, 896.5652
390.2394, 911.8332
390.7215, 928.8532
391.2036, 950.6558
391.6857, 972.2349
392.1678, 990.3412
392.6500, 1006.646
393.1321, 1013.576
393.6142, 987.5335
394.0963, 949.8868
394.5784, 942.9742
395.0605, 1016.069
395.5427, 1096.038
396.0248, 1149.029
396.5069, 1166.929
396.9890, 1173.535
397.4711, 1162.878
397.9532, 1147.215
398.4354, 1142.030
398.9175, 1152.805
399.3996, 1170.692
399.8817, 1201.403
400.3638, 1248.854
400.8459, 1269.941
401.3281, 1248.313
401.8102, 1212.056
402.2923, 1184.587
402.7744, 1169.154
403.2565, 1155.975
403.7386, 1142.176
404.2208, 1129.018
404.7029, 1126.472
405.1850, 1138.228
405.6671, 1153.656
406.1492, 1166.760
406.6313, 1178.397
407.1135, 1182.693
407.5956, 1177.148
408.0777, 1165.938
408.5598, 1159.135
409.0419, 1157.208
409.5240, 1155.273
410.0062, 1152.905
410.4883, 1149.041
410.9704, 1137.693
411.4525, 1118.687
411.9346, 1091.588
412.4167, 1043.393
412.8989, 982.0666
413.3810, 941.8622
413.8631, 954.7414
414.3452, 993.2557
414.8273, 1013.784
415.3094, 1015.155
415.7916, 1013.924
416.2737, 1031.146
416.7558, 1053.434
417.2379, 1059.710
417.7200, 1022.415
418.2021, 983.7327
418.6843, 976.7187
419.1664, 996.8646
419.6485, 1015.645
420.1306, 1021.171
420.6127, 1018.330
421.0948, 1009.990
421.5770, 988.7001
422.0591, 973.8222
422.5412, 975.3308
423.0233, 987.7300
423.5054, 995.7133
423.9875, 999.7534
424.4697, 996.0659
424.9518, 980.3132
425.4339, 939.3480
425.9160, 916.0938
426.3981, 919.2383
426.8802, 936.5003
427.3624, 951.9503
427.8445, 971.4549
428.3266, 979.6843
428.8087, 968.8586
429.2908, 938.1569
429.7729, 918.9928
430.2551, 915.8743
430.7372, 917.2286
431.2193, 911.1774
431.7014, 895.7690
432.1835, 886.6976
432.6656, 891.1225
433.1478, 901.4695
433.6299, 889.5523
434.1120, 853.8174
434.5941, 819.0210
435.0762, 803.5801
435.5583, 803.9368
436.0405, 805.5288
436.5226, 808.3477
437.0047, 806.9925
437.4868, 789.7336
437.9689, 760.7506
438.4510, 735.4474
438.9332, 729.1125
439.4153, 727.5405
439.8974, 709.7788
440.3795, 673.1572
440.8616, 640.5463
441.3438, 626.9691
441.8259, 627.8214
442.3080, 636.5953
442.7901, 667.5856
443.2722, 691.0522
443.7543, 688.8391
444.2365, 663.1628
444.7186, 636.5753
445.2007, 612.9927
445.6828, 593.1172
446.1649, 577.1518
446.6470, 564.9633
447.1292, 556.9166
447.6113, 552.1409
448.0934, 551.4868
448.5755, 557.7653
449.0576, 583.4705
449.5397, 601.3881
450.0219, 599.4484
450.5040, 570.2222
450.9861, 551.8914
451.4682, 546.7759
451.9503, 549.7259
452.4324, 556.8196
452.9146, 571.1129
453.3967, 575.9130
453.8788, 563.2131
454.3609, 537.3318
454.8430, 518.8555
455.3251, 507.0487
455.8072, 506.6933
456.2893, 528.2051
456.7715, 567.1990
457.2536, 601.2020
457.7357, 628.7803
458.2178, 645.1378
458.6999, 638.7260
459.1820, 613.2821
459.6642, 584.9337
460.1463, 555.2935
460.6284, 531.6061
461.1105, 527.5978
461.5926, 547.4564
462.0747, 565.4201
462.5569, 562.9157
463.0390, 547.8660
463.5211, 531.2981
464.0032, 514.1578
464.4853, 499.1599
464.9674, 484.5918
465.4496, 471.4010
465.9317, 469.4873
466.4138, 496.3780
466.8959, 525.6286
467.3780, 541.0180
467.8601, 524.3794
468.3423, 514.1253
468.8244, 513.5500
469.3065, 519.7554
469.7886, 525.8984
470.2707, 534.8643
470.7528, 539.0939
471.2350, 532.7108
471.7171, 512.4536
472.1992, 509.4658
472.6813, 532.0762
473.1634, 557.4213
473.6455, 553.5506
474.1277, 518.7443
474.6098, 488.0394
475.0919, 468.3415
475.5740, 459.9633
476.0561, 469.1768
476.5382, 495.7773
477.0204, 520.4471
477.5025, 528.0823
477.9846, 523.1437
478.4667, 511.3935
478.9488, 488.9995
479.4309, 474.7939
479.9131, 499.2238
480.3952, 546.5790
480.8773, 580.7509
481.3594, 579.5219
481.8415, 562.1546
482.3236, 537.3677
482.8058, 505.5658
483.2879, 477.9198
483.7700, 453.1589
484.2521, 437.3867
484.7342, 436.0317
485.2163, 471.8089
485.6985, 497.8323
486.1806, 498.7062
486.6627, 481.1149
487.1448, 478.2245
487.6269, 500.0400
488.1090, 525.3239
488.5912, 547.9998
489.0733, 573.0215
489.5554, 577.0612
490.0375, 553.5289
490.5196, 517.3554
491.0017, 486.8759
491.4839, 460.6696
491.9660, 449.1270
492.4481, 461.9483
492.9302, 490.4158
493.4123, 497.7561
493.8944, 483.5372
494.3766, 462.4104
494.8587, 436.2199
495.3408, 412.0721
495.8229, 412.2901
496.3050, 448.9961
496.7871, 490.5652
497.2693, 502.8637
497.7514, 493.6116
498.2335, 481.9699
498.7156, 470.5038
499.1977, 465.0455
499.6798, 474.8261
500.1620, 501.5620
500.6441, 519.3713
501.1262, 506.2376
501.6083, 485.1302
502.0904, 476.1572
502.5725, 498.7880
503.0547, 516.2534
503.5368, 522.5306
504.0189, 519.1730
504.5010, 512.7534
504.9831, 499.4930
505.4652, 488.0104
505.9474, 480.8778
506.4295, 477.0961
506.9116, 485.5710
507.3937, 515.8322
507.8758, 544.0547
508.3579, 532.0530
508.8401, 475.0931
509.3222, 433.7791
509.8043, 425.7207
510.2864, 442.0353
510.7685, 464.4203
511.2506, 492.4069
511.7328, 510.0582
512.2148, 496.8877
512.6970, 467.1054
513.1791, 447.0656
513.6612, 440.8896
514.1433, 442.6529
514.6254, 449.3481
515.1075, 460.1725
515.5897, 473.6791
516.0718, 502.9630
516.5539, 523.0259
517.0360, 513.8622
517.5181, 476.7914
518.0002, 446.8748
518.4824, 434.2292
518.9645, 431.6274
519.4466, 434.5559
519.9287, 444.2498
520.4108, 458.0019
520.8929, 482.7397
521.3751, 508.9696
521.8572, 516.3893
522.3393, 496.5400
522.8214, 476.0957
523.3035, 463.2403
523.7856, 457.8029
524.2678, 451.5274
524.7499, 443.2467
525.2320, 438.8513
525.7141, 448.4714
526.1962, 469.1701
526.6783, 481.5190
527.1605, 482.4153
527.6426, 472.4359
528.1247, 440.2090
528.6068, 394.5467
529.0889, 366.1190
529.5710, 387.8268
530.0532, 425.1138
530.5353, 443.7335
531.0174, 440.8942
531.4995, 436.7676
531.9816, 450.1402
532.4637, 463.5621
532.9459, 460.9772
533.4280, 410.3823
533.9101, 375.2283
534.3922, 375.8746
534.8743, 402.5938
535.3564, 423.1735
535.8386, 437.8345
536.3207, 445.1174
536.8028, 442.8414
537.2849, 429.2249
537.7670, 417.8410
538.2491, 405.8475
538.7313, 400.8641
539.2134, 416.0990
539.6955, 453.2546
540.1776, 478.8336
540.6597, 484.6443
541.1418, 477.7387
541.6240, 471.0080
542.1061, 464.2830
542.5882, 456.6361
543.0703, 442.0487
543.5524, 428.2719
544.0345, 431.4724
544.5167, 454.0728
544.9988, 471.4687
545.4809, 457.6394
545.9630, 432.0735
546.4451, 417.3365
546.9272, 435.5091
547.4094, 449.6425
547.8915, 442.8463
548.3736, 421.3469
548.8557, 406.4847
549.3378, 401.2330
549.8199, 403.5623
550.3021, 415.9762
550.7842, 443.7479
551.2663, 455.5191
551.7484, 442.1067
552.2305, 424.1599
552.7126, 425.5060
553.1948, 450.5986
553.6769, 465.9463
554.1590, 465.2831
554.6411, 452.1426
555.1232, 425.4490
555.6053, 386.6692
556.0875, 366.0614
556.5696, 398.9423
557.0517, 455.8161
557.5338, 485.4288
558.0159, 485.0043
558.4980, 467.2718
558.9802, 427.2622
559.4623, 380.4647
559.9444, 347.4366
560.4265, 336.7202
560.9086, 336.0732
561.3907, 345.5894
561.8729, 361.9647
562.3550, 376.0971
562.8371, 383.3965
563.3192, 391.1231
563.8013, 402.3554
564.2834, 418.1615
564.7656, 430.3792
565.2477, 440.2475
565.7298, 444.8935
566.2119, 439.1026
566.6940, 419.6191
567.1761, 410.9992
567.6583, 421.7211
568.1404, 436.6376
568.6225, 416.0663
569.1046, 364.1290
569.5867, 331.5082
570.0688, 364.3887
570.5510, 424.2952
571.0331, 438.9864
571.5152, 409.3828
571.9973, 382.3527
572.4794, 397.5366
572.9615, 429.4273
573.4437, 450.7532
573.9258, 450.2588
574.4079, 449.4685
574.8900, 457.5068
575.3721, 470.4549
575.8542, 481.1172
576.3364, 501.1909
576.8185, 504.3182
577.3006, 472.9745
577.7827, 409.3161
578.2648, 387.5682
578.7469, 429.9554
579.2291, 473.9641
579.7112, 471.4084
580.1933, 417.8848
580.6754, 389.3521
581.1575, 393.8864
581.6396, 412.0760
582.1218, 418.2687
582.6039, 414.5902
583.0860, 411.2631
583.5681, 415.0102
584.0502, 418.0522
584.5323, 405.8245
585.0145, 382.3256
585.4966, 366.2350
585.9787, 370.9929
586.4608, 384.9095
586.9429, 400.0492
587.4250, 415.2703
587.9072, 431.6354
588.3893, 463.5809
588.8714, 490.1463
589.3535, 487.9392
589.8356, 422.1422
590.3177, 381.1008
590.7999, 383.2823
591.2820, 413.3750
591.7641, 424.5742
592.2462, 412.7840
592.7283, 397.3172
593.2104, 383.6707
593.6926, 372.7419
594.1747, 374.2961
594.6568, 389.5504
595.1389, 404.2800
595.6210, 399.2714
596.1031, 385.1767
596.5853, 386.2953
597.0674, 415.0282
597.5495, 441.6829
598.0316, 432.1567
598.5137, 404.4578
598.9958, 392.1559
599.4780, 430.5398
599.9601, 464.2938
600.4422, 471.4033
600.9243, 451.9156
601.4064, 426.0330
601.8885, 379.3088
602.3707, 342.7863
602.8528, 334.4930
603.3349, 365.3303
603.8170, 386.9835
604.2991, 398.1568
604.7813, 402.3064
605.2634, 402.0081
605.7455, 397.3875
606.2276, 394.7569
606.7097, 395.6591
607.1918, 399.4618
607.6740, 406.7258
608.1561, 416.5160
608.6382, 424.7790
609.1203, 433.2346
609.6024, 436.4273
610.0845, 425.2228
610.5667, 398.5584
611.0488, 376.7984
611.5309, 367.5912
612.0130, 367.4796
612.4951, 373.8763
612.9772, 395.3790
613.4594, 410.8274
613.9415, 419.7390
614.4236, 422.1104
614.9057, 415.7274
615.3878, 393.8130
615.8699, 382.4239
