##NAMES=Arsentsumebite
##RRUFFID=R060949
##IDEAL CHEMISTRY=Pb^2+^_2_Cu^2+^(As^5+^O_4_)(S^6+^O_4_)(OH)
##LOCALITY=Capitana mine, Copiapo, Chile
##OWNER=RRUFF
##SOURCE=Bob Jenkins
##DESCRIPTION=Green crystalline blebs scattered on the barite matrix
##STATUS=The identification of this mineral is confirmed by single-crystal X-ray diffraction and chemical analysis.
##URL=rruff.info/R060949
##MEASURED CHEMISTRY=Pb_2.00_(Cu_0.98_Fe_0.02_)_Î£=1_(As_1.00_O_4_)(S_1.00_O_4_)(OH); OH estimated by charge balance and difference
138.3971, 27636.38
138.8792, 27945.40
139.3613, 28258.15
139.8434, 28528.85
140.3256, 28753.96
140.8077, 28949.89
141.2898, 29137.71
141.7719, 29325.02
142.2540, 29480.00
142.7361, 29581.75
143.2183, 29624.40
143.7004, 29710.96
144.1825, 29875.96
144.6646, 30056.82
145.1467, 30163.29
145.6288, 30138.80
146.1110, 30120.23
146.5931, 30151.54
147.0752, 30264.69
147.5573, 30334.55
148.0394, 30345.23
148.5215, 30314.17
149.0037, 30275.65
149.4858, 30218.11
149.9679, 30163.68
150.4500, 30119.98
150.9321, 30094.54
151.4142, 30071.84
151.8963, 30047.97
152.3785, 30027.84
152.8606, 30025.93
153.3427, 30061.67
153.8248, 30106.70
154.3069, 30147.33
154.7890, 30170.92
155.2712, 30206.13
155.7533, 30259.77
156.2354, 30331.01
156.7175, 30410.72
157.1996, 30491.58
157.6817, 30583.64
158.1639, 30694.27
158.6460, 30851.92
159.1281, 31001.13
159.6102, 31119.16
160.0923, 31203.24
160.5744, 31284.70
161.0566, 31349.12
161.5387, 31421.12
162.0208, 31528.29
162.5029, 31722.61
162.9850, 31918.71
163.4671, 32078.06
163.9493, 32194.68
164.4314, 32278.29
164.9135, 32303.71
165.3956, 32302.40
165.8777, 32324.28
166.3598, 32426.35
166.8419, 32539.48
167.3241, 32614.12
167.8062, 32639.79
168.2883, 32645.13
168.7704, 32640.66
169.2525, 32630.81
169.7346, 32624.94
170.2168, 32619.43
170.6989, 32625.34
171.1810, 32663.22
171.6631, 32762.59
172.1452, 32845.81
172.6273, 32817.07
173.1095, 32703.37
173.5916, 32613.04
174.0737, 32638.56
174.5558, 32725.85
175.0379, 32796.02
175.5201, 32830.29
176.0022, 32839.48
176.4843, 32819.45
176.9664, 32774.82
177.4485, 32746.07
177.9306, 32774.29
178.4128, 32841.00
178.8949, 32907.61
179.3770, 32959.87
179.8591, 33006.89
180.3412, 33067.59
180.8233, 33142.56
181.3055, 33212.29
181.7876, 33257.34
182.2697, 33282.00
182.7518, 33301.71
183.2339, 33307.70
183.7160, 33314.82
184.1981, 33366.87
184.6803, 33468.15
185.1624, 33576.82
185.6445, 33653.46
186.1266, 33698.70
186.6087, 33722.16
187.0908, 33717.92
187.5730, 33692.63
188.0551, 33668.60
188.5372, 33643.01
189.0193, 33628.38
189.5014, 33656.65
189.9835, 33725.14
190.4657, 33772.60
190.9478, 33760.20
191.4299, 33695.96
191.9120, 33635.72
192.3941, 33582.04
192.8762, 33533.53
193.3584, 33496.24
193.8405, 33472.00
194.3226, 33428.96
194.8047, 33335.67
195.2868, 33195.42
195.7689, 33082.12
196.2511, 33001.19
196.7332, 32949.13
197.2153, 32921.17
197.6974, 32919.13
198.1795, 32929.84
198.6616, 32955.93
199.1437, 33000.11
199.6259, 33010.78
200.1080, 32973.41
200.5901, 32905.15
201.0722, 32856.38
201.5543, 32827.65
202.0364, 32813.15
202.5186, 32813.04
203.0007, 32829.24
203.4828, 32835.80
203.9649, 32821.37
204.4470, 32794.18
204.9291, 32796.90
205.4113, 32836.09
205.8934, 32883.25
206.3755, 32918.38
206.8576, 32941.66
207.3397, 32948.36
207.8218, 32935.09
208.3040, 32903.95
208.7861, 32867.37
209.2682, 32821.40
209.7503, 32781.21
210.2324, 32765.53
210.7145, 32785.13
211.1967, 32796.17
211.6788, 32789.82
212.1609, 32767.83
212.6430, 32747.27
213.1251, 32727.81
213.6072, 32712.79
214.0893, 32702.73
214.5715, 32692.47
215.0536, 32702.43
215.5357, 32743.11
216.0178, 32815.16
216.4999, 32867.42
216.9820, 32887.14
217.4642, 32898.71
217.9463, 32933.05
218.4284, 33001.67
218.9105, 33060.48
219.3926, 33096.39
219.8747, 33106.75
220.3569, 33114.68
220.8390, 33116.45
221.3211, 33119.88
221.8032, 33135.62
222.2853, 33167.63
222.7674, 33206.45
223.2496, 33255.47
223.7317, 33321.75
224.2138, 33358.62
224.6959, 33351.61
225.1780, 33328.96
225.6601, 33327.98
226.1423, 33348.17
226.6244, 33392.25
227.1065, 33468.44
227.5886, 33590.67
228.0707, 33680.78
228.5528, 33726.88
229.0349, 33748.01
229.5171, 33771.34
229.9992, 33787.07
230.4813, 33820.89
230.9634, 33883.36
231.4455, 33983.29
231.9276, 34082.03
232.4098, 34183.10
232.8919, 34281.71
233.3740, 34367.12
233.8561, 34443.88
234.3382, 34501.33
234.8203, 34531.03
235.3025, 34517.36
235.7846, 34527.07
236.2667, 34566.21
236.7488, 34626.56
237.2309, 34693.06
237.7130, 34769.59
238.1952, 34846.07
238.6773, 34920.75
239.1594, 34998.27
239.6415, 35059.77
240.1236, 35095.06
240.6057, 35119.44
241.0879, 35166.89
241.5700, 35252.83
242.0521, 35337.53
242.5342, 35407.03
243.0163, 35460.10
243.4984, 35498.27
243.9805, 35509.63
244.4627, 35509.13
244.9448, 35530.83
245.4269, 35585.58
245.9090, 35643.17
246.3911, 35695.29
246.8732, 35750.13
247.3554, 35770.46
247.8375, 35736.96
248.3196, 35674.95
248.8017, 35641.43
249.2838, 35647.50
249.7659, 35665.25
250.2481, 35692.30
250.7302, 35753.05
251.2123, 35755.39
251.6944, 35671.05
252.1765, 35543.70
252.6586, 35469.26
253.1408, 35482.80
253.6229, 35494.36
254.1050, 35461.36
254.5871, 35354.23
255.0692, 35296.48
255.5513, 35306.10
256.0334, 35357.31
256.5156, 35394.04
256.9977, 35408.21
257.4798, 35421.76
257.9619, 35442.12
258.4440, 35468.11
258.9261, 35501.64
259.4083, 35542.65
259.8904, 35589.43
260.3725, 35639.04
260.8546, 35692.64
261.3367, 35744.84
261.8188, 35794.59
262.3010, 35844.67
262.7831, 35877.83
263.2652, 35882.53
263.7473, 35877.49
264.2294, 35906.43
264.7115, 35985.20
265.1937, 36059.65
265.6758, 36101.32
266.1579, 36097.49
266.6400, 36123.08
267.1221, 36194.33
267.6042, 36281.40
268.0864, 36320.27
268.5685, 36294.12
269.0506, 36270.38
269.5327, 36280.38
270.0148, 36331.65
270.4969, 36375.51
270.9791, 36415.51
271.4612, 36445.57
271.9433, 36447.04
272.4254, 36410.27
272.9075, 36383.17
273.3896, 36388.73
273.8718, 36430.10
274.3539, 36470.14
274.8360, 36509.66
275.3181, 36547.02
275.8002, 36576.80
276.2823, 36595.76
276.7645, 36621.35
277.2466, 36662.18
277.7287, 36718.44
278.2108, 36774.88
278.6929, 36833.62
279.1750, 36887.20
279.6572, 36911.20
280.1393, 36898.19
280.6214, 36919.99
281.1035, 37021.15
281.5856, 37194.60
282.0677, 37334.03
282.5498, 37439.92
283.0320, 37509.52
283.5141, 37521.39
283.9962, 37473.40
284.4783, 37443.85
284.9604, 37466.40
285.4425, 37534.88
285.9247, 37607.30
286.4068, 37685.36
286.8889, 37760.91
287.3710, 37818.54
287.8531, 37860.03
288.3352, 37911.76
288.8174, 37989.71
289.2995, 38085.18
289.7816, 38164.15
290.2637, 38223.84
290.7458, 38275.77
291.2279, 38327.99
291.7101, 38380.72
292.1922, 38437.98
292.6743, 38505.10
293.1564, 38575.44
293.6385, 38622.85
294.1206, 38645.57
294.6028, 38681.61
295.0849, 38783.39
295.5670, 38932.99
296.0491, 39064.08
296.5312, 39146.27
297.0133, 39207.16
297.4955, 39296.78
297.9776, 39413.77
298.4597, 39538.71
298.9418, 39650.59
299.4239, 39757.60
299.9060, 39876.44
300.3882, 40007.41
300.8703, 40154.59
301.3524, 40329.79
301.8345, 40528.49
302.3166, 40722.11
302.7987, 40884.30
303.2809, 41027.48
303.7630, 41176.33
304.2451, 41335.06
304.7272, 41497.26
305.2093, 41650.92
305.6914, 41799.41
306.1736, 41950.21
306.6557, 42125.76
307.1378, 42303.13
307.6199, 42455.44
308.1020, 42577.85
308.5841, 42679.49
309.0663, 42758.54
309.5484, 42823.59
310.0305, 42893.41
310.5126, 42999.06
310.9947, 43105.00
311.4768, 43173.63
311.9590, 43186.91
312.4410, 43199.68
312.9232, 43256.96
313.4053, 43337.75
313.8874, 43397.75
314.3695, 43393.94
314.8516, 43381.20
315.3337, 43398.57
315.8159, 43458.41
316.2980, 43515.19
316.7801, 43549.23
317.2622, 43568.48
317.7443, 43585.45
318.2264, 43613.80
318.7086, 43634.01
319.1907, 43628.39
319.6728, 43588.74
320.1549, 43573.78
320.6370, 43629.21
321.1191, 43708.45
321.6013, 43759.41
322.0834, 43732.23
322.5655, 43709.46
323.0476, 43716.48
323.5297, 43755.60
324.0118, 43794.64
324.4940, 43839.07
324.9761, 43875.16
325.4582, 43891.47
325.9403, 43857.78
326.4224, 43834.35
326.9045, 43828.27
327.3867, 43839.36
327.8688, 43866.27
328.3509, 43927.32
328.8330, 43991.48
329.3151, 44040.43
329.7972, 44064.45
330.2794, 44086.64
330.7615, 44102.13
331.2436, 44115.59
331.7257, 44151.47
332.2078, 44219.92
332.6899, 44300.46
333.1721, 44386.88
333.6542, 44497.88
334.1363, 44573.59
334.6184, 44601.20
335.1005, 44597.29
335.5826, 44604.95
336.0648, 44626.78
336.5469, 44655.90
337.0290, 44694.86
337.5111, 44753.26
337.9932, 44777.66
338.4753, 44756.88
338.9575, 44712.17
339.4396, 44692.70
339.9217, 44715.39
340.4038, 44686.60
340.8859, 44541.12
341.3680, 44280.63
341.8502, 44112.66
342.3323, 44066.57
342.8144, 44045.41
343.2965, 43910.79
343.7786, 43659.73
344.2607, 43441.58
344.7428, 43322.34
345.2249, 43274.49
345.7071, 43169.26
346.1892, 42999.35
346.6713, 42826.98
347.1534, 42716.97
347.6355, 42657.50
348.1176, 42583.62
348.5998, 42471.22
349.0819, 42337.93
349.5640, 42212.92
350.0461, 42093.52
350.5282, 41982.80
351.0103, 41877.49
351.4925, 41780.39
351.9746, 41699.41
352.4567, 41641.98
352.9388, 41589.28
353.4209, 41520.31
353.9030, 41437.86
354.3852, 41352.29
354.8673, 41285.83
355.3494, 41214.27
355.8315, 41101.82
356.3136, 40934.55
356.7957, 40769.89
357.2779, 40649.39
357.7600, 40565.05
358.2421, 40501.43
358.7242, 40455.67
359.2063, 40424.60
359.6884, 40415.24
360.1706, 40431.35
360.6527, 40429.87
361.1348, 40366.82
361.6169, 40281.52
362.0990, 40221.15
362.5811, 40224.92
363.0633, 40230.56
363.5454, 40211.03
364.0275, 40166.38
364.5096, 40128.61
364.9917, 40097.41
365.4738, 40080.63
365.9560, 40084.01
366.4381, 40172.51
366.9202, 40210.20
367.4023, 40139.79
367.8844, 39989.36
368.3665, 39901.55
368.8487, 39931.03
369.3308, 39987.63
369.8129, 40034.16
370.2950, 40067.63
370.7771, 40096.73
371.2592, 40124.35
371.7414, 40146.60
372.2235, 40153.78
372.7056, 40132.11
373.1877, 40115.36
373.6698, 40113.74
374.1519, 40126.84
374.6340, 40151.43
375.1161, 40187.27
375.5983, 40232.27
376.0804, 40290.19
376.5625, 40368.30
377.0446, 40423.80
377.5267, 40434.20
378.0089, 40408.64
378.4910, 40421.63
378.9731, 40480.52
379.4552, 40550.73
379.9373, 40600.17
380.4194, 40630.93
380.9016, 40662.28
381.3837, 40694.46
381.8658, 40736.39
382.3479, 40820.58
382.8300, 40945.15
383.3121, 41057.66
383.7943, 41113.29
384.2764, 41127.99
384.7585, 41135.82
385.2406, 41131.15
385.7227, 41150.00
386.2048, 41262.28
386.6870, 41437.82
387.1691, 41588.84
387.6512, 41648.34
388.1333, 41665.02
388.6154, 41694.88
389.0975, 41740.86
389.5797, 41783.79
390.0618, 41805.93
390.5439, 41816.70
391.0260, 41828.83
391.5081, 41854.46
391.9902, 41878.29
392.4724, 41890.21
392.9545, 41892.83
393.4366, 41900.20
393.9187, 41938.81
394.4008, 41974.77
394.8829, 41982.08
395.3651, 41924.82
395.8472, 41882.59
396.3293, 41887.95
396.8114, 41923.87
397.2935, 41945.26
397.7756, 41922.82
398.2578, 41901.48
398.7399, 41893.62
399.2220, 41889.53
399.7041, 41923.74
400.1862, 42034.43
400.6683, 42165.67
401.1505, 42244.35
401.6326, 42232.71
402.1147, 42225.58
402.5968, 42241.87
403.0789, 42281.99
403.5610, 42336.81
404.0432, 42418.54
404.5253, 42497.56
405.0074, 42543.32
405.4895, 42544.13
405.9716, 42565.62
406.4537, 42622.41
406.9358, 42701.71
407.4179, 42758.71
407.9001, 42787.70
408.3822, 42832.91
408.8643, 42941.05
409.3464, 43100.91
409.8285, 43209.49
410.3106, 43253.53
410.7928, 43265.63
411.2749, 43276.61
411.7570, 43290.03
412.2391, 43323.50
412.7212, 43410.21
413.2033, 43514.79
413.6855, 43557.07
414.1676, 43537.57
414.6497, 43528.30
415.1318, 43601.77
415.6139, 43721.03
416.0960, 43828.18
416.5782, 43908.13
417.0603, 43968.64
417.5424, 44010.55
418.0245, 44035.76
418.5066, 44052.16
418.9887, 44038.61
419.4709, 44033.72
419.9530, 44073.89
420.4351, 44187.72
420.9172, 44279.70
421.3993, 44288.32
421.8814, 44262.04
422.3636, 44271.88
422.8457, 44358.06
423.3278, 44460.12
423.8099, 44572.32
424.2920, 44700.29
424.7741, 44790.41
425.2563, 44789.73
425.7384, 44786.11
426.2205, 44842.26
426.7026, 44981.14
427.1847, 45142.90
427.6668, 45340.28
428.1490, 45554.76
428.6311, 45705.28
429.1132, 45744.19
429.5953, 45819.15
430.0774, 46019.18
430.5595, 46366.83
431.0417, 46667.50
431.5238, 46909.92
432.0059, 47120.40
432.4880, 47326.78
432.9701, 47528.71
433.4522, 47752.84
433.9344, 48029.36
434.4165, 48331.10
434.8986, 48567.82
435.3807, 48738.24
435.8628, 48919.44
436.3449, 49219.19
436.8270, 49580.04
437.3091, 49851.51
437.7913, 49969.06
438.2734, 50048.79
438.7555, 50219.96
439.2376, 50457.46
439.7197, 50685.71
440.2018, 50898.48
440.6840, 51061.80
441.1661, 51130.23
441.6482, 51088.98
442.1303, 51033.97
442.6124, 51038.88
443.0945, 51047.63
443.5767, 50995.61
444.0588, 50838.05
444.5409, 50643.68
445.0230, 50423.55
445.5051, 50179.72
445.9872, 49932.14
446.4694, 49677.00
446.9515, 49426.48
447.4336, 49189.14
447.9157, 48989.70
448.3978, 48759.89
448.8799, 48468.51
449.3621, 48160.63
449.8442, 47924.01
450.3263, 47782.41
450.8084, 47663.91
451.2905, 47548.83
451.7726, 47437.74
452.2548, 47337.86
452.7369, 47245.91
453.2190, 47171.02
453.7011, 47131.38
454.1832, 47127.44
454.6653, 47100.54
455.1475, 47037.34
455.6296, 46950.28
456.1117, 46848.20
456.5938, 46735.43
457.0759, 46649.21
457.5580, 46630.43
458.0402, 46651.23
458.5223, 46662.57
459.0044, 46663.07
459.4865, 46642.54
459.9686, 46564.84
460.4507, 46464.67
460.9329, 46398.66
461.4150, 46424.93
461.8971, 46461.88
462.3792, 46453.65
462.8613, 46408.31
463.3434, 46365.51
463.8256, 46345.29
464.3077, 46332.14
464.7898, 46317.24
465.2719, 46302.60
465.7540, 46278.20
466.2361, 46227.27
466.7183, 46168.17
467.2003, 46130.64
467.6825, 46143.41
468.1646, 46147.34
468.6467, 46127.83
469.1288, 46083.92
469.6109, 46044.63
470.0930, 46019.29
470.5752, 45983.48
471.0573, 45906.58
471.5394, 45764.99
472.0215, 45684.52
472.5036, 45693.04
472.9857, 45747.38
473.4679, 45761.18
473.9500, 45733.50
474.4321, 45682.76
474.9142, 45603.17
475.3963, 45506.83
475.8784, 45445.29
476.3606, 45421.63
476.8427, 45403.53
477.3248, 45349.07
477.8069, 45280.12
478.2890, 45245.82
478.7711, 45274.80
479.2533, 45321.18
479.7354, 45338.89
480.2175, 45337.57
480.6996, 45345.14
481.1817, 45383.93
481.6638, 45429.85
482.1460, 45468.71
482.6281, 45498.32
483.1102, 45512.23
483.5923, 45474.26
484.0744, 45430.76
484.5565, 45428.26
485.0387, 45531.45
485.5208, 45609.22
486.0029, 45624.07
486.4850, 45590.90
486.9671, 45579.30
487.4492, 45599.69
487.9314, 45629.81
488.4135, 45669.67
488.8956, 45735.28
489.3777, 45743.22
489.8598, 45677.45
490.3419, 45583.96
490.8241, 45518.41
491.3062, 45483.32
491.7883, 45459.13
492.2704, 45440.93
492.7525, 45431.05
493.2346, 45436.16
493.7168, 45455.75
494.1989, 45482.11
494.6810, 45523.41
495.1631, 45564.16
495.6452, 45564.57
496.1273, 45511.93
496.6095, 45459.99
497.0916, 45462.89
497.5737, 45500.23
498.0558, 45538.91
498.5379, 45576.80
499.0200, 45602.98
499.5021, 45600.20
499.9843, 45575.30
500.4664, 45567.32
500.9485, 45605.56
501.4306, 45654.92
501.9127, 45695.83
502.3948, 45723.99
502.8770, 45748.70
503.3591, 45760.06
503.8412, 45771.95
504.3233, 45803.30
504.8054, 45863.48
505.2875, 45924.84
505.7697, 45983.21
506.2518, 46037.74
506.7339, 46083.21
507.2160, 46118.83
507.6981, 46145.32
508.1802, 46164.04
508.6624, 46175.04
509.1445, 46171.57
509.6266, 46150.29
510.1087, 46126.66
510.5908, 46112.01
511.0729, 46110.74
511.5551, 46142.09
512.0372, 46249.30
512.5193, 46368.35
513.0014, 46399.02
513.4835, 46355.15
513.9656, 46315.67
514.4478, 46338.46
514.9299, 46382.57
515.4120, 46406.65
515.8941, 46391.73
516.3762, 46394.53
516.8583, 46464.01
517.3405, 46555.13
517.8226, 46609.90
518.3047, 46579.03
518.7868, 46549.86
519.2689, 46531.94
519.7510, 46527.31
520.2332, 46559.06
520.7153, 46656.82
521.1974, 46750.98
521.6795, 46807.07
522.1616, 46818.59
522.6437, 46819.59
523.1259, 46811.80
523.6080, 46792.10
524.0901, 46737.62
524.5722, 46646.69
525.0543, 46614.78
525.5364, 46688.88
526.0186, 46816.76
526.5007, 46894.37
526.9828, 46922.16
527.4649, 46912.28
527.9470, 46835.76
528.4291, 46740.51
528.9113, 46692.22
529.3934, 46700.16
529.8755, 46733.56
530.3576, 46788.77
530.8397, 46851.16
531.3218, 46904.00
531.8040, 46942.69
532.2861, 46970.09
532.7682, 46994.17
533.2503, 47009.91
533.7324, 46996.55
534.2145, 46893.42
534.6967, 46817.16
535.1788, 46817.28
535.6609, 46914.25
536.1430, 46986.13
536.6251, 47023.89
537.1072, 47047.66
537.5894, 47077.45
538.0715, 47116.87
538.5536, 47141.04
539.0357, 47142.43
539.5178, 47130.59
539.9999, 47119.06
540.4821, 47108.34
540.9642, 47114.78
541.4463, 47158.33
541.9284, 47220.69
542.4105, 47255.13
542.8926, 47261.64
543.3748, 47286.53
543.8568, 47400.70
544.3389, 47538.66
544.8210, 47615.29
545.3032, 47579.84
545.7853, 47550.84
546.2674, 47614.06
546.7495, 47719.43
547.2316, 47781.24
547.7137, 47730.01
548.1959, 47681.62
548.6780, 47677.61
549.1601, 47718.19
549.6422, 47732.52
550.1243, 47694.75
550.6064, 47662.23
551.0886, 47664.72
551.5707, 47704.64
552.0528, 47784.44
552.5349, 47931.37
553.0170, 48068.23
553.4991, 48058.21
553.9813, 47905.08
554.4634, 47787.26
554.9455, 47759.07
555.4276, 47792.19
555.9097, 47850.41
556.3918, 47927.59
556.8740, 47987.47
557.3561, 47992.95
557.8382, 47977.20
558.3203, 47979.53
558.8024, 48005.46
559.2845, 48028.52
559.7667, 48013.18
560.2488, 47997.87
560.7309, 48019.75
561.2130, 48126.65
561.6951, 48224.70
562.1772, 48305.46
562.6594, 48364.70
563.1415, 48390.58
563.6236, 48335.76
564.1057, 48312.67
564.5878, 48366.37
565.0699, 48493.60
565.5521, 48571.22
566.0342, 48588.03
566.5163, 48584.54
566.9984, 48583.10
567.4805, 48584.86
567.9626, 48614.38
568.4448, 48681.77
568.9269, 48750.98
569.4090, 48770.39
569.8911, 48753.34
570.3732, 48739.27
570.8553, 48742.19
571.3375, 48756.11
571.8196, 48776.05
572.3017, 48802.30
572.7838, 48834.86
573.2659, 48881.98
573.7480, 48928.95
574.2302, 48970.18
574.7123, 49006.70
575.1944, 49026.92
575.6765, 49011.23
576.1586, 48990.22
576.6407, 48990.75
577.1229, 49040.39
577.6050, 49056.79
578.0871, 49014.49
578.5692, 48951.11
579.0513, 48959.11
579.5334, 49051.98
580.0156, 49132.78
580.4977, 49147.30
580.9798, 49126.61
581.4619, 49204.28
581.9440, 49376.20
582.4261, 49521.96
582.9083, 49511.03
583.3904, 49424.37
583.8725, 49389.11
584.3546, 49424.78
584.8367, 49488.49
585.3188, 49571.91
585.8010, 49658.55
586.2831, 49728.55
586.7652, 49747.29
587.2473, 49779.21
587.7294, 49853.83
588.2115, 49956.93
588.6937, 50042.01
589.1758, 50116.86
589.6579, 50161.32
590.1400, 50155.28
590.6221, 50096.69
591.1042, 50090.35
591.5864, 50147.66
592.0685, 50227.70
592.5506, 50297.71
593.0327, 50359.63
593.5148, 50444.12
593.9969, 50561.48
594.4791, 50677.22
594.9612, 50738.78
595.4433, 50764.27
595.9254, 50799.40
596.4075, 50861.88
596.8896, 50940.35
597.3718, 51035.41
597.8539, 51140.18
598.3360, 51231.08
598.8181, 51283.33
599.3002, 51332.15
599.7823, 51396.92
600.2645, 51481.94
600.7466, 51560.13
601.2287, 51631.30
601.7108, 51691.96
602.1929, 51734.66
602.6750, 51741.00
603.1572, 51786.82
603.6393, 51894.66
604.1214, 52014.52
604.6035, 52055.72
605.0856, 52018.11
605.5677, 52012.70
606.0498, 52088.60
606.5319, 52198.74
607.0140, 52241.97
607.4962, 52232.98
607.9783, 52245.99
608.4604, 52363.73
608.9425, 52499.89
609.4246, 52565.11
609.9067, 52552.73
610.3889, 52532.93
610.8710, 52506.50
611.3531, 52504.14
611.8352, 52552.78
612.3173, 52715.28
612.7994, 52829.76
613.2816, 52858.26
613.7637, 52855.59
614.2458, 52902.04
614.7279, 53021.18
615.2100, 53123.46
615.6921, 53189.06
616.1743, 53228.43
616.6564, 53264.16
617.1385, 53296.55
617.6206, 53341.42
618.1027, 53432.15
618.5848, 53534.98
619.0670, 53573.61
619.5491, 53548.44
620.0312, 53512.40
620.5133, 53483.73
620.9954, 53471.84
621.4775, 53495.45
621.9597, 53580.94
622.4418, 53631.76
622.9239, 53592.30
623.4060, 53508.47
623.8881, 53434.50
624.3702, 53383.16
624.8524, 53331.45
625.3345, 53275.05
625.8166, 53216.93
626.2987, 53171.66
626.7808, 53146.92
627.2629, 53104.02
627.7451, 53016.13
628.2272, 52898.48
628.7093, 52826.25
629.1914, 52799.86
629.6735, 52775.70
630.1556, 52713.02
630.6378, 52635.18
631.1199, 52579.84
631.6020, 52553.43
632.0841, 52535.43
