##NAMES=Arthurite
##RRUFFID=R060235
##IDEAL CHEMISTRY=Cu^2+^Fe^3+^_2_(As^5+^O_4_)_2_(OH)_2_&#183;4H_2_O
##LOCALITY=Copper Stope, Majuba Hill mine, Pershing County, Nevada, USA
##OWNER=RRUFF
##SOURCE=Michael Scott
##DESCRIPTION=Divergent sprays of green thin prismatic crystals
##STATUS=The identification of this mineral has been confirmed by X-ray diffraction.
##URL=rruff.info/R060235
144.1467, 1081.382
144.6288, 1104.512
145.1109, 1127.886
145.5931, 1152.014
146.0752, 1176.139
146.5573, 1199.800
147.0394, 1222.516
147.5215, 1245.259
148.0036, 1267.766
148.4858, 1290.305
148.9679, 1312.993
149.4500, 1337.689
149.9321, 1361.998
150.4142, 1381.942
150.8963, 1401.439
151.3785, 1413.110
151.8606, 1414.387
152.3427, 1402.952
152.8248, 1387.007
153.3069, 1363.757
153.7890, 1336.345
154.2712, 1307.208
154.7533, 1270.421
155.2354, 1237.217
155.7175, 1208.550
156.1996, 1185.380
156.6817, 1165.587
157.1639, 1149.088
157.6460, 1135.506
158.1281, 1124.548
158.6102, 1115.854
159.0923, 1109.787
159.5744, 1106.637
160.0566, 1107.586
160.5387, 1109.558
161.0208, 1110.896
161.5029, 1112.445
161.9850, 1116.721
162.4671, 1125.605
162.9493, 1136.860
163.4314, 1149.040
163.9135, 1162.208
164.3956, 1175.760
164.8777, 1189.211
165.3598, 1202.791
165.8420, 1217.481
166.3241, 1233.045
166.8062, 1250.185
167.2883, 1269.540
167.7704, 1291.851
168.2525, 1315.766
168.7346, 1340.569
169.2168, 1366.328
169.6989, 1393.645
170.1810, 1422.691
170.6631, 1453.510
171.1452, 1486.370
171.6273, 1522.981
172.1095, 1559.927
172.5916, 1595.383
173.0737, 1629.309
173.5558, 1660.893
174.0379, 1689.609
174.5201, 1715.522
175.0022, 1739.245
175.4843, 1761.013
175.9664, 1780.851
176.4485, 1797.692
176.9306, 1811.742
177.4128, 1824.913
177.8949, 1840.090
178.3770, 1855.602
178.8591, 1868.090
179.3412, 1877.427
179.8233, 1882.519
180.3055, 1882.359
180.7876, 1877.089
181.2697, 1865.137
181.7518, 1842.862
182.2339, 1812.243
182.7160, 1778.756
183.1982, 1744.476
183.6803, 1709.267
184.1624, 1672.849
184.6445, 1635.331
185.1266, 1597.152
185.6087, 1558.926
186.0909, 1520.298
186.5730, 1481.447
187.0551, 1440.776
187.5372, 1399.676
188.0193, 1361.325
188.5014, 1325.834
188.9836, 1293.200
189.4657, 1262.168
189.9478, 1233.071
190.4299, 1206.770
190.9120, 1184.031
191.3941, 1164.739
191.8763, 1147.898
192.3584, 1133.589
192.8405, 1121.667
193.3226, 1111.567
193.8047, 1103.334
194.2868, 1097.070
194.7690, 1093.340
195.2511, 1091.989
195.7332, 1090.378
196.2153, 1088.164
196.6974, 1086.360
197.1795, 1086.802
197.6617, 1089.584
198.1438, 1093.405
198.6259, 1098.060
199.1080, 1103.535
199.5901, 1108.401
200.0722, 1112.482
200.5544, 1116.146
201.0365, 1119.872
201.5186, 1123.623
202.0007, 1127.711
202.4828, 1132.465
202.9649, 1137.955
203.4471, 1142.650
203.9292, 1145.882
204.4113, 1149.134
204.8934, 1155.643
205.3755, 1165.867
205.8576, 1177.139
206.3398, 1188.088
206.8219, 1198.470
207.3040, 1209.913
207.7861, 1221.753
208.2682, 1235.174
208.7503, 1252.944
209.2325, 1275.593
209.7146, 1300.317
210.1967, 1325.664
210.6788, 1351.253
211.1609, 1379.331
211.6430, 1409.978
212.1252, 1443.239
212.6073, 1479.119
213.0894, 1518.192
213.5715, 1557.990
214.0536, 1597.716
214.5357, 1638.039
215.0179, 1676.579
215.5000, 1714.439
215.9821, 1750.102
216.4642, 1780.943
216.9463, 1808.257
217.4284, 1827.446
217.9105, 1836.129
218.3927, 1832.510
218.8748, 1823.794
219.3569, 1808.563
219.8390, 1789.038
220.3211, 1768.950
220.8032, 1745.981
221.2854, 1726.668
221.7675, 1713.074
222.2496, 1705.251
222.7317, 1703.224
223.2138, 1706.843
223.6959, 1716.297
224.1781, 1732.795
224.6602, 1758.452
225.1423, 1787.287
225.6244, 1816.520
226.1065, 1846.621
226.5886, 1877.144
227.0708, 1909.555
227.5529, 1941.910
228.0350, 1970.650
228.5171, 1996.633
228.9992, 2018.081
229.4813, 2033.928
229.9635, 2042.715
230.4456, 2050.277
230.9277, 2056.020
231.4098, 2060.792
231.8919, 2065.741
232.3740, 2068.351
232.8562, 2075.167
233.3383, 2088.295
233.8204, 2107.735
234.3025, 2133.542
234.7846, 2166.224
235.2667, 2205.030
235.7489, 2247.757
236.2310, 2293.113
236.7131, 2344.310
237.1952, 2404.336
237.6773, 2475.139
238.1594, 2544.776
238.6416, 2614.629
239.1237, 2682.551
239.6058, 2745.558
240.0879, 2807.623
240.5700, 2859.709
241.0521, 2901.423
241.5343, 2935.704
242.0164, 2945.464
242.4985, 2930.699
242.9806, 2891.395
243.4627, 2825.756
243.9448, 2724.495
244.4270, 2612.235
244.9091, 2492.491
245.3912, 2361.511
245.8733, 2240.595
246.3554, 2128.755
246.8375, 2026.714
247.3197, 1935.393
247.8018, 1854.798
248.2839, 1784.988
248.7660, 1726.620
249.2481, 1680.073
249.7302, 1641.109
250.2124, 1610.411
250.6945, 1586.358
251.1766, 1566.895
251.6587, 1552.565
252.1408, 1541.915
252.6229, 1535.466
253.1051, 1533.521
253.5872, 1530.877
254.0693, 1527.583
254.5514, 1523.528
255.0335, 1518.701
255.5156, 1513.598
255.9978, 1506.754
256.4799, 1497.936
256.9620, 1487.078
257.4441, 1474.142
257.9262, 1458.981
258.4083, 1441.925
258.8904, 1423.326
259.3726, 1402.507
259.8547, 1381.366
260.3368, 1360.009
260.8189, 1338.412
261.3010, 1318.429
261.7831, 1300.089
262.2653, 1283.345
262.7474, 1268.400
263.2295, 1255.103
263.7116, 1243.676
264.1937, 1234.004
264.6758, 1226.201
265.1580, 1220.549
265.6401, 1217.486
266.1222, 1215.852
266.6043, 1214.992
267.0864, 1215.032
267.5685, 1215.315
268.0507, 1215.500
268.5328, 1215.958
269.0149, 1218.304
269.4970, 1223.201
269.9791, 1228.491
270.4612, 1232.672
270.9434, 1235.126
271.4255, 1239.403
271.9076, 1246.125
272.3897, 1254.569
272.8718, 1263.067
273.3539, 1271.668
273.8361, 1280.100
274.3182, 1288.147
274.8003, 1295.698
275.2824, 1303.397
275.7645, 1311.284
276.2466, 1319.196
276.7288, 1326.813
277.2109, 1334.068
277.6930, 1341.215
278.1751, 1348.302
278.6572, 1355.384
279.1393, 1361.986
279.6215, 1368.039
280.1036, 1373.789
280.5857, 1379.872
281.0678, 1386.419
281.5499, 1392.057
282.0320, 1395.954
282.5142, 1398.255
282.9963, 1400.568
283.4784, 1403.023
283.9605, 1405.114
284.4426, 1406.096
284.9247, 1405.954
285.4069, 1405.474
285.8890, 1404.738
286.3711, 1403.853
286.8532, 1403.394
287.3353, 1403.402
287.8174, 1403.567
288.2996, 1403.948
288.7817, 1404.448
289.2638, 1403.714
289.7459, 1400.619
290.2280, 1396.441
290.7101, 1395.228
291.1923, 1397.159
291.6744, 1399.092
292.1565, 1397.886
292.6386, 1394.159
293.1207, 1391.156
293.6028, 1389.906
294.0850, 1389.289
294.5671, 1386.959
295.0492, 1382.986
295.5313, 1378.759
296.0134, 1375.155
296.4955, 1372.077
296.9777, 1369.405
297.4598, 1367.276
297.9419, 1365.224
298.4240, 1362.511
298.9061, 1359.275
299.3882, 1356.145
299.8704, 1353.906
300.3525, 1352.014
300.8346, 1349.346
301.3167, 1345.779
301.7988, 1341.651
302.2809, 1337.381
302.7631, 1332.876
303.2452, 1327.681
303.7273, 1321.427
304.2094, 1314.447
304.6915, 1307.198
305.1736, 1299.619
305.6558, 1291.995
306.1379, 1284.464
306.6200, 1277.041
307.1021, 1269.791
307.5842, 1262.412
308.0663, 1255.330
308.5485, 1248.787
309.0306, 1242.801
309.5127, 1237.347
309.9948, 1232.783
310.4769, 1228.613
310.9590, 1224.217
311.4412, 1218.978
311.9233, 1213.774
312.4054, 1209.160
312.8875, 1205.064
313.3696, 1201.320
313.8517, 1198.112
314.3339, 1195.137
314.8160, 1192.113
315.2981, 1188.964
315.7802, 1185.864
316.2623, 1183.304
316.7444, 1180.959
317.2266, 1177.851
317.7087, 1172.779
318.1908, 1167.415
318.6729, 1162.984
319.1550, 1160.375
319.6371, 1156.797
320.1193, 1150.006
320.6014, 1141.839
321.0835, 1135.207
321.5656, 1131.556
322.0477, 1129.134
322.5298, 1127.249
323.0120, 1125.816
323.4941, 1124.964
323.9762, 1124.688
324.4583, 1124.998
324.9404, 1125.912
325.4225, 1127.152
325.9047, 1129.301
326.3868, 1132.501
326.8689, 1136.788
327.3510, 1141.914
327.8331, 1148.647
328.3152, 1155.785
328.7974, 1162.489
329.2795, 1166.622
329.7616, 1172.924
330.2437, 1182.492
330.7258, 1194.728
331.2079, 1206.635
331.6901, 1218.190
332.1722, 1229.427
332.6543, 1240.403
333.1364, 1251.030
333.6185, 1261.280
334.1006, 1270.606
334.5828, 1279.661
335.0649, 1289.904
335.5470, 1302.424
336.0291, 1314.370
336.5112, 1324.778
336.9933, 1333.838
337.4755, 1340.721
337.9576, 1345.289
338.4397, 1347.778
338.9218, 1348.325
339.4039, 1346.636
339.8860, 1344.137
340.3681, 1341.618
340.8503, 1338.875
341.3324, 1333.124
341.8145, 1323.720
342.2966, 1312.954
342.7787, 1302.613
343.2608, 1292.829
343.7430, 1282.574
344.2251, 1271.525
344.7072, 1260.044
345.1893, 1249.542
345.6714, 1239.960
346.1535, 1230.909
346.6357, 1221.682
347.1178, 1212.542
347.5999, 1205.283
348.0820, 1200.285
348.5641, 1196.616
349.0462, 1192.603
349.5284, 1188.404
350.0105, 1185.101
350.4926, 1183.237
350.9747, 1182.670
351.4568, 1183.408
351.9389, 1185.551
352.4211, 1187.969
352.9032, 1189.191
353.3853, 1189.756
353.8674, 1190.968
354.3495, 1193.532
354.8316, 1196.897
355.3138, 1200.141
355.7959, 1203.380
356.2780, 1207.750
356.7601, 1215.238
357.2422, 1223.992
357.7243, 1231.719
358.2065, 1237.636
358.6886, 1242.507
359.1707, 1246.221
359.6528, 1249.175
360.1349, 1252.563
360.6170, 1257.398
361.0992, 1262.591
361.5813, 1267.419
362.0634, 1271.689
362.5455, 1275.661
363.0276, 1279.714
363.5097, 1283.453
363.9919, 1286.297
364.4740, 1288.824
364.9561, 1289.727
365.4382, 1287.689
365.9203, 1282.335
366.4024, 1278.214
366.8846, 1277.049
367.3667, 1276.997
367.8488, 1276.569
368.3309, 1275.679
368.8130, 1274.327
369.2951, 1272.169
369.7773, 1269.386
370.2594, 1267.217
370.7415, 1265.854
371.2236, 1264.939
371.7057, 1264.241
372.1878, 1263.201
372.6700, 1263.588
373.1521, 1266.403
373.6342, 1270.210
374.1163, 1271.991
374.5984, 1270.396
375.0805, 1269.360
375.5627, 1270.170
376.0448, 1272.944
376.5269, 1276.212
377.0090, 1280.207
377.4911, 1284.309
377.9732, 1287.943
378.4554, 1291.063
378.9375, 1293.763
379.4196, 1295.859
379.9017, 1297.637
380.3838, 1300.605
380.8659, 1304.956
381.3481, 1308.841
381.8302, 1310.283
382.3123, 1309.721
382.7944, 1310.460
383.2765, 1313.150
383.7586, 1316.559
384.2408, 1318.548
384.7229, 1319.407
385.2050, 1321.001
385.6871, 1325.252
386.1692, 1330.607
386.6513, 1334.027
387.1335, 1335.344
387.6156, 1336.199
388.0977, 1337.749
388.5798, 1339.888
389.0619, 1342.508
389.5440, 1346.042
390.0262, 1349.506
390.5083, 1351.905
390.9904, 1353.418
391.4725, 1354.816
391.9546, 1356.686
392.4367, 1358.541
392.9189, 1360.069
393.4010, 1361.360
393.8831, 1361.872
394.3652, 1360.481
394.8473, 1358.269
395.3294, 1357.016
395.8116, 1358.377
396.2937, 1359.913
396.7758, 1360.617
397.2579, 1360.356
397.7400, 1359.979
398.2221, 1359.586
398.7043, 1359.184
399.1864, 1358.777
399.6685, 1357.824
400.1506, 1357.490
400.6327, 1358.331
401.1148, 1360.006
401.5970, 1360.854
402.0791, 1359.912
402.5612, 1359.240
403.0433, 1359.706
403.5254, 1361.419
404.0075, 1364.122
404.4897, 1368.379
404.9718, 1373.185
405.4539, 1376.701
405.9360, 1378.184
406.4181, 1380.854
406.9002, 1385.840
407.3824, 1392.907
407.8645, 1400.114
408.3466, 1407.319
408.8287, 1415.177
409.3108, 1424.412
409.7929, 1434.934
410.2751, 1445.630
410.7572, 1455.992
411.2393, 1467.127
411.7214, 1481.334
412.2035, 1498.408
412.6856, 1516.117
413.1678, 1533.002
413.6499, 1549.651
414.1320, 1567.446
414.6141, 1586.647
415.0962, 1606.642
415.5783, 1627.538
416.0605, 1648.914
416.5426, 1670.360
417.0247, 1691.515
417.5068, 1712.969
417.9889, 1736.011
418.4710, 1760.070
418.9532, 1783.086
419.4353, 1803.628
419.9174, 1822.604
420.3995, 1840.547
420.8816, 1858.097
421.3637, 1873.629
421.8459, 1886.875
422.3280, 1897.556
422.8101, 1905.432
423.2922, 1910.082
423.7743, 1912.078
424.2564, 1911.030
424.7386, 1906.811
425.2207, 1901.909
425.7028, 1896.862
426.1849, 1891.038
426.6670, 1883.969
427.1491, 1874.370
427.6313, 1865.676
428.1134, 1858.177
428.5955, 1851.766
429.0776, 1846.198
429.5597, 1841.653
430.0418, 1837.528
430.5240, 1833.561
431.0061, 1829.760
431.4882, 1826.194
431.9703, 1822.776
432.4524, 1819.815
432.9345, 1817.675
433.4167, 1816.354
433.8988, 1815.504
434.3809, 1815.025
434.8630, 1814.972
435.3451, 1815.804
435.8272, 1817.479
436.3094, 1818.924
436.7915, 1818.671
437.2736, 1817.716
437.7557, 1818.675
438.2378, 1821.963
438.7199, 1826.038
439.2020, 1830.730
439.6841, 1835.010
440.1663, 1836.766
440.6484, 1833.040
441.1305, 1827.946
441.6126, 1824.889
442.0947, 1823.575
442.5768, 1822.305
443.0590, 1820.566
443.5411, 1818.271
444.0232, 1815.287
444.5053, 1811.343
444.9874, 1807.191
445.4695, 1803.747
445.9517, 1800.147
446.4338, 1794.959
446.9159, 1786.412
447.3980, 1777.712
447.8801, 1769.897
448.3622, 1763.017
448.8444, 1755.846
449.3265, 1748.802
449.8086, 1741.085
450.2907, 1732.124
450.7728, 1721.345
451.2549, 1710.516
451.7371, 1699.924
452.2192, 1689.350
452.7013, 1678.331
453.1834, 1666.902
453.6655, 1655.274
454.1476, 1643.563
454.6298, 1631.829
455.1119, 1620.126
455.5940, 1608.531
456.0761, 1597.019
456.5582, 1585.467
457.0403, 1573.983
457.5225, 1563.544
458.0046, 1554.867
458.4867, 1546.710
458.9688, 1537.033
459.4509, 1526.237
459.9330, 1516.419
460.4152, 1508.953
460.8973, 1502.840
461.3794, 1496.914
461.8615, 1491.019
462.3436, 1485.867
462.8257, 1482.281
463.3079, 1479.498
463.7900, 1476.638
464.2721, 1473.037
464.7542, 1469.780
465.2363, 1467.075
465.7184, 1465.024
466.2006, 1463.917
466.6827, 1464.503
467.1648, 1465.461
467.6469, 1466.233
468.1290, 1466.627
468.6111, 1467.486
469.0933, 1468.776
469.5754, 1470.581
470.0575, 1473.045
470.5396, 1476.498
471.0217, 1479.884
471.5038, 1482.799
471.9860, 1485.659
472.4681, 1490.143
472.9502, 1496.702
473.4323, 1503.386
473.9144, 1509.010
474.3965, 1513.648
474.8787, 1519.194
475.3608, 1525.797
475.8429, 1532.451
476.3250, 1537.784
476.8071, 1542.029
477.2892, 1546.357
477.7714, 1550.894
478.2535, 1555.821
478.7356, 1561.895
479.2177, 1568.787
479.6998, 1574.930
480.1819, 1579.349
480.6641, 1582.702
481.1462, 1585.091
481.6283, 1586.439
482.1104, 1588.887
482.5925, 1594.523
483.0746, 1601.566
483.5568, 1608.206
484.0389, 1612.203
484.5210, 1617.549
485.0031, 1625.791
485.4852, 1636.260
485.9673, 1647.139
486.4495, 1655.967
486.9316, 1667.109
487.4137, 1682.486
487.8958, 1703.142
488.3779, 1722.779
488.8600, 1739.958
489.3422, 1757.718
489.8243, 1778.919
490.3064, 1803.417
490.7885, 1831.245
491.2706, 1863.236
491.7527, 1897.811
492.2349, 1931.650
492.7170, 1964.247
493.1991, 1998.670
493.6812, 2035.932
494.1633, 2075.824
494.6454, 2118.754
495.1276, 2164.425
495.6097, 2212.287
496.0918, 2261.737
496.5739, 2312.929
497.0560, 2364.076
497.5381, 2415.630
498.0203, 2467.248
498.5024, 2520.685
498.9845, 2574.256
499.4666, 2625.619
499.9487, 2674.684
500.4308, 2719.805
500.9130, 2760.339
501.3951, 2796.096
501.8772, 2826.777
502.3593, 2853.148
502.8414, 2873.423
503.3235, 2886.711
503.8057, 2893.483
504.2878, 2891.889
504.7699, 2881.390
505.2520, 2862.870
505.7341, 2837.566
506.2162, 2804.685
506.6984, 2766.494
507.1805, 2722.806
507.6626, 2674.087
508.1447, 2624.895
508.6268, 2575.276
509.1089, 2524.928
509.5911, 2473.297
510.0732, 2420.527
510.5553, 2368.283
511.0374, 2316.780
511.5195, 2265.562
512.0016, 2213.567
512.4838, 2161.091
512.9659, 2110.419
513.4480, 2061.706
513.9301, 2014.496
514.4122, 1967.424
514.8943, 1920.981
515.3765, 1877.203
515.8586, 1838.538
516.3407, 1801.959
516.8228, 1765.475
517.3049, 1728.379
517.7870, 1692.584
518.2692, 1658.195
518.7513, 1626.002
519.2334, 1596.920
519.7155, 1572.855
520.1976, 1549.738
520.6797, 1527.367
521.1619, 1505.717
521.6440, 1484.787
522.1261, 1464.219
522.6082, 1445.428
523.0903, 1429.186
523.5724, 1415.536
524.0546, 1402.363
524.5367, 1389.723
525.0188, 1377.701
525.5009, 1365.846
525.9830, 1354.269
526.4651, 1345.156
526.9473, 1339.239
527.4294, 1334.452
527.9115, 1327.845
528.3936, 1319.902
528.8757, 1312.109
529.3578, 1305.299
529.8400, 1298.944
530.3221, 1291.863
530.8042, 1284.444
531.2863, 1278.815
531.7684, 1278.347
532.2505, 1278.757
532.7327, 1276.650
533.2148, 1270.763
533.6969, 1264.950
534.1790, 1259.635
534.6611, 1255.189
535.1432, 1252.138
535.6254, 1251.794
536.1075, 1251.226
536.5896, 1250.132
537.0717, 1248.632
537.5538, 1247.063
538.0359, 1245.170
538.5181, 1243.826
539.0002, 1243.487
539.4823, 1244.144
539.9644, 1244.859
540.4465, 1245.589
540.9286, 1246.611
541.4108, 1248.575
541.8929, 1251.158
542.3750, 1252.756
542.8571, 1252.878
543.3392, 1252.550
543.8214, 1253.127
544.3035, 1254.213
544.7856, 1254.868
545.2677, 1254.173
545.7498, 1253.284
546.2319, 1253.280
546.7141, 1253.958
547.1962, 1254.088
547.6783, 1253.321
548.1604, 1251.746
548.6425, 1249.199
549.1246, 1245.190
549.6068, 1241.708
550.0889, 1239.696
550.5710, 1237.807
551.0531, 1234.871
551.5352, 1230.944
552.0173, 1225.758
552.4995, 1219.030
552.9816, 1211.251
553.4637, 1203.650
553.9458, 1196.264
554.4279, 1188.830
554.9100, 1181.034
555.3922, 1173.122
555.8743, 1166.073
556.3564, 1159.950
556.8385, 1154.249
557.3206, 1148.716
557.8027, 1143.332
558.2849, 1137.983
558.7670, 1132.668
559.2491, 1127.297
559.7312, 1121.981
560.2133, 1116.563
560.6954, 1110.833
561.1776, 1104.142
561.6597, 1097.807
562.1418, 1092.397
562.6239, 1087.701
563.1060, 1083.080
563.5881, 1078.588
564.0703, 1073.951
564.5524, 1068.873
565.0345, 1063.313
565.5166, 1058.538
565.9987, 1054.902
566.4808, 1051.446
566.9630, 1047.231
567.4451, 1042.180
567.9272, 1037.744
568.4093, 1034.056
568.8914, 1030.872
569.3735, 1027.943
569.8557, 1025.229
570.3378, 1022.361
570.8199, 1019.172
571.3020, 1015.854
571.7841, 1012.550
572.2662, 1009.330
572.7484, 1006.459
573.2305, 1004.136
573.7126, 1002.137
574.1947, 1000.404
574.6768, 998.9658
575.1589, 997.2603
575.6411, 994.8264
576.1232, 992.2662
576.6053, 990.0240
577.0874, 988.1816
577.5695, 986.5847
578.0516, 985.4862
578.5338, 984.4743
579.0159, 982.8682
579.4980, 980.5088
579.9801, 978.2045
580.4622, 976.1501
580.9443, 974.2711
581.4265, 972.2609
581.9086, 970.1249
582.3907, 968.4545
582.8728, 968.0125
583.3549, 968.1697
583.8370, 967.5387
584.3192, 966.1057
584.8013, 964.3964
585.2834, 962.4996
585.7655, 960.6658
586.2476, 959.1287
586.7297, 957.8684
587.2118, 957.0875
587.6939, 957.4895
588.1760, 958.1877
588.6581, 958.0532
589.1403, 955.7078
589.6224, 953.9117
590.1045, 953.4116
590.5866, 953.7330
591.0687, 953.1865
591.5508, 951.2104
592.0330, 949.6613
592.5151, 949.4717
592.9972, 950.4742
593.4793, 950.7231
593.9614, 950.1964
594.4435, 949.1349
594.9257, 947.3168
595.4078, 945.1276
595.8899, 943.8098
596.3720, 943.6290
596.8541, 943.5900
597.3362, 942.7179
597.8184, 941.4056
598.3005, 940.2076
598.7826, 939.0693
599.2647, 938.4482
599.7468, 939.1791
600.2289, 940.5588
600.7111, 941.0335
601.1932, 939.2581
601.6753, 937.5443
602.1574, 936.5950
602.6395, 936.3347
603.1216, 935.6436
603.6038, 933.8635
604.0859, 932.8005
604.5680, 933.9738
605.0501, 937.6483
605.5322, 938.9591
606.0143, 937.6049
606.4965, 935.2521
606.9786, 933.2616
607.4607, 931.6749
607.9428, 930.6159
608.4249, 930.1424
608.9070, 930.1385
609.3892, 930.9264
609.8713, 932.0508
610.3534, 932.6688
610.8355, 931.8157
611.3176, 930.9850
611.7997, 930.9686
612.2819, 931.5706
612.7640, 932.0246
613.2461, 932.3115
613.7282, 932.2756
614.2103, 931.8955
614.6924, 931.1826
615.1746, 929.8940
615.6567, 927.6571
616.1388, 925.5549
616.6209, 924.2781
617.1030, 923.8451
617.5851, 924.1175
618.0673, 925.2869
618.5494, 926.3137
619.0315, 925.4931
619.5136, 923.5035
619.9957, 922.3604
620.4778, 922.8868
620.9600, 923.7677
621.4421, 923.7884
621.9242, 923.2401
622.4063, 922.7181
622.8884, 922.3245
623.3705, 922.1141
623.8527, 922.0215
624.3348, 922.0755
624.8169, 922.5316
625.2990, 923.9523
625.7811, 925.1647
626.2632, 925.7001
626.7454, 925.5098
627.2275, 925.3785
627.7096, 925.4267
628.1917, 925.2308
628.6738, 924.1999
629.1559, 922.4636
629.6381, 921.5179
630.1202, 921.6124
630.6023, 921.9716
631.0844, 921.5554
631.5665, 920.7770
632.0486, 920.5387
632.5308, 921.3957
633.0129, 922.3746
633.4950, 922.7204
633.9771, 922.7080
634.4592, 922.8710
634.9413, 923.6134
635.4235, 924.2833
635.9056, 924.6874
636.3877, 924.8264
636.8698, 924.7376
637.3519, 923.9109
637.8340, 923.6785
638.3162, 924.9109
638.7983, 927.5599
639.2804, 928.7089
639.7625, 928.1498
640.2446, 927.2880
640.7267, 927.6336
641.2089, 928.6389
