##NAMES=Artinite
##RRUFFID=R060166
##IDEAL CHEMISTRY=Mg_2_CO_3_(OH)_2_&#183;3H_2_O
##LOCALITY=San Benito County, California, USA
##OWNER=RRUFF
##SOURCE=Marcus Origlieri
##DESCRIPTION=Spherical aggregates of divergent colorless acicular crystals
##STATUS=The identification of this mineral has been confirmed by X-ray diffraction and chemical analysis
##URL=rruff.info/R060166
##MEASURED CHEMISTRY=Mg_2.00_CO_3_(OH)_2_Â·3H_2_O ; C and H not measured but estimated by charge balance
90.26367, 31.94586
90.74579, 31.62628
91.22791, 31.81712
91.71002, 32.45203
92.19214, 32.94220
92.67426, 32.65036
93.15637, 31.81796
93.63850, 31.08747
94.12061, 30.64821
94.60273, 30.45184
95.08485, 30.45653
95.56696, 30.69005
96.04908, 30.93652
96.53120, 30.96222
97.01331, 30.77052
97.49543, 30.43342
97.97755, 29.85072
98.45966, 29.05456
98.94178, 28.53843
99.42390, 28.29076
99.90602, 28.34779
100.3881, 28.87121
100.8703, 29.99106
101.3524, 31.13131
101.8345, 32.15766
102.3166, 33.21634
102.7987, 33.39006
103.2808, 32.19029
103.7630, 30.06735
104.2451, 29.17482
104.7272, 30.28614
105.2093, 31.59470
105.6914, 31.84640
106.1735, 30.18220
106.6557, 28.93057
107.1378, 28.45704
107.6199, 28.78065
108.1020, 29.13318
108.5841, 29.54708
109.0662, 29.97537
109.5484, 30.38084
110.0305, 30.45521
110.5126, 30.81659
110.9947, 31.56553
111.4768, 32.72696
111.9590, 34.19736
112.4411, 36.36808
112.9232, 38.75992
113.4053, 40.69251
113.8874, 41.31327
114.3695, 42.06953
114.8517, 43.41600
115.3338, 45.30519
115.8159, 48.04433
116.2980, 51.94818
116.7801, 56.80956
117.2622, 62.12023
117.7444, 67.62437
118.2265, 73.59531
118.7086, 80.15208
119.1907, 87.24122
119.6728, 95.16627
120.1549, 104.0626
120.6371, 113.9324
121.1192, 124.8332
121.6013, 136.7836
122.0834, 149.6852
122.5655, 163.3785
123.0477, 177.7970
123.5298, 193.0046
124.0119, 209.1209
124.4940, 226.1313
124.9761, 243.9021
125.4582, 262.1481
125.9404, 280.9580
126.4225, 300.3612
126.9046, 320.8917
127.3867, 341.8634
127.8688, 361.9604
128.3509, 381.0839
128.8331, 400.2948
129.3152, 420.8163
129.7973, 442.5714
130.2794, 464.6286
130.7615, 486.1988
131.2436, 507.7126
131.7258, 530.3156
132.2079, 554.0658
132.6900, 578.8607
133.1721, 604.3174
133.6542, 630.3201
134.1364, 658.0392
134.6185, 688.8178
135.1006, 722.6913
135.5827, 756.9144
136.0648, 792.0715
136.5469, 826.9543
137.0291, 858.6414
137.5112, 886.6404
137.9933, 912.6141
138.4754, 938.2225
138.9575, 963.6341
139.4396, 986.0870
139.9218, 1004.409
140.4039, 1019.449
140.8860, 1034.965
141.3681, 1051.060
141.8502, 1067.280
142.3323, 1082.535
142.8145, 1095.976
143.2966, 1111.184
143.7787, 1128.801
144.2608, 1148.950
144.7429, 1169.732
145.2251, 1193.151
145.7072, 1215.645
146.1893, 1234.163
146.6714, 1249.541
147.1535, 1259.732
147.6356, 1264.833
148.1178, 1265.325
148.5999, 1257.535
149.0820, 1237.424
149.5641, 1210.720
150.0462, 1184.203
150.5283, 1152.402
151.0105, 1126.568
151.4926, 1098.627
151.9747, 1076.618
152.4568, 1065.749
152.9389, 1069.478
153.4210, 1083.172
153.9032, 1100.633
154.3853, 1126.203
154.8674, 1150.804
155.3495, 1172.115
155.8316, 1191.669
156.3138, 1204.872
156.7959, 1211.189
157.2780, 1210.929
157.7601, 1204.585
158.2422, 1188.789
158.7243, 1169.598
159.2065, 1149.680
159.6886, 1129.391
160.1707, 1108.484
160.6528, 1085.769
161.1349, 1062.197
161.6170, 1040.338
162.0992, 1020.279
162.5813, 1002.643
163.0634, 987.8060
163.5455, 975.7099
164.0276, 966.4842
164.5097, 960.2361
164.9919, 956.8717
165.4740, 956.1306
165.9561, 957.4080
166.4382, 961.4169
166.9203, 968.7951
167.4025, 979.8010
167.8846, 994.0884
168.3667, 1012.681
168.8488, 1035.075
169.3309, 1058.043
169.8130, 1083.224
170.2952, 1106.967
170.7773, 1124.539
171.2594, 1136.944
171.7415, 1140.967
172.2236, 1134.609
172.7057, 1117.909
173.1879, 1090.496
173.6700, 1048.502
174.1521, 995.9694
174.6342, 939.7322
175.1163, 877.7993
175.5984, 815.0392
176.0806, 756.8643
176.5627, 702.9371
177.0448, 654.7316
177.5269, 614.0316
178.0090, 580.2487
178.4911, 550.8919
178.9733, 525.7097
179.4554, 504.4146
179.9375, 486.5095
180.4196, 472.1972
180.9017, 460.5641
181.3839, 451.4865
181.8660, 444.6226
182.3481, 438.4211
182.8302, 432.2406
183.3123, 426.2741
183.7944, 421.0147
184.2766, 416.4625
184.7587, 412.4423
185.2408, 409.0284
185.7229, 406.1008
186.2050, 402.6992
186.6871, 398.2015
187.1693, 392.8004
187.6514, 387.4745
188.1335, 382.1853
188.6156, 376.9502
189.0977, 371.7291
189.5798, 366.5316
190.0620, 361.2476
190.5441, 355.3880
191.0262, 349.1580
191.5083, 343.9843
191.9904, 339.8812
192.4725, 336.7583
192.9547, 334.8221
193.4368, 334.0984
193.9189, 333.2086
194.4010, 331.1839
194.8831, 328.1193
195.3652, 325.4823
195.8474, 323.4056
196.3295, 321.7412
196.8116, 320.1615
197.2937, 318.6449
197.7758, 317.4488
198.2579, 316.6688
198.7401, 316.2978
199.2222, 316.6050
199.7043, 317.7560
200.1864, 319.4098
200.6685, 320.7524
201.1507, 321.6787
201.6328, 322.7395
202.1149, 324.3014
202.5970, 326.4049
203.0791, 328.6031
203.5612, 330.8979
204.0434, 333.2137
204.5255, 335.2699
205.0076, 336.9909
205.4897, 338.7201
205.9718, 340.6859
206.4539, 342.9296
206.9361, 345.2280
207.4182, 347.7254
207.9003, 350.1910
208.3824, 351.9822
208.8645, 353.1015
209.3466, 353.5573
209.8288, 353.2784
210.3109, 352.1439
210.7930, 350.8520
211.2751, 349.6061
211.7572, 348.2170
212.2393, 345.8102
212.7215, 342.0998
213.2036, 338.0569
213.6857, 334.1404
214.1678, 330.1181
214.6499, 326.9745
215.1321, 324.8354
215.6142, 323.6040
216.0963, 322.9135
216.5784, 322.7647
217.0605, 323.1397
217.5426, 324.0143
218.0248, 325.3265
218.5069, 327.3193
218.9890, 330.2049
219.4711, 333.7985
219.9532, 337.3238
220.4353, 340.9559
220.9175, 344.2907
221.3996, 346.8926
221.8817, 347.9838
222.3638, 350.4422
222.8459, 355.1969
223.3280, 361.6266
223.8102, 366.0489
224.2923, 367.5004
224.7744, 368.5414
225.2565, 370.7891
225.7386, 374.7055
226.2208, 378.6534
226.7029, 382.3090
227.1850, 385.8566
227.6671, 390.1017
228.1492, 395.2229
228.6313, 400.7814
229.1135, 406.4751
229.5956, 412.2392
230.0777, 418.3693
230.5598, 424.8179
231.0419, 431.6644
231.5240, 439.4383
232.0062, 448.3067
232.4883, 457.8813
232.9704, 467.9289
233.4525, 478.3300
233.9346, 489.4420
234.4167, 501.4078
234.8989, 514.0781
235.3810, 526.8007
235.8631, 540.2483
236.3452, 553.0680
236.8273, 564.8297
237.3095, 576.2441
237.7916, 585.0359
238.2737, 591.1407
238.7558, 594.5553
239.2379, 595.4225
239.7200, 593.6992
240.2022, 589.4742
240.6843, 582.6219
241.1664, 572.4143
241.6485, 561.1104
242.1306, 548.4274
242.6127, 534.6880
243.0949, 521.4420
243.5770, 508.2272
244.0591, 496.1147
244.5412, 485.8940
245.0233, 478.2691
245.5054, 470.8334
245.9876, 463.4648
246.4697, 456.2723
246.9518, 449.3397
247.4339, 442.5413
247.9160, 436.1588
248.3981, 430.4257
248.8803, 425.5055
249.3624, 420.7784
249.8445, 416.4461
250.3266, 412.2339
250.8087, 407.3417
251.2909, 401.5565
251.7730, 395.4832
252.2551, 389.3989
252.7372, 383.1175
253.2193, 377.1260
253.7014, 371.2777
254.1836, 365.8256
254.6657, 361.5462
255.1478, 359.0427
255.6299, 356.6439
256.1120, 353.5675
256.5941, 349.5041
257.0763, 345.8626
257.5584, 342.8231
258.0405, 340.0573
258.5226, 336.9291
259.0047, 333.2354
259.4868, 329.5441
259.9690, 325.9949
260.4511, 322.4697
260.9332, 319.6450
261.4153, 317.5597
261.8974, 316.1049
262.3795, 315.2621
262.8617, 315.3815
263.3438, 315.2388
263.8259, 314.2579
264.3080, 312.2393
264.7901, 310.8504
265.2722, 310.2068
265.7544, 310.0491
266.2365, 310.1106
266.7186, 310.5269
267.2007, 310.7293
267.6829, 310.3991
268.1650, 309.4720
268.6471, 309.1691
269.1292, 309.6400
269.6113, 310.4900
270.0934, 311.3601
270.5756, 312.3961
271.0577, 312.8845
271.5398, 312.3620
272.0219, 310.8767
272.5040, 310.3870
272.9861, 311.1166
273.4683, 312.3590
273.9504, 313.5742
274.4325, 314.8622
274.9146, 315.5046
275.3967, 315.2792
275.8788, 314.2427
276.3610, 312.7932
276.8431, 310.8698
277.3252, 308.7645
277.8073, 306.8100
278.2894, 305.0463
278.7715, 303.0276
279.2537, 300.7069
279.7358, 298.0441
280.2179, 294.6779
280.7000, 290.4565
281.1821, 286.1739
281.6642, 282.5296
282.1464, 279.5290
282.6285, 276.2404
283.1106, 272.3904
283.5927, 268.2574
284.0748, 264.6021
284.5569, 261.4351
285.0391, 258.5087
285.5212, 255.6462
286.0033, 252.8449
286.4854, 250.0884
286.9675, 247.3339
287.4496, 244.6778
287.9318, 242.2698
288.4139, 240.0916
288.8960, 238.2642
289.3781, 237.0632
289.8602, 236.3230
290.3424, 235.1171
290.8245, 233.2507
291.3066, 231.2000
291.7887, 229.8209
292.2708, 229.0410
292.7530, 228.2229
293.2351, 226.9921
293.7172, 225.4534
294.1993, 223.8022
294.6814, 221.9335
295.1635, 220.4548
295.6457, 220.5136
296.1278, 221.7725
296.6099, 222.8045
297.0920, 222.9066
297.5741, 222.3322
298.0562, 221.3613
298.5384, 219.9623
299.0205, 218.7313
299.5026, 218.4704
299.9847, 218.8764
300.4668, 219.1307
300.9489, 218.6771
301.4311, 218.0114
301.9132, 217.8920
302.3953, 218.3009
302.8774, 218.7856
303.3595, 218.9297
303.8416, 218.9097
304.3238, 219.0390
304.8059, 219.4414
305.2880, 220.0103
305.7701, 220.5983
306.2522, 221.2331
306.7343, 222.0499
307.2165, 223.2430
307.6986, 224.6424
308.1807, 226.0608
308.6628, 227.5585
309.1449, 228.9152
309.6270, 229.9317
310.1092, 230.6754
310.5913, 231.3348
311.0734, 231.6877
311.5555, 232.1761
312.0376, 233.2473
312.5197, 235.1585
313.0019, 237.1730
313.4840, 238.9295
313.9661, 240.5125
314.4482, 242.1114
314.9304, 243.6395
315.4125, 245.3330
315.8946, 247.4306
316.3767, 250.0872
316.8588, 252.5468
317.3409, 254.3765
317.8231, 255.8822
318.3052, 257.4599
318.7873, 259.6047
319.2694, 261.5423
319.7515, 262.7449
320.2336, 263.1124
320.7158, 263.9023
321.1979, 266.0901
321.6800, 268.5635
322.1621, 270.3104
322.6442, 270.5132
323.1263, 270.6032
323.6085, 271.1697
324.0906, 272.1357
324.5727, 272.2378
325.0548, 270.5175
325.5369, 268.3793
326.0190, 266.6749
326.5012, 266.3952
326.9833, 265.4711
327.4654, 263.4838
327.9475, 260.6665
328.4296, 257.9803
328.9117, 255.5296
329.3939, 253.1216
329.8760, 250.6911
330.3581, 248.4638
330.8402, 245.7440
331.3223, 242.0199
331.8044, 237.9221
332.2866, 234.7140
332.7687, 232.5853
333.2508, 231.1184
333.7329, 230.3532
334.2150, 230.5515
334.6971, 230.0991
335.1793, 228.6249
335.6614, 226.8528
336.1435, 225.7805
336.6256, 225.6579
337.1077, 225.5435
337.5899, 225.0854
338.0720, 224.3317
338.5541, 224.4729
339.0362, 225.8815
339.5183, 227.3728
340.0005, 227.7490
340.4826, 226.8459
340.9647, 226.0222
341.4468, 225.4833
341.9289, 225.1949
342.4110, 225.1314
342.8932, 225.3422
343.3753, 225.4423
343.8574, 225.0073
344.3395, 224.0842
344.8216, 223.6072
345.3037, 223.8089
345.7859, 224.1973
346.2680, 223.7766
346.7501, 222.5958
347.2322, 221.5544
347.7143, 221.2132
348.1964, 221.3869
348.6786, 221.4760
349.1607, 221.4487
349.6428, 221.3984
350.1249, 221.4407
350.6070, 221.5511
351.0891, 221.6483
351.5713, 221.6085
352.0534, 221.5826
352.5355, 221.8323
353.0176, 222.3491
353.4997, 222.9341
353.9818, 223.4512
354.4640, 223.9298
354.9461, 224.3774
355.4282, 224.5317
355.9103, 224.9976
356.3924, 226.5984
356.8745, 229.0777
357.3567, 231.3748
357.8388, 232.6551
358.3209, 233.6414
358.8030, 234.9785
359.2851, 236.8372
359.7672, 238.8855
360.2494, 240.9803
360.7315, 243.1477
361.2136, 245.4002
361.6957, 247.4250
362.1779, 249.8154
362.6600, 253.0746
363.1421, 257.3810
363.6242, 261.3955
364.1063, 264.6320
364.5884, 267.4244
365.0706, 270.0865
365.5527, 272.3139
366.0348, 274.7881
366.5169, 277.6588
366.9990, 280.9200
367.4811, 284.4356
367.9633, 288.6232
368.4454, 292.7780
368.9275, 296.4792
369.4096, 299.7344
369.8917, 302.5015
370.3738, 304.5948
370.8560, 306.2125
371.3381, 307.8603
371.8202, 309.5461
372.3023, 311.2754
372.7844, 313.0493
373.2665, 314.8788
373.7487, 316.6848
374.2308, 318.4861
374.7129, 320.2477
375.1950, 322.0740
375.6771, 324.2162
376.1592, 325.6089
376.6414, 325.7906
377.1235, 324.8988
377.6056, 324.4785
378.0877, 324.7625
378.5698, 324.7538
379.0519, 323.4820
379.5341, 320.9545
380.0162, 318.1903
380.4983, 315.4893
380.9804, 312.5051
381.4625, 308.3937
381.9446, 303.1263
382.4268, 297.7515
382.9089, 292.8571
383.3910, 288.3475
383.8731, 283.6073
384.3553, 278.5064
384.8374, 273.7088
385.3195, 270.1621
385.8016, 267.5974
386.2837, 265.1582
386.7658, 262.2545
387.2480, 259.4092
387.7301, 257.4334
388.2122, 256.3012
388.6943, 255.1484
389.1764, 253.1359
389.6585, 250.8030
390.1407, 248.8583
390.6228, 247.5062
391.1049, 246.5795
391.5870, 246.1555
392.0691, 246.1133
392.5512, 246.0900
393.0334, 245.9671
393.5155, 245.7767
393.9976, 245.5186
394.4797, 245.1609
394.9618, 244.8495
395.4439, 244.6846
395.9261, 244.5785
396.4082, 244.4159
396.8903, 243.8557
397.3724, 243.5504
397.8545, 243.9581
398.3366, 245.1348
398.8188, 245.5691
399.3009, 244.3872
399.7830, 242.9421
400.2651, 242.1116
400.7472, 242.7024
401.2293, 242.6759
401.7115, 241.6542
402.1936, 239.9732
402.6757, 238.6403
403.1578, 237.7286
403.6399, 237.0352
404.1220, 236.5002
404.6042, 236.1322
405.0863, 235.8660
405.5684, 235.7456
406.0505, 235.6596
406.5326, 235.3765
407.0147, 234.8295
407.4969, 234.6241
407.9790, 235.0459
408.4611, 235.9064
408.9432, 236.3855
409.4254, 236.4438
409.9075, 236.5208
410.3896, 237.0217
410.8717, 237.8554
411.3538, 238.5938
411.8359, 239.1271
412.3181, 239.6452
412.8002, 240.2701
413.2823, 241.0558
413.7644, 242.2654
414.2465, 244.5989
414.7286, 247.1843
415.2108, 248.6028
415.6929, 248.7367
416.1750, 249.1693
416.6571, 251.7196
417.1392, 255.1131
417.6213, 257.6852
418.1035, 258.0663
418.5856, 258.3180
419.0677, 259.7601
419.5498, 262.1091
420.0319, 264.2453
420.5140, 265.5822
420.9962, 266.6864
421.4783, 267.8782
421.9604, 269.1780
422.4425, 270.6247
422.9246, 272.4555
423.4067, 274.3588
423.8889, 275.9313
424.3710, 276.6912
424.8531, 277.5571
425.3352, 278.7119
425.8173, 280.1531
426.2994, 281.6935
426.7816, 283.4328
427.2637, 285.1568
427.7458, 286.6996
428.2279, 287.9535
428.7100, 289.3447
429.1921, 290.9491
429.6743, 292.6627
430.1564, 294.1796
430.6385, 295.4645
431.1206, 296.6913
431.6028, 297.9432
432.0849, 299.2247
432.5670, 300.4303
433.0491, 301.6076
433.5312, 302.5280
434.0133, 302.8424
434.4955, 302.6335
434.9776, 302.4131
435.4597, 302.1964
435.9418, 302.1771
436.4239, 302.9487
436.9060, 304.3689
437.3882, 305.5617
437.8703, 306.0330
438.3524, 305.9082
438.8345, 305.2346
439.3166, 303.9414
439.7987, 302.6046
440.2809, 301.4832
440.7630, 300.6490
441.2451, 300.2250
441.7272, 300.9312
442.2093, 301.4560
442.6914, 300.8125
443.1736, 299.2020
443.6557, 297.9987
444.1378, 297.9724
444.6199, 298.3329
445.1020, 298.6037
445.5841, 298.6963
446.0663, 298.7475
446.5484, 298.5862
447.0305, 298.4386
447.5126, 298.6885
447.9947, 299.6257
448.4768, 300.6061
448.9590, 301.4673
449.4411, 302.1987
449.9232, 303.0893
450.4053, 304.1442
450.8874, 305.3547
451.3695, 306.7183
451.8517, 308.2668
452.3338, 309.8087
452.8159, 311.2223
453.2980, 312.7131
453.7801, 314.8429
454.2622, 317.6360
454.7444, 320.4200
455.2265, 322.7075
455.7086, 324.7112
456.1907, 327.4124
456.6729, 330.9091
457.1550, 334.2794
457.6371, 336.6701
458.1192, 338.3331
458.6013, 339.8616
459.0834, 341.1758
459.5656, 342.7890
460.0477, 345.4593
460.5298, 348.9319
461.0119, 352.3068
461.4940, 355.3656
461.9761, 358.0540
462.4583, 360.1778
462.9404, 361.6963
463.4225, 363.3547
463.9046, 365.8885
464.3867, 368.5607
464.8688, 370.6148
465.3510, 371.2211
465.8331, 371.9646
466.3152, 373.4664
466.7973, 375.4146
467.2794, 376.6698
467.7615, 376.8777
468.2437, 376.6840
468.7258, 376.3784
469.2079, 376.1404
469.6900, 374.9981
470.1721, 372.8391
470.6542, 369.8992
471.1364, 366.4061
471.6185, 362.3565
472.1006, 357.7357
472.5827, 352.4510
473.0648, 346.6497
473.5469, 341.0669
474.0291, 335.8164
474.5112, 329.4659
474.9933, 320.3121
475.4754, 309.1847
475.9575, 299.7490
476.4396, 292.2323
476.9218, 285.6113
477.4039, 279.4572
477.8860, 273.4130
478.3681, 266.5957
478.8503, 257.9803
479.3324, 249.3951
479.8145, 242.6144
480.2966, 237.3486
480.7787, 232.8071
481.2608, 229.0500
481.7430, 225.4023
482.2251, 221.3018
482.7072, 216.5691
483.1893, 212.0717
483.6714, 208.0008
484.1535, 204.3573
484.6357, 201.1358
485.1178, 198.8065
485.5999, 196.3294
486.0820, 193.2349
486.5641, 189.8259
487.0462, 187.1719
487.5284, 185.6612
488.0105, 184.3931
488.4926, 183.0446
488.9747, 181.6318
489.4568, 180.0841
489.9389, 178.3417
490.4211, 176.5951
490.9032, 175.1435
491.3853, 174.0053
491.8674, 172.6706
492.3495, 170.9063
492.8316, 169.0541
493.3138, 167.9951
493.7959, 167.6568
494.2780, 167.2918
494.7601, 166.2673
495.2422, 164.9685
495.7243, 164.2332
496.2065, 164.1092
496.6886, 164.0308
497.1707, 163.5949
497.6528, 162.8985
498.1349, 162.0356
498.6170, 160.7270
499.0992, 159.6974
499.5813, 159.6502
500.0634, 160.1886
500.5455, 160.3371
501.0276, 159.3610
501.5097, 158.3065
501.9919, 157.5418
502.4740, 157.1026
502.9561, 156.9332
503.4382, 157.4233
503.9203, 157.8983
504.4025, 157.8725
504.8846, 157.0408
505.3667, 156.3453
505.8488, 155.8915
506.3309, 155.5763
506.8130, 155.1516
507.2952, 154.5738
507.7773, 154.0952
508.2594, 153.8649
508.7415, 153.8255
509.2236, 153.6670
509.7057, 153.3943
510.1879, 152.9508
510.6700, 152.0920
511.1521, 151.0125
511.6342, 150.3087
512.1163, 150.1301
512.5984, 150.1576
513.0806, 150.0168
513.5627, 149.8351
514.0448, 149.8795
514.5269, 150.7180
515.0090, 151.4491
515.4911, 151.3459
515.9733, 150.5132
516.4554, 149.7096
516.9375, 149.0072
517.4196, 148.5770
517.9017, 148.6057
518.3839, 149.4449
518.8660, 149.9223
519.3481, 149.6380
519.8302, 149.0550
520.3123, 148.6563
520.7944, 148.4959
521.2766, 148.4356
521.7587, 148.5554
522.2408, 148.7505
522.7229, 148.5418
523.2050, 147.8125
523.6871, 147.1211
524.1693, 146.7688
524.6514, 146.7390
525.1335, 146.7474
525.6156, 146.7982
526.0977, 146.8638
526.5798, 146.9493
527.0620, 147.0297
527.5441, 147.0344
528.0262, 146.9561
528.5083, 146.7745
528.9904, 146.2936
529.4725, 145.6796
529.9547, 145.3461
530.4368, 145.8159
530.9189, 146.3783
531.4010, 146.5567
531.8831, 146.3379
532.3652, 146.0829
532.8474, 145.9217
533.3295, 145.7520
533.8116, 145.4892
534.2937, 144.9113
534.7758, 144.6225
535.2579, 144.8662
535.7401, 145.2947
536.2222, 145.3428
536.7043, 144.6880
537.1865, 144.4687
537.6686, 145.1906
538.1507, 146.5085
538.6328, 146.6212
539.1149, 145.3475
539.5970, 144.0179
540.0792, 143.4385
540.5613, 143.4901
541.0434, 143.7590
541.5255, 144.2588
542.0076, 144.6805
542.4897, 144.6672
542.9719, 144.3597
543.4540, 144.0222
543.9361, 143.6658
544.4182, 143.4106
544.9003, 143.3909
545.3824, 143.5457
545.8646, 143.7404
546.3467, 144.0254
546.8288, 144.2420
547.3109, 144.2639
547.7930, 144.0825
548.2751, 143.9933
548.7573, 144.3400
549.2394, 144.5539
549.7215, 144.2696
550.2036, 143.0035
550.6857, 142.3892
551.1678, 142.7529
551.6500, 143.4387
552.1321, 143.4547
552.6142, 142.6690
553.0963, 142.0990
553.5784, 142.0331
554.0605, 142.2901
554.5427, 142.4584
555.0248, 142.5360
555.5069, 142.4760
555.9890, 142.1143
556.4711, 141.6405
556.9532, 141.3598
557.4354, 141.2841
557.9175, 141.4206
558.3996, 142.0684
558.8817, 142.7965
559.3638, 143.0934
559.8459, 142.6222
560.3281, 142.1461
560.8102, 142.0652
561.2923, 142.1545
561.7744, 142.0605
562.2565, 141.3293
562.7386, 140.8458
563.2208, 140.9129
563.7029, 141.4324
564.1850, 141.7017
564.6671, 141.5786
565.1492, 141.4575
565.6313, 141.6201
566.1135, 142.1195
566.5956, 142.0690
567.0777, 141.3366
567.5598, 140.5187
568.0419, 140.3129
568.5240, 140.5978
569.0062, 140.7043
569.4883, 140.4196
569.9704, 140.1059
570.4525, 140.3248
570.9346, 140.8928
571.4167, 141.3262
571.8989, 141.2993
572.3810, 141.1560
572.8631, 141.1199
573.3452, 141.1817
573.8273, 141.2459
574.3094, 141.4377
574.7916, 141.4963
575.2737, 141.1767
575.7558, 140.1682
576.2379, 139.7483
576.7200, 140.4583
577.2021, 141.3419
577.6843, 141.5181
578.1664, 140.7171
578.6485, 139.9456
579.1306, 139.1435
579.6127, 138.5960
580.0948, 139.1622
580.5770, 140.8421
581.0591, 142.0332
581.5412, 141.7999
582.0233, 140.8208
582.5054, 140.6095
582.9875, 141.0857
583.4697, 141.6237
583.9518, 141.8717
584.4340, 141.9204
584.9161, 141.8136
