##NAMES=Artinite
##RRUFFID=R060234
##IDEAL CHEMISTRY=Mg_2_CO_3_(OH)_2_&#183;3H_2_O
##LOCALITY=southern San Benito County, California, USA
##OWNER=RRUFF
##SOURCE=Michael Scott
##DESCRIPTION=Divergent sprays of clear colorless acicular crystals
##STATUS=The identification of this mineral is confirmed by single-crystal X-ray diffraction and chemical analysis.
##URL=rruff.info/R060234
##MEASURED CHEMISTRY=Mg_2.00_(CO_3_)(OH)_2_Â·3H_2_O
91.00781, 13.22599
91.48993, 16.03747
91.97205, 17.16208
92.45416, 15.50126
92.93628, 12.20677
93.41840, 9.808605
93.90051, 8.825072
94.38263, 8.682992
94.86475, 8.561990
95.34686, 8.462206
95.82898, 8.396040
96.31110, 8.369515
96.79321, 8.383078
97.27533, 8.440495
97.75745, 8.518061
98.23956, 8.641604
98.72168, 8.958230
99.20380, 9.507287
99.68591, 10.11594
100.1680, 10.59305
100.6501, 10.91066
101.1323, 11.20567
101.6144, 11.45008
102.0965, 11.61302
102.5786, 12.11900
103.0607, 13.05652
103.5428, 14.26191
104.0250, 15.48747
104.5071, 16.67614
104.9892, 17.96220
105.4713, 19.35427
105.9534, 20.71462
106.4355, 22.49188
106.9177, 24.95610
107.3998, 27.84739
107.8819, 30.43432
108.3640, 32.53043
108.8461, 34.44223
109.3282, 36.33529
109.8104, 38.46776
110.2925, 40.24640
110.7746, 41.48360
111.2567, 42.24188
111.7388, 43.05896
112.2209, 43.95658
112.7031, 44.93774
113.1852, 46.01571
113.6673, 46.91561
114.1494, 48.16804
114.6315, 50.16558
115.1136, 52.96604
115.5958, 55.38248
116.0779, 56.47569
116.5600, 57.15942
117.0421, 58.45215
117.5242, 60.90948
118.0063, 63.92527
118.4885, 67.28442
118.9706, 71.00777
119.4527, 74.83873
119.9348, 78.57581
120.4169, 82.30675
120.8990, 86.25669
121.3812, 90.80135
121.8633, 95.47229
122.3454, 99.91099
122.8275, 104.2980
123.3096, 107.9349
123.7917, 109.8021
124.2739, 110.2546
124.7560, 110.5950
125.2381, 111.4640
125.7202, 112.8086
126.2023, 114.5535
126.6844, 116.8011
127.1666, 119.3058
127.6487, 121.7335
128.1308, 124.1030
128.6129, 126.5205
129.0950, 128.9594
129.5771, 131.5054
130.0593, 134.5100
130.5414, 138.2332
131.0235, 142.3918
131.5056, 146.0488
131.9877, 148.5866
132.4698, 150.3921
132.9520, 152.5927
133.4341, 155.1764
133.9162, 158.0068
134.3983, 161.0624
134.8804, 164.3136
135.3625, 167.7823
135.8447, 171.6567
136.3268, 175.3402
136.8089, 177.9718
137.2910, 179.4479
137.7731, 180.6489
138.2552, 182.0242
138.7374, 183.6645
139.2195, 184.6872
139.7016, 185.0566
140.1837, 184.8739
140.6658, 184.1899
141.1479, 182.6478
141.6301, 181.3930
142.1122, 180.9297
142.5943, 181.3597
143.0764, 182.2448
143.5585, 183.4897
144.0406, 185.1672
144.5228, 187.7182
145.0049, 191.7287
145.4870, 195.8446
145.9691, 199.2548
146.4512, 201.4684
146.9333, 203.8907
147.4155, 207.0143
147.8976, 210.6842
148.3797, 213.1051
148.8618, 213.8853
149.3439, 213.7471
149.8260, 213.1647
150.3082, 211.8602
150.7903, 210.4160
151.2724, 208.2883
151.7545, 205.4239
152.2366, 204.3670
152.7188, 205.5426
153.2009, 208.3533
153.6830, 212.3147
154.1651, 217.9598
154.6472, 224.1775
155.1293, 230.5059
155.6115, 236.8573
156.0936, 244.1209
156.5757, 253.6299
157.0578, 263.7483
157.5399, 272.5557
158.0220, 278.4694
158.5042, 284.0485
158.9863, 290.2296
159.4684, 297.2603
159.9505, 304.1524
160.4326, 310.1078
160.9147, 315.7838
161.3969, 322.1550
161.8790, 329.5835
162.3611, 337.7753
162.8432, 346.5120
163.3253, 355.4989
163.8074, 365.5685
164.2896, 376.8537
164.7717, 389.4633
165.2538, 403.6225
165.7359, 418.9164
166.2180, 436.0663
166.7001, 455.5780
167.1823, 477.1172
167.6644, 501.4432
168.1465, 529.1639
168.6286, 560.0272
169.1107, 593.3547
169.5928, 631.6776
170.0750, 670.9750
170.5571, 708.3434
171.0392, 744.5233
171.5213, 775.5748
172.0034, 800.3596
172.4855, 818.0751
172.9677, 824.6447
173.4498, 819.3567
173.9319, 801.1749
174.4140, 767.6500
174.8961, 712.7785
175.3782, 648.4693
175.8604, 582.3590
176.3425, 514.8896
176.8246, 452.6343
177.3067, 399.2655
177.7888, 353.8519
178.2709, 315.4511
178.7531, 284.2309
179.2352, 258.9085
179.7173, 238.0323
180.1994, 221.4341
180.6815, 207.9714
181.1636, 197.4593
181.6458, 189.4406
182.1279, 182.9424
182.6100, 177.8204
183.0921, 173.8767
183.5742, 170.7556
184.0563, 168.5305
184.5385, 166.6936
185.0206, 165.1260
185.5027, 163.6723
185.9848, 161.6789
186.4669, 159.0058
186.9490, 155.6159
187.4312, 151.1309
187.9133, 145.5565
188.3954, 139.3900
188.8775, 133.0801
189.3596, 126.6891
189.8417, 120.5085
190.3239, 114.6672
190.8060, 109.1338
191.2881, 103.9460
191.7702, 99.10066
192.2523, 94.81456
192.7344, 91.40650
193.2166, 88.89274
193.6987, 86.86552
194.1808, 85.29229
194.6629, 84.13761
195.1450, 82.85178
195.6271, 81.37155
196.1093, 79.92011
196.5914, 78.83488
197.0735, 78.13152
197.5556, 77.58670
198.0377, 77.10223
198.5198, 76.67268
199.0020, 76.42058
199.4841, 76.37022
199.9662, 76.45182
200.4483, 76.50579
200.9304, 76.49152
201.4125, 76.69093
201.8947, 77.25831
202.3768, 78.21401
202.8589, 79.29910
203.3410, 80.56359
203.8231, 81.89510
204.3052, 83.05517
204.7874, 84.02066
205.2695, 84.94337
205.7516, 85.90437
206.2337, 86.92297
206.7158, 87.84220
207.1979, 88.63316
207.6801, 89.35507
208.1622, 90.26772
208.6443, 91.63152
209.1264, 92.41228
209.6085, 91.95615
210.0906, 89.92597
210.5728, 88.24635
211.0549, 87.15237
211.5370, 86.28269
212.0191, 84.73576
212.5012, 82.16340
212.9833, 79.74331
213.4655, 78.14165
213.9476, 77.63655
214.4297, 76.83424
214.9118, 75.49609
215.3939, 73.95831
215.8760, 73.06804
216.3581, 73.05074
216.8403, 73.23107
217.3224, 73.28067
217.8045, 73.11075
218.2866, 73.09953
218.7687, 73.34026
219.2508, 73.70987
219.7330, 73.84497
220.2151, 73.61062
220.6972, 73.38651
221.1793, 73.32491
221.6614, 73.37601
222.1435, 73.74995
222.6257, 74.61766
223.1078, 75.75819
223.5899, 76.54768
224.0720, 76.76630
224.5541, 76.99013
225.0362, 77.54316
225.5184, 78.68653
226.0005, 79.48557
226.4826, 79.78786
226.9647, 79.77673
227.4468, 79.93880
227.9289, 80.18745
228.4111, 80.74585
228.8932, 81.78352
229.3753, 83.60547
229.8574, 85.16705
230.3395, 86.33615
230.8216, 87.25110
231.3038, 88.29388
231.7859, 89.41352
232.2680, 90.72603
232.7501, 92.30210
233.2322, 94.24611
233.7143, 96.20847
234.1965, 98.19084
234.6786, 100.2010
235.1607, 102.2855
235.6428, 104.4590
236.1249, 106.6826
236.6070, 108.9834
237.0892, 111.5738
237.5713, 113.7745
238.0534, 115.6007
238.5355, 117.0315
239.0176, 117.9760
239.4997, 118.2295
239.9819, 118.3051
240.4640, 118.4832
240.9461, 119.1088
241.4282, 118.9627
241.9103, 117.5670
242.3924, 115.5522
242.8746, 114.4919
243.3567, 114.9716
243.8388, 115.5194
244.3209, 115.5684
244.8030, 115.0246
245.2851, 114.1968
245.7673, 112.8260
246.2494, 111.2782
246.7315, 110.4089
247.2136, 110.6808
247.6957, 110.8967
248.1778, 110.5469
248.6600, 109.3726
249.1421, 108.4270
249.6242, 107.7680
250.1063, 107.2989
250.5884, 106.8727
251.0705, 106.6430
251.5527, 106.1846
252.0348, 105.2569
252.5169, 103.6080
252.9990, 102.3826
253.4811, 101.6659
253.9632, 101.3031
254.4454, 101.0308
254.9275, 100.8142
255.4096, 100.7472
255.8917, 100.8630
256.3738, 101.1693
256.8560, 101.6246
257.3381, 102.2423
257.8202, 103.0002
258.3023, 103.9263
258.7844, 105.1564
259.2665, 106.2291
259.7487, 106.8856
260.2308, 106.9848
260.7129, 107.6941
261.1950, 109.2741
261.6771, 111.1729
262.1592, 112.6426
262.6414, 113.5626
263.1235, 114.3233
263.6056, 115.0020
264.0877, 115.6013
264.5698, 116.1395
265.0519, 116.5253
265.5341, 116.9716
266.0162, 117.8917
266.4983, 119.6234
266.9804, 120.7235
267.4625, 120.5509
267.9446, 119.1394
268.4268, 118.7337
268.9089, 119.6186
269.3910, 121.0173
269.8731, 122.2623
270.3552, 123.4142
270.8373, 124.0883
271.3195, 123.9917
271.8016, 123.2469
272.2837, 123.2144
272.7658, 124.0871
273.2479, 125.2410
273.7300, 126.1684
274.2122, 126.8635
274.6943, 127.3343
275.1764, 127.4796
275.6585, 127.3995
276.1406, 127.6190
276.6227, 128.1669
277.1049, 128.9227
277.5870, 130.0153
278.0691, 131.5375
278.5512, 132.2910
279.0333, 131.9363
279.5154, 130.7603
279.9976, 129.7421
280.4797, 128.9402
280.9618, 127.9771
281.4439, 126.4459
281.9260, 124.3449
282.4081, 122.4974
282.8903, 121.1897
283.3724, 119.9920
283.8545, 117.8453
284.3366, 114.7037
284.8187, 111.0811
285.3008, 107.1202
285.7830, 102.8442
286.2651, 98.97934
286.7472, 95.61710
287.2293, 92.58142
287.7114, 89.52703
288.1935, 86.45558
288.6757, 83.58971
289.1578, 81.11607
289.6399, 78.97385
290.1220, 76.94183
290.6041, 74.95480
291.0862, 73.20237
291.5684, 72.13382
292.0505, 71.66944
292.5326, 71.10685
293.0147, 69.98782
293.4968, 68.50120
293.9789, 67.13746
294.4611, 65.91204
294.9432, 64.87173
295.4253, 64.05486
295.9074, 63.46643
296.3895, 63.14289
296.8716, 63.42887
297.3538, 63.91161
297.8359, 63.60710
298.3180, 62.48035
298.8001, 61.29457
299.2822, 60.77310
299.7643, 60.74822
300.2465, 60.79251
300.7286, 60.78036
301.2107, 60.73798
301.6928, 60.63922
302.1749, 60.49651
302.6570, 60.48745
303.1392, 60.84691
303.6213, 61.42353
304.1034, 61.95647
304.5855, 62.40443
305.0676, 62.74717
305.5497, 62.86191
306.0319, 62.80882
306.5140, 62.90704
306.9961, 63.53154
307.4782, 64.36109
307.9603, 64.98788
308.4424, 65.18014
308.9246, 65.40018
309.4067, 65.99300
309.8888, 66.89716
310.3709, 67.95522
310.8530, 69.28651
311.3351, 70.61179
311.8173, 71.63156
312.2994, 72.19064
312.7815, 72.81660
313.2636, 73.94338
313.7457, 75.33823
314.2278, 76.59269
314.7100, 77.31654
315.1921, 77.99218
315.6742, 78.90261
316.1563, 80.08775
316.6384, 81.42123
317.1205, 83.08465
317.6027, 84.78239
318.0848, 86.12923
318.5669, 86.70865
319.0490, 87.17901
319.5311, 87.75895
320.0132, 88.46099
320.4954, 89.28184
320.9775, 90.62728
321.4596, 91.89017
321.9417, 92.53149
322.4238, 92.03320
322.9059, 91.32860
323.3881, 90.56619
323.8702, 89.75988
324.3523, 88.93916
324.8344, 88.21587
325.3165, 87.41136
325.7986, 86.41413
326.2808, 84.86227
326.7629, 83.53554
327.2450, 82.68134
327.7271, 82.14230
328.2092, 81.29250
328.6913, 79.87239
329.1735, 78.36691
329.6556, 76.92088
330.1377, 75.41639
330.6198, 74.21149
331.1019, 73.57991
331.5840, 73.16769
332.0662, 72.24207
332.5483, 70.27919
333.0304, 68.54848
333.5125, 67.57468
333.9946, 67.55609
334.4767, 67.14250
334.9589, 66.08582
335.4410, 64.88186
335.9231, 64.23441
336.4052, 64.45036
336.8873, 64.41154
337.3694, 63.71854
337.8516, 62.43389
338.3336, 61.66717
338.8158, 61.58785
339.2979, 61.66728
339.7800, 61.37133
340.2621, 60.62270
340.7442, 60.09576
341.2263, 60.03905
341.7085, 60.22617
342.1906, 59.78975
342.6727, 58.62129
343.1548, 57.48609
343.6369, 56.93557
344.1190, 56.94096
344.6012, 56.99125
345.0833, 57.06897
345.5654, 57.09849
346.0475, 56.87483
346.5296, 56.41770
347.0117, 56.02990
347.4939, 55.96904
347.9760, 56.11500
348.4581, 56.06667
348.9402, 55.78511
349.4223, 55.42560
349.9044, 55.09982
350.3866, 54.82500
350.8687, 54.65541
351.3508, 54.69499
351.8329, 54.81566
352.3150, 54.77279
352.7971, 54.57302
353.2793, 54.44044
353.7614, 54.63338
354.2435, 54.99272
354.7256, 55.24293
355.2077, 55.16747
355.6898, 55.12612
356.1720, 55.54024
356.6541, 56.30580
357.1362, 56.97123
357.6183, 57.12278
358.1004, 57.14568
358.5826, 57.39801
359.0647, 58.00681
359.5468, 58.69348
360.0289, 59.41713
360.5110, 60.10694
360.9931, 60.62996
361.4753, 60.54279
361.9574, 60.58109
362.4395, 61.19675
362.9216, 62.52282
363.4037, 63.82287
363.8858, 64.95591
364.3680, 65.92325
364.8501, 66.72968
365.3322, 66.99874
365.8143, 67.48321
366.2964, 68.50761
366.7785, 70.06233
367.2607, 71.37275
367.7428, 72.19361
368.2249, 72.87566
368.7070, 73.62968
369.1891, 74.36830
369.6712, 75.29375
370.1534, 76.51635
370.6355, 77.93627
371.1176, 79.24026
371.5997, 80.36245
372.0818, 81.45300
372.5639, 82.62304
373.0461, 84.01362
373.5282, 84.99765
374.0103, 85.42331
374.4924, 85.60151
374.9745, 86.01270
375.4566, 86.74325
375.9388, 87.45531
376.4209, 88.11494
376.9030, 88.70998
377.3851, 88.92136
377.8672, 88.74271
378.3493, 88.22958
378.8315, 87.35847
379.3136, 86.11726
379.7957, 84.88563
380.2778, 83.74229
380.7599, 82.63142
381.2420, 81.38970
381.7242, 80.03777
382.2063, 78.57201
382.6884, 76.86576
383.1705, 75.02946
383.6526, 73.55934
384.1347, 72.56397
384.6169, 71.68771
385.0990, 70.48563
385.5811, 69.03864
386.0632, 67.66488
386.5453, 66.40651
387.0274, 65.34924
387.5096, 64.67776
387.9917, 64.39275
388.4738, 64.26375
388.9559, 64.16780
389.4380, 64.11137
389.9201, 64.10990
390.4023, 64.24761
390.8844, 64.35201
391.3665, 64.25426
391.8486, 64.01100
392.3307, 63.83252
392.8128, 63.79795
393.2950, 63.87655
393.7771, 64.10426
394.2592, 64.62937
394.7413, 64.91409
395.2234, 64.41270
395.7055, 63.63280
396.1877, 63.35979
396.6698, 64.43748
397.1519, 65.40607
397.6340, 65.80223
398.1161, 65.55573
398.5982, 65.21867
399.0804, 64.65919
399.5625, 64.12552
400.0446, 63.80971
400.5267, 64.00784
401.0088, 63.98843
401.4909, 63.60517
401.9731, 62.95360
402.4552, 62.42610
402.9373, 62.08647
403.4194, 61.76740
403.9015, 61.37756
404.3836, 60.87885
404.8658, 60.44349
405.3479, 60.04252
405.8300, 59.74839
406.3121, 59.73528
406.7942, 60.05732
407.2763, 60.26489
407.7585, 60.14059
408.2406, 59.77179
408.7227, 59.71654
409.2048, 60.01377
409.6869, 60.29431
410.1690, 59.66090
410.6512, 60.30454
411.1333, 60.70775
411.6154, 60.88349
412.0975, 60.15042
412.5796, 60.59089
413.0617, 60.56106
413.5439, 60.51196
414.0260, 61.11760
414.5081, 60.51671
414.9902, 61.11197
415.4723, 61.22974
415.9544, 61.56605
416.4366, 61.42917
416.9187, 61.43843
417.4008, 61.92104
417.8829, 62.14156
418.3650, 61.95018
418.8471, 62.30038
419.3293, 61.68299
419.8114, 61.91467
420.2935, 62.51268
420.7756, 62.34511
421.2577, 62.70395
421.7398, 62.86231
422.2220, 62.10953
422.7041, 62.94132
423.1862, 63.08783
423.6683, 62.53070
424.1504, 63.30819
424.6325, 62.84807
425.1147, 62.82972
425.5968, 63.14380
426.0789, 63.11131
426.5610, 63.62522
427.0431, 63.61275
427.5252, 63.55325
428.0074, 63.69900
428.4895, 63.26315
428.9716, 63.90626
429.4537, 63.81235
429.9358, 64.13795
430.4179, 64.19973
430.9001, 64.37992
431.3822, 64.96025
431.8643, 65.95251
432.3464, 66.46489
432.8285, 66.39812
433.3106, 66.16891
433.7928, 66.35743
434.2749, 66.90533
434.7570, 67.31124
435.2391, 67.35636
435.7212, 67.21652
436.2033, 67.17101
436.6855, 67.22722
437.1676, 67.45358
437.6497, 68.07751
438.1318, 68.85136
438.6139, 69.39303
439.0960, 69.62360
439.5782, 69.68636
440.0603, 69.54276
440.5424, 69.32725
441.0245, 69.29223
441.5066, 69.63540
441.9887, 70.11402
442.4709, 70.64748
442.9530, 71.22400
443.4351, 71.70239
443.9172, 71.97940
444.3993, 72.16255
444.8814, 72.31940
445.3636, 72.33006
445.8457, 72.49295
446.3278, 72.94404
446.8099, 73.57470
447.2920, 74.12331
447.7741, 74.38869
448.2563, 74.79748
448.7384, 75.53300
449.2205, 76.67610
449.7026, 77.53190
450.1847, 77.90398
450.6668, 78.22557
451.1490, 78.90702
451.6311, 80.02949
452.1132, 81.22644
452.5953, 82.49953
453.0774, 83.78207
453.5595, 84.93596
454.0417, 85.95109
454.5238, 86.97015
455.0059, 87.98244
455.4880, 89.03803
455.9701, 90.52656
456.4522, 92.49573
456.9344, 94.60767
457.4165, 96.53742
457.8986, 98.32919
458.3807, 100.0486
458.8628, 101.7541
459.3449, 103.3789
459.8271, 104.7109
460.3092, 105.8566
460.7913, 107.2935
461.2734, 109.5565
461.7555, 112.0695
462.2376, 114.3566
462.7198, 116.2822
463.2019, 118.2121
463.6840, 120.3286
464.1661, 122.5208
464.6482, 124.6548
465.1303, 126.9076
465.6125, 128.8745
466.0946, 130.3766
466.5767, 131.4609
467.0588, 132.4444
467.5409, 133.0098
468.0230, 133.7845
468.5052, 135.1774
468.9873, 137.8888
469.4694, 139.4159
469.9515, 139.2727
470.4336, 138.3705
470.9157, 138.1396
471.3979, 139.0072
471.8800, 139.0621
472.3621, 137.6685
472.8442, 135.0984
473.3263, 132.5263
473.8084, 129.9562
474.2906, 127.3478
474.7727, 124.8675
475.2548, 122.3798
475.7369, 119.0866
476.2190, 114.7433
476.7011, 110.1976
477.1833, 106.3608
477.6654, 103.0958
478.1475, 100.0275
478.6296, 97.07427
479.1117, 94.19138
479.5938, 91.26063
480.0760, 88.30753
480.5581, 85.60027
481.0402, 83.53283
481.5223, 81.59888
482.0044, 79.30994
482.4865, 76.37487
482.9687, 73.70703
483.4508, 71.74171
483.9329, 70.19028
484.4150, 68.66705
484.8971, 66.79907
485.3792, 65.25369
485.8614, 64.40755
486.3435, 64.18382
486.8256, 63.44378
487.3077, 61.80909
487.7898, 60.11514
488.2719, 58.81123
488.7541, 58.04504
489.2362, 57.25933
489.7183, 56.40368
490.2004, 55.59013
490.6825, 55.00594
491.1646, 54.67205
491.6468, 54.32910
492.1289, 53.86213
492.6110, 53.35010
493.0931, 53.06714
493.5752, 53.00776
494.0573, 52.86062
494.5395, 52.27431
495.0216, 51.45934
495.5037, 50.85725
495.9858, 50.55479
496.4679, 50.32771
496.9500, 49.94961
497.4322, 49.51754
497.9143, 49.19942
498.3964, 49.10592
498.8785, 49.10402
499.3606, 49.23964
499.8427, 49.44759
500.3249, 49.41968
500.8070, 48.69431
501.2891, 47.98471
501.7712, 47.74354
502.2533, 48.30772
502.7354, 48.50213
503.2176, 47.88573
503.6997, 47.04082
504.1818, 46.55151
504.6639, 46.54995
505.1460, 46.68077
505.6281, 47.01315
506.1103, 47.42430
506.5924, 47.32752
507.0745, 46.54481
507.5566, 45.88013
508.0387, 45.87440
508.5208, 46.47989
509.0030, 46.68410
509.4851, 46.43465
509.9672, 46.07640
510.4493, 46.00835
510.9314, 46.14293
511.4135, 46.18008
511.8957, 46.03034
512.3778, 45.78005
512.8599, 45.43840
513.3420, 45.06498
513.8242, 44.83393
514.3063, 44.25690
514.7884, 44.76669
515.2705, 45.03608
515.7526, 45.07799
516.2347, 44.21111
516.7169, 44.51773
517.1990, 44.35408
517.6811, 44.17113
518.1632, 44.64294
518.6453, 43.90823
519.1274, 44.36966
519.6096, 44.35360
520.0917, 44.55608
520.5738, 44.28536
521.0559, 44.16079
521.5380, 44.50957
522.0201, 44.59627
522.5023, 44.27106
522.9844, 44.48743
523.4665, 43.73619
523.9486, 43.83404
524.4307, 44.29824
524.9128, 43.99683
525.3950, 44.22184
525.8771, 44.24638
526.3592, 43.35975
526.8413, 44.05771
527.3234, 44.07039
527.8055, 43.37944
528.2877, 44.02310
528.7698, 43.42915
529.2519, 43.27695
529.7340, 43.45720
530.2161, 43.29089
530.6982, 43.67098
531.1804, 43.52467
531.6625, 43.33134
532.1446, 43.34325
532.6267, 43.48244
533.1088, 43.85296
533.5909, 44.10434
534.0731, 44.08813
534.5552, 44.10014
535.0373, 44.23311
535.5194, 44.39931
536.0015, 44.36654
536.4836, 44.05057
536.9658, 43.70387
537.4479, 43.39355
537.9300, 43.12212
538.4121, 42.93831
538.8942, 42.84848
539.3763, 42.82280
539.8585, 42.82316
540.3406, 42.86017
540.8227, 43.04985
541.3048, 43.46693
541.7869, 43.82362
542.2690, 43.61383
542.7512, 43.05571
543.2333, 42.69861
543.7154, 42.95647
544.1975, 43.35242
544.6796, 43.53613
545.1617, 43.53217
545.6439, 43.43921
546.1260, 43.15247
546.6081, 42.90588
547.0902, 42.89190
547.5723, 43.23128
548.0544, 43.37697
548.5366, 43.03270
549.0187, 42.58835
549.5008, 42.39364
549.9829, 42.62933
550.4650, 42.78412
550.9471, 42.78956
551.4293, 42.70426
551.9114, 42.69151
552.3935, 42.78927
552.8756, 42.76825
553.3577, 42.45761
553.8398, 41.95779
554.3220, 41.74740
554.8041, 41.83184
555.2862, 42.04389
555.7683, 42.31983
556.2504, 42.61655
556.7325, 42.87095
557.2147, 43.08644
557.6968, 43.19263
558.1789, 43.07014
558.6610, 42.81407
559.1431, 42.56630
559.6252, 42.28087
560.1074, 42.11210
560.5895, 42.18644
561.0716, 42.43854
561.5537, 42.64810
562.0358, 42.79895
562.5179, 42.87513
563.0001, 42.86535
563.4822, 42.76632
563.9643, 42.63141
564.4464, 42.47348
564.9285, 42.26154
565.4106, 41.93770
565.8928, 41.46646
566.3749, 41.11385
566.8570, 40.90320
567.3391, 40.80236
567.8212, 40.77472
568.3033, 40.81666
568.7855, 40.89951
569.2676, 40.99335
569.7497, 41.14345
570.2318, 41.52850
570.7139, 42.06683
571.1960, 42.43328
571.6782, 42.31816
572.1603, 42.02604
572.6424, 41.74033
573.1245, 41.46512
573.6066, 41.37716
574.0887, 41.73251
574.5709, 42.18823
575.0530, 42.47927
575.5351, 42.48452
576.0172, 42.44810
576.4993, 42.32083
576.9814, 42.18326
577.4636, 42.21021
577.9457, 42.55253
578.4278, 42.63713
578.9099, 42.22335
579.3920, 41.48465
579.8741, 41.07952
580.3563, 41.02496
580.8384, 41.10816
581.3205, 41.22908
581.8026, 41.38932
582.2847, 41.60628
582.7668, 41.88238
583.2490, 42.14264
583.7311, 42.36317
584.2132, 42.51514
584.6953, 42.54795
585.1774, 42.40216
585.6595, 42.24796
586.1416, 42.20258
586.6237, 42.19822
