##NAMES=Artinite
##RRUFFID=R060166
##IDEAL CHEMISTRY=Mg_2_CO_3_(OH)_2_&#183;3H_2_O
##LOCALITY=San Benito County, California, USA
##OWNER=RRUFF
##SOURCE=Marcus Origlieri
##DESCRIPTION=Spherical aggregates of divergent colorless acicular crystals
##STATUS=The identification of this mineral has been confirmed by X-ray diffraction and chemical analysis
##URL=rruff.info/R060166
##MEASURED CHEMISTRY=Mg_2.00_CO_3_(OH)_2_Â·3H_2_O ; C and H not measured but estimated by charge balance
92.02539, 452.2717
92.50751, 469.4641
92.98962, 480.8717
93.47174, 474.5657
93.95386, 460.6051
94.43597, 444.4755
94.91809, 428.3959
95.40021, 413.1657
95.88232, 399.9843
96.36444, 389.3960
96.84656, 380.1369
97.32867, 372.7459
97.81078, 366.4629
98.29290, 360.1529
98.77502, 352.7628
99.25713, 343.7832
99.73925, 333.9769
100.2214, 322.7351
100.7035, 311.4764
101.1856, 300.5389
101.6677, 290.0208
102.1498, 280.1081
102.6320, 270.9668
103.1141, 262.2769
103.5962, 255.4650
104.0783, 251.2621
104.5604, 248.5205
105.0425, 246.2582
105.5247, 244.2939
106.0068, 242.2089
106.4889, 239.3353
106.9710, 235.8538
107.4531, 231.4300
107.9352, 225.7669
108.4173, 218.9563
108.8995, 211.3705
109.3816, 202.3683
109.8637, 193.1785
110.3458, 185.0565
110.8279, 178.1509
111.3100, 172.0758
111.7922, 166.2540
112.2743, 160.4795
112.7564, 155.7727
113.2385, 152.6795
113.7206, 150.5244
114.2027, 148.8410
114.6849, 147.4513
115.1670, 146.3299
115.6491, 145.4135
116.1312, 144.6341
116.6133, 144.1837
117.0954, 144.1071
117.5776, 144.3613
118.0597, 144.9101
118.5418, 145.7539
119.0239, 146.8994
119.5060, 147.9250
119.9881, 148.6147
120.4703, 149.4052
120.9524, 150.5127
121.4345, 151.9074
121.9166, 153.4175
122.3987, 154.9155
122.8808, 156.3997
123.3630, 157.6794
123.8451, 158.8448
124.3272, 159.7636
124.8093, 160.1960
125.2914, 160.0526
125.7735, 159.7493
126.2557, 159.7462
126.7378, 159.9829
127.2199, 160.2798
127.7020, 160.5099
128.1841, 160.7381
128.6662, 161.1847
129.1483, 161.9920
129.6305, 162.9158
130.1126, 163.8442
130.5947, 164.7574
131.0768, 165.5029
131.5589, 165.9472
132.0410, 166.0763
132.5232, 166.0189
133.0053, 165.6130
133.4874, 165.1399
133.9695, 164.6785
134.4516, 164.2648
134.9337, 163.9705
135.4159, 163.9278
135.8980, 164.3174
136.3801, 164.6306
136.8622, 164.7849
137.3443, 164.8940
137.8264, 165.1266
138.3086, 165.5365
138.7907, 165.9535
139.2728, 165.8968
139.7549, 164.6385
140.2370, 163.7263
140.7191, 163.4453
141.2013, 163.5511
141.6834, 163.7138
142.1655, 163.7826
142.6476, 163.7477
143.1297, 163.5636
143.6118, 162.8147
144.0939, 162.3662
144.5761, 162.7124
145.0582, 163.7261
145.5403, 164.8367
146.0224, 165.7715
146.5045, 166.5266
146.9866, 167.2016
147.4688, 168.1099
147.9509, 168.6783
148.4330, 168.2782
148.9151, 166.8167
149.3972, 164.9536
149.8793, 162.8802
150.3615, 160.6679
150.8436, 158.3389
151.3257, 155.7491
151.8078, 153.1270
152.2899, 151.0265
152.7720, 149.5101
153.2542, 148.4492
153.7363, 147.7174
154.2184, 147.3075
154.7005, 147.2356
155.1826, 147.5984
155.6647, 148.3384
156.1469, 148.8570
156.6290, 149.0391
157.1111, 149.0750
157.5932, 148.8777
158.0753, 148.5629
158.5574, 148.3609
159.0396, 148.5005
159.5217, 149.0499
160.0038, 149.3023
160.4859, 148.9818
160.9680, 148.6560
161.4501, 148.5163
161.9323, 148.5898
162.4144, 148.8399
162.8965, 149.2444
163.3786, 149.8585
163.8607, 150.4128
164.3428, 150.5058
164.8250, 150.8076
165.3071, 151.8141
165.7892, 153.5990
166.2713, 155.8822
166.7534, 158.3924
167.2355, 161.1373
167.7177, 164.0912
168.1998, 167.0952
168.6819, 170.3777
169.1640, 174.3452
169.6461, 179.1880
170.1282, 184.3005
170.6104, 189.2731
171.0925, 194.1244
171.5746, 197.9138
172.0567, 200.4779
172.5388, 201.7096
173.0209, 201.3196
173.5031, 199.3230
173.9852, 195.3085
174.4673, 188.9411
174.9494, 180.4003
175.4315, 171.1378
175.9136, 161.9164
176.3958, 152.7313
176.8779, 144.0076
177.3600, 135.6239
177.8421, 127.9576
178.3242, 121.1857
178.8063, 115.3112
179.2885, 110.3770
179.7706, 106.5271
180.2527, 103.9423
180.7348, 101.6662
181.2169, 99.62809
181.6990, 97.86971
182.1812, 96.50455
182.6633, 95.51394
183.1454, 94.74317
183.6275, 93.95696
184.1096, 93.02427
184.5917, 92.38338
185.0738, 92.29851
185.5560, 92.27429
186.0381, 91.96969
186.5202, 91.29816
187.0023, 90.40437
187.4844, 89.55123
187.9665, 89.00022
188.4487, 88.01976
188.9308, 86.22620
189.4129, 84.21980
189.8950, 82.57303
190.3771, 81.48000
190.8592, 80.69146
191.3414, 79.72662
191.8235, 78.39413
192.3056, 77.25523
192.7877, 76.51524
193.2698, 75.96624
193.7519, 75.29733
194.2341, 74.37473
194.7162, 73.37875
195.1983, 72.70222
195.6804, 72.36903
196.1625, 72.12061
196.6446, 71.88410
197.1268, 71.67521
197.6089, 71.55845
198.0910, 71.61518
198.5731, 71.67484
199.0552, 71.41180
199.5373, 70.74723
200.0195, 70.20694
200.5016, 70.15995
200.9837, 70.51591
201.4658, 70.80293
201.9479, 70.82347
202.4300, 70.78223
202.9122, 70.89678
203.3943, 71.17960
203.8764, 71.54697
204.3585, 71.98170
204.8406, 72.48397
205.3227, 72.90289
205.8048, 73.24886
206.2870, 73.44450
206.7691, 73.32549
207.2512, 72.88376
207.7333, 72.48971
208.2154, 72.63161
208.6975, 73.43633
209.1797, 74.02140
209.6618, 74.11790
210.1439, 74.02780
210.6260, 73.84635
211.1081, 73.60802
211.5902, 73.37441
212.0724, 73.25665
212.5545, 73.34427
213.0366, 73.27035
213.5187, 72.97634
214.0008, 72.55567
214.4829, 71.92226
214.9651, 71.12120
215.4472, 70.42924
215.9293, 70.32088
216.4114, 71.26413
216.8935, 71.82442
217.3756, 71.83882
217.8578, 71.65575
218.3399, 71.45502
218.8220, 71.30177
219.3041, 71.21590
219.7862, 71.23042
220.2683, 71.37633
220.7505, 71.58157
221.2326, 71.90172
221.7147, 72.24086
222.1968, 72.54587
222.6789, 72.79750
223.1610, 72.97452
223.6432, 73.02943
224.1253, 72.80619
224.6074, 72.80405
225.0895, 73.24288
225.5716, 73.77801
226.0537, 74.07584
226.5358, 74.06302
227.0180, 73.92953
227.5001, 73.93371
227.9822, 74.11487
228.4643, 74.32630
228.9464, 74.51058
229.4285, 74.74398
229.9107, 75.10679
230.3928, 75.61652
230.8749, 76.23904
231.3570, 76.95557
231.8391, 77.77378
232.3212, 78.58659
232.8034, 79.40650
233.2855, 80.19926
233.7676, 80.90722
234.2497, 81.51142
234.7318, 82.08150
235.2139, 82.66129
235.6961, 83.25274
236.1782, 83.96174
236.6603, 84.89197
237.1424, 85.93210
237.6245, 86.92326
238.1066, 87.84941
238.5888, 88.73253
239.0709, 89.73815
239.5530, 90.77136
240.0351, 91.43138
240.5172, 91.34132
240.9993, 90.83589
241.4815, 90.57633
241.9636, 90.68874
242.4457, 90.81534
242.9278, 90.70127
243.4099, 90.41032
243.8920, 90.04845
244.3742, 89.61624
244.8563, 89.15030
245.3384, 88.73943
245.8205, 88.40427
246.3026, 88.08059
246.7847, 87.61008
247.2668, 86.74236
247.7490, 86.66235
248.2311, 86.36629
248.7132, 85.86565
249.1953, 84.54778
249.6774, 84.28521
250.1595, 83.59972
250.6417, 82.89678
251.1238, 82.78275
251.6059, 81.58374
252.0880, 81.46037
252.5701, 80.90762
253.0522, 80.55139
253.5344, 79.76952
254.0165, 79.33923
254.4986, 79.32932
254.9807, 79.33367
255.4628, 78.92809
255.9449, 77.87572
256.4271, 76.51970
256.9092, 75.66028
257.3913, 75.48884
257.8734, 75.49937
258.3555, 75.82957
258.8376, 76.14120
259.3198, 76.01202
259.8019, 75.27022
260.2840, 74.30702
260.7661, 73.97845
261.2482, 74.68257
261.7303, 75.29061
262.2125, 75.80866
262.6946, 76.12056
263.1767, 76.01994
263.6588, 75.46928
264.1409, 74.77578
264.6230, 74.50639
265.1052, 74.95736
265.5873, 75.26810
266.0694, 75.29520
266.5515, 75.25849
267.0336, 75.33474
267.5157, 75.55581
267.9979, 75.81028
268.4800, 75.92276
268.9621, 75.79057
269.4442, 75.73733
269.9263, 75.80738
270.4084, 75.90775
270.8906, 75.94598
271.3727, 75.92817
271.8548, 75.96269
272.3369, 76.19561
272.8190, 76.70799
273.3011, 77.14991
273.7833, 77.58425
274.2654, 77.91458
274.7475, 78.04173
275.2296, 77.99197
275.7117, 77.89939
276.1938, 77.91180
276.6760, 78.08003
277.1581, 78.02406
277.6402, 77.62711
278.1223, 77.17078
278.6044, 76.72763
279.0865, 76.32961
279.5686, 76.04989
280.0508, 75.98734
280.5329, 76.15526
281.0150, 75.89292
281.4971, 74.77082
281.9792, 73.74325
282.4613, 73.25997
282.9435, 73.16203
283.4256, 73.03762
283.9077, 72.62559
284.3898, 71.94910
284.8719, 71.23619
285.3540, 70.57083
285.8362, 69.78051
286.3183, 68.66513
286.8004, 67.40746
287.2825, 66.34932
287.7646, 65.67851
288.2467, 65.28764
288.7289, 64.79256
289.2110, 64.19274
289.6931, 63.50422
290.1752, 62.57011
290.6573, 61.59193
291.1394, 60.89473
291.6216, 60.61318
292.1037, 60.56286
292.5858, 60.35643
293.0679, 59.84267
293.5500, 59.46882
294.0321, 59.44224
294.5143, 59.50660
294.9964, 59.34184
295.4785, 58.86210
295.9606, 58.27983
296.4427, 57.89928
296.9248, 57.81279
297.4070, 57.65958
297.8891, 57.29738
298.3712, 56.94121
298.8533, 56.85123
299.3354, 57.04578
299.8175, 57.22968
300.2997, 57.07579
300.7818, 56.50731
301.2639, 56.12244
301.7460, 56.07601
302.2281, 56.08991
302.7102, 55.92920
303.1924, 55.61394
303.6745, 55.38796
304.1566, 55.47565
304.6387, 55.85244
305.1208, 56.00574
305.6029, 55.75620
306.0851, 55.48118
306.5672, 55.36606
307.0493, 55.38344
307.5314, 55.42184
308.0135, 55.41452
308.4956, 55.38406
308.9778, 55.43055
309.4599, 55.58556
309.9420, 55.76146
310.4241, 55.95873
310.9062, 56.15537
311.3883, 56.31468
311.8705, 56.42692
312.3526, 56.47600
312.8347, 56.39832
313.3168, 56.11198
313.7989, 55.91105
314.2810, 55.88593
314.7632, 55.96728
315.2453, 56.06190
315.7274, 56.14374
316.2095, 56.25177
316.6916, 56.46081
317.1737, 56.81506
317.6559, 57.06977
318.1380, 57.10492
318.6201, 57.09220
319.1022, 57.22175
319.5843, 57.50974
320.0664, 57.78766
320.5485, 57.90549
321.0306, 57.84415
321.5128, 57.71586
321.9949, 57.29868
322.4770, 57.00023
322.9591, 57.24558
323.4412, 57.91776
323.9233, 58.42359
324.4055, 58.34145
324.8876, 57.75066
325.3697, 57.28305
325.8518, 57.01477
326.3339, 56.76386
326.8160, 56.46171
327.2982, 56.12652
327.7803, 55.78500
328.2624, 55.43967
328.7445, 55.11992
329.2266, 54.92342
329.7087, 54.98729
330.1909, 54.91331
330.6730, 54.54522
331.1551, 54.02801
331.6372, 53.50105
332.1193, 53.00222
332.6014, 52.62027
333.0836, 52.51753
333.5657, 52.85332
334.0478, 52.99145
334.5299, 52.82055
335.0120, 52.50473
335.4941, 52.10986
335.9763, 51.67252
336.4584, 51.31661
336.9405, 51.18736
337.4226, 51.31374
337.9047, 51.27693
338.3868, 50.88723
338.8690, 50.53060
339.3511, 50.42639
339.8332, 50.52904
340.3153, 50.68958
340.7974, 50.83484
341.2795, 50.94392
341.7617, 50.86354
342.2438, 50.34218
342.7259, 49.95695
343.2080, 49.86144
343.6901, 49.97598
344.1722, 50.24366
344.6544, 50.64782
345.1365, 51.04739
345.6186, 51.14567
346.1007, 50.74459
346.5828, 50.30762
347.0649, 49.70414
347.5471, 49.14544
348.0292, 48.84164
348.5113, 48.82219
348.9934, 48.94177
349.4755, 49.03431
349.9576, 49.09159
350.4398, 49.15525
350.9219, 49.27231
351.4040, 49.35296
351.8861, 49.31786
352.3682, 49.19728
352.8503, 49.08932
353.3325, 49.07033
353.8146, 49.13390
354.2967, 49.18184
354.7788, 49.29817
355.2609, 49.30328
355.7430, 49.03571
356.2252, 48.66560
356.7073, 48.37884
357.1894, 48.26154
357.6715, 47.98843
358.1536, 48.62544
358.6357, 49.04628
359.1179, 49.26258
359.5999, 48.66158
360.0821, 49.11594
360.5642, 49.14736
361.0463, 49.16143
361.5284, 49.76430
362.0105, 49.28219
362.4926, 49.75328
362.9748, 49.87761
363.4569, 49.98199
363.9390, 50.15751
364.4211, 50.53929
364.9032, 51.03963
365.3853, 51.41872
365.8675, 51.46923
366.3496, 51.23706
366.8317, 51.16639
367.3138, 51.38416
367.7959, 51.61346
368.2780, 51.76711
368.7602, 51.90552
369.2423, 52.15209
369.7244, 52.56796
370.2065, 52.98558
370.6886, 53.00978
371.1707, 52.38485
371.6529, 52.01710
372.1350, 52.11642
372.6171, 52.43336
373.0992, 52.90826
373.5813, 53.48782
374.0634, 54.00164
374.5456, 54.24135
375.0277, 54.19331
375.5098, 54.15618
375.9919, 54.03354
376.4740, 54.05256
376.9561, 54.49232
377.4383, 55.14965
377.9204, 55.55024
378.4025, 55.33813
378.8846, 54.73354
379.3667, 54.37664
379.8488, 54.38912
380.3310, 54.33343
380.8131, 53.95939
381.2952, 53.46131
381.7773, 53.02891
382.2594, 52.71494
382.7415, 52.44997
383.2237, 52.19923
383.7058, 51.96163
384.1879, 51.59509
384.6700, 50.93716
385.1521, 50.27224
385.6342, 49.86100
386.1164, 49.69353
386.5985, 49.56688
387.0806, 49.35029
387.5627, 49.09822
388.0448, 48.96541
388.5269, 49.00388
389.0091, 49.02868
389.4912, 48.85445
389.9733, 48.56417
390.4554, 48.33656
390.9375, 48.18097
391.4196, 48.12547
391.9018, 48.25269
392.3839, 48.54039
392.8660, 48.77104
393.3481, 48.82006
393.8302, 48.78529
394.3123, 48.89360
394.7945, 49.23501
395.2766, 49.42510
395.7587, 49.20240
396.2408, 48.75744
396.7229, 48.38866
397.2050, 48.15379
397.6872, 48.04547
398.1693, 48.07434
398.6514, 48.25412
399.1335, 48.45575
399.6156, 48.81159
400.0977, 49.07845
400.5798, 49.01689
401.0620, 48.68432
401.5441, 48.36096
402.0262, 48.22667
402.5083, 48.23383
402.9904, 48.14471
403.4725, 47.80959
403.9547, 47.57756
404.4368, 47.64339
404.9189, 47.79945
405.4010, 47.75723
405.8831, 47.43394
406.3652, 47.00420
406.8474, 46.73075
407.3295, 46.70704
407.8116, 46.57288
408.2937, 46.19080
408.7758, 45.83348
409.2579, 45.63634
409.7401, 45.60090
410.2222, 45.69536
410.7043, 45.92505
411.1864, 46.25091
411.6685, 46.33250
412.1506, 45.82957
412.6328, 45.49652
413.1149, 45.55341
413.5970, 45.78428
414.0791, 45.95539
414.5612, 45.98572
415.0433, 45.94653
415.5255, 45.95000
416.0076, 46.01645
416.4897, 46.05530
416.9718, 45.99982
417.4539, 45.96814
417.9360, 46.04263
418.4182, 46.19817
418.9003, 46.33645
419.3824, 46.37452
419.8645, 46.33986
420.3466, 46.36377
420.8287, 46.48107
421.3109, 46.58362
421.7930, 46.58895
422.2751, 46.57236
422.7572, 46.63884
423.2393, 46.83665
423.7214, 47.02771
424.2036, 47.02480
424.6857, 46.83778
425.1678, 46.74007
425.6499, 46.87093
426.1320, 47.00813
426.6141, 46.85757
427.0963, 46.47255
427.5784, 46.28633
428.0605, 46.66478
428.5426, 47.27836
429.0247, 47.61219
429.5068, 47.63174
429.9890, 47.55458
430.4711, 47.46835
430.9532, 47.39916
431.4353, 47.41143
431.9174, 47.53318
432.3995, 47.69526
432.8817, 47.90472
433.3638, 48.12494
433.8459, 48.27617
434.3280, 48.33053
434.8101, 48.32389
435.2922, 48.29654
435.7744, 48.23788
436.2565, 48.20269
436.7386, 48.16859
437.2207, 48.17719
437.7028, 48.26257
438.1849, 48.41947
438.6671, 48.65189
439.1492, 48.99327
439.6313, 49.38012
440.1134, 49.42638
440.5955, 48.65228
441.0776, 48.12844
441.5598, 48.12031
442.0418, 48.34251
442.5240, 48.49259
443.0061, 48.49708
443.4882, 48.51275
443.9703, 48.79156
444.4524, 49.46442
444.9345, 49.78748
445.4167, 49.34052
445.8988, 48.95462
446.3809, 48.96110
446.8630, 49.24548
447.3451, 49.57524
447.8272, 49.84292
448.3094, 50.01131
448.7915, 49.92327
449.2736, 49.41222
449.7557, 49.12220
450.2378, 49.36718
450.7199, 49.78667
451.2021, 50.14963
451.6842, 50.42649
452.1663, 50.70031
452.6484, 51.06636
453.1305, 51.49153
453.6126, 51.82046
454.0948, 52.03620
454.5769, 52.17010
455.0590, 52.17453
455.5411, 52.11998
456.0232, 52.11884
456.5053, 52.12312
456.9875, 52.28839
457.4696, 52.91280
457.9517, 53.86603
458.4338, 54.52614
458.9159, 54.61961
459.3980, 54.46791
459.8802, 54.53741
460.3623, 54.82949
460.8444, 55.19028
461.3265, 55.61489
461.8086, 56.08093
462.2907, 56.60594
462.7729, 57.16932
463.2550, 57.67213
463.7371, 58.04692
464.2192, 58.30738
464.7013, 58.54320
465.1834, 58.67591
465.6656, 58.88483
466.1477, 59.22466
466.6298, 59.64101
467.1119, 60.10879
467.5940, 60.60841
468.0761, 61.06653
468.5583, 61.39278
469.0404, 61.57555
469.5225, 61.71642
470.0046, 61.95097
470.4867, 61.99809
470.9688, 61.64526
471.4510, 61.07048
471.9331, 60.56972
472.4152, 60.28913
472.8973, 60.10601
473.3794, 59.79613
473.8615, 59.34806
474.3437, 58.82628
474.8258, 58.32530
475.3079, 57.67478
475.7900, 56.60852
476.2721, 55.22903
476.7542, 54.04634
477.2364, 53.54393
477.7185, 53.42955
478.2006, 52.99526
478.6827, 52.18333
479.1648, 51.40266
479.6469, 50.95417
480.1291, 50.62272
480.6112, 49.97834
481.0933, 48.83500
481.5754, 47.85493
482.0575, 47.56109
482.5396, 47.61558
483.0217, 47.36356
483.5038, 46.66709
483.9860, 45.84753
484.4681, 45.19059
484.9502, 44.70753
485.4323, 44.24447
485.9144, 43.75093
486.3965, 43.32939
486.8787, 43.05697
487.3608, 42.87900
487.8429, 42.67542
488.3250, 42.39744
488.8071, 42.14170
489.2892, 42.10556
489.7714, 42.47791
490.2535, 42.59845
490.7356, 42.32612
491.2177, 41.97776
491.6998, 41.71663
492.1819, 41.51539
492.6641, 41.24530
493.1462, 40.79889
493.6283, 40.28920
494.1104, 40.09389
494.5925, 40.38037
495.0746, 40.52714
495.5568, 40.18307
496.0389, 39.79159
496.5210, 39.69358
497.0031, 39.89820
497.4852, 40.12628
497.9673, 40.17929
498.4495, 40.10678
498.9316, 40.04020
499.4137, 39.98476
499.8958, 39.93398
500.3779, 39.92457
500.8600, 39.89988
501.3422, 39.72308
501.8243, 39.26393
502.3064, 38.92185
502.7885, 39.00243
503.2706, 39.30608
503.7527, 39.46852
504.2349, 39.40991
504.7170, 39.28438
505.1991, 39.26091
505.6812, 39.35015
506.1633, 39.24238
506.6454, 38.65575
507.1276, 38.20668
507.6097, 38.20293
508.0918, 38.45962
508.5739, 38.71151
509.0560, 38.85514
509.5381, 38.90441
510.0203, 38.86928
510.5024, 38.71813
510.9845, 38.59094
511.4666, 38.47140
511.9487, 38.39266
512.4308, 38.41059
512.9130, 38.47405
513.3951, 38.46030
513.8772, 38.27545
514.3593, 38.07937
514.8414, 38.23535
515.3235, 38.81397
515.8057, 39.20776
516.2878, 39.22351
516.7699, 39.05591
517.2520, 38.80914
517.7341, 38.50978
518.2162, 38.32325
518.6984, 38.40923
519.1805, 38.59343
519.6626, 38.68640
520.1447, 38.68120
520.6268, 38.51501
521.1089, 38.06677
521.5911, 37.54613
522.0732, 37.52356
522.5553, 38.25452
523.0374, 38.65014
523.5195, 38.22731
524.0016, 37.60602
524.4838, 37.31298
524.9659, 37.36967
525.4480, 37.54725
525.9301, 37.69485
526.4122, 37.80884
526.8943, 37.87140
527.3765, 37.86551
527.8586, 37.82660
528.3407, 37.69488
528.8228, 37.57660
529.3049, 37.55269
529.7870, 37.63393
530.2692, 37.79452
530.7513, 38.07089
531.2334, 38.41449
531.7155, 38.50624
532.1976, 38.23347
532.6797, 37.97099
533.1619, 37.89154
533.6440, 37.89588
534.1261, 37.89579
534.6082, 37.88008
535.0903, 37.84887
535.5724, 37.81157
536.0546, 37.75695
536.5367, 37.60777
537.0188, 37.33862
537.5009, 37.20506
537.9830, 37.44941
538.4651, 37.99260
538.9473, 38.36606
539.4294, 38.58074
539.9115, 38.63191
540.3936, 38.28492
540.8757, 37.88301
541.3578, 37.92863
541.8400, 38.47880
542.3221, 39.11845
542.8042, 39.43228
543.2863, 39.41701
543.7684, 39.27896
544.2505, 38.80680
544.7326, 38.46903
545.2147, 38.40653
545.6968, 38.49642
546.1790, 38.64035
546.6611, 38.80230
547.1432, 38.91638
547.6253, 38.84548
548.1074, 38.61893
548.5895, 38.61494
549.0717, 38.96988
549.5538, 39.28521
550.0359, 39.25333
550.5180, 39.04647
551.0001, 38.92921
551.4822, 39.00586
551.9644, 39.02364
552.4465, 38.67487
552.9286, 38.18266
553.4107, 38.08004
553.8928, 38.47839
554.3749, 38.91373
554.8571, 38.96006
555.3392, 38.62846
555.8213, 38.38746
556.3034, 38.23547
556.7855, 38.16012
557.2676, 38.22942
557.7498, 38.33888
558.2319, 38.36210
558.7140, 38.27277
559.1961, 38.13898
559.6782, 38.03727
560.1603, 37.96914
560.6425, 37.85210
561.1246, 37.62506
561.6067, 37.44163
562.0888, 37.34815
562.5709, 37.31755
563.0530, 37.32696
563.5352, 37.37223
564.0173, 37.42955
564.4994, 37.48280
564.9815, 37.53205
565.4636, 37.61480
565.9457, 37.76751
566.4279, 37.76477
566.9100, 37.33012
567.3921, 36.63982
567.8742, 36.32532
568.3563, 36.63586
568.8384, 36.90308
569.3206, 36.81196
569.8027, 36.59875
570.2848, 36.58124
570.7669, 36.78687
571.2490, 36.99069
571.7311, 36.98492
572.2133, 36.79672
572.6954, 36.72741
573.1775, 36.90482
573.6596, 37.02779
574.1417, 37.06950
574.6238, 37.03677
575.1060, 36.86029
575.5881, 36.57715
576.0702, 36.41607
576.5523, 36.69050
577.0344, 37.22904
577.5165, 37.32658
577.9987, 36.86492
578.4808, 36.48692
578.9629, 36.55252
579.4450, 36.79229
579.9271, 36.81434
580.4092, 36.58227
580.8914, 36.35071
581.3735, 36.14278
581.8556, 36.02921
582.3377, 36.16482
582.8198, 36.50414
583.3019, 36.76649
583.7841, 36.78026
584.2662, 36.63287
584.7483, 36.56659
585.2304, 36.66343
585.7125, 36.70720
586.1946, 36.67668
586.6768, 36.61554
