##NAMES=Artroeite
##RRUFFID=R100034
##IDEAL CHEMISTRY=Pb^2+^AlF_3_(OH)_2_
##LOCALITY=Grand Reef mine, Klondyke, Aravaipa District, Graham County, Arizona, USA
##OWNER=RRUFF
##SOURCE=Natural History Museum of Los Angeles County
##DESCRIPTION=Colorless fragments from the type specimen, associated with calcioaravaipaite R100033.  Photos of type specimen are courtesy of LACMNH.
##STATUS=The identification of this mineral has been confirmed by single-crystal X-ray diffraction.
##URL=rruff.info/R100034
91.53320, 411.5197
92.01532, 404.9431
92.49744, 401.5606
92.97955, 409.4624
93.46167, 420.5386
93.94379, 426.0330
94.42590, 429.6537
94.90802, 428.9922
95.39014, 419.9169
95.87225, 401.6922
96.35437, 380.0364
96.83649, 355.2841
97.31860, 329.9241
97.80072, 306.3990
98.28284, 285.3878
98.76495, 266.5261
99.24707, 250.1560
99.72919, 236.6825
100.2113, 225.2292
100.6934, 215.3861
101.1755, 207.1337
101.6577, 200.7745
102.1398, 196.6615
102.6219, 195.2480
103.1040, 193.6535
103.5861, 191.6734
104.0682, 189.6837
104.5504, 187.6523
105.0325, 185.6615
105.5146, 184.0822
105.9967, 183.4861
106.4788, 184.2365
106.9609, 185.0732
107.4431, 185.8216
107.9252, 186.6373
108.4073, 187.7104
108.8894, 189.0881
109.3715, 190.7878
109.8536, 192.6665
110.3358, 194.5015
110.8179, 197.1365
111.3000, 201.1322
111.7821, 206.4163
112.2642, 212.3011
112.7463, 218.5241
113.2285, 225.3301
113.7106, 233.1299
114.1927, 242.1988
114.6748, 251.6266
115.1569, 260.0779
115.6390, 267.4097
116.1212, 274.2459
116.6033, 281.1891
117.0854, 287.7192
117.5675, 293.1641
118.0496, 297.0983
118.5317, 299.8892
119.0139, 303.2393
119.4960, 307.0855
119.9781, 311.6790
120.4602, 317.5386
120.9423, 324.1778
121.4244, 330.7322
121.9066, 336.5025
122.3887, 341.4016
122.8708, 346.9208
123.3529, 353.1157
123.8350, 359.7243
124.3171, 366.5903
124.7993, 373.7306
125.2814, 381.1934
125.7635, 388.9667
126.2456, 397.0402
126.7277, 406.3267
127.2098, 417.7741
127.6920, 430.0111
128.1741, 441.5265
128.6562, 451.8240
129.1383, 462.0738
129.6204, 473.8125
130.1025, 486.8555
130.5847, 500.3575
131.0668, 514.4954
131.5489, 528.9420
132.0310, 542.6807
132.5131, 556.3594
132.9952, 568.1988
133.4774, 578.2836
133.9595, 586.5309
134.4416, 590.3361
134.9237, 587.3844
135.4058, 577.4258
135.8879, 562.2083
136.3701, 538.9716
136.8522, 512.4619
137.3343, 484.4634
137.8164, 455.3686
138.2985, 426.0234
138.7806, 397.2573
139.2628, 367.9530
139.7449, 341.6283
140.2270, 318.0079
140.7091, 297.0895
141.1912, 279.0702
141.6733, 264.1178
142.1555, 251.7387
142.6376, 240.5387
143.1197, 230.5597
143.6018, 221.8479
144.0839, 214.6167
144.5660, 208.6523
145.0482, 203.6917
145.5303, 199.6500
146.0124, 196.4477
146.4945, 193.3983
146.9766, 190.1423
147.4587, 187.3425
147.9409, 185.3666
148.4230, 184.1328
148.9051, 183.2901
149.3872, 182.7605
149.8693, 182.4396
150.3514, 181.7543
150.8336, 180.1796
151.3157, 178.5549
151.7978, 177.7849
152.2799, 178.0017
152.7620, 178.2138
153.2441, 177.1438
153.7263, 175.5577
154.2084, 174.8399
154.6905, 176.0909
155.1726, 178.4347
155.6547, 179.9366
156.1368, 180.3262
156.6190, 180.2767
157.1011, 179.9816
157.5832, 179.5820
158.0653, 179.3591
158.5474, 179.5580
159.0295, 180.1421
159.5117, 180.6515
159.9938, 181.4491
160.4759, 181.7553
160.9580, 181.1066
161.4401, 179.7036
161.9222, 178.0698
162.4044, 176.6430
162.8865, 175.4280
163.3686, 174.3596
163.8507, 174.1334
164.3328, 173.4568
164.8149, 171.4397
165.2971, 168.2210
165.7792, 164.7895
166.2613, 162.3110
166.7434, 161.2949
167.2255, 159.8237
167.7076, 158.0006
168.1898, 155.7347
168.6719, 152.7152
169.1540, 148.9473
169.6361, 145.0964
170.1182, 142.1607
170.6003, 140.7503
171.0825, 138.7109
171.5646, 135.1729
172.0467, 131.2662
172.5288, 128.4026
173.0109, 127.0565
173.4930, 126.3623
173.9752, 124.8295
174.4573, 122.3364
174.9394, 120.1073
175.4215, 118.4338
175.9036, 117.2716
176.3857, 116.6340
176.8679, 116.7446
177.3500, 117.0369
177.8321, 116.7474
178.3142, 115.8529
178.7963, 114.8186
179.2784, 113.7636
179.7606, 112.7212
180.2427, 112.0359
180.7248, 111.8425
181.2069, 112.0567
181.6890, 112.6869
182.1711, 113.7539
182.6533, 114.8289
183.1354, 115.4293
183.6175, 115.4776
184.0996, 115.6690
184.5817, 116.3387
185.0638, 117.0968
185.5460, 117.7043
186.0281, 118.1127
186.5102, 118.4680
186.9923, 119.0711
187.4744, 120.2231
187.9565, 120.7813
188.4387, 119.6411
188.9208, 118.5100
189.4029, 118.5820
189.8850, 120.2287
190.3671, 123.0337
190.8492, 126.3629
191.3314, 130.9113
191.8135, 134.7781
192.2956, 136.7675
192.7777, 138.6202
193.2598, 141.9151
193.7419, 147.2546
194.2241, 154.0647
194.7062, 160.9525
195.1883, 168.2028
195.6704, 175.2326
196.1525, 181.7478
196.6346, 188.1048
197.1168, 194.9068
197.5989, 202.4527
198.0810, 210.2142
198.5631, 216.5817
199.0452, 220.3939
199.5273, 224.4633
200.0095, 229.6284
200.4916, 235.2718
200.9737, 240.2944
201.4558, 244.1084
201.9379, 247.2606
202.4200, 251.5266
202.9022, 257.6034
203.3843, 263.3058
203.8664, 267.7452
204.3485, 271.2082
204.8306, 274.3854
205.3127, 277.4359
205.7949, 280.5265
206.2770, 283.9317
206.7591, 287.6537
207.2412, 291.6559
207.7233, 295.7438
208.2054, 300.0170
208.6876, 304.9493
209.1697, 310.5645
209.6518, 317.2174
210.1339, 325.0177
210.6160, 333.9123
211.0981, 344.0298
211.5803, 355.6534
212.0624, 368.7583
212.5445, 382.6821
213.0266, 398.2178
213.5087, 413.6939
213.9908, 428.3662
214.4730, 442.4648
214.9551, 453.4305
215.4372, 458.5858
215.9193, 457.8972
216.4014, 451.7102
216.8836, 438.3311
217.3657, 420.1186
217.8478, 396.7273
218.3299, 368.0782
218.8120, 337.7239
219.2941, 310.1978
219.7763, 285.4009
220.2584, 264.0474
220.7405, 247.3893
221.2226, 233.1385
221.7047, 219.8998
222.1868, 207.2849
222.6690, 195.7205
223.1511, 185.9551
223.6332, 178.3132
224.1153, 171.8114
224.5974, 166.5618
225.0795, 162.0696
225.5617, 158.0535
226.0438, 154.4179
226.5259, 151.1746
227.0080, 148.3404
227.4901, 145.9603
227.9722, 144.0120
228.4544, 142.7822
228.9365, 141.7404
229.4186, 140.4410
229.9007, 138.7793
230.3828, 137.0257
230.8649, 135.6493
231.3471, 134.6457
231.8292, 134.1107
232.3113, 134.3035
232.7934, 134.7668
233.2755, 135.1246
233.7576, 135.2729
234.2398, 135.3603
234.7219, 135.5949
235.2040, 135.6648
235.6861, 136.5799
236.1682, 139.0727
236.6503, 141.9936
237.1325, 144.2709
237.6146, 145.6214
238.0967, 146.5662
238.5788, 147.9498
239.0609, 150.4096
239.5430, 151.6672
240.0252, 151.1374
240.5073, 149.6129
240.9894, 147.8423
241.4715, 145.9974
241.9536, 143.4428
242.4357, 141.0994
242.9179, 137.5120
243.4000, 133.9954
243.8821, 130.1011
244.3642, 126.5720
244.8463, 124.4946
245.3284, 124.1320
245.8106, 124.2283
246.2927, 123.1515
246.7748, 120.8283
247.2569, 119.2123
247.7390, 119.0378
248.2211, 119.5222
248.7033, 119.7091
249.1854, 119.4253
249.6675, 119.1079
250.1496, 119.3338
250.6317, 119.9985
251.1138, 120.3313
251.5960, 119.7069
252.0781, 118.8614
252.5602, 118.7437
253.0423, 119.4779
253.5244, 120.7060
254.0065, 122.5324
254.4887, 124.6744
254.9708, 126.2819
255.4529, 126.6159
255.9350, 126.5045
256.4171, 127.1555
256.8992, 128.7293
257.3813, 130.4868
257.8635, 131.9904
258.3456, 133.3150
258.8277, 134.5472
259.3098, 135.3596
259.7919, 136.2879
260.2740, 138.4063
260.7562, 142.0853
261.2383, 145.3440
261.7204, 146.5720
262.2025, 146.8149
262.6846, 147.2761
263.1667, 148.3092
263.6489, 149.6906
264.1310, 151.3121
264.6131, 153.3597
265.0952, 154.8336
265.5773, 154.7335
266.0594, 154.0371
266.5416, 153.6303
267.0237, 153.7915
267.5058, 154.2012
267.9879, 154.5266
268.4700, 154.8253
268.9521, 154.7687
269.4343, 154.0547
269.9164, 153.0269
270.3985, 151.7653
270.8806, 150.2435
271.3627, 148.9328
271.8448, 148.5539
272.3270, 149.3063
272.8091, 149.9394
273.2912, 149.9204
273.7733, 149.8392
274.2554, 149.9996
274.7375, 150.4653
275.2197, 151.2310
275.7018, 152.4652
276.1839, 154.2996
276.6660, 155.7076
277.1481, 156.1514
277.6302, 156.3913
278.1124, 156.9271
278.5945, 157.7201
279.0766, 158.2072
279.5587, 157.7342
280.0408, 156.1972
280.5229, 154.6575
281.0051, 153.7128
281.4872, 152.2579
281.9693, 149.5627
282.4514, 145.8587
282.9335, 141.9819
283.4156, 138.7769
283.8978, 136.2724
284.3799, 133.0660
284.8620, 128.3210
285.3441, 123.6761
285.8262, 119.3804
286.3083, 115.6153
286.7905, 112.7244
287.2726, 111.2121
287.7547, 110.8579
288.2368, 109.5059
288.7189, 105.8413
289.2010, 102.7211
289.6832, 101.1409
290.1653, 100.5466
290.6474, 100.1038
291.1295, 99.37175
291.6116, 98.38955
292.0938, 97.31062
292.5759, 96.11330
293.0580, 94.84200
293.5401, 93.16375
294.0222, 91.54891
294.5043, 90.64790
294.9865, 90.77293
295.4686, 91.44055
295.9507, 91.46294
296.4328, 90.48292
296.9149, 89.45152
297.3970, 88.26008
297.8792, 87.20071
298.3613, 86.63924
298.8434, 86.65356
299.3255, 86.86166
299.8076, 86.58170
300.2897, 85.46605
300.7719, 84.64877
301.2540, 84.19319
301.7361, 83.98895
302.2182, 84.19775
302.7003, 84.72298
303.1824, 85.04000
303.6646, 84.29655
304.1467, 81.87119
304.6288, 80.68787
305.1109, 81.70706
305.5930, 83.04005
306.0751, 84.04321
306.5573, 84.58884
307.0394, 84.69739
307.5215, 84.29146
308.0036, 83.30714
308.4857, 82.72164
308.9678, 82.96022
309.4500, 83.19563
309.9321, 83.13936
310.4142, 82.89838
310.8963, 82.73897
311.3784, 82.85704
311.8605, 83.20541
312.3427, 83.39906
312.8248, 83.02798
313.3069, 82.99986
313.7890, 83.86436
314.2711, 85.04653
314.7532, 85.74719
315.2354, 85.54851
315.7175, 84.80839
316.1996, 84.56322
316.6817, 85.13367
317.1638, 85.72912
317.6459, 86.17346
318.1281, 86.64426
318.6102, 87.39787
319.0923, 88.48787
319.5744, 89.60162
320.0565, 90.10179
320.5386, 89.37208
321.0208, 89.48595
321.5029, 91.03300
321.9850, 92.92122
322.4671, 94.58125
322.9492, 95.89857
323.4313, 96.98631
323.9135, 97.95424
324.3956, 98.77256
324.8777, 99.61414
325.3598, 100.3221
325.8419, 101.2000
326.3240, 102.4253
326.8062, 103.9392
327.2883, 105.6099
327.7704, 107.4396
328.2525, 109.3813
328.7346, 110.6376
329.2167, 110.2948
329.6989, 110.2874
330.1810, 111.1689
330.6631, 112.6590
331.1452, 114.3397
331.6273, 116.0042
332.1094, 117.6593
332.5916, 119.3355
333.0737, 121.1010
333.5558, 122.7631
334.0379, 124.0768
334.5200, 125.3999
335.0021, 127.0862
335.4843, 129.2498
335.9664, 131.6602
336.4485, 133.9987
336.9306, 136.3693
337.4127, 138.3578
337.8948, 139.4741
338.3770, 140.5603
338.8591, 142.3774
339.3412, 144.8450
339.8233, 147.0224
340.3055, 147.8029
340.7876, 147.0188
341.2697, 146.5101
341.7518, 146.5688
342.2339, 146.6360
342.7160, 146.6525
343.1982, 146.5123
343.6803, 146.0153
344.1624, 144.9874
344.6445, 143.5012
345.1266, 141.8254
345.6087, 139.4571
346.0909, 137.7764
346.5730, 137.6266
347.0551, 138.1688
347.5372, 138.3261
348.0193, 137.6140
348.5014, 136.4906
348.9836, 135.7226
349.4657, 135.3076
349.9478, 135.2759
350.4299, 136.1961
350.9120, 137.1609
351.3941, 137.3566
351.8763, 136.6512
352.3584, 135.8571
352.8405, 135.7416
353.3226, 136.3115
353.8047, 137.3416
354.2868, 139.3030
354.7690, 141.2092
355.2511, 142.5371
355.7332, 143.3005
356.2153, 143.6333
356.6974, 143.4271
357.1795, 142.8291
357.6617, 142.4407
358.1438, 142.3839
358.6259, 142.2990
359.1080, 142.0492
359.5901, 141.6328
360.0722, 141.0306
360.5544, 140.2558
361.0365, 139.2704
361.5186, 137.9961
362.0007, 136.4279
362.4828, 134.6300
362.9649, 132.3604
363.4471, 130.0176
363.9292, 128.0358
364.4113, 126.4813
364.8934, 125.1772
365.3755, 124.1293
365.8576, 123.2678
366.3398, 122.2099
366.8219, 120.8473
367.3040, 119.2719
367.7861, 117.5401
368.2682, 115.6684
368.7503, 113.8057
369.2325, 112.0241
369.7146, 110.2752
370.1967, 108.4771
370.6788, 106.6125
371.1609, 104.7345
371.6430, 102.9446
372.1252, 101.1764
372.6073, 99.24863
373.0894, 96.90945
373.5715, 94.59016
374.0536, 92.65798
374.5357, 91.07896
375.0179, 89.61020
375.5000, 88.17416
375.9821, 86.76827
376.4642, 85.35449
376.9463, 83.87774
377.4284, 82.52575
377.9106, 81.38249
378.3927, 80.41113
378.8748, 79.48508
379.3569, 78.54533
379.8390, 77.86114
380.3211, 77.92403
380.8033, 78.94605
381.2854, 79.43909
381.7675, 78.87176
382.2496, 78.04330
382.7317, 77.64010
383.2138, 77.65244
383.6960, 77.52092
384.1781, 76.70238
384.6602, 75.30685
385.1423, 74.92651
385.6244, 76.32188
386.1065, 77.67490
386.5887, 78.64271
387.0708, 79.12006
387.5529, 78.74583
388.0350, 77.31075
388.5171, 75.51585
388.9992, 74.92036
389.4814, 76.78732
389.9635, 77.96545
390.4456, 78.11286
390.9277, 77.81290
391.4098, 77.45176
391.8919, 77.12802
392.3741, 76.77978
392.8562, 76.25674
393.3383, 75.41317
393.8204, 75.54928
394.3025, 77.82285
394.7846, 79.80733
395.2668, 80.49357
395.7489, 80.30717
396.2310, 80.12605
396.7131, 80.46152
397.1952, 81.16270
397.6773, 81.69585
398.1595, 81.88500
398.6416, 82.20069
399.1237, 82.80830
399.6058, 83.48769
400.0879, 84.01943
400.5700, 84.36592
401.0522, 84.70190
401.5343, 85.32195
402.0164, 86.32356
402.4985, 86.99441
402.9806, 86.72222
403.4627, 86.67748
403.9449, 87.53634
404.4270, 89.04693
404.9091, 90.53503
405.3912, 91.67110
405.8733, 92.44038
406.3554, 92.66710
406.8376, 92.02843
407.3197, 91.66110
407.8018, 92.38432
408.2839, 93.43492
408.7660, 93.95012
409.2481, 93.63881
409.7303, 93.28634
410.2124, 93.92168
410.6945, 95.44891
411.1766, 96.36465
411.6587, 96.21016
412.1408, 95.50207
412.6230, 94.52055
413.1051, 93.34290
413.5872, 92.59943
414.0693, 93.11185
414.5514, 94.01450
415.0335, 93.67510
415.5157, 91.87560
415.9978, 90.26363
416.4799, 89.98817
416.9620, 90.72543
417.4441, 91.33101
417.9262, 91.80061
418.4084, 92.08546
418.8905, 92.07963
419.3726, 91.86405
419.8547, 91.63541
420.3368, 91.45309
420.8189, 91.30497
421.3011, 91.12051
421.7832, 90.79282
422.2653, 90.87917
422.7474, 91.99831
423.2295, 93.18000
423.7116, 93.44135
424.1938, 92.81383
424.6759, 92.14248
425.1580, 92.07899
425.6401, 92.59239
426.1222, 93.11301
426.6043, 93.43748
427.0865, 94.00015
427.5686, 95.08235
428.0507, 96.41550
428.5328, 97.64964
429.0149, 98.65035
429.4970, 99.47677
429.9792, 100.2311
430.4613, 100.8810
430.9434, 101.5337
431.4255, 102.7446
431.9076, 103.4899
432.3897, 102.9257
432.8719, 101.3110
433.3540, 99.59935
433.8361, 98.53610
434.3182, 98.03386
434.8003, 97.46431
435.2824, 96.93591
435.7646, 96.15471
436.2467, 94.74718
436.7288, 93.22876
437.2109, 92.25923
437.6930, 92.05154
438.1751, 91.97836
438.6573, 90.95809
439.1394, 88.85082
439.6215, 87.86172
440.1036, 89.06242
440.5857, 90.61977
441.0678, 91.15058
441.5500, 90.94620
442.0321, 91.16795
442.5142, 92.54892
442.9963, 94.66766
443.4784, 96.84389
443.9605, 99.08996
444.4427, 101.2883
444.9248, 103.2390
445.4069, 105.1788
445.8890, 107.5937
446.3711, 110.8330
446.8532, 113.6488
447.3354, 114.7911
447.8175, 115.0697
448.2996, 116.3847
448.7817, 119.2534
449.2638, 122.5429
449.7459, 124.9707
450.2281, 126.4711
450.7102, 128.4266
451.1923, 131.2637
451.6744, 134.2348
452.1565, 136.8648
452.6386, 139.2268
453.1208, 141.5966
453.6029, 144.1332
454.0850, 146.7574
454.5671, 149.2449
455.0492, 151.1724
455.5313, 153.5674
456.0135, 156.7478
456.4956, 160.1948
456.9777, 163.5069
457.4598, 166.6384
457.9419, 169.8547
458.4240, 173.4612
458.9062, 177.4601
459.3883, 181.2618
459.8704, 185.4052
460.3525, 188.6969
460.8346, 190.6610
461.3167, 191.7117
461.7989, 192.5019
462.2810, 193.2946
462.7631, 193.4728
463.2452, 192.0311
463.7273, 188.8252
464.2094, 184.8286
464.6916, 179.7721
465.1737, 174.2550
465.6558, 168.5641
466.1379, 162.7292
466.6200, 156.7018
467.1021, 150.3916
467.5843, 143.8940
468.0664, 137.2030
468.5485, 130.1453
469.0306, 124.0013
469.5127, 119.7638
469.9948, 116.5737
470.4770, 113.0682
470.9591, 109.0738
471.4412, 105.2550
471.9233, 101.8869
472.4054, 98.92785
472.8875, 96.33286
473.3697, 94.09258
473.8518, 92.25103
474.3339, 90.99162
474.8160, 90.30251
475.2981, 89.14356
475.7802, 86.90562
476.2624, 84.85519
476.7445, 83.79482
477.2266, 83.27922
477.7087, 82.30854
478.1908, 80.46410
478.6729, 78.47575
479.1551, 77.71564
479.6372, 78.92683
480.1193, 79.65231
480.6014, 79.86961
481.0835, 79.69698
481.5656, 79.04173
482.0478, 78.04343
482.5299, 76.96310
483.0120, 75.93459
483.4941, 75.02976
483.9762, 74.59535
484.4583, 74.88759
484.9405, 75.13558
485.4226, 75.14341
485.9047, 75.08427
486.3868, 75.14158
486.8689, 75.31737
487.3510, 75.37829
487.8332, 75.00871
488.3153, 74.32619
488.7974, 73.88061
489.2795, 73.68535
489.7616, 73.74757
490.2437, 74.43564
490.7259, 75.30211
491.2080, 75.61360
491.6901, 75.06654
492.1722, 74.28431
492.6543, 73.44520
493.1364, 72.71435
493.6186, 72.72495
494.1007, 73.77549
494.5828, 75.00583
495.0649, 75.41714
495.5470, 74.91833
496.0291, 74.45515
496.5113, 73.86912
496.9934, 73.49953
497.4755, 73.73396
497.9576, 74.34190
498.4397, 74.70657
498.9218, 74.51163
499.4040, 74.09288
499.8861, 74.23142
500.3682, 75.46612
500.8503, 76.26527
501.3324, 76.31184
501.8145, 76.24953
502.2967, 76.42654
502.7788, 76.85381
503.2609, 77.43710
503.7430, 78.17707
504.2251, 78.94848
504.7072, 79.14130
505.1894, 78.26613
505.6715, 77.94637
506.1536, 79.13411
506.6357, 80.67219
507.1178, 81.74392
507.5999, 82.23164
508.0821, 82.34567
508.5642, 81.83846
509.0463, 81.08506
509.5284, 81.38976
510.0105, 83.07615
510.4926, 84.70853
510.9748, 85.33266
511.4569, 85.27858
511.9390, 85.36349
512.4211, 85.68423
512.9032, 86.04089
513.3853, 86.31750
513.8674, 86.56864
514.3495, 86.87418
514.8317, 87.25476
515.3138, 87.70879
515.7959, 88.22250
516.2780, 88.93978
516.7601, 89.55266
517.2422, 90.66664
517.7244, 91.76201
518.2065, 92.93416
518.6886, 93.93764
519.1707, 94.22807
519.6528, 93.66500
520.1349, 93.01530
520.6171, 93.63004
521.0992, 96.04273
521.5813, 97.54342
522.0634, 97.38469
522.5455, 97.00463
523.0276, 96.72607
523.5098, 96.62740
523.9919, 96.80809
524.4740, 97.35397
524.9561, 98.07567
525.4382, 98.79275
525.9203, 99.50533
526.4025, 99.89687
526.8846, 99.66911
527.3667, 99.39146
527.8488, 99.56049
528.3309, 100.1428
528.8130, 101.0138
529.2952, 102.4239
529.7773, 103.8861
530.2594, 104.9351
530.7415, 105.6266
531.2236, 106.2165
531.7057, 106.7662
532.1879, 107.4259
532.6700, 108.5129
533.1521, 110.3218
533.6342, 111.9146
534.1163, 113.0036
534.5984, 114.0966
535.0806, 115.6258
535.5627, 117.4586
536.0448, 119.1329
536.5269, 120.3375
537.0090, 121.2633
537.4911, 122.4862
537.9733, 124.1943
538.4554, 125.8110
538.9375, 126.8463
539.4196, 128.1175
539.9017, 130.2701
540.3839, 133.1942
540.8660, 136.2242
541.3481, 138.9973
541.8302, 141.5579
542.3123, 143.9431
542.7944, 146.1181
543.2766, 148.4079
543.7587, 151.0309
544.2408, 153.7504
544.7229, 156.1742
545.2050, 158.2604
545.6871, 160.4486
546.1693, 163.0286
546.6514, 165.6873
547.1335, 168.1504
547.6156, 170.3788
548.0977, 172.4424
548.5798, 174.4427
549.0620, 176.2073
549.5441, 177.1438
550.0262, 176.3656
550.5083, 175.9029
550.9904, 175.9848
551.4725, 176.2139
551.9547, 176.2622
552.4368, 176.1552
552.9189, 176.1400
553.4010, 176.4077
553.8831, 176.9017
554.3652, 177.3386
554.8474, 177.5265
555.3295, 178.1413
555.8116, 179.6054
556.2937, 181.4001
556.7758, 183.0179
557.2579, 184.4884
557.7401, 186.5509
558.2222, 190.0939
558.7043, 194.3181
559.1864, 197.7735
559.6685, 200.3988
560.1506, 203.2355
560.6328, 206.7786
561.1149, 210.8139
561.5970, 215.0059
562.0791, 219.3998
562.5612, 223.7001
563.0433, 227.6982
563.5255, 231.6781
564.0076, 236.0441
564.4897, 240.6793
564.9718, 245.1749
565.4539, 249.3010
565.9360, 253.0024
566.4182, 256.1151
566.9003, 259.0861
567.3824, 260.5832
567.8645, 260.4049
568.3466, 259.0322
568.8287, 256.7666
569.3109, 253.5769
569.7930, 249.2952
570.2751, 243.7680
570.7572, 237.0985
571.2393, 229.1355
571.7214, 219.7469
572.2036, 211.0031
572.6857, 203.7954
573.1678, 197.3760
573.6499, 190.8076
574.1320, 184.1198
574.6141, 177.6462
575.0963, 171.6373
575.5784, 165.7809
576.0605, 159.5928
576.5426, 153.2997
577.0247, 147.6047
577.5068, 142.8503
577.9890, 138.8611
578.4711, 135.3393
578.9532, 132.4262
579.4353, 129.6550
579.9174, 126.8083
580.3995, 124.2939
580.8817, 122.5639
581.3638, 121.2761
581.8459, 119.7347
582.3280, 117.5777
582.8101, 115.2882
583.2922, 113.5837
583.7744, 112.4785
584.2565, 111.9015
584.7386, 112.3349
585.2207, 112.5879
585.7029, 111.5068
