##NAMES=Asbecasite
##RRUFFID=R060719
##IDEAL CHEMISTRY=Ca_3_Ti^4+^As^3+^_6_Be_2_Si_2_O_20_
##LOCALITY=Binntal, Wallis, Switzerland
##OWNER=RRUFF
##SOURCE=Bob Jenkins
##DESCRIPTION=Brownish-yellow transparent fragments associated with dark green chamosite
##STATUS=The identification of this mineral has been confirmed by single-crystal X-ray diffraction.
##URL=rruff.info/R060719
113.809, 2402.218
114.291, 2621.372
114.773, 2859.582
115.256, 3093.904
115.738, 3363.419
116.220, 3693.658
116.702, 4122.690
117.184, 4537.370
117.666, 4934.462
118.148, 5292.736
118.630, 5559.719
119.112, 5681.896
119.595, 5712.986
120.077, 5692.404
120.559, 5583.156
121.041, 5473.920
121.523, 5408.077
122.005, 5387.172
122.487, 5421.663
122.969, 5532.579
123.451, 5701.550
123.934, 5899.719
124.416, 6126.653
124.898, 6371.883
125.380, 6673.248
125.862, 7052.223
126.344, 7325.475
126.826, 7277.939
127.308, 6958.953
127.790, 6539.492
128.273, 6035.294
128.755, 5501.369
129.237, 5068.590
129.719, 4754.208
130.201, 4537.358
130.683, 4400.467
131.165, 4342.480
131.648, 4329.516
132.130, 4345.804
132.612, 4389.301
133.094, 4446.159
133.576, 4514.229
134.058, 4593.864
134.540, 4686.565
135.022, 4794.106
135.504, 4908.456
135.986, 5022.228
136.469, 5135.080
136.951, 5245.418
137.433, 5353.875
137.915, 5459.471
138.397, 5562.054
138.879, 5667.938
139.361, 5762.245
139.843, 5821.223
140.326, 5838.431
140.808, 5840.914
141.290, 5838.728
141.772, 5833.604
142.254, 5816.415
142.736, 5780.093
143.218, 5734.077
143.700, 5703.304
144.182, 5684.025
144.665, 5684.978
145.147, 5708.575
145.629, 5743.988
146.111, 5822.512
146.593, 5954.694
147.075, 6137.007
147.557, 6325.581
148.039, 6507.195
148.521, 6703.501
149.004, 6931.472
149.486, 7183.098
149.968, 7471.797
150.450, 7812.798
150.932, 8210.590
151.414, 8604.137
151.896, 8945.225
152.378, 9301.090
152.861, 9736.423
153.343, 10266.840
153.825, 10871.760
154.307, 11551.080
154.789, 12322.880
155.271, 13132.750
155.753, 14095.970
156.235, 15074.210
156.717, 15859.610
157.200, 16591.391
157.682, 16996.039
158.164, 16919.260
158.646, 16136.670
159.128, 15244.230
159.610, 14262.960
160.092, 13267.760
160.574, 12467.360
161.057, 11975.170
161.539, 11678.320
162.021, 11507.370
162.503, 11522.250
162.985, 11574.380
163.467, 11655.330
163.949, 11745.240
164.431, 11733.370
164.913, 11525.810
165.396, 11207.310
165.878, 10860.470
166.360, 10466.190
166.842, 10088.460
167.324, 9760.763
167.806, 9482.743
168.288, 9253.971
168.770, 9060.286
169.253, 8915.297
169.735, 8838.608
170.217, 8856.792
170.699, 8937.150
171.181, 9047.499
171.663, 9183.231
172.145, 9373.644
172.627, 9652.264
173.109, 10004.010
173.592, 10400.890
174.074, 10810.200
174.556, 11264.700
175.038, 11805.410
175.520, 12448.960
176.002, 13153.830
176.484, 13875.800
176.966, 14614.740
177.449, 15385.690
177.931, 16194.020
178.413, 17036.859
178.895, 17917.811
179.377, 18824.711
179.859, 19796.881
180.341, 20871.910
180.823, 22061.311
181.305, 23374.369
181.788, 24923.449
182.270, 26617.170
182.752, 28290.680
183.234, 30060.910
183.716, 31649.221
184.198, 32590.830
184.680, 32887.148
185.162, 32397.900
185.645, 30709.721
186.127, 28016.869
186.609, 25147.881
187.091, 22197.070
187.573, 19295.529
188.055, 16932.490
188.537, 15099.220
189.019, 13694.250
189.501, 12640.010
189.984, 11915.180
190.466, 11371.950
190.948, 10984.670
191.430, 10737.660
191.912, 10563.190
192.394, 10460.020
192.876, 10433.080
193.358, 10498.880
193.840, 10657.290
194.323, 10869.010
194.805, 11108.300
195.287, 11377.430
195.769, 11719.970
196.251, 12143.440
196.733, 12638.830
197.215, 13193.850
197.697, 13814.580
198.180, 14465.730
198.662, 15119.230
199.144, 15779.240
199.626, 16494.180
200.108, 17274.490
200.590, 18109.150
201.072, 18960.891
201.554, 19836.689
202.036, 20718.980
202.519, 21614.730
203.001, 22533.680
203.483, 23411.160
203.965, 24330.711
204.447, 25169.471
204.929, 25483.891
205.411, 25249.221
205.893, 24570.971
206.376, 23431.590
206.858, 21736.070
207.340, 20046.010
207.822, 18396.480
208.304, 16813.510
208.786, 15454.070
209.268, 14351.420
209.750, 13434.150
210.232, 12656.290
210.714, 12038.270
211.197, 11515.000
211.679, 11086.620
212.161, 10750.210
212.643, 10452.850
213.125, 10200.260
213.607, 9982.646
214.089, 9790.619
214.572, 9627.705
215.054, 9479.364
215.536, 9342.497
216.018, 9215.891
216.500, 9111.188
216.982, 9036.147
217.464, 8974.544
217.946, 8904.096
218.428, 8815.702
218.911, 8741.013
219.393, 8693.722
219.875, 8679.801
220.357, 8647.353
220.839, 8588.456
221.321, 8518.058
221.803, 8456.058
222.285, 8409.728
222.767, 8358.748
223.250, 8296.028
223.732, 8217.309
224.214, 8145.807
224.696, 8084.268
225.178, 8028.130
225.660, 7966.197
226.142, 7893.757
226.624, 7824.950
227.107, 7766.112
227.589, 7720.031
228.071, 7671.218
228.553, 7609.371
229.035, 7548.549
229.517, 7521.273
229.999, 7546.541
230.481, 7573.794
230.963, 7583.818
231.445, 7571.873
231.928, 7553.305
232.410, 7521.781
232.892, 7485.356
233.374, 7466.949
233.856, 7478.361
234.338, 7489.873
234.820, 7490.135
235.303, 7480.805
235.785, 7454.829
236.267, 7399.948
236.749, 7330.155
237.231, 7290.065
237.713, 7293.324
238.195, 7307.692
238.677, 7318.694
239.159, 7324.822
239.641, 7330.123
240.124, 7328.899
240.606, 7327.069
241.088, 7348.274
241.570, 7405.881
242.052, 7468.174
242.534, 7516.907
243.016, 7539.346
243.498, 7574.994
243.981, 7628.796
244.463, 7697.316
244.945, 7766.628
245.427, 7837.724
245.909, 7907.728
246.391, 7973.947
246.873, 8028.264
247.355, 8095.501
247.837, 8180.522
248.320, 8280.096
248.802, 8379.472
249.284, 8480.492
249.766, 8577.322
250.248, 8666.797
250.730, 8746.399
251.212, 8825.784
251.694, 8911.607
252.176, 8999.181
252.659, 9066.210
253.141, 9114.451
253.623, 9140.939
254.105, 9141.980
254.587, 9109.303
255.069, 9071.635
255.551, 9029.835
256.033, 8985.168
256.516, 8940.945
256.998, 8890.639
257.480, 8849.771
257.962, 8831.557
258.444, 8846.492
258.926, 8854.536
259.408, 8843.047
259.890, 8818.460
260.372, 8827.864
260.855, 8884.472
261.337, 8953.927
261.819, 9009.533
262.301, 9041.728
262.783, 9089.307
263.265, 9163.033
263.747, 9256.789
264.229, 9337.030
264.711, 9398.177
265.194, 9454.275
265.676, 9516.186
266.158, 9586.317
266.640, 9650.096
267.122, 9700.727
267.604, 9743.063
268.086, 9800.832
268.569, 9875.654
269.051, 9964.356
269.533, 10065.850
270.015, 10181.450
270.497, 10305.650
270.979, 10439.920
271.461, 10582.880
271.943, 10720.810
272.425, 10851.950
272.908, 10982.370
273.390, 11112.320
273.872, 11238.020
274.354, 11378.850
274.836, 11538.190
275.318, 11715.500
275.800, 11913.990
276.282, 12137.190
276.764, 12368.440
277.247, 12600.660
277.729, 12834.390
278.211, 13057.530
278.693, 13261.510
279.175, 13458.340
279.657, 13690.860
280.139, 13962.470
280.621, 14252.480
281.103, 14550.190
281.586, 14855.640
282.068, 15160.360
282.550, 15470.090
283.032, 15772.710
283.514, 16035.280
283.996, 16256.950
284.478, 16445.461
284.960, 16614.711
285.443, 16763.461
285.925, 16844.820
286.407, 16832.699
286.889, 16772.869
287.371, 16770.961
287.853, 16829.070
288.335, 16898.189
288.817, 16929.410
289.299, 16933.711
289.782, 16989.801
290.264, 17115.990
290.746, 17284.650
291.228, 17454.090
291.710, 17623.721
292.192, 17782.420
292.674, 17914.730
293.156, 18027.609
293.638, 18142.650
294.121, 18258.949
294.603, 18384.551
295.085, 18545.801
295.567, 18737.590
296.049, 18917.480
296.531, 19033.180
297.013, 19116.949
297.496, 19249.471
297.978, 19444.359
298.460, 19676.180
298.942, 19912.270
299.424, 20155.199
299.906, 20412.131
300.388, 20683.029
300.870, 20970.480
301.352, 21267.211
301.835, 21565.330
302.317, 21895.150
302.799, 22306.900
303.281, 22779.580
303.763, 23265.330
304.245, 23727.650
304.727, 24187.359
305.209, 24653.650
305.691, 25127.650
306.174, 25632.990
306.656, 26209.980
307.138, 26843.000
307.620, 27499.930
308.102, 28174.180
308.584, 28867.990
309.066, 29579.141
309.548, 30315.580
310.030, 31084.971
310.513, 31914.461
310.995, 32789.328
311.477, 33670.969
311.959, 34506.180
312.441, 35371.309
312.923, 36315.820
313.405, 37350.070
313.887, 38407.219
314.370, 39446.641
314.852, 40508.730
315.334, 41649.270
315.816, 42879.730
316.298, 44194.750
316.780, 45588.000
317.262, 47053.469
317.744, 48669.641
318.226, 50449.859
318.709, 52389.121
319.191, 54476.891
319.673, 56736.648
320.155, 59121.512
320.637, 61596.020
321.119, 64165.301
321.601, 66932.109
322.083, 69947.172
322.565, 73127.789
323.048, 76405.852
323.530, 79725.969
324.012, 83188.094
324.494, 86833.148
324.976, 90648.492
325.458, 94535.367
325.940, 98545.977
326.422, 102575.203
326.905, 106599.203
327.387, 110641.203
327.869, 114642.203
328.351, 118664.297
328.833, 122639.102
329.315, 126457.398
329.797, 130274.500
330.279, 133790.297
330.762, 136909.797
331.244, 139665.703
331.726, 141991.094
332.208, 144010.297
332.690, 145595.406
333.172, 146423.203
333.654, 146477.406
334.136, 145791.906
334.618, 144357.797
335.100, 142159.297
335.583, 139305.297
336.065, 135694.203
336.547, 131505.797
337.029, 126938.000
337.511, 121880.500
337.993, 116658.898
338.475, 111305.398
338.957, 105812.797
339.440, 100565.602
339.922, 95540.094
340.404, 90784.672
340.886, 86271.406
341.368, 82040.453
341.850, 78028.852
342.332, 74331.844
342.814, 70882.156
343.297, 67561.227
343.779, 64341.441
344.261, 61256.949
344.743, 58310.371
345.225, 55510.789
345.707, 52781.711
346.189, 50041.410
346.671, 47378.609
347.153, 44869.699
347.635, 42525.691
348.118, 40336.801
348.600, 38250.500
349.082, 36292.191
349.564, 34531.180
350.046, 32974.590
350.528, 31600.051
351.010, 30348.561
351.492, 29223.039
351.975, 28205.439
352.457, 27301.590
352.939, 26505.529
353.421, 25811.631
353.903, 25226.391
354.385, 24725.850
354.867, 24296.539
355.349, 23935.490
355.832, 23633.250
356.314, 23393.750
356.796, 23206.311
357.278, 23069.850
357.760, 22989.311
358.242, 22936.141
358.724, 22874.539
359.206, 22829.801
359.688, 22843.109
360.171, 22986.359
360.653, 23148.961
361.135, 23272.410
361.617, 23351.141
362.099, 23409.311
362.581, 23481.490
363.063, 23528.119
363.545, 23508.211
364.027, 23379.230
364.510, 23213.070
364.992, 23012.619
365.474, 22780.391
365.956, 22570.900
366.438, 22402.131
366.920, 22257.410
367.402, 22124.660
367.884, 21972.150
368.366, 21868.070
368.849, 21846.461
369.331, 21887.881
369.813, 21898.660
370.295, 21861.900
370.777, 21811.750
371.259, 21759.949
371.741, 21686.750
372.224, 21649.789
372.706, 21646.551
373.188, 21680.250
373.670, 21758.070
374.152, 21881.561
374.634, 22043.131
375.116, 22228.949
375.598, 22430.699
376.080, 22727.109
376.562, 23130.430
377.045, 23605.381
377.527, 24100.340
378.009, 24619.859
378.491, 25160.131
378.973, 25721.070
379.455, 26305.750
379.937, 26899.430
380.419, 27508.910
380.902, 28121.801
381.384, 28724.279
381.866, 29320.381
382.348, 29966.529
382.830, 30702.529
383.312, 31470.039
383.794, 32122.461
384.276, 32665.211
384.759, 33199.891
385.241, 33837.512
385.723, 34515.020
386.205, 35078.051
386.687, 35503.449
387.169, 35812.520
387.651, 36020.738
388.133, 36124.141
388.615, 36115.352
389.098, 35945.102
389.580, 35681.031
390.062, 35396.820
390.544, 35099.891
391.026, 34747.441
391.508, 34288.691
391.990, 33766.270
392.472, 33231.930
392.954, 32656.010
393.437, 32123.449
393.919, 31685.420
394.401, 31347.689
394.883, 31033.311
395.365, 30705.600
395.847, 30401.750
396.329, 30150.740
396.811, 29951.381
397.293, 29812.279
397.776, 29730.230
398.258, 29707.990
398.740, 29755.430
399.222, 29847.510
399.704, 30030.369
400.186, 30326.109
400.668, 30767.660
401.151, 31256.990
401.633, 31777.711
402.115, 32351.570
402.597, 33031.672
403.079, 33837.488
403.561, 34714.070
404.043, 35642.012
404.525, 36618.891
405.007, 37687.012
405.490, 38869.711
405.972, 40113.211
406.454, 41362.309
406.936, 42621.711
407.418, 43899.988
407.900, 45219.820
408.382, 46549.238
408.864, 47836.520
409.346, 49086.012
409.828, 50248.270
410.311, 51276.559
410.793, 52172.672
411.275, 52977.879
411.757, 53722.020
412.239, 54325.141
412.721, 54685.180
413.203, 54813.031
413.685, 54756.961
414.168, 54553.609
414.650, 54178.602
415.132, 53589.289
415.614, 52770.770
416.096, 51802.449
416.578, 50715.738
417.060, 49512.230
417.542, 48207.160
418.025, 46729.000
418.507, 45219.422
418.989, 43734.441
419.471, 42287.148
419.953, 40858.000
420.435, 39406.441
420.917, 38001.852
421.399, 36712.270
421.881, 35580.270
422.364, 34525.770
422.846, 33525.711
423.328, 32586.230
423.810, 31754.420
424.292, 31042.730
424.774, 30424.529
425.256, 29900.230
425.738, 29490.770
426.220, 29092.850
426.703, 28690.779
427.185, 28306.539
427.667, 27972.061
428.149, 27688.760
428.631, 27453.260
429.113, 27272.131
429.595, 27141.109
430.077, 27001.900
430.560, 26841.570
431.042, 26704.711
431.524, 26636.180
432.006, 26639.000
432.488, 26643.590
432.970, 26638.051
433.452, 26634.900
433.934, 26668.020
434.417, 26735.760
434.899, 26796.500
435.381, 26835.721
435.863, 26850.590
436.345, 26831.850
436.827, 26778.660
437.309, 26697.539
437.791, 26591.359
438.273, 26462.850
438.755, 26318.369
439.238, 26162.320
439.720, 25989.381
440.202, 25789.439
440.684, 25564.949
441.166, 25332.801
441.648, 25084.881
442.130, 24845.221
442.612, 24636.740
443.095, 24475.141
443.577, 24323.270
444.059, 24145.180
444.541, 23968.039
445.023, 23845.480
445.505, 23824.150
445.987, 23829.000
446.469, 23830.900
446.952, 23821.029
447.434, 23846.670
447.916, 23933.301
448.398, 24040.711
448.880, 24131.270
449.362, 24189.029
449.844, 24262.930
450.326, 24374.449
450.808, 24507.539
451.290, 24579.490
451.773, 24571.439
452.255, 24547.320
452.737, 24547.750
453.219, 24576.080
453.701, 24578.131
454.183, 24551.900
454.665, 24497.650
455.147, 24406.400
455.630, 24281.189
456.112, 24151.199
456.594, 24016.199
457.076, 23889.131
457.558, 23802.051
458.040, 23755.010
458.522, 23741.600
459.004, 23765.580
459.487, 23817.721
459.969, 23880.680
460.451, 23940.600
460.933, 24028.961
461.415, 24166.301
461.897, 24349.910
462.379, 24575.990
462.861, 24865.900
463.343, 25178.699
463.826, 25489.250
464.308, 25793.520
464.790, 26099.641
465.272, 26420.330
465.754, 26736.039
466.236, 27030.340
466.718, 27334.381
467.200, 27582.490
467.682, 27756.670
468.165, 27863.789
468.647, 27937.609
469.129, 27938.430
469.611, 27952.670
470.093, 28026.109
470.575, 28181.289
471.057, 28313.660
471.539, 28408.340
472.022, 28496.070
472.504, 28623.141
472.986, 28791.750
473.468, 28982.350
473.950, 29192.520
474.432, 29418.039
474.914, 29641.641
475.396, 29863.801
475.878, 30083.471
476.361, 30314.680
476.843, 30544.980
477.325, 30734.930
477.807, 30878.391
478.289, 30987.609
478.771, 31072.131
479.253, 31133.250
479.735, 31173.039
480.217, 31168.480
480.700, 31159.811
481.182, 31176.580
481.664, 31219.859
482.146, 31278.439
482.628, 31315.689
483.110, 31379.840
483.592, 31510.891
484.074, 31719.000
484.556, 31991.410
485.039, 32339.211
485.521, 32747.240
486.003, 33179.031
486.485, 33641.691
486.967, 34118.789
487.449, 34604.328
487.931, 35104.629
488.414, 35596.750
488.896, 36083.211
489.378, 36554.121
489.860, 37012.180
490.342, 37461.172
490.824, 37860.270
491.306, 38199.969
491.788, 38488.090
492.270, 38749.230
492.753, 38981.469
493.235, 39198.789
493.717, 39388.410
494.199, 39566.270
494.681, 39781.988
495.163, 40040.809
495.645, 40298.750
496.127, 40545.602
496.609, 40754.969
497.092, 40868.121
497.574, 40854.660
498.056, 40750.309
498.538, 40574.129
499.020, 40326.871
499.502, 40017.949
499.984, 39665.441
500.466, 39237.980
500.948, 38713.121
501.431, 38055.910
501.913, 37375.512
502.395, 36643.781
502.877, 35914.590
503.359, 35263.941
503.841, 34703.660
504.323, 34207.320
504.805, 33786.320
505.288, 33434.840
505.770, 33083.262
506.252, 32705.350
506.734, 32372.330
507.216, 32131.369
507.698, 31987.801
508.180, 31870.990
508.662, 31779.250
509.145, 31712.270
509.627, 31667.420
510.109, 31646.080
510.591, 31657.801
511.073, 31717.000
511.555, 31803.949
512.037, 31873.779
512.519, 31933.400
513.001, 32029.520
513.484, 32199.680
513.966, 32421.039
514.448, 32680.369
514.930, 32989.949
515.412, 33279.988
515.894, 33491.020
516.376, 33664.898
516.858, 33857.578
517.341, 34089.238
517.823, 34338.148
518.305, 34614.539
518.787, 34913.199
519.269, 35173.949
519.751, 35394.602
520.233, 35578.410
520.715, 35722.031
521.197, 35821.820
521.680, 35900.840
522.162, 35971.441
522.644, 36007.480
523.126, 35970.801
523.608, 35858.879
524.090, 35698.641
524.572, 35498.949
525.054, 35255.672
525.536, 34931.750
526.019, 34528.309
526.501, 34098.090
526.983, 33671.699
527.465, 33248.699
527.947, 32827.738
528.429, 32415.420
528.911, 32009.400
529.393, 31611.650
529.875, 31224.221
530.358, 30851.221
530.840, 30489.711
531.322, 30150.990
531.804, 29848.500
532.286, 29575.189
532.768, 29320.539
533.250, 29085.650
533.732, 28861.010
534.214, 28640.221
534.697, 28424.939
535.179, 28213.711
535.661, 28001.230
536.143, 27798.461
536.625, 27628.039
537.107, 27505.039
537.589, 27359.740
538.071, 27172.051
538.554, 26959.711
539.036, 26787.869
539.518, 26660.240
540.000, 26529.539
540.482, 26362.721
540.964, 26173.529
541.446, 26011.590
541.928, 25880.270
542.411, 25749.340
542.893, 25592.170
543.375, 25415.070
543.857, 25231.131
544.339, 25046.260
544.821, 24855.160
545.303, 24640.660
545.785, 24415.990
546.268, 24210.760
546.750, 24050.381
547.232, 23899.260
547.714, 23738.189
548.196, 23565.859
548.678, 23412.721
549.160, 23298.381
549.642, 23192.770
550.124, 23074.949
550.606, 22928.561
551.089, 22806.869
551.571, 22712.859
552.053, 22643.830
552.535, 22608.340
553.017, 22613.770
553.499, 22587.699
553.981, 22479.189
554.463, 22327.990
554.945, 22271.570
555.428, 22309.080
555.910, 22380.230
556.392, 22461.260
556.874, 22539.619
557.356, 22583.051
557.838, 22576.670
558.320, 22589.301
558.802, 22693.301
559.284, 22843.770
559.767, 22978.811
560.249, 23036.561
560.731, 23114.949
561.213, 23277.439
561.695, 23498.770
562.177, 23665.789
562.659, 23721.811
563.141, 23758.150
563.624, 23805.590
564.106, 23867.010
564.588, 23923.400
565.070, 23980.420
565.552, 24022.109
566.034, 24029.920
566.516, 24001.609
566.998, 23960.369
567.481, 23907.939
567.963, 23847.830
568.445, 23787.080
568.927, 23725.170
569.409, 23654.270
569.891, 23573.631
570.373, 23480.881
570.855, 23362.109
571.338, 23219.211
571.820, 23097.230
572.302, 23034.039
572.784, 22996.250
573.266, 22952.240
573.748, 22889.551
574.230, 22837.910
574.712, 22814.471
575.194, 22805.150
575.677, 22790.609
576.159, 22749.141
576.641, 22729.131
577.123, 22743.561
577.605, 22786.301
578.087, 22826.770
578.569, 22866.180
579.051, 22902.449
579.533, 22930.789
580.016, 22952.029
580.498, 22988.320
580.980, 23040.301
581.462, 23103.619
581.944, 23184.600
582.426, 23274.090
582.908, 23338.850
583.390, 23356.891
583.872, 23379.039
584.355, 23481.891
584.837, 23623.660
585.319, 23718.730
585.801, 23668.660
586.283, 23614.721
586.765, 23647.689
587.247, 23761.939
587.729, 23829.520
588.211, 23776.439
588.694, 23710.619
589.176, 23686.230
589.658, 23717.551
590.140, 23750.930
590.622, 23790.551
591.104, 23827.590
591.586, 23843.670
592.068, 23833.750
592.551, 23852.869
593.033, 23918.410
593.515, 24010.631
593.997, 24096.119
594.479, 24173.510
594.961, 24235.100
595.443, 24249.240
595.925, 24260.090
596.407, 24336.551
596.890, 24476.750
597.372, 24615.170
597.854, 24706.369
598.336, 24784.230
598.818, 24879.859
599.300, 25012.359
599.782, 25128.520
600.265, 25191.029
600.747, 25241.660
601.229, 25334.900
601.711, 25511.199
602.193, 25664.340
602.675, 25771.100
603.157, 25844.561
603.639, 25930.850
604.121, 26031.279
604.604, 26133.910
605.086, 26240.430
605.568, 26344.850
606.050, 26414.551
606.532, 26447.760
607.014, 26484.900
607.496, 26579.051
607.978, 26694.490
608.460, 26765.650
608.943, 26767.721
609.425, 26771.250
609.907, 26835.760
610.389, 26926.609
610.871, 26995.270
611.353, 27000.949
611.835, 27011.971
612.317, 27051.020
612.799, 27111.080
613.282, 27161.830
613.764, 27208.381
614.246, 27237.641
614.728, 27237.150
615.210, 27207.311
615.692, 27210.820
