##NAMES=Ashburtonite
##RRUFFID=R110003
##IDEAL CHEMISTRY=HPb^2+^_4_Cu^2+^_4_(Si_4_O_12_)(HCO_3_)_4_(OH)_4_Cl
##LOCALITY=Tonopah-Belmont mine, Maricopa County, Arizona, USA
##OWNER=RRUFF
##SOURCE=Bob Jenkins
##DESCRIPTION=Blue prismatic crystals associated with calcite
##STATUS=The identification of this mineral has been confirmed by single-crystal X-ray diffraction.
##URL=rruff.info/R110003
##MEASURED CHEMISTRY=Bright phase is cerrusite.
166.7276, 215.3019
167.2097, 218.0970
167.6918, 220.2975
168.1739, 221.9644
168.6560, 223.7726
169.1381, 225.9943
169.6203, 227.5293
170.1024, 229.8191
170.5845, 230.9041
171.0666, 232.2484
171.5487, 233.8489
172.0309, 235.6596
172.5130, 236.9451
172.9951, 236.4532
173.4772, 235.2204
173.9593, 234.8668
174.4414, 236.5139
174.9236, 239.0573
175.4057, 241.4672
175.8878, 243.7607
176.3699, 245.7233
176.8520, 247.2949
177.3341, 248.4341
177.8163, 249.0435
178.2984, 248.8741
178.7805, 248.2238
179.2626, 247.4874
179.7447, 246.6813
180.2268, 245.8074
180.7090, 244.8177
181.1911, 243.7577
181.6732, 242.7807
182.1553, 241.9594
182.6374, 241.2702
183.1195, 240.9124
183.6017, 241.0144
184.0838, 240.7178
184.5659, 238.3230
185.0480, 234.3295
185.5301, 231.1707
186.0123, 230.7084
186.4944, 232.0569
186.9765, 232.4150
187.4586, 231.5705
187.9407, 230.1795
188.4228, 228.9090
188.9050, 227.7847
189.3871, 227.0978
189.8692, 227.4520
190.3513, 228.5280
190.8334, 228.6172
191.3155, 227.5061
191.7977, 225.7563
192.2798, 223.9872
192.7619, 222.1978
193.2440, 220.9321
193.7261, 220.7190
194.2082, 221.4541
194.6904, 221.9117
195.1725, 222.0570
195.6546, 221.8686
196.1367, 221.2093
196.6188, 220.0493
197.1009, 218.8124
197.5831, 217.5459
198.0652, 216.2385
198.5473, 215.7408
199.0294, 216.3997
199.5115, 217.4559
199.9937, 217.1387
200.4758, 215.2301
200.9579, 213.3676
201.4400, 212.5578
201.9221, 212.8824
202.4042, 213.0659
202.8864, 213.0316
203.3685, 212.8210
203.8506, 212.4788
204.3327, 211.9583
204.8148, 211.5028
205.2969, 211.2930
205.7791, 211.3786
206.2612, 211.2944
206.7433, 210.8758
207.2254, 210.3750
207.7075, 210.5296
208.1896, 211.5473
208.6718, 212.6181
209.1539, 213.3720
209.6360, 213.8192
210.1181, 213.8229
210.6002, 213.1740
211.0823, 212.1930
211.5645, 211.9037
212.0466, 212.6624
212.5287, 213.2792
213.0108, 213.0173
213.4929, 211.5951
213.9750, 210.3907
214.4572, 209.4128
214.9393, 208.7273
215.4214, 208.6388
215.9035, 209.5217
216.3856, 210.2359
216.8678, 210.0231
217.3499, 208.4393
217.8320, 207.3655
218.3141, 206.9526
218.7962, 207.0806
219.2783, 207.4543
219.7605, 208.2068
220.2426, 208.9438
220.7247, 209.5430
221.2068, 210.2180
221.6889, 210.0444
222.1710, 208.4938
222.6532, 206.1849
223.1353, 205.1645
223.6174, 205.9289
224.0995, 207.1403
224.5816, 208.2508
225.0637, 209.5508
225.5459, 209.9899
226.0280, 209.2042
226.5101, 207.6150
226.9922, 206.5002
227.4743, 205.8872
227.9564, 205.6840
228.4386, 205.9388
228.9207, 207.0084
229.4028, 207.6626
229.8849, 207.8762
230.3670, 207.6660
230.8492, 206.9635
231.3313, 205.2164
231.8134, 203.8197
232.2955, 203.5489
232.7776, 205.2695
233.2597, 206.1096
233.7419, 205.8582
234.2240, 204.7771
234.7061, 203.4664
235.1882, 201.5873
235.6703, 200.0036
236.1524, 199.0774
236.6346, 198.9664
237.1167, 199.2180
237.5988, 200.0828
238.0809, 201.2205
238.5630, 201.8533
239.0451, 201.8817
239.5273, 201.5374
240.0094, 200.8155
240.4915, 199.3752
240.9736, 198.4378
241.4557, 198.1125
241.9378, 198.2262
242.4200, 198.4590
242.9021, 198.9493
243.3842, 199.3419
243.8663, 199.5054
244.3484, 199.4069
244.8306, 199.1501
245.3127, 198.6038
245.7948, 197.9709
246.2769, 197.6260
246.7590, 197.6229
247.2411, 197.8308
247.7233, 198.3361
248.2054, 199.4163
248.6875, 199.6766
249.1696, 198.5574
249.6517, 196.9951
250.1338, 196.6589
250.6160, 198.4734
251.0981, 199.8430
251.5802, 199.7630
252.0623, 197.8194
252.5444, 196.6360
253.0265, 196.6586
253.5087, 197.0858
253.9908, 196.6390
254.4729, 194.5613
254.9550, 193.1508
255.4371, 193.2231
255.9192, 194.9941
256.4014, 196.4990
256.8835, 197.7842
257.3656, 198.7563
257.8477, 199.3070
258.3298, 199.3250
258.8120, 199.1592
259.2941, 198.8239
259.7762, 198.2947
260.2583, 197.9962
260.7404, 198.0162
261.2225, 198.1485
261.7047, 198.1819
262.1868, 198.1054
262.6689, 197.9434
263.1510, 197.6735
263.6331, 197.3001
264.1152, 196.9300
264.5974, 196.4858
265.0795, 196.1682
265.5616, 196.2709
266.0437, 197.0149
266.5258, 197.4354
267.0079, 197.2251
267.4901, 196.4913
267.9722, 196.2228
268.4543, 196.5582
268.9364, 197.0869
269.4185, 197.5043
269.9006, 197.8098
270.3828, 197.9907
270.8649, 197.9429
271.3470, 197.7773
271.8291, 198.0992
272.3112, 199.0822
272.7933, 200.0951
273.2755, 200.5459
273.7576, 200.2854
274.2397, 200.5301
274.7218, 201.6362
275.2039, 203.2069
275.6860, 203.9269
276.1682, 203.5979
276.6503, 203.1903
277.1324, 203.6285
277.6145, 205.0674
278.0966, 205.1223
278.5787, 203.1930
279.0609, 200.2990
279.5430, 198.6044
280.0251, 198.2180
280.5072, 198.4595
280.9893, 199.1043
281.4715, 200.1469
281.9536, 201.3143
282.4357, 202.7344
282.9178, 204.0058
283.3999, 204.2693
283.8820, 203.4667
284.3642, 202.6436
284.8463, 202.4400
285.3284, 202.7599
285.8105, 202.4250
286.2926, 201.2686
286.7747, 199.9474
287.2569, 199.5100
287.7390, 199.9149
288.2211, 200.1180
288.7032, 199.4675
289.1853, 198.2338
289.6674, 197.7124
290.1496, 197.9832
290.6317, 198.4301
291.1138, 198.3580
291.5959, 197.8293
292.0780, 197.2546
292.5602, 196.6392
293.0423, 196.1167
293.5244, 196.2014
294.0065, 196.9245
294.4886, 197.5648
294.9707, 197.3909
295.4529, 196.5715
295.9350, 195.6578
296.4171, 194.5316
296.8992, 193.6301
297.3813, 194.2016
297.8634, 196.0923
298.3456, 197.5791
298.8277, 196.8636
299.3098, 194.7912
299.7919, 193.2083
300.2740, 192.5661
300.7561, 192.4573
301.2383, 192.4520
301.7204, 192.5564
302.2025, 192.8026
302.6846, 193.3704
303.1667, 194.0483
303.6488, 194.5405
304.1310, 194.8005
304.6131, 194.8606
305.0952, 194.7545
305.5773, 194.4711
306.0594, 193.9838
306.5415, 192.5810
307.0237, 191.3072
307.5058, 191.6452
307.9879, 193.9951
308.4700, 196.1091
308.9521, 195.9170
309.4343, 194.3510
309.9164, 193.0616
310.3985, 192.8306
310.8806, 193.0871
311.3627, 193.5360
311.8448, 194.1691
312.3270, 194.6458
312.8091, 194.8235
313.2912, 194.7128
313.7733, 194.3263
314.2554, 193.0528
314.7375, 192.0368
315.2197, 192.0460
315.7018, 192.9729
316.1839, 193.8894
316.6660, 194.4615
317.1481, 194.8047
317.6302, 195.0091
318.1124, 195.1337
318.5945, 195.0830
319.0766, 194.7537
319.5587, 194.2060
320.0408, 193.6464
320.5229, 192.6967
321.0051, 192.0622
321.4872, 192.2021
321.9693, 193.6362
322.4514, 194.9955
322.9335, 196.2123
323.4156, 197.1560
323.8978, 197.5745
324.3799, 196.8442
324.8620, 196.0873
325.3441, 195.7150
325.8262, 195.8772
326.3083, 196.0530
326.7905, 196.3491
327.2726, 196.5917
327.7547, 196.5644
328.2368, 195.3226
328.7189, 194.7916
329.2010, 195.6722
329.6832, 198.1503
330.1653, 199.8892
330.6474, 200.7769
331.1295, 201.0052
331.6116, 200.6785
332.0938, 199.2502
332.5759, 198.1365
333.0580, 197.5972
333.5401, 197.5535
334.0222, 197.4421
334.5043, 197.1469
334.9865, 196.9408
335.4686, 197.0459
335.9507, 197.6980
336.4328, 197.9836
336.9149, 197.6880
337.3970, 197.0775
337.8792, 196.8865
338.3613, 197.2159
338.8434, 197.6711
339.3255, 198.1442
339.8076, 198.6728
340.2898, 198.9295
340.7719, 198.8720
341.2540, 198.6267
341.7361, 198.1716
342.2182, 197.4248
342.7003, 197.3600
343.1825, 198.6792
343.6646, 201.0828
344.1467, 202.3502
344.6288, 202.3353
345.1109, 201.9751
345.5930, 202.2120
346.0752, 202.9907
346.5573, 203.7538
347.0394, 204.2645
347.5215, 204.7669
348.0036, 206.1161
348.4857, 208.2753
348.9679, 210.0613
349.4500, 210.2804
349.9321, 209.4209
350.4142, 208.9382
350.8963, 209.1426
351.3784, 209.5632
351.8606, 209.4527
352.3427, 208.9885
352.8248, 208.8267
353.3069, 209.7746
353.7890, 211.0781
354.2711, 211.5370
354.7533, 210.9545
355.2354, 210.4913
355.7175, 211.4033
356.1996, 213.0897
356.6817, 214.5017
357.1638, 215.2910
357.6460, 215.5706
358.1281, 215.1387
358.6102, 214.0772
359.0923, 213.3206
359.5744, 213.5897
360.0565, 214.3436
360.5387, 215.0431
361.0208, 215.2561
361.5029, 215.7455
361.9850, 217.2408
362.4671, 219.3548
362.9492, 220.8723
363.4314, 221.1594
363.9135, 220.8928
364.3956, 220.3245
364.8777, 219.1669
365.3598, 218.4924
365.8419, 219.0363
366.3241, 220.0865
366.8062, 220.5718
367.2883, 219.8029
367.7704, 218.9756
368.2526, 218.4844
368.7347, 218.4557
369.2168, 218.0553
369.6989, 217.0157
370.1810, 215.7578
370.6631, 214.5883
371.1453, 213.2368
371.6274, 212.3887
372.1095, 212.2878
372.5916, 212.8113
373.0737, 213.1963
373.5558, 213.6457
374.0380, 213.6614
374.5201, 212.8026
375.0022, 210.6276
375.4843, 209.0888
375.9664, 208.3635
376.4485, 208.2041
376.9307, 208.1413
377.4128, 208.1788
377.8949, 208.3123
378.3770, 208.7529
378.8591, 209.4451
379.3412, 208.9277
379.8234, 206.8588
380.3055, 204.7998
380.7876, 204.9727
381.2697, 207.2217
381.7518, 208.7038
382.2339, 208.4707
382.7161, 207.1598
383.1982, 206.0171
383.6803, 205.0604
384.1624, 204.5246
384.6445, 205.0458
385.1266, 206.1190
385.6088, 206.3299
386.0909, 205.2350
386.5730, 203.9754
387.0551, 203.9885
387.5372, 204.9477
388.0193, 205.9232
388.5015, 206.6259
388.9836, 206.9854
389.4657, 206.7503
389.9478, 205.8867
390.4299, 205.1299
390.9120, 204.9173
391.3942, 205.1205
391.8763, 205.5929
392.3584, 206.7654
392.8405, 207.7329
393.3226, 207.8895
393.8047, 207.3897
394.2869, 206.9381
394.7690, 206.8837
395.2511, 206.9128
395.7332, 206.8107
396.2154, 206.4100
396.6975, 206.1615
397.1796, 206.0831
397.6617, 206.2281
398.1438, 206.6812
398.6259, 208.1228
399.1081, 209.2234
399.5902, 209.4603
400.0723, 208.6598
400.5544, 208.1746
401.0365, 207.8562
401.5186, 207.9609
402.0008, 208.7887
402.4829, 211.0428
402.9650, 212.6652
403.4471, 213.2134
403.9292, 212.9615
404.4113, 213.0795
404.8935, 213.7210
405.3756, 214.3794
405.8577, 214.7784
406.3398, 214.8775
406.8219, 214.9881
407.3040, 215.0872
407.7862, 215.2567
408.2683, 215.6189
408.7504, 216.1782
409.2325, 216.8723
409.7146, 217.7212
410.1967, 218.6806
410.6789, 219.7315
411.1610, 220.8870
411.6431, 221.8771
412.1252, 222.3709
412.6073, 222.5033
413.0894, 222.7050
413.5716, 223.1740
414.0537, 223.4744
414.5358, 223.0131
415.0179, 221.9149
415.5000, 220.5730
415.9821, 218.9465
416.4643, 217.3307
416.9464, 216.1778
417.4285, 215.5647
417.9106, 214.7245
418.3927, 212.7956
418.8748, 210.4719
419.3570, 208.6129
419.8391, 207.6771
420.3212, 207.0748
420.8033, 206.7443
421.2854, 206.6008
421.7675, 206.2412
422.2497, 205.3647
422.7318, 204.3780
423.2139, 203.4998
423.6960, 202.7922
424.1781, 202.1245
424.6602, 201.4319
425.1424, 200.7933
425.6245, 200.3283
426.1066, 200.0352
426.5887, 199.9313
427.0709, 200.1373
427.5530, 200.6516
428.0351, 200.7549
428.5172, 200.0942
428.9993, 199.5027
429.4814, 199.8088
429.9636, 201.5375
430.4457, 201.9923
430.9278, 200.5195
431.4099, 198.0837
431.8920, 196.7550
432.3741, 196.5969
432.8563, 196.9834
433.3384, 198.1498
433.8205, 199.8055
434.3026, 199.6140
434.7847, 197.3812
435.2668, 194.8685
435.7490, 193.8106
436.2311, 193.9587
436.7132, 194.5136
437.1953, 195.4111
437.6774, 196.4131
438.1595, 197.3454
438.6417, 198.1575
439.1238, 198.6395
439.6059, 198.3880
440.0880, 197.8853
440.5701, 197.6308
441.0522, 197.6928
441.5344, 197.9104
442.0165, 198.5178
442.4986, 199.1155
442.9807, 199.2082
443.4628, 198.1171
443.9449, 196.9954
444.4271, 196.3138
444.9092, 196.0055
445.3913, 195.6555
445.8734, 195.0719
446.3555, 194.4965
446.8376, 193.9973
447.3198, 193.2875
447.8019, 193.2659
448.2840, 194.6734
448.7661, 196.4657
449.2482, 197.1442
449.7303, 196.0396
450.2125, 194.9322
450.6946, 194.1036
451.1767, 193.5608
451.6588, 193.5062
452.1409, 194.1403
452.6230, 194.7994
453.1052, 194.9304
453.5873, 194.4781
454.0694, 194.2965
454.5515, 194.5383
455.0337, 194.8945
455.5158, 194.7632
455.9979, 194.1808
456.4800, 193.7162
456.9621, 193.6891
457.4442, 193.9216
457.9264, 194.0683
458.4085, 194.1260
458.8906, 193.9754
459.3727, 193.0764
459.8548, 192.0143
460.3369, 191.8903
460.8191, 193.3430
461.3012, 194.8187
461.7833, 194.7567
462.2654, 193.8060
462.7475, 193.3151
463.2296, 194.5473
463.7118, 195.8390
464.1939, 196.1308
464.6760, 195.3476
465.1581, 194.7085
465.6402, 194.7342
466.1223, 194.9560
466.6045, 195.0439
467.0866, 194.5011
467.5687, 194.3789
468.0508, 195.1121
468.5329, 196.2622
469.0150, 196.8442
469.4972, 196.5036
469.9793, 196.1348
470.4614, 196.1380
470.9435, 196.5684
471.4256, 196.1886
471.9077, 194.7281
472.3899, 193.0043
472.8720, 191.5077
473.3541, 190.1559
473.8362, 190.0589
474.3183, 191.7222
474.8004, 194.1447
475.2826, 195.4714
475.7647, 195.7370
476.2468, 195.4310
476.7289, 194.4025
477.2110, 193.0504
477.6931, 192.3427
478.1753, 192.2801
478.6574, 192.3550
479.1395, 191.9563
479.6216, 191.4810
480.1037, 191.5858
480.5858, 192.7523
481.0680, 193.9509
481.5501, 194.5630
482.0322, 194.6927
482.5143, 194.5444
482.9964, 193.9284
483.4786, 193.2905
483.9607, 192.8315
484.4428, 192.5770
484.9249, 192.4082
485.4070, 192.5957
485.8892, 192.6835
486.3713, 192.3181
486.8534, 190.7126
487.3355, 189.8321
487.8176, 189.9988
488.2997, 190.8243
488.7819, 191.5184
489.2640, 192.0858
489.7461, 192.4998
490.2282, 192.6807
490.7103, 192.6537
491.1924, 192.9752
491.6746, 193.7902
492.1567, 194.3595
492.6388, 193.7441
493.1209, 192.1151
493.6030, 191.0753
494.0851, 190.8704
494.5673, 191.1815
495.0494, 191.8257
495.5315, 192.6656
496.0136, 193.1836
496.4957, 192.8853
496.9778, 192.2962
497.4600, 192.0561
497.9421, 192.1245
498.4242, 192.0582
498.9063, 191.0968
499.3884, 190.1651
499.8705, 190.2137
500.3527, 191.9849
500.8348, 193.3481
501.3169, 193.2839
501.7990, 192.4172
502.2811, 191.6215
502.7632, 190.9131
503.2454, 190.4465
503.7275, 190.3050
504.2096, 190.4659
504.6917, 190.6906
505.1738, 190.9877
505.6559, 191.3368
506.1381, 191.7521
506.6202, 192.2869
507.1023, 192.6905
507.5844, 192.9726
508.0665, 193.1115
508.5486, 192.9664
509.0308, 192.5251
509.5129, 192.3589
509.9950, 192.7784
510.4771, 193.3935
510.9592, 193.1646
511.4413, 192.1911
511.9235, 191.4490
512.4056, 191.6868
512.8877, 192.4916
513.3698, 193.2710
513.8519, 193.9746
514.3340, 194.7248
514.8162, 196.0959
515.2983, 197.3885
515.7804, 197.7241
516.2625, 196.0295
516.7446, 194.3725
517.2267, 193.6885
517.7089, 193.6692
518.1910, 193.5649
518.6731, 192.8788
519.1552, 192.4040
519.6373, 192.5045
520.1194, 193.2385
520.6016, 193.9046
521.0837, 194.6399
521.5658, 195.1448
522.0479, 195.0834
522.5300, 194.1657
523.0121, 193.7828
523.4943, 194.1823
523.9764, 194.9448
524.4585, 195.3798
524.9406, 195.4788
525.4227, 195.3159
525.9048, 194.6843
526.3870, 193.9240
526.8691, 194.1098
527.3513, 195.1713
527.8334, 196.0266
528.3155, 195.6658
528.7976, 194.7039
529.2797, 194.0224
529.7618, 193.7464
530.2440, 193.6257
530.7261, 193.7288
531.2082, 193.8053
531.6903, 193.5336
532.1724, 192.2481
532.6545, 191.1885
533.1367, 190.7487
533.6188, 190.8472
534.1009, 191.1663
534.5830, 192.4500
535.0651, 193.1665
535.5472, 192.4870
536.0294, 190.0317
536.5115, 188.9760
536.9936, 189.8938
537.4757, 191.4101
537.9578, 192.5171
538.4399, 193.2543
538.9221, 193.3001
539.4042, 192.4393
539.8863, 191.1915
540.3684, 190.4904
540.8505, 190.2939
541.3326, 190.0874
541.8148, 189.4441
542.2969, 188.7918
542.7790, 189.1668
543.2611, 190.4222
543.7432, 191.3985
544.2253, 190.9143
544.7075, 189.9633
545.1896, 189.6974
545.6717, 190.4374
546.1538, 190.9210
546.6359, 190.1999
547.1180, 189.0385
547.6002, 188.2574
548.0823, 188.3880
548.5644, 188.5197
549.0465, 188.4465
549.5286, 188.2540
550.0107, 188.1846
550.4929, 188.2023
550.9750, 188.3958
551.4571, 188.8116
551.9392, 189.4524
552.4213, 190.3204
552.9034, 191.6606
553.3856, 192.4843
553.8677, 191.5053
554.3498, 188.9404
554.8319, 187.5812
555.3140, 187.9014
555.7961, 188.7358
556.2783, 188.2933
556.7604, 187.1034
557.2425, 186.7360
557.7246, 188.6143
558.2067, 190.6858
558.6888, 190.5310
559.1710, 188.7815
559.6531, 187.5727
560.1352, 188.6041
560.6173, 189.9770
561.0994, 190.5580
561.5815, 190.1740
562.0637, 189.7250
562.5458, 189.2459
563.0279, 188.8555
563.5100, 188.6200
563.9921, 188.4487
564.4742, 188.6557
564.9564, 189.6122
565.4385, 190.6604
565.9206, 190.4690
566.4027, 188.7086
566.8848, 187.3837
567.3669, 187.2122
567.8491, 187.8100
568.3312, 187.9202
568.8133, 187.5629
569.2954, 187.2858
569.7775, 187.5146
570.2596, 188.0453
570.7418, 188.5259
571.2239, 188.9403
571.7060, 189.3092
572.1881, 189.6814
572.6702, 190.0039
573.1523, 190.2352
573.6345, 190.4356
574.1166, 190.4108
574.5987, 189.6573
575.0808, 188.7173
575.5629, 188.4850
576.0450, 190.4255
576.5272, 191.5717
577.0093, 190.7857
577.4914, 188.5254
577.9735, 188.0054
578.4556, 190.1259
578.9377, 192.1396
579.4199, 192.5947
579.9020, 191.4549
580.3841, 190.5468
580.8662, 189.8952
581.3483, 189.3657
581.8304, 188.7951
582.3126, 188.2380
582.7947, 187.8970
583.2768, 187.8354
583.7589, 187.9182
584.2410, 188.1070
584.7231, 188.3241
585.2053, 188.4164
585.6874, 188.4185
586.1696, 188.1802
586.6517, 187.1942
587.1338, 185.7580
587.6159, 185.1888
588.0980, 186.9780
588.5801, 188.6749
589.0623, 189.0267
589.5444, 187.7227
590.0265, 187.1621
590.5086, 187.7342
590.9907, 188.5544
591.4728, 188.9531
591.9550, 188.8782
592.4371, 188.6688
592.9192, 188.2764
593.4013, 187.9453
593.8834, 188.2078
594.3655, 188.9432
594.8477, 189.3638
595.3298, 189.1435
595.8119, 188.5788
596.2940, 187.8362
596.7761, 187.0408
597.2582, 186.5883
597.7404, 187.1693
598.2225, 187.7942
598.7046, 187.5767
599.1867, 186.4828
599.6688, 185.7921
600.1509, 186.2329
600.6331, 186.9340
601.1152, 187.3845
601.5973, 187.5978
602.0794, 187.4542
602.5615, 186.7132
603.0436, 185.8469
603.5258, 185.4796
604.0079, 185.7625
604.4900, 185.6936
604.9721, 184.9871
605.4542, 184.0446
605.9363, 183.6540
606.4185, 183.7866
606.9006, 184.1545
607.3827, 184.8048
607.8648, 185.5025
608.3469, 185.9597
608.8290, 186.1701
609.3112, 186.0690
609.7933, 185.2259
610.2754, 184.3324
610.7575, 183.9046
611.2396, 184.0402
611.7217, 184.3748
612.2039, 185.2144
612.6860, 185.9538
613.1681, 186.0926
613.6502, 184.8598
614.1323, 184.3884
614.6144, 185.0745
615.0966, 186.1983
615.5787, 186.7365
616.0608, 186.6175
616.5429, 186.3172
617.0250, 185.8677
617.5071, 185.3967
617.9893, 185.3018
618.4714, 185.5262
618.9535, 185.6172
619.4356, 185.0134
619.9177, 184.3235
620.3998, 184.5613
620.8820, 185.6092
621.3641, 186.3342
621.8462, 185.8718
622.3283, 185.0083
622.8104, 184.2858
623.2925, 183.7763
623.7747, 183.3716
624.2568, 183.1040
624.7389, 182.8984
625.2210, 182.6614
625.7031, 182.1768
626.1852, 182.1772
626.6674, 182.8820
627.1495, 183.8764
627.6316, 184.4783
628.1137, 184.6754
628.5958, 184.7774
629.0779, 184.8598
629.5601, 184.9172
630.0422, 184.9046
630.5243, 184.8458
631.0064, 184.8465
631.4885, 185.0651
631.9706, 185.3058
632.4528, 185.5070
632.9349, 185.6299
633.4170, 185.3371
633.8991, 183.6583
634.3812, 182.1419
634.8633, 181.8627
635.3455, 183.5083
635.8276, 184.5305
636.3097, 184.4792
636.7918, 184.1376
637.2739, 184.1529
637.7560, 184.5980
638.2382, 185.1987
638.7203, 186.1267
639.2024, 186.8136
639.6845, 186.0576
640.1666, 184.0599
640.6487, 182.5071
641.1309, 181.9015
641.6130, 181.9671
642.0951, 182.6765
642.5772, 183.7888
643.0594, 184.5972
643.5415, 184.7340
644.0236, 184.4921
644.5057, 183.6894
644.9879, 182.4659
645.4700, 182.0171
645.9521, 184.0548
646.4342, 185.5942
646.9163, 184.9595
647.3984, 181.5399
647.8806, 180.2608
648.3627, 181.9418
648.8448, 184.2137
649.3269, 185.0780
649.8090, 184.5369
650.2911, 184.5805
650.7733, 185.5167
651.2554, 186.3624
651.7375, 185.5935
652.2196, 183.8336
652.7017, 182.6229
653.1838, 182.5237
653.6660, 182.8241
654.1481, 183.0394
654.6302, 183.2564
655.1123, 183.6350
655.5944, 184.7034
656.0765, 185.4259
656.5587, 185.3462
657.0408, 184.6044
657.5229, 183.8772
658.0050, 183.0727
658.4871, 182.4576
658.9692, 182.1549
659.4514, 182.1400
659.9335, 182.1773
660.4156, 182.2769
660.8977, 182.3453
661.3798, 182.2361
661.8619, 182.0523
662.3441, 182.1923
