##NAMES=Ashburtonite
##RRUFFID=R200010
##IDEAL CHEMISTRY=HPb^2+^_4_Cu^2+^_4_(Si_4_O_12_)(HCO_3_)_4_(OH)_4_Cl
##LOCALITY=Rowley mine, Maricopa County, Arizona, USA
##OWNER=Bruce Murphy
##SOURCE=Bruce Murphy
##DESCRIPTION=Sprays of blue prismatic or acicular crystals, associated with calendonite, cerussite.
##STATUS=The identification of this mineral has been confirmed by X-ray diffraction.
##URL=rruff.info/R200010
1.247050e+002, 1.115024e+003
1.251871e+002, 1.111307e+003
1.256693e+002, 1.110156e+003
1.261514e+002, 1.109913e+003
1.266335e+002, 1.108346e+003
1.271156e+002, 1.104354e+003
1.275977e+002, 1.098825e+003
1.280798e+002, 1.094397e+003
1.285620e+002, 1.091411e+003
1.290441e+002, 1.088630e+003
1.295262e+002, 1.085915e+003
1.300083e+002, 1.083134e+003
1.304904e+002, 1.079687e+003
1.309725e+002, 1.075043e+003
1.314547e+002, 1.069609e+003
1.319368e+002, 1.064341e+003
1.324189e+002, 1.059029e+003
1.329010e+002, 1.054212e+003
1.333831e+002, 1.050649e+003
1.338652e+002, 1.048571e+003
1.343474e+002, 1.046561e+003
1.348295e+002, 1.043922e+003
1.353116e+002, 1.040953e+003
1.357937e+002, 1.037963e+003
1.362758e+002, 1.035197e+003
1.367579e+002, 1.032388e+003
1.372401e+002, 1.028770e+003
1.377222e+002, 1.023834e+003
1.382043e+002, 1.018790e+003
1.386864e+002, 1.014199e+003
1.391685e+002, 1.009747e+003
1.396507e+002, 1.004900e+003
1.401328e+002, 9.992062e+002
1.406149e+002, 9.926876e+002
1.410970e+002, 9.868607e+002
1.415791e+002, 9.822925e+002
1.420612e+002, 9.779305e+002
1.425434e+002, 9.738040e+002
1.430255e+002, 9.697065e+002
1.435076e+002, 9.652308e+002
1.439897e+002, 9.599554e+002
1.444718e+002, 9.536955e+002
1.449539e+002, 9.476647e+002
1.454361e+002, 9.413644e+002
1.459182e+002, 9.355879e+002
1.464003e+002, 9.314142e+002
1.468824e+002, 9.286701e+002
1.473645e+002, 9.256002e+002
1.478466e+002, 9.200416e+002
1.483288e+002, 9.109105e+002
1.488109e+002, 9.027501e+002
1.492930e+002, 8.955720e+002
1.497751e+002, 8.893795e+002
1.502572e+002, 8.847686e+002
1.507393e+002, 8.820862e+002
1.512215e+002, 8.794772e+002
1.517036e+002, 8.736395e+002
1.521857e+002, 8.647328e+002
1.526678e+002, 8.564706e+002
1.531499e+002, 8.505067e+002
1.536320e+002, 8.460948e+002
1.541142e+002, 8.415788e+002
1.545963e+002, 8.369659e+002
1.550784e+002, 8.315286e+002
1.555605e+002, 8.240540e+002
1.560426e+002, 8.145800e+002
1.565247e+002, 8.057247e+002
1.570069e+002, 8.000858e+002
1.574890e+002, 7.975835e+002
1.579711e+002, 7.938456e+002
1.584532e+002, 7.861969e+002
1.589353e+002, 7.783020e+002
1.594174e+002, 7.729183e+002
1.598996e+002, 7.703433e+002
1.603817e+002, 7.684012e+002
1.608638e+002, 7.642175e+002
1.613459e+002, 7.568448e+002
1.618280e+002, 7.504426e+002
1.623102e+002, 7.462554e+002
1.627923e+002, 7.427541e+002
1.632744e+002, 7.391575e+002
1.637565e+002, 7.351792e+002
1.642386e+002, 7.308480e+002
1.647207e+002, 7.260605e+002
1.652029e+002, 7.202351e+002
1.656850e+002, 7.149763e+002
1.661671e+002, 7.104320e+002
1.666492e+002, 7.064358e+002
1.671313e+002, 7.029799e+002
1.676134e+002, 7.000800e+002
1.680956e+002, 6.974019e+002
1.685777e+002, 6.939661e+002
1.690598e+002, 6.881582e+002
1.695419e+002, 6.834409e+002
1.700240e+002, 6.811614e+002
1.705061e+002, 6.798931e+002
1.709883e+002, 6.775028e+002
1.714704e+002, 6.728270e+002
1.719525e+002, 6.665133e+002
1.724346e+002, 6.613226e+002
1.729167e+002, 6.573663e+002
1.733988e+002, 6.540520e+002
1.738810e+002, 6.517097e+002
1.743631e+002, 6.499601e+002
1.748452e+002, 6.476793e+002
1.753273e+002, 6.439560e+002
1.758094e+002, 6.394845e+002
1.762915e+002, 6.367661e+002
1.767737e+002, 6.372121e+002
1.772558e+002, 6.376913e+002
1.777379e+002, 6.360788e+002
1.782200e+002, 6.325441e+002
1.787021e+002, 6.288994e+002
1.791842e+002, 6.260508e+002
1.796664e+002, 6.238024e+002
1.801485e+002, 6.217142e+002
1.806306e+002, 6.198207e+002
1.811127e+002, 6.179835e+002
1.815948e+002, 6.161230e+002
1.820769e+002, 6.142579e+002
1.825591e+002, 6.122418e+002
1.830412e+002, 6.095587e+002
1.835233e+002, 6.068071e+002
1.840054e+002, 6.047877e+002
1.844875e+002, 6.042042e+002
1.849696e+002, 6.039949e+002
1.854518e+002, 6.019227e+002
1.859339e+002, 5.968898e+002
1.864160e+002, 5.924749e+002
1.868981e+002, 5.900463e+002
1.873802e+002, 5.888490e+002
1.878623e+002, 5.881895e+002
1.883445e+002, 5.878805e+002
1.888266e+002, 5.877134e+002
1.893087e+002, 5.870099e+002
1.897908e+002, 5.857379e+002
1.902729e+002, 5.838550e+002
1.907550e+002, 5.815854e+002
1.912372e+002, 5.787380e+002
1.917193e+002, 5.747097e+002
1.922014e+002, 5.688626e+002
1.926835e+002, 5.618145e+002
1.931656e+002, 5.578612e+002
1.936477e+002, 5.620270e+002
1.941299e+002, 5.643854e+002
1.946120e+002, 5.617725e+002
1.950941e+002, 5.563442e+002
1.955762e+002, 5.518688e+002
1.960583e+002, 5.509979e+002
1.965404e+002, 5.534513e+002
1.970226e+002, 5.541967e+002
1.975047e+002, 5.514720e+002
1.979868e+002, 5.490116e+002
1.984689e+002, 5.481820e+002
1.989510e+002, 5.484672e+002
1.994332e+002, 5.485040e+002
1.999153e+002, 5.472640e+002
2.003974e+002, 5.447948e+002
2.008795e+002, 5.430785e+002
2.013616e+002, 5.430281e+002
2.018437e+002, 5.426809e+002
2.023259e+002, 5.409487e+002
2.028080e+002, 5.380848e+002
2.032901e+002, 5.351183e+002
2.037722e+002, 5.326429e+002
2.042543e+002, 5.307392e+002
2.047364e+002, 5.294459e+002
2.052186e+002, 5.296589e+002
2.057007e+002, 5.296935e+002
2.061828e+002, 5.282667e+002
2.066649e+002, 5.254863e+002
2.071470e+002, 5.226666e+002
2.076291e+002, 5.207438e+002
2.081113e+002, 5.195836e+002
2.085934e+002, 5.182672e+002
2.090755e+002, 5.165609e+002
2.095576e+002, 5.148238e+002
2.100397e+002, 5.133597e+002
2.105218e+002, 5.121729e+002
2.110040e+002, 5.111781e+002
2.114861e+002, 5.104617e+002
2.119682e+002, 5.098821e+002
2.124503e+002, 5.091298e+002
2.129324e+002, 5.080123e+002
2.134145e+002, 5.067922e+002
2.138967e+002, 5.057550e+002
2.143788e+002, 5.048923e+002
2.148609e+002, 5.042351e+002
2.153430e+002, 5.044436e+002
2.158251e+002, 5.047162e+002
2.163072e+002, 5.038578e+002
2.167894e+002, 5.009093e+002
2.172715e+002, 4.971583e+002
2.177536e+002, 4.949605e+002
2.182357e+002, 4.948846e+002
2.187178e+002, 4.948004e+002
2.191999e+002, 4.934671e+002
2.196821e+002, 4.917039e+002
2.201642e+002, 4.905976e+002
2.206463e+002, 4.909066e+002
2.211284e+002, 4.916835e+002
2.216105e+002, 4.904730e+002
2.220926e+002, 4.857622e+002
2.225748e+002, 4.821501e+002
2.230569e+002, 4.814961e+002
2.235390e+002, 4.823581e+002
2.240211e+002, 4.832531e+002
2.245032e+002, 4.835514e+002
2.249853e+002, 4.833630e+002
2.254675e+002, 4.828947e+002
2.259496e+002, 4.815787e+002
2.264317e+002, 4.809657e+002
2.269138e+002, 4.822542e+002
2.273959e+002, 4.840006e+002
2.278780e+002, 4.845349e+002
2.283602e+002, 4.829957e+002
2.288423e+002, 4.800133e+002
2.293244e+002, 4.776169e+002
2.298065e+002, 4.762056e+002
2.302886e+002, 4.748895e+002
2.307707e+002, 4.735751e+002
2.312529e+002, 4.722570e+002
2.317350e+002, 4.707800e+002
2.322171e+002, 4.690540e+002
2.326992e+002, 4.673931e+002
2.331813e+002, 4.668351e+002
2.336634e+002, 4.688356e+002
2.341456e+002, 4.702596e+002
2.346277e+002, 4.710964e+002
2.351098e+002, 4.711726e+002
2.355919e+002, 4.698870e+002
2.360740e+002, 4.669453e+002
2.365561e+002, 4.633074e+002
2.370383e+002, 4.618201e+002
2.375204e+002, 4.657785e+002
2.380025e+002, 4.681322e+002
2.384846e+002, 4.672740e+002
2.389667e+002, 4.650082e+002
2.394488e+002, 4.636893e+002
2.399310e+002, 4.643273e+002
2.404131e+002, 4.659481e+002
2.408952e+002, 4.660421e+002
2.413773e+002, 4.628816e+002
2.418594e+002, 4.605799e+002
2.423415e+002, 4.599637e+002
2.428237e+002, 4.602776e+002
2.433058e+002, 4.606868e+002
2.437879e+002, 4.609033e+002
2.442700e+002, 4.608690e+002
2.447521e+002, 4.603890e+002
2.452342e+002, 4.591299e+002
2.457164e+002, 4.581104e+002
2.461985e+002, 4.578180e+002
2.466806e+002, 4.577442e+002
2.471627e+002, 4.569717e+002
2.476448e+002, 4.550844e+002
2.481270e+002, 4.530509e+002
2.486091e+002, 4.529003e+002
2.490912e+002, 4.554180e+002
2.495733e+002, 4.567786e+002
2.500554e+002, 4.556688e+002
2.505375e+002, 4.531098e+002
2.510197e+002, 4.505046e+002
2.515018e+002, 4.481883e+002
2.519839e+002, 4.460809e+002
2.524660e+002, 4.439259e+002
2.529481e+002, 4.415932e+002
2.534302e+002, 4.401632e+002
2.539124e+002, 4.403248e+002
2.543945e+002, 4.414400e+002
2.548766e+002, 4.428342e+002
2.553587e+002, 4.445921e+002
2.558408e+002, 4.458015e+002
2.563229e+002, 4.447274e+002
2.568051e+002, 4.417083e+002
2.572872e+002, 4.392468e+002
2.577693e+002, 4.382403e+002
2.582514e+002, 4.381570e+002
2.587335e+002, 4.380943e+002
2.592156e+002, 4.378513e+002
2.596978e+002, 4.379089e+002
2.601799e+002, 4.392180e+002
2.606620e+002, 4.413627e+002
2.611441e+002, 4.428682e+002
2.616262e+002, 4.432182e+002
2.621083e+002, 4.426723e+002
2.625905e+002, 4.415839e+002
2.630726e+002, 4.399338e+002
2.635547e+002, 4.379002e+002
2.640368e+002, 4.347823e+002
2.645189e+002, 4.313465e+002
2.650010e+002, 4.294113e+002
2.654832e+002, 4.304933e+002
2.659653e+002, 4.330474e+002
2.664474e+002, 4.348505e+002
2.669295e+002, 4.359386e+002
2.674116e+002, 4.361248e+002
2.678937e+002, 4.344712e+002
2.683759e+002, 4.319943e+002
2.688580e+002, 4.300795e+002
2.693401e+002, 4.293480e+002
2.698222e+002, 4.292082e+002
2.703043e+002, 4.286618e+002
2.707864e+002, 4.274943e+002
2.712686e+002, 4.268561e+002
2.717507e+002, 4.282055e+002
2.722328e+002, 4.300863e+002
2.727149e+002, 4.308671e+002
2.731970e+002, 4.298634e+002
2.736791e+002, 4.281449e+002
2.741613e+002, 4.270665e+002
2.746434e+002, 4.266833e+002
2.751255e+002, 4.266005e+002
2.756076e+002, 4.270452e+002
2.760897e+002, 4.275516e+002
2.765718e+002, 4.276862e+002
2.770540e+002, 4.273085e+002
2.775361e+002, 4.268311e+002
2.780182e+002, 4.269645e+002
2.785003e+002, 4.279086e+002
2.789824e+002, 4.280568e+002
2.794645e+002, 4.257473e+002
2.799467e+002, 4.232951e+002
2.804288e+002, 4.222778e+002
2.809109e+002, 4.229299e+002
2.813930e+002, 4.243832e+002
2.818751e+002, 4.260421e+002
2.823572e+002, 4.279706e+002
2.828394e+002, 4.292901e+002
2.833215e+002, 4.291706e+002
2.838036e+002, 4.289330e+002
2.842857e+002, 4.292617e+002
2.847678e+002, 4.301915e+002
2.852499e+002, 4.314653e+002
2.857321e+002, 4.331679e+002
2.862142e+002, 4.353218e+002
2.866963e+002, 4.364897e+002
2.871784e+002, 4.352982e+002
2.876605e+002, 4.343871e+002
2.881426e+002, 4.352515e+002
2.886248e+002, 4.375314e+002
2.891069e+002, 4.399340e+002
2.895890e+002, 4.416837e+002
2.900711e+002, 4.427736e+002
2.905532e+002, 4.429337e+002
2.910353e+002, 4.408362e+002
2.915175e+002, 4.394679e+002
2.919996e+002, 4.404401e+002
2.924817e+002, 4.428933e+002
2.929638e+002, 4.452131e+002
2.934459e+002, 4.464743e+002
2.939280e+002, 4.468210e+002
2.944102e+002, 4.467514e+002
2.948923e+002, 4.456320e+002
2.953744e+002, 4.451456e+002
2.958565e+002, 4.457817e+002
2.963386e+002, 4.472567e+002
2.968207e+002, 4.494570e+002
2.973029e+002, 4.525349e+002
2.977850e+002, 4.557357e+002
2.982671e+002, 4.569647e+002
2.987492e+002, 4.550663e+002
2.992313e+002, 4.534840e+002
2.997134e+002, 4.528398e+002
3.001956e+002, 4.529032e+002
3.006777e+002, 4.536935e+002
3.011598e+002, 4.552306e+002
3.016419e+002, 4.569461e+002
3.021240e+002, 4.578883e+002
3.026061e+002, 4.579290e+002
3.030883e+002, 4.575078e+002
3.035704e+002, 4.562288e+002
3.040525e+002, 4.548428e+002
3.045346e+002, 4.537242e+002
3.050167e+002, 4.529860e+002
3.054988e+002, 4.527132e+002
3.059810e+002, 4.531322e+002
3.064631e+002, 4.544156e+002
3.069452e+002, 4.555699e+002
3.074273e+002, 4.572068e+002
3.079094e+002, 4.581254e+002
3.083915e+002, 4.569055e+002
3.088737e+002, 4.540779e+002
3.093558e+002, 4.518853e+002
3.098379e+002, 4.529315e+002
3.103200e+002, 4.574580e+002
3.108021e+002, 4.602660e+002
3.112842e+002, 4.597136e+002
3.117664e+002, 4.589815e+002
3.122485e+002, 4.593412e+002
3.127306e+002, 4.604079e+002
3.132127e+002, 4.611898e+002
3.136948e+002, 4.609518e+002
3.141769e+002, 4.598663e+002
3.146591e+002, 4.589026e+002
3.151412e+002, 4.575207e+002
3.156233e+002, 4.571234e+002
3.161054e+002, 4.588787e+002
3.165875e+002, 4.615298e+002
3.170696e+002, 4.634280e+002
3.175518e+002, 4.637585e+002
3.180339e+002, 4.629753e+002
3.185160e+002, 4.621193e+002
3.189981e+002, 4.610054e+002
3.194802e+002, 4.602345e+002
3.199623e+002, 4.603236e+002
3.204445e+002, 4.605565e+002
3.209266e+002, 4.603398e+002
3.214087e+002, 4.594906e+002
3.218908e+002, 4.581608e+002
3.223730e+002, 4.563647e+002
3.228551e+002, 4.537274e+002
3.233372e+002, 4.519535e+002
3.238193e+002, 4.521479e+002
3.243014e+002, 4.526086e+002
3.247835e+002, 4.522392e+002
3.252657e+002, 4.509930e+002
3.257478e+002, 4.497045e+002
3.262299e+002, 4.493264e+002
3.267120e+002, 4.499692e+002
3.271941e+002, 4.503264e+002
3.276762e+002, 4.504593e+002
3.281584e+002, 4.501427e+002
3.286405e+002, 4.491864e+002
3.291226e+002, 4.476848e+002
3.296047e+002, 4.458583e+002
3.300868e+002, 4.435825e+002
3.305689e+002, 4.410552e+002
3.310511e+002, 4.396992e+002
3.315332e+002, 4.402415e+002
3.320153e+002, 4.409443e+002
3.324974e+002, 4.411505e+002
3.329795e+002, 4.410939e+002
3.334616e+002, 4.412051e+002
3.339438e+002, 4.418259e+002
3.344259e+002, 4.424893e+002
3.349080e+002, 4.420135e+002
3.353901e+002, 4.399433e+002
3.358722e+002, 4.379286e+002
3.363543e+002, 4.362216e+002
3.368365e+002, 4.349051e+002
3.373186e+002, 4.340987e+002
3.378007e+002, 4.338448e+002
3.382828e+002, 4.340256e+002
3.387649e+002, 4.347746e+002
3.392470e+002, 4.362685e+002
3.397292e+002, 4.369360e+002
3.402113e+002, 4.349368e+002
3.406934e+002, 4.332188e+002
3.411755e+002, 4.341147e+002
3.416576e+002, 4.375028e+002
3.421397e+002, 4.409435e+002
3.426219e+002, 4.422452e+002
3.431040e+002, 4.416203e+002
3.435861e+002, 4.413689e+002
3.440682e+002, 4.416122e+002
3.445503e+002, 4.423091e+002
3.450324e+002, 4.439635e+002
3.455146e+002, 4.460254e+002
3.459967e+002, 4.470872e+002
3.464788e+002, 4.458281e+002
3.469609e+002, 4.432523e+002
3.474430e+002, 4.416877e+002
3.479251e+002, 4.411446e+002
3.484073e+002, 4.416243e+002
3.488894e+002, 4.441468e+002
3.493715e+002, 4.473547e+002
3.498536e+002, 4.495893e+002
3.503357e+002, 4.502165e+002
3.508178e+002, 4.501191e+002
3.513000e+002, 4.502470e+002
3.517821e+002, 4.506104e+002
3.522642e+002, 4.510656e+002
3.527463e+002, 4.514929e+002
3.532284e+002, 4.520778e+002
3.537105e+002, 4.532808e+002
3.541927e+002, 4.552491e+002
3.546748e+002, 4.565689e+002
3.551569e+002, 4.554593e+002
3.556390e+002, 4.526497e+002
3.561211e+002, 4.516223e+002
3.566032e+002, 4.537805e+002
3.570854e+002, 4.565137e+002
3.575675e+002, 4.571081e+002
3.580496e+002, 4.560190e+002
3.585317e+002, 4.554285e+002
3.590138e+002, 4.567219e+002
3.594959e+002, 4.588329e+002
3.599781e+002, 4.600867e+002
3.604602e+002, 4.603329e+002
3.609423e+002, 4.600694e+002
3.614244e+002, 4.591551e+002
3.619065e+002, 4.580247e+002
3.623886e+002, 4.578021e+002
3.628708e+002, 4.594052e+002
3.633529e+002, 4.611709e+002
3.638350e+002, 4.614787e+002
3.643171e+002, 4.605667e+002
3.647992e+002, 4.601614e+002
3.652813e+002, 4.613161e+002
3.657635e+002, 4.631086e+002
3.662456e+002, 4.635998e+002
3.667277e+002, 4.623093e+002
3.672098e+002, 4.612925e+002
3.676919e+002, 4.617543e+002
3.681740e+002, 4.629920e+002
3.686562e+002, 4.637469e+002
3.691383e+002, 4.637269e+002
3.696204e+002, 4.630620e+002
3.701025e+002, 4.615014e+002
3.705846e+002, 4.589171e+002
3.710667e+002, 4.575806e+002
3.715489e+002, 4.588228e+002
3.720310e+002, 4.607384e+002
3.725131e+002, 4.616396e+002
3.729952e+002, 4.614464e+002
3.734773e+002, 4.609406e+002
3.739594e+002, 4.606863e+002
3.744416e+002, 4.606361e+002
3.749237e+002, 4.603081e+002
3.754058e+002, 4.598470e+002
3.758879e+002, 4.590007e+002
3.763700e+002, 4.569986e+002
3.768521e+002, 4.545720e+002
3.773343e+002, 4.533883e+002
3.778164e+002, 4.542841e+002
3.782985e+002, 4.564017e+002
3.787806e+002, 4.577667e+002
3.792627e+002, 4.581727e+002
3.797448e+002, 4.581401e+002
3.802270e+002, 4.574699e+002
3.807091e+002, 4.564957e+002
3.811912e+002, 4.554908e+002
3.816733e+002, 4.545195e+002
3.821554e+002, 4.535409e+002
3.826375e+002, 4.524671e+002
3.831197e+002, 4.512175e+002
3.836018e+002, 4.503219e+002
3.840839e+002, 4.494274e+002
3.845660e+002, 4.491447e+002
3.850481e+002, 4.505168e+002
3.855302e+002, 4.527709e+002
3.860124e+002, 4.539921e+002
3.864945e+002, 4.528231e+002
3.869766e+002, 4.498127e+002
3.874587e+002, 4.478915e+002
3.879408e+002, 4.489359e+002
3.884229e+002, 4.488068e+002
3.889051e+002, 4.457071e+002
3.893872e+002, 4.419058e+002
3.898693e+002, 4.398663e+002
3.903514e+002, 4.403592e+002
3.908335e+002, 4.421217e+002
3.913156e+002, 4.433151e+002
3.917978e+002, 4.441105e+002
3.922799e+002, 4.438250e+002
3.927620e+002, 4.408707e+002
3.932441e+002, 4.382661e+002
3.937262e+002, 4.379753e+002
3.942083e+002, 4.395904e+002
3.946905e+002, 4.411865e+002
3.951726e+002, 4.411740e+002
3.956547e+002, 4.397210e+002
3.961368e+002, 4.385611e+002
3.966189e+002, 4.378160e+002
3.971010e+002, 4.372226e+002
3.975832e+002, 4.366515e+002
3.980653e+002, 4.361728e+002
3.985474e+002, 4.359037e+002
3.990295e+002, 4.359059e+002
3.995116e+002, 4.360532e+002
3.999937e+002, 4.361374e+002
4.004759e+002, 4.361353e+002
4.009580e+002, 4.361889e+002
4.014401e+002, 4.362729e+002
4.019222e+002, 4.364780e+002
4.024043e+002, 4.368273e+002
4.028864e+002, 4.373355e+002
4.033686e+002, 4.381013e+002
4.038507e+002, 4.396859e+002
4.043328e+002, 4.417050e+002
4.048149e+002, 4.421796e+002
4.052970e+002, 4.401492e+002
4.057791e+002, 4.383221e+002
4.062613e+002, 4.392599e+002
4.067434e+002, 4.417019e+002
4.072255e+002, 4.430369e+002
4.077076e+002, 4.415414e+002
4.081897e+002, 4.394874e+002
4.086718e+002, 4.396296e+002
4.091540e+002, 4.418873e+002
4.096361e+002, 4.441208e+002
4.101182e+002, 4.453640e+002
4.106003e+002, 4.461189e+002
4.110824e+002, 4.472790e+002
4.115645e+002, 4.489146e+002
4.120467e+002, 4.506549e+002
4.125288e+002, 4.524877e+002
4.130109e+002, 4.542845e+002
4.134930e+002, 4.557375e+002
4.139751e+002, 4.567505e+002
4.144572e+002, 4.577081e+002
4.149394e+002, 4.588517e+002
4.154215e+002, 4.602092e+002
4.159036e+002, 4.623744e+002
4.163857e+002, 4.667436e+002
4.168678e+002, 4.707382e+002
4.173499e+002, 4.724330e+002
4.178321e+002, 4.722096e+002
4.183142e+002, 4.716620e+002
4.187963e+002, 4.716821e+002
4.192784e+002, 4.719909e+002
4.197605e+002, 4.715977e+002
4.202426e+002, 4.690586e+002
4.207248e+002, 4.678107e+002
4.212069e+002, 4.689814e+002
4.216890e+002, 4.712281e+002
4.221711e+002, 4.734388e+002
4.226533e+002, 4.752583e+002
4.231354e+002, 4.765078e+002
4.236175e+002, 4.767865e+002
4.240996e+002, 4.756021e+002
4.245817e+002, 4.760316e+002
4.250638e+002, 4.793446e+002
4.255460e+002, 4.827563e+002
4.260281e+002, 4.852880e+002
4.265102e+002, 4.870637e+002
4.269923e+002, 4.885274e+002
4.274744e+002, 4.899280e+002
4.279565e+002, 4.912285e+002
4.284387e+002, 4.922738e+002
4.289208e+002, 4.930075e+002
4.294029e+002, 4.935668e+002
4.298850e+002, 4.935916e+002
4.303671e+002, 4.937216e+002
4.308492e+002, 4.945323e+002
4.313314e+002, 4.960875e+002
4.318135e+002, 4.979240e+002
4.322956e+002, 4.997804e+002
4.327777e+002, 5.016803e+002
4.332598e+002, 5.027016e+002
4.337419e+002, 5.021096e+002
4.342241e+002, 5.015403e+002
4.347062e+002, 5.020340e+002
4.351883e+002, 5.030689e+002
4.356704e+002, 5.035951e+002
4.361525e+002, 5.029628e+002
4.366346e+002, 5.018722e+002
4.371168e+002, 5.014479e+002
4.375989e+002, 5.017501e+002
4.380810e+002, 5.020767e+002
4.385631e+002, 5.019975e+002
4.390452e+002, 5.019989e+002
4.395273e+002, 5.027747e+002
4.400095e+002, 5.044305e+002
4.404916e+002, 5.058236e+002
4.409737e+002, 5.063353e+002
4.414558e+002, 5.061609e+002
4.419379e+002, 5.056971e+002
4.424200e+002, 5.049981e+002
4.429022e+002, 5.039566e+002
4.433843e+002, 5.022827e+002
4.438664e+002, 5.001139e+002
4.443485e+002, 4.983085e+002
4.448306e+002, 4.968442e+002
4.453127e+002, 4.958073e+002
4.457949e+002, 4.957868e+002
4.462770e+002, 4.962563e+002
4.467591e+002, 4.957142e+002
4.472412e+002, 4.934426e+002
4.477233e+002, 4.902919e+002
4.482054e+002, 4.878407e+002
4.486876e+002, 4.863452e+002
4.491697e+002, 4.849947e+002
4.496518e+002, 4.839057e+002
