##NAMES=Ashcroftine-(Y)
##RRUFFID=R110189
##IDEAL CHEMISTRY=K_5_Na_5_Y_12_Si_28_O_70_(OH)_2_(CO_3_)_8_&#183;8H_2_O
##LOCALITY=Poudrette quarry, Mont Saint-Hilaire, Quebec, Canada
##OWNER=RRUFF
##SOURCE=Donald Doell
##DESCRIPTION=Aggregate of pink fibrous crystals
##STATUS=The identification of this mineral has been confirmed by single-crystal X-ray diffraction.
##URL=rruff.info/R110189
195.7407, 502.4185
196.2228, 502.5454
196.7050, 502.7947
197.1871, 502.9032
197.6692, 502.8936
198.1513, 503.3080
198.6334, 504.9290
199.1155, 506.4213
199.5977, 506.7168
200.0798, 505.8085
200.5619, 504.7083
201.0440, 504.2467
201.5261, 504.4126
202.0082, 505.3205
202.4904, 508.0992
202.9725, 510.8559
203.4546, 512.6263
203.9367, 513.3110
204.4188, 513.4539
204.9009, 513.6015
205.3831, 513.6096
205.8652, 514.0932
206.3473, 515.1917
206.8294, 516.6199
207.3115, 518.5108
207.7936, 520.7377
208.2758, 522.7581
208.7579, 523.6551
209.2400, 522.4161
209.7221, 522.3061
210.2042, 523.9241
210.6863, 526.0308
211.1685, 527.8043
211.6506, 529.0795
212.1327, 530.2332
212.6148, 531.8597
213.0969, 534.4284
213.5790, 536.4252
214.0612, 537.3616
214.5433, 538.0674
215.0254, 539.2232
215.5075, 540.9739
215.9896, 543.0213
216.4717, 544.9728
216.9539, 546.9473
217.4360, 548.4511
217.9181, 549.2507
218.4002, 549.6917
218.8823, 549.9109
219.3644, 549.9349
219.8466, 550.2525
220.3287, 551.7406
220.8108, 554.7064
221.2929, 557.0966
221.7750, 558.4102
222.2571, 559.0932
222.7393, 559.6361
223.2214, 560.1223
223.7035, 560.5771
224.1856, 560.9697
224.6677, 561.3016
225.1498, 561.8082
225.6320, 562.7021
226.1141, 563.7723
226.5962, 564.6716
227.0783, 565.3287
227.5604, 565.8629
228.0425, 566.3937
228.5247, 566.9114
229.0068, 567.3620
229.4889, 567.5601
229.9710, 567.6855
230.4531, 568.2365
230.9352, 569.4896
231.4174, 570.6757
231.8995, 571.0740
232.3816, 570.9244
232.8637, 570.8649
233.3458, 571.3974
233.8279, 572.2764
234.3101, 572.6644
234.7922, 572.2980
235.2743, 571.8284
235.7564, 571.3167
236.2385, 570.9742
236.7206, 571.3055
237.2028, 573.1035
237.6849, 575.8362
238.1670, 577.1771
238.6491, 576.4070
239.1312, 575.2028
239.6133, 573.8837
240.0955, 572.7133
240.5776, 572.1279
241.0597, 572.4944
241.5418, 573.6266
242.0239, 574.6382
242.5060, 575.5876
242.9882, 576.3075
243.4703, 576.7359
243.9524, 576.9372
244.4345, 576.9898
244.9166, 576.9222
245.3987, 576.7582
245.8809, 576.6069
246.3630, 576.4159
246.8451, 576.3135
247.3272, 576.5116
247.8093, 576.7579
248.2914, 576.6240
248.7736, 575.8314
249.2557, 574.6751
249.7378, 574.4037
250.2199, 576.4368
250.7020, 577.5889
251.1841, 576.7997
251.6663, 575.1424
252.1484, 573.9651
252.6305, 573.9246
253.1126, 574.5753
253.5947, 574.5003
254.0768, 572.9772
254.5590, 571.5336
255.0411, 570.0605
255.5232, 568.7916
256.0053, 568.0613
256.4874, 568.0113
256.9695, 568.3419
257.4517, 568.3291
257.9338, 567.4626
258.4159, 566.8461
258.8980, 566.6978
259.3801, 566.7080
259.8622, 566.6188
260.3444, 566.3328
260.8265, 565.7879
261.3086, 564.8491
261.7907, 563.0203
262.2728, 561.5612
262.7549, 560.7516
263.2371, 560.1804
263.7192, 559.4214
264.2013, 558.3616
264.6834, 557.2253
265.1655, 556.3336
265.6476, 555.7410
266.1298, 555.3367
266.6119, 555.4385
267.0940, 555.5531
267.5761, 555.0526
268.0582, 553.8455
268.5403, 552.6574
269.0225, 552.4571
269.5046, 553.6230
269.9867, 553.9836
270.4688, 553.0839
270.9509, 551.6172
271.4330, 549.9359
271.9152, 548.1374
272.3973, 546.6500
272.8794, 545.9901
273.3615, 546.2368
273.8436, 546.2281
274.3257, 545.7200
274.8079, 545.1060
275.2900, 544.6325
275.7721, 544.3230
276.2542, 544.2337
276.7363, 544.5151
277.2184, 545.0893
277.7006, 545.3204
278.1827, 544.9355
278.6648, 544.4185
279.1469, 544.0330
279.6290, 543.7904
280.1111, 543.7229
280.5933, 543.8801
281.0754, 544.2382
281.5575, 544.6490
282.0396, 545.2093
282.5217, 545.7078
283.0038, 545.8817
283.4860, 545.8226
283.9681, 546.0539
284.4502, 546.9741
284.9323, 548.1939
285.4144, 548.8604
285.8965, 548.7447
286.3787, 548.6608
286.8608, 549.2359
287.3429, 550.2529
287.8250, 550.8221
288.3071, 550.3488
288.7892, 549.7357
289.2714, 550.4439
289.7535, 552.6321
290.2356, 554.6135
290.7177, 555.3434
291.1998, 555.2612
291.6819, 555.5668
292.1641, 556.6074
292.6462, 557.9317
293.1283, 559.1035
293.6104, 560.1346
294.0925, 561.0537
294.5746, 562.0034
295.0568, 562.8230
295.5389, 562.9965
296.0210, 562.1851
296.5031, 561.5653
296.9852, 562.5332
297.4673, 564.5623
297.9495, 566.2725
298.4316, 566.9652
298.9137, 567.1777
299.3958, 567.6431
299.8779, 568.3743
300.3600, 569.3864
300.8422, 570.9228
301.3243, 572.7199
301.8064, 574.2862
302.2885, 575.3093
302.7706, 576.2770
303.2527, 577.8987
303.7349, 580.2437
304.2170, 582.3481
304.6991, 583.6506
305.1812, 584.4817
305.6633, 585.2067
306.1454, 585.7211
306.6276, 586.4954
307.1097, 588.3087
307.5918, 591.0647
308.0739, 593.0355
308.5560, 593.0773
309.0381, 592.5635
309.5203, 593.1296
310.0024, 594.9085
310.4845, 596.8074
310.9666, 598.0092
311.4487, 598.6664
311.9308, 599.5489
312.4130, 600.9094
312.8951, 602.3672
313.3772, 603.5651
313.8593, 604.5331
314.3414, 605.4243
314.8235, 606.0911
315.3057, 606.7445
315.7878, 608.1349
316.2699, 610.7245
316.7520, 613.0621
317.2341, 613.7707
317.7162, 613.4277
318.1984, 613.2249
318.6805, 613.5299
319.1626, 614.2471
319.6447, 615.2069
320.1268, 616.3846
320.6089, 617.9440
321.0911, 620.3778
321.5732, 623.1653
322.0553, 625.5784
322.5374, 627.4351
323.0195, 628.9633
323.5016, 630.4059
323.9838, 631.7737
324.4659, 632.8063
324.9480, 633.0537
325.4301, 633.1607
325.9122, 633.9042
326.3943, 635.3974
326.8765, 637.1763
327.3586, 638.9193
327.8407, 640.6657
328.3228, 642.6596
328.8049, 645.1871
329.2870, 647.6428
329.7692, 649.4457
330.2513, 650.6324
330.7334, 651.4874
331.2155, 651.7396
331.6976, 651.7880
332.1797, 652.7571
332.6619, 655.1048
333.1440, 657.4103
333.6261, 657.9909
334.1082, 657.5757
334.5903, 657.9612
335.0724, 660.3337
335.5546, 663.4628
336.0367, 665.8290
336.5188, 667.3850
337.0009, 668.4946
337.4830, 668.9594
337.9651, 669.2377
338.4473, 670.2404
338.9294, 672.5076
339.4115, 674.8187
339.8936, 676.0786
340.3757, 676.4241
340.8578, 676.8235
341.3400, 677.5872
341.8221, 678.6429
342.3042, 679.8171
342.7863, 681.0864
343.2684, 682.5795
343.7505, 684.6270
344.2327, 686.9364
344.7148, 688.8198
345.1969, 690.1313
345.6790, 690.9918
346.1611, 691.2482
346.6432, 691.0113
347.1254, 691.0989
347.6075, 691.8754
348.0896, 693.0151
348.5717, 694.2444
349.0538, 695.5597
349.5359, 696.5745
350.0181, 696.7424
350.5002, 696.3488
350.9823, 696.6707
351.4644, 698.4915
351.9465, 700.4320
352.4286, 701.6194
352.9108, 702.1299
353.3929, 702.3050
353.8750, 702.1866
354.3571, 701.9480
354.8392, 701.9644
355.3214, 702.0671
355.8035, 702.7029
356.2856, 704.7575
356.7677, 707.3224
357.2498, 708.5774
357.7319, 707.8775
358.2141, 706.4791
358.6962, 706.0460
359.1783, 706.6758
359.6604, 707.6279
360.1425, 709.4704
360.6246, 711.2078
361.1068, 711.6539
361.5889, 710.7935
362.0710, 709.8480
362.5531, 709.8487
363.0352, 710.7997
363.5173, 711.5624
363.9995, 711.9690
364.4816, 712.3769
364.9637, 712.9907
365.4458, 713.7421
365.9279, 714.3954
366.4100, 714.7877
366.8922, 715.0884
367.3743, 715.8615
367.8564, 717.1838
368.3385, 718.8196
368.8206, 721.4431
369.3027, 724.0659
369.7849, 725.3274
370.2670, 724.8912
370.7491, 723.7852
371.2312, 723.4180
371.7133, 724.0775
372.1954, 724.6732
372.6776, 725.3246
373.1597, 725.8204
373.6418, 725.8496
374.1239, 725.5482
374.6060, 725.4520
375.0881, 726.0355
375.5703, 727.2694
376.0524, 728.1284
376.5345, 728.2577
377.0166, 728.4396
377.4987, 729.0715
377.9808, 729.8110
378.4630, 729.9571
378.9451, 729.1791
379.4272, 728.1489
379.9093, 728.5847
380.3914, 732.2087
380.8735, 734.4035
381.3557, 733.9630
381.8378, 732.9288
382.3199, 732.8378
382.8020, 733.8737
383.2841, 735.1793
383.7662, 735.7346
384.2484, 735.3665
384.7305, 735.4591
385.2126, 736.8102
385.6947, 737.8536
386.1768, 737.4994
386.6589, 736.4862
387.1411, 736.4489
387.6232, 738.6006
388.1053, 742.0831
388.5874, 743.6880
389.0695, 742.3226
389.5516, 741.0853
390.0338, 740.5268
390.5159, 740.4839
390.9980, 741.0323
391.4801, 742.1771
391.9622, 743.2726
392.4443, 743.4520
392.9265, 742.6249
393.4086, 741.7617
393.8907, 740.5262
394.3728, 739.7584
394.8549, 740.2532
395.3370, 741.7202
395.8192, 743.0368
396.3013, 743.6443
396.7834, 743.5523
397.2655, 742.5488
397.7476, 740.1225
398.2297, 738.1241
398.7119, 737.8410
399.1940, 738.4636
399.6761, 739.1046
400.1582, 739.6721
400.6403, 739.9034
401.1224, 739.3211
401.6046, 737.9772
402.0867, 736.8730
402.5688, 736.3477
403.0509, 736.1517
403.5330, 736.0995
404.0151, 736.2069
404.4973, 735.9588
404.9794, 734.6702
405.4615, 733.0089
405.9436, 732.3136
406.4257, 732.8542
406.9078, 733.4392
407.3900, 733.0220
407.8721, 731.7898
408.3542, 730.8071
408.8363, 730.4015
409.3184, 730.0423
409.8005, 729.3436
410.2827, 728.3990
410.7648, 727.5643
411.2469, 727.0235
411.7290, 726.6273
412.2111, 726.0203
412.6932, 725.1042
413.1754, 724.2560
413.6575, 723.7203
414.1396, 723.1849
414.6217, 722.1702
415.1038, 720.6498
415.5859, 719.2300
416.0681, 718.5878
416.5502, 718.8427
417.0323, 718.4972
417.5144, 716.8455
417.9965, 715.4250
418.4786, 715.0198
418.9608, 715.2865
419.4429, 715.5388
419.9250, 715.4310
420.4071, 715.0326
420.8892, 714.5341
421.3713, 714.0213
421.8535, 713.2609
422.3356, 712.3069
422.8177, 711.0864
423.2998, 709.3488
423.7819, 707.1797
424.2640, 705.1301
424.7462, 703.8494
425.2283, 703.4100
425.7104, 702.5726
426.1925, 700.7961
426.6746, 699.1951
427.1567, 698.2658
427.6389, 697.6762
428.1210, 696.8469
428.6031, 695.4495
429.0852, 693.8807
429.5673, 693.0374
430.0494, 693.1683
430.5316, 693.1228
431.0137, 692.5190
431.4958, 691.7293
431.9779, 691.0075
432.4600, 690.3589
432.9421, 689.5756
433.4243, 688.4903
433.9064, 687.1383
434.3885, 685.6462
434.8706, 683.9736
435.3527, 682.2561
435.8348, 680.4109
436.3170, 678.5979
436.7991, 677.1192
437.2812, 676.1891
437.7633, 675.4227
438.2454, 674.6414
438.7275, 673.7828
439.2097, 672.3154
439.6918, 669.7387
440.1739, 666.9562
440.6560, 665.4203
441.1381, 665.1545
441.6202, 665.0052
442.1024, 665.1236
442.5845, 664.9406
443.0666, 663.5309
443.5487, 660.8998
444.0308, 658.2660
444.5129, 656.5689
444.9951, 655.7068
445.4772, 654.5695
445.9593, 652.8357
446.4414, 651.2509
446.9235, 650.0362
447.4056, 649.1152
447.8878, 648.5821
448.3699, 648.4444
448.8520, 648.0692
449.3341, 646.3593
449.8162, 642.4819
450.2983, 639.6627
450.7805, 638.4115
451.2626, 637.5792
451.7447, 636.7619
452.2268, 635.8563
452.7089, 634.7902
453.1910, 633.5031
453.6732, 632.0557
454.1553, 630.7520
454.6374, 629.9277
455.1195, 628.6412
455.6016, 626.4644
456.0837, 624.0156
456.5659, 621.7568
457.0480, 619.7813
457.5301, 618.0514
458.0122, 616.5899
458.4943, 615.3851
458.9764, 614.1451
459.4586, 612.8970
459.9407, 611.5530
460.4228, 609.8601
460.9049, 608.0871
461.3870, 606.8125
461.8691, 606.5731
462.3513, 606.3592
462.8334, 604.6169
463.3155, 601.4254
463.7976, 598.9240
464.2797, 598.1536
464.7618, 597.9066
465.2440, 596.6505
465.7261, 594.3903
466.2082, 591.9441
466.6903, 589.0491
467.1724, 586.3924
467.6545, 585.1578
468.1367, 585.3382
468.6188, 585.3181
469.1009, 583.9368
469.5830, 581.5063
470.0651, 579.5797
470.5472, 578.5547
471.0294, 577.4681
471.5115, 575.8723
471.9936, 574.1659
472.4757, 573.0290
472.9578, 572.5797
473.4399, 572.0330
473.9221, 570.3404
474.4042, 567.1523
474.8863, 564.8582
475.3684, 564.2222
475.8505, 563.5364
476.3326, 562.1231
476.8148, 560.2408
477.2969, 558.3735
477.7790, 556.7646
478.2611, 555.3290
478.7432, 553.9455
479.2253, 552.7043
479.7075, 551.2753
480.1896, 549.3361
480.6717, 547.4468
481.1538, 545.9442
481.6359, 544.7956
482.1180, 543.7437
482.6002, 542.7121
483.0823, 541.6278
483.5644, 540.1819
484.0465, 538.2545
484.5286, 536.4429
485.0107, 535.2479
485.4929, 534.1868
485.9750, 532.6487
486.4571, 530.5188
486.9392, 528.2447
487.4213, 525.9675
487.9034, 523.7557
488.3856, 521.8881
488.8677, 520.4493
489.3498, 518.8972
489.8319, 516.6945
490.3140, 513.8845
490.7961, 511.3636
491.2783, 509.4922
491.7604, 507.5046
492.2425, 504.6095
492.7246, 501.4243
493.2067, 499.2567
493.6888, 498.5732
494.1710, 498.4356
494.6531, 497.4188
495.1352, 495.2441
495.6173, 493.0171
496.0994, 490.5615
496.5815, 488.2316
497.0637, 486.3307
497.5458, 484.6888
498.0279, 482.9374
498.5100, 480.8631
498.9921, 478.5671
499.4742, 476.1866
499.9564, 473.4917
500.4385, 471.3164
500.9206, 470.2639
501.4027, 469.3593
501.8848, 467.9975
502.3669, 466.1982
502.8491, 464.4032
503.3312, 463.0348
503.8133, 461.8639
504.2954, 460.1778
504.7775, 457.8487
505.2596, 455.6443
505.7418, 453.9338
506.2239, 452.5726
506.7060, 451.4183
507.1881, 450.5812
507.6702, 449.4719
508.1523, 447.7017
508.6345, 445.4994
509.1166, 443.0557
509.5987, 440.3882
510.0808, 438.1537
510.5629, 437.0591
511.0450, 436.9607
511.5272, 436.0892
512.0093, 433.8417
512.4914, 431.6404
512.9735, 429.7298
513.4556, 428.1642
513.9377, 427.1480
514.4199, 426.6826
514.9020, 426.2531
515.3841, 425.1656
515.8662, 423.2669
516.3483, 421.7857
516.8304, 421.4945
517.3126, 420.8065
517.7947, 419.1013
518.2768, 416.7739
518.7589, 414.3226
519.2410, 411.9250
519.7231, 409.7592
520.2053, 408.2367
520.6874, 407.4314
521.1695, 406.1761
521.6516, 403.9675
522.1337, 401.7238
522.6158, 400.1908
523.0980, 399.1286
523.5801, 397.8363
524.0622, 395.9258
524.5443, 393.8288
525.0264, 391.9788
525.5085, 390.3422
525.9907, 388.8329
526.4728, 387.4511
526.9549, 386.0975
527.4370, 384.5921
527.9191, 382.8741
528.4012, 381.3293
528.8834, 380.3582
529.3655, 379.2628
529.8476, 377.3839
530.3297, 374.9464
530.8118, 372.6610
531.2939, 370.9048
531.7761, 369.5387
532.2582, 368.2228
532.7403, 366.9818
533.2224, 365.7407
533.7045, 364.5865
534.1866, 363.3541
534.6688, 361.8462
535.1509, 360.1544
535.6330, 358.5911
536.1151, 357.4342
536.5972, 356.4453
537.0793, 354.8174
537.5615, 352.2879
538.0436, 350.2617
538.5257, 349.7210
539.0078, 349.4258
539.4899, 348.2114
539.9720, 346.0880
540.4542, 344.0229
540.9363, 342.6605
541.4184, 341.5557
541.9005, 339.9825
542.3826, 337.9481
542.8647, 336.0567
543.3469, 334.5922
543.8290, 333.4916
544.3111, 332.6865
544.7932, 332.5569
545.2753, 331.8107
545.7574, 329.5272
546.2396, 327.0727
546.7217, 325.8506
547.2038, 325.6915
547.6859, 325.3306
548.1680, 323.8319
548.6501, 321.5033
549.1323, 319.7303
549.6144, 318.9109
550.0965, 317.9836
550.5786, 316.7306
551.0607, 315.4149
551.5428, 314.2163
552.0250, 313.1503
552.5071, 312.1447
552.9892, 311.1202
553.4713, 310.1236
553.9534, 309.3471
554.4355, 308.8712
554.9177, 308.1931
555.3998, 306.9496
555.8819, 305.5128
556.3640, 304.4289
556.8461, 303.7604
557.3282, 302.9846
557.8104, 301.8957
558.2925, 300.5883
558.7746, 298.9939
559.2567, 297.1916
559.7388, 295.8307
560.2209, 295.4043
560.7031, 295.5143
561.1852, 294.8896
561.6673, 292.8945
562.1494, 291.0130
562.6315, 289.1407
563.1136, 287.4845
563.5958, 286.2485
564.0779, 285.3769
564.5600, 284.6831
565.0421, 284.0526
565.5242, 283.4634
566.0063, 282.8343
566.4885, 282.1424
566.9706, 281.4876
567.4527, 281.1922
567.9348, 280.7090
568.4169, 279.4568
568.8990, 277.5463
569.3812, 275.8273
569.8633, 274.9382
570.3454, 274.4124
570.8275, 273.4969
571.3096, 272.2308
571.7917, 271.2776
572.2739, 271.0309
572.7560, 271.0452
573.2381, 270.4676
573.7202, 269.1042
574.2023, 267.9511
574.6844, 267.2361
575.1666, 266.6370
575.6487, 265.9676
576.1308, 265.2260
576.6129, 264.4325
577.0950, 263.5864
577.5771, 262.7807
578.0593, 262.2766
578.5414, 262.3128
579.0235, 261.9933
579.5056, 260.9792
579.9877, 259.8676
580.4698, 258.8124
580.9520, 257.8750
581.4341, 257.1504
581.9162, 256.7342
582.3983, 256.4362
582.8804, 256.0523
583.3625, 255.5760
583.8447, 254.8859
584.3268, 253.8141
584.8089, 252.8462
585.2910, 252.6346
585.7731, 253.0904
586.2552, 253.2744
586.7374, 252.9717
587.2195, 252.5213
587.7016, 252.0240
588.1837, 251.5192
588.6658, 251.0429
589.1479, 250.6111
589.6301, 250.2903
590.1122, 250.2236
590.5943, 250.4878
591.0764, 250.2454
591.5585, 248.6533
592.0406, 247.5421
592.5228, 247.8190
593.0049, 248.5779
593.4870, 248.6285
593.9691, 247.6857
594.4512, 246.7203
594.9333, 246.9039
595.4155, 247.8871
595.8976, 248.0507
596.3797, 247.1522
596.8618, 246.1319
597.3439, 245.5501
597.8260, 245.2140
598.3082, 244.6639
598.7903, 243.8926
599.2724, 242.9329
599.7545, 241.4444
600.2366, 239.9898
600.7188, 239.3134
601.2009, 239.3577
601.6830, 239.4412
602.1651, 239.1046
602.6472, 238.4507
603.1293, 237.8602
603.6115, 237.3924
604.0936, 236.8754
604.5757, 236.1470
605.0578, 235.5021
605.5399, 235.2305
606.0220, 235.2167
606.5042, 235.0526
606.9863, 234.4407
607.4684, 233.6683
607.9505, 233.2740
608.4326, 233.2429
608.9147, 232.9762
609.3969, 232.2456
609.8790, 231.3651
610.3611, 230.6266
610.8432, 230.0235
611.3253, 229.5732
611.8074, 229.2027
612.2896, 229.0640
612.7717, 229.5021
613.2538, 230.1510
613.7359, 230.3573
614.2180, 229.9423
614.7001, 229.2585
615.1823, 228.6516
615.6644, 228.1012
616.1465, 228.0729
616.6286, 229.0763
617.1107, 229.9048
617.5928, 230.1559
618.0750, 230.1463
618.5571, 230.1939
619.0392, 230.3591
619.5213, 230.5156
620.0034, 230.4324
620.4855, 230.3055
620.9677, 230.5949
621.4498, 231.3267
621.9319, 232.2942
622.4140, 233.4820
622.8961, 234.7536
623.3782, 235.8227
623.8604, 236.6651
624.3425, 237.4162
624.8246, 237.7188
625.3067, 238.2571
625.7888, 239.5191
626.2709, 241.4002
626.7531, 243.7024
627.2352, 246.3307
627.7173, 248.9514
628.1994, 250.8245
628.6815, 251.7554
629.1636, 253.0352
629.6458, 254.8198
630.1279, 256.8506
630.6100, 258.7960
631.0921, 260.9206
631.5742, 263.6933
632.0563, 267.2767
632.5385, 271.3828
633.0206, 276.1972
633.5027, 281.2805
633.9848, 285.6747
634.4669, 289.2547
634.9490, 292.7815
635.4312, 296.8243
635.9133, 301.2748
636.3954, 305.6743
636.8775, 310.3766
637.3596, 314.4902
637.8417, 318.3753
638.3239, 321.3278
638.8060, 322.6744
639.2881, 322.6048
639.7702, 321.8498
640.2523, 320.8786
640.7344, 319.3930
641.2166, 316.8417
641.6987, 313.2035
642.1808, 308.6609
642.6629, 302.9532
643.1450, 296.7842
643.6271, 290.6814
644.1093, 284.6013
644.5914, 278.4854
645.0735, 272.1086
645.5556, 265.9808
646.0377, 260.4161
646.5198, 255.2139
647.0020, 250.0610
647.4841, 244.9501
647.9662, 240.1519
648.4483, 235.8940
648.9304, 232.1912
649.4125, 228.9891
649.8947, 226.4122
650.3768, 224.1603
650.8589, 222.5741
651.3410, 220.9748
651.8231, 218.7686
652.3052, 216.0571
652.7874, 213.4876
653.2695, 211.4070
653.7516, 209.6044
654.2337, 207.8465
654.7158, 206.1519
655.1979, 204.6088
655.6801, 203.2426
656.1622, 202.0331
656.6443, 200.9557
657.1264, 200.0140
657.6085, 199.1992
658.0906, 198.5716
658.5728, 197.9789
659.0549, 197.4797
659.5370, 196.9368
660.0191, 196.0735
660.5012, 194.9394
660.9833, 194.0358
661.4655, 193.9155
661.9476, 194.2552
662.4297, 193.9476
662.9118, 192.8810
663.3939, 192.0808
663.8760, 192.0133
664.3582, 192.1638
664.8403, 191.9458
665.3224, 191.3879
665.8045, 190.7133
666.2866, 189.8175
666.7687, 188.9594
667.2509, 188.3583
667.7330, 187.8701
668.2151, 187.1835
668.6972, 186.2491
669.1793, 185.4041
669.6614, 184.9972
670.1436, 185.0079
670.6257, 185.2273
671.1078, 186.1459
671.5899, 186.2578
672.0720, 184.3438
672.5541, 182.0119
673.0363, 180.4779
673.5184, 179.7745
674.0005, 179.2766
674.4826, 178.9187
674.9647, 178.4753
675.4468, 177.5219
675.9290, 176.2857
676.4111, 175.5697
676.8932, 175.6357
677.3753, 175.7631
677.8574, 175.0369
678.3395, 173.4018
678.8217, 172.3567
679.3038, 172.5802
679.7859, 172.5385
680.2680, 171.8882
680.7501, 170.9312
681.2322, 169.8049
681.7144, 168.6106
682.1965, 167.6335
682.6786, 167.2229
683.1607, 167.0413
683.6428, 166.4819
684.1249, 165.5968
684.6071, 164.8845
685.0892, 164.5265
685.5713, 164.2529
686.0534, 163.7171
686.5355, 162.8911
687.0176, 162.3486
687.4998, 162.4333
687.9819, 162.3431
688.4640, 161.8266
688.9461, 161.0716
689.4282, 160.1132
689.9103, 159.0676
690.3925, 158.3164
690.8746, 158.2524
691.3567, 158.5875
691.8388, 158.6782
692.3209, 158.5236
692.8030, 158.1334
