##NAMES=Ashcroftine-(Y)
##RRUFFID=R110189
##IDEAL CHEMISTRY=K_5_Na_5_Y_12_Si_28_O_70_(OH)_2_(CO_3_)_8_&#183;8H_2_O
##LOCALITY=Poudrette quarry, Mont Saint-Hilaire, Quebec, Canada
##OWNER=RRUFF
##SOURCE=Donald Doell
##DESCRIPTION=Aggregate of pink fibrous crystals
##STATUS=The identification of this mineral has been confirmed by single-crystal X-ray diffraction.
##URL=rruff.info/R110189
239.9483, 369.1298
240.4305, 368.8377
240.9126, 368.8983
241.3947, 369.2023
241.8768, 370.1807
242.3589, 372.2996
242.8410, 375.0799
243.3232, 376.7748
243.8053, 376.7455
244.2874, 376.4912
244.7695, 376.7731
245.2516, 377.8647
245.7337, 378.8450
246.2159, 379.5721
246.6980, 380.1756
247.1801, 381.1066
247.6622, 382.6200
248.1443, 384.0741
248.6264, 385.1837
249.1086, 385.9956
249.5907, 386.3288
250.0728, 385.9382
250.5549, 385.1398
251.0370, 384.7886
251.5191, 385.0824
252.0013, 385.5251
252.4834, 385.9857
252.9655, 386.6957
253.4476, 386.7864
253.9297, 385.9755
254.4118, 384.6793
254.8940, 383.8236
255.3761, 383.6000
255.8582, 383.4742
256.3403, 383.2645
256.8224, 383.0190
257.3046, 382.4807
257.7867, 381.4855
258.2688, 380.2951
258.7509, 379.5040
259.2330, 379.4381
259.7151, 379.1048
260.1973, 377.9904
260.6794, 375.8355
261.1615, 374.2094
261.6436, 373.4302
262.1257, 372.9277
262.6078, 371.5956
263.0900, 368.9355
263.5721, 366.6976
264.0542, 365.6879
264.5363, 366.1739
265.0184, 366.0391
265.5005, 365.1039
265.9827, 363.7777
266.4648, 362.6118
266.9469, 361.6572
267.4290, 360.7464
267.9111, 359.8425
268.3932, 358.9530
268.8754, 357.9110
269.3575, 356.6046
269.8396, 355.3037
270.3217, 354.3844
270.8038, 353.9074
271.2859, 353.5718
271.7681, 353.4323
272.2502, 353.4625
272.7323, 352.7899
273.2144, 351.1710
273.6965, 349.3606
274.1786, 348.2112
274.6608, 347.8258
275.1429, 347.4927
275.6250, 347.0189
276.1071, 346.4455
276.5892, 346.0639
277.0714, 345.8954
277.5535, 345.8773
278.0356, 346.0648
278.5177, 346.5063
278.9998, 346.5988
279.4819, 346.0886
279.9641, 345.1581
280.4462, 344.6596
280.9283, 344.6616
281.4104, 344.7901
281.8925, 344.7645
282.3746, 344.5854
282.8568, 344.3265
283.3389, 343.9435
283.8210, 343.5456
284.3031, 343.4869
284.7852, 343.8116
285.2673, 344.1779
285.7495, 344.3881
286.2316, 344.4490
286.7137, 344.3098
287.1958, 343.8452
287.6779, 343.3629
288.1600, 343.6046
288.6422, 344.5797
289.1243, 345.6082
289.6064, 346.1778
290.0885, 346.3895
290.5706, 346.8078
291.0527, 347.5547
291.5349, 348.3227
292.0170, 348.5028
292.4991, 348.1439
292.9812, 347.8719
293.4633, 348.0933
293.9454, 348.6732
294.4276, 349.1830
294.9097, 349.5791
295.3918, 349.9790
295.8739, 350.6467
296.3560, 351.4938
296.8381, 352.1271
297.3203, 352.1220
297.8024, 351.8139
298.2845, 351.8901
298.7666, 352.3796
299.2487, 353.1170
299.7308, 354.0580
300.2130, 355.1388
300.6951, 356.1612
301.1772, 357.0828
301.6593, 357.8801
302.1414, 358.4842
302.6235, 358.8924
303.1057, 359.2695
303.5878, 359.5744
304.0699, 359.9579
304.5520, 360.7143
305.0341, 362.1803
305.5162, 363.8344
305.9984, 365.0767
306.4805, 365.9639
306.9626, 366.9632
307.4447, 368.4615
307.9268, 370.2332
308.4089, 371.9979
308.8911, 373.8065
309.3732, 375.4025
309.8553, 376.3567
310.3374, 376.8613
310.8195, 377.5883
311.3016, 378.9772
311.7838, 380.7133
312.2659, 382.5422
312.7480, 384.4070
313.2301, 386.3555
313.7122, 388.4082
314.1943, 390.5862
314.6765, 392.8907
315.1586, 395.5501
315.6407, 398.1717
316.1228, 400.4459
316.6049, 402.1938
317.0870, 404.1566
317.5692, 407.0150
318.0513, 410.1946
318.5334, 412.8741
319.0155, 414.0842
319.4976, 415.3463
319.9797, 417.2563
320.4619, 419.8725
320.9440, 422.9439
321.4261, 426.4863
321.9082, 430.3772
322.3903, 434.4879
322.8724, 439.3770
323.3546, 443.8818
323.8367, 447.2237
324.3188, 449.4772
324.8009, 452.8094
325.2830, 458.5804
325.7651, 464.8828
326.2473, 470.4716
326.7294, 474.7010
327.2115, 478.8482
327.6936, 482.7882
328.1757, 486.6413
328.6578, 491.1531
329.1400, 497.5237
329.6221, 503.5812
330.1042, 508.3915
330.5863, 510.7255
331.0684, 513.9007
331.5505, 518.5546
332.0327, 523.9055
332.5148, 528.1224
332.9969, 530.3395
333.4790, 532.5561
333.9611, 535.5629
334.4432, 539.6721
334.9254, 543.2190
335.4075, 545.8782
335.8896, 548.1793
336.3717, 550.8658
336.8538, 554.0641
337.3359, 557.2748
337.8180, 560.4079
338.3001, 563.4496
338.7823, 566.1620
339.2644, 568.4781
339.7465, 570.5694
340.2286, 572.5273
340.7107, 574.2903
341.1928, 576.3325
341.6750, 578.9304
342.1571, 581.8120
342.6392, 583.6009
343.1213, 584.1545
343.6034, 584.4943
344.0855, 585.5193
344.5677, 587.1773
345.0498, 588.2606
345.5319, 588.4996
346.0140, 588.2977
346.4961, 588.4828
346.9782, 589.0332
347.4604, 589.4065
347.9425, 589.1937
348.4246, 588.5364
348.9067, 587.9290
349.3888, 587.3911
349.8709, 586.9356
350.3531, 586.7465
350.8352, 586.7001
351.3173, 586.3411
351.7994, 585.1258
352.2815, 583.5805
352.7636, 582.7313
353.2458, 582.5714
353.7279, 582.2794
354.2100, 580.8160
354.6921, 578.7888
355.1742, 577.3054
355.6563, 577.1735
356.1385, 577.1943
356.6206, 576.1313
357.1027, 574.1497
357.5848, 572.1192
358.0669, 570.3800
358.5490, 568.9117
359.0312, 567.7150
359.5133, 566.8185
359.9954, 566.1127
360.4775, 565.8731
360.9596, 565.7831
361.4417, 565.1747
361.9239, 563.3494
362.4060, 561.2701
362.8881, 559.4079
363.3702, 557.8084
363.8523, 556.4675
364.3344, 555.5917
364.8166, 554.9030
365.2987, 554.0763
365.7808, 552.8535
366.2629, 551.6930
366.7450, 550.8036
367.2271, 550.1832
367.7093, 549.3529
368.1914, 547.9761
368.6735, 546.5403
369.1556, 545.3557
369.6377, 544.9839
370.1198, 544.1864
370.6020, 542.6583
371.0841, 540.6271
371.5662, 538.9078
372.0483, 537.5151
372.5304, 536.4328
373.0125, 535.8018
373.4947, 536.1229
373.9768, 535.3812
374.4589, 533.0974
374.9410, 530.1254
375.4231, 527.9096
375.9052, 526.7228
376.3874, 525.4993
376.8695, 523.8671
377.3516, 521.8333
377.8337, 520.2054
378.3158, 518.9741
378.7979, 518.1371
379.2801, 517.7126
379.7622, 517.7040
380.2443, 518.0803
380.7264, 518.9141
381.2085, 520.0692
381.6906, 521.4426
382.1728, 523.0432
382.6549, 524.0397
383.1370, 523.2902
383.6191, 521.3230
384.1012, 520.3358
384.5833, 520.6470
385.0655, 521.5640
385.5476, 522.0927
386.0297, 522.4106
386.5118, 523.1563
386.9939, 524.9335
387.4760, 527.2130
387.9582, 529.2795
388.4403, 531.1375
388.9224, 532.8715
389.4045, 534.0892
389.8866, 535.3324
390.3687, 537.4354
390.8509, 541.3829
391.3330, 545.4867
391.8151, 548.6296
392.2972, 550.9446
392.7793, 553.0231
393.2614, 554.5579
393.7436, 556.3343
394.2257, 559.1271
394.7078, 563.6414
395.1899, 567.7060
395.6720, 570.1311
396.1541, 571.6849
396.6363, 573.6055
397.1184, 576.4368
397.6005, 579.4464
398.0826, 582.4063
398.5647, 585.2921
399.0468, 588.2161
399.5290, 591.3339
400.0111, 594.4104
400.4932, 597.2595
400.9753, 599.6729
401.4574, 602.1503
401.9395, 604.7256
402.4217, 607.3944
402.9038, 610.0411
403.3859, 612.4576
403.8680, 615.1644
404.3501, 618.5735
404.8322, 623.0558
405.3144, 626.7654
405.7965, 629.3702
406.2786, 631.5456
406.7607, 634.4358
407.2428, 638.2009
407.7249, 641.8125
408.2071, 644.8651
408.6892, 647.4464
409.1713, 650.0296
409.6534, 652.6335
410.1355, 655.1708
410.6176, 657.4816
411.0998, 659.6257
411.5819, 661.9007
412.0640, 664.3552
412.5461, 666.9818
413.0282, 670.0778
413.5103, 673.5008
413.9925, 676.4928
414.4746, 678.3021
414.9567, 679.5303
415.4388, 681.2221
415.9209, 683.5541
416.4030, 685.6170
416.8852, 686.3420
417.3673, 686.3636
417.8494, 686.7190
418.3315, 688.1902
418.8136, 689.8260
419.2957, 691.1200
419.7779, 692.0802
420.2600, 692.8246
420.7421, 693.5211
421.2242, 693.9594
421.7063, 693.9109
422.1884, 692.9548
422.6706, 692.2589
423.1527, 692.3555
423.6348, 692.8741
424.1169, 693.1133
424.5990, 692.7469
425.0811, 692.2930
425.5633, 691.8040
426.0454, 691.2126
426.5275, 691.0420
427.0096, 692.0552
427.4917, 692.8580
427.9738, 692.1061
428.4560, 688.4472
428.9381, 686.1527
429.4202, 686.4114
429.9023, 688.2213
430.3844, 687.8995
430.8665, 684.7189
431.3487, 681.4749
431.8308, 679.6115
432.3129, 679.1987
432.7950, 678.9813
433.2771, 679.0859
433.7592, 679.0353
434.2414, 677.8884
434.7235, 675.7770
435.2056, 674.2822
435.6877, 674.1745
436.1698, 674.8192
436.6519, 674.8129
437.1341, 674.1953
437.6162, 673.6194
438.0983, 673.6505
438.5804, 674.0295
439.0625, 674.2421
439.5446, 674.1019
440.0268, 674.1398
440.5089, 674.7589
440.9910, 675.9100
441.4731, 677.4757
441.9552, 680.0438
442.4373, 682.5076
442.9195, 683.9541
443.4016, 684.3867
443.8837, 685.0876
444.3658, 686.8282
444.8479, 688.9043
445.3300, 690.7220
445.8122, 691.4235
446.2943, 692.8333
446.7764, 695.6478
447.2585, 699.4035
447.7406, 702.9210
448.2227, 706.2141
448.7049, 709.1689
449.1870, 711.7645
449.6691, 713.9565
450.1512, 715.9667
450.6333, 717.8226
451.1154, 719.4619
451.5976, 720.7264
452.0797, 721.3932
452.5618, 722.4887
453.0439, 724.3920
453.5260, 726.7221
454.0081, 728.3298
454.4903, 729.1340
454.9724, 729.8023
455.4545, 730.6194
455.9366, 731.5905
456.4187, 732.9860
456.9008, 734.9009
457.3830, 736.6603
457.8651, 737.3356
458.3472, 737.1494
458.8293, 736.7540
459.3114, 736.0555
459.7935, 735.5437
460.2757, 736.1260
460.7578, 737.5707
461.2399, 738.7491
461.7220, 738.4370
462.2041, 737.8151
462.6862, 738.2814
463.1684, 740.4188
463.6505, 741.9269
464.1326, 740.7823
464.6147, 738.5706
465.0968, 737.3235
465.5789, 738.8141
466.0611, 740.2194
466.5432, 740.4979
467.0253, 739.7714
467.5074, 739.5502
467.9895, 740.4952
468.4716, 741.6044
468.9538, 742.3896
469.4359, 742.6227
469.9180, 743.0228
470.4001, 743.7410
470.8822, 744.5101
471.3643, 744.8082
471.8465, 744.2693
472.3286, 744.3279
472.8107, 745.5682
473.2928, 747.7111
473.7749, 749.0930
474.2570, 749.5217
474.7392, 750.1386
475.2213, 752.1565
475.7034, 755.2926
476.1855, 757.4706
476.6676, 758.2974
477.1497, 758.7727
477.6319, 760.2976
478.1140, 762.6082
478.5961, 764.8151
479.0782, 766.4033
479.5603, 767.7728
480.0424, 769.2966
480.5246, 770.9902
481.0067, 772.9197
481.4888, 775.8191
481.9709, 778.5829
482.4530, 780.0822
482.9352, 779.5986
483.4173, 779.0845
483.8994, 779.3216
484.3815, 779.9996
484.8636, 780.6453
485.3457, 781.3780
485.8279, 781.8260
486.3100, 781.9063
486.7921, 781.6105
487.2742, 780.9889
487.7563, 780.1075
488.2384, 778.8509
488.7206, 777.1124
489.2027, 774.6845
489.6848, 772.3465
490.1669, 769.9572
490.6490, 767.8408
491.1311, 766.8109
491.6133, 767.1638
492.0954, 766.5350
492.5775, 763.6457
493.0596, 759.3560
493.5417, 756.8508
494.0238, 756.1395
494.5060, 756.2809
494.9881, 757.5567
495.4702, 759.0861
495.9523, 758.1403
496.4344, 753.8018
496.9165, 749.5562
497.3987, 749.8593
497.8808, 752.6534
498.3629, 754.0565
498.8450, 750.8839
499.3271, 747.1349
499.8092, 745.5801
500.2914, 745.8534
500.7735, 745.9536
501.2556, 745.0812
501.7377, 743.8235
502.2198, 742.4180
502.7019, 740.5905
503.1841, 739.4124
503.6662, 739.6334
504.1483, 740.3268
504.6304, 740.3759
505.1125, 739.0511
505.5946, 738.2778
506.0768, 738.4963
506.5589, 739.5035
507.0410, 740.3104
507.5231, 740.8891
508.0052, 741.3206
508.4873, 741.3983
508.9695, 741.1068
509.4516, 742.0201
509.9337, 744.3954
510.4158, 746.9023
510.8979, 747.7496
511.3800, 747.3145
511.8622, 747.2891
512.3443, 748.2506
512.8264, 749.6406
513.3085, 750.7056
513.7906, 751.5624
514.2728, 752.6245
514.7549, 754.9371
515.2370, 757.0386
515.7191, 757.3732
516.2012, 755.7433
516.6833, 754.2408
517.1655, 753.9325
517.6476, 754.1315
518.1297, 754.2502
518.6118, 753.9729
519.0939, 753.8605
519.5760, 754.0414
520.0582, 754.4471
520.5403, 754.9178
521.0224, 755.5831
521.5045, 756.1237
521.9866, 756.4943
522.4688, 756.6891
522.9509, 756.4474
523.4330, 755.6046
523.9151, 754.6815
524.3972, 754.1795
524.8793, 754.1109
525.3615, 753.5595
525.8436, 752.3300
526.3257, 750.8784
526.8078, 749.9080
527.2899, 749.3314
527.7720, 748.7617
528.2542, 747.9486
528.7363, 747.1416
529.2184, 746.9691
529.7005, 747.2439
530.1826, 746.9410
530.6647, 744.8679
531.1469, 742.2961
531.6290, 740.3876
532.1111, 739.4971
532.5932, 738.4034
533.0753, 736.0966
533.5574, 733.5842
534.0396, 731.9491
534.5217, 732.4872
535.0038, 732.6111
535.4859, 732.0397
535.9680, 730.8094
536.4501, 728.8867
536.9323, 725.6171
537.4144, 722.7747
537.8965, 721.0992
538.3786, 720.6159
538.8607, 720.2053
539.3428, 719.9138
539.8250, 719.5336
540.3071, 719.0023
540.7892, 718.2823
541.2713, 716.8028
541.7534, 714.2606
542.2355, 711.5436
542.7177, 709.7947
543.1998, 708.8826
543.6819, 708.4447
544.1640, 709.1086
544.6461, 709.6212
545.1282, 708.4745
545.6104, 705.9318
546.0925, 703.6084
546.5746, 702.8474
547.0567, 702.2495
547.5388, 700.6376
548.0209, 697.2828
548.5031, 694.8824
548.9852, 694.5027
549.4673, 695.0887
549.9494, 695.5740
550.4315, 696.5507
550.9136, 696.3932
551.3958, 694.3758
551.8779, 691.2383
552.3600, 689.2792
552.8421, 688.7345
553.3242, 688.4960
553.8063, 688.2736
554.2885, 688.0097
554.7706, 687.1359
555.2527, 685.6070
555.7348, 683.9688
556.2169, 682.7366
556.6990, 681.7733
557.1812, 680.5964
557.6633, 679.0231
558.1454, 677.6768
558.6275, 677.4990
559.1096, 677.9275
559.5917, 677.9626
560.0739, 676.6080
560.5560, 675.3314
561.0381, 674.9070
561.5202, 675.2021
562.0023, 675.5879
562.4844, 676.3653
562.9666, 676.7939
563.4487, 676.4033
563.9308, 674.9791
564.4129, 673.8144
564.8950, 672.9277
565.3771, 672.2688
565.8593, 671.7531
566.3414, 671.3140
566.8235, 671.3174
567.3056, 671.8842
567.7877, 672.7748
568.2698, 673.8060
568.7520, 674.9432
569.2341, 675.3641
569.7162, 674.3346
570.1983, 672.7031
570.6804, 672.0555
571.1625, 672.2941
571.6447, 672.6585
572.1268, 672.4868
572.6089, 672.3083
573.0910, 672.7750
573.5731, 674.0731
574.0552, 675.1639
574.5374, 675.0231
575.0195, 674.7338
575.5016, 675.3039
575.9837, 678.0181
576.4658, 680.2174
576.9479, 681.4187
577.4301, 682.0000
577.9122, 682.6644
578.3943, 683.2682
578.8764, 684.2277
579.3585, 685.7673
579.8406, 687.7695
580.3228, 689.4828
580.8049, 690.8990
581.2870, 692.0606
581.7691, 692.7360
582.2512, 693.1544
582.7333, 694.4352
583.2155, 696.7493
583.6975, 699.0233
584.1796, 699.8820
584.6617, 700.1553
585.1439, 701.2452
585.6260, 703.7716
586.1081, 706.7947
586.5902, 710.1006
587.0723, 713.4765
587.5544, 716.4440
588.0366, 718.7744
588.5187, 720.8309
589.0008, 722.4465
589.4829, 723.6808
589.9650, 725.6330
590.4471, 728.7083
590.9293, 731.9490
591.4114, 734.9224
591.8935, 737.6374
592.3756, 739.9532
592.8577, 741.7147
593.3398, 743.4972
593.8220, 746.2408
594.3041, 749.7496
594.7862, 752.3584
595.2683, 753.5781
595.7504, 754.3436
596.2325, 755.8878
596.7147, 757.9894
597.1968, 760.0275
597.6789, 761.7834
598.1610, 763.3696
598.6431, 764.7052
599.1252, 765.8889
599.6074, 767.3692
600.0895, 770.3410
600.5716, 772.7817
601.0537, 773.3082
601.5358, 771.1177
602.0179, 770.4918
602.5001, 772.5617
602.9822, 775.1281
603.4643, 776.5086
603.9464, 776.3402
604.4285, 776.4279
604.9106, 776.8442
605.3928, 777.6138
605.8749, 778.7880
606.3570, 780.3690
606.8391, 782.3936
607.3212, 785.2447
607.8033, 788.0576
608.2855, 789.0068
608.7676, 788.6342
609.2497, 788.9907
609.7318, 792.2690
610.2139, 795.9272
610.6960, 797.5146
611.1782, 797.0168
611.6603, 797.4106
612.1424, 800.9283
612.6245, 804.8104
613.1066, 807.2347
613.5887, 807.0863
614.0709, 807.8450
614.5530, 809.8488
615.0351, 812.4922
615.5172, 815.3383
615.9993, 818.6218
616.4814, 821.0461
616.9636, 822.0768
617.4457, 822.6859
617.9278, 824.8221
618.4099, 828.3859
618.8920, 832.3312
619.3741, 836.6967
619.8563, 840.8754
620.3384, 843.3787
620.8205, 844.5922
621.3026, 846.4815
621.7847, 850.3865
622.2668, 855.2618
622.7490, 860.5660
623.2311, 866.3580
623.7132, 871.4775
624.1953, 874.6954
624.6774, 877.7854
625.1595, 882.0118
625.6417, 887.9448
626.1238, 893.9060
626.6059, 899.4371
627.0880, 905.4526
627.5701, 913.4220
628.0522, 923.5761
628.5344, 933.4339
629.0165, 942.2071
629.4986, 950.8116
629.9807, 961.2766
630.4628, 973.3494
630.9449, 985.3557
631.4271, 996.0507
631.9092, 1006.634
632.3913, 1018.506
632.8734, 1031.560
633.3555, 1044.741
633.8376, 1057.505
634.3198, 1070.349
634.8019, 1083.927
635.2840, 1098.665
635.7661, 1112.327
636.2482, 1124.259
636.7303, 1135.548
637.2125, 1147.121
637.6946, 1159.841
638.1767, 1170.572
638.6588, 1179.315
639.1409, 1185.867
639.6230, 1189.767
640.1052, 1191.075
640.5873, 1190.061
641.0694, 1186.726
641.5515, 1181.246
642.0336, 1173.928
642.5157, 1164.766
642.9979, 1153.539
643.4800, 1139.537
643.9621, 1124.027
644.4442, 1107.417
644.9263, 1089.937
645.4084, 1073.077
645.8906, 1057.461
646.3727, 1042.608
646.8548, 1028.210
647.3369, 1014.202
647.8190, 1001.327
648.3011, 989.8315
648.7833, 979.2652
649.2654, 969.4552
649.7475, 960.2764
650.2296, 951.9689
650.7117, 944.5119
651.1938, 937.9232
651.6760, 932.4633
652.1581, 927.9667
652.6402, 924.1155
653.1223, 920.8759
653.6044, 918.1190
654.0865, 915.9435
654.5687, 914.0771
655.0508, 911.9924
655.5329, 908.5430
656.0150, 905.7841
656.4971, 904.9108
656.9792, 905.5349
657.4614, 905.5306
657.9435, 904.0876
658.4256, 903.0267
658.9077, 903.1041
659.3898, 904.2520
659.8719, 904.8195
660.3541, 904.7305
660.8362, 904.4108
661.3183, 903.9995
661.8004, 903.5879
662.2825, 903.6411
662.7646, 904.2182
663.2468, 904.6918
663.7289, 904.3674
664.2110, 903.6693
664.6931, 903.1462
665.1752, 902.9578
665.6573, 902.8743
666.1395, 902.6645
666.6216, 902.5634
667.1037, 902.8563
667.5858, 904.0300
668.0679, 905.0450
668.5500, 905.7606
669.0322, 906.2955
669.5143, 906.9930
669.9964, 907.9965
670.4785, 908.4602
670.9606, 908.0912
671.4427, 907.0183
671.9249, 905.1716
672.4070, 902.7071
672.8891, 900.9923
673.3712, 901.8349
673.8533, 903.2809
674.3354, 902.7686
674.8176, 900.4383
675.2997, 898.4164
675.7818, 898.1570
676.2639, 898.2731
676.7460, 897.9327
677.2281, 896.9662
677.7103, 895.8676
678.1924, 894.3767
678.6745, 893.0502
679.1566, 892.2953
679.6387, 892.1842
680.1208, 892.4206
680.6030, 893.1842
681.0851, 893.7664
681.5672, 893.0442
682.0493, 891.3080
682.5314, 889.7555
683.0135, 888.6357
683.4957, 887.9033
683.9778, 887.8594
684.4599, 888.1351
684.9420, 888.0442
685.4241, 887.4342
685.9063, 886.3055
686.3884, 884.0818
686.8705, 881.2618
687.3526, 879.5493
687.8347, 879.5465
688.3168, 879.9122
688.7990, 880.5764
689.2811, 881.3779
689.7632, 880.9988
690.2453, 879.3093
690.7274, 877.3987
691.2095, 875.4625
691.6917, 873.8336
692.1738, 874.0079
692.6559, 875.8986
693.1380, 877.3458
693.6201, 875.6393
694.1022, 873.3730
694.5844, 873.3886
695.0665, 876.4415
695.5486, 879.0118
696.0307, 879.5771
696.5128, 879.3614
696.9949, 879.3203
697.4771, 879.4991
697.9592, 879.8884
698.4413, 880.7597
698.9234, 881.5098
699.4055, 881.0709
699.8876, 879.4164
700.3698, 879.0123
700.8519, 880.7214
701.3340, 882.6998
701.8161, 881.7331
702.2982, 878.9771
702.7803, 877.3287
703.2625, 878.3515
703.7446, 880.2502
704.2267, 882.3214
704.7088, 884.3516
705.1909, 885.8538
705.6730, 886.4124
706.1552, 886.6799
706.6373, 886.6022
707.1194, 886.3144
707.6015, 886.5699
708.0836, 887.5765
708.5657, 888.4120
709.0479, 888.5614
709.5300, 888.2367
710.0121, 888.3890
710.4942, 888.9998
710.9763, 889.7523
711.4584, 890.8200
711.9406, 891.7042
712.4227, 891.5867
712.9048, 890.4687
713.3869, 889.4747
713.8690, 888.9919
714.3511, 888.9609
714.8333, 889.4338
715.3154, 890.6664
715.7975, 891.6699
716.2796, 892.4808
716.7617, 893.0633
717.2438, 893.3120
717.7260, 893.1833
718.2081, 893.2268
718.6902, 893.4020
719.1723, 894.0862
719.6544, 896.3740
720.1365, 899.4806
720.6187, 901.2295
721.1008, 900.7169
721.5829, 900.0816
722.0650, 901.1013
722.5471, 902.9080
723.0292, 904.3630
723.5114, 904.7831
723.9935, 905.2078
724.4756, 906.0618
724.9577, 906.9031
725.4398, 906.8934
725.9219, 905.6754
726.4041, 904.6396
726.8862, 904.0327
727.3683, 903.8301
727.8504, 904.1184
728.3325, 904.8355
728.8146, 905.5953
729.2968, 906.5990
729.7789, 907.2252
730.2610, 906.5361
730.7431, 904.8302
731.2252, 903.0965
731.7073, 901.3533
732.1895, 900.0679
732.6716, 899.8739
733.1537, 900.6285
733.6358, 900.2426
734.1179, 898.0750
734.6000, 895.8739
735.0822, 894.5300
735.5643, 893.8942
736.0464, 892.3150
736.5285, 889.7503
737.0106, 887.1965
