##NAMES=Asisite
##RRUFFID=R070635
##IDEAL CHEMISTRY=Pb^2+^_7_SiO_8_Cl_2_
##LOCALITY=Kombat mine, Kombat, Grootfontein District, Otjozondjupa Region, Namibia
##OWNER=RRUFF
##SOURCE=Ausrox/Rob Sielicki
##DESCRIPTION=Reddish-orange crystals with pronounced cleavage
##STATUS=The identification of this mineral is confirmed by single-crystal X-ray diffraction and chemical analysis.
##URL=rruff.info/R070635
##MEASURED CHEMISTRY=Pb_7.00_(Si_0.55_V^5+^_0.26_As^5+^_0.10_[box]_0.09_)_Î£=1_O_8_Cl_2.00_
121.5737, 12682.49
122.0558, 13042.00
122.5379, 13415.54
123.0200, 13787.34
123.5021, 14128.95
123.9842, 14396.50
124.4664, 14638.21
124.9485, 14913.64
125.4306, 15236.74
125.9127, 15573.53
126.3948, 15886.47
126.8769, 16182.04
127.3591, 16492.79
127.8412, 16840.33
128.3233, 17217.41
128.8054, 17606.81
129.2875, 18016.94
129.7696, 18406.64
130.2518, 18663.86
130.7339, 18799.62
131.2160, 18973.15
131.6981, 19354.71
132.1802, 19907.79
132.6623, 20365.55
133.1445, 20591.77
133.6266, 20625.04
134.1087, 20715.77
134.5908, 20877.66
135.0729, 21061.43
135.5550, 21194.50
136.0372, 21274.76
136.5193, 21313.88
137.0014, 21317.89
137.4835, 21287.15
137.9656, 21220.01
138.4477, 21119.21
138.9299, 20982.02
139.4120, 20788.74
139.8941, 20526.73
140.3762, 20235.89
140.8583, 19941.22
141.3404, 19652.26
141.8226, 19340.35
142.3047, 18992.45
142.7868, 18610.50
143.2689, 18241.53
143.7510, 17886.03
144.2331, 17546.10
144.7152, 17224.44
145.1974, 16911.31
145.6795, 16626.41
146.1616, 16376.55
146.6437, 16182.23
147.1258, 15975.64
147.6079, 15752.52
148.0901, 15515.97
148.5722, 15284.34
149.0543, 15039.02
149.5364, 14811.87
150.0185, 14618.53
150.5006, 14482.87
150.9828, 14352.05
151.4649, 14226.75
151.9470, 14106.36
152.4291, 13985.56
152.9112, 13852.84
153.3933, 13725.75
153.8755, 13615.16
154.3576, 13545.00
154.8397, 13469.73
155.3218, 13377.14
155.8039, 13262.58
156.2860, 13151.87
156.7682, 13050.35
157.2503, 12955.85
157.7324, 12864.96
158.2145, 12725.85
158.6966, 12699.90
159.1787, 12655.04
159.6609, 12592.25
160.1430, 12457.96
160.6251, 12416.03
161.1072, 12337.09
161.5893, 12256.63
162.0714, 12227.69
162.5536, 12103.79
163.0357, 12074.04
163.5178, 12006.71
163.9999, 11956.58
164.4820, 11869.21
164.9641, 11812.92
165.4463, 11759.94
165.9284, 11698.16
166.4105, 11631.76
166.8926, 11565.25
167.3747, 11502.97
167.8568, 11438.85
168.3390, 11362.66
168.8211, 11273.97
169.3032, 11195.53
169.7853, 11149.53
170.2674, 11123.60
170.7495, 11096.30
171.2317, 11048.34
171.7138, 10998.38
172.1959, 10970.32
172.6780, 10973.83
173.1601, 10975.34
173.6422, 10946.15
174.1244, 10891.04
174.6065, 10826.07
175.0886, 10742.99
175.5707, 10659.79
176.0528, 10607.31
176.5349, 10608.70
177.0171, 10619.20
177.4992, 10580.89
177.9813, 10498.63
178.4634, 10412.06
178.9455, 10351.98
179.4276, 10310.44
179.9098, 10268.12
180.3919, 10218.53
180.8740, 10164.82
181.3561, 10105.56
181.8382, 10040.45
182.3203, 9983.933
182.8025, 9965.774
183.2846, 9974.477
183.7667, 9962.138
184.2488, 9890.243
184.7309, 9781.437
185.2130, 9707.534
185.6951, 9674.878
186.1773, 9653.836
186.6594, 9599.878
187.1415, 9516.500
187.6236, 9438.109
188.1057, 9385.103
188.5878, 9353.402
189.0700, 9321.617
189.5521, 9288.941
190.0342, 9254.183
190.5163, 9213.587
190.9984, 9167.047
191.4805, 9119.386
191.9627, 9074.554
192.4448, 9032.055
192.9269, 8986.481
193.4090, 8930.582
193.8911, 8874.331
194.3732, 8858.703
194.8554, 8891.528
195.3375, 8920.379
195.8196, 8885.009
196.3017, 8783.878
196.7838, 8702.510
197.2659, 8674.192
197.7481, 8687.472
198.2302, 8657.772
198.7123, 8574.465
199.1944, 8479.586
199.6765, 8425.506
200.1586, 8416.197
200.6408, 8413.953
201.1229, 8407.567
201.6050, 8397.050
202.0871, 8384.190
202.5692, 8368.641
203.0513, 8350.930
203.5335, 8331.858
204.0156, 8311.224
204.4977, 8289.115
204.9798, 8264.805
205.4619, 8237.923
205.9440, 8212.788
206.4262, 8191.983
206.9083, 8170.877
207.3904, 8135.136
207.8725, 8078.903
208.3546, 8023.608
208.8367, 7979.550
209.3189, 7945.226
209.8010, 7929.946
210.2831, 7942.209
210.7652, 7973.082
211.2473, 7981.488
211.7294, 7961.152
212.2116, 7931.173
212.6937, 7905.069
213.1758, 7882.714
213.6579, 7865.248
214.1400, 7854.885
214.6221, 7851.029
215.1043, 7842.376
215.5864, 7827.858
216.0685, 7810.578
216.5506, 7791.237
217.0327, 7763.492
217.5148, 7750.555
217.9970, 7764.730
218.4791, 7808.863
218.9612, 7825.570
219.4433, 7802.009
219.9254, 7763.404
220.4075, 7743.626
220.8897, 7751.843
221.3718, 7759.424
221.8539, 7756.242
222.3360, 7738.361
222.8181, 7728.211
223.3002, 7730.026
223.7824, 7736.812
224.2645, 7735.482
224.7466, 7721.615
225.2287, 7707.358
225.7108, 7696.344
226.1929, 7686.636
226.6750, 7686.868
227.1572, 7702.597
227.6393, 7726.795
228.1214, 7740.527
228.6035, 7737.000
229.0856, 7733.087
229.5677, 7740.466
230.0499, 7776.393
230.5320, 7781.455
231.0141, 7734.998
231.4962, 7654.887
231.9783, 7617.569
232.4604, 7650.409
232.9426, 7691.030
233.4247, 7698.907
233.9068, 7646.236
234.3889, 7618.956
234.8710, 7635.552
235.3531, 7689.629
235.8353, 7720.130
236.3174, 7715.630
236.7995, 7700.792
237.2816, 7694.744
237.7637, 7705.739
238.2458, 7709.531
238.7280, 7699.523
239.2101, 7676.065
239.6922, 7661.600
240.1743, 7660.271
240.6564, 7663.753
241.1385, 7664.887
241.6207, 7664.689
242.1028, 7659.616
242.5849, 7644.748
243.0670, 7617.908
243.5491, 7609.872
244.0313, 7632.508
244.5134, 7664.021
244.9955, 7677.723
245.4776, 7660.348
245.9597, 7648.332
246.4418, 7652.029
246.9240, 7674.810
247.4061, 7695.345
247.8882, 7719.116
248.3703, 7736.664
248.8524, 7729.679
249.3345, 7674.334
249.8167, 7635.958
250.2988, 7640.053
250.7809, 7703.366
251.2630, 7740.835
251.7451, 7738.362
252.2272, 7717.915
252.7094, 7721.111
253.1915, 7764.487
253.6736, 7803.046
254.1557, 7817.174
254.6378, 7793.741
255.1199, 7788.952
255.6021, 7813.395
256.0842, 7851.398
256.5663, 7867.667
257.0484, 7853.668
257.5305, 7832.812
258.0126, 7812.502
258.4948, 7786.605
258.9769, 7780.177
259.4590, 7802.610
259.9411, 7841.511
260.4232, 7862.952
260.9053, 7861.517
261.3875, 7852.798
261.8696, 7842.928
262.3517, 7829.666
262.8338, 7823.129
263.3159, 7824.548
263.7980, 7832.850
264.2802, 7843.885
264.7623, 7856.220
265.2444, 7874.041
265.7265, 7904.003
266.2086, 7952.868
266.6907, 7985.977
267.1729, 7997.325
267.6550, 7990.809
268.1371, 7977.234
268.6192, 7948.566
269.1013, 7930.680
269.5834, 7949.086
270.0656, 8015.559
270.5477, 8062.000
271.0298, 8077.743
271.5119, 8067.568
271.9940, 8046.124
272.4761, 8005.716
272.9583, 7974.438
273.4404, 7979.396
273.9225, 8029.206
274.4046, 8068.519
274.8867, 8088.888
275.3688, 8092.886
275.8510, 8089.816
276.3331, 8077.597
276.8152, 8064.849
277.2973, 8056.561
277.7794, 8052.043
278.2615, 8059.531
278.7437, 8084.934
279.2258, 8123.015
279.7079, 8150.544
280.1900, 8166.963
280.6721, 8175.263
281.1542, 8175.204
281.6364, 8166.344
282.1185, 8160.606
282.6006, 8159.991
283.0827, 8164.623
283.5648, 8175.381
284.0469, 8192.677
284.5291, 8214.265
285.0112, 8239.146
285.4933, 8267.203
285.9754, 8294.887
286.4575, 8319.143
286.9396, 8342.475
287.4217, 8377.958
287.9038, 8427.797
288.3860, 8472.472
288.8681, 8487.062
289.3502, 8474.768
289.8323, 8466.866
290.3144, 8471.671
290.7965, 8487.124
291.2787, 8510.336
291.7608, 8542.027
292.2429, 8574.214
292.7250, 8605.789
293.2071, 8634.079
293.6892, 8643.967
294.1714, 8617.596
294.6535, 8575.581
295.1356, 8565.371
295.6177, 8588.189
296.0998, 8620.755
296.5819, 8639.623
297.0641, 8650.226
297.5462, 8670.340
298.0283, 8713.245
298.5104, 8765.349
298.9925, 8806.087
299.4746, 8835.555
299.9568, 8855.227
300.4389, 8861.184
300.9210, 8858.164
301.4031, 8857.394
301.8852, 8861.887
302.3673, 8870.942
302.8495, 8880.244
303.3316, 8889.819
303.8137, 8911.679
304.2958, 8966.711
304.7779, 9039.749
305.2600, 9102.865
305.7422, 9145.498
306.2243, 9173.651
306.7064, 9185.877
307.1885, 9183.356
307.6706, 9187.516
308.1527, 9227.529
308.6349, 9280.753
309.1170, 9315.049
309.5991, 9301.813
310.0812, 9278.275
310.5633, 9267.801
311.0454, 9270.428
311.5276, 9286.114
312.0097, 9329.645
312.4918, 9381.133
312.9739, 9418.881
313.4560, 9421.424
313.9381, 9419.321
314.4203, 9426.116
314.9024, 9441.996
315.3845, 9467.373
315.8666, 9509.822
316.3487, 9558.632
316.8308, 9603.664
317.3130, 9644.186
317.7951, 9678.242
318.2772, 9693.949
318.7593, 9694.627
319.2414, 9716.621
319.7235, 9801.377
320.2057, 9897.309
320.6878, 9963.571
321.1699, 9979.175
321.6520, 9976.304
322.1341, 9942.772
322.6162, 9885.047
323.0984, 9867.530
323.5805, 9931.836
324.0626, 10023.46
324.5447, 10105.65
325.0268, 10176.69
325.5089, 10235.04
325.9911, 10272.49
326.4732, 10291.50
326.9553, 10321.88
327.4374, 10372.83
327.9195, 10430.17
328.4016, 10486.12
328.8838, 10540.78
329.3659, 10593.07
329.8480, 10640.41
330.3301, 10683.88
330.8122, 10732.29
331.2943, 10786.91
331.7765, 10845.24
332.2586, 10907.98
332.7407, 10990.93
333.2228, 11048.63
333.7049, 11067.21
334.1870, 11058.47
334.6692, 11073.10
335.1513, 11124.89
335.6334, 11178.68
336.1155, 11214.75
336.5976, 11229.46
337.0797, 11238.38
337.5619, 11239.08
338.0440, 11235.88
338.5261, 11241.53
339.0082, 11257.34
339.4903, 11277.35
339.9724, 11305.89
340.4546, 11347.88
340.9367, 11354.78
341.4188, 11319.25
341.9009, 11253.37
342.3830, 11176.82
342.8651, 11088.65
343.3473, 11003.39
343.8294, 10932.59
344.3115, 10874.57
344.7936, 10812.71
345.2757, 10745.34
345.7578, 10675.61
346.2400, 10607.10
346.7221, 10540.51
347.2042, 10472.12
347.6863, 10399.74
348.1684, 10323.57
348.6505, 10243.37
349.1327, 10157.72
349.6148, 10069.25
350.0969, 9974.686
350.5790, 9877.429
351.0611, 9791.535
351.5432, 9734.604
352.0254, 9689.534
352.5075, 9628.622
352.9896, 9550.350
353.4717, 9462.821
353.9538, 9367.150
354.4359, 9268.207
354.9181, 9178.355
355.4002, 9104.335
355.8823, 9041.107
356.3644, 8988.380
356.8465, 8946.315
357.3286, 8901.434
357.8108, 8840.544
358.2929, 8772.819
358.7750, 8708.946
359.2571, 8652.080
359.7392, 8600.935
360.2213, 8556.389
360.7035, 8518.029
361.1856, 8480.684
361.6677, 8436.083
362.1498, 8394.262
362.6319, 8363.365
363.1140, 8359.510
363.5962, 8352.517
364.0783, 8332.111
364.5604, 8299.826
365.0425, 8267.135
365.5246, 8235.813
366.0067, 8205.354
366.4889, 8175.509
366.9710, 8147.816
367.4531, 8118.727
367.9352, 8077.737
368.4173, 8031.904
368.8994, 8013.009
369.3815, 8055.652
369.8636, 8095.667
370.3458, 8104.356
370.8279, 8059.050
371.3100, 8020.792
371.7921, 7987.007
372.2742, 7960.507
372.7563, 7950.340
373.2385, 7967.497
373.7206, 7982.892
374.2027, 7985.684
374.6848, 7975.322
375.1669, 7951.947
375.6490, 7906.579
376.1312, 7857.518
376.6133, 7839.231
377.0954, 7860.653
377.5775, 7876.523
378.0596, 7864.058
378.5417, 7824.874
379.0239, 7810.252
379.5060, 7827.190
379.9881, 7848.325
380.4702, 7830.769
380.9523, 7776.257
381.4344, 7739.201
381.9166, 7746.650
382.3987, 7782.912
382.8808, 7801.925
383.3629, 7803.024
383.8450, 7793.256
384.3271, 7774.841
384.8093, 7750.064
385.2914, 7726.392
385.7735, 7705.068
386.2556, 7686.938
386.7377, 7675.632
387.2198, 7670.353
387.7020, 7664.671
388.1841, 7647.743
388.6662, 7629.837
389.1483, 7580.841
389.6304, 7618.794
390.1125, 7637.828
390.5947, 7638.959
391.0768, 7568.571
391.5589, 7590.536
392.0410, 7575.491
392.5231, 7558.927
393.0052, 7593.891
393.4874, 7533.904
393.9695, 7568.050
394.4516, 7564.621
394.9337, 7578.390
395.4158, 7554.918
395.8979, 7542.949
396.3801, 7567.722
396.8622, 7576.468
397.3443, 7576.180
397.8264, 7572.790
398.3085, 7567.741
398.7906, 7559.582
399.2728, 7546.523
399.7549, 7524.636
400.2370, 7502.150
400.7191, 7477.731
401.2012, 7450.479
401.6833, 7437.125
402.1655, 7446.702
402.6476, 7461.683
403.1297, 7466.289
403.6118, 7454.802
404.0939, 7447.797
404.5760, 7451.385
405.0582, 7462.213
405.5403, 7459.777
406.0224, 7439.650
406.5045, 7419.096
406.9866, 7413.137
407.4688, 7422.996
407.9509, 7422.888
408.4330, 7408.222
408.9151, 7384.705
409.3972, 7361.113
409.8793, 7337.522
410.3615, 7320.676
410.8436, 7314.211
411.3257, 7317.463
411.8078, 7331.197
412.2899, 7357.888
412.7720, 7384.428
413.2542, 7402.967
413.7363, 7409.905
414.2184, 7394.265
414.7005, 7322.953
415.1826, 7240.613
415.6647, 7203.706
416.1469, 7214.518
416.6290, 7236.083
417.1111, 7247.449
417.5932, 7252.017
418.0753, 7253.961
418.5574, 7250.991
419.0396, 7248.976
419.5217, 7252.748
420.0038, 7261.069
420.4859, 7266.226
420.9680, 7270.731
421.4501, 7267.692
421.9323, 7251.626
422.4144, 7204.371
422.8965, 7167.925
423.3786, 7151.766
423.8607, 7152.105
424.3428, 7157.311
424.8250, 7172.899
425.3071, 7188.055
425.7892, 7198.500
426.2713, 7201.466
426.7534, 7208.355
427.2355, 7223.420
427.7177, 7239.682
428.1998, 7246.786
428.6819, 7243.177
429.1640, 7232.270
429.6461, 7207.846
430.1282, 7170.833
430.6104, 7166.600
431.0925, 7204.562
431.5746, 7250.240
432.0567, 7265.225
432.5388, 7248.360
433.0209, 7239.371
433.5031, 7249.410
433.9852, 7270.197
434.4673, 7280.107
434.9494, 7279.499
435.4315, 7280.453
435.9136, 7295.673
436.3958, 7319.303
436.8779, 7337.339
437.3600, 7348.995
437.8421, 7351.401
438.3242, 7330.052
438.8063, 7295.066
439.2885, 7274.683
439.7706, 7291.180
440.2527, 7324.330
440.7348, 7360.180
441.2169, 7398.823
441.6990, 7427.792
442.1812, 7429.213
442.6633, 7420.726
443.1454, 7423.392
443.6275, 7460.870
444.1096, 7493.746
444.5917, 7500.443
445.0739, 7483.547
445.5560, 7482.450
446.0381, 7526.305
446.5202, 7573.796
447.0023, 7600.497
447.4844, 7573.691
447.9666, 7566.883
448.4487, 7595.157
448.9308, 7642.877
449.4129, 7664.966
449.8950, 7640.588
450.3771, 7624.515
450.8593, 7643.015
451.3413, 7705.031
451.8235, 7746.058
452.3056, 7757.810
452.7877, 7761.895
453.2698, 7792.643
453.7519, 7853.155
454.2340, 7902.181
454.7162, 7922.976
455.1983, 7924.172
455.6804, 7939.518
456.1625, 7969.945
456.6446, 7998.590
457.1267, 8008.521
457.6089, 8005.314
458.0910, 8003.959
458.5731, 8005.291
459.0552, 8013.813
459.5373, 8037.774
460.0194, 8074.041
460.5016, 8112.833
460.9837, 8151.636
461.4658, 8188.380
461.9479, 8222.276
462.4300, 8253.939
462.9121, 8278.552
463.3943, 8287.250
463.8764, 8289.081
464.3585, 8295.588
464.8406, 8306.657
465.3227, 8326.381
465.8048, 8364.963
466.2870, 8422.117
466.7691, 8457.895
467.2512, 8447.120
467.7333, 8428.136
468.2154, 8422.052
468.6975, 8406.423
469.1797, 8381.262
469.6618, 8447.007
470.1439, 8479.646
470.6260, 8480.955
471.1081, 8357.105
471.5902, 8394.873
472.0724, 8367.870
472.5545, 8338.213
473.0366, 8398.728
473.5187, 8293.081
474.0008, 8352.167
474.4829, 8345.494
474.9651, 8368.915
475.4472, 8327.169
475.9293, 8305.552
476.4114, 8349.124
476.8935, 8356.601
477.3756, 8307.352
477.8578, 8332.687
478.3399, 8224.763
478.8220, 8233.777
479.3041, 8293.243
479.7862, 8247.271
480.2683, 8273.799
480.7505, 8272.713
481.2326, 8146.145
481.7147, 8237.807
482.1968, 8235.090
482.6789, 8135.470
483.1610, 8219.653
483.6432, 8090.790
484.1253, 8034.291
484.6074, 7995.717
485.0895, 7960.648
485.5716, 7916.251
486.0537, 7843.345
486.5359, 7782.627
487.0180, 7743.358
487.5001, 7719.887
487.9822, 7685.688
488.4643, 7637.205
488.9464, 7584.554
489.4286, 7532.027
489.9107, 7480.620
490.3928, 7425.765
490.8749, 7364.109
491.3570, 7305.245
491.8391, 7266.236
492.3213, 7247.408
492.8034, 7224.127
493.2855, 7183.360
493.7676, 7134.455
494.2497, 7104.439
494.7318, 7093.176
495.2140, 7078.565
495.6961, 7036.767
496.1782, 6980.572
496.6603, 6934.676
497.1424, 6907.477
497.6245, 6882.385
498.1067, 6837.956
498.5888, 6784.870
499.0709, 6747.742
499.5530, 6755.202
500.0351, 6766.307
500.5172, 6755.169
500.9994, 6715.777
501.4815, 6684.476
501.9636, 6680.943
502.4457, 6682.948
502.9278, 6670.389
503.4099, 6616.974
503.8921, 6579.451
504.3742, 6443.809
504.8563, 6494.832
505.3384, 6512.745
505.8205, 6499.332
506.3026, 6360.756
506.7848, 6383.796
507.2669, 6342.070
507.7490, 6297.689
508.2311, 6343.479
508.7132, 6348.447
509.1953, 6347.658
509.6775, 6353.553
510.1596, 6338.482
510.6417, 6281.469
511.1238, 6205.619
511.6059, 6152.543
512.0880, 6121.495
512.5701, 6107.509
513.0522, 6121.845
513.5344, 6144.749
514.0165, 6150.185
514.4986, 6129.792
514.9807, 6102.473
515.4628, 6075.108
515.9449, 6049.431
516.4271, 6028.753
516.9092, 6018.096
517.3913, 6008.935
517.8734, 5996.955
518.3555, 5981.850
518.8376, 5972.241
519.3198, 5979.604
519.8019, 5985.479
520.2840, 5977.213
520.7661, 5940.359
521.2482, 5919.521
521.7303, 5925.707
522.2125, 5943.716
522.6946, 5934.988
523.1767, 5891.054
523.6588, 5855.917
524.1409, 5852.088
524.6230, 5874.530
525.1052, 5885.147
525.5873, 5883.238
526.0694, 5875.109
526.5515, 5861.744
527.0336, 5846.737
527.5157, 5841.818
527.9979, 5854.001
528.4800, 5870.007
528.9621, 5877.637
529.4442, 5877.721
529.9263, 5872.917
530.4084, 5857.114
530.8906, 5842.199
531.3727, 5839.490
531.8548, 5851.950
532.3369, 5857.834
532.8190, 5838.551
533.3011, 5814.794
533.7833, 5805.687
534.2654, 5828.633
534.7475, 5848.305
535.2296, 5864.262
535.7117, 5874.746
536.1938, 5872.609
536.6760, 5851.220
537.1581, 5829.713
537.6402, 5814.656
538.1223, 5806.040
538.6044, 5809.451
539.0865, 5829.809
539.5687, 5848.142
540.0508, 5835.749
540.5329, 5797.579
541.0150, 5770.719
541.4971, 5766.146
541.9792, 5775.617
542.4614, 5795.295
542.9435, 5821.077
543.4256, 5833.675
543.9077, 5807.587
544.3898, 5770.771
544.8719, 5750.525
545.3541, 5751.071
545.8362, 5757.215
546.3183, 5762.692
546.8004, 5769.465
547.2825, 5779.716
547.7646, 5808.783
548.2468, 5824.535
548.7289, 5812.523
549.2110, 5779.975
549.6931, 5757.232
550.1752, 5741.178
550.6573, 5739.298
551.1395, 5759.698
551.6216, 5809.117
552.1037, 5839.181
552.5858, 5845.933
553.0679, 5842.635
553.5500, 5844.151
554.0322, 5850.246
554.5143, 5854.599
554.9964, 5856.263
555.4785, 5854.829
555.9606, 5846.750
556.4427, 5833.596
556.9249, 5823.966
557.4070, 5825.934
557.8891, 5832.727
558.3712, 5834.158
558.8533, 5827.896
559.3354, 5830.210
559.8176, 5865.670
560.2997, 5907.388
560.7818, 5927.837
561.2639, 5890.761
561.7460, 5864.159
562.2281, 5868.096
562.7103, 5894.461
563.1924, 5912.080
563.6745, 5918.197
564.1566, 5918.528
564.6387, 5911.985
565.1208, 5896.495
565.6030, 5895.903
566.0851, 5913.577
566.5672, 5938.618
567.0493, 5966.149
567.5314, 5995.019
568.0135, 6004.919
568.4957, 5987.556
568.9778, 5957.550
569.4599, 5932.877
569.9420, 5914.721
570.4241, 5909.053
570.9063, 5930.085
571.3884, 5958.244
571.8705, 5973.983
572.3526, 5976.294
572.8347, 5975.549
573.3168, 5974.037
573.7990, 5973.419
574.2811, 5975.066
574.7632, 5978.837
575.2453, 5985.470
575.7274, 5996.422
576.2095, 6010.165
576.6917, 6024.210
577.1738, 6043.900
577.6559, 6054.583
578.1380, 6048.131
578.6201, 6026.228
579.1022, 6017.550
579.5844, 6023.833
580.0665, 6036.724
580.5486, 6052.384
581.0307, 6070.088
581.5128, 6083.183
581.9949, 6090.077
582.4771, 6095.267
582.9592, 6106.535
583.4413, 6120.585
583.9234, 6129.249
584.4055, 6121.400
584.8876, 6113.046
585.3698, 6115.482
585.8519, 6127.921
586.3340, 6145.961
586.8161, 6172.676
587.2982, 6200.610
587.7803, 6226.238
588.2625, 6250.666
588.7446, 6268.644
589.2267, 6275.888
589.7088, 6279.487
590.1909, 6288.098
590.6730, 6306.184
591.1552, 6315.736
591.6373, 6309.594
592.1194, 6295.471
592.6015, 6297.628
593.0836, 6316.887
593.5657, 6338.785
594.0479, 6353.364
594.5300, 6364.930
595.0121, 6389.015
595.4942, 6426.511
595.9763, 6457.912
596.4584, 6460.004
596.9406, 6448.497
597.4227, 6444.622
597.9048, 6459.106
598.3869, 6472.521
598.8690, 6470.218
599.3511, 6461.180
599.8333, 6462.843
600.3154, 6497.745
600.7975, 6524.090
601.2796, 6527.024
601.7617, 6507.422
602.2438, 6497.813
602.7260, 6502.187
603.2081, 6510.062
603.6902, 6512.327
604.1723, 6507.560
604.6544, 6519.934
605.1365, 6554.616
605.6187, 6594.224
606.1008, 6616.975
606.5829, 6624.654
607.0650, 6623.412
607.5471, 6607.697
608.0292, 6592.514
608.5114, 6598.365
608.9935, 6620.436
609.4756, 6642.143
609.9577, 6652.741
610.4398, 6661.311
610.9219, 6673.871
611.4041, 6691.914
611.8862, 6706.872
612.3683, 6711.240
612.8504, 6715.709
613.3325, 6728.846
613.8146, 6758.186
614.2968, 6780.975
614.7789, 6792.926
615.2610, 6800.649
615.7431, 6820.325
