##NAMES=Asisite
##RRUFFID=R070635
##IDEAL CHEMISTRY=Pb^2+^_7_SiO_8_Cl_2_
##LOCALITY=Kombat mine, Kombat, Grootfontein District, Otjozondjupa Region, Namibia
##OWNER=RRUFF
##SOURCE=Ausrox/Rob Sielicki
##DESCRIPTION=Reddish-orange crystals with pronounced cleavage
##STATUS=The identification of this mineral is confirmed by single-crystal X-ray diffraction and chemical analysis.
##URL=rruff.info/R070635
##MEASURED CHEMISTRY=Pb_7.00_(Si_0.55_V^5+^_0.26_As^5+^_0.10_[box]_0.09_)_Î£=1_O_8_Cl_2.00_
114.4885, 14041.83
114.9706, 14203.98
115.4527, 14355.76
115.9348, 14479.19
116.4169, 14603.02
116.8990, 14744.60
117.3812, 14905.51
117.8633, 15091.78
118.3454, 15313.91
118.8275, 15568.00
119.3096, 15852.02
119.7918, 16168.37
120.2739, 16513.88
120.7560, 16875.13
121.2381, 17229.16
121.7202, 17631.62
122.2023, 18124.97
122.6845, 18710.71
123.1666, 19350.99
123.6487, 20020.49
124.1308, 20720.58
124.6129, 21446.36
125.0950, 22202.77
125.5772, 22989.66
126.0593, 23822.33
126.5414, 24709.34
127.0235, 25624.27
127.5056, 26528.11
127.9877, 27419.94
128.4698, 28301.18
128.9520, 29172.34
129.4341, 30037.68
129.9162, 30900.98
130.3983, 31759.18
130.8804, 32622.00
131.3625, 33509.89
131.8447, 34426.50
132.3268, 35368.32
132.8089, 36332.87
133.2910, 37324.61
133.7731, 38340.12
134.2552, 39374.48
134.7374, 40421.50
135.2195, 41552.43
135.7016, 42785.33
136.1837, 44062.85
136.6658, 45378.04
137.1479, 46721.63
137.6301, 48039.38
138.1122, 49299.03
138.5943, 50527.45
139.0764, 51513.18
139.5585, 52309.98
140.0406, 52829.30
140.5228, 52947.68
141.0049, 52620.76
141.4870, 51918.98
141.9691, 50883.21
142.4512, 49518.91
142.9333, 48017.14
143.4155, 46387.39
143.8976, 44663.66
144.3797, 42968.34
144.8618, 41311.82
145.3439, 39731.31
145.8260, 38244.09
146.3082, 36850.96
146.7903, 35550.73
147.2724, 34341.21
147.7545, 33215.71
148.2366, 32194.03
148.7188, 31334.07
149.2009, 30566.56
149.6830, 29841.43
150.1651, 29137.69
150.6472, 28470.21
151.1293, 27858.65
151.6115, 27313.64
152.0936, 26817.94
152.5757, 26373.15
153.0578, 25960.73
153.5399, 25557.46
154.0220, 25146.46
154.5042, 24732.06
154.9863, 24360.76
155.4684, 24058.56
155.9505, 23777.84
156.4326, 23511.67
156.9147, 23257.57
157.3969, 23012.38
157.8790, 22773.73
158.3611, 22540.13
158.8432, 22318.63
159.3253, 22103.21
159.8074, 21902.22
160.2896, 21726.28
160.7717, 21572.37
161.2538, 21425.69
161.7359, 21268.57
162.2180, 21090.47
162.7001, 20938.99
163.1823, 20823.35
163.6644, 20725.47
164.1465, 20635.07
164.6286, 20549.44
165.1107, 20464.91
165.5928, 20377.29
166.0750, 20288.15
166.5571, 20190.43
167.0392, 20068.56
167.5213, 19941.75
168.0034, 19839.76
168.4855, 19777.03
168.9677, 19732.43
169.4498, 19661.36
169.9319, 19557.59
170.4140, 19454.04
170.8961, 19362.79
171.3783, 19281.76
171.8604, 19204.24
172.3425, 19126.64
172.8246, 19052.31
173.3067, 18987.04
173.7888, 18938.06
174.2710, 18885.11
174.7531, 18811.33
175.2352, 18716.76
175.7173, 18618.30
176.1994, 18517.67
176.6815, 18420.01
177.1637, 18332.96
177.6458, 18264.04
178.1279, 18197.32
178.6100, 18112.35
179.0921, 18007.13
179.5742, 17890.29
180.0564, 17766.60
180.5385, 17634.03
181.0206, 17488.02
181.5027, 17322.11
181.9848, 17145.18
182.4669, 16984.33
182.9491, 16854.46
183.4312, 16715.82
183.9133, 16551.14
184.3954, 16371.86
184.8775, 16193.51
185.3596, 16026.16
185.8418, 15868.40
186.3239, 15706.46
186.8060, 15550.26
187.2881, 15379.29
187.7702, 15178.45
188.2523, 14959.10
188.7345, 14741.49
189.2166, 14542.52
189.6987, 14363.18
190.1808, 14180.23
190.6629, 13991.37
191.1450, 13800.58
191.6272, 13604.96
192.1093, 13406.82
192.5914, 13209.62
193.0735, 13016.00
193.5556, 12825.38
194.0377, 12644.76
194.5199, 12476.02
195.0020, 12314.03
195.4841, 12162.04
195.9662, 12017.10
196.4483, 11867.36
196.9304, 11695.71
197.4126, 11486.28
197.8947, 11302.03
198.3768, 11148.10
198.8589, 11012.72
199.3410, 10892.59
199.8231, 10786.23
200.3053, 10681.55
200.7874, 10560.74
201.2695, 10412.28
201.7516, 10276.03
202.2337, 10154.00
202.7158, 10044.13
203.1980, 9946.648
203.6801, 9862.077
204.1622, 9785.212
204.6443, 9709.131
205.1264, 9632.847
205.6085, 9558.936
206.0907, 9488.573
206.5728, 9420.628
207.0549, 9352.554
207.5370, 9282.345
208.0191, 9215.213
208.5012, 9163.642
208.9834, 9130.524
209.4655, 9095.887
209.9476, 9053.522
210.4297, 9004.477
210.9118, 8948.889
211.3939, 8881.977
211.8761, 8815.650
212.3582, 8769.067
212.8403, 8746.044
213.3224, 8725.513
213.8045, 8696.592
214.2866, 8660.505
214.7688, 8620.846
215.2509, 8570.156
215.7330, 8525.710
216.2151, 8510.897
216.6972, 8533.372
217.1793, 8561.609
217.6615, 8573.261
218.1436, 8568.766
218.6257, 8558.903
219.1078, 8547.989
219.5899, 8532.169
220.0720, 8505.157
220.5542, 8462.940
221.0363, 8421.317
221.5184, 8395.148
222.0005, 8384.995
222.4826, 8384.007
222.9647, 8406.861
223.4469, 8429.113
223.9290, 8425.867
224.4111, 8387.712
224.8932, 8340.351
225.3753, 8316.187
225.8574, 8318.625
226.3396, 8329.433
226.8217, 8353.319
227.3038, 8378.036
227.7859, 8391.547
228.2680, 8388.536
228.7501, 8380.924
229.2323, 8387.676
229.7144, 8412.564
230.1965, 8441.642
230.6786, 8482.077
231.1607, 8519.451
231.6428, 8538.297
232.1250, 8531.372
232.6071, 8512.593
233.0892, 8506.854
233.5713, 8513.453
234.0534, 8536.816
234.5355, 8596.348
235.0177, 8661.759
235.4998, 8702.901
235.9819, 8705.998
236.4640, 8687.355
236.9461, 8686.442
237.4282, 8722.664
237.9104, 8741.523
238.3925, 8717.785
238.8746, 8681.607
239.3567, 8665.729
239.8388, 8685.530
240.3209, 8724.816
240.8031, 8738.328
241.2852, 8696.453
241.7673, 8674.298
242.2494, 8696.618
242.7315, 8736.536
243.2136, 8765.192
243.6958, 8768.843
244.1779, 8757.300
244.6600, 8760.359
245.1421, 8799.427
245.6242, 8823.249
246.1063, 8814.483
246.5885, 8792.751
247.0706, 8779.037
247.5527, 8783.223
248.0348, 8801.146
248.5169, 8820.079
248.9990, 8848.621
249.4812, 8866.615
249.9633, 8862.026
250.4454, 8849.658
250.9275, 8846.600
251.4096, 8860.925
251.8917, 8887.643
252.3739, 8911.060
252.8560, 8933.331
253.3381, 8948.505
253.8202, 8947.355
254.3023, 8941.926
254.7844, 8946.792
255.2666, 8968.741
255.7487, 9002.893
256.2308, 9034.032
256.7129, 9064.705
257.1950, 9088.523
257.6772, 9096.955
258.1593, 9100.901
258.6414, 9114.758
259.1235, 9145.048
259.6056, 9184.735
260.0877, 9213.982
260.5699, 9223.181
261.0520, 9231.823
261.5341, 9241.066
262.0162, 9250.210
262.4983, 9255.334
262.9804, 9254.665
263.4626, 9255.077
263.9447, 9274.724
264.4268, 9340.277
264.9089, 9394.593
265.3910, 9436.493
265.8731, 9465.798
266.3553, 9477.082
266.8374, 9467.973
267.3195, 9451.791
267.8016, 9459.227
268.2837, 9518.559
268.7658, 9569.012
269.2480, 9602.084
269.7301, 9628.606
270.2122, 9662.376
270.6943, 9708.171
271.1764, 9757.291
271.6585, 9791.230
272.1407, 9789.218
272.6228, 9800.106
273.1049, 9837.477
273.5870, 9882.400
274.0691, 9913.791
274.5512, 9925.239
275.0334, 9926.709
275.5155, 9935.462
275.9976, 9952.371
276.4797, 9977.172
276.9618, 10013.22
277.4439, 10055.46
277.9261, 10103.40
278.4082, 10155.86
278.8903, 10203.33
279.3724, 10228.11
279.8545, 10202.70
280.3366, 10209.16
280.8188, 10283.11
281.3009, 10367.98
281.7830, 10404.39
282.2651, 10382.48
282.7472, 10350.30
283.2293, 10375.21
283.7115, 10494.36
284.1936, 10580.90
284.6757, 10614.56
285.1578, 10629.71
285.6399, 10648.56
286.1220, 10676.12
286.6042, 10709.40
287.0863, 10744.88
287.5684, 10780.33
288.0505, 10827.70
288.5326, 10906.30
289.0147, 10981.37
289.4969, 11018.44
289.9790, 11020.27
290.4611, 11028.33
290.9432, 11089.56
291.4253, 11221.80
291.9074, 11309.17
292.3896, 11311.07
292.8717, 11308.96
293.3538, 11360.44
293.8359, 11458.13
294.3180, 11547.26
294.8001, 11575.36
295.2823, 11532.79
295.7644, 11534.09
296.2465, 11601.83
296.7286, 11682.88
297.2107, 11762.64
297.6928, 11836.15
298.1750, 11895.76
298.6571, 11934.63
299.1392, 11953.04
299.6213, 11967.61
300.1034, 11947.00
300.5855, 11954.91
301.0677, 12034.67
301.5498, 12160.45
302.0319, 12276.63
302.5140, 12346.52
302.9961, 12375.77
303.4782, 12411.84
303.9604, 12471.63
304.4425, 12518.88
304.9246, 12532.27
305.4067, 12529.61
305.8888, 12542.16
306.3709, 12587.75
306.8531, 12655.27
307.3352, 12700.87
307.8173, 12710.12
308.2994, 12712.35
308.7815, 12700.69
309.2636, 12686.50
309.7458, 12685.04
310.2279, 12702.73
310.7100, 12731.73
311.1921, 12752.76
311.6742, 12761.37
312.1563, 12767.29
312.6385, 12764.31
313.1206, 12762.28
313.6027, 12770.37
314.0848, 12791.37
314.5669, 12821.65
315.0490, 12857.65
315.5312, 12920.04
316.0133, 12948.82
316.4954, 12920.29
316.9775, 12879.08
317.4596, 12856.78
317.9417, 12859.08
318.4239, 12871.28
318.9060, 12871.97
319.3881, 12847.67
319.8702, 12853.84
320.3523, 12927.96
320.8344, 12996.86
321.3166, 13016.51
321.7987, 12989.57
322.2808, 12948.00
322.7629, 12921.44
323.2450, 12910.32
323.7271, 12910.56
324.2093, 12939.96
324.6914, 12963.95
325.1735, 12966.76
325.6556, 12953.52
326.1377, 12939.11
326.6198, 12934.53
327.1020, 12939.23
327.5841, 12944.50
328.0662, 12959.18
328.5483, 12963.63
329.0304, 12946.86
329.5125, 12917.75
329.9947, 12889.85
330.4768, 12871.09
330.9589, 12859.19
331.4410, 12846.75
331.9231, 12837.32
332.4052, 12820.75
332.8874, 12795.36
333.3695, 12762.46
333.8516, 12720.80
334.3337, 12668.54
334.8158, 12614.73
335.2979, 12580.85
335.7801, 12579.17
336.2622, 12563.14
336.7443, 12507.26
337.2264, 12443.01
337.7085, 12395.52
338.1906, 12370.93
338.6728, 12353.27
339.1549, 12327.74
339.6370, 12295.71
340.1191, 12243.85
340.6012, 12141.48
341.0833, 12040.45
341.5655, 11979.07
342.0476, 11957.47
342.5297, 11939.91
343.0118, 11897.20
343.4939, 11831.57
343.9760, 11763.82
344.4582, 11689.45
344.9403, 11622.46
345.4224, 11572.36
345.9045, 11536.42
346.3866, 11504.22
346.8687, 11477.64
347.3509, 11450.34
347.8330, 11403.41
348.3151, 11330.85
348.7972, 11251.91
349.2793, 11178.28
349.7614, 11107.28
350.2436, 11033.33
350.7257, 10938.24
351.2078, 10849.78
351.6899, 10813.86
352.1720, 10834.79
352.6541, 10853.94
353.1363, 10842.33
353.6184, 10806.39
354.1005, 10760.40
354.5826, 10698.91
355.0647, 10636.71
355.5468, 10586.50
356.0290, 10545.90
356.5111, 10501.69
356.9932, 10446.94
357.4753, 10387.63
357.9574, 10335.17
358.4395, 10290.77
358.9217, 10247.97
359.4038, 10199.75
359.8859, 10152.07
360.3680, 10117.99
360.8501, 10103.26
361.3322, 10093.83
361.8144, 10069.55
362.2965, 10027.55
362.7786, 9986.947
363.2607, 9947.827
363.7428, 9912.604
364.2249, 9884.685
364.7071, 9864.227
365.1892, 9847.465
365.6713, 9832.368
366.1534, 9819.574
366.6355, 9798.408
367.1176, 9756.024
367.5998, 9717.836
368.0819, 9702.454
368.5640, 9704.180
369.0461, 9702.149
369.5282, 9681.094
370.0103, 9645.139
370.4925, 9627.476
370.9746, 9656.755
371.4567, 9670.110
371.9388, 9648.805
372.4209, 9605.707
372.9030, 9554.852
373.3852, 9502.099
373.8673, 9453.290
374.3494, 9423.926
374.8315, 9443.273
375.3136, 9434.907
375.7957, 9379.772
376.2779, 9309.279
376.7600, 9241.482
377.2421, 9183.075
377.7242, 9139.458
378.2063, 9123.209
378.6884, 9147.361
379.1706, 9148.011
379.6527, 9110.309
380.1348, 9062.457
380.6169, 9009.758
381.0990, 8956.206
381.5811, 8908.797
382.0633, 8875.764
382.5454, 8854.583
383.0275, 8820.565
383.5096, 8757.028
383.9917, 8706.307
384.4738, 8694.433
384.9560, 8700.840
385.4381, 8694.092
385.9202, 8656.654
386.4023, 8606.813
386.8844, 8580.038
387.3665, 8583.026
387.8487, 8579.857
388.3308, 8550.326
388.8129, 8512.727
389.2950, 8482.199
389.7771, 8461.310
390.2592, 8446.404
390.7414, 8435.247
391.2235, 8427.742
391.7056, 8423.793
392.1877, 8425.962
392.6698, 8427.938
393.1519, 8420.426
393.6341, 8404.239
394.1162, 8394.044
394.5983, 8402.597
395.0804, 8417.927
395.5625, 8418.539
396.0446, 8400.828
396.5268, 8384.939
397.0089, 8390.021
397.4910, 8413.352
397.9731, 8426.954
398.4552, 8426.575
398.9373, 8418.816
399.4195, 8398.740
399.9016, 8372.616
400.3837, 8364.557
400.8658, 8391.364
401.3479, 8440.278
401.8300, 8466.121
402.3122, 8455.205
402.7943, 8443.271
403.2764, 8435.123
403.7585, 8429.795
404.2406, 8426.146
404.7227, 8423.822
405.2049, 8423.295
405.6870, 8425.649
406.1691, 8433.205
406.6512, 8437.424
407.1333, 8437.348
407.6154, 8435.213
408.0976, 8430.879
408.5797, 8425.392
409.0618, 8421.812
409.5439, 8423.899
410.0260, 8431.175
410.5081, 8429.162
410.9903, 8410.018
411.4724, 8389.926
411.9545, 8372.667
412.4366, 8356.833
412.9187, 8339.286
413.4008, 8318.199
413.8830, 8297.174
414.3651, 8285.272
414.8472, 8287.306
415.3293, 8283.393
415.8114, 8262.356
416.2935, 8238.032
416.7757, 8217.377
417.2578, 8201.754
417.7399, 8194.971
418.2220, 8207.132
418.7041, 8234.381
419.1862, 8247.369
419.6684, 8237.703
420.1505, 8221.605
420.6326, 8210.544
421.1147, 8203.223
421.5968, 8195.801
422.0789, 8186.629
422.5611, 8176.742
423.0432, 8165.550
423.5253, 8153.082
424.0074, 8146.104
424.4895, 8148.692
424.9716, 8160.059
425.4538, 8176.568
425.9359, 8208.908
426.4180, 8230.590
426.9001, 8227.448
427.3822, 8206.130
427.8643, 8173.556
428.3465, 8130.223
428.8286, 8092.287
429.3107, 8086.324
429.7928, 8132.519
430.2749, 8162.698
430.7570, 8163.057
431.2392, 8157.692
431.7213, 8167.670
432.2034, 8190.805
432.6855, 8206.330
433.1676, 8194.287
433.6497, 8156.114
434.1319, 8143.202
434.6140, 8194.271
435.0961, 8228.166
435.5782, 8210.964
436.0603, 8172.970
436.5424, 8155.628
437.0246, 8176.663
437.5067, 8219.842
437.9888, 8257.996
438.4709, 8295.922
438.9530, 8314.302
439.4352, 8298.457
439.9173, 8271.564
440.3994, 8237.216
440.8815, 8200.336
441.3636, 8179.760
441.8457, 8204.720
442.3279, 8262.729
442.8100, 8288.051
443.2921, 8265.407
443.7742, 8237.803
444.2563, 8229.875
444.7384, 8235.589
445.2206, 8246.057
445.7027, 8263.125
446.1848, 8279.279
446.6669, 8289.988
447.1490, 8294.537
447.6311, 8284.203
448.1133, 8246.432
448.5954, 8203.295
449.0775, 8202.800
449.5596, 8258.113
450.0417, 8299.711
450.5238, 8301.088
451.0060, 8283.969
451.4881, 8270.448
451.9702, 8264.885
452.4523, 8266.113
452.9344, 8274.058
453.4165, 8289.442
453.8987, 8302.524
454.3808, 8317.207
454.8629, 8326.099
455.3450, 8318.059
455.8271, 8303.766
456.3092, 8302.343
456.7914, 8323.434
457.2735, 8359.462
457.7556, 8393.148
458.2377, 8430.131
458.7198, 8452.759
459.2020, 8446.733
459.6841, 8437.318
460.1662, 8438.645
460.6483, 8453.387
461.1304, 8479.710
461.6125, 8525.499
462.0947, 8587.109
462.5768, 8621.079
463.0589, 8613.357
463.5410, 8602.049
464.0231, 8603.189
464.5052, 8614.887
464.9874, 8635.480
465.4695, 8667.644
465.9516, 8703.963
466.4337, 8737.560
466.9158, 8768.426
467.3979, 8796.495
467.8801, 8820.603
468.3622, 8843.189
468.8443, 8866.766
469.3264, 8889.965
469.8085, 8919.990
470.2906, 8970.471
470.7728, 9021.746
471.2549, 9050.970
471.7370, 9057.034
472.2191, 9054.850
472.7012, 9053.361
473.1833, 9053.245
473.6655, 9075.336
474.1476, 9148.346
474.6297, 9207.438
475.1118, 9233.652
475.5939, 9237.276
476.0760, 9228.028
476.5582, 9210.307
477.0403, 9193.984
477.5224, 9197.950
478.0045, 9231.735
478.4866, 9257.124
478.9688, 9274.809
479.4509, 9282.035
479.9330, 9273.426
480.4151, 9252.229
480.8972, 9228.242
481.3793, 9208.206
481.8615, 9189.654
482.3436, 9164.640
482.8257, 9130.971
483.3078, 9099.742
483.7899, 9083.752
484.2720, 9068.777
484.7542, 9034.771
485.2363, 8974.339
485.7184, 8913.459
486.2005, 8870.412
486.6826, 8838.059
487.1647, 8799.428
487.6469, 8750.835
488.1290, 8698.921
488.6111, 8648.858
489.0932, 8600.603
489.5753, 8561.877
490.0574, 8547.052
490.5396, 8527.955
491.0217, 8488.007
491.5038, 8432.105
491.9859, 8369.064
492.4680, 8301.521
492.9501, 8238.165
493.4323, 8201.655
493.9144, 8215.513
494.3965, 8215.456
494.8786, 8193.978
495.3607, 8164.465
495.8428, 8131.083
496.3250, 8097.121
496.8071, 8069.497
497.2892, 8055.648
497.7713, 8053.221
498.2534, 8047.370
498.7355, 8034.193
499.2177, 8025.729
499.6998, 8033.183
500.1819, 8045.638
500.6640, 8050.907
501.1461, 8046.671
501.6282, 8034.140
502.1104, 8009.995
502.5925, 7977.781
503.0746, 7949.919
503.5567, 7929.884
504.0388, 7911.517
504.5209, 7885.120
505.0031, 7850.432
505.4852, 7831.720
505.9673, 7844.515
506.4494, 7861.180
506.9315, 7866.861
507.4136, 7862.740
507.8958, 7853.765
508.3779, 7842.167
508.8600, 7828.346
509.3421, 7813.618
509.8242, 7803.465
510.3063, 7782.566
510.7885, 7731.839
511.2706, 7686.353
511.7527, 7677.693
512.2348, 7699.573
512.7169, 7715.773
513.1990, 7692.488
513.6812, 7640.825
514.1633, 7618.528
514.6454, 7637.805
515.1275, 7657.492
515.6096, 7662.881
516.0917, 7659.354
516.5739, 7651.097
517.0560, 7638.479
517.5381, 7622.976
518.0202, 7602.959
518.5023, 7581.004
518.9844, 7562.116
519.4666, 7546.662
519.9487, 7538.100
520.4308, 7541.667
520.9129, 7557.494
521.3950, 7568.545
521.8771, 7571.637
522.3593, 7573.340
522.8414, 7578.469
523.3235, 7583.876
523.8056, 7582.542
524.2877, 7571.735
524.7698, 7557.459
525.2520, 7550.452
525.7341, 7555.288
526.2162, 7555.325
526.6983, 7546.290
527.1804, 7536.798
527.6625, 7529.813
528.1447, 7525.631
528.6268, 7524.499
529.1089, 7528.094
529.5910, 7532.615
530.0731, 7528.937
530.5552, 7515.665
531.0374, 7503.392
531.5195, 7491.023
532.0016, 7485.214
532.4837, 7495.708
532.9658, 7523.800
533.4479, 7547.330
533.9301, 7556.006
534.4122, 7556.194
534.8943, 7554.895
535.3764, 7552.847
535.8585, 7549.987
536.3406, 7546.220
536.8228, 7541.660
537.3049, 7537.034
537.7870, 7521.060
538.2691, 7519.687
538.7512, 7559.420
539.2333, 7600.961
539.7155, 7600.372
540.1976, 7555.061
540.6797, 7501.812
541.1618, 7477.046
541.6439, 7479.727
542.1260, 7481.020
542.6082, 7479.768
543.0903, 7479.007
543.5724, 7480.481
544.0545, 7482.750
544.5366, 7482.003
545.0187, 7475.394
545.5009, 7475.636
545.9830, 7503.576
546.4651, 7548.515
546.9472, 7570.173
547.4293, 7558.504
547.9114, 7537.425
548.3936, 7525.798
548.8757, 7524.119
549.3578, 7527.220
549.8399, 7534.506
550.3220, 7547.161
550.8041, 7578.628
551.2863, 7612.554
551.7684, 7614.101
552.2505, 7572.567
552.7326, 7522.417
553.2147, 7519.924
553.6968, 7584.410
554.1790, 7621.041
554.6611, 7603.494
555.1432, 7583.253
555.6253, 7582.147
556.1074, 7590.358
556.5895, 7584.988
557.0717, 7550.784
557.5538, 7513.976
558.0359, 7516.055
558.5180, 7555.492
559.0001, 7588.192
559.4822, 7606.375
559.9644, 7610.531
560.4465, 7590.576
560.9286, 7549.877
561.4107, 7528.195
561.8928, 7551.045
562.3749, 7579.205
562.8571, 7584.842
563.3392, 7572.527
563.8213, 7557.449
564.3034, 7546.272
564.7855, 7537.465
565.2676, 7526.846
565.7498, 7506.618
566.2319, 7502.661
566.7140, 7526.841
567.1961, 7554.036
567.6782, 7576.861
568.1603, 7592.045
568.6425, 7593.593
569.1246, 7573.855
569.6067, 7546.628
570.0888, 7542.412
570.5709, 7563.942
571.0530, 7572.955
571.5352, 7547.409
572.0173, 7518.846
572.4994, 7527.064
572.9815, 7570.496
573.4636, 7606.761
573.9457, 7623.230
574.4279, 7628.872
574.9100, 7627.204
575.3921, 7620.922
575.8742, 7618.450
576.3563, 7624.740
576.8384, 7633.711
577.3206, 7631.163
577.8027, 7609.400
578.2848, 7590.378
578.7669, 7572.509
579.2490, 7558.618
579.7311, 7549.703
580.2133, 7546.164
580.6954, 7549.547
581.1775, 7563.504
581.6596, 7580.380
582.1417, 7580.800
582.6238, 7562.460
583.1060, 7555.254
583.5881, 7575.257
584.0702, 7600.807
584.5523, 7605.839
585.0344, 7591.151
585.5165, 7579.100
585.9987, 7570.145
586.4808, 7570.179
586.9629, 7593.992
587.4450, 7632.423
587.9271, 7654.642
588.4092, 7645.417
588.8914, 7618.563
589.3735, 7602.645
589.8556, 7600.912
590.3377, 7603.647
590.8198, 7616.305
591.3019, 7627.853
591.7841, 7634.020
592.2662, 7634.606
592.7483, 7629.078
593.2304, 7614.391
593.7125, 7599.653
594.1946, 7605.240
594.6768, 7630.895
595.1589, 7639.170
595.6410, 7612.055
596.1231, 7578.405
596.6052, 7575.639
597.0873, 7600.671
597.5695, 7612.465
598.0516, 7596.021
598.5337, 7573.199
599.0158, 7551.719
599.4979, 7534.793
599.9800, 7527.326
600.4622, 7531.252
600.9443, 7545.451
601.4264, 7570.513
601.9085, 7612.522
602.3906, 7642.958
602.8727, 7664.734
603.3549, 7670.765
603.8370, 7642.839
604.3191, 7600.986
604.8012, 7581.743
605.2833, 7604.001
605.7654, 7633.544
606.2476, 7630.871
606.7297, 7603.490
607.2118, 7586.947
607.6939, 7589.954
608.1760, 7595.196
608.6581, 7584.510
