##NAMES=Astrophyllite
##RRUFFID=R060202
##IDEAL CHEMISTRY=K_2_NaFe^2+^_7_Ti^4+^_2_(Si_4_O_12_)_2_O_2_(OH)_4_F
##LOCALITY=Demix Quarry, Mont Saint-Hilaire, Rouville County, Quebec, Canada
##OWNER=RRUFF
##SOURCE=Royal Ontario Museum
##DESCRIPTION=Aggregate of brown splintered wafers
##STATUS=The identification of this mineral has been confirmed by X-ray diffraction and chemical analysis
##URL=rruff.info/R060202
##MEASURED CHEMISTRY=(K_0.56_Na_0.38_Ca_0.06_)_3_(Fe^2+^_0.52_Mn_0.44_Mg_0.04_)_7_(Ti_0.75_Zr_0.15_Al_0.15_)_2_Si_8_O_24_(O_0.27_OH_0.73_)_7_
156.9866, 5875.160
157.4687, 5921.949
157.9508, 5985.236
158.4329, 6075.888
158.9151, 6169.755
159.3972, 6226.074
159.8793, 6233.099
160.3614, 6244.093
160.8435, 6293.860
161.3256, 6378.398
161.8078, 6473.505
162.2899, 6583.527
162.7720, 6688.451
163.2541, 6766.121
163.7362, 6813.880
164.2183, 6844.877
164.7004, 6856.500
165.1826, 6851.379
165.6647, 6870.952
166.1468, 6948.012
166.6289, 7039.206
167.1110, 7102.488
167.5931, 7133.726
168.0753, 7151.616
168.5574, 7167.839
169.0395, 7182.455
169.5216, 7202.274
170.0037, 7235.725
170.4858, 7269.835
170.9680, 7296.247
171.4501, 7314.229
171.9322, 7322.834
172.4143, 7317.646
172.8964, 7297.829
173.3785, 7281.116
173.8607, 7278.504
174.3428, 7274.316
174.8249, 7253.945
175.3070, 7216.770
175.7891, 7181.440
176.2712, 7170.537
176.7534, 7187.058
177.2355, 7195.461
177.7176, 7183.222
178.1997, 7166.089
178.6818, 7152.992
179.1639, 7144.524
179.6461, 7135.013
180.1282, 7116.861
180.6103, 7088.256
181.0924, 7065.121
181.5745, 7048.823
182.0566, 7039.250
182.5388, 7038.488
183.0209, 7045.831
183.5030, 7056.815
183.9851, 7071.117
184.4672, 7091.638
184.9493, 7095.822
185.4315, 7049.702
185.9136, 7012.651
186.3957, 7017.675
186.8778, 7060.793
187.3599, 7111.011
187.8420, 7136.617
188.3242, 7133.277
188.8063, 7135.807
189.2884, 7147.958
189.7705, 7163.331
190.2526, 7184.402
190.7347, 7208.052
191.2169, 7225.124
191.6990, 7222.810
192.1811, 7197.431
192.6632, 7190.094
193.1453, 7221.829
193.6274, 7254.248
194.1096, 7271.499
194.5917, 7277.266
195.0738, 7285.611
195.5559, 7310.005
196.0380, 7351.722
196.5201, 7385.131
197.0022, 7414.971
197.4844, 7430.952
197.9665, 7419.247
198.4486, 7390.040
198.9307, 7364.086
199.4128, 7355.796
199.8949, 7365.167
200.3771, 7391.387
200.8592, 7454.303
201.3413, 7516.108
201.8234, 7576.136
202.3055, 7627.633
202.7876, 7658.894
203.2698, 7658.688
203.7519, 7631.352
204.2340, 7618.902
204.7161, 7637.391
205.1982, 7655.035
205.6803, 7668.603
206.1625, 7676.720
206.6446, 7676.298
207.1267, 7664.079
207.6088, 7644.323
208.0909, 7639.722
208.5730, 7666.089
209.0552, 7689.803
209.5373, 7706.139
210.0194, 7716.853
210.5015, 7723.745
210.9836, 7727.546
211.4657, 7729.718
211.9479, 7735.222
212.4300, 7747.843
212.9121, 7758.914
213.3942, 7761.661
213.8763, 7764.848
214.3584, 7779.346
214.8406, 7809.593
215.3227, 7848.745
215.8048, 7879.652
216.2869, 7890.965
216.7690, 7912.367
217.2511, 7947.745
217.7333, 7991.797
218.2154, 8043.070
218.6975, 8100.200
219.1796, 8156.931
219.6617, 8201.846
220.1438, 8228.890
220.6260, 8254.691
221.1081, 8274.760
221.5902, 8296.999
222.0723, 8331.503
222.5544, 8378.274
223.0365, 8423.706
223.5187, 8446.376
224.0008, 8427.798
224.4829, 8435.031
224.9650, 8485.161
225.4471, 8542.979
225.9292, 8589.291
226.4113, 8622.677
226.8935, 8653.264
227.3756, 8693.208
227.8577, 8746.698
228.3398, 8788.985
228.8219, 8805.583
229.3040, 8824.689
229.7862, 8860.836
230.2683, 8910.951
230.7504, 8961.794
231.2325, 9001.085
231.7146, 9027.823
232.1967, 9065.542
232.6789, 9127.494
233.1610, 9187.829
233.6431, 9237.744
234.1252, 9280.642
234.6073, 9324.422
235.0894, 9373.919
235.5716, 9429.064
236.0537, 9491.359
236.5358, 9571.893
237.0179, 9647.048
237.5000, 9716.587
237.9821, 9776.786
238.4643, 9819.137
238.9464, 9837.462
239.4285, 9842.059
239.9106, 9867.683
240.3927, 9931.353
240.8748, 9990.750
241.3570, 10043.18
241.8391, 10087.19
242.3212, 10119.00
242.8033, 10137.24
243.2854, 10148.82
243.7675, 10167.77
244.2497, 10199.25
244.7318, 10226.84
245.2139, 10256.47
245.6960, 10277.39
246.1781, 10277.92
246.6602, 10256.82
247.1424, 10227.54
247.6245, 10207.32
248.1066, 10198.92
248.5887, 10190.18
249.0708, 10187.03
249.5529, 10178.17
250.0351, 10152.28
250.5172, 10112.03
250.9993, 10073.60
251.4814, 10057.01
251.9635, 10065.00
252.4456, 10056.61
252.9278, 10009.56
253.4099, 9967.297
253.8920, 9950.470
254.3741, 9952.794
254.8562, 9956.191
255.3383, 9947.733
255.8205, 9929.491
256.3026, 9915.597
256.7847, 9910.911
257.2668, 9903.289
257.7489, 9891.268
258.2310, 9873.368
258.7132, 9846.057
259.1953, 9804.533
259.6774, 9756.753
260.1595, 9722.849
260.6416, 9710.647
261.1237, 9692.850
261.6059, 9661.306
262.0880, 9619.654
262.5701, 9568.651
263.0522, 9507.186
263.5343, 9443.493
264.0164, 9391.677
264.4986, 9355.081
264.9807, 9308.213
265.4628, 9238.479
265.9449, 9159.174
266.4270, 9077.400
266.9091, 8994.174
267.3913, 8914.421
267.8734, 8844.692
268.3555, 8784.053
268.8376, 8721.009
269.3197, 8649.479
269.8018, 8580.975
270.2840, 8530.383
270.7661, 8494.133
271.2482, 8446.493
271.7303, 8357.397
272.2124, 8246.643
272.6945, 8174.169
273.1766, 8157.360
273.6588, 8147.061
274.1409, 8098.135
274.6230, 8027.603
275.1051, 7973.939
275.5872, 7966.121
276.0693, 7973.239
276.5515, 7952.787
277.0336, 7902.308
277.5157, 7849.756
277.9978, 7809.181
278.4799, 7778.035
278.9620, 7750.203
279.4442, 7725.049
279.9263, 7703.139
280.4084, 7688.665
280.8905, 7679.438
281.3726, 7661.776
281.8547, 7625.648
282.3369, 7583.613
282.8190, 7561.053
283.3011, 7563.517
283.7832, 7563.558
284.2653, 7545.340
284.7474, 7518.422
285.2296, 7502.454
285.7117, 7504.051
286.1938, 7509.137
286.6759, 7497.000
287.1580, 7464.680
287.6401, 7442.252
288.1223, 7439.998
288.6044, 7445.527
289.0865, 7449.016
289.5686, 7449.027
290.0507, 7445.927
290.5328, 7440.470
291.0150, 7432.321
291.4971, 7417.183
291.9792, 7382.079
292.4613, 7352.984
292.9434, 7352.707
293.4255, 7370.110
293.9077, 7371.581
294.3898, 7334.716
294.8719, 7272.193
295.3540, 7239.221
295.8361, 7259.005
296.3182, 7277.630
296.8004, 7285.773
297.2825, 7289.006
297.7646, 7297.824
298.2467, 7315.376
298.7288, 7330.179
299.2109, 7320.351
299.6931, 7263.188
300.1752, 7225.185
300.6573, 7203.932
301.1394, 7201.135
301.6215, 7230.000
302.1036, 7284.296
302.5858, 7335.223
303.0679, 7352.092
303.5500, 7330.240
304.0321, 7315.713
304.5142, 7321.183
304.9963, 7321.278
305.4785, 7303.825
305.9606, 7275.180
306.4427, 7246.532
306.9248, 7222.725
307.4069, 7207.136
307.8890, 7216.047
308.3712, 7270.375
308.8533, 7315.070
309.3354, 7337.324
309.8175, 7346.769
310.2996, 7351.866
310.7817, 7355.313
311.2639, 7357.406
311.7460, 7358.141
312.2281, 7357.075
312.7102, 7357.007
313.1923, 7364.901
313.6744, 7368.554
314.1566, 7356.263
314.6387, 7329.879
315.1208, 7306.545
315.6029, 7301.972
316.0850, 7312.713
316.5671, 7318.410
317.0493, 7314.125
317.5314, 7312.143
318.0135, 7327.500
318.4956, 7350.405
318.9777, 7358.881
319.4598, 7333.621
319.9420, 7298.783
320.4241, 7290.275
320.9062, 7309.698
321.3883, 7330.959
321.8704, 7344.812
322.3525, 7351.274
322.8347, 7350.463
323.3168, 7339.103
323.7989, 7328.332
324.2810, 7323.638
324.7631, 7324.569
325.2452, 7331.152
325.7274, 7344.879
326.2095, 7360.183
326.6916, 7368.222
327.1737, 7368.222
327.6558, 7371.417
328.1379, 7386.126
328.6201, 7401.125
329.1022, 7401.593
329.5843, 7387.649
330.0664, 7376.822
330.5485, 7385.849
331.0306, 7413.701
331.5128, 7422.874
331.9949, 7392.956
332.4770, 7368.756
332.9591, 7372.012
333.4412, 7392.771
333.9233, 7411.137
334.4054, 7417.763
334.8875, 7416.877
335.3697, 7418.904
335.8518, 7417.946
336.3339, 7357.169
336.8160, 7456.007
337.2981, 7514.627
337.7802, 7535.192
338.2624, 7403.721
338.7445, 7468.573
339.2266, 7454.748
339.7087, 7437.696
340.1908, 7530.179
340.6729, 7420.821
341.1551, 7511.569
341.6372, 7522.438
342.1193, 7569.864
342.6014, 7538.127
343.0835, 7530.842
343.5656, 7602.746
344.0478, 7630.802
344.5299, 7589.953
345.0120, 7554.954
345.4941, 7543.566
345.9762, 7525.978
346.4583, 7512.002
346.9405, 7503.962
347.4226, 7499.023
347.9047, 7494.429
348.3868, 7490.253
348.8689, 7487.181
349.3510, 7480.906
349.8332, 7482.352
350.3153, 7505.905
350.7974, 7545.867
351.2795, 7577.173
351.7616, 7584.966
352.2437, 7579.637
352.7259, 7573.482
353.2080, 7566.375
353.6901, 7567.465
354.1722, 7589.410
354.6543, 7621.637
355.1364, 7631.438
355.6186, 7596.512
356.1007, 7571.774
356.5828, 7601.876
357.0649, 7660.201
357.5470, 7682.727
358.0291, 7644.593
358.5113, 7587.993
358.9934, 7576.535
359.4755, 7628.904
359.9576, 7671.866
360.4397, 7713.517
360.9218, 7737.085
361.4040, 7715.597
361.8861, 7658.902
362.3682, 7610.957
362.8503, 7607.566
363.3324, 7644.806
363.8145, 7670.557
364.2967, 7683.608
364.7788, 7686.077
365.2609, 7669.833
365.7430, 7646.319
366.2251, 7628.438
366.7072, 7620.871
367.1894, 7620.514
367.6715, 7622.976
368.1536, 7629.248
368.6357, 7608.894
369.1178, 7627.663
369.5999, 7636.378
370.0821, 7635.579
370.5642, 7596.771
371.0463, 7607.043
371.5284, 7597.647
372.0105, 7587.444
372.4926, 7604.625
372.9748, 7571.345
373.4569, 7603.335
373.9390, 7585.029
374.4211, 7557.956
374.9032, 7538.035
375.3853, 7528.227
375.8675, 7527.794
376.3496, 7540.441
376.8317, 7563.486
377.3138, 7583.945
377.7959, 7600.765
378.2780, 7609.967
378.7602, 7600.105
379.2423, 7572.537
379.7244, 7555.230
380.2065, 7562.946
380.6886, 7577.856
381.1707, 7582.530
381.6529, 7576.891
382.1350, 7570.273
382.6171, 7568.461
383.0992, 7570.667
383.5813, 7572.551
384.0634, 7568.591
384.5456, 7571.122
385.0277, 7594.352
385.5098, 7620.321
385.9919, 7623.447
386.4740, 7598.067
386.9561, 7564.259
387.4383, 7548.975
387.9204, 7555.956
388.4025, 7566.829
388.8846, 7590.679
389.3667, 7609.233
389.8488, 7614.574
390.3310, 7608.892
390.8131, 7598.082
391.2952, 7585.776
391.7773, 7570.378
392.2594, 7543.656
392.7415, 7494.245
393.2237, 7464.011
393.7058, 7480.773
394.1879, 7509.993
394.6700, 7526.845
395.1521, 7527.773
395.6342, 7523.701
396.1163, 7523.330
396.5984, 7524.873
397.0806, 7519.605
397.5627, 7503.126
398.0448, 7490.146
398.5269, 7493.873
399.0090, 7509.943
399.4911, 7527.316
399.9733, 7557.450
400.4554, 7575.791
400.9375, 7553.859
401.4196, 7504.602
401.9017, 7467.739
402.3839, 7459.427
402.8660, 7468.654
403.3481, 7478.362
403.8302, 7493.996
404.3123, 7494.879
404.7944, 7459.519
405.2766, 7424.579
405.7587, 7425.799
406.2408, 7456.609
406.7229, 7477.627
407.2050, 7456.386
407.6871, 7401.284
408.1693, 7377.690
408.6514, 7417.057
409.1335, 7447.664
409.6156, 7454.834
410.0977, 7451.806
410.5798, 7447.417
411.0620, 7445.333
411.5441, 7453.040
412.0262, 7491.452
412.5083, 7563.383
412.9904, 7591.026
413.4725, 7541.616
413.9547, 7486.279
414.4368, 7465.355
414.9189, 7467.328
415.4010, 7465.517
415.8831, 7440.681
416.3652, 7419.315
416.8474, 7444.794
417.3295, 7512.260
417.8116, 7555.933
418.2937, 7546.631
418.7758, 7511.095
419.2579, 7488.769
419.7401, 7479.837
420.2222, 7475.811
420.7043, 7483.402
421.1864, 7489.378
421.6685, 7477.913
422.1506, 7450.132
422.6328, 7420.131
423.1149, 7397.232
423.5970, 7381.299
424.0791, 7371.043
424.5612, 7366.584
425.0433, 7367.742
425.5255, 7383.141
426.0076, 7399.548
426.4897, 7403.480
426.9718, 7392.105
427.4539, 7372.635
427.9360, 7353.696
428.4182, 7336.177
428.9003, 7308.084
429.3824, 7253.708
429.8645, 7208.725
430.3466, 7196.374
430.8287, 7199.356
431.3109, 7187.866
431.7930, 7146.958
432.2751, 7098.086
432.7572, 7065.573
433.2393, 7049.041
433.7214, 7045.939
434.2036, 7064.323
434.6857, 7083.159
435.1678, 7073.678
435.6499, 7038.781
436.1320, 7013.501
436.6141, 7015.393
437.0963, 7024.389
437.5784, 7026.686
438.0605, 7020.526
438.5426, 6999.059
439.0247, 6954.220
439.5068, 6900.011
439.9890, 6876.816
440.4711, 6928.884
440.9532, 6948.705
441.4353, 6903.634
441.9174, 6846.205
442.3995, 6815.913
442.8817, 6816.308
443.3638, 6831.619
443.8459, 6851.554
444.3280, 6874.425
444.8101, 6885.179
445.2922, 6880.938
445.7744, 6868.537
446.2565, 6837.322
446.7386, 6806.444
447.2207, 6799.899
447.7028, 6823.236
448.1849, 6848.045
448.6671, 6841.701
449.1492, 6813.532
449.6313, 6808.216
450.1134, 6836.609
450.5955, 6869.500
451.0776, 6885.414
451.5598, 6888.053
452.0419, 6890.407
452.5240, 6894.496
453.0061, 6897.680
453.4882, 6896.305
453.9703, 6893.338
454.4525, 6893.788
454.9346, 6899.143
455.4167, 6911.000
455.8988, 6932.435
456.3809, 6967.000
456.8630, 6997.043
457.3452, 7031.335
457.8272, 7053.093
458.3094, 7042.384
458.7915, 7016.480
459.2736, 7008.112
459.7557, 7033.903
460.2378, 7074.558
460.7199, 7091.518
461.2021, 7078.497
461.6842, 7071.090
462.1663, 7071.640
462.6484, 7082.050
463.1305, 7106.375
463.6126, 7141.884
464.0948, 7178.811
464.5769, 7217.734
465.0590, 7252.333
465.5411, 7270.581
466.0232, 7273.775
466.5053, 7280.807
466.9875, 7302.697
467.4696, 7327.771
467.9517, 7330.734
468.4338, 7302.254
468.9159, 7291.009
469.3980, 7315.488
469.8802, 7350.897
470.3623, 7387.348
470.8444, 7417.872
471.3265, 7425.645
471.8086, 7397.500
472.2907, 7344.608
472.7729, 7309.708
473.2550, 7298.785
473.7371, 7296.334
474.2192, 7312.619
474.7013, 7326.637
475.1834, 7317.127
475.6656, 7287.542
476.1477, 7264.286
476.6298, 7271.960
477.1119, 7299.257
477.5940, 7309.172
478.0761, 7296.115
478.5583, 7295.136
479.0404, 7339.180
479.5225, 7392.560
480.0046, 7392.939
480.4867, 7323.025
480.9688, 7272.031
481.4510, 7294.604
481.9331, 7344.551
482.4152, 7366.717
482.8973, 7356.273
483.3794, 7332.778
483.8615, 7308.356
484.3437, 7283.979
484.8258, 7265.443
485.3079, 7244.822
485.7900, 7241.276
486.2721, 7279.232
486.7542, 7319.579
487.2364, 7324.530
487.7185, 7293.106
488.2006, 7255.696
488.6827, 7238.023
489.1648, 7237.333
489.6469, 7239.347
490.1291, 7247.625
490.6112, 7249.547
491.0933, 7227.397
491.5754, 7202.617
492.0575, 7200.026
492.5396, 7224.713
493.0218, 7253.593
493.5039, 7287.330
493.9860, 7312.003
494.4681, 7293.998
494.9502, 7232.123
495.4323, 7176.372
495.9145, 7163.773
496.3966, 7185.099
496.8787, 7191.684
497.3608, 7175.970
497.8429, 7156.552
498.3250, 7122.091
498.8072, 7093.527
499.2893, 7099.590
499.7714, 7136.260
500.2535, 7166.245
500.7356, 7154.484
501.2177, 7108.443
501.6999, 7075.684
502.1820, 7057.788
502.6641, 7050.042
503.1462, 7066.042
503.6283, 7082.748
504.1104, 7072.893
504.5926, 7032.606
505.0747, 7001.666
505.5568, 7012.499
506.0389, 7043.705
506.5210, 7060.533
507.0031, 7060.729
507.4853, 7053.631
507.9674, 7042.390
508.4495, 7029.836
508.9316, 7025.963
509.4137, 7037.711
509.8958, 7046.690
510.3780, 7050.541
510.8601, 7051.656
511.3422, 7051.168
511.8243, 7049.661
512.3064, 7048.878
512.7885, 7051.450
513.2706, 7053.819
513.7527, 7039.217
514.2349, 6996.702
514.7170, 6968.359
515.1991, 6977.147
515.6812, 6994.914
516.1633, 7002.279
516.6454, 6998.581
517.1276, 6992.049
517.6097, 6986.380
518.0918, 6980.189
518.5739, 6972.968
519.0560, 6964.193
519.5381, 6948.189
520.0203, 6919.241
520.5024, 6889.303
520.9845, 6883.036
521.4666, 6920.636
521.9487, 6936.575
522.4308, 6913.804
522.9130, 6885.158
523.3951, 6862.385
523.8772, 6849.815
524.3593, 6855.675
524.8414, 6886.129
525.3235, 6923.862
525.8057, 6930.878
526.2878, 6900.509
526.7699, 6883.737
527.2520, 6896.291
527.7341, 6913.755
528.2162, 6919.380
528.6984, 6915.913
529.1805, 6911.734
529.6626, 6906.458
530.1447, 6904.463
530.6268, 6911.728
531.1089, 6924.906
531.5911, 6935.644
532.0732, 6941.496
532.5553, 6944.377
533.0374, 6946.130
533.5195, 6946.496
534.0016, 6948.040
534.4838, 6952.120
534.9659, 6955.701
535.4480, 6956.788
535.9301, 6957.415
536.4122, 6959.589
536.8943, 6964.006
537.3765, 6971.170
537.8586, 6983.717
538.3407, 7000.491
538.8228, 7010.314
539.3049, 7009.349
539.7870, 7012.312
540.2692, 7030.289
540.7513, 7056.542
541.2334, 7076.766
541.7155, 7085.756
542.1976, 7101.258
542.6797, 7142.853
543.1619, 7186.939
543.6440, 7197.447
544.1261, 7178.174
544.6082, 7170.536
545.0903, 7205.861
545.5724, 7270.451
546.0546, 7308.839
546.5367, 7301.135
547.0188, 7304.768
547.5009, 7328.188
547.9830, 7360.849
548.4651, 7397.875
548.9473, 7438.441
549.4294, 7483.087
549.9115, 7537.697
550.3936, 7590.613
550.8757, 7621.810
551.3578, 7633.363
551.8400, 7645.959
552.3221, 7665.109
552.8042, 7689.472
553.2863, 7720.114
553.7684, 7758.972
554.2505, 7786.044
554.7327, 7790.799
555.2148, 7794.885
555.6969, 7807.858
556.1790, 7826.161
556.6611, 7846.001
557.1432, 7865.355
557.6254, 7879.990
558.1075, 7887.066
558.5896, 7886.645
559.0717, 7863.771
559.5538, 7801.189
560.0359, 7748.890
560.5181, 7743.246
561.0002, 7755.498
561.4823, 7749.524
561.9644, 7717.229
562.4465, 7685.986
562.9286, 7678.250
563.4108, 7674.472
563.8929, 7642.901
564.3750, 7586.342
564.8571, 7537.823
565.3392, 7519.259
565.8214, 7519.378
566.3035, 7505.772
566.7856, 7475.558
567.2677, 7436.305
567.7498, 7371.992
568.2319, 7314.845
568.7141, 7289.102
569.1962, 7284.719
569.6783, 7275.042
570.1604, 7246.930
570.6425, 7209.757
571.1246, 7167.337
571.6068, 7123.347
572.0889, 7109.128
572.5710, 7139.839
573.0531, 7166.202
573.5352, 7135.772
574.0173, 7053.344
574.4995, 7007.156
574.9816, 7029.196
575.4637, 7045.524
575.9458, 7021.445
576.4279, 6990.199
576.9100, 6998.755
577.3922, 7046.190
577.8743, 7081.231
578.3564, 7053.336
578.8385, 6980.583
579.3206, 6941.856
579.8027, 6945.853
580.2849, 6949.713
580.7670, 6935.524
581.2491, 6920.671
581.7312, 6932.385
582.2133, 6969.090
582.6954, 6978.128
583.1776, 6912.644
583.6597, 6843.009
584.1418, 6826.635
584.6239, 6848.172
585.1060, 6869.367
585.5881, 6876.783
586.0703, 6881.214
586.5524, 6900.498
587.0345, 6938.811
587.5166, 6948.580
587.9987, 6900.268
588.4808, 6863.570
588.9630, 6870.271
589.4451, 6893.051
589.9272, 6897.877
590.4093, 6877.854
590.8914, 6864.117
591.3735, 6888.084
591.8557, 6925.669
592.3378, 6935.211
592.8199, 6917.520
593.3020, 6899.987
593.7841, 6896.236
594.2662, 6900.800
594.7484, 6902.635
595.2305, 6899.595
595.7126, 6899.181
596.1947, 6894.403
596.6768, 6899.156
597.1589, 6931.463
597.6411, 6974.244
598.1232, 6998.996
598.6053, 6995.050
599.0874, 6976.422
599.5695, 6947.440
600.0516, 6915.172
600.5338, 6913.271
601.0159, 6949.044
601.4980, 6983.768
601.9801, 6994.113
602.4622, 6985.774
602.9443, 6976.486
603.4265, 6987.550
603.9086, 7007.797
604.3907, 7017.991
604.8728, 7018.670
605.3549, 6981.340
605.8370, 6993.091
606.3192, 6985.172
606.8013, 6976.447
607.2834, 6995.106
607.7655, 6963.305
608.2476, 6949.051
608.7297, 6960.361
609.2119, 6983.410
609.6940, 7001.773
610.1761, 6997.741
610.6582, 6980.218
611.1403, 6979.868
611.6224, 7008.270
612.1045, 7035.579
612.5866, 7053.382
613.0687, 7065.974
613.5508, 7077.913
614.0330, 7088.799
614.5151, 7092.339
614.9972, 7082.373
615.4793, 7070.896
615.9614, 7092.875
616.4435, 7157.541
616.9257, 7196.904
617.4078, 7187.900
617.8899, 7171.292
618.3720, 7182.782
618.8541, 7209.518
619.3362, 7215.028
619.8184, 7170.443
620.3005, 7141.204
620.7826, 7169.273
621.2647, 7223.410
621.7468, 7267.654
622.2289, 7296.547
622.7111, 7318.071
623.1932, 7337.744
623.6753, 7354.684
624.1574, 7363.729
624.6395, 7359.645
625.1216, 7365.901
625.6038, 7391.835
626.0859, 7422.749
626.5680, 7450.772
627.0501, 7475.994
627.5322, 7498.748
628.0143, 7520.833
628.4965, 7538.121
628.9786, 7542.169
629.4607, 7542.494
629.9428, 7553.236
630.4249, 7576.307
630.9070, 7607.131
631.3892, 7642.754
631.8713, 7682.132
632.3534, 7719.997
632.8355, 7753.246
633.3176, 7793.486
633.7997, 7855.225
634.2819, 7911.396
634.7640, 7936.109
635.2461, 7942.288
635.7282, 7968.302
636.2103, 8034.548
636.6924, 8106.712
637.1746, 8161.432
637.6567, 8206.921
638.1388, 8256.407
638.6209, 8312.191
639.1030, 8369.188
639.5851, 8422.924
640.0673, 8477.449
640.5494, 8550.660
641.0315, 8657.000
641.5136, 8747.138
641.9957, 8792.256
642.4778, 8842.929
642.9600, 8931.534
643.4421, 9047.062
643.9242, 9159.699
644.4063, 9262.782
644.8884, 9357.717
645.3705, 9438.724
645.8527, 9515.016
646.3348, 9597.964
646.8169, 9690.432
647.2990, 9797.761
647.7811, 9926.475
648.2632, 10065.85
648.7454, 10182.99
649.2275, 10268.81
649.7096, 10355.83
