##NAMES=Astrophyllite
##RRUFFID=R060202
##IDEAL CHEMISTRY=K_2_NaFe^2+^_7_Ti^4+^_2_(Si_4_O_12_)_2_O_2_(OH)_4_F
##LOCALITY=Demix Quarry, Mont Saint-Hilaire, Rouville County, Quebec, Canada
##OWNER=RRUFF
##SOURCE=Royal Ontario Museum
##DESCRIPTION=Aggregate of brown splintered wafers
##STATUS=The identification of this mineral has been confirmed by X-ray diffraction and chemical analysis
##URL=rruff.info/R060202
##MEASURED CHEMISTRY=(K_0.56_Na_0.38_Ca_0.06_)_3_(Fe^2+^_0.52_Mn_0.44_Mg_0.04_)_7_(Ti_0.75_Zr_0.15_Al_0.15_)_2_Si_8_O_24_(O_0.27_OH_0.73_)_7_
142.9505, 3038.629
143.4326, 3062.923
143.9147, 3098.900
144.3968, 3144.281
144.8789, 3203.295
145.3610, 3260.032
145.8432, 3315.103
146.3253, 3367.877
146.8074, 3414.610
147.2895, 3456.320
147.7716, 3491.456
148.2537, 3519.310
148.7359, 3523.977
149.2180, 3540.724
149.7001, 3580.787
150.1822, 3641.732
150.6643, 3685.071
151.1464, 3688.746
151.6286, 3687.395
152.1107, 3704.926
152.5928, 3763.782
153.0749, 3820.399
153.5570, 3869.570
154.0391, 3911.333
154.5213, 3941.404
155.0034, 3953.060
155.4855, 3954.407
155.9676, 3954.319
156.4497, 3948.794
156.9318, 3946.904
157.4140, 3951.260
157.8961, 3961.709
158.3782, 3979.808
158.8603, 4011.397
159.3424, 4050.399
159.8245, 4086.667
160.3067, 4107.289
160.7888, 4130.162
161.2709, 4168.556
161.7530, 4240.513
162.2351, 4301.041
162.7172, 4323.983
163.1993, 4318.601
163.6815, 4315.083
164.1636, 4330.790
164.6457, 4352.705
165.1278, 4369.465
165.6099, 4374.411
166.0920, 4377.189
166.5742, 4379.994
167.0563, 4383.629
167.5384, 4394.863
168.0205, 4429.996
168.5026, 4472.458
168.9847, 4499.994
169.4669, 4495.156
169.9490, 4478.877
170.4311, 4468.274
170.9132, 4463.969
171.3953, 4457.362
171.8774, 4437.102
172.3596, 4409.976
172.8417, 4388.804
173.3238, 4392.650
173.8059, 4400.320
174.2880, 4382.633
174.7701, 4333.335
175.2523, 4280.359
175.7344, 4249.063
176.2165, 4236.417
176.6986, 4231.635
177.1807, 4238.664
177.6628, 4247.705
178.1449, 4240.643
178.6271, 4211.268
179.1092, 4173.658
179.5913, 4141.376
180.0734, 4114.961
180.5555, 4095.930
181.0376, 4091.626
181.5198, 4096.063
182.0019, 4092.043
182.4840, 4071.593
182.9661, 4046.316
183.4482, 4037.597
183.9303, 4045.144
184.4125, 4057.788
184.8946, 4068.277
185.3767, 4076.552
185.8588, 4082.453
186.3409, 4085.028
186.8230, 4085.594
187.3052, 4087.503
187.7873, 4090.841
188.2694, 4094.578
188.7515, 4096.716
189.2336, 4097.615
189.7157, 4101.115
190.1979, 4112.179
190.6800, 4127.612
191.1621, 4128.650
191.6442, 4112.057
192.1263, 4093.552
192.6084, 4095.437
193.0906, 4117.886
193.5727, 4143.130
194.0548, 4163.008
194.5369, 4178.144
195.0190, 4199.175
195.5011, 4227.829
195.9832, 4258.771
196.4654, 4282.472
196.9475, 4298.429
197.4296, 4311.613
197.9117, 4321.473
198.3938, 4327.794
198.8759, 4344.906
199.3581, 4378.058
199.8402, 4417.208
200.3223, 4435.107
200.8044, 4425.940
201.2865, 4421.491
201.7686, 4448.365
202.2508, 4511.766
202.7329, 4553.237
203.2150, 4561.840
203.6971, 4547.358
204.1792, 4540.543
204.6613, 4541.148
205.1435, 4550.147
205.6256, 4571.248
206.1077, 4607.332
206.5898, 4638.967
207.0719, 4662.865
207.5540, 4680.043
208.0362, 4697.254
208.5183, 4716.429
209.0004, 4731.679
209.4825, 4732.755
209.9646, 4710.869
210.4467, 4709.274
210.9288, 4743.752
211.4110, 4811.080
211.8931, 4856.922
212.3752, 4875.324
212.8573, 4880.750
213.3394, 4885.625
213.8215, 4887.216
214.3037, 4896.055
214.7858, 4915.054
215.2679, 4944.488
215.7500, 4979.618
216.2321, 5025.350
216.7142, 5070.630
217.1964, 5099.899
217.6785, 5105.917
218.1606, 5111.822
218.6427, 5121.526
219.1248, 5133.344
219.6069, 5162.060
220.0891, 5215.415
220.5712, 5279.157
221.0533, 5333.378
221.5354, 5375.246
222.0175, 5412.253
222.4996, 5444.301
222.9818, 5469.096
223.4639, 5501.427
223.9460, 5546.735
224.4281, 5596.392
224.9102, 5634.391
225.3923, 5652.897
225.8745, 5672.881
226.3566, 5702.979
226.8387, 5749.729
227.3208, 5787.694
227.8029, 5809.426
228.2850, 5825.319
228.7672, 5860.381
229.2493, 5926.713
229.7314, 5994.392
230.2135, 6050.523
230.6956, 6090.283
231.1777, 6128.807
231.6599, 6162.235
232.1420, 6195.253
232.6241, 6244.579
233.1062, 6330.517
233.5883, 6403.774
234.0704, 6434.295
234.5526, 6384.218
235.0347, 6374.767
235.5168, 6430.232
235.9989, 6529.195
236.4810, 6588.587
236.9631, 6581.490
237.4453, 6569.313
237.9274, 6588.181
238.4095, 6658.355
238.8916, 6716.444
239.3737, 6762.256
239.8558, 6793.687
240.3380, 6797.914
240.8201, 6754.471
241.3022, 6709.445
241.7843, 6693.503
242.2664, 6725.476
242.7485, 6748.641
243.2307, 6757.968
243.7128, 6754.418
244.1949, 6744.614
244.6770, 6727.845
245.1591, 6705.688
245.6412, 6677.707
246.1233, 6636.794
246.6055, 6604.793
247.0876, 6587.101
247.5697, 6581.924
248.0518, 6570.040
248.5339, 6545.902
249.0160, 6521.783
249.4982, 6509.844
249.9803, 6524.758
250.4624, 6519.439
250.9445, 6476.401
251.4266, 6400.768
251.9087, 6358.716
252.3909, 6365.285
252.8730, 6386.980
253.3551, 6396.743
253.8372, 6390.792
254.3193, 6382.307
254.8014, 6377.886
255.2836, 6376.093
255.7657, 6346.083
256.2478, 6270.216
256.7299, 6188.668
257.2120, 6137.267
257.6941, 6128.046
258.1762, 6121.148
258.6584, 6114.470
259.1405, 6107.220
259.6226, 6075.221
260.1047, 6005.223
260.5868, 5928.721
261.0689, 5877.595
261.5511, 5867.122
262.0332, 5840.792
262.5153, 5782.050
262.9974, 5693.706
263.4795, 5617.451
263.9616, 5558.195
264.4438, 5504.618
264.9259, 5444.145
265.4080, 5373.960
265.8901, 5307.906
266.3722, 5251.520
266.8543, 5203.953
267.3365, 5147.135
267.8186, 5076.894
268.3007, 5005.215
268.7828, 4946.090
269.2649, 4901.983
269.7470, 4858.658
270.2292, 4812.483
270.7113, 4763.346
271.1934, 4720.093
271.6755, 4685.260
272.1576, 4650.405
272.6397, 4603.570
273.1219, 4541.246
273.6040, 4486.851
274.0861, 4447.738
274.5682, 4421.891
275.0503, 4393.896
275.5324, 4362.221
276.0146, 4332.056
276.4967, 4312.383
276.9788, 4305.448
277.4609, 4287.734
277.9430, 4247.925
278.4251, 4191.212
278.9073, 4152.619
279.3894, 4134.659
279.8715, 4127.206
280.3536, 4124.801
280.8357, 4127.979
281.3178, 4121.168
281.8000, 4094.606
282.2821, 4055.229
282.7642, 4037.375
283.2463, 4044.158
283.7284, 4057.237
284.2105, 4058.142
284.6927, 4047.412
285.1747, 4039.865
285.6569, 4044.268
286.1390, 4053.221
286.6211, 4036.956
287.1032, 3992.555
287.5853, 3944.604
288.0674, 3913.449
288.5496, 3898.298
289.0317, 3893.304
289.5138, 3900.035
289.9959, 3914.240
290.4780, 3927.435
290.9601, 3939.878
291.4423, 3946.926
291.9244, 3943.062
292.4065, 3929.905
292.8886, 3913.128
293.3707, 3889.546
293.8528, 3867.007
294.3350, 3865.265
294.8171, 3884.069
295.2992, 3901.632
295.7813, 3894.228
296.2634, 3871.076
296.7455, 3859.376
297.2277, 3869.747
297.7098, 3890.545
298.1919, 3906.484
298.6740, 3917.590
299.1561, 3922.629
299.6382, 3913.783
300.1204, 3898.849
300.6025, 3895.072
301.0846, 3913.570
301.5667, 3934.945
302.0488, 3933.123
302.5309, 3911.372
303.0131, 3889.584
303.4952, 3880.021
303.9773, 3879.123
304.4594, 3883.029
304.9415, 3894.074
305.4236, 3904.298
305.9058, 3902.630
306.3879, 3892.487
306.8700, 3886.957
307.3521, 3899.410
307.8342, 3918.322
308.3163, 3930.521
308.7985, 3930.264
309.2806, 3929.229
309.7627, 3941.721
310.2448, 3961.373
310.7269, 3969.661
311.2090, 3941.139
311.6912, 3905.991
312.1733, 3889.426
312.6554, 3900.147
313.1375, 3919.550
313.6196, 3947.701
314.1017, 3977.801
314.5839, 3994.885
315.0660, 3979.330
315.5481, 3957.928
316.0302, 3946.295
316.5123, 3947.250
316.9944, 3955.829
317.4766, 3976.382
317.9586, 4002.641
318.4408, 4023.796
318.9229, 4033.129
319.4050, 4039.321
319.8871, 4046.435
320.3692, 4055.661
320.8513, 4063.002
321.3335, 4061.042
321.8156, 4058.275
322.2977, 4066.319
322.7798, 4108.714
323.2619, 4142.543
323.7440, 4150.011
324.2262, 4122.351
324.7083, 4105.890
325.1904, 4112.690
325.6725, 4129.939
326.1546, 4143.466
326.6367, 4151.195
327.1189, 4156.461
327.6010, 4157.293
328.0831, 4152.112
328.5652, 4156.062
329.0473, 4177.013
329.5294, 4202.204
330.0116, 4220.162
330.4937, 4225.937
330.9758, 4231.285
331.4579, 4236.322
331.9400, 4241.171
332.4221, 4254.051
332.9043, 4283.637
333.3864, 4311.353
333.8685, 4319.770
334.3506, 4295.154
334.8327, 4284.539
335.3148, 4301.305
335.7970, 4338.325
336.2791, 4351.164
336.7612, 4327.227
337.2433, 4304.342
337.7254, 4313.059
338.2076, 4361.909
338.6897, 4397.333
339.1718, 4408.358
339.6539, 4405.362
340.1360, 4423.901
340.6181, 4469.639
341.1003, 4509.526
341.5824, 4515.523
342.0645, 4487.533
342.5466, 4479.101
343.0287, 4500.182
343.5108, 4533.003
343.9930, 4540.777
344.4751, 4523.352
344.9572, 4507.518
345.4393, 4511.119
345.9214, 4529.440
346.4035, 4539.959
346.8857, 4540.211
347.3678, 4537.153
347.8499, 4540.732
348.3320, 4549.580
348.8141, 4556.652
349.2962, 4558.002
349.7784, 4555.483
350.2605, 4551.701
350.7426, 4546.448
351.2247, 4543.175
351.7068, 4543.968
352.1889, 4549.221
352.6710, 4559.756
353.1531, 4585.581
353.6353, 4611.631
354.1174, 4617.654
354.5995, 4604.479
355.0816, 4591.540
355.5637, 4593.562
356.0458, 4603.875
356.5280, 4614.040
357.0101, 4619.981
357.4922, 4626.218
357.9743, 4638.025
358.4564, 4653.853
358.9385, 4665.344
359.4207, 4661.925
359.9028, 4655.765
360.3849, 4657.242
360.8670, 4677.285
361.3491, 4692.860
361.8312, 4691.336
362.3134, 4678.185
362.7955, 4669.200
363.2776, 4668.525
363.7597, 4673.659
364.2418, 4684.282
364.7239, 4704.404
365.2061, 4721.563
365.6882, 4733.791
366.1703, 4741.740
366.6524, 4746.418
367.1345, 4749.860
367.6166, 4748.195
368.0988, 4737.434
368.5809, 4711.425
369.0630, 4698.343
369.5451, 4707.580
370.0272, 4724.610
370.5093, 4732.363
370.9915, 4725.901
371.4736, 4717.769
371.9557, 4710.749
372.4378, 4704.846
372.9199, 4695.122
373.4020, 4675.941
373.8842, 4660.569
374.3663, 4664.357
374.8484, 4695.414
375.3305, 4716.205
375.8126, 4717.295
376.2947, 4703.778
376.7769, 4696.604
377.2590, 4695.680
377.7411, 4701.227
378.2232, 4717.115
378.7053, 4743.490
379.1874, 4761.192
379.6696, 4765.590
380.1517, 4764.334
380.6338, 4776.917
381.1159, 4802.576
381.5980, 4818.417
382.0801, 4799.852
382.5623, 4760.086
383.0444, 4743.255
383.5265, 4755.223
384.0086, 4776.874
384.4907, 4791.062
384.9728, 4797.510
385.4549, 4794.857
385.9370, 4771.505
386.4192, 4743.607
386.9013, 4736.925
387.3834, 4751.973
387.8655, 4766.133
388.3476, 4759.346
388.8297, 4741.388
389.3119, 4726.296
389.7940, 4724.314
390.2761, 4721.638
390.7582, 4702.971
391.2403, 4672.435
391.7224, 4653.287
392.2046, 4667.043
392.6867, 4690.774
393.1688, 4707.304
393.6509, 4711.690
394.1330, 4710.511
394.6151, 4699.775
395.0973, 4684.458
395.5794, 4677.533
396.0615, 4690.260
396.5436, 4704.917
397.0257, 4714.665
397.5078, 4718.585
397.9900, 4718.585
398.4721, 4713.435
398.9542, 4704.821
399.4363, 4694.536
399.9184, 4676.833
400.4005, 4665.127
400.8827, 4663.051
401.3648, 4671.044
401.8469, 4682.721
402.3290, 4705.851
402.8111, 4723.417
403.2932, 4716.076
403.7754, 4672.208
404.2575, 4641.643
404.7396, 4634.691
405.2217, 4646.112
405.7038, 4655.526
406.1859, 4662.035
406.6681, 4670.263
407.1502, 4686.157
407.6323, 4708.932
408.1144, 4722.623
408.5965, 4723.445
409.0786, 4719.874
409.5608, 4730.137
410.0429, 4752.250
410.5250, 4766.136
411.0071, 4751.838
411.4892, 4723.028
411.9713, 4714.805
412.4535, 4729.442
412.9356, 4748.634
413.4177, 4758.791
413.8998, 4760.547
414.3819, 4754.870
414.8640, 4731.447
415.3462, 4709.263
415.8283, 4709.878
416.3104, 4730.192
416.7925, 4747.748
417.2746, 4744.647
417.7567, 4735.075
418.2388, 4733.283
418.7209, 4751.102
419.2031, 4763.044
419.6852, 4736.997
420.1673, 4750.138
420.6494, 4754.317
421.1315, 4750.017
421.6136, 4711.837
422.0958, 4717.403
422.5779, 4705.438
423.0600, 4692.755
423.5421, 4704.480
424.0242, 4671.227
424.5063, 4682.565
424.9885, 4674.557
425.4706, 4667.964
425.9527, 4647.769
426.4348, 4614.061
426.9169, 4580.090
427.3990, 4541.600
427.8812, 4508.716
428.3633, 4490.139
428.8454, 4491.256
429.3275, 4487.154
429.8096, 4474.912
430.2917, 4456.435
430.7739, 4436.740
431.2560, 4415.802
431.7381, 4393.297
432.2202, 4368.512
432.7023, 4341.650
433.1844, 4312.704
433.6666, 4280.029
434.1487, 4251.183
434.6308, 4237.927
435.1129, 4237.420
435.5950, 4237.356
436.0771, 4235.132
436.5593, 4229.443
437.0414, 4217.203
437.5235, 4198.772
438.0056, 4178.444
438.4877, 4153.558
438.9698, 4130.512
439.4520, 4119.180
439.9341, 4127.645
440.4162, 4137.223
440.8983, 4138.621
441.3804, 4132.180
441.8625, 4118.721
442.3447, 4088.787
442.8268, 4059.434
443.3089, 4038.764
443.7910, 4027.105
444.2731, 4025.699
444.7552, 4045.669
445.2374, 4071.913
445.7195, 4087.532
446.2016, 4080.406
446.6837, 4074.222
447.1658, 4073.727
447.6479, 4078.218
448.1301, 4078.823
448.6122, 4071.317
449.0943, 4065.006
449.5764, 4064.594
450.0585, 4068.991
450.5406, 4085.437
451.0227, 4123.618
451.5049, 4165.060
451.9870, 4164.825
452.4691, 4114.296
452.9512, 4076.283
453.4333, 4082.996
453.9154, 4127.590
454.3976, 4163.212
454.8797, 4189.120
455.3618, 4209.022
455.8439, 4226.436
456.3260, 4240.791
456.8081, 4248.576
457.2903, 4246.827
457.7724, 4240.784
458.2545, 4230.654
458.7366, 4219.720
459.2187, 4223.729
459.7008, 4266.371
460.1830, 4322.054
460.6651, 4364.388
461.1472, 4388.554
461.6293, 4403.286
462.1114, 4403.951
462.5935, 4400.237
463.0757, 4406.209
463.5578, 4443.220
464.0399, 4474.670
464.5220, 4480.957
465.0041, 4462.059
465.4862, 4456.480
465.9684, 4484.635
466.4505, 4518.391
466.9326, 4539.951
467.4147, 4542.157
467.8968, 4542.234
468.3789, 4539.169
468.8611, 4534.553
469.3432, 4531.686
469.8253, 4529.520
470.3074, 4531.646
470.7895, 4543.328
471.2716, 4565.319
471.7538, 4567.711
472.2359, 4545.415
472.7180, 4517.990
473.2001, 4507.384
473.6822, 4512.728
474.1643, 4517.471
474.6465, 4517.294
475.1286, 4515.042
475.6107, 4514.734
476.0928, 4516.691
476.5749, 4523.586
477.0570, 4549.658
477.5392, 4577.646
478.0213, 4574.857
478.5034, 4532.352
478.9855, 4492.042
479.4676, 4488.854
479.9497, 4508.252
480.4319, 4528.181
480.9140, 4543.604
481.3961, 4554.385
481.8782, 4563.737
482.3603, 4570.339
482.8424, 4563.572
483.3245, 4520.545
483.8066, 4476.940
484.2888, 4454.477
484.7709, 4468.960
485.2530, 4481.776
485.7351, 4489.195
486.2172, 4494.864
486.6993, 4506.356
487.1815, 4532.668
487.6636, 4548.281
488.1457, 4541.117
488.6278, 4512.276
489.1099, 4503.300
489.5920, 4520.547
490.0742, 4541.323
490.5563, 4544.839
491.0384, 4531.347
491.5205, 4520.995
492.0026, 4517.866
492.4847, 4516.706
492.9669, 4505.398
493.4490, 4485.978
493.9311, 4472.595
494.4132, 4476.891
494.8953, 4490.110
495.3774, 4501.275
495.8596, 4510.050
496.3417, 4510.509
496.8238, 4493.044
497.3059, 4466.391
497.7880, 4440.863
498.2701, 4413.796
498.7523, 4395.563
499.2344, 4395.788
499.7165, 4408.775
500.1986, 4419.391
500.6807, 4425.388
501.1628, 4426.530
501.6450, 4422.000
502.1271, 4410.347
502.6092, 4397.941
503.0913, 4379.582
503.5734, 4364.561
504.0555, 4362.815
504.5377, 4383.886
505.0198, 4396.788
505.5019, 4394.051
505.9840, 4381.412
506.4661, 4380.636
506.9482, 4394.593
507.4304, 4406.769
507.9125, 4406.318
508.3946, 4394.906
508.8767, 4389.288
509.3588, 4390.793
509.8409, 4392.201
510.3231, 4381.784
510.8052, 4364.387
511.2873, 4354.842
511.7694, 4364.311
512.2515, 4375.668
512.7336, 4365.015
513.2158, 4338.530
513.6979, 4319.756
514.1800, 4328.457
514.6621, 4345.239
515.1442, 4357.497
515.6263, 4364.241
516.1085, 4363.604
516.5906, 4343.008
517.0727, 4319.700
517.5548, 4311.918
518.0369, 4347.805
518.5190, 4369.853
519.0012, 4361.547
519.4833, 4331.266
519.9654, 4320.110
520.4475, 4341.634
520.9296, 4360.597
521.4117, 4357.220
521.8939, 4325.254
522.3760, 4314.018
522.8581, 4329.668
523.3402, 4351.259
523.8223, 4351.602
524.3044, 4331.966
524.7866, 4313.077
525.2687, 4298.000
525.7508, 4289.322
526.2329, 4293.943
526.7150, 4310.439
527.1971, 4329.515
527.6793, 4348.123
528.1614, 4365.027
528.6435, 4377.296
529.1256, 4384.131
529.6077, 4392.276
530.0898, 4412.593
530.5720, 4433.967
531.0541, 4443.644
531.5362, 4423.201
532.0182, 4406.766
532.5004, 4404.543
532.9825, 4414.009
533.4646, 4424.416
533.9467, 4428.782
534.4288, 4440.233
534.9109, 4466.204
535.3931, 4512.216
535.8752, 4544.029
536.3573, 4556.556
536.8394, 4562.416
537.3215, 4569.806
537.8036, 4576.708
538.2858, 4607.259
538.7679, 4674.556
539.2500, 4755.704
539.7321, 4795.201
540.2142, 4796.373
540.6964, 4796.079
541.1785, 4814.680
541.6606, 4845.355
542.1427, 4876.213
542.6248, 4907.198
543.1069, 4940.481
543.5891, 4979.872
544.0712, 5021.676
544.5533, 5060.583
545.0354, 5088.202
545.5175, 5124.702
545.9996, 5185.297
546.4818, 5260.266
546.9639, 5328.485
547.4460, 5387.609
547.9281, 5437.130
548.4102, 5472.662
548.8923, 5492.634
549.3745, 5525.567
549.8566, 5579.761
550.3387, 5636.358
550.8208, 5683.975
551.3029, 5722.551
551.7850, 5751.028
552.2672, 5766.522
552.7493, 5776.701
553.2314, 5793.488
553.7135, 5816.845
554.1956, 5844.601
554.6777, 5880.742
555.1599, 5917.819
555.6420, 5940.878
556.1241, 5950.878
556.6062, 5955.983
557.0883, 5960.029
557.5704, 5963.020
558.0526, 5968.972
558.5347, 5983.881
559.0168, 5979.690
559.4989, 5922.457
559.9810, 5845.528
560.4631, 5789.605
560.9453, 5779.871
561.4274, 5775.331
561.9095, 5776.792
562.3916, 5779.171
562.8737, 5758.063
563.3558, 5695.043
563.8380, 5635.942
564.3201, 5603.275
564.8022, 5600.573
565.2843, 5587.306
565.7664, 5562.851
566.2485, 5529.550
566.7307, 5483.003
567.2128, 5425.927
567.6949, 5385.436
568.1770, 5371.707
568.6591, 5368.344
569.1412, 5352.677
569.6234, 5327.323
570.1055, 5301.203
570.5876, 5277.250
571.0697, 5255.425
571.5518, 5237.039
572.0339, 5221.915
572.5161, 5203.693
572.9982, 5172.822
573.4803, 5142.439
573.9624, 5121.771
574.4445, 5120.031
574.9266, 5114.422
575.4088, 5103.499
575.8909, 5087.627
576.3730, 5064.895
576.8551, 5025.666
577.3372, 5001.208
577.8193, 5003.580
578.3015, 5024.881
578.7836, 5026.190
579.2657, 5003.946
579.7478, 4988.279
580.2299, 5006.335
580.7120, 5047.564
581.1942, 5070.482
581.6763, 5072.780
582.1584, 5064.596
582.6405, 5048.500
583.1226, 5030.009
583.6047, 5018.301
584.0869, 5017.104
584.5690, 5021.312
585.0511, 5032.763
585.5332, 5047.159
586.0153, 5055.298
586.4974, 5045.688
586.9796, 5037.690
587.4617, 5038.976
587.9438, 5050.290
588.4259, 5060.690
588.9080, 5070.352
589.3901, 5078.896
589.8723, 5086.458
590.3544, 5093.481
590.8365, 5095.537
591.3186, 5088.699
591.8007, 5072.194
592.2828, 5098.750
592.7650, 5116.345
593.2471, 5125.458
593.7292, 5100.693
594.2113, 5119.677
594.6934, 5121.127
595.1755, 5121.858
595.6577, 5147.000
596.1398, 5127.162
596.6219, 5151.916
597.1040, 5158.869
597.5861, 5173.969
598.0682, 5171.428
598.5503, 5174.336
599.0324, 5194.891
599.5145, 5205.674
599.9966, 5201.103
600.4788, 5216.722
600.9609, 5196.268
601.4430, 5207.468
601.9251, 5232.325
602.4072, 5228.641
602.8893, 5244.581
603.3715, 5253.048
603.8536, 5227.547
604.3357, 5261.119
604.8178, 5269.144
605.2999, 5250.938
605.7820, 5282.484
606.2642, 5281.162
606.7463, 5297.396
607.2284, 5308.961
607.7105, 5324.171
608.1926, 5358.213
608.6747, 5395.588
609.1569, 5418.203
609.6390, 5410.485
610.1211, 5407.591
610.6032, 5427.166
611.0853, 5458.314
611.5674, 5483.040
612.0496, 5493.282
612.5317, 5503.742
613.0138, 5516.549
613.4959, 5531.451
613.9780, 5547.795
614.4601, 5566.710
614.9423, 5583.542
615.4244, 5591.767
615.9065, 5592.791
616.3886, 5614.767
616.8707, 5660.390
617.3528, 5701.344
617.8350, 5694.323
618.3171, 5663.621
618.7992, 5663.971
619.2813, 5717.399
619.7634, 5777.488
620.2455, 5802.358
620.7277, 5809.317
621.2098, 5828.637
621.6919, 5894.824
622.1740, 5950.129
622.6561, 5967.441
623.1382, 5952.223
623.6204, 5950.695
624.1025, 5976.405
624.5846, 6000.030
625.0667, 6003.623
625.5488, 5982.169
626.0309, 6004.689
626.5131, 6083.552
626.9952, 6168.490
627.4773, 6207.634
627.9594, 6208.348
628.4415, 6216.403
628.9236, 6236.856
629.4058, 6271.300
629.8879, 6330.933
630.3700, 6405.326
630.8521, 6473.003
631.3342, 6519.332
631.8163, 6562.030
632.2985, 6607.739
632.7806, 6657.117
633.2627, 6713.335
633.7448, 6790.646
634.2269, 6862.141
634.7090, 6911.618
635.1912, 6935.336
635.6733, 6983.406
