##NAMES=Astrophyllite
##RRUFFID=R060103
##IDEAL CHEMISTRY=K_2_NaFe^2+^_7_Ti^4+^_2_(Si_4_O_12_)_2_O_2_(OH)_4_F
##LOCALITY=Brivik, Norway
##OWNER=RRUFF
##SOURCE=University of Arizona Mineral Museum
##DESCRIPTION=Brown fragment embedded in matrix
##STATUS=The identification of this mineral is confirmed by single-crystal X-ray diffraction and chemical analysis.
##URL=rruff.info/R060103
##MEASURED CHEMISTRY=K_2.00_Na_1.00_(Fe^2+^_0.55_Mn_0.32_Fe^3+^_0.04_Mg_0.04_Ca_0.04_)_7_(Ti_0.66_Zr_0.18_Al_0.16_)_2_Si_8.00_O_26_(OH)_4_F_1.00_
90.26367, 13.26016
90.74579, 13.46247
91.22791, 13.44535
91.71002, 13.22003
92.19214, 12.87583
92.67426, 12.38597
93.15637, 11.81985
93.63850, 11.37529
94.12061, 11.12426
94.60273, 11.03211
95.08485, 11.04255
95.56696, 11.16377
96.04908, 11.33145
96.53120, 11.50982
97.01331, 11.69159
97.49543, 11.79022
97.97755, 11.71089
98.45966, 11.46868
98.94178, 11.35942
99.42390, 11.43388
99.90602, 11.57047
100.3881, 11.50766
100.8703, 11.18558
101.3524, 10.87450
101.8345, 10.73295
102.3166, 10.81881
102.7987, 10.83374
103.2808, 10.76124
103.7630, 10.60314
104.2451, 10.33544
104.7272, 9.793646
105.2093, 9.356517
105.6914, 9.313915
106.1735, 10.05051
106.6557, 10.51632
107.1378, 10.47634
107.6199, 9.909246
108.1020, 9.548406
108.5841, 9.525753
109.0662, 9.638370
109.5484, 9.703890
110.0305, 9.570440
110.5126, 9.541160
110.9947, 9.703812
111.4768, 10.11322
111.9590, 10.46942
112.4411, 10.76186
112.9232, 10.98500
113.4053, 11.12321
113.8874, 11.01227
114.3695, 10.94885
114.8517, 11.05516
115.3338, 11.39228
115.8159, 11.77887
116.2980, 12.17419
116.7801, 12.58589
117.2622, 13.02641
117.7444, 13.38507
118.2265, 13.84597
118.7086, 14.55562
119.1907, 15.71612
119.6728, 16.88268
120.1549, 17.75989
120.6371, 18.41524
121.1192, 19.12554
121.6013, 20.03741
122.0834, 21.08647
122.5655, 22.19238
123.0477, 23.25670
123.5298, 24.43319
124.0119, 25.98178
124.4940, 27.87235
124.9761, 29.68712
125.4582, 30.90897
125.9404, 31.80740
126.4225, 32.90089
126.9046, 34.52353
127.3867, 36.42395
127.8688, 38.22743
128.3509, 39.93245
128.8331, 41.55495
129.3152, 43.04956
129.7973, 44.45500
130.2794, 45.92561
130.7615, 47.62659
131.2436, 49.46624
131.7258, 51.07542
132.2079, 52.40103
132.6900, 53.61144
133.1721, 54.91406
133.6542, 56.30320
134.1364, 57.84961
134.6185, 59.71775
135.1006, 61.89564
135.5827, 63.79924
136.0648, 65.30880
136.5469, 66.62847
137.0291, 68.41538
137.5112, 70.84642
137.9933, 72.95830
138.4754, 73.99956
138.9575, 73.76109
139.4396, 73.71653
139.9218, 74.11594
140.4039, 74.83012
140.8860, 75.13187
141.3681, 74.74353
141.8502, 74.43429
142.3323, 74.84844
142.8145, 76.24052
143.2966, 77.70591
143.7787, 79.06522
144.2608, 80.33591
144.7429, 81.85432
145.2251, 83.77483
145.7072, 85.82347
146.1893, 87.77041
146.6714, 89.71915
147.1535, 91.39519
147.6356, 92.52756
148.1178, 92.91639
148.5999, 94.09270
149.0820, 96.55078
149.5641, 99.58718
150.0462, 102.3528
150.5283, 104.3452
151.0105, 106.5323
151.4926, 108.1569
151.9747, 110.1211
152.4568, 112.1681
152.9389, 114.7318
153.4210, 117.2614
153.9032, 119.0173
154.3853, 119.2474
154.8674, 119.2881
155.3495, 119.5749
155.8316, 120.2942
156.3138, 120.8984
156.7959, 121.0576
157.2780, 121.0600
157.7601, 121.4495
158.2422, 122.5458
158.7243, 123.8990
159.2065, 125.3158
159.6886, 126.8096
160.1707, 128.2814
160.6528, 129.8701
161.1349, 131.4394
161.6170, 132.6244
162.0992, 132.9072
162.5813, 133.0008
163.0634, 133.3833
163.5455, 134.3310
164.0276, 135.3452
164.5097, 136.2132
164.9919, 136.9644
165.4740, 137.7120
165.9561, 138.6690
166.4382, 139.5771
166.9203, 140.2000
167.4025, 140.1885
167.8846, 140.1673
168.3667, 140.7289
168.8488, 141.7518
169.3309, 142.4399
169.8130, 142.1128
170.2952, 141.2308
170.7773, 140.3710
171.2594, 139.8364
171.7415, 139.3072
172.2236, 138.5078
172.7057, 137.4460
173.1879, 136.2449
173.6700, 134.9620
174.1521, 133.6018
174.6342, 132.1709
175.1163, 130.5567
175.5984, 128.9087
176.0806, 127.4803
176.5627, 126.2670
177.0448, 125.0108
177.5269, 123.3927
178.0090, 121.5573
178.4911, 119.8014
178.9733, 118.4227
179.4554, 117.1717
179.9375, 115.4270
180.4196, 113.1215
180.9017, 111.0845
181.3839, 110.5368
181.8660, 111.1014
182.3481, 111.4145
182.8302, 110.6129
183.3123, 109.1421
183.7944, 107.9713
184.2766, 107.1121
184.7587, 106.5686
185.2408, 106.5240
185.7229, 106.8897
186.2050, 107.1183
186.6871, 106.7639
187.1693, 106.0215
187.6514, 105.7029
188.1335, 105.9250
188.6156, 106.2653
189.0977, 105.9318
189.5798, 104.9727
190.0620, 104.3072
190.5441, 104.4836
191.0262, 105.4083
191.5083, 106.5697
191.9904, 108.1104
192.4725, 109.5284
192.9547, 109.6687
193.4368, 108.4847
193.9189, 107.5755
194.4010, 108.0051
194.8831, 109.6811
195.3652, 111.1661
195.8474, 112.3687
196.3295, 113.3411
196.8116, 114.1384
197.2937, 114.7435
197.7758, 115.3162
198.2579, 115.9125
198.7401, 116.5301
199.2222, 117.2478
199.7043, 118.0641
200.1864, 118.9733
200.6685, 120.0327
201.1507, 121.2869
201.6328, 122.4500
202.1149, 123.2850
202.5970, 123.7459
203.0791, 124.3718
203.5612, 125.2664
204.0434, 126.3000
204.5255, 127.0923
205.0076, 127.5948
205.4897, 128.0284
205.9718, 128.5086
206.4539, 129.0321
206.9361, 129.6377
207.4182, 130.3658
207.9003, 131.1615
208.3824, 131.8378
208.8645, 132.3295
209.3466, 132.8793
209.8288, 133.7305
210.3109, 135.0336
210.7930, 135.9216
211.2751, 136.0798
211.7572, 135.8273
212.2393, 136.4657
212.7215, 138.3405
213.2036, 140.3279
213.6857, 141.6227
214.1678, 141.9150
214.6499, 142.5864
215.1321, 143.8363
215.6142, 145.5555
216.0963, 147.2575
216.5784, 148.9395
217.0605, 150.5945
217.5426, 152.2179
218.0248, 153.7893
218.5069, 155.3473
218.9890, 156.9256
219.4711, 158.4942
219.9532, 159.8977
220.4353, 161.0059
220.9175, 162.1845
221.3996, 163.6990
221.8817, 165.6431
222.3638, 167.6699
222.8459, 169.8396
223.3280, 172.0886
223.8102, 173.8647
224.2923, 174.8900
224.7744, 175.9128
225.2565, 177.4536
225.7386, 179.8335
226.2208, 181.9285
226.7029, 183.5479
227.1850, 184.7905
227.6671, 186.0735
228.1492, 187.3557
228.6313, 188.7355
229.1135, 190.2920
229.5956, 192.1660
230.0777, 193.9479
230.5598, 195.7116
231.0419, 197.3827
231.5240, 198.5720
232.0062, 198.9534
232.4883, 199.3021
232.9704, 200.0974
233.4525, 201.5337
233.9346, 203.0092
234.4167, 204.6068
234.8989, 206.2227
235.3810, 207.3150
235.8631, 207.5750
236.3452, 207.7310
236.8273, 208.2311
237.3095, 209.3270
237.7916, 210.2143
238.2737, 210.8532
238.7558, 211.2503
239.2379, 211.4304
239.7200, 211.2666
240.2022, 211.0528
240.6843, 210.9381
241.1664, 210.9350
241.6485, 211.0316
242.1306, 211.4042
242.6127, 211.8787
243.0949, 211.7265
243.5770, 210.5831
244.0591, 209.3252
244.5412, 208.4514
245.0233, 208.2802
245.5054, 207.7648
245.9876, 206.7294
246.4697, 205.3541
246.9518, 204.1798
247.4339, 203.3148
247.9160, 202.4851
248.3981, 201.5594
248.8803, 200.4575
249.3624, 199.4402
249.8445, 198.5672
250.3266, 197.7628
250.8087, 196.8081
251.2909, 195.6336
251.7730, 194.4252
252.2551, 193.2295
252.7372, 191.8785
253.2193, 190.9936
253.7014, 190.8761
254.1836, 191.0977
254.6657, 190.6306
255.1478, 189.1311
255.6299, 187.5444
256.1120, 186.2429
256.5941, 185.3214
257.0763, 184.4431
257.5584, 183.7016
258.0405, 182.9376
258.5226, 181.8040
259.0047, 180.1081
259.4868, 178.4270
259.9690, 177.0616
260.4511, 176.1714
260.9332, 174.8648
261.4153, 173.0563
261.8974, 170.8905
262.3795, 168.6145
262.8617, 166.1648
263.3438, 163.7124
263.8259, 161.3223
264.3080, 159.0443
264.7901, 156.5088
265.2722, 153.5977
265.7544, 150.5698
266.2365, 147.8654
266.7186, 145.5865
267.2007, 143.3434
267.6829, 141.0760
268.1650, 138.7612
268.6471, 136.2569
269.1292, 133.3671
269.6113, 130.5240
270.0934, 128.3519
270.5756, 127.0292
271.0577, 125.5884
271.5398, 123.6138
272.0219, 121.1231
272.5040, 119.5090
272.9861, 119.1041
273.4683, 118.8955
273.9504, 117.7044
274.4325, 115.3374
274.9146, 113.0939
275.3967, 111.3046
275.8788, 109.9029
276.3610, 108.4898
276.8431, 107.0715
277.3252, 105.6660
277.8073, 104.2319
278.2894, 102.7435
278.7715, 101.5443
279.2537, 100.7527
279.7358, 100.2845
280.2179, 99.80406
280.7000, 99.32484
281.1821, 98.76866
281.6642, 98.06407
282.1464, 97.21107
282.6285, 96.23665
283.1106, 95.06730
283.5927, 93.84258
284.0748, 92.97949
284.5569, 92.50282
285.0391, 92.13122
285.5212, 91.67620
286.0033, 91.14319
286.4854, 90.60765
286.9675, 90.07722
287.4496, 89.54847
287.9318, 88.96540
288.4139, 88.32130
288.8960, 87.81285
289.3781, 87.69423
289.8602, 87.85379
290.3424, 87.65564
290.8245, 86.95126
291.3066, 86.12004
291.7887, 85.82499
292.2708, 86.01356
292.7530, 86.20570
293.2351, 86.14390
293.7172, 85.88303
294.1993, 85.55249
294.6814, 85.13332
295.1635, 84.75886
295.6457, 84.67138
296.1278, 84.80288
296.6099, 84.86613
297.0920, 84.68405
297.5741, 84.35226
298.0562, 84.00573
298.5384, 83.63869
299.0205, 83.39137
299.5026, 83.56290
299.9847, 83.98417
300.4668, 84.20643
300.9489, 83.88181
301.4311, 83.34451
301.9132, 83.06290
302.3953, 83.02837
302.8774, 83.07848
303.3595, 83.17805
303.8416, 83.25963
304.3238, 83.19542
304.8059, 82.84901
305.2880, 82.43578
305.7701, 82.19577
306.2522, 82.10219
306.7343, 82.00723
307.2165, 81.73071
307.6986, 81.42130
308.1807, 81.27722
308.6628, 81.41523
309.1449, 81.61438
309.6270, 81.68459
310.1092, 81.66920
310.5913, 81.70688
311.0734, 81.96200
311.5555, 82.25544
312.0376, 82.42888
312.5197, 82.44056
313.0019, 82.36599
313.4840, 82.11105
313.9661, 81.80262
314.4482, 81.69662
314.9304, 82.14690
315.4125, 82.65960
315.8946, 82.91087
316.3767, 82.81960
316.8588, 82.69723
317.3409, 82.71892
317.8231, 82.77413
318.3052, 82.71721
318.7873, 82.30345
319.2694, 81.94401
319.7515, 81.79188
320.2336, 81.85946
320.7158, 82.09517
321.1979, 82.76853
321.6800, 83.47205
322.1621, 83.83476
322.6442, 83.14669
323.1263, 82.76540
323.6085, 83.25141
324.0906, 84.53146
324.5727, 85.40620
325.0548, 85.31676
325.5369, 85.01207
326.0190, 84.94418
326.5012, 85.37186
326.9833, 85.77931
327.4654, 86.19228
327.9475, 86.57360
328.4296, 86.75915
328.9117, 86.21378
329.3939, 85.94702
329.8760, 86.45325
330.3581, 88.65907
330.8402, 89.89860
331.3223, 89.54857
331.8044, 88.40928
332.2866, 88.15346
332.7687, 89.44091
333.2508, 90.64397
333.7329, 91.22596
334.2150, 91.04849
334.6971, 90.87578
335.1793, 90.57788
335.6614, 90.40800
336.1435, 90.76476
336.6256, 91.88921
337.1077, 92.90689
337.5899, 93.51863
338.0720, 93.76624
338.5541, 94.32668
339.0362, 95.29853
339.5183, 96.37965
340.0005, 97.27871
340.4826, 97.97865
340.9647, 98.70773
341.4468, 99.57333
341.9289, 100.4578
342.4110, 100.9275
342.8932, 100.9264
343.3753, 100.8466
343.8574, 100.9257
344.3395, 101.1587
344.8216, 101.4871
345.3037, 101.9142
345.7859, 102.4099
346.2680, 102.9655
346.7501, 103.5763
347.2322, 104.1066
347.7143, 104.4923
348.1964, 104.7438
348.6786, 104.8912
349.1607, 104.9310
349.6428, 104.9034
350.1249, 104.8180
350.6070, 104.6977
351.0891, 104.6096
351.5713, 104.5123
352.0534, 104.4991
352.5355, 104.7816
353.0176, 105.3462
353.4997, 105.9103
353.9818, 106.3269
354.4640, 106.5814
354.9461, 106.6319
355.4282, 106.3336
355.9103, 105.9984
356.3924, 105.8350
356.8745, 105.8503
357.3567, 106.0691
357.8388, 106.8305
358.3209, 107.6213
358.8030, 107.9160
359.2851, 107.3976
359.7672, 106.9867
360.2494, 107.4183
360.7315, 108.2837
361.2136, 108.8223
361.6957, 108.6521
362.1779, 108.1697
362.6600, 107.4436
363.1421, 106.4202
363.6242, 105.6591
364.1063, 105.5046
364.5884, 105.6207
365.0706, 105.6650
365.5527, 105.6057
366.0348, 105.4282
366.5169, 105.1123
366.9990, 104.6615
367.4811, 104.1417
367.9633, 103.5239
368.4454, 102.8596
368.9275, 102.1780
369.4096, 101.3491
369.8917, 100.6915
370.3738, 100.3564
370.8560, 100.1896
371.3381, 99.74332
371.8202, 98.70644
372.3023, 97.80699
372.7844, 97.36971
373.2665, 97.53762
373.7487, 97.59896
374.2308, 97.56966
374.7129, 97.41858
375.1950, 97.03746
375.6771, 96.29020
376.1592, 95.75208
376.6414, 95.61831
377.1235, 95.84787
377.6056, 96.01235
378.0877, 96.09905
378.5698, 96.16954
379.0519, 96.32178
379.5341, 96.55653
380.0162, 96.61773
380.4983, 96.40431
380.9804, 96.06192
381.4625, 95.95606
381.9446, 96.07998
382.4268, 96.20100
382.9089, 96.08009
383.3910, 95.83362
383.8731, 95.91622
384.3553, 96.42666
384.8374, 96.95227
385.3195, 96.92635
385.8016, 96.50502
386.2837, 96.14807
386.7658, 96.12177
387.2480, 96.24398
387.7301, 96.35355
388.2122, 96.44203
388.6943, 96.36360
389.1764, 95.81675
389.6585, 95.10352
390.1407, 94.63291
390.6228, 94.66792
391.1049, 94.75826
391.5870, 94.66940
392.0691, 94.40816
392.5512, 93.99512
393.0334, 93.27956
393.5155, 92.52684
393.9976, 91.85194
394.4797, 91.19884
394.9618, 90.87811
395.4439, 91.41702
395.9261, 92.22593
396.4082, 92.51991
396.8903, 91.34883
397.3724, 90.42720
397.8545, 90.41931
398.3366, 91.38541
398.8188, 91.95745
399.3009, 91.68597
399.7830, 91.22866
400.2651, 91.00736
400.7472, 91.33106
401.2293, 91.20155
401.7115, 91.58615
402.1936, 91.85278
402.6757, 92.00777
403.1578, 91.71685
403.6399, 92.00174
404.1220, 92.05588
404.6042, 92.10056
405.0863, 92.46651
405.5684, 92.17019
406.0505, 91.66389
406.5326, 91.51109
407.0147, 91.77041
407.4969, 91.92249
407.9790, 91.76237
408.4611, 91.40404
408.9432, 91.34518
409.4254, 91.61122
409.9075, 91.92241
410.3896, 92.05137
410.8717, 92.03670
411.3538, 92.08865
411.8359, 92.29729
412.3181, 92.43090
412.8002, 91.95963
413.2823, 91.06418
413.7644, 90.43493
414.2465, 90.66977
414.7286, 91.28013
415.2108, 91.62089
415.6929, 91.65386
416.1750, 91.61504
416.6571, 91.76953
417.1392, 91.93496
417.6213, 91.85835
418.1035, 91.19517
418.5856, 90.54688
419.0677, 90.32837
419.5498, 90.43663
420.0319, 90.49441
420.5140, 90.26807
420.9962, 90.00096
421.4783, 89.86716
421.9604, 89.98813
422.4425, 89.97965
422.9246, 89.80705
423.4067, 89.44588
423.8889, 88.85795
424.3710, 87.78216
424.8531, 86.74732
425.3352, 85.92625
425.8173, 85.32124
426.2994, 84.56223
426.7816, 83.56986
427.2637, 82.50988
427.7458, 81.52959
428.2279, 80.79668
428.7100, 79.63904
429.1921, 77.75337
429.6743, 75.59608
430.1564, 74.45041
430.6385, 74.61532
431.1206, 74.63053
431.6028, 73.75356
432.0849, 72.03196
432.5670, 70.82668
433.0491, 70.21378
433.5312, 69.79333
434.0133, 69.15195
434.4955, 68.31607
434.9776, 67.42152
435.4597, 66.38396
435.9418, 65.45517
436.4239, 65.36269
436.9060, 65.95393
437.3882, 66.24281
437.8703, 65.25737
438.3524, 63.70739
438.8345, 62.65514
439.3166, 62.26988
439.7987, 61.98432
440.2809, 61.26889
440.7630, 60.36936
441.2451, 59.67638
441.7272, 59.43014
442.2093, 59.35012
442.6914, 59.36288
443.1736, 59.44479
443.6557, 59.45686
444.1378, 59.36762
444.6199, 59.17960
445.1020, 58.87543
445.5841, 58.34034
446.0663, 57.91352
446.5484, 57.66854
447.0305, 57.55412
447.5126, 57.48619
447.9947, 57.48466
448.4768, 57.49938
448.9590, 57.47673
449.4411, 57.41192
449.9232, 57.59409
450.4053, 58.16669
450.8874, 58.78058
451.3695, 59.16201
451.8517, 59.25951
452.3338, 59.33226
452.8159, 59.33747
453.2980, 59.40204
453.7801, 59.87225
454.2622, 60.77470
454.7444, 61.62446
455.2265, 62.11649
455.7086, 62.36445
456.1907, 62.87199
456.6729, 63.66482
457.1550, 64.47055
457.6371, 64.97067
458.1192, 65.30207
458.6013, 65.83839
459.0834, 66.75131
459.5656, 67.73976
460.0477, 68.44035
460.5298, 68.94075
461.0119, 69.46355
461.4940, 70.22977
461.9761, 71.00826
462.4583, 71.58719
462.9404, 71.94022
463.4225, 72.31162
463.9046, 72.68572
464.3867, 73.19456
464.8688, 73.95315
465.3510, 75.46659
465.8331, 76.70089
466.3152, 77.36100
466.7973, 77.55737
467.2794, 77.68537
467.7615, 77.59347
468.2437, 77.61530
468.7258, 77.90833
469.2079, 78.56353
469.6900, 79.05650
470.1721, 79.37589
470.6542, 79.53921
471.1364, 79.54928
471.6185, 79.38223
472.1006, 79.14520
472.5827, 78.82458
473.0648, 78.46582
473.5469, 78.23148
474.0291, 78.13377
474.5112, 78.01992
474.9933, 77.77438
475.4754, 77.43369
475.9575, 77.19942
476.4396, 77.10220
476.9218, 76.92855
477.4039, 76.37059
477.8860, 75.56448
478.3681, 74.82030
478.8503, 74.18181
479.3324, 73.71181
479.8145, 73.58086
480.2966, 73.70033
480.7787, 73.75024
481.2608, 73.54447
481.7430, 73.22304
482.2251, 72.81794
482.7072, 72.28410
483.1893, 71.96085
483.6714, 72.21401
484.1535, 72.62639
484.6357, 72.77762
485.1178, 72.44170
485.5999, 72.02734
486.0820, 71.51700
486.5641, 70.96259
487.0462, 70.54951
487.5284, 70.39159
488.0105, 70.22309
488.4926, 69.91111
488.9747, 69.41354
489.4568, 69.09255
489.9389, 69.03616
490.4211, 69.00285
490.9032, 68.74917
491.3853, 68.27238
491.8674, 67.57340
492.3495, 66.55560
492.8316, 65.43569
493.3138, 64.73689
493.7959, 64.42400
494.2780, 64.14396
494.7601, 63.71070
495.2422, 63.16541
495.7243, 62.55811
496.2065, 61.87870
496.6886, 61.26568
497.1707, 60.75627
497.6528, 60.38993
498.1349, 60.24412
498.6170, 60.55028
499.0992, 60.76905
499.5813, 60.54654
500.0634, 60.01072
500.5455, 59.47622
501.0276, 59.06243
501.5097, 58.65774
501.9919, 58.16844
502.4740, 57.55349
502.9561, 57.13570
503.4382, 57.11314
503.9203, 57.16670
504.4025, 57.06883
504.8846, 56.69241
505.3667, 56.43877
505.8488, 56.39155
506.3309, 56.44409
506.8130, 56.39049
507.2952, 56.24646
507.7773, 55.91478
508.2594, 55.20293
508.7415, 54.25409
509.2236, 53.98044
509.7057, 54.43213
510.1879, 54.92218
510.6700, 54.77460
511.1521, 54.20757
511.6342, 53.88416
512.1163, 53.94437
512.5984, 54.13901
513.0806, 54.28148
513.5627, 54.36153
514.0448, 54.35765
514.5269, 54.20050
515.0090, 54.00505
515.4911, 53.83474
515.9733, 53.68927
516.4554, 53.56551
516.9375, 53.48171
517.4196, 53.40247
517.9017, 53.32295
518.3839, 53.29602
518.8660, 53.13417
519.3481, 52.59357
519.8302, 52.01305
520.3123, 51.77465
520.7944, 52.06881
521.2766, 52.36530
521.7587, 52.63820
522.2408, 52.84871
522.7229, 52.78532
523.2050, 52.34784
523.6871, 52.01073
524.1693, 52.09823
524.6514, 52.56609
525.1335, 52.86456
525.6156, 52.98759
526.0977, 52.98574
526.5798, 52.79023
527.0620, 52.50179
527.5441, 52.43858
528.0262, 52.72721
528.5083, 53.15607
528.9904, 53.47416
529.4725, 53.74998
529.9547, 54.15105
530.4368, 54.97724
530.9189, 55.77800
531.4010, 56.22691
531.8831, 56.32185
532.3652, 56.35983
532.8474, 56.26812
533.3295, 56.27082
533.8116, 56.51081
534.2937, 57.05731
534.7758, 57.75785
535.2579, 58.63383
535.7401, 59.64864
536.2222, 60.74800
536.7043, 62.05927
537.1865, 63.19135
537.6686, 64.00533
538.1507, 64.58877
538.6328, 65.24004
539.1149, 65.93292
539.5970, 66.90596
540.0792, 68.43948
540.5613, 70.41367
541.0434, 72.16535
541.5255, 73.65810
542.0076, 75.04726
542.4897, 76.39239
542.9719, 77.76864
543.4540, 79.34150
543.9361, 81.13393
544.4182, 83.13319
544.9003, 85.34774
545.3824, 87.74110
545.8646, 90.23332
546.3467, 92.88848
546.8288, 95.54756
547.3109, 98.08182
547.7930, 100.4619
548.2751, 102.9720
548.7573, 105.7892
549.2394, 108.6414
549.7215, 111.3774
550.2036, 113.9340
550.6857, 116.5004
551.1678, 119.0007
551.6500, 121.6020
552.1321, 124.5920
552.6142, 128.0820
553.0963, 131.3641
553.5784, 134.3521
554.0605, 136.9644
554.5427, 138.7090
555.0248, 139.6455
555.5069, 140.8467
555.9890, 143.2420
556.4711, 146.2193
556.9532, 148.8391
557.4354, 151.0595
557.9175, 152.6630
558.3996, 153.0733
558.8817, 152.9452
559.3638, 153.0366
559.8459, 153.7965
560.3281, 154.2294
560.8102, 153.9104
561.2923, 153.0164
561.7744, 151.8227
562.2565, 150.4065
562.7386, 148.6545
563.2208, 146.4245
563.7029, 143.8041
564.1850, 141.2247
564.6671, 138.6855
565.1492, 136.2412
565.6313, 134.0068
566.1135, 132.0474
566.5956, 129.5904
567.0777, 126.5387
567.5598, 123.3855
568.0419, 120.6230
568.5240, 118.2080
569.0062, 115.7754
569.4883, 113.2530
569.9704, 110.7477
570.4525, 108.4171
570.9346, 106.2228
571.4167, 104.1753
571.8989, 102.2412
572.3810, 100.4359
572.8631, 98.68754
573.3452, 97.03914
573.8273, 95.65922
574.3094, 95.03202
574.7916, 94.37759
575.2737, 93.18389
575.7558, 91.09649
576.2379, 89.48667
576.7200, 88.62977
577.2021, 88.07164
577.6843, 87.39604
578.1664, 86.51421
578.6485, 85.80216
579.1306, 85.32802
579.6127, 84.99910
580.0948, 84.66259
580.5770, 84.32044
581.0591, 83.83603
581.5412, 83.06551
582.0233, 82.17180
582.5054, 81.47877
582.9875, 80.98954
583.4697, 80.66338
