##NAMES=Astrophyllite
##RRUFFID=R060103
##IDEAL CHEMISTRY=K_2_NaFe^2+^_7_Ti^4+^_2_(Si_4_O_12_)_2_O_2_(OH)_4_F
##LOCALITY=Brivik, Norway
##OWNER=RRUFF
##SOURCE=University of Arizona Mineral Museum
##DESCRIPTION=Brown fragment embedded in matrix
##STATUS=The identification of this mineral is confirmed by single-crystal X-ray diffraction and chemical analysis.
##URL=rruff.info/R060103
##MEASURED CHEMISTRY=K_2.00_Na_1.00_(Fe^2+^_0.55_Mn_0.32_Fe^3+^_0.04_Mg_0.04_Ca_0.04_)_7_(Ti_0.66_Zr_0.18_Al_0.16_)_2_Si_8.00_O_26_(OH)_4_F_1.00_
92.02539, 204.1997
92.50751, 208.0395
92.98962, 211.3348
93.47174, 210.4786
93.95386, 207.8932
94.43597, 204.1776
94.91809, 199.7959
95.40021, 195.0306
95.88232, 189.9880
96.36444, 184.4655
96.84656, 178.9785
97.32867, 173.3787
97.81078, 168.0263
98.29290, 163.5586
98.77502, 160.5447
99.25713, 159.0271
99.73925, 156.3027
100.2214, 151.9578
100.7035, 147.1811
101.1856, 142.1239
101.6677, 136.9579
102.1498, 132.1369
102.6320, 128.1868
103.1141, 125.1688
103.5962, 123.1341
104.0783, 122.4350
104.5604, 122.5226
105.0425, 123.0214
105.5247, 123.9506
106.0068, 124.7551
106.4889, 124.5573
106.9710, 123.5813
107.4531, 121.4789
107.9352, 117.6004
108.4173, 112.2280
108.8995, 106.8537
109.3816, 101.7715
109.8637, 97.10906
110.3458, 92.95676
110.8279, 89.32311
111.3100, 86.12413
111.7922, 83.19804
112.2743, 80.45696
112.7564, 78.35680
113.2385, 77.40568
113.7206, 76.90646
114.2027, 76.27682
114.6849, 75.24929
115.1670, 73.95274
115.6491, 72.85821
116.1312, 72.04910
116.6133, 71.36632
117.0954, 70.79171
117.5776, 70.31583
118.0597, 69.93793
118.5418, 69.66328
119.0239, 69.49285
119.5060, 69.29248
119.9881, 68.93613
120.4703, 68.66751
120.9524, 68.55590
121.4345, 68.61464
121.9166, 68.88062
122.3987, 69.47747
122.8808, 70.47842
123.3630, 70.96684
123.8451, 70.65644
124.3272, 69.98096
124.8093, 69.33752
125.2914, 68.78784
125.7735, 68.25320
126.2557, 67.51722
126.7378, 66.63992
127.2199, 66.06857
127.7020, 66.21578
128.1841, 66.84383
128.6662, 67.17330
129.1483, 66.93082
129.6305, 66.52976
130.1126, 66.35044
130.5947, 66.36714
131.0768, 66.31329
131.5589, 65.94894
132.0410, 65.24668
132.5232, 64.45893
133.0053, 63.48626
133.4874, 62.51851
133.9695, 61.58610
134.4516, 60.71806
134.9337, 60.02799
135.4159, 59.74361
135.8980, 60.25274
136.3801, 60.42922
136.8622, 60.05442
137.3443, 59.46855
137.8264, 58.96575
138.3086, 58.65726
138.7907, 58.43735
139.2728, 58.02199
139.7549, 57.22770
140.2370, 56.43444
140.7191, 55.53602
141.2013, 54.67379
141.6834, 54.11921
142.1655, 54.07158
142.6476, 54.35163
143.1297, 54.15708
143.6118, 53.15867
144.0939, 52.14333
144.5761, 51.36624
145.0582, 50.82067
145.5403, 50.48377
146.0224, 50.42402
146.5045, 50.55520
146.9866, 50.58633
147.4688, 50.48192
147.9509, 50.29449
148.4330, 50.05127
148.9151, 49.74142
149.3972, 49.44105
149.8793, 49.12690
150.3615, 48.86102
150.8436, 48.76348
151.3257, 49.00777
151.8078, 49.38320
152.2899, 49.33176
152.7720, 48.47602
153.2542, 47.86939
153.7363, 48.10017
154.2184, 48.78870
154.7005, 49.36202
155.1826, 49.44450
155.6647, 49.08478
156.1469, 48.77710
156.6290, 48.48235
157.1111, 48.29455
157.5932, 48.30759
158.0753, 48.45259
158.5574, 48.58961
159.0396, 48.59463
159.5217, 48.44718
160.0038, 48.35504
160.4859, 48.22702
160.9680, 48.22239
161.4501, 48.49080
161.9323, 48.98378
162.4144, 49.50944
162.8965, 49.88704
163.3786, 50.11855
163.8607, 50.09309
164.3428, 49.52293
164.8250, 48.91623
165.3071, 48.65704
165.7892, 48.79998
166.2713, 49.12642
166.7534, 49.41849
167.2355, 49.68243
167.7177, 49.83730
168.1998, 49.80078
168.6819, 49.67636
169.1640, 49.60139
169.6461, 49.61239
170.1282, 49.64196
170.6104, 49.63253
171.0925, 49.59015
171.5746, 49.45918
172.0567, 49.14400
172.5388, 48.71504
173.0209, 48.38066
173.5031, 48.19700
173.9852, 48.10059
174.4673, 48.09115
174.9494, 48.14972
175.4315, 48.08289
175.9136, 47.65129
176.3958, 46.87165
176.8779, 46.27785
177.3600, 46.06527
177.8421, 45.97198
178.3242, 45.89422
178.8063, 45.81033
179.2885, 45.68571
179.7706, 45.48047
180.2527, 45.18362
180.7348, 44.84840
181.2169, 44.38999
181.6990, 43.95938
182.1812, 43.63598
182.6633, 43.43230
183.1454, 43.31743
183.6275, 43.26961
184.1096, 43.38389
184.5917, 43.35350
185.0738, 43.03119
185.5560, 42.68774
186.0381, 42.52264
186.5202, 42.58202
187.0023, 42.76469
187.4844, 42.90855
187.9665, 43.10265
188.4487, 43.08526
188.9308, 42.64287
189.4129, 42.10402
189.8950, 41.78708
190.3771, 41.79688
190.8592, 41.98730
191.3414, 42.07623
191.8235, 41.96095
192.3056, 41.93917
192.7877, 42.15851
193.2698, 42.45646
193.7519, 42.59554
194.2341, 42.47508
194.7162, 42.22720
195.1983, 42.11367
195.6804, 42.12869
196.1625, 42.22043
196.6446, 42.48146
197.1268, 42.80939
197.6089, 42.93955
198.0910, 42.71009
198.5731, 42.36004
199.0552, 42.27073
199.5373, 42.46331
200.0195, 42.72544
200.5016, 42.97255
200.9837, 43.20338
201.4658, 43.40490
201.9479, 43.55573
202.4300, 43.69335
202.9122, 43.87006
203.3943, 44.09383
203.8764, 44.29432
204.3585, 44.35553
204.8406, 44.27916
205.3227, 44.36608
205.8048, 44.85930
206.2870, 45.41923
206.7691, 45.80564
207.2512, 45.99107
207.7333, 46.08928
208.2154, 46.18496
208.6975, 46.26227
209.1797, 46.43262
209.6618, 46.76617
210.1439, 47.16724
210.6260, 47.63531
211.1081, 48.15397
211.5902, 48.62781
212.0724, 48.84618
212.5545, 48.58058
213.0366, 48.77079
213.5187, 49.99577
214.0008, 51.28967
214.4829, 52.03156
214.9651, 52.11525
215.4472, 51.90840
215.9293, 51.94505
216.4114, 52.37889
216.8935, 52.74926
217.3756, 53.03154
217.8578, 53.27799
218.3399, 53.50724
218.8220, 53.73049
219.3041, 53.97393
219.7862, 54.27661
220.2683, 54.66326
220.7505, 55.06993
221.2326, 55.49218
221.7147, 55.93587
222.1968, 56.43119
222.6789, 56.97673
223.1610, 57.50964
223.6432, 57.93124
224.1253, 58.15279
224.6074, 58.44078
225.0895, 58.87957
225.5716, 59.33780
226.0537, 59.70145
226.5358, 59.94414
227.0180, 60.09777
227.5001, 60.19102
227.9822, 60.18834
228.4643, 60.24052
228.9464, 60.36192
229.4285, 60.53994
229.9107, 60.76202
230.3928, 61.02498
230.8749, 61.32983
231.3570, 61.67810
231.8391, 62.06757
232.3212, 62.50853
232.8034, 63.11409
233.2855, 63.72885
233.7676, 64.15914
234.2497, 64.36631
234.7318, 64.41246
235.2139, 64.20544
235.6961, 63.78912
236.1782, 63.69946
236.6603, 64.36774
237.1424, 65.35487
237.6245, 65.98409
238.1066, 66.12948
238.5888, 66.06739
239.0709, 65.94128
239.5530, 65.78875
240.0351, 65.76581
240.5172, 66.03032
240.9993, 66.43798
241.4815, 66.73807
241.9636, 66.93803
242.4457, 66.96514
242.9278, 66.56523
243.4099, 65.95152
243.8920, 65.59295
244.3742, 65.89409
244.8563, 66.55334
245.3384, 66.83784
245.8205, 66.57952
246.3026, 66.32063
246.7847, 66.50901
247.2668, 66.88358
247.7490, 67.00117
248.2311, 66.54494
248.7132, 65.76101
249.1953, 65.24052
249.6774, 65.04510
250.1595, 65.01323
250.6417, 65.20483
251.1238, 65.46252
251.6059, 65.56550
252.0880, 65.37462
252.5701, 65.01759
253.0522, 64.82606
253.5344, 64.90427
254.0165, 64.94816
254.4986, 64.89417
254.9807, 64.75388
255.4628, 64.51398
255.9449, 64.15449
256.4271, 63.74784
256.9092, 63.48353
257.3913, 63.50348
257.8734, 63.39220
258.3555, 62.92896
258.8376, 62.38628
259.3198, 62.05379
259.8019, 62.04848
260.2840, 62.18467
260.7661, 62.06983
261.2482, 61.58750
261.7303, 61.05570
262.2125, 60.52955
262.6946, 59.96822
263.1767, 59.31867
263.6588, 58.56619
264.1409, 57.77860
264.6230, 57.09272
265.1052, 56.66924
265.5873, 56.01628
266.0694, 55.03797
266.5515, 53.91709
267.0336, 52.66630
267.5157, 51.34415
267.9979, 50.17574
268.4800, 49.57097
268.9621, 50.03128
269.4442, 49.95476
269.9263, 49.05280
270.4084, 47.94002
270.8906, 46.96494
271.3727, 46.19881
271.8548, 45.54753
272.3369, 44.89923
272.8190, 44.24852
273.3011, 43.63692
273.7833, 42.98423
274.2654, 42.42674
274.7475, 42.10799
275.2296, 41.98948
275.7117, 41.88663
276.1938, 41.61501
276.6760, 41.14631
277.1581, 40.67102
277.6402, 40.07410
278.1223, 39.57372
278.6044, 39.32795
279.0865, 39.28310
279.5686, 39.24727
280.0508, 39.05766
280.5329, 38.70917
281.0150, 38.46944
281.4971, 38.40405
281.9792, 38.35552
282.4613, 38.27808
282.9435, 38.17106
283.4256, 38.04476
283.9077, 37.90546
284.3898, 37.75232
284.8719, 37.58616
285.3540, 37.30924
285.8362, 37.12737
286.3183, 37.22579
286.8004, 37.44425
287.2825, 37.46786
287.7646, 37.11477
288.2467, 36.51598
288.7289, 36.12842
289.2110, 36.18143
289.6931, 36.14674
290.1752, 35.84143
290.6573, 35.42865
291.1394, 35.14440
291.6216, 35.08206
292.1037, 35.15919
292.5858, 35.21112
293.0679, 35.21145
293.5500, 35.23784
294.0321, 35.35282
294.5143, 35.47408
294.9964, 35.50822
295.4785, 35.43024
295.9606, 35.27726
296.4427, 35.08546
296.9248, 34.81363
297.4070, 34.64203
297.8891, 34.66665
298.3712, 34.74041
298.8533, 34.70591
299.3354, 34.54813
299.8175, 34.40851
300.2997, 34.44415
300.7818, 34.69364
301.2639, 34.86696
301.7460, 35.05893
302.2281, 35.10357
302.7102, 34.74821
303.1924, 34.05671
303.6745, 33.47120
304.1566, 33.34264
304.6387, 33.66201
305.1208, 33.94370
305.6029, 34.24039
306.0851, 34.45623
306.5672, 34.50063
307.0493, 34.41489
307.5314, 34.35276
308.0135, 34.43388
308.4956, 34.57639
308.9778, 34.41294
309.4599, 33.59234
309.9420, 32.95405
310.4241, 32.89259
310.9062, 33.19030
311.3883, 33.41682
311.8705, 33.38144
312.3526, 33.23134
312.8347, 33.33657
313.3168, 33.91285
313.7989, 34.20675
314.2810, 33.75851
314.7632, 33.05268
315.2453, 32.78376
315.7274, 33.15504
316.2095, 33.75865
316.6916, 34.04870
317.1737, 33.95324
317.6559, 33.84721
318.1380, 33.72567
318.6201, 33.62579
319.1022, 33.59552
319.5843, 33.63729
320.0664, 33.69928
320.5485, 33.75090
321.0306, 33.78946
321.5128, 33.71867
321.9949, 33.36988
322.4770, 33.05587
322.9591, 33.03936
323.4412, 33.26953
323.9233, 33.45021
324.4055, 33.35863
324.8876, 33.05200
325.3697, 32.95042
325.8518, 33.22078
326.3339, 33.48022
326.8160, 33.56291
327.2982, 33.52995
327.7803, 33.51335
328.2624, 33.57082
328.7445, 33.68994
329.2266, 33.85738
329.7087, 34.21281
330.1909, 34.36720
330.6730, 34.05805
331.1551, 33.57378
331.6372, 33.32198
332.1193, 33.42396
332.6014, 33.64088
333.0836, 33.60674
333.5657, 33.15860
334.0478, 32.96152
334.5299, 33.20243
335.0120, 33.59378
335.4941, 33.97304
335.9763, 34.29117
336.4584, 34.45469
336.9405, 34.33266
337.4226, 33.88637
337.9047, 33.67445
338.3868, 33.81743
338.8690, 34.04872
339.3511, 34.29810
339.8332, 34.52959
340.3153, 34.66233
340.7974, 34.63282
341.2795, 34.47208
341.7617, 34.37848
342.2438, 34.37836
342.7259, 34.40301
343.2080, 34.46534
343.6901, 34.53654
344.1722, 34.55061
344.6544, 34.47723
345.1365, 34.39622
345.6186, 34.48206
346.1007, 35.04146
346.5828, 35.28649
347.0649, 34.92009
347.5471, 34.40675
348.0292, 34.20749
348.5113, 34.38465
348.9934, 34.59779
349.4755, 34.39840
349.9576, 33.58042
350.4398, 33.23030
350.9219, 33.76706
351.4040, 34.31485
351.8861, 34.40026
352.3682, 34.07921
352.8503, 33.63143
353.3325, 33.23656
353.8146, 32.90957
354.2967, 32.90432
354.7788, 33.58294
355.2609, 34.16710
355.7430, 34.53906
356.2252, 34.70567
356.7073, 34.62935
357.1894, 34.28611
357.6715, 33.83873
358.1536, 33.70147
358.6357, 34.11079
359.1179, 34.49326
359.5999, 34.94632
360.0821, 35.29416
360.5642, 35.34024
361.0463, 35.07389
361.5284, 34.69450
362.0105, 34.43913
362.4926, 34.32042
362.9748, 34.28440
363.4569, 34.48663
363.9390, 34.62215
364.4211, 34.47586
364.9032, 34.13781
365.3853, 33.87144
365.8675, 33.89175
366.3496, 34.16217
366.8317, 34.33753
367.3138, 34.44575
367.7959, 34.40348
368.2780, 34.10047
368.7602, 33.67817
369.2423, 33.28619
369.7244, 32.98747
370.2065, 32.79002
370.6886, 32.71555
371.1707, 32.78360
371.6529, 32.93377
372.1350, 33.36307
372.6171, 33.72070
373.0992, 33.72948
373.5813, 33.37384
374.0634, 32.89985
374.5456, 32.51966
375.0277, 32.23252
375.5098, 32.06739
375.9919, 32.09699
376.4740, 32.17940
376.9561, 32.26002
377.4383, 32.33938
377.9204, 32.42625
378.4025, 32.53361
378.8846, 32.64794
379.3667, 32.72026
379.8488, 32.71886
380.3310, 32.75862
380.8131, 32.99507
381.2952, 33.24771
381.7773, 33.30412
382.2594, 33.08390
382.7415, 32.78444
383.2237, 32.59122
383.7058, 32.50352
384.1879, 32.53725
384.6700, 32.83083
385.1521, 33.10616
385.6342, 33.11079
386.1164, 32.85674
386.5985, 32.53951
387.0806, 32.16602
387.5627, 31.81820
388.0448, 31.73100
388.5269, 31.98467
389.0091, 32.29381
389.4912, 32.49885
389.9733, 32.60212
390.4554, 32.58028
390.9375, 32.30424
391.4196, 32.01530
391.9018, 31.96646
392.3839, 32.13194
392.8660, 32.28477
393.3481, 32.34842
393.8302, 32.31741
394.3123, 32.18078
394.7945, 31.91173
395.2766, 31.63789
395.7587, 31.33714
396.2408, 31.08197
396.7229, 31.05208
397.2050, 31.30799
397.6872, 31.59076
398.1693, 31.58306
398.6514, 31.24980
399.1335, 31.06644
399.6156, 31.19050
400.0977, 31.35846
400.5798, 31.35880
401.0620, 31.22069
401.5441, 31.11466
402.0262, 31.14558
402.5083, 31.29264
402.9904, 31.45515
403.4725, 31.75184
403.9547, 31.91700
404.4368, 31.80207
404.9189, 31.56542
405.4010, 31.39551
405.8831, 31.35275
406.3652, 31.39640
406.8474, 31.47847
407.3295, 31.64117
407.8116, 31.71112
408.2937, 31.56873
408.7758, 31.44990
409.2579, 31.53478
409.7401, 31.77241
410.2222, 31.97866
410.7043, 32.02113
411.1864, 31.91077
411.6685, 31.74595
412.1506, 31.41226
412.6328, 31.16825
413.1149, 31.11053
413.5970, 31.13378
414.0791, 31.11069
414.5612, 31.00013
415.0433, 30.87778
415.5255, 30.86419
416.0076, 30.98383
416.4897, 31.12890
416.9718, 31.44332
417.4539, 31.65101
417.9360, 31.54233
418.4182, 31.18757
418.9003, 30.84030
419.3824, 30.65085
419.8645, 30.61791
420.3466, 30.77213
420.8287, 31.24586
421.3109, 31.62673
421.7930, 31.78867
422.2751, 31.75916
422.7572, 31.49487
423.2393, 30.93456
423.7214, 30.37585
424.2036, 30.22552
424.6857, 30.46213
425.1678, 30.48548
425.6499, 30.00468
426.1320, 29.47248
426.6141, 29.41372
427.0963, 29.75245
427.5784, 29.87477
428.0605, 29.29009
428.5426, 28.42703
429.0247, 28.06661
429.5068, 28.28707
429.9890, 27.64517
430.4711, 28.28082
430.9532, 28.53206
431.4353, 28.41954
431.9174, 26.85383
432.3995, 27.16462
432.8817, 26.72334
433.3638, 26.25128
433.8459, 26.82619
434.3280, 25.47183
434.8101, 26.03013
435.2922, 25.82493
435.7744, 26.10254
436.2565, 26.30105
436.7386, 25.97310
437.2207, 25.52994
437.7028, 25.27873
438.1849, 25.19009
438.6671, 25.02890
439.1492, 24.61509
439.6313, 24.02080
440.1134, 23.68186
440.5955, 23.97213
441.0776, 24.05658
441.5598, 23.65568
442.0418, 23.10273
442.5240, 22.74188
443.0061, 22.66174
443.4882, 22.71344
443.9703, 22.69518
444.4524, 22.56041
444.9345, 22.57622
445.4167, 23.01464
445.8988, 23.33529
446.3809, 23.23276
446.8630, 22.87832
447.3451, 22.63263
447.8272, 22.72628
448.3094, 22.99213
448.7915, 22.97784
449.2736, 22.55607
449.7557, 22.21795
450.2378, 22.09048
450.7199, 22.08511
451.2021, 22.17953
451.6842, 22.36106
452.1663, 22.55039
452.6484, 22.72079
453.1305, 22.85489
453.6126, 22.83354
454.0948, 22.56626
454.5769, 22.34467
455.0590, 22.49737
455.5411, 22.73298
456.0232, 22.93494
456.5053, 23.06701
456.9875, 23.13294
457.4696, 22.93465
457.9517, 23.07755
458.4338, 23.08371
458.9159, 23.08427
459.3980, 23.27518
459.8802, 23.48661
460.3623, 23.39869
460.8444, 23.29044
461.3265, 23.22573
461.8086, 23.17363
462.2907, 23.08429
462.7729, 22.96913
463.2550, 22.91056
463.7371, 22.97344
464.2192, 23.13403
464.7013, 23.25766
465.1834, 23.28544
465.6656, 23.35371
466.1477, 23.52123
466.6298, 23.71988
467.1119, 23.87912
467.5940, 23.98199
468.0761, 24.05028
468.5583, 24.11002
469.0404, 24.16406
469.5225, 24.19374
470.0046, 24.14882
470.4867, 24.13189
470.9688, 24.18830
471.4510, 24.29101
471.9331, 24.40153
472.4152, 24.50480
472.8973, 24.58656
473.3794, 24.58207
473.8615, 24.43242
474.3437, 24.45088
474.8258, 24.94390
475.3079, 25.41929
475.7900, 25.54298
476.2721, 25.34451
476.7542, 25.09203
477.2364, 24.96271
477.7185, 24.89140
478.2006, 24.69844
478.6827, 24.35471
479.1648, 24.06931
479.6469, 23.99109
480.1291, 24.02265
480.6112, 23.97006
481.0933, 23.77366
481.5754, 23.63883
482.0575, 23.72648
482.5396, 23.93344
483.0217, 24.05957
483.5038, 24.06263
483.9860, 24.05235
484.4681, 24.17158
484.9502, 24.42283
485.4323, 24.27136
485.9144, 24.41681
486.3965, 24.49237
486.8787, 24.50179
487.3608, 24.24699
487.8429, 24.33338
488.3250, 24.28304
488.8071, 24.22709
489.2892, 24.36150
489.7714, 23.93623
490.2535, 23.71216
490.7356, 23.73740
491.2177, 23.76671
491.6998, 23.68787
492.1819, 23.50877
492.6641, 23.26661
493.1462, 22.96890
493.6283, 22.66043
494.1104, 22.48478
494.5925, 22.49182
495.0746, 22.49744
495.5568, 22.42728
496.0389, 22.36336
496.5210, 22.38251
497.0031, 22.48210
497.4852, 22.56853
497.9673, 22.55167
498.4495, 22.47305
498.9316, 22.49002
499.4137, 22.65566
499.8958, 22.37710
500.3779, 22.47399
500.8600, 22.50098
501.3422, 22.46183
501.8243, 22.15847
502.3064, 22.19630
502.7885, 22.09740
503.2706, 21.98747
503.7527, 21.88283
504.2349, 22.09538
504.7170, 22.32266
505.1991, 22.23945
505.6812, 21.82032
506.1633, 21.61849
506.6454, 21.84460
507.1276, 22.02889
507.6097, 21.96607
508.0918, 21.75930
508.5739, 21.54378
509.0560, 21.37566
509.5381, 21.30130
510.0203, 21.44826
510.5024, 21.98871
510.9845, 22.15887
511.4666, 21.48153
511.9487, 20.90609
512.4308, 20.85850
512.9130, 21.18092
513.3951, 21.53861
513.8772, 21.78184
514.3593, 21.91992
514.8414, 21.95751
515.3235, 21.88592
515.8057, 21.77728
516.2878, 21.61601
516.7699, 21.45277
517.2520, 21.32938
517.7341, 21.24300
518.2162, 21.17027
518.6984, 21.12194
519.1805, 21.06971
519.6626, 20.95300
520.1447, 20.77923
520.6268, 20.65789
521.1089, 20.65170
521.5911, 20.71680
522.0732, 20.77212
522.5553, 20.86531
523.0374, 20.82507
523.5195, 20.42874
524.0016, 20.02262
524.4838, 19.96507
524.9659, 20.22682
525.4480, 20.52510
525.9301, 20.67209
526.4122, 20.49488
526.8943, 20.60737
527.3765, 20.64995
527.8586, 20.62642
528.3407, 20.33866
528.8228, 20.39208
529.3049, 20.30878
529.7870, 20.21987
530.2692, 20.32130
530.7513, 20.07198
531.2334, 20.11695
531.7155, 19.98578
532.1976, 19.84205
532.6797, 19.70747
533.1619, 19.56605
533.6440, 19.45158
534.1261, 19.39905
534.6082, 19.41450
535.0903, 19.48766
535.5724, 19.63941
536.0546, 19.83850
536.5367, 20.03060
537.0188, 20.21144
537.5009, 20.35420
537.9830, 20.43871
538.4651, 20.46590
538.9473, 20.45291
539.4294, 20.29120
539.9115, 20.22845
540.3936, 20.35097
540.8757, 20.60177
541.3578, 20.97868
541.8400, 21.44872
542.3221, 21.83325
542.8042, 21.91844
543.2863, 21.69656
543.7684, 21.65624
544.2505, 21.95123
544.7326, 22.25285
545.2147, 22.50527
545.6968, 22.73003
546.1790, 22.96528
546.6611, 23.21734
547.1432, 23.43328
547.6253, 23.50120
548.1074, 23.44530
548.5895, 23.55472
549.0717, 23.89021
549.5538, 24.28347
550.0359, 24.71498
550.5180, 25.11904
551.0001, 25.35444
551.4822, 25.28880
551.9644, 25.31923
552.4465, 25.83218
552.9286, 26.59249
553.4107, 27.15506
553.8928, 27.43534
554.3749, 27.42353
554.8571, 27.00019
555.3392, 26.19039
555.8213, 25.94618
556.3034, 26.70613
556.7855, 27.40693
557.2676, 27.77269
557.7498, 27.93523
558.2319, 28.02558
558.7140, 28.09032
559.1961, 28.15259
559.6782, 28.25550
560.1603, 28.40068
560.6425, 28.41150
561.1246, 28.17673
561.6067, 27.96826
562.0888, 27.93944
562.5709, 27.94501
563.0530, 27.79325
563.5352, 27.43377
564.0173, 27.06243
564.4994, 26.88195
564.9815, 26.82549
565.4636, 26.67105
565.9457, 26.38864
566.4279, 26.04386
566.9100, 25.61901
567.3921, 25.17807
567.8742, 24.93695
568.3563, 25.08892
568.8384, 25.11813
569.3206, 24.74435
569.8027, 24.20579
570.2848, 23.78885
570.7669, 23.53544
571.2490, 23.31158
571.7311, 22.99641
572.2133, 22.60633
572.6954, 22.33732
573.1775, 22.29089
573.6596, 22.23001
574.1417, 22.13539
574.6238, 22.00703
575.1060, 21.80478
575.5881, 21.54785
576.0702, 21.35979
576.5523, 21.38553
577.0344, 21.55857
577.5165, 21.62593
577.9987, 21.56765
578.4808, 21.49114
578.9629, 21.44110
579.4450, 21.39683
579.9271, 21.32330
580.4092, 21.21302
580.8914, 21.12335
581.3735, 21.10465
581.8556, 21.09953
582.3377, 21.05034
582.8198, 20.95334
583.3019, 20.78684
583.7841, 20.50689
584.2662, 20.12240
584.7483, 20.31242
585.2304, 20.41641
