##NAMES=Atacamite
##RRUFFID=R050098
##IDEAL CHEMISTRY=Cu^2+^_2_Cl(OH)_3_
##LOCALITY=La Farola mine, Tierra Amarilla, Atacama, Chile
##OWNER=RRUFF
##SOURCE=Rock Currier
##DESCRIPTION=Green prismatic single crystals
##STATUS=The identification of this mineral has been confirmed by X-ray diffraction and chemical analysis
##URL=rruff.info/R050098
##MEASURED CHEMISTRY=Cu_2.00_Cl_1.00_(OH)_3_
124.9582, 1111.373
125.4403, 1149.106
125.9224, 1173.850
126.4045, 1187.441
126.8866, 1207.349
127.3687, 1251.559
127.8509, 1314.286
128.3330, 1374.251
128.8151, 1424.944
129.2972, 1470.274
129.7793, 1522.611
130.2614, 1582.956
130.7436, 1641.312
131.2257, 1684.375
131.7078, 1712.572
132.1899, 1744.317
132.6720, 1786.063
133.1541, 1837.473
133.6362, 1893.028
134.1184, 1951.415
134.6005, 2015.470
135.0826, 2095.330
135.5647, 2196.816
136.0468, 2285.252
136.5289, 2345.168
137.0111, 2375.050
137.4932, 2380.887
137.9753, 2358.662
138.4574, 2313.647
138.9395, 2259.409
139.4216, 2186.382
139.9038, 2121.983
140.3859, 2083.744
140.8680, 2073.938
141.3501, 2086.559
141.8322, 2125.609
142.3143, 2191.245
142.7965, 2254.774
143.2786, 2305.272
143.7607, 2362.549
144.2428, 2438.896
144.7249, 2563.745
145.2070, 2678.818
145.6892, 2772.101
146.1713, 2843.955
146.6534, 2896.117
147.1355, 2937.915
147.6176, 2958.427
148.0997, 2939.600
148.5819, 2872.805
149.0640, 2776.495
149.5461, 2654.030
150.0282, 2489.537
150.5103, 2326.696
150.9924, 2157.538
151.4746, 1991.079
151.9567, 1854.991
152.4388, 1764.624
152.9209, 1693.856
153.4030, 1629.432
153.8851, 1563.843
154.3672, 1510.046
154.8494, 1472.661
155.3315, 1450.683
155.8136, 1434.382
156.2957, 1427.222
156.7778, 1421.927
157.2599, 1412.674
157.7421, 1393.708
158.2242, 1374.461
158.7063, 1356.374
159.1884, 1339.365
159.6705, 1328.799
160.1526, 1333.758
160.6348, 1344.495
161.1169, 1348.831
161.5990, 1337.981
162.0811, 1322.654
162.5632, 1307.760
163.0453, 1292.993
163.5275, 1281.852
164.0096, 1278.862
164.4917, 1280.751
164.9738, 1280.912
165.4559, 1276.696
165.9380, 1269.183
166.4202, 1257.989
166.9023, 1239.215
167.3844, 1224.012
167.8665, 1223.960
168.3486, 1235.465
168.8307, 1245.057
169.3129, 1243.473
169.7950, 1235.668
170.2771, 1227.543
170.7592, 1219.180
171.2413, 1212.606
171.7234, 1209.138
172.2056, 1208.769
172.6877, 1211.857
173.1698, 1224.926
173.6519, 1241.284
174.1340, 1248.514
174.6161, 1237.796
175.0983, 1217.213
175.5804, 1194.417
176.0625, 1168.719
176.5446, 1149.264
177.0267, 1150.205
177.5088, 1165.517
177.9910, 1177.039
178.4731, 1171.069
178.9552, 1156.460
179.4373, 1152.264
179.9194, 1161.075
180.4015, 1173.480
180.8837, 1178.171
181.3658, 1175.963
181.8479, 1172.124
182.3300, 1169.803
182.8121, 1168.185
183.2942, 1163.410
183.7764, 1152.591
184.2585, 1142.856
184.7406, 1149.697
185.2227, 1172.540
185.7048, 1193.557
186.1869, 1198.457
186.6691, 1189.749
187.1512, 1182.388
187.6333, 1179.175
188.1154, 1178.772
188.5975, 1178.661
189.0796, 1179.021
189.5618, 1178.236
190.0439, 1173.535
190.5260, 1165.306
191.0081, 1159.834
191.4902, 1159.045
191.9723, 1162.129
192.4545, 1166.432
192.9366, 1172.362
193.4187, 1177.771
193.9008, 1179.251
194.3829, 1176.479
194.8650, 1176.112
195.3472, 1182.042
195.8293, 1193.259
196.3114, 1197.709
196.7935, 1193.644
197.2756, 1186.842
197.7577, 1185.942
198.2398, 1191.930
198.7220, 1196.749
199.2041, 1196.830
199.6862, 1191.900
200.1683, 1186.993
200.6504, 1181.529
201.1325, 1176.924
201.6147, 1176.391
202.0968, 1180.807
202.5789, 1185.942
203.0610, 1189.671
203.5431, 1191.655
204.0252, 1194.993
204.5074, 1200.717
204.9895, 1207.137
205.4716, 1208.984
205.9537, 1204.178
206.4358, 1200.554
206.9179, 1203.042
207.4001, 1212.993
207.8822, 1223.511
208.3643, 1235.278
208.8464, 1246.820
209.3285, 1251.544
209.8106, 1246.162
210.2928, 1240.626
210.7749, 1243.405
211.2570, 1258.674
211.7391, 1267.774
212.2212, 1265.620
212.7033, 1254.317
213.1855, 1251.031
213.6676, 1258.534
214.1497, 1269.597
214.6318, 1279.272
215.1139, 1289.430
215.5960, 1292.718
216.0782, 1285.053
216.5603, 1266.979
217.0424, 1255.543
217.5245, 1251.734
218.0066, 1253.388
218.4887, 1259.864
218.9709, 1275.901
219.4530, 1285.819
219.9351, 1284.089
220.4172, 1269.490
220.8993, 1258.912
221.3814, 1254.417
221.8635, 1252.092
222.3457, 1246.386
222.8278, 1233.808
223.3099, 1224.425
223.7920, 1221.789
224.2741, 1227.721
224.7562, 1231.052
225.2384, 1229.460
225.7205, 1226.924
226.2026, 1230.708
226.6847, 1246.342
227.1668, 1258.717
227.6489, 1261.518
228.1311, 1249.874
228.6132, 1245.194
229.0953, 1251.584
229.5774, 1263.003
230.0595, 1266.965
230.5416, 1258.869
231.0238, 1250.599
231.5059, 1247.383
231.9880, 1253.178
232.4701, 1254.199
232.9522, 1247.442
233.4343, 1236.789
233.9165, 1232.871
234.3986, 1241.776
234.8807, 1248.838
235.3628, 1246.358
235.8449, 1226.852
236.3270, 1213.822
236.8092, 1208.155
237.2913, 1209.237
237.7734, 1215.877
238.2555, 1232.603
238.7376, 1248.761
239.2197, 1258.966
239.7019, 1262.508
240.1840, 1260.895
240.6661, 1250.902
241.1482, 1235.357
241.6303, 1228.438
242.1124, 1236.994
242.5946, 1245.274
243.0767, 1242.774
243.5588, 1222.135
244.0409, 1205.786
244.5230, 1194.794
245.0051, 1189.473
245.4872, 1192.235
245.9694, 1207.849
246.4515, 1225.653
246.9336, 1239.157
247.4157, 1250.238
247.8978, 1252.242
248.3799, 1239.885
248.8621, 1215.564
249.3442, 1203.051
249.8263, 1209.395
250.3084, 1218.865
250.7905, 1217.797
251.2726, 1197.518
251.7548, 1186.072
252.2369, 1190.662
252.7190, 1210.192
253.2011, 1223.311
253.6832, 1227.646
254.1653, 1228.706
254.6475, 1231.460
255.1296, 1237.336
255.6117, 1241.593
256.0938, 1243.425
256.5759, 1242.819
257.0580, 1240.197
257.5402, 1233.501
258.0223, 1227.433
258.5044, 1227.378
258.9865, 1236.875
259.4686, 1243.235
259.9507, 1242.678
260.4329, 1235.274
260.9150, 1231.471
261.3971, 1232.277
261.8792, 1235.336
262.3613, 1238.537
262.8434, 1242.285
263.3256, 1245.312
263.8077, 1248.503
264.2898, 1251.877
264.7719, 1247.562
265.2540, 1232.527
265.7361, 1214.817
266.2183, 1203.837
266.7004, 1201.870
267.1825, 1198.876
267.6646, 1191.612
268.1467, 1180.166
268.6288, 1172.097
269.1110, 1169.464
269.5931, 1166.512
270.0752, 1154.425
270.5573, 1129.888
271.0394, 1110.768
271.5215, 1104.874
272.0037, 1111.534
272.4858, 1107.141
272.9679, 1086.814
273.4500, 1065.048
273.9321, 1062.116
274.4142, 1081.301
274.8964, 1096.750
275.3785, 1099.907
275.8606, 1091.323
276.3427, 1079.798
276.8248, 1064.125
277.3069, 1048.435
277.7890, 1038.256
278.2711, 1034.034
278.7533, 1029.840
279.2354, 1022.964
279.7175, 1014.005
280.1996, 1009.218
280.6817, 1009.578
281.1638, 1011.144
281.6460, 1008.822
282.1281, 1002.607
282.6102, 996.0310
283.0923, 989.5384
283.5744, 983.5298
284.0565, 981.2512
284.5387, 983.5046
285.0208, 986.2224
285.5029, 982.7714
285.9850, 973.7858
286.4671, 968.2134
286.9492, 971.6774
287.4314, 981.4298
287.9135, 986.3173
288.3956, 985.7948
288.8777, 983.2229
289.3598, 983.5172
289.8419, 985.8203
290.3241, 984.4992
290.8062, 973.4756
291.2883, 957.6600
291.7704, 951.5415
292.2525, 955.9412
292.7346, 963.2342
293.2168, 965.4681
293.6989, 963.6818
294.1810, 962.0806
294.6631, 962.2245
295.1452, 963.6378
295.6273, 966.1955
296.1095, 970.0729
296.5916, 972.5901
297.0737, 970.2675
297.5558, 964.3926
298.0379, 958.3500
298.5201, 952.9465
299.0022, 948.3508
299.4843, 944.3251
299.9664, 940.8383
300.4485, 939.1835
300.9306, 941.0089
301.4128, 945.4028
301.8949, 950.6672
302.3770, 958.5791
302.8591, 965.5895
303.3412, 966.2374
303.8233, 960.6688
304.3055, 956.3950
304.7876, 961.4080
305.2697, 970.9250
305.7518, 977.7986
306.2339, 979.0185
306.7160, 976.8085
307.1982, 972.2597
307.6803, 965.4972
308.1624, 957.7587
308.6445, 949.2551
309.1266, 940.4890
309.6087, 932.0494
310.0909, 919.6702
310.5730, 911.3918
311.0551, 915.0959
311.5372, 929.4723
312.0193, 941.1879
312.5014, 940.2000
312.9836, 934.8292
313.4657, 932.9626
313.9478, 941.9648
314.4299, 950.1357
314.9120, 951.2687
315.3941, 946.3876
315.8763, 943.2585
316.3584, 948.0046
316.8405, 953.8325
317.3226, 955.5610
317.8047, 948.4238
318.2868, 940.8176
318.7690, 931.1796
319.2511, 921.1852
319.7332, 920.5876
320.2153, 942.4986
320.6974, 967.6180
321.1795, 984.4501
321.6616, 985.7027
322.1437, 984.5409
322.6259, 981.8350
323.1080, 977.7722
323.5901, 973.1986
324.0722, 967.1415
324.5543, 961.3441
325.0364, 956.6189
325.5186, 952.2476
326.0007, 949.9399
326.4828, 949.4401
326.9649, 950.9678
327.4470, 955.4910
327.9291, 967.3986
328.4113, 977.9611
328.8934, 983.1221
329.3755, 977.6012
329.8576, 976.4235
330.3397, 982.7056
330.8218, 992.6902
331.3040, 995.8584
331.7861, 986.5316
332.2682, 979.4467
332.7503, 982.2291
333.2324, 1000.516
333.7145, 1010.190
334.1967, 1007.529
334.6788, 999.1656
335.1609, 998.2943
335.6430, 1007.364
336.1251, 1016.871
336.6072, 1022.650
337.0894, 1024.033
337.5715, 1027.415
338.0536, 1033.004
338.5357, 1040.132
339.0178, 1047.869
339.4999, 1056.353
339.9821, 1064.909
340.4642, 1073.691
340.9463, 1082.514
341.4284, 1090.670
341.9105, 1098.401
342.3926, 1104.089
342.8748, 1103.410
343.3569, 1096.956
343.8390, 1093.804
344.3211, 1096.362
344.8032, 1104.701
345.2853, 1122.216
345.7675, 1149.494
346.2496, 1175.293
346.7317, 1186.144
347.2138, 1185.478
347.6959, 1185.064
348.1780, 1190.017
348.6602, 1196.507
349.1423, 1197.166
349.6244, 1192.300
350.1065, 1188.253
350.5886, 1190.565
351.0707, 1197.065
351.5529, 1204.434
352.0350, 1214.937
352.5171, 1222.200
352.9992, 1215.910
353.4813, 1198.968
353.9634, 1185.326
354.4456, 1186.919
354.9277, 1195.076
355.4098, 1200.154
355.8919, 1196.750
356.3740, 1195.123
356.8561, 1206.096
357.3383, 1224.852
357.8204, 1236.458
358.3025, 1232.572
358.7846, 1220.564
359.2667, 1203.665
359.7488, 1177.755
360.2310, 1157.600
360.7131, 1151.206
361.1952, 1153.884
361.6773, 1156.372
362.1594, 1157.800
362.6415, 1157.252
363.1237, 1154.653
363.6058, 1150.608
364.0879, 1142.573
364.5700, 1125.208
365.0521, 1104.771
365.5342, 1090.339
366.0164, 1085.820
366.4984, 1083.913
366.9806, 1083.875
367.4627, 1086.561
367.9448, 1086.702
368.4269, 1083.992
368.9090, 1078.954
369.3911, 1071.453
369.8733, 1057.854
370.3554, 1048.661
370.8375, 1047.414
371.3196, 1053.757
371.8017, 1055.814
372.2838, 1050.361
372.7660, 1045.618
373.2481, 1051.003
373.7302, 1071.275
374.2123, 1080.917
374.6944, 1072.527
375.1765, 1051.620
375.6587, 1041.443
376.1408, 1043.647
376.6229, 1048.833
377.1050, 1050.405
377.5871, 1048.486
378.0692, 1047.683
378.5514, 1048.288
379.0335, 1050.641
379.5156, 1056.520
379.9977, 1065.783
380.4798, 1074.062
380.9619, 1078.593
381.4441, 1080.145
381.9262, 1080.502
382.4083, 1079.309
382.8904, 1078.944
383.3725, 1083.672
383.8546, 1091.894
384.3368, 1098.427
384.8189, 1096.460
385.3010, 1093.339
385.7831, 1100.941
386.2652, 1120.628
386.7473, 1138.220
387.2295, 1142.220
387.7116, 1137.313
388.1937, 1130.438
388.6758, 1120.819
389.1579, 1112.921
389.6400, 1110.143
390.1222, 1112.262
390.6043, 1115.564
391.0864, 1120.044
391.5685, 1124.093
392.0506, 1126.394
392.5327, 1126.195
393.0149, 1124.578
393.4970, 1119.747
393.9791, 1113.011
394.4612, 1110.312
394.9433, 1118.465
395.4254, 1126.753
395.9076, 1129.603
396.3897, 1120.738
396.8718, 1115.259
397.3539, 1116.994
397.8360, 1122.037
398.3181, 1121.634
398.8003, 1108.826
399.2824, 1099.392
399.7645, 1100.085
400.2466, 1115.122
400.7287, 1122.468
401.2108, 1117.492
401.6930, 1109.229
402.1751, 1110.656
402.6572, 1124.812
403.1393, 1138.863
403.6214, 1149.422
404.1035, 1156.619
404.5857, 1163.595
405.0678, 1170.923
405.5499, 1176.166
406.0320, 1176.367
406.5141, 1171.701
406.9962, 1165.336
407.4784, 1156.689
407.9605, 1147.859
408.4426, 1143.823
408.9247, 1144.491
409.4068, 1148.227
409.8889, 1158.230
410.3711, 1170.179
410.8532, 1173.198
411.3353, 1163.903
411.8174, 1149.501
412.2995, 1136.466
412.7816, 1124.713
413.2637, 1113.574
413.7458, 1103.858
414.2280, 1094.081
414.7101, 1081.751
415.1922, 1066.124
415.6743, 1052.384
416.1564, 1047.469
416.6385, 1045.595
417.1207, 1038.838
417.6028, 1019.789
418.0849, 999.4103
418.5670, 979.7639
419.0491, 961.2452
419.5313, 950.3350
420.0134, 958.5893
420.4955, 969.7650
420.9776, 971.7192
421.4597, 950.7004
421.9418, 934.3076
422.4240, 924.6188
422.9061, 921.6135
423.3882, 926.5215
423.8703, 951.1269
424.3524, 970.9778
424.8345, 974.1746
425.3167, 950.3380
425.7988, 934.2226
426.2809, 927.3088
426.7630, 926.7203
427.2451, 928.0482
427.7272, 932.4142
428.2094, 934.8333
428.6915, 932.2042
429.1736, 924.7661
429.6557, 922.2788
430.1378, 925.7540
430.6199, 930.3989
431.1021, 929.2988
431.5842, 923.2078
432.0663, 921.9868
432.5484, 930.8779
433.0305, 944.3655
433.5126, 949.6555
433.9948, 947.2107
434.4769, 944.9139
434.9590, 947.8181
435.4411, 955.0114
435.9232, 966.4911
436.4053, 985.3783
436.8875, 1000.903
437.3696, 997.7023
437.8517, 982.8596
438.3338, 973.7142
438.8159, 987.5034
439.2980, 1004.180
439.7802, 1006.504
440.2623, 989.9436
440.7444, 979.3435
441.2265, 990.5618
441.7086, 1011.543
442.1907, 1028.350
442.6729, 1033.633
443.1550, 1038.720
443.6371, 1047.421
444.1192, 1059.683
444.6013, 1068.887
445.0834, 1070.764
445.5656, 1072.416
446.0477, 1078.190
446.5298, 1093.584
447.0119, 1103.335
447.4940, 1106.373
447.9761, 1103.553
448.4583, 1095.954
448.9404, 1080.472
449.4225, 1067.501
449.9046, 1063.060
450.3867, 1067.973
450.8688, 1067.709
451.3510, 1061.561
451.8331, 1052.012
452.3152, 1042.057
452.7973, 1031.578
453.2794, 1019.957
453.7615, 1006.552
454.2437, 992.0518
454.7258, 977.3635
455.2079, 962.4714
455.6900, 950.5319
456.1721, 944.1922
456.6542, 942.3535
457.1363, 943.2739
457.6184, 947.2961
458.1006, 952.4179
458.5827, 959.4246
459.0648, 966.4153
459.5469, 968.7780
460.0290, 958.8569
460.5111, 947.4186
460.9933, 941.8013
461.4754, 943.7217
461.9575, 946.0532
462.4396, 946.0434
462.9217, 945.3615
463.4038, 945.8137
463.8860, 954.6265
464.3681, 957.2318
464.8502, 945.1528
465.3323, 920.2967
465.8144, 907.3799
466.2965, 913.0474
466.7787, 924.0884
467.2608, 934.3240
467.7429, 946.1725
468.2250, 950.3911
468.7071, 943.3600
469.1892, 931.0475
469.6714, 924.9059
470.1535, 925.4468
470.6356, 929.7982
471.1177, 939.2792
471.5998, 952.6948
472.0819, 958.0630
472.5641, 954.3165
473.0462, 949.1604
473.5283, 951.0972
474.0104, 958.5411
474.4925, 965.2779
474.9746, 969.0314
475.4568, 972.0012
475.9389, 977.7009
476.4210, 985.5540
476.9031, 992.5112
477.3852, 994.7844
477.8673, 996.3030
478.3495, 1001.732
478.8316, 1013.212
479.3137, 1023.176
479.7958, 1024.318
480.2779, 1022.129
480.7600, 1024.801
481.2422, 1037.961
481.7243, 1053.229
482.2064, 1069.044
482.6885, 1085.459
483.1706, 1098.995
483.6527, 1104.711
484.1349, 1110.869
484.6170, 1122.942
485.0991, 1145.725
485.5812, 1165.022
486.0633, 1179.150
486.5454, 1189.796
487.0276, 1201.015
487.5097, 1212.274
487.9918, 1225.958
488.4739, 1244.237
488.9560, 1266.915
489.4381, 1286.628
489.9203, 1302.413
490.4024, 1319.721
490.8845, 1346.026
491.3666, 1379.925
491.8487, 1412.736
492.3308, 1442.674
492.8130, 1469.877
493.2951, 1494.617
493.7772, 1517.120
494.2593, 1540.101
494.7414, 1560.976
495.2235, 1585.094
495.7057, 1619.868
496.1878, 1670.238
496.6699, 1718.456
497.1520, 1758.735
497.6341, 1790.624
498.1162, 1812.778
498.5984, 1807.295
499.0805, 1809.418
499.5626, 1836.611
500.0447, 1889.378
500.5268, 1929.783
501.0089, 1943.976
501.4910, 1953.234
501.9731, 1969.456
502.4553, 1996.978
502.9374, 2022.980
503.4195, 2048.509
503.9016, 2071.412
504.3837, 2084.100
504.8658, 2082.748
505.3480, 2086.655
505.8301, 2105.837
506.3122, 2137.911
506.7943, 2162.174
507.2764, 2177.989
507.7585, 2190.305
508.2407, 2206.710
508.7228, 2224.044
509.2049, 2230.313
509.6870, 2218.947
510.1691, 2202.663
510.6512, 2198.084
511.1334, 2201.481
511.6155, 2200.123
512.0976, 2187.084
512.5797, 2166.538
513.0618, 2141.229
513.5439, 2111.365
514.0261, 2077.192
514.5082, 2038.435
514.9903, 1995.837
515.4724, 1950.272
515.9545, 1899.064
516.4366, 1847.926
516.9188, 1796.202
517.4009, 1744.558
517.8830, 1696.512
518.3651, 1652.432
518.8472, 1611.361
519.3293, 1572.389
519.8115, 1535.167
520.2936, 1502.467
520.7757, 1476.337
521.2578, 1451.668
521.7399, 1421.369
522.2220, 1385.432
522.7042, 1347.727
523.1863, 1305.803
523.6684, 1265.918
524.1505, 1247.741
524.6326, 1249.644
525.1147, 1249.388
525.5969, 1227.845
526.0790, 1195.929
526.5611, 1168.565
527.0432, 1147.812
527.5253, 1131.365
528.0074, 1119.656
528.4896, 1110.585
528.9717, 1100.527
529.4538, 1088.721
529.9359, 1075.346
530.4180, 1059.415
530.9001, 1041.351
531.3823, 1024.755
531.8644, 1006.249
532.3465, 992.7679
532.8286, 988.9210
533.3107, 1004.330
533.7928, 1008.144
534.2750, 994.9333
534.7571, 974.5989
535.2392, 963.9533
535.7213, 965.5236
536.2034, 965.0164
536.6855, 957.2072
537.1677, 944.1564
537.6498, 934.4061
538.1319, 927.9821
538.6140, 924.1104
539.0961, 924.1864
539.5782, 926.2117
540.0604, 924.4056
540.5425, 916.7185
541.0246, 909.4462
541.5067, 911.0363
541.9888, 917.1650
542.4709, 919.5562
542.9531, 910.8831
543.4352, 900.7854
543.9173, 894.6503
544.3994, 892.3322
544.8815, 890.3534
545.3636, 887.6743
545.8458, 885.1172
546.3279, 883.3200
546.8100, 884.0380
547.2921, 882.4474
547.7742, 876.4982
548.2563, 869.4269
548.7385, 866.7729
549.2206, 870.6628
549.7027, 872.8108
550.1848, 870.8152
550.6669, 865.2371
551.1490, 858.1779
551.6312, 849.1684
552.1133, 842.4245
552.5954, 843.4194
553.0775, 849.4084
553.5596, 850.5971
554.0417, 844.6050
554.5239, 838.2074
555.0060, 838.5967
555.4881, 843.7886
555.9702, 849.6515
556.4523, 855.2081
556.9344, 860.3117
557.4166, 866.1846
557.8987, 872.2278
558.3808, 873.9940
558.8629, 865.3189
559.3450, 855.2996
559.8271, 849.0839
560.3093, 847.2739
560.7914, 849.1500
561.2735, 858.4319
561.7556, 869.0397
562.2377, 872.6135
562.7198, 867.0705
563.2020, 859.6132
563.6841, 849.5290
564.1662, 839.3035
564.6483, 841.0748
565.1304, 855.9968
565.6125, 871.0127
566.0947, 876.9694
566.5768, 876.2389
567.0589, 876.1503
567.5410, 877.3500
568.0231, 878.5383
568.5052, 878.0479
568.9873, 876.7684
569.4694, 876.2094
569.9515, 878.2124
570.4337, 879.7471
570.9158, 875.8198
571.3979, 869.2748
571.8800, 870.2927
572.3621, 891.8262
572.8442, 913.0338
573.3264, 924.9384
573.8085, 925.1926
574.2906, 922.6767
574.7727, 915.3182
575.2548, 907.1291
575.7369, 901.1427
576.2191, 896.5135
576.7012, 898.4462
577.1833, 910.6795
577.6654, 926.8423
578.1475, 928.8074
578.6296, 916.8698
579.1118, 907.4935
579.5939, 913.3549
580.0760, 926.7144
580.5581, 929.8994
581.0402, 922.7153
581.5223, 916.0515
582.0045, 919.8146
582.4866, 928.0665
582.9687, 933.5423
583.4508, 931.9681
583.9329, 932.0447
584.4150, 941.3250
584.8972, 954.1274
585.3793, 959.9766
585.8614, 948.6727
586.3435, 938.9404
586.8256, 935.9474
587.3077, 939.4268
587.7899, 941.1636
588.2720, 940.0464
588.7541, 939.1835
589.2362, 941.3973
589.7183, 947.1552
590.2004, 949.1946
590.6826, 946.2941
591.1647, 942.1352
591.6468, 942.0997
592.1289, 945.2722
592.6110, 947.5860
593.0931, 947.2637
593.5753, 945.7359
594.0574, 945.5023
594.5395, 945.8080
595.0216, 943.5256
595.5037, 932.9901
595.9858, 922.2188
596.4680, 917.5209
596.9501, 921.0573
597.4322, 922.4077
597.9143, 916.8320
598.3964, 909.3857
598.8785, 904.8155
599.3607, 905.7769
599.8428, 904.9429
600.3249, 901.1119
600.8070, 895.5403
601.2891, 891.4330
601.7712, 889.2749
602.2534, 886.0718
602.7355, 879.7969
603.2176, 871.5955
603.6997, 866.1008
604.1818, 863.3616
604.6639, 860.0633
605.1461, 852.9949
605.6282, 843.8015
606.1103, 834.4243
606.5924, 824.1778
607.0745, 817.3126
607.5566, 820.0767
608.0388, 826.9156
608.5209, 829.8863
609.0030, 823.9676
609.4851, 816.7324
609.9672, 809.5543
610.4493, 802.6630
610.9315, 796.6574
611.4136, 792.5491
611.8957, 787.9087
612.3778, 780.5545
612.8599, 769.7410
613.3420, 765.9246
613.8242, 770.7723
614.3063, 777.2513
614.7884, 777.4126
615.2705, 772.4352
615.7526, 768.4802
616.2347, 766.6687
616.7169, 766.4824
617.1990, 769.1123
617.6811, 773.0015
618.1632, 774.0895
618.6453, 766.9689
619.1274, 759.4725
619.6096, 756.9752
620.0917, 759.2079
620.5738, 760.6016
621.0559, 758.7525
621.5380, 756.3871
622.0201, 754.8961
