##NAMES=Atelestite
##RRUFFID=R080139
##IDEAL CHEMISTRY=Bi^3+^_2_O(As^5+^O_4_)(OH)
##LOCALITY=Daniel mine, Schneeberg, Saxony, Germany
##OWNER=RRUFF
##SOURCE=William W. Pinch
##DESCRIPTION=Small sharp tan to cream colored crystals, associated with dark brown eulytine
##STATUS=The identification of this mineral has been confirmed by single-crystal X-ray diffraction.
##URL=rruff.info/R080139
91.00781, 532.6752
91.48993, 514.4432
91.97205, 507.1693
92.45416, 513.3781
92.93628, 530.3553
93.41840, 552.1931
93.90051, 577.5880
94.38263, 607.8925
94.86475, 645.2772
95.34686, 689.7449
95.82898, 741.6910
96.31110, 800.5758
96.79321, 866.6691
97.27533, 939.1400
97.75745, 1007.920
98.23956, 1083.033
98.72168, 1213.438
99.20380, 1407.913
99.68591, 1625.957
100.1680, 1817.297
100.6501, 1969.158
101.1323, 2148.821
101.6144, 2376.521
102.0965, 2654.732
102.5786, 2951.813
103.0607, 3276.467
103.5428, 3614.542
104.0250, 3951.076
104.5071, 4283.824
104.9892, 4614.017
105.4713, 4942.600
105.9534, 5283.892
106.4355, 5591.067
106.9177, 5863.693
107.3998, 6102.319
107.8819, 6316.708
108.3640, 6474.636
108.8461, 6631.681
109.3282, 6815.999
109.8104, 7001.739
110.2925, 7239.407
110.7746, 7536.397
111.2567, 7888.454
111.7388, 8276.324
112.2209, 8694.979
112.7031, 9146.172
113.1852, 9636.279
113.6673, 10184.87
114.1494, 10750.72
114.6315, 11335.94
115.1136, 11946.54
115.5958, 12537.62
116.0779, 13110.03
116.5600, 13651.68
117.0421, 14146.89
117.5242, 14624.18
118.0063, 15033.95
118.4885, 15361.90
118.9706, 15609.57
119.4527, 15758.05
119.9348, 15773.93
120.4169, 15684.16
120.8990, 15537.18
121.3812, 15318.32
121.8633, 15070.96
122.3454, 14832.09
122.8275, 14597.19
123.3096, 14392.88
123.7917, 14233.25
124.2739, 14120.82
124.7560, 14064.92
125.2381, 14085.89
125.7202, 14165.56
126.2023, 14273.15
126.6844, 14404.54
127.1666, 14558.48
127.6487, 14742.64
128.1308, 14956.17
128.6129, 15170.41
129.0950, 15380.63
129.5771, 15578.52
130.0593, 15734.36
130.5414, 15834.89
131.0235, 15888.37
131.5056, 15890.84
131.9877, 15783.56
132.4698, 15590.27
132.9520, 15412.56
133.4341, 15250.15
133.9162, 15099.02
134.3983, 14954.02
134.8804, 14818.18
135.3625, 14713.54
135.8447, 14641.63
136.3268, 14594.89
136.8089, 14566.12
137.2910, 14557.53
137.7731, 14552.67
138.2552, 14550.28
138.7374, 14553.55
139.2195, 14530.86
139.7016, 14475.24
140.1837, 14399.92
140.6658, 14331.24
141.1479, 14266.04
141.6301, 14211.24
142.1122, 14167.96
142.5943, 14132.32
143.0764, 14115.60
143.5585, 14114.36
144.0406, 14131.23
144.5228, 14178.88
145.0049, 14267.67
145.4870, 14373.03
145.9691, 14480.31
146.4512, 14586.35
146.9333, 14702.55
147.4155, 14836.00
147.8976, 14985.15
148.3797, 15121.43
148.8618, 15233.28
149.3439, 15342.34
149.8260, 15462.14
150.3082, 15572.08
150.7903, 15716.47
151.2724, 15898.49
151.7545, 16117.08
152.2366, 16376.49
152.7188, 16677.88
153.2009, 17018.79
153.6830, 17394.05
154.1651, 17796.77
154.6472, 18240.37
155.1293, 18731.91
155.6115, 19279.31
156.0936, 19822.46
156.5757, 20344.78
157.0578, 20861.64
157.5399, 21382.73
158.0220, 21916.04
158.5042, 22452.59
158.9863, 22980.45
159.4684, 23495.40
159.9505, 24027.14
160.4326, 24572.42
160.9147, 25139.09
161.3969, 25738.61
161.8790, 26348.19
162.3611, 27011.02
162.8432, 27749.18
163.3253, 28554.54
163.8074, 29445.00
164.2896, 30421.63
164.7717, 31487.16
165.2538, 32647.58
165.7359, 33886.02
166.2180, 35229.72
166.7001, 36715.57
167.1823, 38362.90
167.6644, 40083.16
168.1465, 41866.26
168.6286, 43684.05
169.1107, 45458.05
169.5928, 47248.60
170.0750, 48926.76
170.5571, 50414.34
171.0392, 51756.29
171.5213, 52772.02
172.0034, 53364.73
172.4855, 53521.53
172.9677, 53176.08
173.4498, 52162.49
173.9319, 50656.47
174.4140, 48878.01
174.8961, 46737.64
175.3782, 44515.16
175.8604, 42397.90
176.3425, 40383.84
176.8246, 38547.52
177.3067, 36925.02
177.7888, 35495.09
178.2709, 34242.56
178.7531, 33165.04
179.2352, 32241.04
179.7173, 31439.01
180.1994, 30754.22
180.6815, 30182.92
181.1636, 29735.58
181.6458, 29402.44
182.1279, 29169.87
182.6100, 29033.03
183.0921, 28990.86
183.5742, 29043.47
184.0563, 29190.30
184.5385, 29419.06
185.0206, 29724.90
185.5027, 30105.48
185.9848, 30534.40
186.4669, 31000.93
186.9490, 31509.38
187.4312, 32095.14
187.9133, 32749.74
188.3954, 33466.04
188.8775, 34225.72
189.3596, 35025.39
189.8417, 35876.10
190.3239, 36771.66
190.8060, 37719.71
191.2881, 38727.36
191.7702, 39791.40
192.2523, 40885.53
192.7344, 41994.51
193.2166, 43113.96
193.6987, 44226.22
194.1808, 45350.70
194.6629, 46477.90
195.1450, 47559.20
195.6271, 48605.17
196.1093, 49580.06
196.5914, 50439.43
197.0735, 51184.04
197.5556, 51806.38
198.0377, 52324.84
198.5198, 52744.41
199.0020, 52939.75
199.4841, 52893.53
199.9662, 52652.62
200.4483, 52281.26
200.9304, 51776.83
201.4125, 51158.16
201.8947, 50418.86
202.3768, 49553.37
202.8589, 48632.73
203.3410, 47643.48
203.8231, 46613.95
204.3052, 45602.52
204.7874, 44598.23
205.2695, 43635.66
205.7516, 42722.67
206.2337, 41854.38
206.7158, 41067.04
207.1979, 40358.50
207.6801, 39730.63
208.1622, 39200.02
208.6443, 38768.82
209.1264, 38416.32
209.6085, 38134.88
210.0906, 37925.51
210.5728, 37780.12
211.0549, 37696.37
211.5370, 37679.21
212.0191, 37747.66
212.5012, 37917.29
212.9833, 38135.50
213.4655, 38385.62
213.9476, 38683.62
214.4297, 38965.63
214.9118, 39248.47
215.3939, 39505.39
215.8760, 39688.82
216.3581, 39823.72
216.8403, 39830.24
217.3224, 39671.94
217.8045, 39343.99
218.2866, 38859.36
218.7687, 38210.68
219.2508, 37407.66
219.7330, 36483.55
220.2151, 35407.13
220.6972, 34269.31
221.1793, 33116.42
221.6614, 31915.76
222.1435, 30759.29
222.6257, 29635.21
223.1078, 28557.20
223.5899, 27529.63
224.0720, 26536.16
224.5541, 25616.19
225.0362, 24770.70
225.5184, 24014.49
226.0005, 23315.54
226.4826, 22676.04
226.9647, 22091.36
227.4468, 21528.72
227.9289, 20990.01
228.4111, 20477.62
228.8932, 19994.23
229.3753, 19548.62
229.8574, 19114.89
230.3395, 18697.94
230.8216, 18295.49
231.3038, 17890.73
231.7859, 17471.51
232.2680, 17071.73
232.7501, 16707.52
233.2322, 16388.47
233.7143, 16083.78
234.1965, 15788.38
234.6786, 15506.17
235.1607, 15244.20
235.6428, 15001.32
236.1249, 14779.75
236.6070, 14581.61
237.0892, 14413.20
237.5713, 14254.26
238.0534, 14106.96
238.5355, 13968.41
239.0176, 13831.22
239.4997, 13688.99
239.9819, 13554.55
240.4640, 13434.43
240.9461, 13329.87
241.4282, 13235.01
241.9103, 13150.07
242.3924, 13074.89
242.8746, 13010.32
243.3567, 12963.46
243.8388, 12916.68
244.3209, 12861.25
244.8030, 12790.21
245.2851, 12730.58
245.7673, 12681.38
246.2494, 12644.15
246.7315, 12622.55
247.2136, 12619.33
247.6957, 12627.60
248.1778, 12647.63
248.6600, 12686.81
249.1421, 12713.04
249.6242, 12714.04
250.1063, 12708.71
250.5884, 12735.21
251.0705, 12806.64
251.5527, 12887.64
252.0348, 12962.53
252.5169, 13024.31
252.9990, 13107.98
253.4811, 13218.41
253.9632, 13348.40
254.4454, 13482.50
254.9275, 13616.09
255.4096, 13763.85
255.8917, 13931.47
256.3738, 14119.35
256.8560, 14320.49
257.3381, 14535.07
257.8202, 14764.11
258.3023, 15014.18
258.7844, 15284.38
259.2665, 15571.90
259.7487, 15877.01
260.2308, 16198.47
260.7129, 16537.00
261.1950, 16892.21
261.6771, 17263.00
262.1592, 17646.70
262.6414, 18036.97
263.1235, 18448.03
263.6056, 18881.23
264.0877, 19341.32
264.5698, 19807.95
265.0519, 20274.62
265.5341, 20754.50
266.0162, 21271.84
266.4983, 21831.15
266.9804, 22403.03
267.4625, 22984.89
267.9446, 23571.98
268.4268, 24187.25
268.9089, 24831.03
269.3910, 25480.92
269.8731, 26120.77
270.3552, 26746.88
270.8373, 27362.58
271.3195, 27981.65
271.8016, 28597.11
272.2837, 29170.33
272.7658, 29718.34
273.2479, 30200.61
273.7300, 30595.23
274.2122, 30904.18
274.6943, 31111.14
275.1764, 31215.04
275.6585, 31213.18
276.1406, 31086.15
276.6227, 30828.71
277.1049, 30465.01
277.5870, 30003.85
278.0691, 29441.85
278.5512, 28820.89
279.0333, 28139.92
279.5154, 27408.46
279.9976, 26649.75
280.4797, 25855.45
280.9618, 25065.76
281.4439, 24290.09
281.9260, 23531.70
282.4081, 22778.75
282.8903, 22018.62
283.3724, 21274.90
283.8545, 20606.26
284.3366, 20015.22
284.8187, 19469.65
285.3008, 18955.52
285.7830, 18469.49
286.2651, 18027.90
286.7472, 17630.99
287.2293, 17274.42
287.7114, 16951.93
288.1935, 16663.46
288.6757, 16405.41
289.1578, 16180.20
289.6399, 15984.91
290.1220, 15815.03
290.6041, 15668.02
291.0862, 15549.52
291.5684, 15470.47
292.0505, 15429.27
292.5326, 15413.03
293.0147, 15417.09
293.4968, 15440.97
293.9789, 15485.42
294.4611, 15551.09
294.9432, 15631.20
295.4253, 15714.94
295.9074, 15805.66
296.3895, 15914.68
296.8716, 16047.76
297.3538, 16203.27
297.8359, 16380.04
298.3180, 16579.91
298.8001, 16794.20
299.2822, 17011.67
299.7643, 17239.68
300.2465, 17493.88
300.7286, 17781.68
301.2107, 18096.42
301.6928, 18438.21
302.1749, 18803.43
302.6570, 19183.19
303.1392, 19560.73
303.6213, 19947.18
304.1034, 20355.39
304.5855, 20811.77
305.0676, 21270.50
305.5497, 21708.31
306.0319, 22119.92
306.5140, 22500.54
306.9961, 22857.87
307.4782, 23172.50
307.9603, 23426.91
308.4424, 23618.11
308.9246, 23740.15
309.4067, 23782.17
309.8888, 23750.05
310.3709, 23660.43
310.8530, 23501.52
311.3351, 23300.37
311.8173, 23072.34
312.2994, 22805.35
312.7815, 22548.97
313.2636, 22325.75
313.7457, 22136.09
314.2278, 21979.77
314.7100, 21860.64
315.1921, 21774.58
315.6742, 21716.54
316.1563, 21684.06
316.6384, 21693.29
317.1205, 21767.54
317.6027, 21883.42
318.0848, 22011.09
318.5669, 22169.60
319.0490, 22312.81
319.5311, 22415.58
320.0132, 22475.27
320.4954, 22536.10
320.9775, 22637.97
321.4596, 22732.47
321.9417, 22776.69
322.4238, 22769.16
322.9059, 22703.04
323.3881, 22574.70
323.8702, 22385.63
324.3523, 22142.71
324.8344, 21811.23
325.3165, 21450.23
325.7986, 21091.80
326.2808, 20740.53
326.7629, 20389.97
327.2450, 20031.42
327.7271, 19671.38
328.2092, 19334.00
328.6913, 19009.73
329.1735, 18717.25
329.6556, 18458.28
330.1377, 18228.39
330.6198, 18040.38
331.1019, 17900.18
331.5840, 17800.26
332.0662, 17723.46
332.5483, 17663.54
333.0304, 17635.32
333.5125, 17645.93
333.9946, 17699.21
334.4767, 17769.65
334.9589, 17856.39
335.4410, 17959.94
335.9231, 18080.73
336.4052, 18216.40
336.8873, 18373.83
337.3694, 18559.40
337.8516, 18770.50
338.3336, 18971.83
338.8158, 19158.32
339.2979, 19347.54
339.7800, 19562.81
340.2621, 19807.26
340.7442, 20045.31
341.2263, 20262.29
341.7085, 20469.79
342.1906, 20697.45
342.6727, 20950.13
343.1548, 21205.32
343.6369, 21457.95
344.1190, 21704.69
344.6012, 21926.75
345.0833, 22117.60
345.5654, 22287.66
346.0475, 22452.47
346.5296, 22611.30
347.0117, 22766.76
347.4939, 22931.24
347.9760, 23092.34
348.4581, 23211.68
348.9402, 23284.90
349.4223, 23327.41
349.9044, 23355.55
350.3866, 23368.33
350.8687, 23363.10
351.3508, 23341.38
351.8329, 23299.89
352.3150, 23228.76
352.7971, 23128.19
353.2793, 23017.29
353.7614, 22910.21
354.2435, 22801.06
354.7256, 22678.88
355.2077, 22535.18
355.6898, 22384.54
356.1720, 22240.98
356.6541, 22101.04
357.1362, 21951.43
357.6183, 21767.05
358.1004, 21577.16
358.5826, 21408.38
359.0647, 21268.81
359.5468, 21142.44
360.0289, 21031.56
360.5110, 20927.19
360.9931, 20811.76
361.4753, 20664.98
361.9574, 20517.64
362.4395, 20384.85
362.9216, 20268.80
363.4037, 20162.53
363.8858, 20071.58
364.3680, 19986.61
364.8501, 19897.40
365.3322, 19800.17
365.8143, 19701.93
366.2964, 19611.24
366.7785, 19527.16
367.2607, 19421.28
367.7428, 19269.13
368.2249, 19108.59
368.7070, 18962.24
369.1891, 18852.87
369.6712, 18729.39
370.1534, 18585.76
370.6355, 18426.08
371.1176, 18263.35
371.5997, 18097.12
372.0818, 17927.21
372.5639, 17751.08
373.0461, 17564.10
373.5282, 17381.59
374.0103, 17203.84
374.4924, 17026.04
374.9745, 16841.79
375.4566, 16645.73
375.9388, 16456.25
376.4209, 16280.83
376.9030, 16117.09
377.3851, 15959.82
377.8672, 15806.19
378.3493, 15662.78
378.8315, 15539.47
379.3136, 15435.71
379.7957, 15339.57
380.2778, 15248.69
380.7599, 15163.50
381.2420, 15078.96
381.7242, 14996.43
382.2063, 14925.91
382.6884, 14879.24
383.1705, 14850.79
383.6526, 14821.47
384.1347, 14787.38
384.6169, 14759.34
385.0990, 14757.28
385.5811, 14774.28
386.0632, 14788.50
386.5453, 14789.52
387.0274, 14781.94
387.5096, 14768.89
387.9917, 14750.70
388.4738, 14735.42
388.9559, 14737.60
389.4380, 14744.69
389.9201, 14739.87
390.4023, 14714.96
390.8844, 14680.37
391.3665, 14642.32
391.8486, 14600.13
392.3307, 14552.40
392.8128, 14495.82
393.2950, 14434.98
393.7771, 14372.01
394.2592, 14306.96
394.7413, 14240.52
395.2234, 14175.28
395.7055, 14108.52
396.1877, 14036.11
396.6698, 13949.10
397.1519, 13863.93
397.6340, 13786.85
398.1161, 13719.56
398.5982, 13647.58
399.0804, 13570.01
399.5625, 13487.75
400.0446, 13401.46
400.5267, 13309.02
401.0088, 13215.98
401.4909, 13123.88
401.9731, 13032.26
402.4552, 12940.52
402.9373, 12848.82
403.4194, 12756.85
403.9015, 12663.04
404.3836, 12564.52
404.8658, 12476.00
405.3479, 12401.40
405.8300, 12332.31
406.3121, 12254.97
406.7942, 12168.08
407.2763, 12079.97
407.7585, 11989.33
408.2406, 11898.64
408.7227, 11827.99
409.2048, 11779.40
409.6869, 11734.87
410.1690, 11675.62
410.6512, 11605.93
411.1333, 11544.88
411.6154, 11497.90
412.0975, 11457.75
412.5796, 11410.26
413.0617, 11358.01
413.5439, 11312.71
414.0260, 11286.58
414.5081, 11268.96
414.9902, 11243.81
415.4723, 11209.07
415.9544, 11175.86
416.4366, 11156.19
416.9187, 11143.55
417.4008, 11128.18
417.8829, 11103.71
418.3650, 11077.58
418.8471, 11050.15
419.3293, 11023.10
419.8114, 11004.82
420.2935, 11003.80
420.7756, 11009.81
421.2577, 11016.66
421.7398, 11025.58
422.2220, 11031.18
422.7041, 11031.69
423.1862, 11028.34
423.6683, 11023.33
424.1504, 11007.50
424.6325, 10999.51
425.1147, 11008.98
425.5968, 11039.61
426.0789, 11054.47
426.5610, 11040.07
427.0431, 11022.17
427.5252, 11023.21
428.0074, 11054.33
428.4895, 11078.34
428.9716, 11090.28
429.4537, 11092.37
429.9358, 11089.80
430.4179, 11080.60
430.9001, 11073.32
431.3822, 11075.04
431.8643, 11086.04
432.3464, 11085.81
432.8285, 11071.76
433.3106, 11054.80
433.7928, 11048.94
434.2749, 11053.14
434.7570, 11058.76
435.2391, 11063.95
435.7212, 11068.35
436.2033, 11069.55
436.6855, 11068.15
437.1676, 11070.01
437.6497, 11081.43
438.1318, 11098.27
438.6139, 11113.84
439.0960, 11126.53
439.5782, 11140.08
440.0603, 11159.92
440.5424, 11182.67
441.0245, 11201.76
441.5066, 11213.60
441.9887, 11221.79
442.4709, 11225.92
442.9530, 11226.36
443.4351, 11231.12
443.9172, 11244.50
444.3993, 11262.41
444.8814, 11281.92
445.3636, 11308.76
445.8457, 11328.80
446.3278, 11336.93
446.8099, 11336.82
447.2920, 11337.92
447.7741, 11346.18
448.2563, 11349.48
448.7384, 11343.42
449.2205, 11326.83
449.7026, 11311.49
450.1847, 11300.88
450.6668, 11287.68
451.1490, 11263.83
451.6311, 11225.96
452.1132, 11190.94
452.5953, 11162.01
453.0774, 11136.76
453.5595, 11107.70
454.0417, 11074.63
454.5238, 11037.75
455.0059, 10991.54
455.4880, 10939.83
455.9701, 10903.39
456.4522, 10884.76
456.9344, 10869.40
457.4165, 10836.75
457.8986, 10794.18
458.3807, 10763.79
458.8628, 10756.95
459.3449, 10760.09
459.8271, 10758.44
460.3092, 10753.27
460.7913, 10750.08
461.2734, 10749.33
461.7555, 10753.65
462.2376, 10766.15
462.7198, 10788.14
463.2019, 10813.56
463.6840, 10839.51
464.1661, 10867.05
464.6482, 10897.49
465.1303, 10927.61
465.6125, 10964.10
466.0946, 11012.08
466.5767, 11070.32
467.0588, 11123.74
467.5409, 11158.56
468.0230, 11199.72
468.5052, 11259.92
468.9873, 11350.58
469.4694, 11431.49
469.9515, 11497.07
470.4336, 11557.63
470.9157, 11630.67
471.3979, 11721.34
471.8800, 11805.51
472.3621, 11875.04
472.8442, 11933.27
473.3263, 11997.82
473.8084, 12068.61
474.2906, 12146.11
474.7727, 12238.02
475.2548, 12338.97
475.7369, 12422.18
476.2190, 12483.61
476.7011, 12532.76
477.1833, 12584.23
477.6654, 12633.75
478.1475, 12669.89
478.6296, 12695.56
479.1117, 12700.27
479.5938, 12666.17
480.0760, 12597.13
480.5581, 12520.67
481.0402, 12460.86
481.5223, 12394.74
482.0044, 12301.87
482.4865, 12173.60
482.9687, 12035.13
483.4508, 11892.84
483.9329, 11745.52
484.4150, 11593.53
484.8971, 11434.91
485.3792, 11272.16
485.8614, 11101.17
486.3435, 10922.80
486.8256, 10751.40
487.3077, 10585.97
487.7898, 10430.95
488.2719, 10288.95
488.7541, 10165.49
489.2362, 10045.48
489.7183, 9927.106
490.2004, 9814.307
490.6825, 9711.931
491.1646, 9620.188
491.6468, 9532.924
492.1289, 9447.169
492.6110, 9364.678
493.0931, 9284.108
493.5752, 9205.227
494.0573, 9134.301
494.5395, 9076.400
495.0216, 9029.006
495.5037, 8986.558
495.9858, 8949.913
496.4679, 8914.191
496.9500, 8876.172
497.4322, 8836.354
497.9143, 8796.225
498.3964, 8753.627
498.8785, 8713.356
499.3606, 8678.441
499.8427, 8648.252
500.3249, 8622.080
500.8070, 8603.562
501.2891, 8585.604
501.7712, 8563.584
502.2533, 8533.289
502.7354, 8509.893
503.2176, 8500.240
503.6997, 8495.141
504.1818, 8485.467
504.6639, 8469.779
505.1460, 8451.519
505.6281, 8429.148
506.1103, 8404.597
506.5924, 8386.959
507.0745, 8377.489
507.5566, 8370.115
508.0387, 8362.029
508.5208, 8353.252
509.0030, 8345.274
509.4851, 8338.490
509.9672, 8330.369
510.4493, 8314.514
510.9314, 8294.562
511.4135, 8284.099
511.8957, 8291.396
512.3778, 8301.633
512.8599, 8296.819
513.3420, 8280.689
513.8242, 8263.986
514.3063, 8247.593
514.7884, 8236.038
515.2705, 8236.978
515.7526, 8250.987
516.2347, 8258.102
516.7169, 8241.619
517.1990, 8220.139
517.6811, 8207.811
518.1632, 8213.073
518.6453, 8218.964
519.1274, 8226.854
519.6096, 8233.579
520.0917, 8233.077
520.5738, 8222.394
521.0559, 8208.982
521.5380, 8192.674
522.0201, 8174.047
522.5023, 8163.572
522.9844, 8162.359
523.4665, 8166.348
523.9486, 8174.901
524.4307, 8187.675
524.9128, 8195.529
525.3950, 8197.154
525.8771, 8195.652
526.3592, 8195.810
526.8413, 8196.419
527.3234, 8192.676
527.8055, 8177.796
528.2877, 8162.478
528.7698, 8162.026
529.2519, 8173.033
529.7340, 8181.078
530.2161, 8176.214
530.6982, 8166.548
531.1804, 8156.733
531.6625, 8146.851
532.1446, 8141.375
532.6267, 8146.768
533.1088, 8155.045
533.5909, 8158.772
534.0731, 8151.142
534.5552, 8146.517
535.0373, 8148.067
535.5194, 8153.056
536.0015, 8153.415
536.4836, 8143.624
536.9658, 8140.749
537.4479, 8154.288
537.9300, 8182.905
538.4121, 8197.486
538.8942, 8195.751
539.3763, 8188.615
539.8585, 8183.943
540.3406, 8181.470
540.8227, 8179.756
541.3048, 8178.310
541.7869, 8178.490
542.2690, 8183.061
542.7512, 8190.630
543.2333, 8197.764
543.7154, 8204.965
544.1975, 8209.574
544.6796, 8208.009
545.1617, 8201.486
545.6439, 8195.334
546.1260, 8191.655
546.6081, 8189.387
547.0902, 8188.525
547.5723, 8189.916
548.0544, 8189.272
548.5366, 8181.792
549.0187, 8174.488
549.5008, 8174.039
549.9829, 8187.826
550.4650, 8194.877
550.9471, 8191.448
551.4293, 8181.435
551.9114, 8173.621
552.3935, 8168.354
552.8756, 8163.788
553.3577, 8159.406
553.8398, 8155.186
554.3220, 8151.466
554.8041, 8148.293
555.2862, 8143.783
555.7683, 8134.302
556.2504, 8122.787
556.7325, 8115.760
557.2147, 8114.843
557.6968, 8114.106
558.1789, 8107.878
558.6610, 8098.717
559.1431, 8090.482
559.6252, 8084.373
560.1074, 8079.539
560.5895, 8072.616
561.0716, 8066.096
561.5537, 8068.428
562.0358, 8094.591
562.5179, 8116.973
563.0001, 8124.464
563.4822, 8115.487
563.9643, 8108.861
564.4464, 8105.551
564.9285, 8103.306
565.4106, 8100.544
565.8928, 8097.238
566.3749, 8093.696
566.8570, 8089.794
567.3391, 8085.991
567.8212, 8082.299
568.3033, 8078.960
568.7855, 8078.130
569.2676, 8081.747
569.7497, 8086.989
570.2318, 8089.954
570.7139, 8090.858
571.1960, 8090.952
571.6782, 8092.412
572.1603, 8092.317
572.6424, 8086.462
573.1245, 8073.895
573.6066, 8065.162
574.0887, 8065.549
574.5709, 8070.597
575.0530, 8076.858
575.5351, 8086.338
576.0172, 8093.862
576.4993, 8102.084
576.9814, 8107.118
577.4636, 8101.042
577.9457, 8078.350
578.4278, 8059.362
578.9099, 8049.845
579.3920, 8047.569
579.8741, 8043.757
580.3563, 8038.115
580.8384, 8035.003
581.3205, 8041.511
581.8026, 8052.320
582.2847, 8048.793
582.7668, 8030.081
583.2490, 8012.754
583.7311, 8013.766
584.2132, 8023.291
584.6953, 8028.181
585.1774, 8023.046
585.6595, 8018.475
586.1416, 8023.272
586.6237, 8031.349
587.1058, 8033.545
587.5880, 8019.741
588.0701, 8008.663
