##NAMES=Atelestite
##RRUFFID=R080139
##IDEAL CHEMISTRY=Bi^3+^_2_O(As^5+^O_4_)(OH)
##LOCALITY=Daniel mine, Schneeberg, Saxony, Germany
##OWNER=RRUFF
##SOURCE=William W. Pinch
##DESCRIPTION=Small sharp tan to cream colored crystals, associated with dark brown eulytine
##STATUS=The identification of this mineral has been confirmed by single-crystal X-ray diffraction.
##URL=rruff.info/R080139
93.78320, 5748.056
94.26532, 5917.372
94.74744, 5943.489
95.22955, 5810.256
95.71167, 5599.808
96.19379, 5402.942
96.67590, 5230.418
97.15802, 5075.388
97.64014, 4946.468
98.12225, 4831.932
98.60437, 4710.974
99.08649, 4577.369
99.56860, 4437.241
100.0507, 4297.126
100.5328, 4146.285
101.0150, 4004.237
101.4971, 3884.251
101.9792, 3784.992
102.4613, 3706.593
102.9434, 3654.510
103.4255, 3619.789
103.9077, 3600.655
104.3898, 3598.444
104.8719, 3605.505
105.3540, 3608.019
105.8361, 3610.030
106.3182, 3598.317
106.8004, 3569.007
107.2825, 3527.134
107.7646, 3476.098
108.2467, 3416.440
108.7288, 3349.546
109.2109, 3296.790
109.6931, 3256.751
110.1752, 3230.977
110.6573, 3220.949
111.1394, 3225.875
111.6215, 3244.458
112.1036, 3276.329
112.5858, 3323.785
113.0679, 3373.737
113.5500, 3426.204
114.0321, 3480.524
114.5142, 3537.859
114.9964, 3598.357
115.4785, 3657.552
115.9606, 3710.902
116.4427, 3758.806
116.9248, 3798.226
117.4069, 3833.258
117.8891, 3858.849
118.3712, 3865.303
118.8533, 3851.136
119.3354, 3813.413
119.8175, 3751.248
120.2996, 3665.989
120.7818, 3569.880
121.2639, 3468.366
121.7460, 3361.157
122.2281, 3256.178
122.7102, 3148.585
123.1923, 3048.380
123.6745, 2961.508
124.1566, 2888.935
124.6387, 2829.027
125.1208, 2779.215
125.6029, 2740.282
126.0850, 2711.681
126.5672, 2695.757
127.0493, 2686.269
127.5314, 2679.435
128.0135, 2673.541
128.4956, 2667.916
128.9777, 2660.481
129.4599, 2655.403
129.9420, 2643.396
130.4241, 2622.377
130.9062, 2594.188
131.3883, 2560.720
131.8705, 2522.218
132.3526, 2479.931
132.8347, 2440.522
133.3168, 2401.716
133.7989, 2367.006
134.2810, 2337.659
134.7632, 2313.554
135.2453, 2293.960
135.7274, 2278.829
136.2095, 2268.310
136.6916, 2260.759
137.1737, 2258.132
137.6559, 2257.197
138.1380, 2254.904
138.6201, 2251.203
139.1022, 2246.292
139.5843, 2241.151
140.0664, 2234.804
140.5486, 2225.184
141.0307, 2209.411
141.5128, 2190.009
141.9949, 2174.567
142.4770, 2163.809
142.9591, 2156.502
143.4413, 2151.193
143.9234, 2148.364
144.4055, 2148.888
144.8876, 2153.405
145.3697, 2161.892
145.8518, 2173.837
146.3340, 2192.615
146.8161, 2212.116
147.2982, 2230.260
147.7803, 2247.414
148.2624, 2265.064
148.7445, 2284.594
149.2267, 2305.441
149.7088, 2330.573
150.1909, 2359.227
150.6730, 2391.518
151.1551, 2426.805
151.6372, 2465.407
152.1194, 2508.807
152.6015, 2559.574
153.0836, 2620.616
153.5657, 2682.164
154.0478, 2744.993
154.5299, 2808.036
155.0121, 2870.586
155.4942, 2932.507
155.9763, 2992.563
156.4584, 3047.934
156.9405, 3098.535
157.4227, 3148.055
157.9048, 3196.107
158.3869, 3243.799
158.8690, 3292.640
159.3511, 3341.654
159.8332, 3395.081
160.3154, 3457.286
160.7975, 3527.977
161.2796, 3603.996
161.7617, 3682.502
162.2438, 3764.286
162.7259, 3852.697
163.2081, 3947.710
163.6902, 4052.291
164.1723, 4166.669
164.6544, 4291.917
165.1365, 4427.423
165.6186, 4573.633
166.1008, 4729.747
166.5829, 4898.225
167.0650, 5076.176
167.5471, 5268.052
168.0292, 5480.771
168.5113, 5715.102
168.9935, 5958.884
169.4756, 6194.392
169.9577, 6431.534
170.4398, 6639.236
170.9219, 6837.466
171.4040, 6999.633
171.8862, 7107.022
172.3683, 7152.141
172.8504, 7135.993
173.3325, 7059.717
173.8146, 6890.396
174.2967, 6690.803
174.7789, 6443.196
175.2610, 6172.548
175.7431, 5904.308
176.2252, 5646.765
176.7073, 5403.902
177.1894, 5192.112
177.6716, 5014.461
178.1537, 4858.147
178.6358, 4722.782
179.1179, 4606.636
179.6000, 4504.669
180.0821, 4415.326
180.5643, 4339.243
181.0464, 4276.752
181.5285, 4226.078
182.0106, 4187.071
182.4927, 4160.368
182.9749, 4145.492
183.4570, 4140.264
183.9391, 4143.553
184.4212, 4157.670
184.9033, 4182.486
185.3854, 4219.042
185.8676, 4264.613
186.3497, 4317.707
186.8318, 4378.364
187.3139, 4445.123
187.7960, 4517.557
188.2781, 4596.553
188.7603, 4682.771
189.2424, 4776.787
189.7245, 4877.828
190.2066, 4984.848
190.6887, 5097.875
191.1708, 5218.002
191.6530, 5348.352
192.1351, 5484.409
192.6172, 5623.183
193.0993, 5763.091
193.5814, 5904.816
194.0635, 6049.399
194.5457, 6200.833
195.0278, 6346.298
195.5099, 6487.914
195.9920, 6621.267
196.4741, 6743.034
196.9562, 6851.920
197.4384, 6946.649
197.9205, 7024.946
198.4026, 7091.622
198.8847, 7129.993
199.3668, 7136.729
199.8489, 7117.194
200.3311, 7076.220
200.8132, 7016.109
201.2953, 6937.694
201.7774, 6845.023
202.2595, 6729.341
202.7416, 6607.252
203.2238, 6476.374
203.7059, 6340.354
204.1880, 6200.330
204.6701, 6056.722
205.1522, 5912.698
205.6344, 5783.938
206.1165, 5672.479
206.5986, 5570.033
207.0807, 5473.319
207.5628, 5384.490
208.0449, 5307.976
208.5271, 5246.600
209.0092, 5198.745
209.4913, 5159.089
209.9734, 5125.072
210.4555, 5099.776
210.9376, 5084.280
211.4198, 5078.341
211.9019, 5081.771
212.3840, 5095.438
212.8661, 5118.307
213.3482, 5146.049
213.8303, 5181.423
214.3125, 5216.642
214.7946, 5249.447
215.2767, 5279.247
215.7588, 5303.091
216.2409, 5324.510
216.7230, 5333.744
217.2052, 5320.711
217.6873, 5284.818
218.1694, 5227.314
218.6515, 5147.838
219.1336, 5046.267
219.6157, 4927.279
220.0979, 4784.442
220.5800, 4627.791
221.0621, 4466.729
221.5442, 4300.662
222.0263, 4136.502
222.5084, 3980.099
222.9906, 3830.752
223.4727, 3689.491
223.9548, 3558.253
224.4369, 3435.749
224.9190, 3322.283
225.4011, 3217.274
225.8833, 3120.738
226.3654, 3032.479
226.8475, 2953.754
227.3296, 2879.055
227.8117, 2808.483
228.2938, 2741.007
228.7760, 2677.681
229.2581, 2618.235
229.7402, 2561.038
230.2223, 2503.509
230.7044, 2444.354
231.1866, 2388.642
231.6687, 2338.441
232.1508, 2290.594
232.6329, 2242.881
233.1150, 2194.886
233.5971, 2148.700
234.0793, 2107.452
234.5614, 2073.074
235.0435, 2039.170
235.5256, 2003.346
236.0077, 1969.348
236.4898, 1939.795
236.9720, 1915.148
237.4541, 1893.786
237.9362, 1873.720
238.4183, 1855.364
238.9004, 1837.722
239.3825, 1820.354
239.8647, 1803.945
240.3468, 1789.247
240.8289, 1776.177
241.3110, 1764.063
241.7931, 1751.818
242.2752, 1739.013
242.7574, 1727.727
243.2395, 1716.527
243.7216, 1707.612
244.2037, 1703.122
244.6858, 1702.942
245.1679, 1704.715
245.6501, 1706.039
246.1322, 1707.031
246.6143, 1706.677
247.0964, 1704.239
247.5785, 1701.175
248.0606, 1697.824
248.5428, 1694.511
249.0249, 1692.107
249.5070, 1691.129
249.9891, 1691.596
250.4712, 1696.327
250.9533, 1708.592
251.4355, 1722.310
251.9176, 1732.646
252.3997, 1739.768
252.8818, 1748.179
253.3639, 1761.805
253.8460, 1781.012
254.3282, 1799.903
254.8103, 1816.634
255.2924, 1834.491
255.7745, 1855.558
256.2566, 1879.821
256.7387, 1906.079
257.2209, 1933.544
257.7030, 1962.460
258.1851, 1993.226
258.6672, 2027.063
259.1493, 2061.610
259.6314, 2094.211
260.1136, 2125.303
260.5957, 2159.153
261.0778, 2199.785
261.5599, 2244.872
262.0420, 2286.926
262.5241, 2322.864
263.0063, 2359.333
263.4884, 2401.663
263.9705, 2449.324
264.4526, 2497.622
264.9347, 2542.953
265.4168, 2588.642
265.8990, 2639.604
266.3811, 2697.555
266.8632, 2758.252
267.3453, 2818.929
267.8275, 2879.659
268.3096, 2942.127
268.7917, 3006.240
269.2738, 3073.014
269.7559, 3143.373
270.2380, 3218.090
270.7202, 3292.359
271.2023, 3363.810
271.6844, 3432.221
272.1665, 3497.512
272.6486, 3561.665
273.1307, 3619.235
273.6129, 3668.122
274.0950, 3708.567
274.5771, 3738.635
275.0592, 3758.450
275.5413, 3767.509
276.0234, 3762.655
276.5056, 3742.232
276.9877, 3707.433
277.4698, 3661.559
277.9519, 3604.923
278.4340, 3538.843
278.9161, 3461.640
279.3983, 3375.027
279.8804, 3284.184
280.3625, 3186.567
280.8446, 3089.714
281.3267, 2998.157
281.8088, 2911.070
282.2910, 2825.740
282.7731, 2740.221
283.2552, 2655.692
283.7373, 2575.687
284.2194, 2499.138
284.7015, 2429.864
285.1837, 2369.688
285.6658, 2316.273
286.1479, 2266.032
286.6300, 2217.249
287.1121, 2171.111
287.5942, 2130.590
288.0764, 2096.167
288.5585, 2066.626
289.0406, 2041.505
289.5227, 2020.503
290.0048, 2004.119
290.4869, 1992.617
290.9691, 1984.811
291.4512, 1978.718
291.9333, 1974.354
292.4154, 1971.804
292.8975, 1970.600
293.3796, 1971.448
293.8618, 1975.450
294.3439, 1982.882
294.8260, 1992.196
295.3081, 2000.820
295.7902, 2007.813
296.2723, 2018.548
296.7545, 2036.055
297.2366, 2056.180
297.7187, 2076.243
298.2008, 2096.189
298.6829, 2118.460
299.1650, 2145.076
299.6472, 2176.119
300.1293, 2211.108
300.6114, 2251.032
301.0935, 2294.259
301.5756, 2341.939
302.0577, 2392.611
302.5399, 2442.706
303.0220, 2487.152
303.5041, 2526.454
303.9862, 2575.137
304.4683, 2643.596
304.9504, 2709.887
305.4326, 2766.987
305.9147, 2816.313
306.3968, 2861.337
306.8789, 2904.490
307.3610, 2944.840
307.8431, 2977.997
308.3253, 3006.272
308.8074, 3022.137
309.2895, 3023.329
309.7716, 3013.232
310.2537, 2995.077
310.7358, 2969.907
311.2180, 2939.017
311.7001, 2904.643
312.1822, 2863.501
312.6643, 2825.554
313.1464, 2791.330
313.6285, 2761.177
314.1107, 2735.132
314.5928, 2713.246
315.0749, 2695.866
315.5570, 2683.484
316.0392, 2676.015
316.5213, 2674.044
317.0034, 2681.400
317.4855, 2691.357
317.9676, 2700.396
318.4497, 2708.283
318.9319, 2716.965
319.4140, 2729.299
319.8961, 2745.938
320.3782, 2759.729
320.8603, 2771.865
321.3424, 2779.432
321.8246, 2782.373
322.3067, 2779.974
322.7888, 2770.801
323.2709, 2753.736
323.7530, 2728.970
324.2351, 2698.359
324.7173, 2660.684
325.1994, 2617.945
325.6815, 2568.135
326.1636, 2514.838
326.6457, 2462.095
327.1278, 2411.906
327.6100, 2364.048
328.0921, 2317.288
328.5742, 2269.986
329.0563, 2227.536
329.5384, 2189.978
330.0205, 2157.669
330.5027, 2131.794
330.9848, 2112.549
331.4669, 2097.731
331.9490, 2084.039
332.4311, 2070.856
332.9132, 2061.579
333.3954, 2057.556
333.8775, 2057.176
334.3596, 2060.607
334.8417, 2067.481
335.3238, 2076.248
335.8059, 2085.581
336.2881, 2095.491
336.7702, 2106.315
337.2523, 2117.319
337.7344, 2130.327
338.2165, 2146.368
338.6986, 2164.910
339.1808, 2184.905
339.6629, 2206.019
340.1450, 2228.009
340.6271, 2250.159
341.1092, 2272.508
341.5913, 2294.833
342.0735, 2316.268
342.5556, 2337.898
343.0377, 2361.740
343.5198, 2389.245
344.0019, 2417.158
344.4840, 2439.523
344.9662, 2455.253
345.4483, 2470.891
345.9304, 2489.586
346.4125, 2508.232
346.8946, 2524.594
347.3767, 2538.427
347.8589, 2550.441
348.3410, 2561.404
348.8231, 2571.329
349.3052, 2579.207
349.7873, 2585.475
350.2694, 2588.664
350.7516, 2587.574
351.2337, 2582.738
351.7158, 2576.433
352.1979, 2570.497
352.6800, 2564.144
353.1621, 2554.382
353.6443, 2539.858
354.1264, 2524.882
354.6085, 2513.121
355.0906, 2502.396
355.5727, 2489.114
356.0548, 2471.200
356.5370, 2451.321
357.0191, 2432.668
357.5012, 2415.372
357.9833, 2399.149
358.4654, 2384.863
358.9475, 2371.144
359.4297, 2356.009
359.9118, 2338.720
360.3939, 2322.540
360.8760, 2310.889
361.3581, 2302.837
361.8402, 2293.184
362.3224, 2280.130
362.8045, 2266.177
363.2866, 2253.496
363.7687, 2242.042
364.2508, 2232.079
364.7329, 2225.426
365.2151, 2219.751
365.6972, 2210.626
366.1793, 2197.156
366.6614, 2183.197
367.1436, 2171.995
367.6257, 2162.604
368.1078, 2152.124
368.5899, 2140.248
369.0720, 2127.033
369.5541, 2112.159
370.0363, 2095.803
370.5184, 2079.436
371.0005, 2064.221
371.4826, 2048.938
371.9647, 2030.747
372.4468, 2008.897
372.9290, 1986.673
373.4111, 1965.137
373.8932, 1944.117
374.3753, 1923.741
374.8574, 1904.078
375.3395, 1884.866
375.8217, 1866.143
376.3038, 1848.050
376.7859, 1829.180
377.2680, 1807.648
377.7501, 1786.444
378.2322, 1767.939
378.7144, 1752.271
379.1965, 1738.585
379.6786, 1726.228
380.1607, 1715.316
380.6428, 1706.200
381.1249, 1699.856
381.6071, 1694.005
382.0892, 1687.295
382.5713, 1680.558
383.0534, 1675.546
383.5355, 1673.048
384.0176, 1672.199
384.4998, 1671.067
384.9819, 1668.410
385.4640, 1667.655
385.9461, 1670.783
386.4282, 1674.672
386.9103, 1676.712
387.3925, 1676.512
387.8746, 1675.104
388.3567, 1673.397
388.8388, 1671.188
389.3209, 1670.246
389.8030, 1672.519
390.2852, 1673.866
390.7673, 1672.626
391.2494, 1669.247
391.7315, 1664.841
392.2136, 1660.057
392.6957, 1654.755
393.1779, 1648.441
393.6600, 1640.225
394.1421, 1632.179
394.6242, 1625.594
395.1063, 1618.584
395.5884, 1609.057
396.0706, 1596.651
396.5527, 1583.420
397.0348, 1572.077
397.5169, 1563.277
397.9990, 1553.966
398.4811, 1544.065
398.9633, 1533.770
399.4454, 1523.170
399.9275, 1512.227
400.4096, 1500.623
400.8917, 1487.979
401.3738, 1474.660
401.8560, 1462.381
402.3381, 1452.028
402.8202, 1441.066
403.3023, 1428.310
403.7844, 1414.799
404.2665, 1401.591
404.7487, 1389.025
405.2308, 1376.511
405.7129, 1363.090
406.1950, 1348.574
406.6771, 1335.240
407.1592, 1323.900
407.6414, 1313.612
408.1235, 1303.760
408.6056, 1294.312
409.0877, 1285.211
409.5698, 1276.212
410.0519, 1267.604
410.5341, 1260.278
411.0162, 1254.635
411.4983, 1248.876
411.9804, 1241.357
412.4625, 1233.149
412.9446, 1226.186
413.4268, 1221.238
413.9089, 1216.801
414.3910, 1211.699
414.8731, 1206.085
415.3553, 1200.602
415.8374, 1195.284
416.3195, 1190.485
416.8016, 1186.749
417.2837, 1183.992
417.7658, 1182.052
418.2480, 1181.800
418.7301, 1181.866
419.2122, 1180.337
419.6943, 1177.094
420.1764, 1173.923
420.6585, 1172.189
421.1407, 1171.837
421.6228, 1171.770
422.1049, 1172.313
422.5870, 1172.747
423.0691, 1172.983
423.5512, 1172.883
424.0334, 1172.021
424.5155, 1170.192
424.9976, 1168.046
425.4797, 1166.804
425.9618, 1166.879
426.4439, 1167.161
426.9261, 1168.298
427.4082, 1169.156
427.8903, 1168.771
428.3724, 1167.255
428.8545, 1165.434
429.3366, 1163.929
429.8188, 1162.745
430.3009, 1162.023
430.7830, 1162.426
431.2651, 1162.588
431.7472, 1162.190
432.2293, 1161.477
432.7115, 1160.836
433.1936, 1160.396
433.6757, 1159.812
434.1578, 1158.196
434.6399, 1154.787
435.1220, 1153.018
435.6042, 1155.339
436.0863, 1157.486
436.5684, 1156.964
437.0505, 1154.334
437.5326, 1151.928
438.0147, 1151.429
438.4969, 1152.348
438.9790, 1153.034
439.4611, 1153.493
439.9432, 1153.694
440.4253, 1152.788
440.9074, 1152.008
441.3896, 1153.169
441.8717, 1157.057
442.3538, 1160.589
442.8359, 1160.110
443.3180, 1156.462
443.8001, 1154.849
444.2823, 1156.885
444.7644, 1160.050
445.2465, 1162.167
445.7286, 1163.402
446.2107, 1164.124
446.6928, 1164.103
447.1750, 1163.842
447.6571, 1164.031
448.1392, 1164.584
448.6213, 1164.620
449.1034, 1163.613
449.5855, 1161.823
450.0677, 1159.943
450.5498, 1157.922
451.0319, 1155.932
451.5140, 1154.748
451.9961, 1153.284
452.4782, 1149.751
452.9604, 1143.959
453.4425, 1137.925
453.9246, 1133.784
454.4067, 1131.773
454.8888, 1129.178
455.3709, 1126.137
455.8531, 1122.508
456.3352, 1117.211
456.8173, 1111.514
457.2994, 1107.574
457.7815, 1106.417
458.2636, 1106.927
458.7458, 1106.706
459.2279, 1105.032
459.7100, 1104.172
460.1921, 1104.762
460.6742, 1105.593
461.1563, 1105.888
461.6385, 1105.734
462.1206, 1105.720
462.6027, 1106.259
463.0848, 1107.314
463.5669, 1108.760
464.0491, 1110.728
464.5312, 1112.783
465.0133, 1114.590
465.4954, 1116.475
465.9775, 1118.789
466.4597, 1121.631
466.9418, 1124.788
467.4239, 1128.234
467.9060, 1131.899
468.3881, 1135.336
468.8702, 1138.418
469.3524, 1141.423
469.8345, 1144.173
470.3166, 1146.967
470.7987, 1150.825
471.2808, 1156.485
471.7629, 1162.956
472.2451, 1169.603
472.7272, 1176.362
473.2093, 1182.925
473.6914, 1189.244
474.1735, 1195.159
474.6556, 1200.179
475.1378, 1203.885
475.6199, 1208.249
476.1020, 1215.050
476.5841, 1221.625
477.0662, 1225.248
477.5483, 1226.011
478.0305, 1226.383
478.5126, 1228.441
478.9947, 1231.713
479.4768, 1231.999
479.9589, 1227.886
480.4410, 1222.389
480.9232, 1216.287
481.4053, 1208.747
481.8874, 1198.536
482.3695, 1185.507
482.8516, 1171.226
483.3337, 1157.746
483.8159, 1145.375
484.2980, 1131.128
484.7801, 1113.368
485.2622, 1095.505
485.7443, 1078.396
486.2264, 1062.110
486.7086, 1046.665
487.1907, 1032.052
487.6728, 1018.301
488.1549, 1005.590
488.6370, 994.0206
489.1191, 981.7399
489.6013, 967.0016
490.0834, 952.9561
490.5655, 942.6390
491.0476, 935.5823
491.5297, 928.6927
492.0118, 920.3026
492.4940, 911.6379
492.9761, 904.4150
493.4582, 898.5930
493.9403, 893.1494
494.4224, 887.6390
494.9045, 882.1041
495.3867, 876.6019
495.8688, 870.6706
496.3509, 865.7713
496.8330, 863.0494
497.3151, 861.0494
497.7972, 858.2528
498.2794, 854.4963
498.7615, 850.4305
499.2436, 846.5768
499.7257, 842.9456
500.2078, 839.5253
500.6899, 836.3464
501.1721, 833.3344
501.6542, 830.3764
502.1363, 827.6344
502.6184, 825.2525
503.1005, 823.2751
503.5826, 821.6671
504.0648, 820.4755
504.5469, 819.7570
505.0290, 818.9518
505.5111, 818.3466
505.9932, 817.2650
506.4753, 815.1104
506.9575, 812.4393
507.4396, 810.1475
507.9217, 808.6150
508.4038, 807.3904
508.8859, 805.7648
509.3680, 803.7916
509.8502, 802.6429
510.3323, 803.0289
510.8144, 803.5677
511.2965, 802.6606
511.7786, 800.5906
512.2607, 798.8502
512.7429, 798.4010
513.2250, 797.9581
513.7071, 795.9703
514.1892, 792.8752
514.6713, 790.6782
515.1534, 790.4028
515.6356, 791.0807
516.1177, 790.7864
516.5998, 788.9534
517.0819, 787.3863
517.5640, 786.5286
518.0461, 785.6323
518.5283, 783.9416
519.0104, 781.7053
519.4925, 779.7779
519.9746, 778.7003
520.4567, 778.4051
520.9388, 778.7460
521.4210, 780.4005
521.9031, 781.3971
522.3852, 781.6263
522.8673, 781.1156
523.3494, 779.5768
523.8315, 777.1907
524.3137, 774.7336
524.7958, 772.5548
525.2779, 770.8128
525.7600, 770.4486
526.2421, 772.0068
526.7242, 772.8491
527.2064, 770.7520
527.6885, 767.8865
528.1706, 767.3673
528.6527, 769.9465
529.1348, 771.8669
529.6169, 770.7039
530.0991, 767.8377
530.5812, 765.3193
531.0633, 763.4150
531.5454, 762.0729
532.0275, 761.2881
532.5096, 761.0370
532.9918, 761.1757
533.4739, 762.1807
533.9560, 762.9020
534.4381, 763.1537
534.9202, 762.9794
535.4023, 762.2545
535.8845, 761.0536
536.3666, 759.8603
536.8487, 759.2449
537.3308, 759.2021
537.8129, 758.4650
538.2951, 755.6935
538.7772, 754.0232
539.2593, 755.1754
539.7415, 757.2021
540.2236, 757.9258
540.7057, 756.8057
541.1878, 755.2023
541.6699, 754.3294
542.1520, 754.1428
542.6342, 754.5296
543.1163, 755.9231
543.5984, 756.8060
544.0805, 755.6913
544.5626, 753.4776
545.0447, 751.8069
545.5269, 751.0543
546.0090, 750.5668
546.4911, 749.9515
546.9732, 749.3361
547.4553, 749.0693
547.9374, 749.2266
548.4196, 749.3215
548.9017, 748.8174
549.3838, 747.6910
549.8659, 747.0483
550.3480, 747.4773
550.8301, 747.6003
551.3123, 746.8898
551.7944, 745.7321
552.2765, 744.4620
552.7586, 743.2357
553.2407, 742.2999
553.7228, 742.0793
554.2050, 742.6348
554.6871, 742.7257
555.1692, 741.7943
555.6513, 741.1957
556.1334, 741.9442
556.6155, 743.0552
557.0977, 743.1138
557.5798, 741.6313
558.0619, 739.9616
558.5440, 739.5187
559.0261, 739.9291
559.5082, 739.8500
559.9904, 739.1262
560.4725, 737.7597
560.9546, 735.2831
561.4367, 732.1084
561.9188, 730.1970
562.4009, 730.7089
562.8831, 731.0613
563.3652, 729.9924
563.8473, 728.3167
564.3294, 727.2373
564.8115, 726.9695
565.2936, 726.7664
565.7758, 725.8005
566.2579, 724.0647
566.7400, 723.1523
567.2221, 724.0943
567.7042, 724.6417
568.1863, 723.9551
568.6685, 722.9563
569.1506, 722.7941
569.6327, 723.6222
570.1148, 724.3253
570.5969, 723.4003
571.0790, 721.2335
571.5612, 720.5054
572.0433, 721.8093
572.5254, 722.9155
573.0075, 722.4422
573.4896, 721.1752
573.9717, 720.2965
574.4539, 720.0066
574.9360, 719.7066
575.4181, 719.0733
575.9002, 718.2840
576.3823, 717.5983
576.8644, 717.0361
577.3466, 716.3952
577.8287, 715.4303
578.3108, 714.3456
578.7929, 714.1478
579.2750, 716.4796
579.7571, 717.5279
580.2393, 716.3518
580.7214, 714.3726
581.2035, 712.4219
581.6856, 710.7294
582.1677, 709.3752
582.6498, 708.5026
583.1320, 707.9377
583.6141, 707.0078
584.0962, 705.4752
584.5783, 704.3695
585.0604, 704.0138
585.5425, 704.1926
586.0247, 704.8129
586.5068, 705.8445
586.9889, 706.9981
587.4710, 709.0334
587.9531, 710.5546
588.4352, 709.3751
588.9174, 705.9311
589.3995, 702.7789
589.8816, 700.9821
590.3637, 700.1703
590.8458, 699.8073
