##NAMES=Atencioite
##RRUFFID=R060893
##IDEAL CHEMISTRY=Ca_2_Fe^2+^_3_Mg_2_Be_4_(PO_4_)_6_(OH)_4_&#183;6H_2_O
##LOCALITY=Linópolis, Minas Gerais, Brazil
##OWNER=RRUFF
##SOURCE=Michael Scott
##DESCRIPTION=Elongated, spherically radiating gray to pale yellow-green crystals, associated with prismatic orange ushkovite and dark green rockbridgeite.
##STATUS=The identification of this mineral is confirmed by single-crystal X-ray diffraction and chemical analysis.
##URL=rruff.info/R060893
##MEASURED CHEMISTRY=Ca_1.94_(Fe^2+^_2.35_Mg_0.40_Mn_0.20_Al_0.04_)_2.99_Mg_2_Be_4_(PO_4_)_6_(OH)_4_·6H_2_O ; Light phase. The dark phase is Ca_1.95_(Fe^2+^_1.69_Mg_0.97_Mn_0.12_Al_0.09_)_2.87_Mg_2_Be_4_(PO_4_)_6_(OH)_4_·6H_2_O.   The Be content is assumed.
111.9606, 63.58867
112.4427, 64.33855
112.9248, 65.07817
113.4069, 65.93616
113.8890, 66.75313
114.3712, 67.41063
114.8533, 67.90113
115.3354, 68.21426
115.8175, 68.34317
116.2996, 68.28971
116.7817, 68.08218
117.2639, 67.68571
117.7460, 67.15495
118.2281, 66.55869
118.7102, 65.89033
119.1923, 65.18413
119.6744, 64.44813
120.1566, 63.66677
120.6387, 62.91864
121.1208, 62.20793
121.6029, 61.56488
122.0850, 61.06090
122.5671, 60.81282
123.0493, 60.68284
123.5314, 60.53316
124.0135, 60.33575
124.4956, 60.12329
124.9777, 59.86637
125.4598, 59.59748
125.9420, 59.45040
126.4241, 59.61358
126.9062, 59.94508
127.3883, 60.17103
127.8704, 60.18124
128.3525, 60.13097
128.8347, 60.29156
129.3168, 60.65194
129.7989, 60.99842
130.2810, 61.09766
130.7631, 61.01951
131.2452, 61.06480
131.7274, 61.36117
132.2095, 61.80593
132.6916, 62.12397
133.1737, 62.30866
133.6558, 62.42811
134.1379, 62.51410
134.6201, 62.56882
135.1022, 62.71036
135.5843, 62.98858
136.0664, 63.38926
136.5485, 63.77544
137.0306, 64.11787
137.5128, 64.52265
137.9949, 65.14617
138.4770, 66.02024
138.9591, 66.97498
139.4412, 68.01196
139.9233, 69.13912
140.4055, 70.09013
140.8876, 70.81450
141.3697, 71.41438
141.8518, 72.08637
142.3339, 72.91112
142.8160, 73.61774
143.2982, 74.08373
143.7803, 74.21709
144.2624, 74.41690
144.7445, 74.85017
145.2266, 75.29414
145.7087, 75.20206
146.1909, 74.25395
146.6730, 73.17950
147.1551, 72.24551
147.6372, 71.48833
148.1193, 70.82976
148.6014, 70.30898
149.0836, 69.89351
149.5657, 69.44518
150.0478, 68.79178
150.5299, 68.25357
151.0120, 67.96893
151.4941, 68.18120
151.9763, 68.36030
152.4584, 68.51917
152.9405, 68.64477
153.4226, 68.67992
153.9047, 68.45458
154.3868, 68.24425
154.8690, 68.19883
155.3511, 68.58150
155.8332, 68.86692
156.3153, 68.90942
156.7974, 68.74232
157.2795, 68.64024
157.7617, 68.70749
158.2438, 68.83813
158.7259, 68.95580
159.2080, 69.04501
159.6901, 69.11924
160.1722, 69.18916
160.6544, 69.25401
161.1365, 69.28915
161.6186, 69.23571
162.1007, 69.16915
162.5828, 69.15779
163.0649, 69.26241
163.5471, 69.39393
164.0292, 69.46526
164.5113, 69.47314
164.9934, 69.61573
165.4755, 70.11293
165.9576, 70.77147
166.4398, 71.34547
166.9219, 71.64049
167.4040, 71.89690
167.8861, 72.25481
168.3682, 72.72310
168.8503, 73.27743
169.3325, 73.98422
169.8146, 74.76140
170.2967, 75.46568
170.7788, 76.03007
171.2609, 76.50729
171.7430, 76.93623
172.2252, 77.32286
172.7073, 77.65941
173.1894, 77.87920
173.6715, 78.04219
174.1536, 78.27341
174.6357, 78.68494
175.1179, 79.18040
175.6000, 79.61502
176.0821, 79.94975
176.5642, 80.35359
177.0463, 81.03167
177.5284, 81.92693
178.0106, 82.85127
178.4927, 83.73962
178.9748, 84.58874
179.4569, 85.35734
179.9390, 86.03452
180.4211, 86.68923
180.9033, 87.38062
181.3854, 88.12085
181.8675, 88.94273
182.3496, 90.06998
182.8317, 91.28502
183.3138, 92.12287
183.7960, 92.51028
184.2781, 92.55698
184.7602, 92.33414
185.2423, 91.85815
185.7244, 91.28945
186.2065, 90.72066
186.6887, 90.13420
187.1708, 89.44334
187.6529, 88.61913
188.1350, 87.73012
188.6171, 86.89085
189.0992, 86.09425
189.5814, 85.35645
190.0635, 84.63615
190.5456, 83.95134
191.0277, 83.52622
191.5098, 83.45324
191.9919, 83.53903
192.4741, 83.33935
192.9562, 82.83964
193.4383, 82.39043
193.9204, 82.28883
194.4025, 82.51134
194.8846, 82.62171
195.3668, 82.49953
195.8489, 82.31511
196.3310, 82.56323
196.8131, 83.30381
197.2952, 84.01743
197.7773, 84.27865
198.2595, 84.06882
198.7416, 84.04892
199.2237, 84.34401
199.7058, 84.83764
200.1879, 85.17493
200.6700, 85.31429
201.1522, 85.50279
201.6343, 85.98471
202.1164, 86.80868
202.5985, 87.42596
203.0806, 87.73723
203.5627, 87.81295
204.0449, 87.83467
204.5270, 87.77029
205.0091, 87.75548
205.4912, 87.90282
205.9733, 88.23986
206.4554, 88.57006
206.9376, 88.86639
207.4197, 89.14026
207.9018, 89.43236
208.3839, 89.72350
208.8660, 90.08510
209.3481, 90.57986
209.8303, 91.24114
210.3124, 91.89634
210.7945, 92.51153
211.2766, 93.10871
211.7587, 93.81165
212.2408, 94.65965
212.7230, 95.53636
213.2051, 96.40473
213.6872, 97.31290
214.1693, 98.03220
214.6514, 98.47514
215.1335, 98.70712
215.6157, 99.06340
216.0978, 99.69905
216.5799, 100.1723
217.0620, 100.1728
217.5441, 99.57156
218.0262, 98.85166
218.5084, 98.01608
218.9905, 97.08414
219.4726, 96.19113
219.9547, 95.30032
220.4368, 94.48811
220.9189, 93.82043
221.4011, 93.32995
221.8832, 92.88492
222.3653, 92.45159
222.8474, 92.05606
223.3295, 91.82056
223.8116, 91.85835
224.2938, 91.88718
224.7759, 91.69154
225.2580, 91.06477
225.7401, 90.73769
226.2222, 90.89527
226.7043, 91.39058
227.1865, 91.60851
227.6686, 91.45324
228.1507, 91.15591
228.6328, 90.83649
229.1149, 90.48181
229.5970, 90.13965
230.0792, 89.82968
230.5613, 89.53521
231.0434, 89.18979
231.5255, 88.74512
232.0076, 88.32982
232.4897, 88.06046
232.9719, 88.14807
233.4540, 87.89660
233.9361, 87.14918
234.4182, 86.05198
234.9003, 85.08257
235.3824, 84.18602
235.8646, 83.49528
236.3467, 83.11479
236.8288, 83.24868
237.3109, 83.24329
237.7930, 83.09986
238.2751, 82.80112
238.7573, 82.27053
239.2394, 81.32243
239.7215, 80.40543
240.2036, 79.71688
240.6857, 79.33556
241.1678, 79.01507
241.6500, 78.82437
242.1321, 78.67543
242.6142, 78.30833
243.0963, 77.52914
243.5784, 76.82122
244.0605, 76.42216
244.5427, 76.50150
245.0248, 76.44688
245.5069, 76.22149
245.9890, 75.87692
246.4711, 75.50432
246.9532, 74.99236
247.4354, 74.63414
247.9175, 74.59435
248.3996, 75.03643
248.8817, 75.25536
249.3638, 75.14336
249.8459, 74.87144
250.3281, 74.75814
250.8102, 74.87287
251.2923, 75.02785
251.7744, 75.15703
252.2565, 75.24010
252.7386, 75.38814
253.2208, 75.64699
253.7029, 75.93705
254.1850, 76.12984
254.6671, 76.17493
255.1492, 76.21893
255.6313, 76.30270
256.1135, 76.42776
256.5956, 76.58003
257.0777, 76.79369
257.5598, 76.99683
258.0419, 77.07980
258.5240, 76.98667
259.0062, 76.89636
259.4883, 76.86894
259.9704, 76.91280
260.4525, 76.89359
260.9346, 76.80329
261.4167, 76.66100
261.8989, 76.47141
262.3810, 76.19801
262.8631, 75.98470
263.3452, 75.88471
263.8273, 75.89733
264.3094, 75.87551
264.7916, 75.80633
265.2737, 75.72664
265.7558, 75.68266
266.2379, 75.70252
266.7200, 75.65260
267.2021, 75.42464
267.6843, 75.06908
268.1664, 75.13750
268.6485, 75.79916
269.1306, 76.53030
269.6127, 76.83315
270.0948, 76.58610
270.5770, 76.45814
271.0591, 76.60325
271.5412, 76.94637
272.0233, 77.13396
272.5054, 77.13952
272.9875, 77.04848
273.4697, 76.86049
273.9518, 76.52755
274.4339, 76.44384
274.9160, 76.77640
275.3981, 77.31664
275.8802, 77.38588
276.3624, 76.89187
276.8445, 76.28554
277.3266, 75.84634
277.8087, 75.58672
278.2908, 75.31039
278.7729, 74.98830
279.2551, 74.65799
279.7372, 74.45241
280.2193, 74.40157
280.7014, 74.27480
281.1835, 73.85191
281.6656, 73.14090
282.1478, 72.72639
282.6299, 72.69857
283.1120, 72.83984
283.5941, 72.77645
284.0762, 72.49780
284.5583, 72.21657
285.0405, 72.01950
285.5226, 71.90217
286.0047, 71.82891
286.4868, 71.80345
286.9689, 71.80862
287.4510, 71.83558
287.9332, 71.88218
288.4153, 71.90757
288.8974, 71.87465
289.3795, 71.80592
289.8616, 71.78755
290.3438, 71.82138
290.8259, 71.89162
291.3080, 71.97619
291.7901, 72.07864
292.2722, 72.23302
292.7543, 72.49781
293.2365, 72.79836
293.7186, 72.89858
294.2007, 72.79353
294.6828, 72.73654
295.1649, 73.03857
295.6470, 73.58775
296.1292, 74.01215
296.6113, 74.14918
297.0934, 74.18150
297.5755, 74.39262
298.0576, 74.77571
298.5397, 75.23780
299.0219, 75.81137
299.5040, 76.41349
299.9861, 76.82063
300.4682, 76.90566
300.9503, 76.95753
301.4324, 77.33607
301.9146, 77.99155
302.3967, 78.73055
302.8788, 79.58013
303.3609, 80.39080
303.8430, 80.83346
304.3251, 80.74769
304.8073, 80.73388
305.2894, 81.53594
305.7715, 82.85943
306.2536, 84.01020
306.7357, 84.47222
307.2178, 84.65455
307.7000, 84.92359
308.1821, 85.30262
308.6642, 85.80840
309.1463, 86.57096
309.6284, 87.44555
310.1105, 88.21828
310.5927, 88.76151
311.0748, 89.18481
311.5569, 89.55913
312.0390, 89.88636
312.5211, 90.16512
313.0032, 90.30638
313.4854, 90.43684
313.9675, 90.68947
314.4496, 91.25432
314.9317, 91.82082
315.4138, 92.27676
315.8959, 92.62082
316.3781, 92.85826
316.8602, 93.04635
317.3423, 93.09646
317.8244, 92.93202
318.3065, 92.41908
318.7886, 91.85910
319.2708, 91.27009
319.7529, 90.69975
320.2350, 90.28126
320.7171, 90.36314
321.1992, 90.37756
321.6813, 89.98912
322.1635, 88.89742
322.6456, 87.99032
323.1277, 87.49702
323.6098, 87.28224
324.0919, 87.11944
324.5740, 87.23653
325.0562, 87.16120
325.5383, 86.66769
326.0204, 85.59839
326.5025, 84.72160
326.9846, 84.22319
327.4667, 83.88790
327.9489, 83.47935
328.4310, 82.77058
328.9131, 82.24223
329.3952, 82.01934
329.8773, 82.11092
330.3594, 82.15490
330.8416, 82.13505
331.3237, 82.08192
331.8058, 81.99802
332.2879, 81.72602
332.7700, 81.70998
333.2521, 82.14405
333.7343, 82.88630
334.2164, 83.21465
334.6985, 82.89112
335.1806, 82.51769
335.6627, 82.43153
336.1448, 82.75325
336.6270, 82.97864
337.1091, 83.03211
337.5912, 83.02789
338.0733, 83.25030
338.5554, 83.79861
339.0375, 84.24281
339.5197, 84.32339
340.0018, 84.00379
340.4839, 84.03554
340.9660, 84.50095
341.4481, 85.13602
341.9302, 85.57884
342.4124, 85.81544
342.8945, 86.11141
343.3766, 86.63565
343.8587, 87.27995
344.3408, 87.49660
344.8229, 87.23210
345.3051, 86.89333
345.7872, 86.87781
346.2693, 87.13671
346.7514, 87.35720
347.2335, 87.49253
347.7156, 87.53349
348.1978, 87.40144
348.6799, 87.11243
349.1620, 86.85992
349.6441, 86.80775
350.1262, 86.88728
350.6083, 86.95276
351.0905, 87.00098
351.5726, 86.98360
352.0547, 86.76186
352.5368, 86.41148
353.0189, 86.16204
353.5010, 86.18593
353.9832, 86.34689
354.4653, 86.53535
354.9474, 86.75308
355.4295, 86.84441
355.9116, 86.57369
356.3937, 86.11979
356.8759, 85.75489
357.3580, 85.58269
357.8401, 85.52451
358.3222, 85.53964
358.8043, 85.62663
359.2864, 85.77630
359.7686, 86.02274
360.2507, 86.31050
360.7328, 86.58777
361.2149, 86.82910
361.6970, 87.08495
362.1791, 87.36453
362.6613, 87.67185
363.1434, 88.01698
363.6255, 88.35902
364.1076, 88.77309
364.5897, 89.31228
365.0718, 90.00349
365.5540, 90.70718
366.0361, 91.40011
366.5182, 92.09155
367.0003, 92.79290
367.4824, 93.58421
367.9645, 94.30624
368.4467, 94.84277
368.9288, 95.16806
369.4109, 95.76275
369.8930, 96.74039
370.3751, 97.90291
370.8572, 99.13335
371.3394, 100.4735
371.8215, 101.7910
372.3036, 103.0714
372.7857, 104.3228
373.2678, 105.5490
373.7499, 106.6026
374.2321, 107.9109
374.7142, 109.7670
375.1963, 112.4101
375.6784, 114.5577
376.1605, 115.9684
376.6426, 117.1743
377.1248, 119.0019
377.6069, 121.5733
378.0890, 124.1319
378.5711, 126.3848
379.0532, 128.4000
379.5353, 130.5389
380.0175, 132.8476
380.4996, 135.1508
380.9817, 137.2766
381.4638, 139.2344
381.9459, 141.2396
382.4280, 143.4332
382.9102, 145.5346
383.3923, 146.8676
383.8744, 147.4936
384.3565, 147.9331
384.8386, 148.7493
385.3207, 149.5822
385.8029, 149.6074
386.2850, 148.6797
386.7671, 147.2882
387.2492, 145.8736
387.7313, 144.3721
388.2134, 142.6634
388.6956, 140.6370
389.1777, 138.4444
389.6598, 136.1812
390.1419, 133.8612
390.6240, 131.5110
391.1061, 129.0703
391.5883, 126.6190
392.0704, 124.2123
392.5525, 121.7023
393.0346, 119.4735
393.5167, 117.8289
393.9988, 116.5945
394.4810, 115.2590
394.9631, 113.3004
395.4452, 111.4636
395.9273, 110.1695
396.4094, 109.6272
396.8915, 109.1109
397.3737, 108.4718
397.8558, 107.7916
398.3379, 107.1713
398.8200, 106.4120
399.3021, 105.9347
399.7842, 105.8894
400.2664, 106.2730
400.7485, 106.6547
401.2306, 107.0708
401.7127, 107.4422
402.1948, 107.6929
402.6769, 107.6768
403.1591, 107.8619
403.6412, 108.3307
404.1233, 108.9893
404.6054, 109.5971
405.0875, 110.0846
405.5696, 110.7130
406.0518, 111.6699
406.5339, 112.9723
407.0160, 114.0452
407.4981, 114.8900
407.9802, 115.4805
408.4623, 115.6833
408.9445, 115.5082
409.4266, 115.4080
409.9087, 115.5645
410.3908, 115.8209
410.8729, 115.7813
411.3550, 115.4524
411.8372, 115.0466
412.3193, 114.6998
412.8014, 114.3872
413.2835, 114.0366
413.7656, 113.6235
414.2477, 113.2193
414.7299, 112.8931
415.2120, 112.6347
415.6941, 112.4298
416.1762, 112.3260
416.6583, 112.2301
417.1404, 112.1175
417.6226, 111.9757
418.1047, 111.6343
418.5868, 110.6884
419.0689, 109.6356
419.5510, 108.9635
420.0331, 109.1956
420.5153, 109.3040
420.9974, 108.7917
421.4795, 107.8553
421.9616, 107.0105
422.4437, 106.5439
422.9258, 106.0575
423.4080, 105.3416
423.8901, 104.2624
424.3722, 103.3759
424.8543, 102.7859
425.3364, 102.3826
425.8185, 102.0635
426.3007, 101.8193
426.7828, 101.6651
427.2649, 101.5586
427.7470, 101.5280
428.2291, 101.7828
428.7112, 102.4017
429.1934, 103.1653
429.6755, 103.9562
430.1576, 104.7423
430.6397, 105.6685
431.1218, 106.6854
431.6039, 107.9206
432.0861, 109.7556
432.5682, 112.2437
433.0503, 114.4865
433.5324, 115.9929
434.0145, 117.0670
434.4966, 118.8606
434.9788, 121.3937
435.4609, 124.0548
435.9430, 126.2915
436.4251, 128.2777
436.9072, 130.5424
437.3893, 133.3196
437.8715, 136.0893
438.3536, 138.2325
438.8357, 139.8806
439.3178, 141.3999
439.7999, 143.1873
440.2820, 144.8026
440.7642, 145.7982
441.2463, 146.1561
441.7284, 146.1932
442.2105, 146.1895
442.6926, 145.9032
443.1747, 145.0999
443.6569, 143.6165
444.1390, 141.7173
444.6211, 139.3410
445.1032, 136.5892
445.5853, 133.8324
446.0674, 131.0502
446.5496, 128.3331
447.0317, 125.7336
447.5138, 123.2865
447.9959, 120.8208
448.4780, 118.2452
448.9601, 115.7051
449.4423, 113.2690
449.9244, 110.8195
450.4065, 108.7878
450.8886, 107.3270
451.3707, 106.3339
451.8528, 105.3310
452.3350, 104.3085
452.8171, 103.2839
453.2992, 102.2490
453.7813, 101.1978
454.2634, 100.0976
454.7455, 98.89741
455.2277, 97.77215
455.7098, 96.98327
456.1919, 96.49228
456.6740, 95.97340
457.1561, 95.23689
457.6382, 94.49620
458.1204, 94.25249
458.6025, 94.43613
459.0846, 94.55593
459.5667, 94.18335
460.0488, 93.58891
460.5309, 93.10271
461.0131, 92.76822
461.4952, 92.56940
461.9773, 92.53871
462.4594, 92.63077
462.9415, 92.77962
463.4236, 93.14005
463.9058, 93.38277
464.3879, 93.25294
464.8700, 92.80334
465.3521, 92.52928
465.8342, 92.66792
466.3163, 92.92725
466.7985, 93.15031
467.2806, 93.31053
467.7627, 93.45961
468.2448, 93.65623
468.7269, 93.81574
469.2090, 93.80786
469.6912, 93.52445
470.1733, 93.26976
470.6554, 93.12086
471.1375, 93.06528
471.6196, 92.98209
472.1017, 92.86294
472.5839, 92.73837
473.0660, 92.65263
473.5481, 92.60732
474.0302, 92.43166
474.5123, 92.07931
474.9944, 91.68714
475.4766, 91.49587
475.9587, 91.47063
476.4408, 91.37489
476.9229, 91.00147
477.4050, 90.57232
477.8871, 90.52846
478.3693, 90.82999
478.8514, 91.10815
479.3335, 91.07604
479.8156, 90.88560
480.2977, 90.69117
480.7798, 90.48967
481.2620, 90.39062
481.7441, 90.52409
482.2262, 90.78462
482.7083, 91.01698
483.1904, 91.16330
483.6725, 91.27696
484.1547, 91.42642
484.6368, 91.59497
485.1189, 91.57368
485.6010, 90.97252
486.0831, 90.45723
486.5652, 90.37438
487.0474, 90.93401
487.5295, 91.48730
488.0116, 92.08807
488.4937, 92.63621
488.9758, 93.00606
489.4579, 93.20335
489.9401, 93.17931
490.4222, 92.81031
490.9043, 92.22567
491.3864, 92.04567
491.8685, 92.30911
492.3506, 92.71379
492.8328, 93.09338
493.3149, 93.44655
493.7970, 93.79754
494.2791, 94.16586
494.7612, 94.44689
495.2433, 94.34490
495.7255, 94.05725
496.2076, 94.10432
496.6897, 94.99002
497.1718, 95.98495
497.6539, 96.34452
498.1360, 96.19062
498.6182, 95.99790
499.1003, 95.88129
499.5824, 95.90620
500.0645, 96.17936
500.5466, 96.79348
501.0287, 97.28681
501.5109, 97.40955
501.9930, 97.39878
502.4751, 97.48935
502.9572, 97.84480
503.4393, 98.14079
503.9214, 98.32372
504.4036, 98.41843
504.8857, 98.52757
505.3678, 98.71554
505.8499, 98.80696
506.3320, 98.70711
506.8141, 98.40113
507.2963, 98.15199
507.7784, 97.99285
508.2605, 97.79420
508.7426, 97.35528
509.2247, 96.69910
509.7068, 96.19679
510.1890, 95.96177
510.6711, 95.82636
511.1532, 95.45689
511.6353, 94.91414
512.1174, 94.50065
512.5995, 94.45892
513.0817, 94.58103
513.5638, 94.63226
514.0459, 94.60803
514.5280, 94.56055
515.0101, 94.38203
515.4922, 94.26926
515.9744, 94.44395
516.4565, 95.15607
516.9386, 95.75488
517.4207, 95.97768
517.9028, 95.96397
518.3849, 95.94178
518.8671, 95.85870
519.3492, 95.86678
519.8313, 95.98515
520.3134, 96.21348
520.7955, 96.59577
521.2776, 97.26894
521.7598, 97.89359
522.2419, 98.24425
522.7240, 98.25628
523.2061, 98.33657
523.6882, 98.48457
524.1703, 98.71519
524.6525, 99.07189
525.1346, 99.54927
525.6167, 100.0495
526.0988, 100.5790
526.5809, 101.0727
527.0630, 101.4298
527.5452, 101.6471
528.0273, 101.7161
528.5094, 101.5600
528.9915, 101.2926
529.4736, 101.0461
529.9557, 100.8306
530.4379, 100.5711
530.9200, 100.2686
531.4021, 99.87254
531.8842, 99.31922
532.3663, 98.40622
532.8484, 97.60273
533.3306, 97.09505
533.8127, 96.77145
534.2948, 96.41199
534.7769, 96.00151
535.2590, 95.54214
535.7411, 95.00258
536.2233, 94.39062
536.7054, 93.87128
537.1875, 93.43598
537.6696, 93.12228
538.1517, 93.03138
538.6339, 93.20012
539.1160, 93.06174
539.5981, 92.50132
540.0802, 91.87463
540.5623, 91.64343
541.0444, 91.76345
541.5266, 91.99424
542.0087, 92.35664
542.4908, 92.67928
542.9729, 92.57969
543.4550, 92.17739
543.9371, 91.94844
544.4193, 92.40024
544.9014, 92.97853
545.3835, 93.18430
545.8656, 92.95702
546.3477, 92.73888
546.8298, 92.73479
547.3120, 92.80109
547.7941, 92.81619
548.2762, 92.59812
548.7583, 92.55203
549.2404, 92.81677
549.7225, 93.23677
550.2047, 93.54984
550.6868, 93.71099
551.1689, 93.84772
551.6510, 93.96680
552.1331, 94.08331
552.6152, 94.32223
553.0974, 94.71456
553.5795, 95.08138
554.0616, 95.29514
554.5437, 95.37835
555.0258, 95.42779
555.5079, 95.43739
555.9901, 95.50417
556.4722, 95.80695
556.9543, 96.23611
557.4364, 96.54424
557.9185, 96.56216
558.4006, 96.59713
558.8828, 96.90970
559.3649, 97.42480
559.8470, 97.97610
560.3291, 98.59686
560.8112, 99.14317
561.2933, 99.54358
561.7755, 99.79270
562.2576, 99.98946
562.7397, 100.1427
563.2218, 100.2429
563.7039, 100.2687
564.1860, 100.1438
564.6682, 100.1593
565.1503, 100.3820
565.6324, 100.6650
566.1145, 100.8178
566.5966, 100.8336
567.0787, 100.7963
567.5609, 100.6848
568.0430, 100.5843
568.5251, 100.7246
569.0072, 101.0789
569.4893, 101.4161
569.9714, 101.6097
570.4536, 101.7143
570.9357, 101.7614
571.4178, 101.7614
571.8999, 101.8531
572.3820, 102.2364
572.8641, 102.6869
573.3463, 103.0125
573.8284, 103.1877
574.3105, 103.2182
574.7926, 102.8424
575.2747, 102.4166
575.7568, 102.3986
576.2390, 103.3216
576.7211, 103.9869
577.2032, 104.1971
577.6853, 104.0602
578.1674, 103.8749
578.6495, 103.5287
579.1317, 103.4787
579.6138, 104.0670
580.0959, 105.1788
580.5780, 105.8238
581.0601, 105.9819
581.5422, 105.9603
582.0244, 105.9068
582.5065, 105.8823
582.9886, 106.0923
583.4707, 106.6150
583.9528, 107.1058
584.4349, 107.3340
584.9171, 107.3122
585.3992, 107.0556
585.8813, 106.3271
586.3634, 105.6244
586.8455, 105.2346
587.3276, 105.0336
587.8098, 104.6993
588.2919, 103.9666
588.7740, 103.2984
589.2561, 102.8523
589.7382, 102.6323
590.2203, 102.3330
590.7025, 101.8159
591.1846, 101.4718
591.6667, 101.6700
592.1488, 102.4710
592.6309, 102.8949
593.1130, 102.8363
593.5952, 102.6816
594.0773, 102.9342
594.5594, 103.5021
595.0415, 104.0242
595.5236, 104.4164
596.0057, 104.7245
596.4879, 104.8936
596.9700, 105.0134
597.4521, 105.2933
597.9342, 105.8938
598.4163, 106.6275
598.8984, 107.5099
599.3806, 108.4990
599.8627, 109.2288
