##NAMES=Atencioite
##RRUFFID=R060893
##IDEAL CHEMISTRY=Ca_2_Fe^2+^_3_Mg_2_Be_4_(PO_4_)_6_(OH)_4_&#183;6H_2_O
##LOCALITY=Linópolis, Minas Gerais, Brazil
##OWNER=RRUFF
##SOURCE=Michael Scott
##DESCRIPTION=Elongated, spherically radiating gray to pale yellow-green crystals, associated with prismatic orange ushkovite and dark green rockbridgeite.
##STATUS=The identification of this mineral is confirmed by single-crystal X-ray diffraction and chemical analysis.
##URL=rruff.info/R060893
##MEASURED CHEMISTRY=Ca_1.94_(Fe^2+^_2.35_Mg_0.40_Mn_0.20_Al_0.04_)_2.99_Mg_2_Be_4_(PO_4_)_6_(OH)_4_·6H_2_O ; Light phase. The dark phase is Ca_1.95_(Fe^2+^_1.69_Mg_0.97_Mn_0.12_Al_0.09_)_2.87_Mg_2_Be_4_(PO_4_)_6_(OH)_4_·6H_2_O.   The Be content is assumed.
95.41687, 395.2935
95.89898, 392.2394
96.38110, 389.2780
96.86321, 387.1590
97.34533, 385.9431
97.82745, 384.4341
98.30956, 382.2006
98.79168, 379.2121
99.27380, 376.0019
99.75591, 372.2844
100.2380, 368.2707
100.7201, 364.6705
101.2023, 361.8449
101.6844, 359.8000
102.1665, 358.1287
102.6486, 356.9889
103.1307, 356.0433
103.6128, 355.0039
104.0950, 353.8389
104.5771, 352.6191
105.0592, 351.0511
105.5413, 349.3773
106.0234, 348.0469
106.5055, 347.4229
106.9877, 347.3004
107.4698, 346.8406
107.9519, 345.6998
108.4340, 344.5842
108.9161, 343.6526
109.3982, 342.9455
109.8804, 342.5432
110.3625, 342.5840
110.8446, 343.1735
111.3267, 343.6265
111.8088, 344.1082
112.2909, 344.3418
112.7731, 344.0782
113.2552, 343.3390
113.7373, 342.4021
114.2194, 341.6732
114.7015, 341.3001
115.1836, 340.8755
115.6658, 340.6954
116.1479, 340.3401
116.6300, 339.3383
117.1121, 337.5027
117.5942, 335.1159
118.0763, 332.7695
118.5584, 330.2948
119.0406, 328.1413
119.5227, 326.4973
120.0048, 325.2852
120.4869, 324.3268
120.9690, 323.6900
121.4511, 323.1530
121.9333, 322.3090
122.4154, 321.1201
122.8975, 319.6871
123.3796, 318.0196
123.8617, 316.0768
124.3438, 314.1966
124.8260, 312.2486
125.3081, 310.5619
125.7902, 309.6007
126.2723, 309.7492
126.7544, 310.4497
127.2365, 310.4211
127.7187, 309.2569
128.2008, 307.9853
128.6829, 306.7255
129.1650, 305.6023
129.6471, 304.8242
130.1292, 304.5835
130.6114, 304.8258
131.0935, 304.7321
131.5756, 303.9562
132.0577, 303.1584
132.5398, 302.3901
133.0219, 301.7207
133.5041, 301.2463
133.9862, 301.0476
134.4683, 301.1459
134.9504, 301.4701
135.4325, 302.1889
135.9146, 302.9523
136.3968, 303.5092
136.8789, 303.8550
137.3610, 304.2116
137.8431, 304.8207
138.3252, 305.7300
138.8073, 306.7509
139.2895, 307.7241
139.7716, 308.8632
140.2537, 310.6266
140.7358, 313.2685
141.2179, 315.9007
141.7000, 317.2260
142.1821, 317.3843
142.6643, 317.3419
143.1464, 317.6095
143.6285, 318.0196
144.1106, 317.9783
144.5927, 317.3551
145.0748, 316.1621
145.5570, 314.3794
146.0391, 312.0204
146.5212, 309.5789
147.0033, 307.4616
147.4854, 305.6888
147.9675, 304.0132
148.4497, 302.4402
148.9318, 300.9078
149.4139, 299.3480
149.8960, 297.7608
150.3781, 296.2362
150.8602, 294.8980
151.3424, 293.6701
151.8245, 292.8207
152.3066, 292.6792
152.7887, 292.6717
153.2708, 292.2835
153.7529, 291.3350
154.2351, 290.0980
154.7172, 289.2626
155.1993, 289.5545
155.6814, 289.3851
156.1635, 288.2207
156.6456, 286.6934
157.1278, 285.6098
157.6099, 285.3907
158.0920, 285.8008
158.5741, 285.8444
159.0562, 285.5283
159.5383, 284.9092
160.0205, 283.6083
160.5026, 281.9751
160.9847, 280.8717
161.4668, 280.9276
161.9489, 281.8319
162.4310, 282.1146
162.9131, 281.3683
163.3953, 280.4524
163.8774, 279.7479
164.3595, 279.2570
164.8416, 279.0301
165.3237, 279.1751
165.8058, 279.6169
166.2880, 280.1540
166.7701, 280.9303
167.2522, 281.6679
167.7343, 281.9825
168.2164, 281.7864
168.6985, 281.5815
169.1807, 281.6986
169.6628, 281.9726
170.1449, 282.2297
170.6270, 282.4613
171.1091, 282.6023
171.5912, 282.4457
172.0734, 281.7537
172.5555, 281.2056
173.0376, 281.0785
173.5197, 281.2295
174.0018, 281.4626
174.4839, 281.6656
174.9661, 281.8568
175.4482, 282.1571
175.9303, 282.8422
176.4124, 283.3159
176.8945, 283.1701
177.3766, 282.7172
177.8588, 282.4950
178.3409, 282.9059
178.8230, 283.9562
179.3051, 285.1020
179.7872, 286.5836
180.2693, 287.9264
180.7515, 288.9619
181.2336, 289.7279
181.7157, 290.3195
182.1978, 290.7860
182.6799, 291.0864
183.1620, 291.6880
183.6441, 293.1752
184.1263, 294.3860
184.6084, 294.7403
185.0905, 294.2448
185.5726, 293.2030
186.0547, 291.7908
186.5368, 289.9269
187.0190, 288.5501
187.5011, 288.1889
187.9832, 287.9341
188.4653, 287.0762
188.9474, 285.5545
189.4296, 283.8173
189.9117, 282.1758
190.3938, 280.6586
190.8759, 279.5423
191.3580, 279.0794
191.8401, 278.9388
192.3223, 278.7397
192.8044, 278.4185
193.2865, 278.1495
193.7686, 278.0480
194.2507, 278.1094
194.7328, 278.4508
195.2150, 279.2663
195.6971, 280.3614
196.1792, 281.3407
196.6613, 282.1133
197.1434, 282.9014
197.6255, 283.8076
198.1077, 284.8432
198.5898, 286.0556
199.0719, 287.6046
199.5540, 289.3909
200.0361, 290.9225
200.5182, 291.8853
201.0004, 293.0417
201.4825, 295.0341
201.9646, 297.5430
202.4467, 299.7568
202.9288, 301.0424
203.4109, 301.4544
203.8930, 301.8422
204.3752, 302.0701
204.8573, 302.4284
205.3394, 303.2545
205.8215, 304.3246
206.3036, 305.1131
206.7857, 305.0946
207.2679, 304.2129
207.7500, 303.6292
208.2321, 303.6839
208.7142, 303.7423
209.1963, 303.4638
209.6784, 302.9897
210.1606, 302.7196
210.6427, 303.0249
211.1248, 303.9573
211.6069, 304.9949
212.0890, 306.4746
212.5711, 307.7388
213.0533, 308.4776
213.5354, 308.7439
214.0175, 308.8227
214.4996, 309.0069
214.9817, 309.3940
215.4638, 309.1108
215.9460, 307.7451
216.4281, 306.2390
216.9102, 305.1445
217.3923, 304.4010
217.8744, 303.5154
218.3565, 302.0255
218.8387, 299.8441
219.3208, 297.6923
219.8029, 295.4611
220.2850, 293.3310
220.7671, 291.3326
221.2492, 289.4991
221.7314, 288.0029
222.2135, 287.1270
222.6956, 286.9051
223.1777, 286.0612
223.6598, 283.8683
224.1419, 281.5896
224.6240, 280.2899
225.1062, 279.9883
225.5883, 279.8065
226.0704, 278.9050
226.5525, 277.4463
227.0346, 276.6476
227.5167, 277.2707
227.9989, 278.1586
228.4810, 278.2019
228.9631, 277.3324
229.4452, 276.2347
229.9273, 275.1932
230.4094, 274.3174
230.8916, 273.9030
231.3737, 274.5276
231.8558, 275.3480
232.3379, 275.2939
232.8200, 274.2442
233.3021, 273.1661
233.7843, 272.5782
234.2664, 272.3814
234.7485, 272.5194
235.2306, 273.2589
235.7127, 274.0907
236.1948, 274.2660
236.6770, 273.6543
237.1591, 272.9258
237.6412, 272.4070
238.1233, 271.9682
238.6054, 271.4458
239.0875, 270.7331
239.5697, 269.9973
240.0518, 269.5909
240.5339, 269.6826
241.0160, 269.5500
241.4981, 268.6853
241.9802, 267.5654
242.4624, 266.6058
242.9445, 265.9402
243.4266, 265.5205
243.9087, 265.3427
244.3908, 265.5711
244.8729, 265.5808
245.3550, 264.9925
245.8372, 264.2357
246.3193, 263.6635
246.8014, 263.3954
247.2835, 263.3256
247.7656, 263.3327
248.2477, 263.5830
248.7299, 263.4841
249.2120, 262.5202
249.6941, 261.4544
250.1762, 260.9310
250.6583, 261.1358
251.1404, 261.6842
251.6226, 261.9413
252.1047, 261.7950
252.5868, 261.5945
253.0689, 261.2170
253.5510, 260.9062
254.0331, 260.9032
254.5153, 261.2430
254.9974, 261.6881
255.4795, 261.8714
255.9616, 261.6718
256.4437, 261.4565
256.9258, 261.1535
257.4080, 260.8979
257.8901, 260.8660
258.3722, 261.0457
258.8543, 261.1955
259.3364, 260.9970
259.8185, 260.4004
260.3007, 259.5318
260.7828, 257.9954
261.2649, 256.5365
261.7470, 255.7464
262.2291, 255.6042
262.7112, 255.5625
263.1934, 254.9436
263.6755, 253.4482
264.1576, 252.4820
264.6397, 252.3661
265.1218, 252.4001
265.6039, 252.2525
266.0861, 251.8870
266.5682, 251.3523
267.0503, 250.5867
267.5324, 249.3826
268.0145, 249.4697
268.4966, 252.3009
268.9788, 254.8377
269.4609, 255.4194
269.9430, 254.2678
270.4251, 252.6054
270.9072, 251.3593
271.3893, 250.5428
271.8715, 250.0769
272.3536, 250.2147
272.8357, 250.3742
273.3178, 250.3370
273.7999, 250.1196
274.2820, 249.8332
274.7642, 249.5690
275.2463, 249.3042
275.7284, 248.7395
276.2105, 247.6322
276.6926, 246.5616
277.1747, 245.6847
277.6568, 244.9860
278.1389, 244.4187
278.6211, 243.9595
279.1032, 243.6079
279.5853, 243.3765
280.0674, 243.5061
280.5495, 243.4532
281.0316, 243.0082
281.5138, 242.2993
281.9959, 241.5493
282.4780, 240.8552
282.9601, 240.1720
283.4422, 239.3816
283.9243, 238.3718
284.4065, 237.4757
284.8886, 236.7516
285.3707, 236.1846
285.8528, 235.7690
286.3349, 235.5089
286.8170, 235.3638
287.2992, 235.3076
287.7813, 235.4262
288.2634, 235.3440
288.7455, 234.8246
289.2276, 234.1435
289.7097, 233.6220
290.1919, 233.3323
290.6740, 233.2019
291.1561, 233.2095
291.6382, 233.3980
292.1203, 233.3524
292.6024, 232.7319
293.0846, 232.0276
293.5667, 231.8210
294.0488, 232.1750
294.5309, 232.5315
295.0130, 232.3397
295.4951, 231.5826
295.9773, 230.9677
296.4594, 230.5474
296.9415, 230.2556
297.4236, 229.9996
297.9057, 229.7917
298.3878, 229.8064
298.8700, 230.2631
299.3521, 231.0648
299.8342, 231.5605
300.3163, 231.5180
300.7984, 231.3841
301.2805, 231.3616
301.7627, 231.4539
302.2448, 231.6685
302.7269, 232.0336
303.2090, 232.5141
303.6911, 233.0285
304.1732, 233.8341
304.6554, 234.2841
305.1375, 233.7824
305.6196, 232.6852
306.1017, 231.9130
306.5838, 231.8266
307.0659, 232.2029
307.5481, 232.6608
308.0302, 233.2142
308.5123, 233.7720
308.9944, 234.3424
309.4765, 234.8904
309.9586, 235.2883
310.4408, 235.4571
310.9229, 235.6661
311.4050, 236.3518
311.8871, 237.5262
312.3692, 238.6061
312.8513, 239.7167
313.3335, 240.5606
313.8156, 240.6068
314.2977, 239.7483
314.7798, 238.8050
315.2619, 238.5933
315.7440, 239.0617
316.2262, 239.2852
316.7083, 239.0264
317.1904, 238.6105
317.6725, 238.2649
318.1546, 238.0013
318.6367, 237.8251
319.1188, 237.8046
319.6010, 237.8650
320.0831, 237.6857
320.5652, 237.1316
321.0473, 236.4819
321.5294, 235.8449
322.0115, 235.2302
322.4937, 234.6759
322.9758, 234.2348
323.4579, 233.8288
323.9400, 233.2469
324.4221, 232.3599
324.9042, 231.5997
325.3864, 231.2256
325.8685, 231.0668
326.3506, 230.8083
326.8327, 230.3549
327.3148, 229.7589
327.7969, 229.0151
328.2791, 228.0434
328.7612, 227.3740
329.2433, 227.2461
329.7254, 227.4096
330.2075, 227.6084
330.6896, 227.7986
331.1718, 227.9986
331.6539, 228.2976
332.1360, 228.7019
332.6181, 228.7042
333.1002, 227.8232
333.5823, 226.8881
334.0645, 226.5307
334.5466, 226.7344
335.0287, 227.0948
335.5108, 227.3641
335.9929, 227.5483
336.4750, 227.7108
336.9572, 227.7210
337.4393, 227.8456
337.9214, 228.3710
338.4035, 229.1030
338.8856, 229.5469
339.3677, 229.4414
339.8499, 228.9843
340.3320, 228.6983
340.8141, 228.6082
341.2962, 228.6076
341.7783, 228.7412
342.2604, 228.9305
342.7426, 229.1033
343.2247, 229.2390
343.7068, 229.2792
344.1889, 229.1093
344.6710, 228.5758
345.1531, 228.3097
345.6353, 228.5542
346.1174, 228.9044
346.5995, 229.1601
347.0816, 229.2535
347.5637, 229.0228
348.0458, 228.2432
348.5280, 226.8681
349.0101, 225.9985
349.4922, 225.8850
349.9743, 225.9299
350.4564, 225.9241
350.9385, 225.8798
351.4207, 225.8999
351.9028, 226.0645
352.3849, 226.2945
352.8670, 226.2382
353.3491, 225.7683
353.8312, 225.1745
354.3134, 224.2020
354.7955, 223.2374
355.2776, 222.8108
355.7597, 223.0939
356.2418, 223.6951
356.7239, 223.9492
357.2061, 223.6346
357.6882, 223.4005
358.1703, 223.1880
358.6524, 223.0883
359.1345, 223.2771
359.6166, 223.6958
360.0987, 224.0207
360.5808, 223.8909
361.0630, 223.2202
361.5451, 222.9288
362.0272, 223.4241
362.5093, 223.8485
362.9914, 223.9271
363.4735, 223.7228
363.9557, 223.3418
364.4378, 222.8190
364.9199, 222.2589
365.4020, 222.1240
365.8841, 222.8245
366.3662, 223.4097
366.8484, 223.6880
367.3305, 223.8448
367.8126, 224.0208
368.2947, 224.2722
368.7768, 224.6447
369.2589, 225.2510
369.7411, 226.2261
370.2232, 227.0643
370.7053, 227.7525
371.1874, 228.3093
371.6695, 228.7186
372.1516, 228.9961
372.6338, 229.1846
373.1159, 229.2251
373.5980, 229.1343
374.0801, 229.5313
374.5622, 230.6366
375.0443, 232.0130
375.5265, 233.8643
376.0086, 235.7982
376.4907, 237.1247
376.9728, 237.3887
377.4549, 237.1662
377.9370, 237.7732
378.4192, 239.4513
378.9013, 241.2866
379.3834, 243.2494
379.8655, 245.1384
380.3476, 246.7490
380.8297, 248.0444
381.3119, 249.2532
381.7940, 250.6934
382.2761, 252.3571
382.7582, 253.6121
383.2403, 254.0808
383.7224, 254.4660
384.2046, 255.4561
384.6867, 256.8257
385.1688, 257.7763
385.6509, 257.6706
386.1330, 256.8759
386.6151, 256.2610
387.0973, 255.9292
387.5794, 255.4068
388.0615, 254.3301
388.5436, 252.9034
389.0257, 251.3817
389.5078, 249.8087
389.9900, 248.1524
390.4721, 246.2758
390.9542, 244.2226
391.4363, 242.4164
391.9184, 241.0510
392.4005, 239.9316
392.8827, 238.8161
393.3648, 237.7152
393.8469, 236.5316
394.3290, 235.0408
394.8111, 233.5078
395.2932, 232.4210
395.7754, 231.8684
396.2575, 231.4797
396.7396, 230.9520
397.2217, 230.2958
397.7038, 229.6635
398.1859, 228.7602
398.6681, 228.1413
399.1501, 228.2784
399.6323, 229.0362
400.1144, 229.9431
400.5965, 230.7990
401.0786, 231.5928
401.5607, 232.2622
402.0428, 232.6879
402.5250, 233.2152
403.0071, 233.6943
403.4892, 234.4005
403.9713, 235.7305
404.4534, 237.7455
404.9355, 240.1172
405.4177, 242.5605
405.8998, 245.2220
406.3819, 247.0132
406.8640, 247.2285
407.3461, 247.3580
407.8282, 248.1514
408.3104, 249.4751
408.7925, 250.8616
409.2746, 252.0440
409.7567, 253.0361
410.2388, 253.9348
410.7209, 255.1261
411.2031, 255.6667
411.6852, 254.9139
412.1673, 253.7998
412.6494, 253.2805
413.1315, 253.5699
413.6136, 254.0908
414.0958, 253.9793
414.5779, 252.9246
415.0600, 252.4913
415.5421, 253.3389
416.0242, 254.2130
416.5063, 254.6688
416.9885, 254.7586
417.4706, 254.7116
417.9527, 254.6852
418.4348, 254.6226
418.9169, 254.3469
419.3990, 253.9133
419.8812, 253.1304
420.3633, 251.7622
420.8454, 250.1429
421.3275, 248.6741
421.8096, 247.4687
422.2917, 245.9982
422.7739, 243.5445
423.2560, 240.1648
423.7381, 236.9353
424.2202, 233.7893
424.7023, 231.1773
425.1844, 229.5599
425.6666, 228.7281
426.1487, 227.9255
426.6308, 226.7879
427.1129, 225.5175
427.5950, 224.2761
428.0771, 223.0293
428.5593, 222.3497
429.0414, 222.8389
429.5235, 223.9704
430.0056, 224.4856
430.4877, 224.0761
430.9698, 223.7493
431.4520, 224.0261
431.9341, 224.7330
432.4162, 225.5354
432.8983, 226.3475
433.3804, 227.2532
433.8625, 228.4063
434.3447, 229.8584
434.8268, 231.0804
435.3089, 231.6350
435.7910, 232.3111
436.2731, 233.7065
436.7552, 235.6962
437.2374, 237.8201
437.7195, 239.8457
438.2016, 241.7324
438.6837, 243.2862
439.1658, 244.1686
439.6479, 245.1506
440.1301, 246.5334
440.6122, 247.8934
441.0943, 248.9174
441.5764, 249.4951
442.0585, 249.5567
442.5406, 248.9754
443.0227, 247.6776
443.5049, 246.2722
443.9870, 244.7245
444.4691, 243.1082
444.9512, 241.4607
445.4333, 239.7664
445.9154, 237.9704
446.3976, 236.0542
446.8797, 234.0446
447.3618, 231.9325
447.8439, 229.5589
448.3260, 227.5638
448.8081, 226.3230
449.2903, 225.3014
449.7724, 224.2444
450.2545, 223.1047
450.7366, 221.8567
451.2187, 220.3118
451.7008, 218.6078
452.1830, 217.4471
452.6651, 217.0392
453.1472, 216.6926
453.6293, 215.8847
454.1114, 214.9083
454.5935, 214.2137
455.0757, 214.0219
455.5578, 213.8869
456.0399, 213.4177
456.5220, 212.6816
457.0041, 211.9213
457.4862, 211.1347
457.9684, 210.4997
458.4505, 210.4594
458.9326, 211.0285
459.4147, 211.0730
459.8968, 209.7324
460.3789, 208.2624
460.8611, 207.8841
461.3432, 208.4934
461.8253, 209.1471
462.3074, 209.2763
462.7895, 209.0030
463.2716, 208.8309
463.7538, 208.9243
464.2359, 208.8989
464.7180, 208.5407
465.2001, 208.1343
465.6822, 208.0000
466.1643, 208.1825
466.6465, 208.4686
467.1286, 208.6221
467.6107, 208.6222
468.0928, 208.6905
468.5749, 208.9042
469.0570, 209.1017
469.5392, 209.2852
470.0213, 209.4111
470.5034, 209.3900
470.9855, 209.1763
471.4676, 208.9010
471.9497, 208.8766
472.4319, 209.2477
472.9140, 209.2322
473.3961, 208.3389
473.8782, 207.3439
474.3603, 206.7307
474.8424, 206.4333
475.3246, 206.0504
475.8067, 205.0782
476.2888, 203.9595
476.7709, 203.8344
477.2530, 204.8877
477.7351, 205.7719
478.2173, 205.7621
478.6994, 205.2510
479.1815, 204.8336
479.6636, 204.4968
480.1457, 204.3865
480.6278, 204.7959
481.1100, 205.4260
481.5920, 205.6728
482.0742, 205.4162
482.5563, 205.1129
483.0384, 205.2491
483.5205, 205.7971
484.0026, 205.8044
484.4847, 204.5265
484.9669, 203.5459
485.4490, 203.8040
485.9311, 204.7321
486.4132, 205.2845
486.8953, 205.0740
487.3774, 204.5357
487.8596, 204.3903
488.3417, 204.8104
488.8238, 205.1589
489.3059, 205.5239
489.7880, 205.7485
490.2701, 205.6180
490.7523, 205.2892
491.2344, 205.1161
491.7165, 205.3299
492.1986, 205.7894
492.6807, 206.1311
493.1628, 206.3781
493.6450, 206.4424
494.1271, 206.0461
494.6092, 205.6473
495.0913, 205.6333
495.5734, 205.9821
496.0555, 206.2642
496.5377, 206.0288
497.0198, 205.5127
497.5019, 205.4219
497.9840, 205.8567
498.4661, 206.2992
498.9482, 206.3828
499.4304, 206.3311
499.9125, 206.5882
500.3946, 207.2968
500.8767, 208.0199
501.3588, 208.5039
501.8409, 208.8698
502.3231, 209.4098
502.8052, 210.1863
503.2873, 210.8444
503.7694, 211.0057
504.2515, 210.6484
504.7336, 210.4575
505.2158, 210.5849
505.6979, 210.6891
506.1800, 210.7529
506.6621, 210.6839
507.1442, 210.2720
507.6263, 209.4590
508.1085, 208.5409
508.5906, 207.9820
509.0727, 207.8687
509.5548, 207.7986
510.0369, 208.1138
510.5190, 208.1264
511.0012, 207.3579
511.4833, 206.1188
511.9654, 205.0004
512.4475, 204.2969
512.9296, 203.8482
513.4117, 203.4032
513.8939, 202.9707
514.3760, 202.4572
514.8581, 201.7802
515.3402, 201.0736
515.8223, 200.3382
516.3044, 199.6239
516.7866, 199.2386
517.2687, 199.6154
517.7508, 200.2160
518.2329, 200.2879
518.7150, 199.8613
519.1971, 199.4829
519.6793, 199.4048
520.1614, 199.5350
520.6435, 199.6970
521.1256, 199.9337
521.6077, 200.0761
522.0898, 199.8834
522.5720, 199.7313
523.0541, 200.0370
523.5362, 200.7484
524.0183, 201.4636
524.5004, 201.8887
524.9825, 202.0790
525.4647, 202.3378
525.9468, 202.8692
526.4289, 203.1623
526.9110, 202.8769
527.3931, 202.5555
527.8752, 202.7847
528.3574, 203.5320
528.8395, 204.1548
529.3216, 204.0143
529.8037, 203.2473
530.2858, 202.6993
530.7679, 202.4714
531.2501, 202.2322
531.7322, 201.9544
532.2143, 201.5362
532.6964, 200.7573
533.1785, 199.5176
533.6606, 198.3987
534.1428, 197.8701
534.6249, 197.7127
535.1070, 197.4707
535.5891, 197.0860
536.0712, 196.6111
536.5533, 196.0307
537.0355, 195.3911
537.5176, 194.9704
537.9997, 194.9665
538.4818, 194.9167
538.9639, 194.5514
539.4460, 194.1316
539.9282, 194.0520
540.4103, 194.3595
540.8924, 194.7058
541.3745, 194.7216
541.8566, 194.3977
542.3387, 194.0640
542.8209, 193.4250
543.3029, 193.1515
543.7850, 193.8772
544.2672, 194.7961
544.7493, 194.8254
545.2314, 193.7243
545.7135, 192.5306
546.1956, 192.5258
546.6777, 193.5903
547.1599, 194.2834
547.6420, 194.4184
548.1241, 194.4167
548.6062, 194.5284
549.0883, 194.6779
549.5704, 194.7404
550.0526, 194.6885
550.5347, 194.5630
551.0168, 194.2415
551.4989, 193.8908
551.9810, 193.9003
552.4631, 194.3566
552.9453, 194.9746
553.4274, 195.5043
553.9095, 195.9463
554.3916, 196.3872
554.8737, 196.7185
555.3558, 197.1754
555.8380, 198.0556
556.3201, 198.9944
556.8022, 199.4362
557.2843, 199.2907
557.7664, 199.0527
558.2485, 199.2726
558.7307, 199.9561
559.2128, 200.9010
559.6949, 202.4872
560.1770, 203.7650
560.6591, 204.2543
561.1412, 204.3737
561.6234, 204.6685
562.1055, 205.2966
562.5876, 205.8565
563.0697, 205.9329
563.5518, 205.6550
564.0339, 205.5292
564.5161, 205.6874
564.9982, 205.5884
565.4803, 204.6432
565.9624, 203.1169
566.4445, 202.2083
566.9266, 202.3661
567.4088, 202.4963
567.8909, 202.1442
568.3730, 201.5979
568.8551, 201.2503
569.3372, 201.1516
569.8193, 201.0247
570.3015, 200.5829
570.7836, 199.8543
571.2657, 199.4317
571.7478, 199.7293
572.2299, 199.7733
572.7120, 199.2311
573.1942, 198.4938
573.6763, 197.8737
574.1584, 197.4405
574.6405, 197.1656
575.1226, 196.9756
575.6047, 196.9158
576.0869, 197.3281
576.5690, 198.4166
577.0511, 199.0878
577.5332, 198.4541
578.0153, 197.3008
578.4974, 196.9285
578.9796, 197.5101
579.4617, 198.1835
579.9438, 198.7975
580.4259, 199.2317
580.9080, 199.2719
581.3901, 198.9571
581.8723, 198.5777
582.3544, 198.3002
582.8365, 198.1274
583.3186, 198.0701
