##NAMES=Aubertite
##RRUFFID=R060751
##IDEAL CHEMISTRY=Cu^2+^Al(S^6+^O_4_)_2_Cl&#183;14H_2_O
##LOCALITY=Quetena mine, Chuquicamata, Chile
##OWNER=RRUFF
##SOURCE=Bob Jenkins
##DESCRIPTION=Light green massive
##STATUS=The identification of this mineral has been made only by X-ray diffraction.
##URL=rruff.info/R060751
120.7725, 154.9875
121.2546, 171.1915
121.7368, 188.2747
122.2189, 203.1286
122.7010, 217.5749
123.1831, 234.4391
123.6652, 256.8120
124.1473, 280.6597
124.6295, 301.1395
125.1116, 318.2146
125.5937, 334.8444
126.0758, 354.1877
126.5579, 375.4223
127.0400, 395.7613
127.5222, 414.3180
128.0043, 431.2557
128.4864, 446.3584
128.9685, 459.1769
129.4506, 471.8939
129.9327, 486.3086
130.4149, 502.5977
130.8970, 522.3112
131.3791, 548.9030
131.8612, 580.8580
132.3433, 607.6177
132.8254, 626.1368
133.3076, 640.7980
133.7897, 661.5048
134.2718, 688.9540
134.7539, 718.6368
135.2360, 747.7449
135.7181, 776.4572
136.2003, 804.0441
136.6824, 830.2587
137.1645, 855.1301
137.6466, 878.3787
138.1287, 900.1224
138.6108, 919.5615
139.0930, 935.8652
139.5751, 949.2991
140.0572, 958.5567
140.5393, 962.9085
141.0214, 962.1689
141.5035, 958.4979
141.9857, 950.3641
142.4678, 940.5113
142.9499, 933.2927
143.4320, 929.6190
143.9141, 927.1166
144.3962, 925.8912
144.8784, 929.1772
145.3605, 925.2881
145.8426, 909.7195
146.3247, 887.2538
146.8068, 871.5162
147.2889, 868.4649
147.7711, 866.4448
148.2532, 860.3539
148.7353, 842.6750
149.2174, 830.3699
149.6995, 825.8032
150.1816, 827.9772
150.6638, 829.7323
151.1459, 830.9554
151.6280, 831.7787
152.1101, 832.2792
152.5922, 833.2624
153.0743, 833.0888
153.5565, 829.8093
154.0386, 823.3021
154.5207, 821.1100
155.0028, 828.1601
155.4849, 838.3397
155.9670, 846.1274
156.4492, 848.6196
156.9313, 850.2620
157.4134, 852.3556
157.8955, 855.0763
158.3776, 857.6777
158.8597, 857.4460
159.3419, 857.4759
159.8240, 862.0459
160.3061, 876.5530
160.7882, 892.8836
161.2703, 907.0049
161.7524, 917.9624
162.2346, 928.4746
162.7167, 939.7395
163.1988, 951.4651
163.6809, 962.8177
164.1630, 975.6978
164.6451, 986.9137
165.1273, 993.7221
165.6094, 993.6718
166.0915, 992.4581
166.5736, 992.6172
167.0557, 994.1810
167.5379, 997.2682
168.0200, 1001.546
168.5021, 1007.502
168.9842, 1015.644
169.4663, 1026.267
169.9484, 1038.966
170.4306, 1055.170
170.9127, 1074.178
171.3948, 1091.439
171.8769, 1104.055
172.3590, 1112.692
172.8411, 1118.175
173.3233, 1116.617
173.8054, 1114.349
174.2875, 1118.556
174.7696, 1129.335
175.2517, 1142.736
175.7338, 1156.419
176.2160, 1170.237
176.6981, 1183.798
177.1802, 1199.115
177.6623, 1213.297
178.1444, 1220.508
178.6265, 1219.793
179.1087, 1217.450
179.5908, 1222.451
180.0729, 1232.262
180.5550, 1237.783
181.0371, 1227.277
181.5192, 1209.540
182.0014, 1206.952
182.4835, 1223.901
182.9656, 1246.593
183.4477, 1257.937
183.9298, 1258.597
184.4119, 1254.628
184.8941, 1247.363
185.3762, 1237.904
185.8583, 1230.981
186.3404, 1228.085
186.8225, 1226.027
187.3046, 1220.022
187.7868, 1210.117
188.2689, 1195.619
188.7510, 1172.790
189.2331, 1143.551
189.7152, 1120.428
190.1973, 1107.547
190.6795, 1100.223
191.1616, 1086.823
191.6437, 1066.922
192.1258, 1045.570
192.6079, 1023.296
193.0900, 1000.597
193.5722, 990.6273
194.0543, 1002.573
194.5364, 1027.165
195.0185, 1027.331
195.5006, 999.5845
195.9827, 963.4628
196.4649, 936.5170
196.9470, 918.6116
197.4291, 904.5305
197.9112, 894.0733
198.3933, 886.5929
198.8754, 877.5948
199.3576, 866.8789
199.8397, 855.2969
200.3218, 842.8026
200.8039, 828.8693
201.2860, 818.8453
201.7681, 816.0530
202.2503, 820.1422
202.7324, 818.8394
203.2145, 810.1552
203.6966, 799.7393
204.1787, 795.3080
204.6608, 797.7856
205.1430, 802.3666
205.6251, 808.4107
206.1072, 816.2568
206.5893, 820.8125
207.0714, 821.2716
207.5535, 819.4390
208.0357, 817.6006
208.5178, 815.0048
208.9999, 814.8253
209.4820, 819.2922
209.9641, 829.7990
210.4462, 836.9800
210.9284, 839.8882
211.4105, 840.2494
211.8926, 841.1920
212.3747, 842.4081
212.8568, 844.9668
213.3389, 849.7187
213.8211, 857.3957
214.3032, 864.5784
214.7853, 871.7628
215.2674, 878.1981
215.7495, 881.3820
216.2316, 879.6095
216.7138, 878.0215
217.1959, 878.8356
217.6780, 881.9474
218.1601, 888.2322
218.6422, 899.6717
219.1243, 913.7972
219.6065, 922.3535
220.0886, 923.1435
220.5707, 921.8943
221.0528, 921.6484
221.5349, 922.8396
222.0170, 923.9217
222.4992, 924.9755
222.9813, 925.8553
223.4634, 925.8284
223.9455, 924.0969
224.4276, 922.5957
224.9097, 922.6422
225.3919, 925.0597
225.8740, 926.9611
226.3561, 927.3027
226.8382, 926.7504
227.3203, 929.1216
227.8024, 934.4469
228.2846, 942.6208
228.7667, 954.6802
229.2488, 974.4366
229.7309, 989.1061
230.2130, 995.0991
230.6951, 993.8457
231.1773, 997.2521
231.6594, 1007.539
232.1415, 1019.854
232.6236, 1030.599
233.1057, 1038.297
233.5878, 1047.375
234.0700, 1058.249
234.5521, 1070.858
235.0342, 1085.651
235.5163, 1104.469
235.9984, 1123.321
236.4805, 1138.458
236.9627, 1145.617
237.4448, 1157.598
237.9269, 1180.040
238.4090, 1212.162
238.8911, 1229.466
239.3732, 1221.132
239.8554, 1209.418
240.3375, 1214.252
240.8196, 1245.814
241.3017, 1274.428
241.7838, 1294.309
242.2659, 1305.422
242.7481, 1322.709
243.2302, 1350.917
243.7123, 1380.488
244.1944, 1402.451
244.6765, 1413.078
245.1586, 1422.903
245.6408, 1431.880
246.1229, 1439.974
246.6050, 1457.004
247.0871, 1489.304
247.5692, 1523.952
248.0513, 1548.956
248.5335, 1562.195
249.0156, 1569.705
249.4977, 1570.953
249.9798, 1565.780
250.4619, 1562.800
250.9440, 1562.158
251.4262, 1563.505
251.9083, 1566.906
252.3904, 1573.981
252.8725, 1579.902
253.3546, 1584.018
253.8367, 1586.372
254.3189, 1585.871
254.8010, 1581.501
255.2831, 1575.453
255.7652, 1570.189
256.2473, 1567.155
256.7295, 1561.633
257.2116, 1551.781
257.6937, 1537.581
258.1758, 1525.151
258.6579, 1513.328
259.1400, 1504.703
259.6222, 1503.298
260.1043, 1513.745
260.5864, 1519.542
261.0685, 1515.442
261.5506, 1501.589
262.0327, 1491.780
262.5149, 1486.683
262.9970, 1484.828
263.4791, 1485.977
263.9612, 1492.685
264.4433, 1494.767
264.9254, 1487.969
265.4076, 1472.767
265.8897, 1463.918
266.3718, 1463.184
266.8539, 1465.765
267.3360, 1466.837
267.8181, 1465.886
268.3003, 1465.377
268.7824, 1466.751
269.2645, 1469.642
269.7466, 1467.585
270.2287, 1458.916
270.7108, 1448.634
271.1930, 1442.714
271.6751, 1443.045
272.1572, 1438.622
272.6393, 1424.212
273.1214, 1401.571
273.6035, 1392.347
274.0857, 1401.630
274.5678, 1411.049
275.0499, 1400.188
275.5320, 1365.663
276.0141, 1334.182
276.4962, 1312.044
276.9784, 1297.774
277.4605, 1283.190
277.9426, 1268.177
278.4247, 1253.136
278.9068, 1239.449
279.3889, 1227.387
279.8711, 1212.356
280.3532, 1192.553
280.8353, 1169.166
281.3174, 1146.516
281.7995, 1124.555
282.2816, 1104.626
282.7638, 1089.274
283.2459, 1078.402
283.7280, 1065.781
284.2101, 1049.990
284.6922, 1031.618
285.1743, 1010.744
285.6565, 986.9614
286.1386, 966.1520
286.6207, 955.1974
287.1028, 953.0640
287.5849, 949.4858
288.0670, 942.1975
288.5492, 932.5578
289.0313, 923.3188
289.5134, 914.5508
289.9955, 906.5767
290.4776, 900.1420
290.9597, 894.9396
291.4419, 889.1289
291.9240, 882.0557
292.4061, 874.6418
292.8882, 868.4403
293.3703, 863.4702
293.8524, 859.4814
294.3346, 854.5062
294.8167, 850.1936
295.2988, 852.0983
295.7809, 863.1227
296.2630, 877.1964
296.7451, 886.0713
297.2273, 890.0843
297.7094, 891.9552
298.1915, 894.2000
298.6736, 895.4984
299.1557, 893.0487
299.6378, 886.1245
300.1200, 876.0859
300.6021, 863.0205
301.0842, 847.6531
301.5663, 832.7146
302.0484, 820.0864
302.5305, 808.7548
303.0127, 797.8027
303.4948, 787.2662
303.9769, 776.1708
304.4590, 762.2803
304.9411, 746.7909
305.4232, 732.8111
305.9054, 722.5689
306.3875, 714.3708
306.8696, 706.2595
307.3517, 697.7014
307.8338, 690.9698
308.3159, 689.8906
308.7981, 691.9037
309.2802, 692.0665
309.7623, 684.7704
310.2444, 676.8779
310.7265, 673.5527
311.2086, 675.5249
311.6908, 680.0988
312.1729, 688.4891
312.6550, 697.9667
313.1371, 704.5002
313.6192, 701.7715
314.1013, 699.3029
314.5835, 703.4086
315.0656, 714.8824
315.5477, 725.3072
316.0298, 728.0034
316.5119, 728.7485
316.9940, 733.9139
317.4762, 751.1855
317.9583, 767.9291
318.4404, 779.2446
318.9225, 785.0062
319.4046, 788.8673
319.8867, 788.8806
320.3689, 788.9371
320.8510, 792.2675
321.3331, 806.5419
321.8152, 816.9323
322.2973, 819.5059
322.7794, 814.6537
323.2616, 807.4164
323.7437, 795.8005
324.2258, 783.7810
324.7079, 773.8308
325.1900, 768.8627
325.6721, 762.9265
326.1543, 754.1934
326.6364, 743.5079
327.1185, 735.3245
327.6006, 732.9389
328.0827, 730.4604
328.5648, 725.0942
329.0470, 711.5388
329.5291, 702.7882
330.0112, 702.3635
330.4933, 706.6396
330.9754, 705.1389
331.4576, 694.8924
331.9397, 682.5238
332.4218, 669.6318
332.9039, 653.1531
333.3860, 644.4404
333.8681, 646.8424
334.3503, 655.1979
334.8324, 660.2308
335.3145, 662.0810
335.7966, 660.1949
336.2787, 653.9018
336.7608, 642.8299
337.2430, 629.9438
337.7251, 614.5201
338.2072, 598.7473
338.6893, 585.3942
339.1714, 574.4658
339.6535, 566.6373
340.1357, 563.4536
340.6178, 564.3658
341.0999, 561.9750
341.5820, 555.6240
342.0641, 547.9265
342.5462, 541.0175
343.0284, 534.9547
343.5105, 530.2976
343.9926, 528.3308
344.4747, 527.4901
344.9568, 521.8168
345.4389, 510.9559
345.9211, 499.9658
346.4032, 492.8590
346.8853, 489.2412
347.3674, 488.1400
347.8495, 490.8283
348.3316, 493.9801
348.8138, 490.2446
349.2959, 480.3346
349.7780, 471.4937
350.2601, 468.7091
350.7422, 470.3443
351.2243, 473.8553
351.7065, 480.0132
352.1886, 484.9596
352.6707, 483.4303
353.1528, 476.8571
353.6349, 469.9960
354.1170, 462.7694
354.5992, 457.7721
355.0813, 459.5308
355.5634, 469.8855
356.0455, 479.0439
356.5276, 478.3251
357.0097, 471.6583
357.4919, 465.9202
357.9740, 464.2367
358.4561, 464.1555
358.9382, 464.6652
359.4203, 465.7497
359.9024, 465.8427
360.3846, 461.7674
360.8667, 457.2430
361.3488, 456.1823
361.8309, 463.3103
362.3130, 470.6935
362.7951, 475.5702
363.2773, 478.0700
363.7594, 480.3327
364.2415, 484.6615
364.7236, 487.8351
365.2057, 487.7422
365.6878, 478.4684
366.1700, 472.3491
366.6521, 471.3378
367.1342, 474.6940
367.6163, 479.4261
368.0984, 488.5072
368.5805, 496.2536
369.0627, 500.0672
369.5448, 496.4602
370.0269, 495.6912
370.5090, 498.8080
370.9911, 504.4036
371.4732, 510.0931
371.9554, 517.0089
372.4375, 522.0034
372.9196, 523.5488
373.4017, 520.9352
373.8838, 519.5626
374.3659, 519.9143
374.8481, 520.8176
375.3302, 520.2887
375.8123, 517.4419
376.2944, 516.9352
376.7765, 520.1789
377.2586, 526.8913
377.7408, 535.2899
378.2229, 546.2430
378.7050, 555.7346
379.1871, 559.5057
379.6692, 557.7905
380.1513, 556.0135
380.6335, 554.7744
381.1156, 554.5385
381.5977, 556.4520
382.0798, 560.4833
382.5619, 565.8163
383.0440, 572.8370
383.5262, 580.7917
384.0083, 587.8871
384.4904, 594.1566
384.9725, 598.9477
385.4546, 600.6909
385.9367, 600.1621
386.4189, 599.7806
386.9010, 600.7916
387.3831, 602.6046
387.8652, 604.4472
388.3473, 606.2393
388.8294, 608.5989
389.3116, 611.5292
389.7937, 615.3600
390.2758, 620.5928
390.7579, 629.4058
391.2400, 637.9686
391.7221, 644.2271
392.2043, 648.2394
392.6864, 650.9077
393.1685, 650.5477
393.6506, 650.1163
394.1327, 651.9814
394.6148, 659.2358
395.0970, 665.3852
395.5791, 667.9382
396.0612, 668.1137
396.5433, 669.3840
397.0254, 671.3525
397.5075, 675.3592
397.9897, 682.4023
398.4718, 694.7139
398.9539, 705.0587
399.4360, 710.8760
399.9181, 715.6578
400.4002, 724.7928
400.8824, 743.6958
401.3645, 758.8470
401.8466, 765.3787
402.3287, 762.8275
402.8108, 764.4714
403.2929, 769.9115
403.7751, 780.0860
404.2572, 797.8517
404.7393, 826.1382
405.2214, 848.3381
405.7035, 858.8665
406.1856, 862.8267
406.6678, 878.1083
407.1499, 906.2253
407.6320, 935.6104
408.1141, 956.6014
408.5962, 970.7487
409.0783, 992.9756
409.5605, 1025.599
410.0426, 1062.914
410.5247, 1097.234
411.0068, 1128.719
411.4889, 1160.039
411.9710, 1190.593
412.4532, 1222.187
412.9353, 1259.323
413.4174, 1302.039
413.8995, 1347.199
414.3816, 1391.386
414.8637, 1436.558
415.3459, 1487.034
415.8280, 1549.179
416.3101, 1611.961
416.7922, 1668.588
417.2743, 1718.691
417.7564, 1765.666
418.2386, 1809.119
418.7207, 1850.781
419.2028, 1890.721
419.6849, 1927.430
420.1670, 1966.741
420.6491, 2018.633
421.1313, 2073.787
421.6134, 2115.673
422.0955, 2131.636
422.5776, 2142.021
423.0597, 2154.761
423.5418, 2172.437
424.0240, 2180.193
424.5061, 2175.267
424.9882, 2161.423
425.4703, 2141.138
425.9524, 2108.684
426.4345, 2079.330
426.9167, 2057.211
427.3988, 2040.169
427.8809, 2015.839
428.3630, 1980.651
428.8451, 1945.202
429.3272, 1916.023
429.8094, 1893.370
430.2915, 1874.345
430.7736, 1859.144
431.2557, 1847.021
431.7378, 1838.475
432.2199, 1833.715
432.7021, 1826.615
433.1842, 1813.783
433.6663, 1796.602
434.1484, 1777.511
434.6305, 1756.113
435.1126, 1739.630
435.5948, 1737.137
436.0769, 1745.351
436.5590, 1756.639
437.0411, 1772.795
437.5232, 1785.693
438.0053, 1780.828
438.4875, 1762.719
438.9696, 1749.565
439.4517, 1755.914
439.9338, 1770.230
440.4159, 1783.140
440.8980, 1794.126
441.3802, 1799.842
441.8623, 1791.930
442.3444, 1779.322
442.8265, 1774.758
443.3086, 1792.568
443.7907, 1809.313
444.2729, 1814.772
444.7550, 1808.449
445.2371, 1805.288
445.7192, 1807.949
446.2013, 1814.147
446.6834, 1822.704
447.1656, 1840.158
447.6477, 1850.090
448.1298, 1847.286
448.6119, 1837.214
449.0940, 1835.580
449.5761, 1847.378
450.0583, 1858.010
450.5404, 1861.369
451.0225, 1856.772
451.5046, 1851.911
451.9867, 1846.388
452.4688, 1841.549
452.9510, 1840.497
453.4331, 1843.418
453.9152, 1841.844
454.3973, 1831.154
454.8794, 1816.367
455.3615, 1812.597
455.8437, 1819.414
456.3258, 1825.159
456.8079, 1819.067
457.2900, 1806.304
457.7721, 1798.253
458.2542, 1797.604
458.7364, 1797.333
459.2185, 1789.369
459.7006, 1776.648
460.1827, 1765.531
460.6648, 1761.058
461.1469, 1757.470
461.6291, 1750.410
462.1112, 1739.838
462.5933, 1728.906
463.0754, 1717.613
463.5575, 1707.300
464.0396, 1699.219
464.5218, 1695.505
465.0039, 1691.516
465.4860, 1678.316
465.9681, 1663.829
466.4502, 1668.941
466.9323, 1730.526
467.4145, 1775.620
467.8966, 1777.915
468.3787, 1727.185
468.8608, 1688.944
469.3429, 1666.549
469.8250, 1652.871
470.3072, 1640.578
470.7893, 1628.536
471.2714, 1623.107
471.7535, 1628.103
472.2356, 1639.111
472.7177, 1640.435
473.1999, 1631.314
473.6820, 1620.099
474.1641, 1613.448
474.6462, 1609.430
475.1284, 1597.904
475.6105, 1577.136
476.0926, 1554.652
476.5747, 1540.130
477.0568, 1530.990
477.5389, 1520.789
478.0211, 1506.314
478.5032, 1490.192
478.9853, 1476.660
479.4674, 1464.697
479.9495, 1448.254
480.4316, 1416.089
480.9138, 1382.659
481.3959, 1361.659
481.8780, 1363.006
482.3601, 1358.303
482.8422, 1333.453
483.3243, 1297.568
483.8065, 1264.564
484.2886, 1239.756
484.7707, 1215.279
485.2528, 1187.278
485.7349, 1155.869
486.2170, 1130.775
486.6992, 1115.444
487.1813, 1102.769
487.6634, 1088.209
488.1455, 1071.363
488.6276, 1053.304
489.1097, 1033.351
489.5919, 1012.951
490.0740, 994.7625
490.5561, 978.4451
491.0382, 966.5645
491.5203, 963.1969
492.0024, 965.4352
492.4846, 959.8174
492.9667, 946.1377
493.4488, 929.2114
493.9309, 910.4774
494.4130, 891.9592
494.8951, 879.9139
495.3773, 878.1881
495.8594, 877.7685
496.3415, 866.4548
496.8236, 848.9411
497.3057, 837.1805
497.7878, 844.1932
498.2700, 853.3286
498.7521, 852.7980
499.2342, 841.2561
499.7163, 829.6826
500.1984, 820.7015
500.6805, 814.2844
501.1627, 810.3720
501.6448, 812.5266
502.1269, 813.0067
502.6090, 811.4030
503.0911, 807.6314
503.5732, 801.1452
504.0554, 790.0835
504.5375, 779.0145
505.0196, 768.1970
505.5017, 757.0135
505.9838, 755.3201
506.4659, 766.2758
506.9481, 779.4224
507.4302, 783.2390
507.9123, 777.6845
508.3944, 773.5627
508.8765, 773.4700
509.3586, 774.7712
509.8408, 770.9934
510.3229, 763.1630
510.8050, 758.4623
511.2871, 762.8006
511.7692, 772.0715
512.2513, 781.1701
512.7335, 789.9274
513.2156, 796.3552
513.6977, 797.7510
514.1798, 796.5185
514.6619, 795.4609
515.1440, 796.1992
515.6262, 796.1790
516.1083, 792.2573
516.5904, 786.6817
517.0725, 785.2767
517.5546, 793.0438
518.0367, 801.7933
518.5189, 809.5535
519.0010, 817.0552
519.4831, 819.0042
519.9652, 812.2595
520.4473, 803.1121
520.9294, 796.2517
521.4116, 791.1762
521.8937, 790.7143
522.3758, 796.5153
522.8579, 805.9265
523.3400, 812.0017
523.8221, 814.3956
524.3043, 818.4977
524.7864, 829.5978
525.2685, 844.3958
525.7506, 851.4139
526.2327, 850.4724
526.7148, 847.8928
527.1970, 848.2852
527.6791, 850.9754
528.1612, 855.3251
528.6433, 862.7902
529.1254, 868.5966
529.6075, 868.2811
530.0897, 863.7179
530.5718, 858.8135
531.0539, 854.3309
531.5360, 850.4625
532.0181, 847.4209
532.5002, 845.2464
532.9824, 843.1965
533.4645, 844.9504
533.9466, 844.0383
534.4287, 836.0558
534.9108, 813.5203
535.3929, 797.8571
535.8751, 791.5647
536.3572, 790.7232
536.8393, 789.5101
537.3214, 788.8611
537.8035, 783.2137
538.2856, 768.4640
538.7678, 747.4710
539.2499, 733.9133
539.7320, 728.0790
540.2141, 722.8617
540.6962, 711.8466
541.1783, 697.5165
541.6605, 685.8753
542.1426, 678.3812
542.6247, 670.9813
543.1068, 657.8430
543.5889, 642.5154
544.0710, 631.0477
544.5532, 628.5267
545.0353, 627.9822
545.5174, 627.5728
545.9995, 626.7057
546.4816, 622.5000
546.9637, 609.8510
547.4459, 597.1411
547.9280, 588.6766
548.4101, 586.4430
548.8922, 583.1174
549.3743, 577.7115
549.8564, 572.0406
550.3386, 568.0331
550.8207, 566.0123
551.3028, 564.7836
551.7849, 564.7506
552.2670, 564.9540
552.7491, 561.6291
553.2313, 554.5659
553.7134, 549.7006
554.1955, 552.7335
554.6776, 560.2168
555.1597, 562.0431
555.6418, 557.9489
556.1240, 552.2991
556.6061, 548.7557
557.0882, 545.9462
557.5703, 541.3962
558.0524, 532.2753
558.5345, 525.7571
559.0167, 528.9054
559.4988, 537.3022
559.9809, 542.6199
560.4630, 538.1936
560.9451, 534.5628
561.4272, 536.2922
561.9094, 543.6136
562.3915, 547.4977
562.8736, 544.5020
563.3557, 541.7629
563.8378, 543.8138
564.3199, 553.0165
564.8021, 558.6940
565.2842, 560.3828
565.7663, 559.0842
566.2484, 554.2949
566.7305, 546.1030
567.2126, 542.6630
567.6948, 548.0706
568.1769, 557.4465
568.6590, 561.6808
569.1411, 561.3967
569.6232, 559.9346
570.1053, 558.4844
570.5875, 557.3835
571.0696, 556.6145
571.5517, 556.1191
572.0338, 557.4115
572.5159, 563.3356
572.9980, 570.3932
573.4802, 575.2693
573.9623, 573.5494
574.4444, 574.5014
574.9265, 582.4128
575.4086, 593.4825
575.8907, 599.8109
576.3729, 597.5555
576.8550, 597.1115
577.3371, 602.3563
577.8192, 612.3434
578.3013, 616.2244
578.7834, 611.9485
579.2656, 609.5765
579.7477, 618.5880
580.2298, 636.7937
580.7119, 649.0883
581.1940, 653.7977
581.6761, 656.0005
582.1583, 660.2293
582.6404, 666.2201
583.1225, 673.4666
583.6046, 682.2627
584.0867, 691.6745
584.5688, 701.5989
585.0510, 711.6556
585.5331, 720.7809
586.0152, 724.1590
586.4973, 730.4495
586.9794, 744.3013
587.4615, 766.8105
587.9437, 789.4751
588.4258, 812.1379
588.9079, 834.5496
589.3900, 855.9622
589.8721, 874.5006
590.3542, 898.6749
590.8364, 930.9716
591.3185, 965.4424
591.8006, 990.5807
592.2827, 1006.723
592.7648, 1025.832
593.2469, 1051.930
593.7291, 1082.874
594.2112, 1112.331
594.6933, 1141.707
595.1754, 1178.096
595.6575, 1235.200
596.1396, 1295.344
596.6218, 1339.597
597.1039, 1365.840
597.5860, 1390.234
598.0681, 1418.341
598.5502, 1448.524
599.0323, 1479.367
599.5145, 1512.117
599.9966, 1543.421
600.4787, 1572.881
600.9608, 1601.210
601.4429, 1629.849
601.9250, 1661.793
602.4072, 1687.864
602.8893, 1706.947
603.3714, 1718.391
603.8535, 1716.520
604.3356, 1700.600
604.8177, 1681.590
605.2999, 1667.788
605.7820, 1656.019
606.2641, 1636.191
606.7462, 1607.233
607.2283, 1580.045
607.7104, 1564.920
608.1926, 1556.258
608.6747, 1547.252
609.1568, 1538.505
609.6389, 1524.722
610.1210, 1497.928
610.6031, 1465.763
611.0853, 1441.334
611.5674, 1436.408
612.0495, 1428.896
612.5316, 1413.141
613.0137, 1390.616
613.4958, 1371.302
613.9780, 1354.441
614.4601, 1343.050
614.9422, 1342.258
615.4243, 1351.607
615.9064, 1347.482
616.3885, 1327.635
616.8707, 1308.347
617.3528, 1308.056
617.8349, 1320.628
618.3170, 1330.851
618.7991, 1335.697
619.2813, 1337.512
619.7634, 1334.248
