##NAMES=Augelite
##RRUFFID=R050060
##IDEAL CHEMISTRY=Al_2_PO_4_(OH)_3_
##LOCALITY=Machacamarca, Potosi Department, Bolivia
##OWNER=RRUFF
##SOURCE=Rock Currier
##DESCRIPTION=Colorless prismatic crystals
##STATUS=The identification of this mineral has been confirmed by X-ray diffraction and chemical analysis
##URL=rruff.info/R050060
##MEASURED CHEMISTRY=Al_2.00_(P_1.00_O_4_)(OH)_3_; OH estimated by difference
116.1486, 2153.481
116.6307, 2183.933
117.1129, 2206.608
117.5950, 2211.014
118.0771, 2215.452
118.5592, 2235.853
119.0413, 2273.736
119.5234, 2313.773
120.0056, 2339.446
120.4877, 2355.859
120.9698, 2378.292
121.4519, 2406.458
121.9340, 2443.803
122.4161, 2502.432
122.8982, 2598.166
123.3804, 2692.966
123.8625, 2757.492
124.3446, 2796.484
124.8267, 2833.103
125.3088, 2891.013
125.7909, 2973.154
126.2731, 3035.954
126.7552, 3054.318
127.2373, 3064.511
127.7194, 3082.410
128.2015, 3111.170
128.6837, 3144.350
129.1658, 3171.832
129.6479, 3187.393
130.1300, 3209.820
130.6121, 3245.971
131.0942, 3285.575
131.5764, 3322.521
132.0585, 3353.894
132.5406, 3377.764
133.0227, 3386.511
133.5048, 3365.481
133.9869, 3344.097
134.4691, 3329.625
134.9512, 3316.807
135.4333, 3296.648
135.9154, 3263.124
136.3975, 3216.609
136.8796, 3166.973
137.3618, 3105.822
137.8439, 3049.594
138.3260, 3004.957
138.8081, 2972.207
139.2902, 2950.601
139.7723, 2943.301
140.2545, 2950.119
140.7366, 2948.742
141.2187, 2925.551
141.7008, 2899.214
142.1829, 2891.541
142.6650, 2907.478
143.1472, 2932.689
143.6293, 2949.106
144.1114, 2959.581
144.5935, 2984.677
145.0756, 3038.791
145.5577, 3115.059
146.0399, 3191.112
146.5220, 3261.647
147.0041, 3333.913
147.4862, 3409.225
147.9683, 3488.223
148.4504, 3579.143
148.9326, 3693.208
149.4147, 3833.740
149.8968, 3969.560
150.3789, 4081.706
150.8610, 4196.075
151.3431, 4324.701
151.8252, 4470.625
152.3074, 4633.780
152.7895, 4814.046
153.2716, 5016.448
153.7537, 5228.293
154.2358, 5444.916
154.7179, 5671.022
155.2001, 5911.436
155.6822, 6169.407
156.1643, 6442.187
156.6464, 6721.281
157.1285, 6993.776
157.6106, 7294.560
158.0928, 7639.896
158.5749, 8012.609
159.0570, 8391.970
159.5391, 8765.822
160.0212, 9135.205
160.5033, 9493.212
160.9855, 9850.794
161.4676, 10188.88
161.9497, 10521.39
162.4318, 10833.61
162.9139, 11088.78
163.3960, 11258.33
163.8782, 11334.96
164.3603, 11359.52
164.8424, 11349.83
165.3245, 11282.71
165.8066, 11137.54
166.2887, 10913.69
166.7709, 10635.58
167.2530, 10319.89
167.7351, 9963.906
168.2172, 9573.708
168.6993, 9115.721
169.1814, 8636.455
169.6636, 8191.238
170.1457, 7789.934
170.6278, 7415.204
171.1099, 7050.941
171.5920, 6695.286
172.0741, 6352.249
172.5563, 6017.365
173.0384, 5694.875
173.5205, 5401.662
174.0026, 5143.593
174.4847, 4910.275
174.9668, 4686.543
175.4490, 4472.239
175.9311, 4273.214
176.4132, 4094.721
176.8953, 3935.456
177.3774, 3786.393
177.8595, 3651.872
178.3417, 3522.475
178.8238, 3391.292
179.3059, 3257.674
179.7880, 3128.923
180.2701, 3014.290
180.7522, 2915.169
181.2344, 2822.751
181.7165, 2733.405
182.1986, 2651.432
182.6807, 2581.049
183.1628, 2523.422
183.6449, 2474.600
184.1271, 2428.647
184.6092, 2387.230
185.0913, 2345.667
185.5734, 2305.750
186.0555, 2264.548
186.5376, 2218.352
187.0198, 2165.618
187.5019, 2110.008
187.9840, 2059.614
188.4661, 2009.669
188.9482, 1973.193
189.4303, 1961.874
189.9125, 1960.576
190.3946, 1951.615
190.8767, 1925.581
191.3588, 1886.357
191.8409, 1851.322
192.3230, 1819.951
192.8052, 1793.427
193.2873, 1772.865
193.7694, 1757.479
194.2515, 1746.512
194.7336, 1739.898
195.2157, 1737.103
195.6979, 1732.600
196.1800, 1722.522
196.6621, 1715.003
197.1442, 1715.874
197.6263, 1722.461
198.1084, 1726.394
198.5906, 1721.421
199.0727, 1708.143
199.5548, 1697.728
200.0369, 1684.629
200.5190, 1678.575
201.0011, 1687.569
201.4833, 1710.754
201.9654, 1738.365
202.4475, 1763.938
202.9296, 1787.815
203.4117, 1813.749
203.8938, 1842.180
204.3760, 1872.569
204.8581, 1904.547
205.3402, 1938.266
205.8223, 1972.837
206.3044, 2006.136
206.7865, 2039.563
207.2687, 2078.311
207.7508, 2121.700
208.2329, 2171.533
208.7150, 2231.751
209.1971, 2304.083
209.6792, 2380.611
210.1614, 2454.615
210.6435, 2527.559
211.1256, 2603.517
211.6077, 2675.521
212.0898, 2752.406
212.5719, 2855.862
213.0541, 2994.274
213.5362, 3145.600
214.0183, 3295.940
214.5004, 3445.738
214.9825, 3597.308
215.4646, 3745.444
215.9468, 3894.381
216.4289, 4057.680
216.9110, 4232.389
217.3931, 4430.436
217.8752, 4659.367
218.3573, 4914.434
218.8395, 5180.212
219.3216, 5446.485
219.8037, 5713.413
220.2858, 5991.592
220.7679, 6297.117
221.2500, 6597.396
221.7322, 6884.547
222.2143, 7155.732
222.6964, 7405.695
223.1785, 7632.227
223.6606, 7835.673
224.1427, 8008.987
224.6249, 8154.698
225.1070, 8262.710
225.5891, 8347.168
226.0712, 8395.352
226.5533, 8371.695
227.0354, 8243.498
227.5176, 8008.241
227.9997, 7686.445
228.4818, 7213.175
228.9639, 6705.341
229.4460, 6185.934
229.9281, 5670.862
230.4103, 5180.648
230.8924, 4739.700
231.3745, 4349.388
231.8566, 3998.322
232.3387, 3680.120
232.8208, 3400.478
233.3030, 3170.332
233.7851, 2984.848
234.2672, 2828.666
234.7493, 2686.088
235.2314, 2558.613
235.7135, 2440.858
236.1957, 2330.781
236.6778, 2229.623
237.1599, 2139.479
237.6420, 2060.022
238.1241, 1989.816
238.6062, 1927.768
239.0884, 1874.265
239.5705, 1828.799
240.0526, 1798.580
240.5347, 1769.492
241.0168, 1729.046
241.4989, 1678.203
241.9811, 1631.672
242.4632, 1607.856
242.9453, 1618.653
243.4274, 1615.583
243.9095, 1589.941
244.3916, 1559.171
244.8738, 1531.047
245.3559, 1508.078
245.8380, 1491.946
246.3201, 1485.620
246.8022, 1494.131
247.2843, 1496.495
247.7665, 1486.767
248.2486, 1475.680
248.7307, 1471.226
249.2128, 1474.210
249.6949, 1480.146
250.1770, 1484.698
250.6592, 1488.917
251.1413, 1485.894
251.6234, 1471.746
252.1055, 1453.479
252.5876, 1438.229
253.0697, 1426.300
253.5519, 1409.464
254.0340, 1377.601
254.5161, 1325.149
254.9982, 1279.144
255.4803, 1245.162
255.9624, 1214.001
256.4445, 1177.646
256.9267, 1135.400
257.4088, 1092.797
257.8909, 1054.358
258.3730, 1020.179
258.8551, 996.4216
259.3372, 989.8757
259.8194, 989.4281
260.3015, 987.4022
260.7836, 982.6417
261.2657, 975.8679
261.7478, 967.3291
262.2299, 956.6390
262.7121, 947.1485
263.1942, 940.3942
263.6763, 933.9196
264.1584, 925.2473
264.6405, 914.2569
265.1227, 903.4265
265.6048, 895.2263
266.0869, 889.8796
266.5690, 883.8894
267.0511, 873.5124
267.5332, 864.8761
268.0154, 864.5151
268.4975, 872.5358
268.9796, 882.0029
269.4617, 887.9644
269.9438, 890.0389
270.4259, 889.1130
270.9081, 883.2380
271.3902, 875.7370
271.8723, 868.4272
272.3544, 861.5039
272.8365, 856.3104
273.3186, 854.8857
273.8008, 856.5943
274.2829, 854.6721
274.7650, 843.5890
275.2471, 832.8898
275.7292, 830.4128
276.2113, 835.9081
276.6935, 843.4337
277.1756, 849.7101
277.6577, 854.5911
278.1398, 858.2457
278.6219, 859.8252
279.1040, 860.8851
279.5862, 864.3760
280.0683, 869.5255
280.5504, 868.9778
281.0325, 853.6335
281.5146, 829.9951
281.9967, 823.3044
282.4789, 848.7583
282.9610, 876.8787
283.4431, 889.2696
283.9252, 887.8597
284.4073, 883.1638
284.8894, 879.5146
285.3716, 877.0419
285.8537, 875.3287
286.3358, 870.6544
286.8179, 871.2188
287.3000, 886.4420
287.7821, 912.4106
288.2643, 932.1251
288.7464, 935.3142
289.2285, 929.6851
289.7106, 934.6254
290.1927, 953.0950
290.6748, 975.3568
291.1570, 998.6727
291.6391, 1022.502
292.1212, 1044.095
292.6033, 1060.650
293.0854, 1076.907
293.5675, 1102.226
294.0497, 1137.325
294.5318, 1177.464
295.0139, 1222.638
295.4960, 1271.488
295.9781, 1324.025
296.4602, 1384.198
296.9424, 1439.676
297.4245, 1468.990
297.9066, 1475.960
298.3887, 1458.162
298.8708, 1402.035
299.3529, 1322.958
299.8351, 1245.470
300.3172, 1174.557
300.7993, 1111.101
301.2814, 1057.453
301.7635, 1013.575
302.2456, 974.2390
302.7278, 936.2107
303.2099, 903.1097
303.6920, 882.0325
304.1741, 875.0945
304.6562, 873.3314
305.1383, 865.9894
305.6205, 852.5009
306.1026, 844.4803
306.5847, 849.0111
307.0668, 856.7527
307.5489, 855.2724
308.0310, 843.0728
308.5132, 834.3491
308.9953, 845.3580
309.4774, 876.9507
309.9595, 896.6771
310.4416, 892.9450
310.9237, 884.2454
311.4059, 884.5591
311.8880, 894.4098
312.3701, 907.9680
312.8522, 922.0526
313.3343, 936.2581
313.8164, 947.7603
314.2986, 953.7918
314.7807, 959.6378
315.2628, 968.4669
315.7449, 979.8405
316.2270, 991.1375
316.7091, 999.7093
317.1913, 1007.221
317.6734, 1022.849
318.1555, 1058.447
318.6376, 1088.345
319.1197, 1096.873
319.6018, 1092.201
320.0840, 1093.749
320.5661, 1111.294
321.0482, 1140.609
321.5303, 1167.916
322.0124, 1193.755
322.4945, 1217.389
322.9767, 1236.220
323.4588, 1253.321
323.9409, 1274.381
324.4230, 1301.941
324.9051, 1331.324
325.3872, 1352.900
325.8694, 1358.708
326.3515, 1370.730
326.8336, 1396.368
327.3157, 1426.034
327.7978, 1452.438
328.2799, 1473.186
328.7621, 1485.210
329.2442, 1482.648
329.7263, 1453.895
330.2084, 1440.238
330.6905, 1458.260
331.1726, 1478.833
331.6548, 1479.756
332.1369, 1459.498
332.6190, 1432.191
333.1011, 1412.687
333.5832, 1403.879
334.0653, 1385.999
334.5475, 1348.912
335.0296, 1313.800
335.5117, 1292.869
335.9938, 1283.576
336.4759, 1275.658
336.9580, 1261.520
337.4402, 1241.225
337.9223, 1218.313
338.4044, 1188.188
338.8865, 1160.608
339.3686, 1137.643
339.8507, 1118.933
340.3329, 1104.544
340.8150, 1094.840
341.2971, 1088.027
341.7792, 1075.949
342.2613, 1046.508
342.7434, 1027.446
343.2256, 1029.781
343.7077, 1040.420
344.1898, 1045.274
344.6719, 1038.820
345.1540, 1025.643
345.6361, 1014.783
346.1183, 1007.706
346.6004, 1000.249
347.0825, 992.0329
347.5646, 983.5086
348.0467, 975.1109
348.5288, 966.9136
349.0110, 958.3216
349.4931, 947.4733
349.9752, 932.1926
350.4573, 923.2643
350.9394, 931.3397
351.4215, 937.0662
351.9037, 927.0806
352.3858, 904.7838
352.8679, 885.6685
353.3500, 884.8647
353.8321, 901.7153
354.3142, 914.3008
354.7964, 919.0336
355.2785, 923.5473
355.7606, 930.5746
356.2427, 939.6539
356.7248, 950.4300
357.2069, 965.2768
357.6891, 980.0287
358.1712, 980.2322
358.6533, 957.4030
359.1354, 939.1927
359.6175, 935.0449
360.0996, 941.6879
360.5818, 957.7666
361.0639, 985.0414
361.5460, 1016.132
362.0281, 1041.166
362.5102, 1059.742
362.9923, 1076.204
363.4745, 1083.059
363.9566, 1094.875
364.4387, 1129.958
364.9208, 1193.353
365.4029, 1255.560
365.8850, 1292.791
366.3672, 1308.859
366.8493, 1325.264
367.3314, 1346.590
367.8135, 1369.276
368.2956, 1393.490
368.7777, 1418.792
369.2599, 1432.506
369.7420, 1427.952
370.2241, 1408.847
370.7062, 1378.985
371.1883, 1337.341
371.6704, 1292.906
372.1526, 1252.257
372.6347, 1214.842
373.1168, 1177.754
373.5989, 1137.875
374.0810, 1100.097
374.5631, 1067.170
375.0453, 1039.344
375.5274, 1018.809
376.0095, 1009.317
376.4916, 1007.243
376.9737, 996.6855
377.4558, 967.1430
377.9380, 942.0331
378.4201, 928.4631
378.9022, 925.3281
379.3843, 933.8940
379.8664, 956.1717
380.3485, 982.6030
380.8307, 992.2449
381.3128, 971.9011
381.7949, 959.2261
382.2770, 963.2390
382.7591, 972.2706
383.2412, 972.9822
383.7234, 963.8189
384.2055, 956.1605
384.6876, 964.5955
385.1697, 995.5318
385.6518, 1014.988
386.1339, 1012.367
386.6161, 1010.165
387.0982, 1020.282
387.5803, 1040.652
388.0624, 1062.587
388.5445, 1079.787
389.0266, 1092.891
389.5088, 1108.425
389.9909, 1126.621
390.4730, 1147.338
390.9551, 1169.700
391.4372, 1194.762
391.9193, 1224.855
392.4015, 1261.141
392.8836, 1300.021
393.3657, 1332.457
393.8478, 1350.260
394.3299, 1381.674
394.8120, 1436.076
395.2942, 1500.438
395.7763, 1568.370
396.2584, 1638.297
396.7405, 1708.621
397.2226, 1776.711
397.7047, 1842.237
398.1869, 1913.784
398.6690, 1990.255
399.1511, 2075.938
399.6332, 2170.282
400.1153, 2273.915
400.5974, 2389.387
401.0796, 2522.218
401.5617, 2666.628
402.0438, 2806.315
402.5259, 2935.716
403.0080, 3082.542
403.4901, 3272.303
403.9723, 3487.151
404.4544, 3698.416
404.9365, 3894.145
405.4186, 4097.900
405.9007, 4339.326
406.3828, 4609.794
406.8650, 4863.840
407.3471, 5086.752
407.8292, 5281.701
408.3113, 5456.682
408.7934, 5613.257
409.2755, 5748.053
409.7577, 5869.836
410.2398, 5964.269
410.7219, 6007.320
411.2040, 5994.787
411.6861, 5946.004
412.1682, 5875.513
412.6504, 5780.213
413.1325, 5684.222
413.6146, 5589.344
414.0967, 5492.005
414.5788, 5379.452
415.0609, 5260.953
415.5431, 5165.073
416.0252, 5112.463
416.5073, 5091.040
416.9894, 5042.543
417.4715, 4923.441
417.9536, 4829.172
418.4358, 4783.623
418.9179, 4760.687
419.4000, 4735.589
419.8821, 4699.780
420.3642, 4654.622
420.8463, 4600.540
421.3285, 4533.122
421.8106, 4469.490
422.2927, 4422.196
422.7748, 4367.769
423.2569, 4291.412
423.7390, 4196.442
424.2212, 4097.158
424.7033, 4005.284
425.1854, 3918.884
425.6675, 3820.888
426.1496, 3699.483
426.6317, 3588.000
427.1139, 3497.799
427.5960, 3423.804
428.0781, 3361.274
428.5602, 3311.768
429.0423, 3266.186
429.5244, 3212.784
430.0066, 3151.378
430.4887, 3091.288
430.9708, 3037.040
431.4529, 2983.171
431.9350, 2920.719
432.4171, 2848.583
432.8993, 2786.082
433.3814, 2746.007
433.8635, 2720.870
434.3456, 2700.051
434.8277, 2683.521
435.3098, 2660.631
435.7920, 2618.164
436.2741, 2558.004
436.7562, 2509.489
437.2383, 2478.015
437.7204, 2454.386
438.2025, 2436.202
438.6847, 2421.689
439.1668, 2406.998
439.6489, 2390.616
440.1310, 2371.833
440.6131, 2348.608
441.0952, 2315.833
441.5774, 2285.526
442.0595, 2257.976
442.5416, 2233.144
443.0237, 2211.622
443.5058, 2193.190
443.9879, 2176.372
444.4701, 2158.815
444.9522, 2139.407
445.4343, 2127.757
445.9164, 2132.031
446.3985, 2135.955
446.8806, 2136.570
447.3628, 2132.844
447.8449, 2121.760
448.3270, 2099.317
448.8091, 2074.336
449.2912, 2070.039
449.7733, 2092.771
450.2555, 2118.714
450.7376, 2142.911
451.2197, 2167.249
451.7018, 2193.460
452.1839, 2221.650
452.6660, 2250.718
453.1482, 2278.605
453.6303, 2306.336
454.1124, 2339.049
454.5945, 2379.567
455.0766, 2420.852
455.5587, 2451.835
456.0409, 2477.786
456.5230, 2515.813
457.0051, 2580.404
457.4872, 2650.961
457.9693, 2708.962
458.4514, 2756.328
458.9336, 2801.780
459.4157, 2846.341
459.8978, 2895.514
460.3799, 2967.083
460.8620, 3076.318
461.3441, 3174.857
461.8262, 3248.400
462.3083, 3310.427
462.7905, 3373.753
463.2726, 3441.131
463.7547, 3508.748
464.2368, 3573.194
464.7189, 3634.275
465.2010, 3692.789
465.6832, 3759.140
466.1653, 3811.606
466.6474, 3839.136
467.1295, 3848.586
467.6116, 3851.218
468.0938, 3852.318
468.5759, 3851.145
469.0580, 3848.290
469.5401, 3849.442
470.0222, 3832.445
470.5043, 3781.472
470.9865, 3719.820
471.4686, 3662.187
471.9507, 3609.392
472.4328, 3550.694
472.9149, 3479.270
473.3970, 3395.835
473.8792, 3298.792
474.3613, 3181.349
474.8434, 3070.837
475.3255, 2995.394
475.8076, 2938.330
476.2897, 2862.749
476.7719, 2746.346
477.2540, 2631.840
477.7361, 2552.790
478.2182, 2499.906
478.7003, 2444.576
479.1824, 2376.653
479.6646, 2304.943
480.1467, 2243.808
480.6288, 2195.943
481.1109, 2150.057
481.5930, 2107.086
482.0751, 2065.060
482.5573, 2022.817
483.0394, 1980.032
483.5215, 1936.000
484.0036, 1889.466
484.4857, 1841.777
484.9678, 1801.854
485.4500, 1770.101
485.9321, 1746.650
486.4142, 1736.467
486.8963, 1731.575
487.3784, 1726.109
487.8605, 1718.069
488.3427, 1705.660
488.8248, 1682.420
489.3069, 1647.359
489.7890, 1626.980
490.2711, 1630.989
490.7532, 1639.023
491.2354, 1639.620
491.7175, 1635.196
492.1996, 1631.271
492.6817, 1628.961
493.1638, 1629.095
493.6459, 1633.681
494.1281, 1642.418
494.6102, 1650.517
495.0923, 1655.085
495.5744, 1659.415
496.0565, 1669.953
496.5386, 1687.762
497.0208, 1705.344
497.5029, 1718.755
497.9850, 1732.444
498.4671, 1750.798
498.9492, 1774.109
499.4313, 1800.612
499.9135, 1828.943
500.3956, 1859.012
500.8777, 1891.368
501.3598, 1927.101
501.8419, 1963.643
502.3240, 1999.248
502.8062, 2035.933
503.2883, 2076.299
503.7704, 2120.981
504.2525, 2168.584
504.7346, 2216.627
505.2167, 2263.752
505.6989, 2320.221
506.1810, 2391.117
506.6631, 2466.266
507.1452, 2541.091
507.6273, 2616.109
508.1094, 2693.140
508.5916, 2773.332
509.0737, 2855.392
509.5558, 2934.920
510.0379, 3011.965
510.5200, 3097.262
511.0021, 3195.345
511.4843, 3302.467
511.9664, 3413.646
512.4485, 3528.673
512.9306, 3646.895
513.4127, 3770.959
513.8948, 3895.768
514.3770, 4010.010
514.8591, 4116.802
515.3412, 4237.733
515.8233, 4390.071
516.3054, 4568.463
516.7875, 4734.262
517.2697, 4873.999
517.7518, 5018.459
518.2339, 5182.611
518.7160, 5346.615
519.1981, 5487.779
519.6802, 5603.972
520.1624, 5714.172
520.6445, 5843.184
521.1266, 5991.953
521.6087, 6121.511
522.0908, 6229.511
522.5729, 6319.173
523.0551, 6386.891
523.5372, 6440.704
524.0193, 6493.686
524.5014, 6552.828
524.9835, 6605.630
525.4656, 6642.269
525.9478, 6662.439
526.4299, 6665.086
526.9120, 6649.713
527.3941, 6617.206
527.8762, 6564.104
528.3583, 6489.784
528.8405, 6415.269
529.3226, 6350.884
529.8047, 6279.227
530.2868, 6189.354
530.7689, 6082.397
531.2510, 5961.417
531.7332, 5827.346
532.2153, 5684.203
532.6974, 5542.052
533.1795, 5405.255
533.6616, 5261.199
534.1437, 5096.683
534.6259, 4936.458
535.1080, 4798.208
535.5901, 4679.214
536.0722, 4567.326
536.5543, 4456.834
537.0364, 4345.651
537.5186, 4227.686
538.0007, 4100.425
538.4828, 3974.254
538.9649, 3846.344
539.4470, 3726.499
539.9291, 3630.602
540.4113, 3563.468
540.8934, 3493.960
541.3755, 3401.770
541.8576, 3299.750
542.3397, 3208.499
542.8218, 3130.264
543.3040, 3056.939
543.7861, 2982.979
544.2682, 2908.644
544.7503, 2836.353
545.2324, 2769.178
545.7145, 2699.746
546.1967, 2617.715
546.6788, 2537.881
547.1609, 2478.542
547.6430, 2442.624
548.1251, 2416.240
548.6072, 2386.790
549.0894, 2354.473
549.5715, 2309.681
550.0536, 2238.784
550.5357, 2174.845
551.0178, 2130.812
551.4999, 2099.651
551.9821, 2073.352
552.4642, 2051.732
552.9463, 2026.624
553.4284, 1984.266
553.9105, 1930.722
554.3926, 1893.796
554.8748, 1882.342
555.3569, 1874.225
555.8390, 1848.003
556.3211, 1803.580
556.8032, 1764.438
557.2853, 1729.863
557.7675, 1701.614
558.2496, 1682.249
558.7317, 1669.415
559.2138, 1663.239
559.6959, 1663.256
560.1780, 1658.549
560.6602, 1629.609
561.1423, 1566.746
561.6244, 1518.894
562.1065, 1497.360
562.5886, 1480.876
563.0707, 1468.198
563.5529, 1454.371
564.0350, 1429.849
564.5171, 1387.793
564.9992, 1341.957
565.4813, 1311.977
565.9634, 1296.867
566.4456, 1280.306
566.9277, 1257.392
567.4098, 1234.097
567.8919, 1217.666
568.3740, 1207.341
568.8561, 1196.140
569.3383, 1185.766
569.8204, 1171.640
570.3025, 1146.199
570.7846, 1114.719
571.2667, 1090.376
571.7488, 1078.765
572.2310, 1074.110
572.7131, 1066.329
573.1952, 1053.299
573.6773, 1042.814
574.1594, 1037.823
574.6415, 1032.319
575.1237, 1022.139
575.6058, 1009.611
576.0879, 999.8812
576.5700, 995.7804
577.0521, 994.7252
577.5342, 994.9927
578.0164, 996.6268
578.4985, 989.1691
578.9806, 964.7302
579.4627, 938.7196
579.9448, 928.8061
580.4269, 933.0750
580.9091, 937.1919
581.3912, 938.1040
581.8733, 938.3004
582.3554, 940.0981
582.8375, 942.5698
583.3196, 942.2218
583.8018, 937.4152
584.2839, 932.5848
584.7660, 936.3640
585.2481, 954.2165
585.7302, 964.9863
586.2123, 963.4284
586.6945, 960.5105
587.1766, 958.2512
587.6587, 958.3933
588.1408, 963.7307
588.6229, 976.1187
589.1050, 992.3484
589.5872, 1010.772
590.0693, 1031.079
590.5514, 1041.048
591.0335, 1034.442
591.5156, 1023.719
591.9977, 1021.003
592.4799, 1025.313
592.9620, 1030.484
593.4441, 1036.086
593.9262, 1041.957
594.4083, 1047.928
594.8904, 1054.104
595.3726, 1060.822
595.8547, 1068.172
596.3368, 1075.308
596.8189, 1080.456
597.3010, 1082.361
597.7831, 1088.215
598.2653, 1097.681
598.7474, 1111.830
599.2295, 1136.323
599.7116, 1164.142
600.1937, 1184.436
600.6758, 1192.496
601.1580, 1196.036
601.6401, 1201.008
602.1222, 1207.975
602.6043, 1220.898
603.0864, 1241.872
603.5685, 1263.083
604.0507, 1276.579
604.5328, 1283.636
605.0149, 1297.636
605.4970, 1323.879
605.9791, 1350.782
606.4612, 1369.861
606.9434, 1389.215
607.4255, 1423.920
607.9076, 1474.926
608.3897, 1523.443
608.8718, 1545.666
609.3539, 1542.562
609.8361, 1561.645
610.3182, 1616.581
610.8003, 1671.459
611.2824, 1716.524
611.7645, 1754.472
612.2466, 1785.999
612.7288, 1810.523
