##NAMES=Augelite
##RRUFFID=R050100
##IDEAL CHEMISTRY=Al_2_PO_4_(OH)_3_
##LOCALITY=Rapid Creek, Yukon Territory, Canada
##OWNER=RRUFF
##SOURCE=Rock Currier
##DESCRIPTION=Pale green thick tabular crystals
##STATUS=The identification of this mineral has been confirmed by X-ray diffraction and chemical analysis
##URL=rruff.info/R050100
##MEASURED CHEMISTRY=Al_2.00_(P_1.00_O_4_)(OH_0.98_F_0.02_)_3_
139.2989, 4188.042
139.7810, 4264.056
140.2631, 4348.256
140.7453, 4429.638
141.2274, 4506.203
141.7095, 4582.391
142.1916, 4655.137
142.6737, 4723.470
143.1558, 4806.481
143.6380, 4902.229
144.1201, 5014.660
144.6022, 5153.833
145.0843, 5343.636
145.5664, 5478.774
146.0485, 5581.175
146.5307, 5630.729
147.0128, 5696.569
147.4949, 5781.715
147.9770, 5882.436
148.4591, 5986.621
148.9412, 6103.192
149.4234, 6216.613
149.9055, 6320.134
150.3876, 6401.335
150.8697, 6488.125
151.3518, 6576.988
151.8339, 6669.809
152.3161, 6778.236
152.7982, 6920.720
153.2803, 7070.570
153.7624, 7209.514
154.2445, 7329.894
154.7266, 7444.785
155.2087, 7555.292
155.6909, 7660.138
156.1730, 7766.103
156.6551, 7877.838
157.1372, 7990.016
157.6193, 8097.916
158.1014, 8197.702
158.5836, 8293.626
159.0657, 8391.677
159.5478, 8498.873
160.0299, 8585.453
160.5120, 8643.945
160.9941, 8674.144
161.4763, 8675.500
161.9584, 8640.208
162.4405, 8580.708
162.9226, 8505.418
163.4047, 8415.540
163.8868, 8311.314
164.3690, 8190.213
164.8511, 8053.664
165.3332, 7907.311
165.8153, 7755.761
166.2974, 7595.745
166.7795, 7423.678
167.2617, 7225.621
167.7438, 7024.854
168.2259, 6833.792
168.7080, 6653.950
169.1901, 6482.684
169.6722, 6317.444
170.1544, 6159.868
170.6365, 6012.762
171.1186, 5878.443
171.6007, 5755.053
172.0828, 5636.920
172.5649, 5523.515
173.0471, 5416.255
173.5292, 5315.789
174.0113, 5222.803
174.4934, 5140.347
174.9755, 5084.136
175.4576, 5036.599
175.9397, 4966.438
176.4219, 4859.966
176.9040, 4752.067
177.3861, 4686.984
177.8682, 4659.818
178.3503, 4638.871
178.8324, 4604.527
179.3146, 4560.457
179.7967, 4513.824
180.2788, 4465.467
180.7609, 4417.338
181.2430, 4371.868
181.7251, 4329.443
182.2073, 4292.318
182.6894, 4266.084
183.1715, 4248.203
183.6536, 4229.153
184.1357, 4205.642
184.6178, 4179.032
185.1000, 4149.355
185.5821, 4115.277
186.0642, 4086.268
186.5463, 4074.870
187.0284, 4079.785
187.5105, 4087.196
187.9927, 4095.456
188.4748, 4102.730
188.9569, 4096.895
189.4390, 4074.518
189.9211, 4048.311
190.4032, 4040.986
190.8854, 4053.061
191.3675, 4059.637
191.8496, 4041.727
192.3317, 4001.740
192.8138, 3976.262
193.2959, 3971.612
193.7781, 3976.717
194.2602, 3963.090
194.7423, 3926.865
195.2244, 3900.640
195.7065, 3916.343
196.1886, 3975.770
196.6708, 4010.527
197.1529, 4006.764
197.6350, 3975.424
198.1171, 3951.525
198.5992, 3935.853
199.0813, 3924.901
199.5634, 3914.304
200.0456, 3902.973
200.5277, 3902.096
201.0098, 3918.170
201.4919, 3947.866
201.9740, 3961.989
202.4561, 3955.354
202.9383, 3944.598
203.4204, 3948.740
203.9025, 3971.277
204.3846, 3992.784
204.8667, 4006.175
205.3488, 4011.384
205.8310, 4025.931
206.3131, 4052.626
206.7952, 4084.433
207.2773, 4112.666
207.7594, 4138.003
208.2415, 4157.521
208.7237, 4166.215
209.2058, 4160.225
209.6879, 4170.188
210.1700, 4199.845
210.6521, 4242.293
211.1342, 4286.904
211.6164, 4337.541
212.0985, 4380.310
212.5806, 4404.467
213.0627, 4398.806
213.5448, 4414.406
214.0269, 4458.982
214.5091, 4522.718
214.9912, 4576.601
215.4733, 4612.912
215.9554, 4652.517
216.4375, 4710.845
216.9196, 4798.473
217.4018, 4868.902
217.8839, 4907.832
218.3660, 4925.933
218.8481, 4978.692
219.3302, 5079.057
219.8123, 5194.102
220.2945, 5298.711
220.7766, 5382.924
221.2587, 5481.112
221.7408, 5601.855
222.2229, 5743.674
222.7050, 5874.327
223.1871, 5998.930
223.6693, 6107.786
224.1514, 6198.448
224.6335, 6286.012
225.1156, 6322.377
225.5977, 6294.962
226.0798, 6203.206
226.5620, 6082.962
227.0441, 5920.089
227.5262, 5744.020
228.0083, 5583.948
228.4904, 5448.525
228.9725, 5314.722
229.4547, 5172.371
229.9368, 5016.430
230.4189, 4892.041
230.9010, 4808.484
231.3831, 4748.330
231.8652, 4687.152
232.3474, 4616.884
232.8295, 4557.589
233.3116, 4515.492
233.7937, 4491.740
234.2758, 4480.580
234.7579, 4490.995
235.2401, 4509.246
235.7222, 4509.616
236.2043, 4478.619
236.6864, 4450.746
237.1685, 4439.189
237.6507, 4451.612
238.1328, 4458.046
238.6149, 4451.908
239.0970, 4442.036
239.5791, 4449.738
240.0612, 4484.733
240.5434, 4523.182
241.0255, 4555.251
241.5076, 4579.671
241.9897, 4600.888
242.4718, 4616.575
242.9539, 4629.559
243.4360, 4648.761
243.9182, 4678.687
244.4003, 4708.577
244.8824, 4731.493
245.3645, 4738.265
245.8466, 4757.863
246.3287, 4791.599
246.8109, 4839.072
247.2930, 4899.920
247.7751, 4978.464
248.2572, 5063.392
248.7393, 5149.936
249.2214, 5242.354
249.7036, 5324.877
250.1857, 5396.500
250.6678, 5456.847
251.1499, 5509.252
251.6320, 5561.366
252.1141, 5595.138
252.5963, 5596.721
253.0784, 5558.900
253.5605, 5505.637
254.0426, 5440.305
254.5247, 5362.492
255.0068, 5259.605
255.4890, 5116.195
255.9711, 4968.600
256.4532, 4842.398
256.9353, 4738.286
257.4174, 4653.997
257.8995, 4592.741
258.3817, 4553.202
258.8638, 4508.243
259.3459, 4452.500
259.8280, 4398.867
260.3101, 4358.617
260.7922, 4335.373
261.2744, 4316.841
261.7565, 4303.470
262.2386, 4294.569
262.7207, 4276.832
263.2028, 4245.481
263.6849, 4212.032
264.1671, 4186.553
264.6492, 4168.751
265.1313, 4160.817
265.6134, 4167.046
266.0955, 4186.671
266.5776, 4195.975
267.0598, 4191.205
267.5419, 4182.209
268.0240, 4180.441
268.5061, 4188.274
268.9882, 4194.758
269.4703, 4197.127
269.9525, 4195.485
270.4346, 4192.196
270.9167, 4186.676
271.3988, 4180.699
271.8809, 4174.729
272.3630, 4167.404
272.8452, 4167.753
273.3273, 4182.742
273.8094, 4211.418
274.2915, 4226.683
274.7736, 4225.655
275.2557, 4217.640
275.7379, 4215.268
276.2200, 4219.696
276.7021, 4220.736
277.1842, 4210.490
277.6663, 4190.658
278.1484, 4191.509
278.6305, 4219.368
279.1126, 4251.383
279.5948, 4252.124
280.0769, 4219.172
280.5590, 4189.747
281.0411, 4179.811
281.5232, 4187.271
282.0053, 4188.932
282.4875, 4183.251
282.9696, 4176.450
283.4517, 4177.979
283.9338, 4187.839
284.4159, 4197.317
284.8980, 4205.342
285.3802, 4210.900
285.8623, 4204.151
286.3444, 4182.397
286.8265, 4158.918
287.3086, 4152.158
287.7907, 4161.082
288.2729, 4172.348
288.7550, 4180.340
289.2371, 4186.026
289.7192, 4191.182
290.2013, 4194.650
290.6834, 4202.839
291.1656, 4229.568
291.6477, 4271.145
292.1298, 4305.534
292.6119, 4316.451
293.0940, 4312.787
293.5761, 4318.230
294.0583, 4333.947
294.5404, 4354.807
295.0225, 4379.674
295.5046, 4406.392
295.9867, 4426.123
296.4688, 4431.696
296.9510, 4428.420
297.4331, 4427.506
297.9152, 4430.078
298.3973, 4428.954
298.8794, 4415.937
299.3615, 4393.381
299.8437, 4367.334
300.3258, 4328.682
300.8079, 4292.946
301.2900, 4286.118
301.7721, 4312.110
302.2542, 4341.893
302.7364, 4346.728
303.2185, 4336.181
303.7006, 4329.900
304.1827, 4342.020
304.6648, 4360.074
305.1469, 4371.845
305.6291, 4376.565
306.1112, 4377.035
306.5933, 4369.077
307.0754, 4358.906
307.5575, 4357.127
308.0396, 4377.075
308.5218, 4401.423
309.0039, 4415.075
309.4860, 4416.495
309.9681, 4419.600
310.4502, 4438.197
310.9323, 4462.468
311.4145, 4478.720
311.8966, 4471.629
312.3787, 4462.933
312.8608, 4462.448
313.3429, 4470.519
313.8250, 4491.108
314.3072, 4544.717
314.7893, 4606.041
315.2714, 4645.829
315.7535, 4633.644
316.2356, 4616.110
316.7177, 4609.364
317.1999, 4614.231
317.6820, 4630.835
318.1641, 4669.594
318.6462, 4715.877
319.1283, 4754.834
319.6104, 4783.113
320.0926, 4803.613
320.5747, 4812.902
321.0568, 4810.251
321.5389, 4815.008
322.0210, 4837.512
322.5031, 4865.742
322.9852, 4889.087
323.4673, 4905.247
323.9495, 4918.112
324.4316, 4926.416
324.9137, 4930.011
325.3958, 4937.433
325.8779, 4958.170
326.3600, 4977.486
326.8422, 4984.318
327.3243, 4958.854
327.8064, 4946.199
328.2885, 4960.997
328.7706, 5001.162
329.2527, 5014.597
329.7349, 4982.204
330.2170, 4940.592
330.6991, 4914.858
331.1812, 4913.431
331.6633, 4912.006
332.1454, 4906.879
332.6276, 4899.162
333.1097, 4897.854
333.5918, 4908.325
334.0739, 4916.963
334.5560, 4912.461
335.0381, 4888.440
335.5203, 4874.300
336.0024, 4879.557
336.4845, 4895.405
336.9666, 4883.815
337.4487, 4835.112
337.9308, 4787.354
338.4130, 4769.112
338.8951, 4783.341
339.3772, 4793.071
339.8593, 4794.486
340.3414, 4789.833
340.8235, 4778.523
341.3057, 4758.090
341.7878, 4752.583
342.2699, 4791.537
342.7520, 4868.628
343.2341, 4909.005
343.7162, 4897.472
344.1984, 4864.503
344.6805, 4865.214
345.1626, 4897.521
345.6447, 4928.546
346.1268, 4935.592
346.6089, 4926.428
347.0911, 4924.414
347.5732, 4932.699
348.0553, 4943.057
348.5374, 4942.751
349.0195, 4934.910
349.5016, 4931.202
349.9838, 4940.037
350.4659, 4956.205
350.9480, 4973.063
351.4301, 4990.835
351.9122, 5006.464
352.3943, 5015.167
352.8765, 5019.745
353.3586, 5026.004
353.8407, 5035.906
354.3228, 5048.952
354.8049, 5062.951
355.2870, 5077.470
355.7692, 5099.309
356.2513, 5138.673
356.7334, 5186.410
357.2155, 5230.493
357.6976, 5261.105
358.1797, 5291.135
358.6619, 5327.329
359.1440, 5369.760
359.6261, 5415.174
360.1082, 5459.467
360.5903, 5507.332
361.0724, 5563.008
361.5546, 5627.899
362.0367, 5700.367
362.5188, 5781.643
363.0009, 5871.246
363.4830, 5964.711
363.9651, 6067.165
364.4473, 6169.392
364.9294, 6266.034
365.4115, 6379.510
365.8936, 6459.368
366.3757, 6499.924
366.8578, 6503.250
367.3399, 6479.660
367.8221, 6420.063
368.3042, 6341.985
368.7863, 6252.374
369.2684, 6147.533
369.7505, 6036.485
370.2326, 5918.403
370.7148, 5795.936
371.1969, 5675.679
371.6790, 5551.883
372.1611, 5442.864
372.6432, 5359.016
373.1253, 5307.334
373.6075, 5253.915
374.0896, 5195.993
374.5717, 5140.034
375.0538, 5098.754
375.5359, 5075.234
376.0180, 5050.456
376.5002, 5012.952
376.9823, 4964.076
377.4644, 4931.320
377.9465, 4917.961
378.4286, 4910.774
378.9107, 4890.253
379.3929, 4857.650
379.8750, 4835.014
380.3571, 4835.654
380.8392, 4850.116
381.3213, 4850.422
381.8034, 4835.960
382.2856, 4819.671
382.7677, 4809.909
383.2498, 4807.486
383.7319, 4816.123
384.2140, 4847.620
384.6961, 4880.206
385.1783, 4880.261
385.6604, 4851.637
386.1425, 4825.391
386.6246, 4826.787
387.1067, 4840.981
387.5888, 4848.431
388.0710, 4840.083
388.5531, 4831.551
389.0352, 4834.065
389.5173, 4845.412
389.9994, 4859.043
390.4815, 4874.002
390.9637, 4888.701
391.4458, 4902.244
391.9279, 4914.775
392.4100, 4925.161
392.8921, 4930.137
393.3742, 4932.826
393.8564, 4938.764
394.3385, 4947.660
394.8206, 4961.340
395.3027, 4983.608
395.7848, 5019.730
396.2669, 5044.187
396.7491, 5029.418
397.2312, 5011.496
397.7133, 5033.164
398.1954, 5139.365
398.6775, 5228.796
399.1596, 5277.886
399.6418, 5285.445
400.1239, 5304.817
400.6060, 5343.974
401.0881, 5386.372
401.5702, 5416.052
402.0523, 5423.969
402.5345, 5445.023
403.0166, 5486.863
403.4987, 5545.110
403.9808, 5603.324
404.4629, 5662.884
404.9450, 5715.221
405.4272, 5754.390
405.9093, 5780.251
406.3914, 5795.872
406.8735, 5799.758
407.3556, 5796.202
407.8377, 5793.910
408.3199, 5792.548
408.8020, 5785.807
409.2841, 5770.177
409.7662, 5746.438
410.2483, 5716.537
410.7304, 5680.485
411.2126, 5640.390
411.6946, 5587.874
412.1768, 5532.399
412.6589, 5497.083
413.1410, 5506.330
413.6231, 5533.409
414.1052, 5550.206
414.5873, 5556.612
415.0695, 5564.092
415.5516, 5584.895
416.0337, 5609.356
416.5158, 5625.979
416.9979, 5624.108
417.4800, 5620.853
417.9622, 5620.173
418.4443, 5623.407
418.9264, 5637.336
419.4085, 5679.410
419.8906, 5722.714
420.3727, 5749.958
420.8549, 5746.979
421.3370, 5746.254
421.8191, 5757.358
422.3012, 5773.845
422.7833, 5780.115
423.2654, 5768.563
423.7476, 5753.574
424.2297, 5738.386
424.7118, 5721.681
425.1939, 5709.649
425.6760, 5703.898
426.1581, 5701.733
426.6403, 5700.680
427.1224, 5702.965
427.6045, 5700.618
428.0866, 5690.234
428.5687, 5672.792
429.0508, 5657.781
429.5330, 5643.325
430.0151, 5637.639
430.4972, 5654.206
430.9793, 5691.888
431.4614, 5717.073
431.9435, 5719.100
432.4257, 5710.127
432.9078, 5717.543
433.3899, 5740.144
433.8720, 5761.090
434.3541, 5763.032
434.8362, 5756.104
435.3184, 5761.906
435.8005, 5784.199
436.2826, 5813.826
436.7647, 5848.980
437.2468, 5885.048
437.7289, 5910.709
438.2111, 5913.733
438.6932, 5909.537
439.1753, 5911.997
439.6574, 5922.268
440.1395, 5926.487
440.6216, 5907.596
441.1038, 5883.092
441.5859, 5871.186
442.0680, 5893.149
442.5501, 5911.195
443.0322, 5914.478
443.5143, 5904.183
443.9965, 5889.134
444.4786, 5859.062
444.9607, 5833.021
445.4428, 5820.831
445.9249, 5831.313
446.4070, 5841.552
446.8892, 5854.487
447.3713, 5866.229
447.8534, 5867.413
448.3355, 5851.222
448.8176, 5837.578
449.2997, 5832.618
449.7819, 5836.607
450.2640, 5849.493
450.7461, 5875.237
451.2282, 5901.629
451.7103, 5913.267
452.1924, 5909.907
452.6746, 5904.103
453.1567, 5896.486
453.6388, 5890.056
454.1209, 5894.333
454.6030, 5909.165
455.0851, 5926.114
455.5673, 5940.356
456.0494, 5951.838
456.5315, 5961.545
457.0136, 5970.639
457.4957, 5974.903
457.9778, 5971.871
458.4599, 5961.018
458.9420, 5940.854
459.4242, 5903.229
459.9063, 5861.160
460.3884, 5823.332
460.8705, 5790.355
461.3526, 5764.311
461.8347, 5758.015
462.3169, 5755.054
462.7990, 5738.360
463.2811, 5684.764
463.7632, 5637.200
464.2453, 5605.729
464.7274, 5589.807
465.2096, 5579.980
465.6917, 5584.963
466.1738, 5587.866
466.6559, 5579.489
467.1380, 5546.550
467.6201, 5528.521
468.1023, 5532.445
468.5844, 5547.040
469.0665, 5547.834
469.5486, 5528.166
470.0307, 5515.884
470.5128, 5526.743
470.9950, 5558.429
471.4771, 5567.244
471.9592, 5550.167
472.4413, 5522.923
472.9234, 5496.902
473.4055, 5473.252
473.8877, 5460.268
474.3698, 5463.802
474.8519, 5474.770
475.3340, 5476.552
475.8161, 5470.948
476.2982, 5469.278
476.7804, 5491.175
477.2625, 5515.942
477.7446, 5515.275
478.2267, 5479.897
478.7088, 5440.502
479.1909, 5410.220
479.6731, 5390.226
480.1552, 5382.421
480.6373, 5397.753
481.1194, 5416.094
481.6015, 5431.538
482.0836, 5443.808
482.5658, 5446.865
483.0479, 5425.057
483.5300, 5402.550
484.0121, 5396.731
484.4942, 5427.543
484.9763, 5447.251
485.4585, 5450.787
485.9406, 5442.602
486.4227, 5433.592
486.9048, 5421.844
487.3869, 5413.744
487.8690, 5413.079
488.3512, 5420.556
488.8333, 5427.049
489.3154, 5433.502
489.7975, 5436.303
490.2796, 5425.871
490.7617, 5403.725
491.2439, 5393.583
491.7260, 5406.356
492.2081, 5431.389
492.6902, 5449.840
493.1723, 5461.649
493.6544, 5469.377
494.1366, 5474.508
494.6187, 5476.626
495.1008, 5473.114
495.5829, 5460.638
496.0650, 5452.706
496.5471, 5462.275
497.0293, 5482.359
497.5114, 5500.823
497.9935, 5511.245
498.4756, 5521.057
498.9577, 5532.389
499.4398, 5545.390
499.9220, 5562.235
500.4041, 5593.180
500.8862, 5621.966
501.3683, 5635.909
501.8504, 5609.142
502.3325, 5607.981
502.8146, 5646.555
503.2968, 5709.393
503.7789, 5757.783
504.2610, 5791.060
504.7431, 5812.387
505.2252, 5817.492
505.7073, 5806.478
506.1895, 5813.515
506.6716, 5842.226
507.1537, 5876.259
507.6358, 5891.430
508.1179, 5892.751
508.6000, 5914.135
509.0822, 5973.755
509.5643, 6046.354
510.0464, 6090.682
510.5285, 6112.094
511.0106, 6137.643
511.4927, 6190.139
511.9749, 6252.038
512.4570, 6303.671
512.9391, 6339.820
513.4212, 6377.438
513.9033, 6427.260
514.3854, 6483.507
514.8676, 6538.007
515.3497, 6586.654
515.8318, 6635.820
516.3139, 6688.796
516.7960, 6744.770
517.2781, 6796.958
517.7603, 6838.108
518.2424, 6882.174
518.7245, 6939.111
519.2066, 7024.829
519.6887, 7080.661
520.1708, 7093.187
520.6530, 7089.127
521.1351, 7115.639
521.6172, 7177.168
522.0993, 7235.934
522.5814, 7281.013
523.0635, 7313.703
523.5457, 7339.181
524.0278, 7357.767
524.5099, 7365.118
524.9920, 7358.278
525.4741, 7337.654
525.9562, 7300.296
526.4384, 7240.257
526.9205, 7179.719
527.4026, 7145.579
527.8847, 7126.366
528.3668, 7096.483
528.8489, 7032.968
529.3311, 6965.633
529.8132, 6911.347
530.2953, 6870.740
530.7774, 6833.218
531.2595, 6798.722
531.7416, 6764.691
532.2238, 6729.731
532.7059, 6698.237
533.1880, 6658.710
533.6701, 6602.512
534.1522, 6540.689
534.6343, 6501.680
535.1165, 6495.819
535.5986, 6486.810
536.0807, 6459.178
536.5628, 6413.959
537.0449, 6381.798
537.5270, 6364.017
538.0092, 6350.673
538.4913, 6332.670
538.9734, 6311.021
539.4555, 6289.160
539.9376, 6266.940
540.4197, 6246.732
540.9019, 6231.778
541.3840, 6221.000
541.8661, 6210.879
542.3482, 6196.458
542.8303, 6184.078
543.3124, 6177.945
543.7946, 6178.358
544.2767, 6185.089
544.7588, 6207.985
545.2409, 6231.518
545.7230, 6242.837
546.2051, 6220.132
546.6873, 6208.749
547.1694, 6217.393
547.6515, 6239.687
548.1336, 6261.722
548.6157, 6287.522
549.0978, 6305.618
549.5800, 6310.566
550.0621, 6302.270
550.5442, 6294.266
551.0263, 6285.783
551.5084, 6280.854
551.9905, 6280.334
552.4727, 6285.541
552.9548, 6309.931
553.4369, 6364.469
553.9190, 6422.559
554.4011, 6438.438
554.8832, 6422.786
555.3654, 6413.612
555.8475, 6440.749
556.3296, 6476.747
556.8117, 6495.595
557.2938, 6495.817
557.7759, 6496.458
558.2581, 6505.762
558.7402, 6519.445
559.2223, 6533.997
559.7044, 6547.871
560.1865, 6563.351
560.6686, 6588.746
561.1508, 6614.922
561.6329, 6620.974
562.1150, 6590.593
562.5971, 6567.602
563.0792, 6567.602
563.5613, 6590.086
564.0435, 6607.523
564.5256, 6620.518
565.0077, 6626.814
565.4898, 6622.487
565.9719, 6608.758
566.4540, 6593.506
566.9362, 6577.071
567.4183, 6561.905
567.9004, 6549.910
568.3824, 6541.870
568.8646, 6540.633
569.3467, 6563.517
569.8288, 6581.990
570.3109, 6565.793
570.7930, 6517.730
571.2751, 6474.690
571.7573, 6460.006
572.2394, 6452.491
572.7215, 6437.753
573.2036, 6405.754
573.6857, 6381.511
574.1678, 6375.513
574.6500, 6375.108
575.1321, 6361.603
575.6142, 6325.284
576.0963, 6296.033
576.5784, 6281.267
577.0605, 6278.951
577.5427, 6280.902
578.0248, 6288.779
578.5069, 6290.796
578.9890, 6274.919
579.4711, 6245.727
579.9532, 6222.804
580.4354, 6208.304
580.9175, 6195.750
581.3996, 6175.541
581.8817, 6152.871
582.3638, 6137.943
582.8459, 6147.311
583.3281, 6151.981
583.8102, 6124.741
584.2923, 6075.816
584.7744, 6040.646
585.2565, 6049.588
585.7386, 6058.875
586.2208, 6046.573
586.7029, 6003.262
587.1850, 5970.268
587.6671, 5954.143
588.1492, 5942.368
588.6313, 5922.287
589.1135, 5889.047
589.5956, 5866.204
590.0777, 5858.198
590.5598, 5860.147
591.0419, 5862.580
591.5240, 5865.403
592.0062, 5868.706
592.4883, 5871.851
592.9704, 5875.654
593.4525, 5881.563
593.9346, 5889.594
594.4167, 5899.743
594.8989, 5920.195
595.3810, 5938.908
595.8631, 5940.542
596.3452, 5911.830
596.8273, 5889.835
597.3094, 5895.171
597.7916, 5914.370
598.2737, 5926.437
598.7558, 5921.697
599.2379, 5916.504
599.7200, 5907.788
600.2021, 5898.569
600.6843, 5918.476
601.1664, 5983.743
601.6485, 6040.567
602.1306, 6051.964
602.6127, 6018.367
603.0948, 5994.958
603.5770, 5981.700
604.0591, 5986.695
604.5412, 6037.261
605.0233, 6115.427
605.5054, 6165.615
605.9875, 6160.479
606.4697, 6140.217
606.9518, 6129.824
607.4339, 6133.548
607.9160, 6162.899
608.3981, 6256.786
608.8802, 6348.321
609.3624, 6398.678
609.8445, 6402.284
610.3266, 6409.354
610.8087, 6421.788
611.2908, 6442.979
611.7729, 6476.854
612.2551, 6531.458
612.7372, 6576.684
613.2193, 6608.317
613.7014, 6634.253
614.1835, 6665.681
614.6656, 6702.755
615.1478, 6747.023
615.6299, 6799.343
616.1120, 6860.013
616.5941, 6935.973
617.0762, 7024.309
617.5583, 7105.632
618.0405, 7151.355
618.5226, 7193.982
619.0047, 7271.174
619.4868, 7390.442
619.9689, 7510.104
620.4510, 7606.021
620.9332, 7697.036
621.4153, 7799.146
621.8974, 7928.475
622.3795, 8051.760
622.8616, 8156.635
623.3438, 8256.807
623.8259, 8384.160
624.3080, 8550.062
624.7901, 8709.663
625.2722, 8842.226
625.7543, 8956.672
626.2365, 9101.503
626.7186, 9276.230
627.2007, 9464.933
627.6828, 9663.238
628.1649, 9865.021
628.6470, 10058.61
629.1292, 10240.42
629.6113, 10416.53
630.0934, 10595.76
630.5755, 10769.46
631.0576, 10929.38
631.5397, 11077.17
632.0219, 11206.50
632.5040, 11310.14
632.9861, 11392.92
633.4682, 11470.07
633.9503, 11566.29
634.4324, 11625.19
634.9146, 11633.97
635.3967, 11592.82
635.8788, 11497.27
