##NAMES=Augelite
##RRUFFID=R050060
##IDEAL CHEMISTRY=Al_2_PO_4_(OH)_3_
##LOCALITY=Machacamarca, Potosi Department, Bolivia
##OWNER=RRUFF
##SOURCE=Rock Currier
##DESCRIPTION=Colorless prismatic crystals
##STATUS=The identification of this mineral has been confirmed by X-ray diffraction and chemical analysis
##URL=rruff.info/R050060
##MEASURED CHEMISTRY=Al_2.00_(P_1.00_O_4_)(OH)_3_; OH estimated by difference
141.8225, 3400.420
142.3047, 3402.983
142.7868, 3419.370
143.2689, 3449.744
143.7510, 3496.768
144.2331, 3555.169
144.7152, 3617.212
145.1974, 3677.792
145.6795, 3750.709
146.1616, 3843.629
146.6437, 3968.026
147.1258, 4080.913
147.6079, 4169.502
148.0901, 4247.376
148.5722, 4346.442
149.0543, 4474.034
149.5364, 4616.657
150.0185, 4767.385
150.5006, 4921.688
150.9828, 5089.176
151.4649, 5265.107
151.9470, 5450.673
152.4291, 5660.860
152.9112, 5899.993
153.3933, 6160.385
153.8755, 6439.494
154.3576, 6751.413
154.8397, 7065.352
155.3218, 7368.109
155.8039, 7657.182
156.2860, 7968.560
156.7682, 8317.810
157.2503, 8686.430
157.7324, 9054.620
158.2145, 9425.662
158.6966, 9785.691
159.1787, 10131.10
159.6609, 10466.75
160.1430, 10777.39
160.6251, 11072.83
161.1072, 11339.49
161.5893, 11546.13
162.0714, 11684.24
162.5536, 11755.53
163.0357, 11761.96
163.5178, 11713.66
163.9999, 11590.97
164.4820, 11372.25
164.9641, 11064.70
165.4463, 10715.38
165.9284, 10327.58
166.4105, 9916.803
166.8926, 9499.747
167.3747, 9076.687
167.8568, 8652.883
168.3390, 8222.871
168.8211, 7792.711
169.3032, 7377.413
169.7853, 6988.613
170.2674, 6622.823
170.7495, 6274.097
171.2317, 5927.756
171.7138, 5601.318
172.1959, 5319.515
172.6780, 5092.137
173.1601, 4887.058
173.6422, 4675.409
174.1244, 4462.414
174.6065, 4269.469
175.0886, 4118.223
175.5707, 3990.646
176.0528, 3859.068
176.5349, 3714.676
177.0171, 3571.004
177.4992, 3439.543
177.9813, 3321.279
178.4634, 3215.145
178.9455, 3125.996
179.4276, 3049.236
179.9098, 2972.122
180.3919, 2887.498
180.8740, 2802.265
181.3561, 2723.523
181.8382, 2651.878
182.3203, 2587.781
182.8025, 2534.099
183.2846, 2489.744
183.7667, 2447.938
184.2488, 2403.973
184.7309, 2360.398
185.2130, 2330.849
185.6951, 2318.948
186.1773, 2306.191
186.6594, 2258.399
187.1415, 2179.587
187.6236, 2111.198
188.1057, 2079.624
188.5878, 2078.691
189.0700, 2079.097
189.5521, 2080.358
190.0342, 2078.292
190.5163, 2061.912
190.9984, 2030.825
191.4805, 1999.130
191.9627, 1977.962
192.4448, 1966.443
192.9269, 1953.950
193.4090, 1937.363
193.8911, 1919.368
194.3732, 1908.381
194.8554, 1904.856
195.3375, 1905.269
195.8196, 1906.558
196.3017, 1908.729
196.7838, 1913.347
197.2659, 1922.601
197.7481, 1935.204
198.2302, 1940.258
198.7123, 1935.188
199.1944, 1930.120
199.6765, 1937.615
200.1586, 1958.832
200.6408, 1984.492
201.1229, 2013.645
201.6050, 2046.172
202.0871, 2072.501
202.5692, 2090.230
203.0513, 2105.400
203.5335, 2126.700
204.0156, 2153.515
204.4977, 2188.800
204.9798, 2236.512
205.4619, 2298.222
205.9440, 2356.726
206.4262, 2409.281
206.9083, 2459.832
207.3904, 2518.937
207.8725, 2588.328
208.3546, 2661.266
208.8367, 2732.053
209.3189, 2798.169
209.8010, 2874.879
210.2831, 2965.024
210.7652, 3067.237
211.2473, 3175.675
211.7294, 3290.013
212.2116, 3411.729
212.6937, 3539.464
213.1758, 3672.455
213.6579, 3817.620
214.1400, 3976.604
214.6221, 4150.255
215.1043, 4336.078
215.5864, 4532.337
216.0685, 4746.319
216.5506, 4984.291
217.0327, 5254.641
217.5148, 5533.283
217.9970, 5817.597
218.4791, 6104.824
218.9612, 6408.916
219.4433, 6745.805
219.9254, 7079.460
220.4075, 7361.389
220.8897, 7578.167
221.3718, 7766.042
221.8539, 7934.292
222.3360, 8090.173
222.8181, 8200.245
223.3002, 8259.258
223.7824, 8274.655
224.2645, 8263.859
224.7466, 8248.371
225.2287, 8169.289
225.7108, 8005.438
226.1929, 7755.375
226.6750, 7423.170
227.1572, 6982.876
227.6393, 6471.995
228.1214, 5970.676
228.6035, 5462.820
229.0856, 4994.921
229.5677, 4594.918
230.0499, 4287.070
230.5320, 4001.765
231.0141, 3735.775
231.4962, 3492.448
231.9783, 3281.860
232.4604, 3115.727
232.9426, 2970.031
233.4247, 2826.969
233.9068, 2677.914
234.3889, 2555.177
234.8710, 2469.429
235.3531, 2415.759
235.8353, 2355.428
236.3174, 2280.853
236.7995, 2208.271
237.2816, 2150.610
237.7637, 2115.018
238.2458, 2080.612
238.7280, 2044.171
239.2101, 2005.771
239.6922, 1970.658
240.1743, 1940.247
240.6564, 1911.690
241.1385, 1881.866
241.6207, 1846.394
242.1028, 1816.678
242.5849, 1794.172
243.0670, 1778.804
243.5491, 1772.143
244.0313, 1779.193
244.5134, 1790.762
244.9955, 1795.865
245.4776, 1790.323
245.9597, 1785.539
246.4418, 1784.076
246.9240, 1786.166
247.4061, 1790.799
247.8882, 1800.566
248.3703, 1810.992
248.8524, 1816.110
249.3345, 1817.287
249.8167, 1810.694
250.2988, 1794.161
250.7809, 1765.412
251.2630, 1735.679
251.7451, 1706.349
252.2272, 1675.466
252.7094, 1637.151
253.1915, 1579.420
253.6736, 1534.740
254.1557, 1521.260
254.6378, 1559.438
255.1199, 1562.010
255.6021, 1513.458
256.0842, 1436.868
256.5663, 1383.607
257.0484, 1363.627
257.5305, 1349.481
258.0126, 1328.776
258.4948, 1296.708
258.9769, 1271.014
259.4590, 1251.631
259.9411, 1238.720
260.4232, 1233.571
260.9053, 1240.558
261.3875, 1247.324
261.8696, 1246.932
262.3517, 1236.542
262.8338, 1228.031
263.3159, 1222.143
263.7980, 1218.493
264.2802, 1216.441
264.7623, 1217.093
265.2444, 1217.057
265.7265, 1213.568
266.2086, 1205.043
266.6907, 1199.033
267.1729, 1196.516
267.6550, 1196.911
268.1371, 1198.266
268.6192, 1200.798
269.1013, 1203.718
269.5834, 1207.299
270.0656, 1212.488
270.5477, 1213.245
271.0298, 1206.738
271.5119, 1195.565
271.9940, 1192.375
272.4761, 1200.706
272.9583, 1208.126
273.4404, 1201.393
273.9225, 1175.627
274.4046, 1164.637
274.8867, 1178.913
275.3688, 1210.999
275.8510, 1225.649
276.3331, 1218.650
276.8152, 1206.620
277.2973, 1204.257
277.7794, 1212.872
278.2615, 1218.023
278.7437, 1214.541
279.2258, 1205.792
279.7079, 1209.847
280.1900, 1230.097
280.6721, 1250.080
281.1542, 1253.006
281.6364, 1238.101
282.1185, 1223.894
282.6006, 1212.186
283.0827, 1204.573
283.5648, 1210.698
284.0469, 1232.961
284.5291, 1256.542
285.0112, 1263.582
285.4933, 1254.807
285.9754, 1254.911
286.4575, 1274.636
286.9396, 1306.651
287.4217, 1324.121
287.9038, 1325.609
288.3860, 1322.752
288.8681, 1323.779
289.3502, 1329.081
289.8323, 1343.058
290.3144, 1369.835
290.7965, 1405.021
291.2787, 1435.489
291.7608, 1460.853
292.2429, 1486.894
292.7250, 1520.269
293.2071, 1559.845
293.6892, 1600.096
294.1714, 1638.359
294.6535, 1676.133
295.1356, 1722.309
295.6177, 1777.918
296.0998, 1823.854
296.5819, 1848.584
297.0641, 1850.723
297.5462, 1824.338
298.0283, 1752.358
298.5104, 1659.055
298.9925, 1580.796
299.4746, 1517.314
299.9568, 1466.744
300.4389, 1428.435
300.9210, 1401.359
301.4031, 1382.317
301.8852, 1373.664
302.3673, 1370.664
302.8495, 1368.793
303.3316, 1367.976
303.8137, 1365.005
304.2958, 1350.873
304.7779, 1333.295
305.2600, 1326.363
305.7422, 1340.593
306.2243, 1364.399
306.7064, 1387.744
307.1885, 1410.832
307.6706, 1433.722
308.1527, 1460.901
308.6349, 1487.089
309.1170, 1504.461
309.5991, 1489.033
310.0812, 1479.314
310.5633, 1517.760
311.0454, 1601.022
311.5276, 1666.197
312.0097, 1654.232
312.4918, 1611.115
312.9739, 1588.006
313.4560, 1617.635
313.9381, 1660.193
314.4203, 1697.497
314.9024, 1729.791
315.3845, 1756.104
315.8666, 1765.903
316.3487, 1773.837
316.8308, 1793.738
317.3130, 1839.040
317.7951, 1888.547
318.2772, 1934.182
318.7593, 1976.292
319.2414, 2017.799
319.7235, 2061.614
320.2057, 2104.229
320.6878, 2142.875
321.1699, 2168.010
321.6520, 2198.375
322.1341, 2242.216
322.6162, 2298.058
323.0984, 2348.745
323.5805, 2386.767
324.0626, 2421.126
324.5447, 2457.902
325.0268, 2504.351
325.5089, 2546.213
325.9911, 2583.671
326.4732, 2615.842
326.9553, 2637.637
327.4374, 2632.518
327.9195, 2627.588
328.4016, 2638.788
328.8838, 2697.231
329.3659, 2732.549
329.8480, 2733.050
330.3301, 2703.748
330.8122, 2676.268
331.2943, 2647.719
331.7765, 2623.545
332.2586, 2608.160
332.7407, 2613.027
333.2228, 2605.723
333.7049, 2581.309
334.1870, 2543.223
334.6692, 2505.386
335.1513, 2469.040
335.6334, 2430.525
336.1155, 2388.616
336.5976, 2343.615
337.0797, 2292.105
337.5619, 2229.164
338.0440, 2161.886
338.5261, 2114.651
339.0082, 2092.905
339.4903, 2075.007
339.9724, 2049.521
340.4546, 2015.330
340.9367, 1980.545
341.4188, 1943.689
341.9009, 1908.234
342.3830, 1882.544
342.8651, 1867.625
343.3473, 1854.022
343.8294, 1836.909
344.3115, 1816.495
344.7936, 1796.050
345.2757, 1774.469
345.7578, 1755.643
346.2400, 1747.789
346.7221, 1750.342
347.2042, 1751.741
347.6863, 1742.633
348.1684, 1727.414
348.6505, 1721.815
349.1327, 1727.845
349.6148, 1736.792
350.0969, 1740.088
350.5790, 1737.788
351.0611, 1730.266
351.5432, 1707.001
352.0254, 1682.018
352.5075, 1680.788
352.9896, 1705.997
353.4717, 1736.961
353.9538, 1758.272
354.4359, 1771.457
354.9181, 1778.782
355.4002, 1775.276
355.8823, 1770.109
356.3644, 1771.214
356.8465, 1778.814
357.3286, 1791.077
357.8108, 1805.450
358.2929, 1824.264
358.7750, 1850.773
359.2571, 1894.262
359.7392, 1939.014
360.2213, 1972.948
360.7035, 1997.173
361.1856, 2028.973
361.6677, 2074.719
362.1498, 2131.879
362.6319, 2198.716
363.1140, 2282.563
363.5962, 2368.044
364.0783, 2450.936
364.5604, 2531.561
365.0425, 2612.520
365.5246, 2704.019
366.0067, 2790.090
366.4889, 2860.886
366.9710, 2918.750
367.4531, 2958.180
367.9352, 2988.981
368.4173, 3004.366
368.8994, 2972.965
369.3815, 2861.916
369.8636, 2732.976
370.3458, 2613.467
370.8279, 2508.571
371.3100, 2401.910
371.7921, 2286.703
372.2742, 2170.586
372.7563, 2072.883
373.2385, 2000.990
373.7206, 1936.638
374.2027, 1872.722
374.6848, 1807.426
375.1669, 1750.970
375.6490, 1703.732
376.1312, 1664.947
376.6133, 1633.542
377.0954, 1610.563
377.5775, 1590.430
378.0596, 1569.737
378.5417, 1549.038
379.0239, 1535.756
379.5060, 1530.640
379.9881, 1531.083
380.4702, 1537.213
380.9523, 1548.691
381.4344, 1554.032
381.9166, 1545.165
382.3987, 1528.200
382.8808, 1523.194
383.3629, 1530.853
383.8450, 1539.714
384.3271, 1534.637
384.8093, 1521.156
385.2914, 1516.937
385.7735, 1530.646
386.2556, 1552.805
386.7377, 1571.544
387.2198, 1587.025
387.7020, 1601.177
388.1841, 1613.213
388.6662, 1625.210
389.1483, 1639.410
389.6304, 1653.571
390.1125, 1674.651
390.5947, 1715.377
391.0768, 1769.305
391.5589, 1814.958
392.0410, 1831.508
392.5231, 1841.959
393.0052, 1862.913
393.4874, 1898.429
393.9695, 1941.596
394.4516, 1995.377
394.9337, 2054.655
395.4158, 2110.059
395.8979, 2145.309
396.3801, 2187.732
396.8622, 2249.765
397.3443, 2337.491
397.8264, 2426.590
398.3085, 2505.679
398.7906, 2586.575
399.2728, 2683.345
399.7549, 2808.357
400.2370, 2935.735
400.7191, 3058.922
401.2012, 3176.923
401.6833, 3305.594
402.1655, 3438.715
402.6476, 3587.019
403.1297, 3761.310
403.6118, 3970.485
404.0939, 4185.674
404.5760, 4403.201
405.0582, 4622.664
405.5403, 4840.423
406.0224, 5058.710
406.5045, 5262.838
406.9866, 5445.936
407.4688, 5609.257
407.9509, 5737.087
408.4330, 5826.750
408.9151, 5883.291
409.3972, 5916.511
409.8793, 5926.101
410.3615, 5910.980
410.8436, 5862.063
411.3257, 5786.719
411.8078, 5710.150
412.2899, 5633.371
412.7720, 5556.452
413.2542, 5469.642
413.7363, 5381.813
414.2184, 5317.868
414.7005, 5304.131
415.1826, 5313.801
415.6647, 5315.421
416.1469, 5307.913
416.6290, 5305.136
417.1111, 5325.850
417.5932, 5354.856
418.0753, 5371.699
418.5574, 5365.122
419.0396, 5348.758
419.5217, 5332.456
420.0038, 5314.270
420.4859, 5280.365
420.9680, 5220.693
421.4501, 5146.232
421.9323, 5066.300
422.4144, 4986.416
422.8965, 4894.543
423.3786, 4776.254
423.8607, 4643.025
424.3428, 4526.598
424.8250, 4451.860
425.3071, 4372.813
425.7892, 4271.396
426.2713, 4128.273
426.7534, 4010.966
427.2355, 3929.797
427.7177, 3867.668
428.1998, 3800.985
428.6819, 3725.862
429.1640, 3654.837
429.6461, 3591.749
430.1282, 3537.040
430.6104, 3476.046
431.0925, 3404.842
431.5746, 3337.395
432.0567, 3291.487
432.5388, 3267.703
433.0209, 3242.879
433.5031, 3212.402
433.9852, 3177.769
434.4673, 3140.096
434.9494, 3099.716
435.4315, 3061.561
435.9136, 3028.235
436.3958, 3000.306
436.8779, 2981.505
437.3600, 2976.163
437.8421, 2969.899
438.3242, 2940.924
438.8063, 2897.221
439.2885, 2861.118
439.7706, 2846.970
440.2527, 2843.993
440.7348, 2845.260
441.2169, 2850.996
441.6990, 2852.317
442.1812, 2838.511
442.6633, 2819.348
443.1454, 2806.286
443.6275, 2804.202
444.1096, 2807.458
444.5917, 2815.906
445.0739, 2829.112
445.5560, 2841.716
446.0381, 2854.493
446.5202, 2865.083
447.0023, 2872.043
447.4844, 2870.724
447.9666, 2871.693
448.4487, 2875.831
448.9308, 2882.311
449.4129, 2888.624
449.8950, 2892.832
450.3771, 2899.937
450.8592, 2913.181
451.3413, 2934.285
451.8235, 2950.228
452.3056, 2958.967
452.7877, 2965.854
453.2698, 2977.928
453.7519, 2995.310
454.2340, 3015.820
454.7162, 3038.446
455.1983, 3063.800
455.6804, 3098.152
456.1625, 3142.335
456.6446, 3182.881
457.1267, 3204.672
457.6089, 3213.724
458.0910, 3228.396
458.5731, 3253.889
459.0552, 3283.493
459.5373, 3310.900
460.0194, 3335.819
460.5016, 3357.783
460.9837, 3371.990
461.4658, 3385.504
461.9479, 3404.928
462.4300, 3431.557
462.9121, 3460.572
463.3943, 3497.815
463.8764, 3533.561
464.3585, 3554.633
464.8406, 3550.718
465.3227, 3537.884
465.8048, 3519.589
466.2870, 3496.030
466.7691, 3470.388
467.2512, 3442.127
467.7333, 3412.157
468.2154, 3380.565
468.6975, 3341.425
469.1797, 3311.012
469.6618, 3297.365
470.1439, 3291.228
470.6260, 3267.598
471.1081, 3221.610
471.5902, 3169.660
472.0724, 3115.625
472.5545, 3058.243
473.0366, 3013.762
473.5187, 2985.078
474.0008, 2962.346
474.4829, 2935.650
474.9651, 2904.973
475.4472, 2869.104
475.9293, 2823.209
476.4114, 2775.067
476.8935, 2745.265
477.3756, 2732.384
477.8578, 2714.907
478.3399, 2665.078
478.8220, 2604.285
479.3041, 2565.905
479.7862, 2561.832
480.2683, 2567.229
480.7505, 2569.188
481.2326, 2566.678
481.7147, 2557.655
482.1968, 2535.470
482.6789, 2511.182
483.1610, 2488.984
483.6432, 2468.782
484.1253, 2454.291
484.6074, 2453.988
485.0895, 2456.015
485.5716, 2450.062
486.0537, 2425.329
486.5359, 2404.024
487.0180, 2384.804
487.5001, 2369.644
487.9822, 2370.190
488.4643, 2398.965
488.9464, 2422.938
489.4286, 2421.671
489.9107, 2387.168
490.3928, 2373.444
490.8749, 2388.168
491.3570, 2410.715
491.8391, 2406.080
492.3213, 2374.513
492.8034, 2351.671
493.2855, 2354.287
493.7676, 2372.905
494.2497, 2381.872
494.7318, 2381.447
495.2140, 2385.671
495.6961, 2415.037
496.1782, 2455.067
496.6603, 2477.811
497.1424, 2471.323
497.6245, 2460.923
498.1067, 2462.836
498.5888, 2475.951
499.0709, 2497.496
499.5530, 2532.297
500.0351, 2570.324
500.5172, 2609.077
500.9994, 2648.781
501.4815, 2679.683
501.9636, 2681.112
502.4457, 2682.177
502.9278, 2709.202
503.4099, 2798.417
503.8921, 2870.481
504.3742, 2911.605
504.8563, 2929.902
505.3384, 2958.453
505.8205, 2998.526
506.3026, 3046.703
506.7848, 3101.652
507.2669, 3164.203
507.7490, 3233.417
508.2311, 3311.952
508.7132, 3391.699
509.1953, 3459.042
509.6775, 3515.437
510.1596, 3581.357
510.6417, 3664.049
511.1238, 3759.270
511.6059, 3862.170
512.0880, 3972.367
512.5701, 4080.987
513.0522, 4181.140
513.5344, 4277.277
514.0165, 4376.536
514.4986, 4483.205
514.9807, 4583.673
515.4628, 4655.103
515.9449, 4717.088
516.4271, 4801.709
516.9092, 4940.227
517.3913, 5084.792
517.8734, 5223.459
518.3555, 5356.042
518.8376, 5469.158
519.3198, 5543.815
519.8019, 5611.060
520.2840, 5691.506
520.7661, 5797.505
521.2482, 5891.583
521.7303, 5974.091
522.2125, 6042.917
522.6946, 6090.273
523.1767, 6113.402
523.6588, 6127.830
524.1409, 6139.978
524.6230, 6148.825
525.1052, 6149.859
525.5873, 6143.683
526.0694, 6124.910
526.5515, 6082.605
527.0336, 6023.223
527.5157, 5966.672
527.9979, 5923.972
528.4800, 5877.041
528.9621, 5807.987
529.4442, 5719.605
529.9263, 5617.841
530.4084, 5487.822
530.8906, 5359.200
531.3727, 5260.624
531.8548, 5198.350
532.3369, 5123.192
532.8190, 5004.678
533.3011, 4872.336
533.7833, 4754.908
534.2654, 4676.981
534.7475, 4587.230
535.2296, 4470.581
535.7117, 4337.347
536.1938, 4226.038
536.6760, 4144.648
537.1581, 4066.912
537.6402, 3978.103
538.1223, 3876.564
538.6044, 3792.899
539.0865, 3728.817
539.5687, 3675.217
540.0508, 3629.223
540.5329, 3587.718
541.0150, 3528.977
541.4971, 3438.161
541.9792, 3339.521
542.4614, 3276.614
542.9435, 3243.132
543.4256, 3209.696
543.9077, 3158.594
544.3898, 3099.125
544.8719, 3036.932
545.3541, 2971.008
545.8362, 2915.010
546.3183, 2882.301
546.8004, 2859.671
547.2825, 2832.429
547.7646, 2793.173
548.2468, 2753.827
548.7289, 2714.866
549.2110, 2677.142
549.6931, 2644.527
550.1752, 2619.270
550.6573, 2596.126
551.1395, 2572.300
551.6216, 2546.977
552.1037, 2527.022
552.5858, 2514.010
553.0679, 2502.710
553.5500, 2486.611
554.0322, 2466.069
554.5143, 2446.322
554.9964, 2429.309
555.4785, 2412.855
555.9606, 2392.166
556.4427, 2368.081
556.9249, 2345.576
557.4070, 2328.917
557.8891, 2314.797
558.3712, 2300.950
558.8533, 2287.719
559.3354, 2269.406
559.8176, 2234.489
560.2997, 2196.324
560.7818, 2168.523
561.2639, 2162.777
561.7460, 2158.786
562.2281, 2155.479
562.7103, 2151.260
563.1924, 2140.782
563.6745, 2122.662
564.1566, 2100.109
564.6387, 2073.429
565.1208, 2041.866
565.6030, 2012.250
566.0851, 1984.377
566.5672, 1959.699
567.0493, 1939.270
567.5314, 1923.463
568.0135, 1914.284
568.4957, 1915.438
568.9778, 1917.758
569.4599, 1905.134
569.9420, 1879.946
570.4241, 1852.819
570.9063, 1822.424
571.3884, 1796.953
571.8705, 1787.928
572.3526, 1795.717
572.8347, 1800.410
573.3168, 1791.886
573.7990, 1775.501
574.2811, 1755.504
574.7632, 1726.396
575.2453, 1702.402
575.7274, 1683.239
576.2095, 1670.811
576.6917, 1670.735
577.1738, 1696.042
577.6559, 1711.896
578.1380, 1705.018
578.6201, 1677.357
579.1022, 1660.997
579.5844, 1657.135
580.0665, 1660.073
580.5486, 1670.637
581.0307, 1686.476
581.5128, 1688.274
581.9949, 1671.317
582.4771, 1649.151
582.9592, 1636.317
583.4413, 1631.296
583.9234, 1630.326
584.4055, 1634.142
584.8876, 1639.561
585.3698, 1645.989
585.8519, 1652.658
586.3340, 1655.506
586.8161, 1647.282
587.2982, 1638.895
587.7803, 1637.078
588.2625, 1646.002
588.7446, 1652.287
589.2267, 1651.267
589.7088, 1650.040
590.1909, 1657.343
590.6730, 1677.832
591.1552, 1693.650
591.6373, 1700.628
592.1194, 1701.779
592.6015, 1705.948
593.0836, 1713.308
593.5657, 1720.977
594.0479, 1723.868
594.5300, 1726.242
595.0121, 1743.550
595.4942, 1776.680
595.9763, 1806.364
596.4584, 1809.584
596.9406, 1802.033
597.4227, 1805.341
597.9048, 1832.745
598.3869, 1858.165
598.8690, 1866.087
599.3511, 1864.028
599.8333, 1866.797
600.3154, 1875.510
600.7975, 1891.805
601.2796, 1920.816
601.7617, 1962.060
602.2438, 1989.347
602.7260, 1996.495
603.2081, 2000.538
603.6902, 2011.799
604.1723, 2030.774
604.6544, 2051.796
605.1365, 2074.917
605.6187, 2098.722
606.1008, 2117.850
606.5829, 2134.833
607.0650, 2160.853
607.5471, 2205.249
608.0292, 2254.249
608.5114, 2288.864
608.9935, 2313.171
609.4756, 2342.597
609.9577, 2390.293
610.4398, 2440.919
610.9219, 2482.313
611.4041, 2511.551
611.8862, 2548.301
612.3683, 2608.729
612.8504, 2670.565
613.3325, 2716.024
613.8146, 2732.915
614.2968, 2757.964
614.7789, 2792.689
615.2610, 2836.828
615.7431, 2889.932
616.2252, 2952.066
616.7073, 3020.168
617.1895, 3093.906
617.6716, 3172.259
618.1537, 3247.115
618.6358, 3320.398
619.1179, 3404.856
619.6000, 3516.327
620.0822, 3641.249
620.5643, 3761.479
621.0464, 3874.167
621.5285, 3992.913
622.0106, 4118.262
622.4927, 4255.543
622.9749, 4410.018
623.4570, 4585.751
623.9391, 4775.450
624.4212, 4977.796
624.9033, 5193.268
625.3854, 5424.085
625.8676, 5665.094
626.3497, 5927.303
626.8318, 6212.992
627.3139, 6522.446
627.7960, 6862.064
628.2781, 7233.411
628.7603, 7621.355
629.2424, 8004.787
629.7245, 8394.081
630.2066, 8828.988
630.6887, 9317.969
631.1708, 9835.570
631.6530, 10379.81
632.1351, 10932.99
632.6172, 11470.51
633.0993, 12011.57
633.5814, 12498.74
634.0635, 12939.95
634.5457, 13319.64
635.0278, 13577.71
635.5099, 13709.44
635.9920, 13715.94
636.4741, 13592.48
636.9562, 13334.94
637.4384, 12966.37
637.9205, 12467.16
638.4026, 11899.61
