##NAMES=Augelite
##RRUFFID=R050316
##IDEAL CHEMISTRY=Al_2_PO_4_(OH)_3_
##LOCALITY=Rapid Creek, Yukon Territory, Canada
##OWNER=RRUFF
##SOURCE=Eugene Schlepp
##DESCRIPTION=Pale green thick prismatic crystals
##STATUS=The identification of this mineral has been confirmed by X-ray diffraction and chemical analysis
##URL=rruff.info/R050316
##MEASURED CHEMISTRY=Al_2.00_(P_1.00_O_4_)(OH)_3_
106.8170, 49.06104
107.2991, 52.05010
107.7813, 54.92196
108.2634, 57.57656
108.7455, 60.11316
109.2276, 62.76509
109.7097, 65.58714
110.1918, 68.51134
110.6740, 71.51438
111.1561, 74.46466
111.6382, 77.64101
112.1203, 80.93468
112.6024, 84.42799
113.0845, 88.44228
113.5667, 92.95655
114.0488, 98.02745
114.5309, 103.7504
115.0130, 110.7861
115.4951, 117.8214
115.9772, 124.3415
116.4594, 130.4181
116.9415, 136.8427
117.4236, 144.0605
117.9057, 151.7370
118.3878, 159.4806
118.8699, 166.5310
119.3521, 174.1552
119.8342, 183.1574
120.3163, 193.6178
120.7984, 205.1050
121.2805, 217.7200
121.7626, 231.1617
122.2448, 244.9153
122.7269, 259.8464
123.2090, 274.4378
123.6911, 287.1067
124.1732, 297.5215
124.6553, 306.7032
125.1375, 315.5586
125.6196, 323.9543
126.1017, 331.4677
126.5838, 337.6070
127.0659, 342.7306
127.5480, 347.4457
128.0302, 351.7741
128.5123, 355.9370
128.9944, 360.6139
129.4765, 365.6752
129.9586, 369.9122
130.4407, 372.7285
130.9229, 374.0716
131.4050, 373.5691
131.8871, 370.7591
132.3692, 366.4379
132.8513, 362.2355
133.3334, 357.5954
133.8156, 351.5335
134.2977, 344.5189
134.7798, 337.7818
135.2619, 331.7020
135.7440, 325.9863
136.2261, 321.0121
136.7083, 318.2922
137.1904, 317.9597
137.6725, 319.2745
138.1546, 321.6786
138.6367, 325.2900
139.1188, 329.2748
139.6010, 333.0604
140.0831, 336.6097
140.5652, 342.8182
141.0473, 352.3335
141.5294, 363.6127
142.0115, 374.5598
142.4937, 385.0754
142.9758, 395.7072
143.4579, 406.6248
143.9400, 417.6449
144.4221, 429.5004
144.9042, 442.1346
145.3864, 455.6164
145.8685, 469.8114
146.3506, 485.1750
146.8327, 500.7668
147.3148, 516.4800
147.7969, 532.2682
148.2791, 548.0306
148.7612, 563.1316
149.2433, 578.1890
149.7254, 594.9398
150.2075, 613.4712
150.6896, 633.4972
151.1718, 654.8278
151.6539, 678.7177
152.1360, 702.1226
152.6181, 724.1480
153.1002, 745.5313
153.5823, 768.3694
154.0645, 793.2894
154.5466, 819.5731
155.0287, 846.8330
155.5108, 876.1207
155.9929, 905.5768
156.4750, 934.4844
156.9572, 963.1409
157.4393, 992.1558
157.9214, 1023.978
158.4035, 1055.101
158.8856, 1083.436
159.3677, 1108.791
159.8499, 1131.200
160.3320, 1150.955
160.8141, 1167.895
161.2962, 1180.752
161.7783, 1190.690
162.2604, 1195.515
162.7426, 1193.420
163.2247, 1183.909
163.7068, 1167.447
164.1889, 1142.838
164.6710, 1110.614
165.1531, 1074.928
165.6353, 1036.257
166.1174, 995.7521
166.5995, 954.6520
167.0816, 912.6072
167.5637, 870.6716
168.0458, 828.9471
168.5280, 787.8011
169.0101, 747.8900
169.4922, 710.0229
169.9743, 673.9722
170.4564, 639.6703
170.9385, 606.9319
171.4207, 576.0079
171.9028, 547.0363
172.3849, 520.1671
172.8670, 495.2557
173.3491, 472.1245
173.8312, 450.6827
174.3134, 430.6788
174.7955, 412.3350
175.2776, 395.4044
175.7597, 379.9560
176.2418, 365.9707
176.7239, 352.7439
177.2061, 338.8448
177.6882, 324.7433
178.1703, 311.9815
178.6524, 301.6331
179.1345, 292.8459
179.6166, 284.5024
180.0988, 276.5193
180.5809, 268.6297
181.0630, 260.1062
181.5451, 251.1867
182.0272, 243.1968
182.5093, 236.9053
182.9915, 231.9457
183.4736, 227.7656
183.9557, 224.4622
184.4378, 221.2804
184.9199, 216.9486
185.4020, 211.6842
185.8842, 206.4542
186.3663, 201.7934
186.8484, 197.6127
187.3305, 193.7697
187.8126, 190.2095
188.2947, 186.9894
188.7769, 184.3793
189.2590, 182.3456
189.7411, 180.1831
190.2232, 177.0632
190.7053, 173.2638
191.1874, 170.5925
191.6696, 169.3545
192.1517, 168.9331
192.6338, 168.3110
193.1159, 167.4896
193.5980, 166.4532
194.0801, 164.9858
194.5623, 163.1507
195.0444, 161.7991
195.5265, 161.0648
196.0086, 160.7796
196.4907, 160.6669
196.9728, 160.7456
197.4550, 160.8280
197.9371, 160.7428
198.4192, 160.4837
198.9013, 160.3864
199.3834, 160.4269
199.8655, 160.6945
200.3477, 161.5078
200.8298, 162.9631
201.3119, 164.5280
201.7940, 165.5826
202.2761, 165.9645
202.7582, 167.8274
203.2404, 171.8203
203.7225, 177.0691
204.2046, 180.9501
204.6867, 183.0373
205.1688, 185.2395
205.6509, 188.7908
206.1331, 193.8953
206.6152, 199.1380
207.0973, 204.4920
207.5794, 209.8632
208.0615, 214.9126
208.5436, 219.5358
209.0258, 224.1350
209.5079, 228.9213
209.9900, 233.8995
210.4721, 238.8830
210.9542, 243.6648
211.4363, 248.5024
211.9185, 254.4179
212.4006, 261.8292
212.8827, 269.4683
213.3648, 276.1438
213.8469, 281.2918
214.3290, 287.8382
214.8112, 296.3024
215.2933, 306.2242
215.7754, 316.1816
216.2575, 325.8121
216.7396, 336.2005
217.2217, 348.0057
217.7038, 361.5138
218.1860, 375.4189
218.6681, 389.4343
219.1502, 403.7263
219.6323, 418.9047
220.1144, 435.3586
220.5965, 451.8127
221.0787, 467.2164
221.5608, 480.7706
222.0429, 495.4858
222.5250, 512.1625
223.0071, 530.0538
223.4892, 546.1823
223.9714, 562.0556
224.4535, 574.0670
224.9356, 581.1542
225.4177, 585.5780
225.8998, 579.0981
226.3819, 559.2854
226.8641, 528.4971
227.3462, 494.8184
227.8283, 456.1104
228.3104, 417.8277
228.7925, 382.8699
229.2746, 350.0734
229.7568, 322.3640
230.2389, 300.2891
230.7210, 283.0269
231.2031, 268.8350
231.6852, 258.4457
232.1673, 250.0450
232.6495, 242.8859
233.1316, 236.9415
233.6137, 232.3535
234.0958, 229.5258
234.5779, 228.0275
235.0600, 226.7063
235.5422, 225.4327
236.0243, 224.5057
236.5064, 224.0756
236.9885, 224.2823
237.4706, 224.6314
237.9527, 224.8205
238.4349, 225.2299
238.9170, 226.8472
239.3991, 230.0021
239.8812, 233.8712
240.3633, 238.1685
240.8454, 243.0053
241.3276, 247.9281
241.8097, 252.5016
242.2918, 257.2579
242.7739, 263.4274
243.2560, 271.7430
243.7381, 280.3306
244.2203, 288.2426
244.7024, 294.4936
245.1845, 302.9119
245.6666, 314.1304
246.1487, 327.1937
246.6308, 340.4224
247.1130, 353.1495
247.5951, 367.2358
248.0772, 383.7813
248.5593, 404.3477
249.0414, 422.0552
249.5235, 436.8896
250.0057, 448.8412
250.4878, 458.6142
250.9699, 468.3162
251.4520, 472.0727
251.9341, 467.8827
252.4162, 455.2144
252.8984, 436.8998
253.3805, 410.9294
253.8626, 380.6260
254.3447, 351.2213
254.8268, 321.5250
255.3089, 294.2553
255.7911, 270.6584
256.2732, 250.8935
256.7553, 232.3323
257.2374, 214.5414
257.7195, 198.3279
258.2017, 184.7250
258.6838, 174.0773
259.1659, 165.0038
259.6480, 157.2125
260.1301, 150.7867
260.6122, 145.1438
261.0944, 140.3669
261.5765, 136.2502
262.0586, 132.6515
262.5407, 129.7956
263.0228, 126.8298
263.5049, 123.4097
263.9871, 119.5604
264.4692, 116.7208
264.9513, 115.1065
265.4334, 114.1138
265.9155, 113.2642
266.3976, 112.6828
266.8798, 111.8501
267.3619, 110.5661
267.8440, 108.9119
268.3261, 107.6617
268.8082, 106.9062
269.2903, 106.3653
269.7725, 105.8190
270.2546, 105.2434
270.7367, 104.7943
271.2188, 104.4798
271.7009, 104.3131
272.1830, 104.4987
272.6652, 105.2794
273.1473, 105.7395
273.6294, 104.8617
274.1115, 102.2214
274.5936, 101.0402
275.0757, 102.0844
275.5579, 104.4612
276.0400, 105.5329
276.5221, 105.0763
277.0042, 104.2131
277.4863, 103.4997
277.9684, 102.9311
278.4506, 102.6045
278.9327, 102.5888
279.4148, 102.7405
279.8969, 102.7327
280.3790, 102.5361
280.8611, 102.3913
281.3433, 102.5147
281.8254, 102.9029
282.3075, 102.9326
282.7896, 102.4696
283.2717, 101.9050
283.7538, 101.8708
284.2360, 102.3801
284.7181, 103.0852
285.2002, 104.0043
285.6823, 105.0735
286.1644, 105.5584
286.6465, 105.3035
287.1287, 105.0103
287.6108, 105.6702
288.0929, 107.2363
288.5750, 108.8810
289.0571, 110.4034
289.5392, 111.7673
290.0214, 112.5597
290.5035, 112.6726
290.9856, 113.0601
291.4677, 114.9154
291.9498, 118.0504
292.4319, 121.2251
292.9141, 124.0820
293.3962, 126.7536
293.8783, 129.7209
294.3604, 132.9806
294.8425, 135.8774
295.3246, 137.9014
295.8068, 139.1366
296.2889, 139.9126
296.7710, 140.5957
297.2531, 140.5359
297.7352, 138.2917
298.2173, 134.0544
298.6995, 129.3174
299.1816, 124.6902
299.6637, 120.3969
300.1458, 117.0557
300.6279, 114.8278
301.1100, 113.3879
301.5922, 112.4167
302.0743, 111.9195
302.5564, 111.9208
303.0385, 112.7743
303.5206, 114.0202
304.0027, 114.9798
304.4849, 115.4974
304.9670, 115.9702
305.4491, 116.7786
305.9312, 117.8301
306.4133, 118.9029
306.8954, 119.8297
307.3776, 120.7586
307.8597, 121.8018
308.3418, 122.9748
308.8239, 124.3042
309.3060, 126.0548
309.7881, 127.9548
310.2703, 129.5181
310.7524, 129.7989
311.2345, 130.2449
311.7166, 132.1390
312.1987, 135.4466
312.6808, 138.7045
313.1630, 141.0454
313.6451, 142.9461
314.1272, 144.9351
314.6093, 146.8865
315.0914, 149.2145
315.5735, 152.3461
316.0557, 156.1227
316.5378, 159.7085
317.0199, 162.4232
317.5020, 164.9857
317.9841, 167.9906
318.4662, 171.8315
318.9484, 175.6447
319.4305, 179.1358
319.9126, 182.3820
320.3947, 185.5856
320.8768, 189.0515
321.3589, 192.3046
321.8411, 195.0288
322.3232, 196.8255
322.8053, 198.9081
323.2874, 201.7669
323.7695, 205.0022
324.2516, 207.9809
324.7338, 210.7099
325.2159, 213.0719
325.6980, 214.9895
326.1801, 216.4061
326.6622, 217.6421
327.1443, 218.6263
327.6265, 219.4917
328.1086, 220.3817
328.5907, 222.1868
329.0728, 223.0088
329.5549, 222.2883
330.0370, 220.0036
330.5192, 217.8442
331.0013, 215.8137
331.4834, 213.8907
331.9655, 212.0813
332.4476, 210.7298
332.9297, 208.8475
333.4119, 205.9799
333.8940, 202.4810
334.3761, 200.0584
334.8582, 199.4049
335.3403, 198.8044
335.8224, 197.3016
336.3046, 194.4202
336.7867, 192.0545
337.2688, 190.3523
337.7509, 189.0808
338.2330, 187.6826
338.7151, 186.0396
339.1973, 184.6819
339.6794, 183.9619
340.1615, 183.9384
340.6436, 183.2762
341.1257, 181.7061
341.6078, 180.1055
342.0899, 179.6464
342.5721, 180.3946
343.0542, 181.5207
343.5363, 182.9003
344.0184, 184.4505
344.5005, 185.7519
344.9826, 186.7428
345.4648, 187.8661
345.9469, 189.6313
346.4290, 191.9694
346.9111, 194.1040
347.3932, 195.7847
347.8753, 197.3431
348.3575, 199.4543
348.8396, 202.0630
349.3217, 204.6980
349.8038, 207.0217
350.2859, 209.1093
350.7680, 211.1158
351.2502, 213.0293
351.7323, 214.9660
352.2144, 217.0938
352.6965, 219.3727
353.1786, 221.6193
353.6607, 223.5269
354.1429, 225.4596
354.6250, 227.8819
355.1071, 230.8220
355.5892, 234.0659
356.0713, 237.2369
356.5534, 240.6545
357.0356, 244.7877
357.5177, 249.7476
357.9998, 255.5622
358.4819, 262.2737
358.9640, 269.8385
359.4461, 277.8759
359.9283, 285.6292
360.4104, 294.0661
360.8925, 304.0543
361.3746, 316.2278
361.8567, 329.2039
362.3388, 342.4814
362.8210, 356.0895
363.3031, 370.4007
363.7852, 386.7796
364.2673, 402.8622
364.7494, 417.7546
365.2315, 431.5426
365.7137, 443.5060
366.1958, 454.4871
366.6779, 463.1027
367.1600, 467.8214
367.6421, 469.8003
368.1242, 466.5014
368.6064, 456.7938
369.0885, 440.4031
369.5706, 421.0650
370.0527, 396.0499
370.5348, 370.1049
371.0169, 345.9102
371.4991, 323.9835
371.9812, 303.3252
372.4633, 283.5623
372.9454, 264.9656
373.4275, 249.0063
373.9096, 236.3017
374.3918, 224.8529
374.8739, 213.9535
375.3560, 203.3068
375.8381, 193.9708
376.3202, 186.1234
376.8023, 179.4826
377.2845, 173.7346
377.7666, 168.9689
378.2487, 164.8591
378.7308, 161.4893
379.2129, 158.7456
379.6950, 156.1385
380.1772, 153.5957
380.6593, 151.4430
381.1414, 150.1443
381.6235, 149.6139
382.1056, 148.9155
382.5877, 147.7817
383.0699, 146.5001
383.5520, 145.5656
384.0341, 144.9641
384.5162, 144.6337
384.9983, 144.6836
385.4804, 144.9526
385.9626, 145.0419
386.4447, 144.8679
386.9268, 144.7512
387.4089, 144.9712
387.8910, 145.4965
388.3731, 146.2538
388.8553, 147.3063
389.3374, 148.5147
389.8195, 149.6595
390.3016, 150.7446
390.7837, 152.1169
391.2658, 154.2418
391.7480, 156.6455
392.2301, 158.7971
392.7122, 160.1127
393.1943, 161.7547
393.6764, 164.5648
394.1585, 168.1788
394.6407, 171.5006
395.1228, 173.4013
395.6049, 175.5309
396.0870, 178.9742
396.5691, 184.4430
397.0512, 189.2318
397.5334, 191.7408
398.0155, 193.6579
398.4976, 197.0561
398.9797, 203.3883
399.4618, 209.9054
399.9439, 215.8714
400.4261, 221.2863
400.9082, 227.7898
401.3903, 236.1077
401.8724, 244.8173
402.3545, 253.0098
402.8366, 260.1645
403.3188, 267.7473
403.8009, 275.8824
404.2830, 284.4698
404.7651, 293.5547
405.2472, 303.5695
405.7293, 312.6066
406.2115, 319.8968
406.6936, 325.3654
407.1757, 329.7217
407.6578, 332.9698
408.1399, 335.1189
408.6220, 336.1586
409.1042, 336.0966
409.5863, 335.1573
410.0684, 333.2745
410.5505, 330.6500
411.0326, 327.3726
411.5147, 323.4580
411.9969, 319.8235
412.4790, 317.2655
412.9611, 315.4238
413.4432, 313.3069
413.9253, 310.5670
414.4074, 308.3114
414.8896, 307.8215
415.3717, 308.7278
415.8538, 310.1848
416.3359, 312.2280
416.8180, 314.3519
417.3001, 316.0511
417.7823, 317.3427
418.2644, 318.4973
418.7465, 320.0679
419.2286, 321.4254
419.7107, 321.9368
420.1928, 321.2017
420.6750, 319.9193
421.1571, 318.2578
421.6392, 316.2348
422.1213, 313.9388
422.6034, 311.6759
423.0855, 308.9157
423.5677, 305.3791
424.0498, 300.9547
424.5319, 296.1709
425.0140, 290.2613
425.4961, 284.3602
425.9782, 279.6115
426.4604, 276.7097
426.9425, 273.9501
427.4246, 271.0378
427.9067, 268.0323
428.3888, 265.4975
428.8709, 263.4039
429.3531, 261.8364
429.8352, 260.9487
430.3173, 260.9221
430.7994, 260.6130
431.2815, 259.7752
431.7636, 258.9854
432.2458, 259.2431
432.7279, 260.5859
433.2100, 262.3123
433.6921, 264.3681
434.1742, 266.5910
434.6563, 268.2566
435.1385, 269.3694
435.6206, 270.4076
436.1027, 271.7699
436.5848, 273.3822
437.0669, 275.0960
437.5490, 276.9774
438.0312, 278.7317
438.5133, 279.7627
438.9954, 280.3768
439.4775, 281.4199
439.9596, 283.9911
440.4417, 286.7719
440.9239, 288.4432
441.4060, 288.9313
441.8881, 289.3669
442.3702, 290.3842
442.8523, 291.6602
443.3344, 292.9099
443.8166, 294.6263
444.2987, 295.6314
444.7808, 295.1646
445.2629, 293.6541
445.7450, 292.3500
446.2271, 291.7418
446.7093, 291.2010
447.1914, 290.3744
447.6735, 288.9329
448.1556, 288.2849
448.6377, 288.9113
449.1198, 290.0103
449.6020, 290.8311
450.0841, 291.4430
450.5662, 291.5992
451.0483, 291.2110
451.5304, 290.3380
452.0125, 289.1556
452.4947, 287.4847
452.9768, 286.0272
453.4589, 285.2684
453.9410, 285.2227
454.4231, 285.0737
454.9052, 284.8594
455.3874, 284.3375
455.8695, 283.1631
456.3516, 281.3651
456.8337, 279.2073
457.3158, 276.6183
457.7979, 273.8210
458.2801, 271.1164
458.7622, 268.5295
459.2443, 266.1388
459.7264, 264.1092
460.2085, 262.2937
460.6906, 260.6309
461.1728, 259.2112
461.6549, 257.5054
462.1370, 255.0533
462.6191, 252.1185
463.1012, 249.1364
463.5833, 245.9160
464.0655, 243.0049
464.5476, 240.7982
465.0297, 239.2324
465.5118, 237.6610
465.9939, 236.0130
466.4760, 234.2698
466.9582, 232.4711
467.4403, 230.9480
467.9224, 228.7158
468.4045, 225.3313
468.8866, 221.4314
469.3687, 217.8243
469.8509, 214.5052
470.3330, 211.6260
470.8151, 209.3805
471.2972, 207.6848
471.7793, 205.5809
472.2614, 202.8820
472.7436, 200.2328
473.2257, 198.1933
473.7078, 196.7701
474.1899, 195.0177
474.6720, 192.8140
475.1541, 190.3766
475.6363, 187.8371
476.1184, 185.2639
476.6005, 183.1186
477.0826, 181.8455
477.5647, 180.9579
478.0468, 179.4989
478.5290, 177.5446
479.0111, 175.7872
479.4932, 174.9088
479.9753, 174.4181
480.4574, 173.6465
480.9395, 172.2957
481.4217, 171.2561
481.9038, 171.3416
482.3859, 172.0388
482.8680, 172.5960
483.3501, 172.8748
483.8322, 172.8639
484.3144, 172.4773
484.7965, 171.7386
485.2786, 170.9500
485.7607, 169.7257
486.2428, 168.8115
486.7249, 168.6399
487.2071, 169.7825
487.6892, 170.4131
488.1713, 170.1876
488.6534, 169.6927
489.1355, 169.8098
489.6176, 170.7322
490.0998, 171.7333
490.5819, 172.7024
491.0640, 173.6253
491.5461, 174.3457
492.0282, 174.8384
492.5103, 175.3669
492.9925, 176.0921
493.4746, 177.0105
493.9567, 178.0698
494.4388, 179.3015
494.9209, 180.5551
495.4030, 181.4339
495.8852, 182.1937
496.3673, 183.5364
496.8494, 186.1112
497.3315, 188.9870
497.8136, 191.3456
498.2957, 193.2611
498.7779, 194.9471
499.2600, 195.8673
499.7421, 197.0721
500.2242, 199.4018
500.7063, 203.1920
501.1884, 207.1543
501.6706, 210.8457
502.1527, 214.5269
502.6348, 218.4004
503.1169, 223.0739
503.5990, 227.2245
504.0811, 230.0223
504.5633, 232.0894
505.0454, 235.9521
505.5275, 242.3865
506.0096, 249.1706
506.4917, 255.3564
506.9738, 260.9153
507.4560, 266.9220
507.9381, 273.4875
508.4202, 280.1973
508.9023, 286.5513
509.3844, 292.5817
509.8665, 298.7582
510.3487, 304.9837
510.8308, 311.7339
511.3129, 320.3474
511.7950, 330.4120
512.2772, 339.9963
512.7593, 347.2814
513.2414, 353.9379
513.7235, 362.2737
514.2056, 372.2709
514.6877, 382.4069
515.1699, 391.7723
515.6520, 400.7944
516.1341, 409.8826
516.6162, 419.2866
517.0983, 428.4708
517.5804, 437.2050
518.0626, 445.6776
518.5447, 454.1995
519.0268, 463.5441
519.5089, 472.1751
519.9910, 479.6390
520.4731, 486.0060
520.9553, 491.9189
521.4374, 497.3860
521.9195, 502.2986
522.4016, 506.6371
522.8837, 510.4119
523.3658, 513.4423
523.8480, 515.8075
524.3301, 517.2816
524.8122, 517.5997
525.2943, 516.7723
525.7764, 514.6804
526.2585, 511.0026
526.7407, 506.3816
527.2228, 501.8403
527.7049, 497.3189
528.1870, 492.6174
528.6691, 488.0194
529.1512, 482.8964
529.6334, 476.2626
530.1155, 467.9494
530.5976, 459.4533
531.0797, 451.4325
531.5618, 443.6546
532.0439, 435.9526
532.5261, 427.6330
533.0082, 420.1810
533.4903, 414.2269
533.9724, 409.3003
534.4545, 404.2464
534.9366, 398.7413
535.4188, 393.4243
535.9009, 388.6956
536.3830, 384.5276
536.8651, 379.2261
537.3472, 371.8017
537.8293, 365.2203
538.3115, 362.1644
538.7936, 363.0184
539.2757, 361.9317
539.7578, 358.2773
540.2399, 353.6850
540.7220, 349.8495
541.2042, 346.8626
541.6863, 345.0456
542.1684, 344.9559
542.6505, 345.5093
543.1326, 344.9298
543.6147, 343.5609
544.0969, 342.7153
544.5790, 343.5568
545.0611, 344.9916
545.5432, 346.1595
546.0253, 346.9715
546.5074, 347.7507
546.9896, 348.3083
547.4717, 349.0648
547.9538, 350.3614
548.4359, 352.4174
548.9180, 354.8127
549.4001, 357.8742
549.8823, 361.1612
550.3644, 363.8748
550.8465, 365.6667
551.3286, 367.6118
551.8107, 370.0631
552.2928, 372.9313
552.7750, 375.2634
553.2571, 376.8622
553.7392, 378.9460
554.2213, 382.8937
554.7034, 388.2049
555.1855, 392.0057
555.6677, 394.0338
556.1498, 395.4900
556.6319, 397.6556
557.1140, 400.1688
557.5961, 402.1882
558.0782, 403.0893
558.5604, 404.0766
559.0425, 406.5713
559.5246, 409.8817
560.0067, 412.4540
560.4888, 413.6769
560.9709, 413.9723
561.4531, 413.2625
561.9352, 411.5651
562.4173, 409.8881
562.8994, 408.1449
563.3815, 406.6464
563.8636, 405.6490
564.3458, 405.6782
564.8279, 404.8206
565.3100, 402.9946
565.7921, 400.3810
566.2742, 397.1652
566.7563, 393.3049
567.2385, 389.0848
567.7206, 384.4608
568.2027, 379.6731
568.6848, 375.4267
569.1669, 371.6346
569.6490, 368.0862
570.1312, 365.0416
570.6133, 361.9461
571.0954, 357.9576
571.5775, 353.0461
572.0596, 347.8871
572.5417, 342.7010
573.0239, 337.5091
573.5060, 332.4126
573.9881, 327.3950
574.4702, 322.4326
574.9523, 317.5770
575.4344, 312.6866
575.9166, 307.6412
576.3987, 302.0215
576.8808, 296.6843
577.3629, 291.7566
577.8450, 287.1418
578.3271, 282.4119
578.8093, 277.4646
579.2914, 272.7459
579.7735, 268.6126
580.2556, 264.9876
580.7377, 260.7362
581.2198, 255.8192
581.7020, 250.8659
582.1841, 246.6488
582.6662, 242.7853
583.1483, 238.0667
583.6304, 232.2272
584.1125, 226.5276
584.5947, 222.3513
585.0768, 218.9806
585.5589, 215.3516
586.0410, 210.4084
586.5231, 205.9262
587.0052, 202.9442
587.4873, 201.0276
587.9694, 199.0563
588.4515, 197.1619
588.9337, 194.7860
589.4158, 191.2757
589.8979, 186.6135
590.3800, 184.0149
590.8621, 184.3741
591.3442, 185.2098
591.8264, 184.8671
592.3085, 183.2380
592.7906, 182.0937
593.2727, 181.5236
593.7548, 181.2937
594.2369, 181.2173
594.7191, 181.2565
595.2012, 181.2576
595.6833, 181.1337
596.1654, 181.0514
596.6475, 180.9034
597.1296, 180.9370
597.6118, 181.7204
598.0939, 184.4242
598.5760, 187.1389
599.0581, 188.5211
599.5402, 188.7266
600.0223, 189.5986
600.5045, 192.3202
600.9866, 195.1310
601.4687, 197.1114
601.9508, 197.8686
602.4329, 199.5818
602.9150, 202.6419
603.3972, 206.1033
603.8793, 208.9316
