##NAMES=Augelite
##RRUFFID=R050100
##IDEAL CHEMISTRY=Al_2_PO_4_(OH)_3_
##LOCALITY=Rapid Creek, Yukon Territory, Canada
##OWNER=RRUFF
##SOURCE=Rock Currier
##DESCRIPTION=Pale green thick tabular crystals
##STATUS=The identification of this mineral has been confirmed by X-ray diffraction and chemical analysis
##URL=rruff.info/R050100
##MEASURED CHEMISTRY=Al_2.00_(P_1.00_O_4_)(OH_0.98_F_0.02_)_3_
138.7542, 1365.111
139.2363, 1375.554
139.7184, 1392.450
140.2005, 1409.639
140.6826, 1424.509
141.1647, 1437.998
141.6469, 1452.788
142.1290, 1471.206
142.6111, 1488.327
143.0932, 1503.647
143.5753, 1517.321
144.0574, 1529.567
144.5396, 1540.522
145.0217, 1550.179
145.5038, 1558.811
145.9859, 1564.658
146.4680, 1571.335
146.9502, 1580.504
147.4323, 1591.999
147.9144, 1604.531
148.3965, 1616.613
148.8786, 1628.829
149.3607, 1644.959
149.8429, 1663.484
150.3250, 1686.950
150.8071, 1721.498
151.2892, 1769.721
151.7713, 1815.995
152.2534, 1838.416
152.7356, 1844.265
153.2177, 1858.629
153.6998, 1895.834
154.1819, 1947.220
154.6640, 1992.314
155.1461, 2025.672
155.6283, 2056.442
156.1104, 2088.681
156.5925, 2123.184
157.0746, 2165.704
157.5567, 2229.718
158.0388, 2314.103
158.5210, 2376.768
159.0031, 2391.282
159.4852, 2395.910
159.9673, 2414.813
160.4494, 2450.016
160.9315, 2485.274
161.4137, 2501.553
161.8958, 2494.598
162.3779, 2481.199
162.8600, 2464.124
163.3421, 2441.800
163.8242, 2412.566
164.3064, 2375.844
164.7885, 2332.968
165.2706, 2286.100
165.7527, 2235.292
166.2348, 2179.928
166.7169, 2113.636
167.1991, 2046.038
167.6812, 1988.988
168.1633, 1948.465
168.6454, 1919.083
169.1275, 1876.734
169.6096, 1804.869
170.0918, 1737.204
170.5739, 1676.233
171.0560, 1622.765
171.5381, 1578.559
172.0202, 1545.474
172.5023, 1522.788
172.9845, 1494.244
173.4666, 1452.131
173.9487, 1413.043
174.4308, 1383.872
174.9129, 1363.401
175.3951, 1346.129
175.8772, 1328.260
176.3593, 1309.655
176.8414, 1289.663
177.3235, 1266.071
177.8056, 1242.663
178.2878, 1222.475
178.7699, 1205.702
179.2520, 1189.304
179.7341, 1169.859
180.2162, 1147.401
180.6983, 1127.104
181.1805, 1105.369
181.6626, 1087.814
182.1447, 1084.210
182.6268, 1098.594
183.1089, 1115.588
183.5910, 1117.844
184.0732, 1107.932
184.5553, 1095.539
185.0374, 1080.740
185.5195, 1065.905
186.0016, 1057.750
186.4837, 1061.074
186.9659, 1065.429
187.4480, 1060.232
187.9301, 1046.364
188.4122, 1032.015
188.8943, 1022.252
189.3764, 1016.599
189.8586, 1010.665
190.3407, 1001.821
190.8228, 994.5791
191.3049, 993.1940
191.7870, 997.7171
192.2691, 1002.722
192.7513, 1003.102
193.2334, 998.4399
193.7155, 993.3466
194.1976, 985.9919
194.6797, 980.1662
195.1618, 979.4777
195.6440, 984.4341
196.1261, 990.2104
196.6082, 989.3563
197.0903, 978.1898
197.5724, 971.7523
198.0546, 976.5111
198.5367, 983.8500
199.0188, 988.1321
199.5009, 987.5939
199.9830, 983.9374
200.4651, 979.5690
200.9473, 971.1432
201.4294, 968.7841
201.9115, 979.1557
202.3936, 992.3331
202.8757, 998.7245
203.3578, 994.2631
203.8400, 983.3312
204.3221, 977.5408
204.8042, 980.6717
205.2863, 984.6473
205.7684, 987.9753
206.2505, 991.8615
206.7327, 998.8228
207.2148, 1010.342
207.6969, 1024.138
208.1790, 1030.792
208.6611, 1019.847
209.1432, 1012.841
209.6254, 1013.928
210.1075, 1020.455
210.5896, 1028.434
211.0717, 1035.716
211.5538, 1042.479
212.0359, 1049.981
212.5181, 1058.085
213.0002, 1066.993
213.4823, 1076.050
213.9644, 1085.949
214.4465, 1098.038
214.9286, 1113.333
215.4108, 1131.604
215.8929, 1151.059
216.3750, 1171.958
216.8571, 1193.439
217.3392, 1213.262
217.8214, 1232.943
218.3035, 1257.404
218.7856, 1290.761
219.2677, 1332.567
219.7498, 1373.474
220.2319, 1413.278
220.7141, 1452.415
221.1962, 1487.650
221.6783, 1520.683
222.1604, 1562.073
222.6425, 1623.503
223.1246, 1702.379
223.6068, 1764.314
224.0889, 1810.353
224.5710, 1839.348
225.0531, 1848.970
225.5352, 1839.462
226.0173, 1815.509
226.4995, 1778.680
226.9816, 1728.400
227.4637, 1670.862
227.9458, 1596.934
228.4279, 1521.444
228.9100, 1458.333
229.3922, 1408.368
229.8743, 1363.430
230.3564, 1317.077
230.8385, 1270.974
231.3206, 1231.645
231.8027, 1199.793
232.2849, 1175.188
232.7670, 1160.388
233.2491, 1157.062
233.7312, 1153.805
234.2133, 1140.500
234.6954, 1120.493
235.1776, 1101.408
235.6597, 1084.009
236.1418, 1069.055
236.6239, 1057.680
237.1060, 1049.887
237.5881, 1045.670
238.0703, 1047.466
238.5524, 1052.883
239.0345, 1057.377
239.5166, 1057.669
239.9987, 1056.479
240.4808, 1059.685
240.9630, 1069.342
241.4451, 1078.170
241.9272, 1080.329
242.4093, 1078.312
242.8914, 1076.764
243.3735, 1077.918
243.8557, 1080.806
244.3378, 1082.936
244.8199, 1083.506
245.3020, 1085.133
245.7841, 1085.973
246.2662, 1088.750
246.7484, 1099.646
247.2305, 1125.734
247.7126, 1161.636
248.1947, 1192.415
248.6768, 1216.350
249.1589, 1237.777
249.6411, 1259.547
250.1232, 1280.647
250.6053, 1299.393
251.0874, 1315.435
251.5695, 1328.365
252.0517, 1337.202
252.5338, 1343.605
253.0159, 1342.133
253.4980, 1333.794
253.9801, 1317.080
254.4622, 1287.961
254.9444, 1238.517
255.4265, 1176.125
255.9086, 1126.851
256.3907, 1096.474
256.8728, 1071.246
257.3549, 1044.524
257.8370, 1018.030
258.3192, 994.4602
258.8013, 975.0458
259.2834, 959.7595
259.7655, 948.8133
260.2476, 945.3812
260.7297, 941.3212
261.2119, 932.8224
261.6940, 921.9109
262.1761, 911.5370
262.6582, 903.0316
263.1403, 896.3998
263.6224, 892.5800
264.1046, 895.1735
264.5867, 894.6643
265.0688, 882.6271
265.5509, 866.9802
266.0330, 860.2589
266.5151, 871.8589
266.9973, 894.8147
267.4794, 903.7119
267.9615, 887.4542
268.4436, 874.7843
268.9258, 878.9094
269.4079, 890.2065
269.8900, 895.4053
270.3721, 886.6278
270.8542, 869.0518
271.3363, 858.6593
271.8185, 857.5479
272.3006, 860.9479
272.7827, 872.5947
273.2648, 885.5931
273.7469, 890.1744
274.2290, 880.0469
274.7112, 862.6307
275.1933, 859.3774
275.6754, 881.5741
276.1575, 897.6920
276.6396, 897.7736
277.1217, 889.8743
277.6039, 881.7540
278.0860, 876.4778
278.5681, 873.9074
279.0502, 874.7776
279.5323, 883.7018
280.0144, 886.6562
280.4966, 876.1179
280.9787, 861.4276
281.4608, 851.2413
281.9429, 848.9998
282.4250, 851.7523
282.9071, 854.2752
283.3893, 857.3803
283.8714, 858.2703
284.3535, 854.9673
284.8356, 850.3907
285.3177, 847.0964
285.7998, 845.9238
286.2820, 845.4344
286.7641, 842.5762
287.2462, 835.0158
287.7283, 831.3776
288.2104, 833.1061
288.6925, 838.6722
289.1747, 848.9837
289.6568, 863.9512
290.1389, 878.8322
290.6210, 886.5864
291.1031, 885.0671
291.5852, 883.3544
292.0674, 880.9721
292.5495, 879.8262
293.0316, 880.7069
293.5137, 883.9045
293.9958, 890.0036
294.4779, 902.0934
294.9601, 923.1261
295.4422, 935.6397
295.9243, 931.7015
296.4064, 923.2847
296.8885, 915.2047
297.3706, 908.2448
297.8528, 901.3505
298.3349, 893.2262
298.8170, 883.7065
299.2991, 874.7515
299.7812, 864.0093
300.2633, 856.2462
300.7455, 855.4347
301.2276, 860.3672
301.7097, 865.6525
302.1918, 866.4280
302.6739, 862.6208
303.1560, 859.4551
303.6382, 855.1948
304.1203, 853.7188
304.6024, 859.0159
305.0845, 868.7369
305.5666, 876.4511
306.0487, 876.1147
306.5309, 869.1408
307.0130, 866.9750
307.4951, 873.3842
307.9772, 879.6384
308.4593, 880.8849
308.9414, 879.3691
309.4236, 879.5304
309.9057, 884.5861
310.3878, 892.9572
310.8699, 899.7137
311.3520, 905.4835
311.8341, 908.1227
312.3163, 903.4440
312.7984, 896.2398
313.2805, 893.4591
313.7626, 898.8721
314.2447, 909.3884
314.7268, 919.6497
315.2090, 930.4871
315.6911, 938.6538
316.1732, 939.5773
316.6553, 938.5234
317.1374, 941.2717
317.6195, 950.2903
318.1017, 961.9384
318.5838, 970.4901
319.0659, 974.9270
319.5480, 982.5144
320.0301, 1003.086
320.5122, 1024.070
320.9944, 1032.265
321.4765, 1023.299
321.9586, 1011.697
322.4407, 1012.502
322.9228, 1025.694
323.4049, 1038.450
323.8871, 1049.483
324.3692, 1056.585
324.8513, 1056.787
325.3334, 1049.498
325.8155, 1041.915
326.2976, 1039.063
326.7798, 1040.304
327.2619, 1042.355
327.7440, 1044.953
328.2261, 1047.758
328.7082, 1051.405
329.1903, 1055.720
329.6725, 1057.450
330.1546, 1053.436
330.6367, 1045.790
331.1188, 1039.356
331.6009, 1034.620
332.0830, 1031.527
332.5652, 1032.893
333.0473, 1036.961
333.5294, 1035.469
334.0115, 1021.092
334.4936, 1001.863
334.9757, 988.4542
335.4579, 981.8863
335.9400, 978.3491
336.4221, 975.3835
336.9042, 973.3371
337.3863, 973.4954
337.8684, 981.2910
338.3506, 987.5189
338.8327, 981.2531
339.3148, 963.7546
339.7969, 949.7377
340.2791, 949.9011
340.7612, 959.6119
341.2433, 960.8919
341.7254, 943.8094
342.2075, 929.8244
342.6896, 934.3085
343.1718, 951.0724
343.6539, 961.6368
344.1360, 956.7798
344.6181, 942.5574
345.1002, 934.6553
345.5823, 933.1459
346.0645, 935.5650
346.5466, 946.4009
347.0287, 959.4623
347.5108, 964.1308
347.9929, 956.6599
348.4750, 944.2195
348.9572, 938.1265
349.4393, 940.2815
349.9214, 944.6771
350.4035, 957.2993
350.8856, 968.3478
351.3677, 964.3491
351.8499, 944.9460
352.3320, 927.3105
352.8141, 931.7786
353.2962, 965.5720
353.7783, 988.1155
354.2604, 996.2211
354.7426, 997.5242
355.2247, 992.3305
355.7068, 983.2151
356.1889, 975.7558
356.6710, 973.8526
357.1531, 977.5233
357.6353, 989.1265
358.1174, 1019.486
358.5995, 1045.693
359.0816, 1058.851
359.5637, 1064.076
360.0458, 1069.263
360.5280, 1078.528
361.0101, 1092.163
361.4922, 1111.572
361.9743, 1139.140
362.4564, 1169.703
362.9385, 1202.335
363.4207, 1237.814
363.9028, 1279.785
364.3849, 1328.968
364.8670, 1377.563
365.3491, 1412.176
365.8312, 1429.303
366.3134, 1441.411
366.7955, 1455.535
367.2776, 1460.901
367.7597, 1450.698
368.2418, 1424.304
368.7239, 1385.622
369.2061, 1332.471
369.6882, 1263.041
370.1703, 1208.966
370.6524, 1183.184
371.1345, 1160.649
371.6166, 1129.153
372.0988, 1091.283
372.5809, 1054.997
373.0630, 1025.211
373.5451, 1000.802
374.0272, 977.8646
374.5093, 955.7328
374.9915, 936.7194
375.4736, 922.1475
375.9557, 910.9842
376.4378, 902.2665
376.9199, 895.9448
377.4020, 891.5334
377.8842, 890.0129
378.3663, 891.8090
378.8484, 889.6331
379.3305, 877.9625
379.8126, 862.3085
380.2947, 849.4252
380.7769, 839.3514
381.2590, 833.2313
381.7411, 834.0466
382.2232, 839.8423
382.7053, 843.6721
383.1874, 843.4545
383.6696, 841.4016
384.1517, 840.3651
384.6338, 840.3923
385.1159, 839.7200
385.5980, 837.8339
386.0801, 835.0182
386.5623, 831.0722
387.0444, 825.9681
387.5265, 821.4041
388.0086, 818.6978
388.4907, 818.0483
388.9728, 818.9618
389.4550, 821.7490
389.9371, 825.7726
390.4192, 831.1797
390.9013, 837.6163
391.3834, 844.3284
391.8655, 851.1686
392.3477, 857.6584
392.8298, 861.1979
393.3119, 858.2458
393.7940, 856.9035
394.2761, 858.5978
394.7582, 862.5452
395.2404, 867.9520
395.7225, 874.5301
396.2046, 881.9227
396.6867, 889.2336
397.1688, 893.6031
397.6509, 904.0155
398.1331, 927.0435
398.6152, 950.1319
399.0973, 963.0334
399.5794, 966.7373
400.0615, 971.0546
400.5436, 985.9174
401.0258, 1011.927
401.5079, 1036.282
401.9900, 1057.608
402.4721, 1078.561
402.9542, 1101.180
403.4363, 1123.847
403.9185, 1144.442
404.4006, 1162.456
404.8827, 1176.603
405.3648, 1181.841
405.8469, 1173.334
406.3290, 1168.522
406.8112, 1181.304
407.2933, 1195.841
407.7754, 1196.169
408.2575, 1177.698
408.7396, 1154.274
409.2217, 1139.006
409.7039, 1131.471
410.1860, 1124.741
410.6681, 1118.483
411.1502, 1111.249
411.6324, 1101.617
412.1145, 1089.762
412.5966, 1077.328
413.0787, 1062.586
413.5608, 1048.482
414.0429, 1040.317
414.5251, 1038.807
415.0072, 1040.702
415.4893, 1044.961
415.9714, 1050.924
416.4535, 1054.777
416.9356, 1051.265
417.4178, 1050.246
417.8999, 1059.048
418.3820, 1075.345
418.8641, 1092.788
419.3462, 1109.037
419.8283, 1123.278
420.3105, 1132.997
420.7926, 1136.865
421.2747, 1138.754
421.7568, 1137.313
422.2389, 1134.985
422.7210, 1135.575
423.2032, 1139.355
423.6853, 1141.618
424.1674, 1136.450
424.6495, 1122.110
425.1316, 1107.990
425.6137, 1090.306
426.0959, 1076.428
426.5780, 1073.128
427.0601, 1076.212
427.5422, 1075.171
428.0243, 1061.905
428.5064, 1040.770
428.9886, 1031.118
429.4707, 1039.390
429.9528, 1048.879
430.4349, 1058.394
430.9170, 1065.972
431.3991, 1068.390
431.8813, 1064.685
432.3634, 1060.264
432.8455, 1061.211
433.3276, 1067.615
433.8097, 1078.238
434.2918, 1098.582
434.7740, 1116.745
435.2561, 1122.292
435.7382, 1117.111
436.2203, 1113.098
436.7024, 1117.598
437.1845, 1126.770
437.6667, 1133.814
438.1488, 1138.336
438.6309, 1141.729
439.1130, 1146.331
439.5951, 1150.035
440.0772, 1147.160
440.5594, 1132.714
441.0415, 1117.181
441.5236, 1104.241
442.0057, 1094.596
442.4878, 1091.949
442.9699, 1098.985
443.4521, 1108.205
443.9342, 1105.546
444.4163, 1082.827
444.8984, 1067.817
445.3805, 1065.605
445.8626, 1068.873
446.3448, 1073.613
446.8269, 1078.420
447.3090, 1081.311
447.7911, 1080.262
448.2732, 1075.260
448.7553, 1071.661
449.2375, 1069.049
449.7196, 1068.398
450.2017, 1071.014
450.6838, 1075.404
451.1659, 1079.244
451.6480, 1081.472
452.1302, 1083.824
452.6123, 1090.090
453.0944, 1101.844
453.5765, 1112.200
454.0586, 1122.669
454.5407, 1129.384
455.0229, 1128.211
455.5050, 1119.923
455.9871, 1110.906
456.4692, 1106.592
456.9513, 1105.340
457.4334, 1100.715
457.9156, 1091.107
458.3977, 1082.281
458.8798, 1080.604
459.3619, 1081.893
459.8440, 1077.660
460.3261, 1061.717
460.8083, 1045.934
461.2904, 1041.500
461.7725, 1045.166
462.2546, 1044.895
462.7367, 1036.244
463.2188, 1022.071
463.7010, 1005.998
464.1831, 985.3981
464.6652, 971.1868
465.1473, 970.9248
465.6294, 973.3290
466.1115, 968.6373
466.5937, 956.5325
467.0758, 942.0071
467.5579, 928.4554
468.0400, 916.0920
468.5221, 908.8647
469.0042, 912.0163
469.4864, 914.4596
469.9685, 914.6738
470.4506, 912.8968
470.9327, 909.0397
471.4148, 903.1249
471.8969, 896.7225
472.3791, 892.8437
472.8612, 892.5217
473.3433, 890.0751
473.8254, 882.7745
474.3075, 875.1221
474.7896, 867.6570
475.2718, 861.4695
475.7539, 859.9832
476.2360, 870.0945
476.7181, 884.7792
477.2002, 887.2777
477.6823, 875.7788
478.1645, 862.1008
478.6466, 848.7866
479.1287, 838.6154
479.6108, 836.8020
480.0929, 847.6490
480.5751, 857.9253
481.0572, 861.0449
481.5393, 858.8931
482.0214, 853.9651
482.5035, 846.6184
482.9857, 839.8302
483.4678, 837.6199
483.9499, 841.4978
484.4320, 840.9493
484.9141, 831.2808
485.3962, 821.9575
485.8784, 817.3153
486.3605, 816.9260
486.8426, 819.6447
487.3247, 825.0970
487.8068, 831.8179
488.2889, 835.3887
488.7711, 833.8112
489.2532, 832.6559
489.7353, 832.7810
490.2174, 833.1769
490.6995, 832.9693
491.1816, 832.1695
491.6638, 831.6209
492.1459, 832.3488
492.6280, 834.1005
493.1101, 835.1832
493.5922, 835.6775
494.0743, 835.2927
494.5565, 832.9510
495.0386, 829.8613
495.5207, 827.5768
496.0028, 825.6584
496.4849, 826.0687
496.9670, 831.6427
497.4492, 841.0701
497.9313, 850.3528
498.4134, 859.0801
498.8955, 865.1373
499.3776, 864.0781
499.8597, 853.5239
500.3419, 849.9818
500.8240, 862.5626
501.3061, 875.6069
501.7882, 874.4810
502.2703, 863.8289
502.7524, 860.8514
503.2346, 876.7720
503.7167, 905.3115
504.1988, 922.6418
504.6809, 921.0063
505.1630, 919.6018
505.6451, 917.7693
506.1273, 918.2033
506.6094, 923.5809
507.0915, 933.8772
507.5736, 946.3182
508.0557, 959.0405
508.5378, 971.8912
509.0200, 983.6404
509.5021, 994.2228
509.9842, 1003.746
510.4663, 1007.631
510.9484, 1011.801
511.4305, 1027.030
511.9127, 1061.696
512.3948, 1095.274
512.8769, 1107.761
513.3590, 1105.425
513.8411, 1108.380
514.3232, 1121.574
514.8054, 1142.569
515.2875, 1170.205
515.7696, 1205.917
516.2517, 1238.732
516.7338, 1268.838
517.2159, 1295.718
517.6981, 1316.141
518.1802, 1333.181
518.6623, 1355.316
519.1444, 1387.738
519.6265, 1423.587
520.1086, 1442.505
520.5908, 1428.331
521.0729, 1428.394
521.5550, 1458.553
522.0371, 1491.485
522.5192, 1511.236
523.0013, 1516.640
523.4835, 1513.943
523.9656, 1504.725
524.4477, 1491.438
524.9298, 1484.299
525.4119, 1486.185
525.8940, 1483.981
526.3762, 1471.301
526.8583, 1450.979
527.3404, 1425.443
527.8225, 1391.712
528.3046, 1363.150
528.7867, 1355.199
529.2689, 1354.656
529.7510, 1334.846
530.2331, 1291.109
530.7152, 1246.335
531.1973, 1222.078
531.6794, 1218.751
532.1616, 1208.790
532.6437, 1187.785
533.1258, 1166.375
533.6079, 1149.150
534.0900, 1132.905
534.5721, 1111.614
535.0543, 1083.504
535.5364, 1055.044
536.0185, 1036.460
536.5006, 1030.247
536.9827, 1021.370
537.4648, 1005.930
537.9470, 991.7441
538.4291, 982.8532
538.9112, 977.7042
539.3933, 972.8015
539.8754, 966.9035
540.3575, 960.2931
540.8397, 954.0240
541.3218, 947.8304
541.8039, 937.7244
542.2860, 920.0140
542.7681, 902.1016
543.2502, 896.2967
543.7324, 903.5906
544.2145, 907.7696
544.6966, 906.8436
545.1787, 901.7374
545.6608, 888.6111
546.1429, 871.3050
546.6251, 862.2003
547.1072, 869.2750
547.5893, 885.5021
548.0714, 890.1105
548.5535, 873.7216
549.0356, 862.2479
549.5178, 859.5841
549.9999, 859.5925
550.4820, 857.7415
550.9641, 854.4542
551.4462, 853.7070
551.9283, 860.3786
552.4105, 870.8724
552.8926, 874.6419
553.3747, 870.8206
553.8568, 864.3290
554.3389, 854.4550
554.8210, 844.8009
555.3032, 841.0470
555.7853, 844.5522
556.2674, 848.1293
556.7495, 848.2201
557.2316, 847.2286
557.7137, 848.8732
558.1959, 853.1295
558.6780, 856.0685
559.1601, 854.3125
559.6422, 848.8965
560.1243, 847.0031
560.6064, 853.3860
561.0886, 857.4822
561.5707, 857.1622
562.0528, 854.9124
562.5349, 853.1218
563.0170, 852.0839
563.4991, 850.2524
563.9813, 845.5624
564.4634, 838.5130
564.9455, 833.0407
565.4276, 829.1968
565.9097, 826.8323
566.3918, 828.6051
566.8740, 830.7545
567.3561, 827.4377
567.8382, 815.9142
568.3203, 805.5331
568.8024, 803.0992
569.2845, 804.7108
569.7667, 803.4099
570.2488, 798.1285
570.7309, 792.0189
571.2130, 787.6157
571.6951, 784.8622
572.1772, 782.3679
572.6594, 780.9199
573.1415, 778.7474
573.6236, 774.6971
574.1057, 770.1827
574.5878, 766.7291
575.0699, 764.6558
575.5521, 763.2111
576.0342, 762.4850
576.5163, 762.2844
576.9984, 757.6886
577.4805, 745.4581
577.9626, 735.2712
578.4448, 734.3513
578.9269, 737.5472
579.4090, 737.5388
579.8911, 731.5653
580.3732, 726.9205
580.8553, 731.1440
581.3375, 738.8775
581.8196, 739.0564
582.3017, 729.8639
582.7838, 719.2383
583.2659, 713.7412
583.7480, 713.2177
584.2302, 713.6026
584.7123, 716.2922
585.1944, 718.1021
585.6765, 717.9918
586.1587, 716.9678
586.6408, 716.1575
587.1229, 715.7695
587.6050, 715.1149
588.0872, 713.4713
588.5693, 710.8906
589.0514, 707.5421
589.5335, 702.1959
590.0156, 698.9075
590.4977, 701.2548
590.9799, 706.3517
591.4620, 710.6141
591.9441, 714.1631
592.4262, 715.4430
592.9083, 711.7200
593.3904, 706.0570
593.8726, 702.9966
594.3547, 703.1241
594.8368, 704.6217
595.3189, 706.1801
595.8010, 707.8207
596.2831, 709.7307
596.7653, 711.5804
597.2474, 714.1732
597.7295, 718.1977
598.2116, 722.5858
598.6937, 727.4688
599.1758, 732.2289
599.6580, 734.1436
600.1401, 727.5790
600.6222, 716.3809
601.1043, 717.2708
601.5864, 733.1243
602.0685, 747.2403
602.5507, 751.7200
603.0328, 750.3691
603.5149, 749.5161
603.9970, 748.5608
604.4791, 750.4028
604.9612, 756.9247
605.4434, 766.0182
605.9255, 777.4002
606.4076, 789.8512
606.8897, 798.8728
607.3718, 801.2537
607.8539, 799.1326
608.3361, 799.6735
608.8182, 803.5424
609.3003, 808.8728
609.7824, 814.8107
610.2645, 822.6174
610.7466, 833.8105
611.2288, 847.7768
611.7109, 862.0422
612.1930, 874.7427
612.6751, 887.2413
613.1572, 901.9178
613.6393, 918.5814
614.1215, 935.9279
614.6036, 954.1228
615.0857, 971.3841
615.5678, 984.7033
616.0499, 993.2025
616.5320, 1002.476
617.0142, 1011.815
617.4963, 1022.900
617.9784, 1035.080
618.4605, 1049.973
618.9426, 1071.300
619.4247, 1100.657
619.9069, 1133.799
620.3890, 1163.869
620.8711, 1189.695
621.3532, 1219.010
621.8353, 1249.952
622.3174, 1287.807
622.7996, 1341.931
623.2817, 1403.873
623.7638, 1455.120
624.2459, 1485.033
624.7280, 1515.347
625.2101, 1558.184
625.6923, 1612.771
626.1744, 1680.340
626.6565, 1761.027
627.1386, 1843.542
627.6207, 1918.054
628.1028, 1984.913
628.5850, 2051.171
629.0671, 2110.729
629.5492, 2177.438
630.0313, 2258.449
630.5134, 2343.990
630.9955, 2426.412
631.4777, 2503.667
631.9598, 2574.717
632.4419, 2641.516
632.9240, 2701.100
633.4061, 2745.695
633.8882, 2775.175
634.3704, 2789.627
634.8525, 2788.633
635.3346, 2773.136
