##NAMES=Augite
##RRUFFID=R110063
##IDEAL CHEMISTRY=(Ca,Mg,Fe^2+^,Fe^3+^)_2_(Si,Al)_2_O_6_
##LOCALITY=Betroka, Madagascar
##OWNER=RRUFF
##SOURCE=Marcus Origlieri
##DESCRIPTION=Dark green, almost black, single euhedral crystal
##STATUS=The identification of this mineral has been confirmed only by single crystal X-ray diffraction.
##URL=rruff.info/R110063
161.3633, 13.09029
161.8455, 13.36258
162.3276, 13.69714
162.8097, 14.00582
163.2918, 14.22266
163.7739, 14.18381
164.2560, 14.25244
164.7382, 14.71456
165.2203, 15.45832
165.7024, 16.05570
166.1845, 16.17646
166.6666, 16.11619
167.1487, 16.14035
167.6309, 16.42206
168.1130, 16.70457
168.5951, 16.70696
169.0772, 16.49967
169.5593, 16.51326
170.0414, 17.23342
170.5236, 18.25446
171.0057, 19.08085
171.4878, 19.48641
171.9699, 19.69436
172.4520, 19.77453
172.9341, 19.74685
173.4163, 19.86686
173.8984, 20.44859
174.3805, 21.29304
174.8626, 22.04988
175.3447, 22.60950
175.8268, 23.02102
176.3090, 23.28674
176.7911, 23.40292
177.2732, 23.52753
177.7553, 23.68675
178.2374, 23.84732
178.7195, 24.04416
179.2017, 24.25744
179.6838, 24.53064
180.1659, 25.02352
180.6480, 25.76599
181.1301, 26.38508
181.6122, 26.42259
182.0944, 26.01928
182.5765, 25.63349
183.0586, 25.54806
183.5407, 25.60577
184.0228, 25.40145
184.5049, 24.88623
184.9871, 24.36914
185.4692, 24.32598
185.9513, 24.66343
186.4334, 24.88442
186.9155, 24.61373
187.3976, 24.02798
187.8798, 23.74143
188.3619, 23.81236
188.8440, 24.03148
189.3261, 24.13242
189.8082, 24.12218
190.2903, 24.07359
190.7725, 24.02237
191.2546, 23.96434
191.7367, 23.85714
192.2188, 23.67226
192.7009, 23.50366
193.1830, 23.51034
193.6652, 23.69057
194.1473, 23.96375
194.6294, 24.42372
195.1115, 25.03104
195.5936, 25.20410
196.0757, 24.82306
196.5579, 24.15229
197.0400, 23.64092
197.5221, 23.28619
198.0042, 23.09898
198.4863, 23.13072
198.9684, 23.38368
199.4506, 23.64183
199.9327, 23.91701
200.4148, 24.15508
200.8969, 24.19934
201.3790, 24.01659
201.8611, 23.82378
202.3433, 23.76850
202.8254, 23.86803
203.3075, 23.89106
203.7896, 23.80141
204.2717, 23.64292
204.7538, 23.52352
205.2360, 23.44657
205.7181, 23.39370
206.2002, 23.36326
206.6823, 23.36196
207.1644, 23.33183
207.6465, 23.25216
208.1287, 23.14909
208.6108, 23.08393
209.0929, 23.03729
209.5750, 23.07993
210.0571, 23.29688
210.5392, 23.75120
211.0214, 24.07389
211.5035, 24.17987
211.9856, 24.15044
212.4677, 24.29294
212.9498, 24.67986
213.4319, 25.07862
213.9140, 25.37179
214.3962, 25.57435
214.8783, 25.60454
215.3604, 25.38050
215.8425, 24.98921
216.3246, 24.78692
216.8067, 24.80184
217.2889, 24.94480
217.7710, 25.17973
218.2531, 25.54324
218.7352, 25.89572
219.2173, 26.24444
219.6994, 26.57700
220.1816, 26.83206
220.6637, 27.04053
221.1458, 27.12678
221.6279, 26.98634
222.1100, 26.43060
222.5921, 26.15354
223.0743, 26.28276
223.5564, 26.73451
224.0385, 27.12727
224.5206, 27.41853
225.0027, 27.70547
225.4848, 28.07240
225.9670, 28.62345
226.4491, 28.98464
226.9312, 29.04222
227.4133, 28.88105
227.8954, 28.93862
228.3775, 29.36072
228.8597, 29.78722
229.3418, 29.99015
229.8239, 29.88522
230.3060, 29.75602
230.7881, 29.64722
231.2702, 29.53190
231.7524, 29.25761
232.2345, 28.67165
232.7166, 28.14577
233.1987, 27.94348
233.6808, 28.31317
234.1629, 28.45219
234.6451, 28.26183
235.1272, 27.79956
235.6093, 27.30490
236.0914, 26.74570
236.5735, 26.19855
237.0556, 25.66435
237.5378, 24.95925
238.0199, 24.69921
238.5020, 25.14567
238.9841, 26.06875
239.4662, 26.50071
239.9483, 26.20630
240.4305, 25.74604
240.9126, 25.37364
241.3947, 24.98699
241.8768, 24.93954
242.3589, 25.44153
242.8410, 26.28121
243.3232, 26.68321
243.8053, 26.37853
244.2874, 26.00206
244.7695, 25.89579
245.2516, 26.25224
245.7337, 26.43593
246.2159, 26.35093
246.6980, 26.08941
247.1801, 25.93506
247.6622, 25.85559
248.1443, 25.92785
248.6264, 26.21825
249.1086, 26.87099
249.5907, 27.40383
250.0728, 27.81799
250.5549, 28.10609
251.0370, 28.22192
251.5191, 28.04288
252.0013, 27.88725
252.4834, 27.91012
252.9655, 28.20721
253.4476, 28.43265
253.9297, 28.57203
254.4118, 28.64651
254.8940, 28.72894
255.3761, 28.91657
255.8582, 28.93869
256.3403, 28.63172
256.8224, 27.84184
257.3046, 27.23488
257.7867, 26.84625
258.2688, 26.62169
258.7509, 26.49054
259.2330, 26.53667
259.7151, 26.50607
260.1973, 26.26845
260.6794, 25.75797
261.1615, 25.35206
261.6436, 25.06217
262.1257, 24.87096
262.6078, 24.75294
263.0900, 24.70807
263.5721, 24.74570
264.0542, 24.93984
264.5363, 25.36772
265.0184, 25.40830
265.5005, 24.91307
265.9827, 24.20909
266.4648, 23.72990
266.9469, 23.48175
267.4290, 23.45967
267.9111, 23.74664
268.3932, 24.37425
268.8754, 24.75668
269.3575, 24.85274
269.8396, 24.76692
270.3217, 24.61732
270.8038, 24.40181
271.2859, 24.11946
271.7681, 23.69296
272.2502, 23.13824
272.7323, 22.97988
273.2144, 23.34470
273.6965, 23.85395
274.1786, 24.06991
274.6608, 23.92521
275.1429, 23.86870
275.6250, 24.04270
276.1071, 24.40730
276.5892, 24.64972
277.0714, 24.72873
277.5535, 24.79258
278.0356, 24.99980
278.5177, 25.36795
278.9998, 25.69505
279.4819, 25.93478
279.9641, 26.10395
280.4462, 26.29058
280.9283, 26.52013
281.4104, 26.65881
281.8925, 26.51919
282.3746, 26.09519
282.8568, 25.83307
283.3389, 25.80421
283.8210, 25.98406
284.3031, 26.38669
284.7852, 27.04831
285.2673, 27.64359
285.7495, 27.87915
286.2316, 27.78873
286.7137, 27.82575
287.1958, 28.08673
287.6779, 28.44468
288.1600, 28.62837
288.6422, 28.63550
289.1243, 28.61520
289.6064, 28.63397
290.0885, 28.69567
290.5706, 28.80546
291.0527, 28.93943
291.5349, 29.17988
292.0170, 29.71964
292.4991, 30.53110
292.9812, 31.36622
293.4633, 32.06887
293.9454, 32.68185
294.4276, 33.36185
294.9097, 34.13470
295.3918, 34.86747
295.8739, 35.33836
296.3560, 35.59371
296.8381, 35.87481
297.3203, 36.16734
297.8024, 36.58172
298.2845, 37.47035
298.7666, 38.88845
299.2487, 40.32391
299.7308, 41.16137
300.2130, 41.59780
300.6951, 42.18527
301.1772, 43.19756
301.6593, 44.45732
302.1414, 45.77061
302.6235, 47.12482
303.1057, 48.47423
303.5878, 49.63929
304.0699, 50.77705
304.5520, 52.15653
305.0341, 53.91125
305.5162, 55.89641
305.9984, 58.01795
306.4805, 60.25399
306.9626, 62.59586
307.4447, 65.06498
307.9268, 67.61099
308.4089, 70.11467
308.8911, 72.46633
309.3732, 74.89512
309.8553, 77.75838
310.3374, 80.88855
310.8195, 83.78036
311.3016, 85.93684
311.7838, 87.79265
312.2659, 89.79886
312.7480, 92.16322
313.2301, 94.36262
313.7122, 96.08536
314.1943, 97.44217
314.6765, 98.62634
315.1586, 99.23254
315.6407, 100.0355
316.1228, 101.5186
316.6049, 103.7674
317.0870, 106.5818
317.5692, 110.1727
318.0513, 114.1884
318.5334, 118.1179
319.0155, 121.4786
319.4976, 124.9931
319.9797, 128.9862
320.4619, 133.5101
320.9440, 138.1552
321.4261, 143.2230
321.9082, 148.1320
322.3903, 152.3086
322.8724, 156.1082
323.3546, 158.6811
323.8367, 159.8618
324.3188, 159.6445
324.8009, 158.0102
325.2830, 154.3236
325.7651, 149.6295
326.2473, 144.6104
326.7294, 139.8120
327.2115, 134.1444
327.6936, 126.8211
328.1757, 118.3376
328.6578, 110.8267
329.1400, 104.6629
329.6221, 99.17327
330.1042, 94.03463
330.5863, 89.23643
331.0684, 84.77735
331.5505, 80.59489
332.0327, 76.78226
332.5148, 73.62774
332.9969, 71.47980
333.4790, 69.50789
333.9611, 67.31570
334.4432, 64.67363
334.9254, 62.75776
335.4075, 61.85197
335.8896, 61.45008
336.3717, 60.81067
336.8538, 59.68331
337.3359, 58.94445
337.8180, 58.91438
338.3001, 59.57988
338.7823, 60.23763
339.2644, 60.92828
339.7465, 61.52125
340.2286, 61.83151
340.7107, 61.79413
341.1928, 61.83226
341.6750, 61.95415
342.1571, 62.23191
342.6392, 63.01405
343.1213, 64.37602
343.6034, 65.87710
344.0855, 67.19246
344.5677, 68.32425
345.0498, 69.59517
345.5319, 71.01823
346.0140, 72.62333
346.4961, 74.53698
346.9782, 76.74010
347.4604, 78.98178
347.9425, 81.01884
348.4246, 82.96016
348.9067, 85.14563
349.3888, 87.61240
349.8709, 90.23094
350.3531, 92.70596
350.8352, 95.15897
351.3173, 98.02785
351.7994, 101.7167
352.2815, 105.8933
352.7636, 110.0038
353.2458, 114.0469
353.7279, 118.2704
354.2100, 123.1402
354.6921, 128.2937
355.1742, 133.0896
355.6563, 137.3677
356.1385, 141.2348
356.6206, 144.8452
357.1027, 148.1796
357.5848, 151.0539
358.0669, 153.5888
358.5490, 155.5365
359.0312, 156.7030
359.5133, 157.1604
359.9954, 156.6152
360.4775, 154.6382
360.9596, 151.5312
361.4417, 147.9781
361.9239, 144.2177
362.4060, 140.0927
362.8881, 135.3547
363.3702, 129.8181
363.8523, 124.5482
364.3344, 119.9523
364.8166, 115.7829
365.2987, 111.7241
365.7808, 107.3879
366.2629, 103.5799
366.7450, 100.6190
367.2271, 98.50509
367.7093, 96.62833
368.1914, 94.58244
368.6735, 92.96055
369.1556, 92.15125
369.6377, 92.99185
370.1198, 93.62194
370.6020, 93.62082
371.0841, 93.30791
371.5662, 93.86894
372.0483, 95.70271
372.5304, 97.91143
373.0125, 100.1493
373.4947, 102.3577
373.9768, 104.6722
374.4589, 106.9078
374.9410, 109.4237
375.4231, 112.9175
375.9052, 117.8655
376.3874, 122.5059
376.8695, 126.0814
377.3516, 128.6799
377.8337, 132.0211
378.3158, 136.2287
378.7979, 140.9489
379.2801, 145.7178
379.7622, 150.5551
380.2443, 155.9877
380.7264, 162.3243
381.2085, 169.2270
381.6906, 175.6584
382.1728, 181.5689
382.6549, 188.0486
383.1370, 195.6637
383.6191, 204.4205
384.1012, 214.0685
384.5833, 224.7089
385.0655, 236.1779
385.5476, 248.4757
386.0297, 261.5127
386.5118, 274.3110
386.9939, 286.8783
387.4760, 298.8750
387.9582, 310.2740
388.4403, 321.1801
388.9224, 330.1770
389.4045, 336.8730
389.8866, 340.7196
390.3687, 340.9253
390.8509, 337.2771
391.3330, 329.8485
391.8151, 317.8629
392.2972, 301.8451
392.7793, 283.7917
393.2614, 262.9848
393.7436, 241.7017
394.2257, 220.8976
394.7078, 200.4226
395.1899, 181.6480
395.6720, 165.2051
396.1541, 150.7383
396.6363, 137.6784
397.1184, 125.9807
397.6005, 115.5786
398.0826, 106.5437
398.5647, 98.93056
399.0468, 92.21761
399.5290, 86.76167
400.0111, 81.97010
400.4932, 77.34827
400.9753, 72.57303
401.4574, 68.39556
401.9395, 65.08105
402.4217, 62.46707
402.9038, 59.84358
403.3859, 57.03551
403.8680, 54.47481
404.3501, 52.39161
404.8322, 50.91710
405.3144, 49.52549
405.7965, 48.22439
406.2786, 47.01577
406.7607, 45.93705
407.2428, 45.01221
407.7249, 44.07135
408.2071, 42.99590
408.6892, 41.84533
409.1713, 41.11793
409.6534, 40.87752
410.1355, 40.67236
410.6176, 39.99811
411.0998, 38.94914
411.5819, 38.09658
412.0640, 37.56786
412.5461, 37.25433
413.0282, 36.99435
413.5103, 36.79078
413.9925, 36.65291
414.4746, 36.73625
414.9567, 36.83787
415.4388, 36.56903
415.9209, 35.85775
416.4030, 35.14217
416.8852, 34.73245
417.3673, 34.56820
417.8494, 34.54618
418.3315, 34.85476
418.8136, 35.10342
419.2957, 35.04342
419.7779, 34.69702
420.2600, 34.21319
420.7421, 33.43768
421.2242, 32.68646
421.7063, 32.22015
422.1884, 32.19959
422.6706, 32.22734
423.1527, 32.27555
423.6348, 32.29916
424.1169, 32.21489
424.5990, 31.84461
425.0811, 31.52217
425.5633, 31.39695
426.0454, 31.52100
426.5275, 31.46042
427.0096, 30.96101
427.4917, 30.47637
427.9738, 30.42565
428.4560, 31.15678
428.9381, 31.57597
429.4202, 31.44803
429.9023, 30.94625
430.3844, 30.65317
430.8665, 30.60771
431.3487, 30.66706
431.8308, 30.83166
432.3129, 31.11847
432.7950, 31.11827
433.2771, 30.75464
433.7592, 30.29757
434.2414, 30.14207
434.7235, 30.25733
435.2056, 30.25354
435.6877, 29.91823
436.1698, 29.45029
436.6519, 29.26843
437.1341, 29.36610
437.6162, 29.59144
438.0983, 30.01791
438.5804, 30.45484
439.0625, 30.51365
439.5446, 30.03963
440.0268, 29.49233
440.5089, 29.25877
440.9910, 29.25428
441.4731, 29.30775
441.9552, 29.28867
442.4373, 29.34335
442.9195, 29.67266
443.4016, 30.26623
443.8837, 30.65247
444.3658, 30.51418
444.8479, 30.15728
445.3300, 29.81535
445.8122, 29.38250
446.2943, 29.16219
446.7764, 29.34372
447.2585, 29.77754
447.7406, 30.08088
448.2227, 30.07948
448.7049, 30.09428
449.1870, 30.26126
449.6691, 30.64238
450.1512, 30.77405
450.6333, 30.48572
451.1154, 30.13297
451.5976, 30.06487
452.0797, 30.35792
452.5618, 30.69189
453.0439, 31.05145
453.5260, 31.40276
454.0081, 31.67406
454.4903, 31.87096
454.9724, 31.95528
455.4545, 31.81577
455.9366, 31.50559
456.4187, 31.41508
456.9008, 31.57471
457.3830, 31.85498
457.8651, 32.13456
458.3472, 32.41351
458.8293, 32.68658
459.3114, 33.00426
459.7935, 33.26381
460.2757, 33.25444
460.7578, 33.03550
461.2399, 32.90879
461.7220, 33.21908
462.2041, 33.62315
462.6862, 33.76177
463.1684, 33.52763
463.6505, 33.28373
464.1326, 33.31170
464.6147, 33.41311
465.0968, 33.32982
465.5789, 32.66908
466.0611, 32.13787
466.5432, 32.03793
467.0253, 32.32769
467.5074, 32.48037
467.9895, 32.37208
468.4716, 32.16421
468.9538, 31.91217
469.4359, 31.51612
469.9180, 31.30863
470.4001, 31.37546
470.8822, 31.56930
471.3643, 31.69006
471.8465, 31.75967
472.3286, 31.67634
472.8107, 31.33563
473.2928, 30.81512
473.7749, 30.58841
474.2570, 30.70684
474.7392, 30.85599
475.2213, 30.75407
475.7034, 30.45036
476.1855, 30.29471
476.6676, 30.34246
477.1497, 30.47955
477.6319, 30.58713
478.1140, 30.66266
478.5961, 30.69385
479.0782, 30.57213
479.5603, 30.46714
480.0424, 30.67132
480.5246, 31.13739
481.0067, 31.47498
481.4888, 31.33778
481.9709, 31.02013
482.4530, 30.76570
482.9352, 30.60431
483.4173, 30.55153
483.8994, 30.72064
484.3815, 30.97896
484.8636, 31.12295
485.3457, 30.98069
485.8279, 30.84853
486.3100, 30.81456
486.7921, 30.88102
487.2742, 30.92034
487.7563, 30.86757
488.2384, 30.85503
488.7206, 30.95581
489.2027, 31.18639
489.6848, 31.51594
490.1669, 32.05698
490.6490, 32.57559
491.1311, 32.64072
491.6133, 32.18010
492.0954, 31.75436
492.5775, 31.49777
493.0596, 31.41760
493.5417, 31.59946
494.0238, 32.04580
494.5060, 32.50569
494.9881, 32.79124
495.4702, 32.94489
495.9523, 33.09246
496.4344, 33.26115
496.9165, 33.36399
497.3987, 33.19839
497.8808, 32.91490
498.3629, 32.80101
498.8450, 33.16550
499.3271, 33.57825
499.8092, 33.70729
500.2914, 33.61217
500.7735, 33.61501
501.2556, 33.84479
501.7377, 34.20927
502.2198, 34.67992
502.7019, 35.33305
503.1841, 35.89494
503.6662, 36.26497
504.1483, 36.55600
504.6304, 36.89481
505.1125, 37.31537
505.5946, 37.72630
506.0768, 38.15027
506.5589, 38.55845
507.0410, 38.80217
507.5231, 38.84392
508.0052, 38.82560
508.4873, 38.85421
508.9695, 38.93069
509.4516, 38.79517
509.9337, 38.42166
510.4158, 37.93692
510.8979, 37.43896
511.3800, 36.93940
511.8622, 36.51635
512.3443, 36.20728
512.8264, 35.95779
513.3085, 35.66352
513.7906, 35.35438
514.2728, 35.13736
514.7549, 35.08937
515.2370, 35.14901
515.7191, 35.28527
516.2012, 35.49956
516.6833, 35.72023
517.1655, 36.01765
517.6476, 36.25467
518.1297, 36.31075
518.6118, 35.91941
519.0939, 35.64769
519.5760, 35.69873
520.0582, 35.92298
520.5403, 35.95108
521.0224, 35.54102
521.5045, 35.27308
521.9866, 35.33009
522.4688, 35.71252
522.9509, 36.11367
523.4330, 36.58332
523.9151, 36.96163
524.3972, 37.03219
524.8793, 36.78320
525.3615, 36.83154
525.8436, 37.28703
526.3257, 37.90049
526.8078, 38.27642
527.2899, 38.46857
527.7720, 38.73322
528.2542, 39.26762
528.7363, 39.84874
529.2184, 40.21972
529.7005, 40.38190
530.1826, 40.36189
530.6647, 39.95133
531.1469, 39.50187
531.6290, 39.37562
532.1111, 39.71412
532.5932, 39.92569
533.0753, 39.52466
533.5574, 38.98930
534.0396, 38.82206
534.5217, 39.65582
535.0038, 40.21923
535.4859, 40.22985
535.9680, 39.83996
536.4501, 39.51045
536.9323, 39.21033
537.4144, 39.02665
537.8965, 39.03264
538.3786, 39.23464
538.8607, 39.31685
539.3428, 39.25032
539.8250, 39.14968
540.3071, 39.16507
540.7892, 39.27125
541.2713, 39.19871
541.7534, 38.86625
542.2355, 38.45591
542.7177, 38.15194
543.1998, 37.96845
543.6819, 37.96052
544.1640, 38.37915
544.6461, 38.82547
545.1282, 38.88816
545.6104, 38.61558
546.0925, 38.31839
546.5746, 38.06917
547.0567, 37.91348
547.5388, 37.89487
548.0209, 38.05319
548.5031, 38.23704
548.9852, 38.41852
549.4673, 38.60975
549.9494, 38.82751
550.4315, 39.14153
550.9136, 39.36516
551.3958, 39.41561
551.8779, 39.37909
552.3600, 39.51462
552.8421, 39.84897
553.3242, 40.26884
553.8063, 40.81914
554.2885, 41.44683
554.7706, 41.65852
555.2527, 41.42182
555.7348, 41.11400
556.2169, 41.00798
556.6990, 41.08809
557.1812, 41.37103
557.6633, 41.92645
558.1454, 42.42230
558.6275, 42.49139
559.1096, 42.28337
559.5917, 42.06281
560.0739, 42.14653
560.5560, 42.04768
561.0381, 41.35325
561.5202, 40.21782
562.0023, 39.29846
562.4844, 38.86684
562.9666, 38.59426
563.4487, 38.33385
563.9308, 38.04705
564.4129, 37.95486
564.8950, 38.27116
565.3771, 38.54726
565.8593, 38.32605
566.3414, 37.40895
566.8235, 36.87693
567.3056, 36.93039
567.7877, 37.25788
568.2698, 37.31586
568.7520, 37.11495
569.2341, 36.80968
569.7162, 36.32550
570.1983, 35.86213
570.6804, 35.83989
571.1625, 36.21176
571.6447, 36.64211
572.1268, 37.07631
572.6089, 37.36959
573.0910, 37.30523
573.5731, 36.81086
574.0552, 36.35497
574.5374, 36.21395
575.0195, 36.17701
575.5016, 36.04610
575.9837, 35.55712
576.4658, 35.25505
576.9479, 35.32277
577.4301, 35.57363
577.9122, 35.62751
578.3943, 35.34810
578.8764, 35.14533
579.3585, 35.15843
579.8406, 35.34849
580.3228, 35.43901
580.8049, 35.41831
581.2870, 35.37288
581.7691, 35.38088
582.2512, 35.41628
582.7333, 35.36818
583.2155, 35.22686
583.6975, 35.03899
584.1796, 34.74622
584.6617, 34.45812
585.1439, 34.37490
585.6260, 34.66369
586.1081, 34.96553
586.5902, 35.03685
587.0723, 34.96891
587.5544, 34.93669
588.0366, 35.17027
588.5187, 35.26487
589.0008, 34.96183
589.4829, 34.29425
589.9650, 33.95320
590.4471, 34.16943
590.9293, 34.41019
591.4114, 34.39013
591.8935, 34.04617
592.3756, 33.90423
592.8577, 34.00232
593.3398, 34.19965
593.8220, 34.40714
594.3041, 34.60824
594.7862, 34.64277
595.2683, 34.43354
595.7504, 34.17812
596.2325, 34.16768
596.7147, 34.31845
597.1968, 34.41185
597.6789, 34.25974
598.1610, 34.09337
598.6431, 34.04937
599.1252, 34.12799
599.6074, 34.31849
600.0895, 34.90480
600.5716, 35.35878
601.0537, 35.34371
601.5358, 34.68528
602.0179, 34.29219
602.5001, 34.32469
602.9822, 34.47517
603.4643, 34.51863
603.9464, 34.42488
604.4285, 34.32445
604.9106, 34.18541
605.3928, 34.11255
605.8749, 34.36686
606.3570, 34.91210
606.8391, 35.22470
607.3212, 34.97300
607.8033, 34.62606
608.2855, 35.09071
608.7676, 36.13375
609.2497, 36.91391
609.7318, 36.72581
610.2139, 36.25844
610.6960, 35.95518
611.1782, 35.84628
611.6603, 35.98546
612.1424, 36.66277
612.6245, 37.39801
613.1066, 37.89336
613.5887, 38.05540
614.0709, 38.13777
614.5530, 38.04211
615.0351, 37.95744
615.5172, 38.10169
615.9993, 38.53168
616.4814, 38.94906
616.9636, 39.32518
617.4457, 39.64728
617.9278, 39.87927
618.4099, 40.02714
618.8920, 40.15380
619.3741, 40.24030
619.8563, 40.35403
620.3384, 40.59669
620.8205, 40.95689
621.3026, 41.37938
621.7847, 41.94385
622.2668, 42.47989
622.7490, 42.79110
623.2311, 42.83324
623.7132, 43.01636
624.1953, 43.64095
624.6774, 44.31399
625.1595, 44.75023
625.6417, 44.74137
626.1238, 44.90867
626.6059, 45.31827
627.0880, 45.83051
627.5701, 46.26641
628.0522, 46.62135
628.5344, 46.93180
629.0165, 47.16248
629.4986, 47.41689
629.9807, 47.96039
630.4628, 48.74144
630.9449, 49.46560
631.4271, 49.88314
631.9092, 50.24325
632.3913, 50.89828
632.8734, 51.78908
633.3555, 52.52089
633.8376, 52.54982
634.3198, 52.63655
634.8019, 53.33565
635.2840, 54.86357
635.7661, 56.14440
636.2482, 56.86935
636.7303, 57.48952
637.2125, 58.32483
637.6946, 59.49654
638.1767, 60.51166
638.6588, 61.26295
639.1409, 62.00677
639.6230, 63.07844
640.1052, 64.47211
640.5873, 66.07749
641.0694, 67.91264
641.5515, 69.84251
642.0336, 71.60963
642.5157, 73.26619
642.9979, 75.00018
643.4800, 76.77975
643.9621, 78.75320
644.4442, 80.91393
644.9263, 83.30786
645.4084, 86.15811
645.8906, 89.70119
646.3727, 93.55131
646.8548, 97.50721
647.3369, 101.4912
647.8190, 105.9196
648.3011, 110.7158
648.7833, 116.0201
649.2654, 121.8503
649.7475, 128.2814
650.2296, 135.2140
650.7117, 142.5946
651.1938, 150.7061
651.6760, 159.8718
652.1581, 170.0120
652.6402, 180.6261
653.1223, 191.6633
653.6044, 202.9920
654.0865, 214.6560
654.5687, 226.7144
655.0508, 239.3146
655.5329, 252.6412
656.0150, 266.5645
656.4971, 280.9236
656.9792, 295.8098
657.4614, 311.7180
657.9435, 328.6936
658.4256, 346.5741
658.9077, 365.3461
