##NAMES=Augite
##RRUFFID=R061108
##IDEAL CHEMISTRY=(Ca,Mg,Fe^2+^,Fe^3+^)_2_(Si,Al)_2_O_6_
##LOCALITY=Monti Rossi, near Mt. Etna, Sicily, Italy
##OWNER=RRUFF
##SOURCE=Michael Scott
##DESCRIPTION=Euhedral, short prismatic, black crystals in vesicular basalt.
##STATUS=The identification of this mineral is confirmed by single-crystal X-ray diffraction and chemical analysis.
##URL=rruff.info/R061108
##MEASURED CHEMISTRY=(Ca_0.86_Mg_0.74_Fe^2+^_0.18_Fe^3+^_0.08_Al_0.05_Ti_0.04_Na_0.04_Mn_0.01_)_Σ=2_(Si_1.83_Al_0.17_)_Σ=2_O_6_
113.3688, 484.6433
113.8509, 490.2798
114.3330, 503.1681
114.8152, 522.4303
115.2973, 552.2298
115.7794, 594.9366
116.2615, 650.9363
116.7436, 715.6596
117.2257, 793.1240
117.7079, 876.5681
118.1900, 955.5255
118.6721, 1026.342
119.1542, 1090.534
119.6363, 1147.142
120.1184, 1190.046
120.6006, 1238.808
121.0827, 1311.499
121.5648, 1402.158
122.0469, 1490.845
122.5290, 1562.496
123.0111, 1626.190
123.4933, 1693.094
123.9754, 1764.944
124.4575, 1841.294
124.9396, 1899.270
125.4217, 1945.557
125.9038, 1991.533
126.3860, 2025.374
126.8681, 2052.624
127.3502, 2086.189
127.8323, 2134.471
128.3144, 2191.214
128.7965, 2247.034
129.2787, 2303.074
129.7608, 2350.173
130.2429, 2372.063
130.7250, 2371.318
131.2071, 2370.715
131.6892, 2387.130
132.1714, 2415.943
132.6535, 2429.518
133.1356, 2423.919
133.6177, 2404.881
134.0998, 2381.992
134.5819, 2354.589
135.0640, 2329.423
135.5462, 2312.324
136.0283, 2303.659
136.5104, 2294.969
136.9925, 2284.612
137.4746, 2273.216
137.9567, 2267.599
138.4389, 2273.195
138.9210, 2272.876
139.4031, 2245.256
139.8852, 2180.885
140.3673, 2124.133
140.8494, 2086.701
141.3316, 2070.266
141.8137, 2053.919
142.2958, 2037.513
142.7779, 2021.231
143.2600, 2002.953
143.7421, 1973.761
144.2243, 1957.472
144.7064, 1966.343
145.1885, 2023.698
145.6706, 2053.759
146.1527, 2044.996
146.6348, 2009.375
147.1170, 1983.679
147.5991, 1970.973
148.0812, 1965.080
148.5633, 1963.233
149.0454, 1972.635
149.5275, 1976.750
150.0097, 1974.414
150.4918, 1965.701
150.9739, 1952.517
151.4560, 1924.861
151.9381, 1898.277
152.4202, 1883.181
152.9024, 1894.014
153.3845, 1902.522
153.8666, 1903.553
154.3487, 1896.291
154.8308, 1886.578
155.3129, 1873.488
155.7950, 1858.981
156.2772, 1845.437
156.7593, 1822.853
157.2414, 1810.140
157.7235, 1817.414
158.2056, 1852.783
158.6877, 1884.601
159.1699, 1906.217
159.6520, 1918.603
160.1341, 1923.434
160.6162, 1910.934
161.0983, 1897.953
161.5804, 1894.234
162.0626, 1904.116
162.5447, 1919.164
163.0268, 1941.729
163.5089, 1968.252
163.9910, 1986.823
164.4731, 1985.306
164.9553, 1976.647
165.4374, 1971.692
165.9195, 1972.886
166.4016, 1979.124
166.8837, 1993.793
167.3658, 2015.557
167.8480, 2032.576
168.3301, 2031.040
168.8122, 2022.209
169.2943, 2020.457
169.7764, 2044.521
170.2585, 2069.719
170.7407, 2071.127
171.2228, 2047.349
171.7049, 2023.304
172.1870, 2017.395
172.6691, 2024.955
173.1512, 2036.591
173.6334, 2054.405
174.1155, 2071.433
174.5976, 2076.713
175.0797, 2067.303
175.5618, 2056.872
176.0439, 2058.301
176.5260, 2069.742
177.0082, 2084.825
177.4903, 2107.603
177.9724, 2130.598
178.4545, 2136.836
178.9366, 2118.624
179.4187, 2095.900
179.9009, 2098.076
180.3830, 2121.866
180.8651, 2145.318
181.3472, 2152.593
181.8293, 2147.933
182.3114, 2142.487
182.7936, 2137.383
183.2757, 2133.768
183.7578, 2135.621
184.2399, 2142.802
184.7220, 2147.846
185.2041, 2143.387
185.6863, 2130.845
186.1684, 2116.489
186.6505, 2098.803
187.1326, 2081.621
187.6147, 2076.831
188.0968, 2085.569
188.5790, 2096.535
189.0611, 2096.588
189.5432, 2086.776
190.0253, 2079.093
190.5074, 2079.781
190.9895, 2086.492
191.4717, 2087.885
191.9538, 2083.823
192.4359, 2075.131
192.9180, 2059.893
193.4001, 2037.771
193.8822, 2020.142
194.3644, 2014.873
194.8465, 2020.947
195.3286, 2020.883
195.8107, 2014.018
196.2928, 2001.916
196.7749, 1987.343
197.2570, 1970.532
197.7392, 1949.603
198.2213, 1917.982
198.7034, 1874.455
199.1855, 1852.184
199.6676, 1859.203
200.1497, 1880.903
200.6319, 1881.814
201.1140, 1857.985
201.5961, 1831.784
202.0782, 1818.696
202.5603, 1820.962
203.0424, 1818.128
203.5246, 1807.459
204.0067, 1790.823
204.4888, 1771.855
204.9709, 1747.217
205.4530, 1729.696
205.9352, 1732.465
206.4173, 1761.289
206.8994, 1781.976
207.3815, 1786.563
207.8636, 1778.580
208.3457, 1779.187
208.8279, 1792.877
209.3100, 1805.917
209.7921, 1803.564
210.2742, 1779.104
210.7563, 1762.666
211.2384, 1762.202
211.7206, 1776.545
212.2027, 1787.846
212.6848, 1796.777
213.1669, 1801.562
213.6490, 1799.307
214.1311, 1787.376
214.6133, 1775.568
215.0954, 1765.212
215.5775, 1756.326
216.0596, 1752.545
216.5417, 1755.632
217.0238, 1761.859
217.5059, 1767.282
217.9881, 1773.005
218.4702, 1775.462
218.9523, 1773.169
219.4344, 1765.480
219.9165, 1757.384
220.3986, 1747.547
220.8808, 1738.421
221.3629, 1733.076
221.8450, 1730.266
222.3271, 1733.903
222.8092, 1748.826
223.2913, 1782.359
223.7735, 1797.270
224.2556, 1785.170
224.7377, 1759.350
225.2198, 1745.676
225.7019, 1749.543
226.1840, 1756.153
226.6662, 1759.626
227.1483, 1757.274
227.6304, 1759.971
228.1125, 1774.144
228.5946, 1790.895
229.0767, 1787.344
229.5589, 1747.747
230.0410, 1711.859
230.5231, 1698.253
231.0052, 1721.752
231.4873, 1734.557
231.9694, 1732.225
232.4516, 1719.865
232.9337, 1712.741
233.4158, 1712.266
233.8979, 1715.062
234.3800, 1720.434
234.8621, 1732.516
235.3443, 1738.329
235.8264, 1735.584
236.3085, 1726.261
236.7906, 1717.621
237.2727, 1708.663
237.7548, 1701.730
238.2369, 1698.086
238.7191, 1698.411
239.2012, 1700.709
239.6833, 1705.040
240.1654, 1711.196
240.6475, 1718.771
241.1296, 1730.463
241.6118, 1740.023
242.0939, 1743.055
242.5760, 1735.906
243.0581, 1729.366
243.5402, 1723.931
244.0223, 1719.752
244.5045, 1718.418
244.9866, 1724.567
245.4687, 1727.963
245.9508, 1719.495
246.4329, 1687.171
246.9150, 1668.549
247.3972, 1674.326
247.8793, 1700.663
248.3614, 1711.046
248.8435, 1697.087
249.3256, 1677.383
249.8077, 1665.628
250.2899, 1663.827
250.7720, 1666.115
251.2541, 1676.401
251.7362, 1692.787
252.2183, 1689.772
252.7004, 1654.158
253.1826, 1615.569
253.6647, 1598.796
254.1468, 1613.436
254.6289, 1629.274
255.1110, 1643.954
255.5931, 1657.191
256.0753, 1662.288
256.5574, 1658.353
257.0395, 1647.733
257.5216, 1630.520
258.0037, 1600.420
258.4858, 1578.856
258.9680, 1570.082
259.4501, 1573.772
259.9322, 1585.569
260.4143, 1612.786
260.8964, 1637.765
261.3785, 1642.113
261.8607, 1617.293
262.3428, 1594.948
262.8249, 1579.895
263.3070, 1572.165
263.7891, 1571.589
264.2712, 1582.116
264.7534, 1593.559
265.2355, 1594.620
265.7176, 1580.582
266.1997, 1571.291
266.6818, 1572.711
267.1639, 1583.893
267.6461, 1587.739
268.1282, 1581.290
268.6103, 1572.785
269.0924, 1569.379
269.5745, 1570.974
270.0566, 1578.885
270.5387, 1597.255
271.0208, 1624.342
271.5030, 1637.130
271.9851, 1632.663
272.4672, 1620.105
272.9493, 1605.108
273.4314, 1585.297
273.9135, 1576.727
274.3957, 1586.877
274.8778, 1612.996
275.3599, 1630.161
275.8420, 1636.585
276.3241, 1638.762
276.8062, 1644.625
277.2884, 1655.444
277.7705, 1658.369
278.2526, 1646.114
278.7347, 1622.926
279.2168, 1615.786
279.6989, 1627.631
280.1811, 1645.582
280.6632, 1657.511
281.1453, 1663.167
281.6274, 1669.233
282.1095, 1678.002
282.5916, 1688.386
283.0738, 1694.381
283.5559, 1694.983
284.0380, 1696.144
284.5201, 1707.813
285.0022, 1729.285
285.4843, 1738.359
285.9665, 1722.841
286.4486, 1693.171
286.9307, 1686.693
287.4128, 1705.268
287.8949, 1731.022
288.3770, 1747.489
288.8592, 1741.636
289.3413, 1765.427
289.8234, 1781.823
290.3055, 1791.225
290.7876, 1772.679
291.2697, 1790.221
291.7519, 1793.302
292.2340, 1795.789
292.7161, 1818.411
293.1982, 1803.929
293.6803, 1826.232
294.1624, 1833.851
294.6446, 1848.191
295.1267, 1831.207
295.6088, 1861.944
296.0909, 1885.289
296.5730, 1901.638
297.0551, 1890.040
297.5373, 1914.533
298.0194, 1924.561
298.5015, 1933.995
298.9836, 1963.565
299.4657, 1956.031
299.9478, 1985.282
300.4300, 1999.851
300.9121, 2021.139
301.3942, 2027.874
301.8763, 2039.104
302.3584, 2055.111
302.8405, 2065.615
303.3227, 2074.554
303.8048, 2081.925
304.2869, 2090.485
304.7690, 2104.806
305.2511, 2126.964
305.7332, 2152.734
306.2154, 2181.933
306.6975, 2212.523
307.1796, 2238.418
307.6617, 2248.910
308.1438, 2255.583
308.6259, 2272.328
309.1081, 2306.067
309.5901, 2339.856
310.0723, 2358.744
310.5544, 2368.002
311.0365, 2381.686
311.5186, 2408.229
312.0007, 2441.698
312.4828, 2479.138
312.9650, 2523.818
313.4471, 2562.008
313.9292, 2579.995
314.4113, 2585.922
314.8934, 2596.200
315.3755, 2618.449
315.8577, 2646.570
316.3398, 2678.718
316.8219, 2717.717
317.3040, 2750.029
317.7861, 2765.255
318.2682, 2771.379
318.7504, 2780.893
319.2325, 2803.230
319.7146, 2825.317
320.1967, 2838.566
320.6788, 2838.595
321.1609, 2847.669
321.6431, 2883.479
322.1252, 2927.603
322.6073, 2956.990
323.0894, 2958.293
323.5715, 2952.834
324.0536, 2943.729
324.5358, 2929.468
325.0179, 2922.883
325.5000, 2936.089
325.9821, 2952.943
326.4642, 2957.584
326.9464, 2938.993
327.4285, 2918.746
327.9106, 2900.949
328.3927, 2886.206
328.8748, 2867.401
329.3569, 2840.382
329.8391, 2812.378
330.3212, 2789.023
330.8033, 2769.916
331.2854, 2756.405
331.7675, 2752.718
332.2496, 2757.643
332.7318, 2751.062
333.2139, 2726.155
333.6960, 2697.715
334.1781, 2675.374
334.6602, 2659.674
335.1423, 2649.066
335.6245, 2645.362
336.1066, 2646.545
336.5887, 2643.783
337.0708, 2637.335
337.5529, 2626.307
338.0350, 2607.285
338.5172, 2576.354
338.9993, 2557.441
339.4814, 2555.173
339.9635, 2563.646
340.4456, 2568.462
340.9277, 2569.436
341.4099, 2568.119
341.8920, 2564.248
342.3741, 2557.880
342.8562, 2554.296
343.3383, 2554.722
343.8204, 2556.247
344.3026, 2554.187
344.7847, 2548.564
345.2668, 2540.563
345.7489, 2527.329
346.2310, 2511.184
346.7131, 2504.669
347.1953, 2509.088
347.6774, 2518.081
348.1595, 2525.652
348.6416, 2531.433
349.1237, 2534.278
349.6058, 2534.643
350.0880, 2531.508
350.5700, 2520.919
351.0522, 2502.575
351.5343, 2483.969
352.0164, 2473.923
352.4985, 2468.780
352.9806, 2460.649
353.4627, 2444.311
353.9449, 2425.468
354.4270, 2409.527
354.9091, 2396.523
355.3912, 2385.943
355.8733, 2384.051
356.3554, 2382.352
356.8376, 2368.986
357.3197, 2326.122
357.8018, 2288.476
358.2839, 2288.941
358.7660, 2317.316
359.2481, 2333.459
359.7303, 2302.870
360.2124, 2261.262
360.6945, 2234.612
361.1766, 2233.090
361.6587, 2238.362
362.1408, 2251.426
362.6230, 2266.344
363.1051, 2269.911
363.5872, 2246.983
364.0693, 2220.575
364.5514, 2201.046
365.0335, 2190.417
365.5157, 2183.707
365.9978, 2186.669
366.4799, 2191.620
366.9620, 2187.206
367.4441, 2154.959
367.9262, 2130.100
368.4084, 2123.275
368.8905, 2137.549
369.3726, 2152.141
369.8547, 2171.162
370.3368, 2187.806
370.8189, 2195.285
371.3011, 2190.259
371.7832, 2181.001
372.2653, 2164.984
372.7474, 2143.342
373.2295, 2135.855
373.7116, 2148.419
374.1938, 2166.292
374.6759, 2178.144
375.1580, 2181.785
375.6401, 2186.979
376.1222, 2194.164
376.6043, 2203.960
377.0865, 2221.044
377.5686, 2247.538
378.0507, 2271.454
378.5328, 2282.558
379.0149, 2281.101
379.4970, 2286.226
379.9792, 2300.454
380.4613, 2319.354
380.9434, 2334.553
381.4255, 2346.440
381.9076, 2359.163
382.3897, 2376.882
382.8719, 2397.193
383.3540, 2410.490
383.8361, 2415.687
384.3182, 2420.515
384.8003, 2435.631
385.2824, 2457.549
385.7646, 2476.363
386.2467, 2491.677
386.7288, 2499.969
387.2109, 2493.522
387.6930, 2472.965
388.1751, 2451.335
388.6573, 2435.951
389.1394, 2425.566
389.6215, 2419.811
390.1036, 2426.746
390.5857, 2427.847
391.0678, 2405.300
391.5499, 2365.007
392.0320, 2328.514
392.5142, 2312.617
392.9963, 2300.364
393.4784, 2279.700
393.9605, 2245.022
394.4426, 2209.905
394.9247, 2180.285
395.4069, 2152.956
395.8890, 2121.970
396.3711, 2081.398
396.8532, 2041.484
397.3353, 2006.823
397.8174, 1979.941
398.2996, 1949.307
398.7817, 1902.049
399.2638, 1895.547
399.7459, 1881.651
400.2280, 1860.761
400.7101, 1811.921
401.1923, 1799.168
401.6744, 1771.954
402.1565, 1744.149
402.6386, 1736.478
403.1207, 1691.705
403.6028, 1683.715
404.0850, 1661.038
404.5671, 1645.084
405.0492, 1614.580
405.5313, 1588.568
406.0134, 1577.116
406.4955, 1557.601
406.9777, 1525.417
407.4598, 1497.932
407.9419, 1509.974
408.4240, 1514.622
408.9061, 1512.276
409.3882, 1481.981
409.8704, 1487.774
410.3525, 1479.105
410.8346, 1469.844
411.3167, 1480.717
411.7988, 1454.488
412.2809, 1465.042
412.7631, 1460.912
413.2452, 1463.503
413.7273, 1451.542
414.2094, 1444.075
414.6915, 1451.166
415.1736, 1450.196
415.6558, 1436.559
416.1379, 1439.577
416.6200, 1412.839
417.1021, 1412.213
417.5842, 1422.852
418.0663, 1409.947
418.5485, 1413.231
419.0306, 1410.350
419.5127, 1379.448
419.9948, 1397.276
420.4769, 1394.031
420.9590, 1370.906
421.4412, 1363.691
421.9233, 1359.626
422.4054, 1360.009
422.8875, 1365.763
423.3696, 1369.595
423.8517, 1371.884
424.3339, 1371.107
424.8160, 1365.677
425.2981, 1345.945
425.7802, 1335.050
426.2623, 1341.729
426.7444, 1361.342
427.2266, 1364.555
427.7087, 1342.036
428.1908, 1317.263
428.6729, 1302.208
429.1550, 1297.957
429.6371, 1300.405
430.1193, 1312.848
430.6014, 1328.005
431.0835, 1330.186
431.5656, 1317.572
432.0477, 1307.574
432.5298, 1309.134
433.0119, 1319.925
433.4940, 1326.504
433.9762, 1328.819
434.4583, 1327.322
434.9404, 1319.919
435.4225, 1308.478
435.9046, 1299.888
436.3867, 1296.290
436.8689, 1296.280
437.3510, 1301.573
437.8331, 1310.430
438.3152, 1313.575
438.7973, 1298.189
439.2794, 1276.790
439.7616, 1264.162
440.2437, 1264.703
440.7258, 1267.779
441.2079, 1266.970
441.6900, 1264.155
442.1721, 1262.513
442.6543, 1265.191
443.1364, 1267.623
443.6185, 1267.817
444.1006, 1265.609
444.5827, 1262.087
445.0648, 1252.510
445.5470, 1244.553
446.0291, 1244.039
446.5112, 1260.984
446.9933, 1274.280
447.4754, 1282.463
447.9576, 1285.896
448.4397, 1285.971
448.9218, 1282.170
449.4039, 1275.804
449.8860, 1266.444
450.3681, 1252.373
450.8503, 1242.365
451.3324, 1235.933
451.8145, 1234.203
452.2966, 1241.583
452.7787, 1260.173
453.2608, 1271.971
453.7430, 1268.954
454.2251, 1255.667
454.7072, 1250.508
455.1893, 1253.903
455.6714, 1259.838
456.1535, 1263.887
456.6357, 1266.467
457.1178, 1268.905
457.5999, 1271.310
458.0820, 1273.884
458.5641, 1278.106
459.0462, 1282.977
459.5284, 1285.236
460.0105, 1282.351
460.4926, 1276.583
460.9747, 1269.205
461.4568, 1260.145
461.9389, 1252.138
462.4211, 1245.342
462.9032, 1240.925
463.3853, 1240.218
463.8674, 1248.242
464.3495, 1255.168
464.8316, 1256.489
465.3138, 1253.698
465.7959, 1253.722
466.2780, 1262.831
466.7601, 1270.792
467.2422, 1273.045
467.7243, 1268.000
468.2065, 1260.266
468.6886, 1244.702
469.1707, 1229.653
469.6528, 1228.105
470.1349, 1247.253
470.6170, 1263.252
471.0992, 1270.490
471.5813, 1269.582
472.0634, 1264.265
472.5455, 1253.057
473.0276, 1243.252
473.5097, 1241.431
473.9918, 1247.034
474.4739, 1253.182
474.9561, 1259.625
475.4382, 1264.865
475.9203, 1265.897
476.4024, 1263.314
476.8845, 1259.962
477.3666, 1255.574
477.8488, 1251.971
478.3309, 1253.038
478.8130, 1258.883
479.2951, 1263.637
479.7772, 1263.619
480.2593, 1259.931
480.7415, 1253.334
481.2236, 1239.000
481.7057, 1228.642
482.1878, 1230.670
482.6699, 1241.249
483.1520, 1249.530
483.6342, 1246.161
484.1163, 1245.135
484.5984, 1254.020
485.0805, 1278.119
485.5626, 1295.795
486.0447, 1305.690
486.5269, 1309.497
487.0090, 1308.255
487.4911, 1298.669
487.9732, 1290.099
488.4553, 1282.604
488.9374, 1277.166
489.4196, 1278.289
489.9017, 1286.759
490.3838, 1299.320
490.8659, 1316.904
491.3480, 1339.123
491.8301, 1353.344
492.3123, 1358.011
492.7944, 1358.836
493.2765, 1362.417
493.7586, 1368.378
494.2407, 1375.165
494.7228, 1381.513
495.2050, 1388.887
495.6871, 1398.791
496.1692, 1411.420
496.6513, 1427.318
497.1334, 1453.187
497.6155, 1479.389
498.0977, 1495.926
498.5798, 1498.482
499.0619, 1498.811
499.5440, 1499.519
500.0261, 1502.241
500.5082, 1509.402
500.9904, 1525.253
501.4725, 1541.878
501.9546, 1556.144
502.4367, 1567.921
502.9188, 1584.155
503.4009, 1613.489
503.8831, 1639.238
504.3652, 1651.425
504.8473, 1643.412
505.3294, 1637.965
505.8115, 1636.011
506.2936, 1636.399
506.7758, 1638.831
507.2579, 1644.648
507.7400, 1644.161
508.2221, 1631.274
508.7042, 1609.732
509.1863, 1594.578
509.6685, 1585.864
510.1506, 1582.688
510.6327, 1588.766
511.1148, 1599.600
511.5969, 1603.172
512.0790, 1595.407
512.5612, 1586.278
513.0433, 1585.470
513.5254, 1590.719
514.0075, 1597.196
514.4896, 1602.936
514.9717, 1608.978
515.4539, 1616.822
515.9360, 1626.325
516.4181, 1633.975
516.9002, 1640.345
517.3823, 1643.304
517.8644, 1641.205
518.3466, 1627.756
518.8287, 1618.382
519.3108, 1612.981
519.7929, 1612.297
520.2750, 1603.709
520.7571, 1623.366
521.2393, 1635.630
521.7214, 1640.899
522.2035, 1618.219
522.6856, 1631.629
523.1677, 1630.576
523.6498, 1628.929
524.1320, 1647.419
524.6141, 1628.804
525.0962, 1646.974
525.5783, 1650.460
526.0604, 1660.667
526.5425, 1656.321
527.0247, 1656.471
527.5068, 1671.176
527.9889, 1677.822
528.4710, 1671.801
528.9531, 1682.435
529.4352, 1663.312
529.9174, 1670.301
530.3995, 1688.556
530.8816, 1667.186
531.3637, 1661.078
531.8458, 1660.568
532.3279, 1662.357
532.8101, 1667.026
533.2922, 1673.156
533.7743, 1678.533
534.2564, 1686.511
534.7385, 1689.372
535.2206, 1683.988
535.7027, 1671.285
536.1848, 1660.492
536.6669, 1649.558
537.1490, 1644.279
537.6312, 1652.260
538.1133, 1675.718
538.5954, 1683.074
539.0775, 1669.541
539.5596, 1649.821
540.0417, 1646.077
540.5239, 1655.270
541.0060, 1658.833
541.4881, 1646.139
541.9702, 1628.876
542.4523, 1625.780
542.9344, 1634.410
543.4166, 1642.361
543.8987, 1640.598
544.3808, 1635.543
544.8629, 1632.362
545.3450, 1631.582
545.8271, 1633.173
546.3093, 1640.769
546.7914, 1649.065
547.2735, 1652.745
547.7556, 1645.817
548.2377, 1639.821
548.7198, 1635.556
549.2020, 1633.380
549.6841, 1635.371
550.1662, 1646.255
550.6483, 1653.482
551.1304, 1651.353
551.6125, 1639.403
552.0947, 1629.539
552.5768, 1622.453
553.0589, 1615.473
553.5410, 1603.754
554.0231, 1588.496
554.5052, 1580.362
554.9874, 1582.863
555.4695, 1589.990
555.9516, 1593.986
556.4337, 1595.583
556.9158, 1597.158
557.3979, 1603.105
557.8801, 1607.389
558.3622, 1602.861
558.8443, 1589.981
559.3264, 1577.847
559.8085, 1573.646
560.2906, 1570.069
560.7728, 1561.069
561.2549, 1538.428
561.7370, 1523.687
562.2191, 1527.696
562.7012, 1538.259
563.1833, 1538.646
563.6655, 1522.857
564.1476, 1507.723
564.6297, 1496.548
565.1118, 1488.820
565.5939, 1480.964
566.0760, 1472.557
566.5582, 1465.643
567.0403, 1460.527
567.5224, 1457.604
568.0045, 1461.962
568.4866, 1475.351
568.9688, 1484.777
569.4509, 1470.952
569.9330, 1443.523
570.4151, 1422.464
570.8972, 1417.480
571.3793, 1415.523
571.8615, 1407.585
572.3436, 1394.819
572.8257, 1380.290
573.3078, 1356.844
573.7899, 1339.203
574.2720, 1337.971
574.7542, 1355.332
575.2363, 1366.692
575.7184, 1371.110
576.2005, 1367.766
576.6826, 1353.965
577.1647, 1320.088
577.6469, 1301.419
578.1290, 1305.989
578.6111, 1318.397
579.0932, 1310.225
579.5753, 1279.467
580.0574, 1258.714
580.5396, 1264.571
581.0217, 1282.712
581.5038, 1273.784
581.9859, 1240.688
582.4680, 1210.028
582.9501, 1203.826
583.4323, 1208.046
583.9144, 1204.803
584.3965, 1191.764
584.8786, 1178.099
585.3607, 1168.622
585.8428, 1161.649
586.3250, 1155.364
586.8071, 1150.549
587.2892, 1144.955
587.7713, 1137.053
588.2534, 1128.170
588.7355, 1121.621
589.2177, 1119.598
589.6998, 1116.506
590.1819, 1110.740
590.6640, 1102.411
591.1461, 1092.805
591.6282, 1081.201
592.1104, 1070.935
592.5925, 1066.527
593.0746, 1066.493
593.5567, 1060.313
594.0388, 1046.490
594.5209, 1030.424
595.0031, 1014.752
595.4852, 1001.656
595.9673, 995.8974
596.4494, 1004.999
596.9315, 1014.575
597.4136, 1011.702
597.8958, 1000.978
598.3779, 994.8080
598.8600, 1003.091
599.3421, 1011.777
599.8242, 1014.972
600.3063, 1011.882
600.7885, 1008.124
601.2706, 1005.696
601.7527, 1000.738
602.2348, 988.5604
602.7169, 964.4239
603.1990, 953.0377
603.6812, 957.2947
604.1633, 970.9058
604.6454, 989.8882
605.1275, 1012.997
605.6096, 1024.453
606.0917, 1014.812
606.5739, 996.9014
