##NAMES=Augite
##RRUFFID=R061108
##IDEAL CHEMISTRY=(Ca,Mg,Fe^2+^,Fe^3+^)_2_(Si,Al)_2_O_6_
##LOCALITY=Monti Rossi, near Mt. Etna, Sicily, Italy
##OWNER=RRUFF
##SOURCE=Michael Scott
##DESCRIPTION=Euhedral, short prismatic, black crystals in vesicular basalt.
##STATUS=The identification of this mineral is confirmed by single-crystal X-ray diffraction and chemical analysis.
##URL=rruff.info/R061108
##MEASURED CHEMISTRY=(Ca_0.86_Mg_0.74_Fe^2+^_0.18_Fe^3+^_0.08_Al_0.05_Ti_0.04_Na_0.04_Mn_0.01_)_Σ=2_(Si_1.83_Al_0.17_)_Σ=2_O_6_
138.5035, 2001.079
138.9856, 1974.658
139.4677, 1957.120
139.9498, 1971.277
140.4319, 2039.559
140.9140, 2151.992
141.3961, 2257.292
141.8783, 2353.714
142.3604, 2443.506
142.8425, 2524.120
143.3246, 2595.574
143.8067, 2672.374
144.2888, 2765.079
144.7710, 2870.542
145.2531, 2980.185
145.7352, 3079.330
146.2173, 3140.815
146.6994, 3161.474
147.1815, 3166.093
147.6637, 3156.837
148.1458, 3114.646
148.6279, 3063.729
149.1100, 3043.036
149.5921, 3081.619
150.0742, 3142.141
150.5564, 3168.866
151.0385, 3155.589
151.5206, 3132.753
152.0027, 3110.099
152.4848, 3089.414
152.9669, 3075.073
153.4491, 3072.521
153.9312, 3074.559
154.4133, 3067.430
154.8954, 3049.576
155.3775, 3023.886
155.8596, 2985.382
156.3418, 2941.068
156.8239, 2901.770
157.3060, 2871.452
157.7881, 2849.324
158.2702, 2833.925
158.7523, 2826.903
159.2345, 2823.721
159.7166, 2821.368
160.1987, 2821.039
160.6808, 2824.749
161.1629, 2833.916
161.6451, 2848.030
162.1272, 2866.233
162.6093, 2896.703
163.0914, 2918.779
163.5735, 2928.286
164.0556, 2926.287
164.5378, 2912.110
165.0199, 2878.726
165.5020, 2834.011
165.9841, 2819.359
166.4662, 2856.584
166.9483, 2895.786
167.4305, 2926.249
167.9126, 2947.150
168.3947, 2957.160
168.8768, 2952.648
169.3589, 2936.466
169.8410, 2928.853
170.3232, 2933.609
170.8053, 2942.942
171.2874, 2960.704
171.7695, 2980.479
172.2516, 2991.490
172.7337, 2984.813
173.2159, 2962.690
173.6980, 2947.011
174.1801, 2944.087
174.6622, 2940.649
175.1443, 2930.947
175.6264, 2918.316
176.1085, 2908.737
176.5907, 2906.366
177.0728, 2910.628
177.5549, 2916.312
178.0370, 2932.868
178.5191, 2940.169
179.0012, 2923.814
179.4834, 2895.761
179.9655, 2877.458
180.4476, 2885.033
180.9297, 2915.181
181.4118, 2931.047
181.8939, 2916.322
182.3761, 2902.779
182.8582, 2897.498
183.3403, 2897.678
183.8224, 2897.964
184.3045, 2895.013
184.7866, 2889.065
185.2688, 2881.727
185.7509, 2867.308
186.2330, 2857.585
186.7151, 2862.209
187.1972, 2872.237
187.6793, 2871.978
188.1615, 2850.348
188.6436, 2811.087
189.1257, 2784.851
189.6078, 2794.099
190.0899, 2793.017
190.5720, 2760.210
191.0542, 2714.106
191.5363, 2685.632
192.0184, 2695.286
192.5005, 2734.505
192.9826, 2751.059
193.4647, 2720.341
193.9469, 2692.299
194.4290, 2674.810
194.9111, 2664.377
195.3932, 2654.676
195.8753, 2642.024
196.3574, 2627.869
196.8396, 2619.512
197.3217, 2627.302
197.8038, 2629.672
198.2859, 2617.464
198.7680, 2599.970
199.2501, 2591.831
199.7323, 2601.241
200.2144, 2621.140
200.6965, 2625.005
201.1786, 2602.121
201.6607, 2573.134
202.1428, 2517.510
202.6250, 2463.296
203.1071, 2454.741
203.5892, 2513.251
204.0713, 2607.070
204.5534, 2640.439
205.0355, 2538.452
205.5177, 2461.509
205.9998, 2430.226
206.4819, 2422.870
206.9640, 2418.329
207.4461, 2407.799
207.9282, 2391.698
208.4104, 2370.531
208.8925, 2329.660
209.3746, 2303.803
209.8567, 2301.454
210.3388, 2310.399
210.8209, 2318.842
211.3030, 2322.792
211.7852, 2326.241
212.2673, 2337.922
212.7494, 2376.520
213.2315, 2394.421
213.7136, 2377.316
214.1957, 2349.500
214.6779, 2330.897
215.1600, 2326.942
215.6421, 2329.921
216.1242, 2327.761
216.6063, 2317.382
217.0884, 2307.613
217.5706, 2298.415
218.0527, 2289.798
218.5348, 2280.692
219.0169, 2271.434
219.4990, 2264.731
219.9811, 2264.663
220.4633, 2274.899
220.9454, 2237.061
221.4275, 2289.417
221.9096, 2317.135
222.3917, 2321.539
222.8738, 2232.801
223.3560, 2264.335
223.8381, 2247.670
224.3202, 2229.029
224.8023, 2277.492
225.2844, 2202.302
225.7665, 2249.700
226.2487, 2248.163
226.7308, 2269.023
227.2129, 2241.385
227.6950, 2228.727
228.1771, 2264.582
228.6592, 2273.575
229.1414, 2240.354
229.6235, 2262.637
230.1056, 2185.752
230.5877, 2195.889
231.0698, 2243.572
231.5519, 2212.790
232.0341, 2213.766
232.5162, 2214.350
232.9983, 2172.289
233.4804, 2138.851
233.9625, 2130.634
234.4446, 2138.886
234.9268, 2147.637
235.4089, 2147.110
235.8910, 2138.563
236.3731, 2128.876
236.8552, 2109.898
237.3373, 2100.105
237.8195, 2113.170
238.3016, 2133.866
238.7837, 2141.225
239.2658, 2124.089
239.7479, 2092.158
240.2300, 2074.517
240.7122, 2079.419
241.1943, 2087.223
241.6764, 2100.414
242.1585, 2112.423
242.6406, 2114.769
243.1227, 2104.435
243.6049, 2089.642
244.0870, 2088.445
244.5691, 2114.323
245.0512, 2123.582
245.5333, 2096.377
246.0154, 2063.088
246.4975, 2047.935
246.9797, 2055.662
247.4618, 2071.078
247.9439, 2072.878
248.4260, 2055.836
248.9081, 2043.762
249.3902, 2042.432
249.8724, 2043.267
250.3545, 2043.279
250.8366, 2041.523
251.3187, 2037.006
251.8008, 2026.725
252.2829, 2009.621
252.7651, 1998.397
253.2472, 1996.442
253.7293, 1998.080
254.2114, 2006.042
254.6935, 2016.555
255.1756, 2019.199
255.6578, 2000.760
256.1399, 1964.711
256.6220, 1943.486
257.1041, 1943.816
257.5862, 1950.863
258.0684, 1960.912
258.5505, 1971.863
259.0326, 1980.250
259.5147, 1985.265
259.9968, 1985.922
260.4789, 1977.462
260.9611, 1954.048
261.4432, 1935.043
261.9253, 1927.258
262.4074, 1928.681
262.8895, 1940.110
263.3716, 1967.568
263.8537, 1995.241
264.3358, 1996.330
264.8180, 1965.786
265.3001, 1938.276
265.7822, 1928.864
266.2643, 1928.290
266.7464, 1928.769
267.2285, 1929.719
267.7107, 1929.182
268.1928, 1922.663
268.6749, 1910.900
269.1570, 1906.260
269.6391, 1917.498
270.1212, 1932.320
270.6034, 1937.364
271.0855, 1932.209
271.5676, 1921.794
272.0497, 1903.509
272.5318, 1881.609
273.0139, 1870.263
273.4961, 1874.376
273.9782, 1884.675
274.4603, 1893.098
274.9424, 1899.765
275.4245, 1904.094
275.9066, 1903.233
276.3888, 1900.982
276.8709, 1903.906
277.3530, 1913.266
277.8351, 1922.105
278.3172, 1923.149
278.7993, 1917.840
279.2815, 1916.933
279.7636, 1932.953
280.2457, 1945.107
280.7278, 1928.321
281.2099, 1886.900
281.6920, 1856.962
282.1742, 1864.405
282.6563, 1900.751
283.1384, 1921.121
283.6205, 1918.903
284.1026, 1909.855
284.5847, 1894.027
285.0669, 1876.134
285.5490, 1865.982
286.0311, 1868.103
286.5132, 1880.275
286.9953, 1898.312
287.4774, 1936.070
287.9596, 1957.030
288.4417, 1939.450
288.9238, 1909.700
289.4059, 1898.759
289.8880, 1914.823
290.3701, 1943.847
290.8523, 1966.549
291.3344, 1981.052
291.8165, 1992.504
292.2986, 2005.788
292.7807, 2012.556
293.2628, 2000.907
293.7450, 1974.345
294.2271, 1951.267
294.7092, 1949.602
295.1913, 1971.133
295.6734, 1991.976
296.1555, 2016.159
296.6377, 2035.467
297.1198, 2044.922
297.6019, 2047.505
298.0840, 2048.113
298.5661, 2049.184
299.0482, 2051.817
299.5304, 2062.264
300.0125, 2096.061
300.4946, 2115.237
300.9767, 2102.537
301.4588, 2078.481
301.9409, 2065.160
302.4231, 2070.782
302.9052, 2086.065
303.3873, 2094.146
303.8694, 2090.129
304.3515, 2094.460
304.8336, 2118.994
305.3158, 2146.094
305.7979, 2164.884
306.2800, 2174.352
306.7621, 2181.046
307.2442, 2191.395
307.7263, 2205.215
308.2085, 2216.150
308.6906, 2220.908
309.1727, 2226.338
309.6548, 2236.918
310.1369, 2251.357
310.6190, 2265.783
311.1012, 2278.652
311.5833, 2290.015
312.0654, 2298.273
312.5475, 2300.907
313.0296, 2309.277
313.5117, 2337.581
313.9939, 2374.181
314.4760, 2401.546
314.9581, 2414.593
315.4402, 2419.460
315.9223, 2418.118
316.4044, 2411.576
316.8866, 2408.771
317.3687, 2413.375
317.8508, 2423.564
318.3329, 2437.104
318.8150, 2456.594
319.2971, 2470.754
319.7793, 2470.239
320.2614, 2462.826
320.7435, 2462.043
321.2256, 2471.238
321.7077, 2485.428
322.1898, 2498.554
322.6720, 2509.979
323.1541, 2526.059
323.6362, 2558.119
324.1183, 2586.669
324.6004, 2593.963
325.0826, 2582.057
325.5647, 2567.459
326.0468, 2562.192
326.5289, 2565.798
327.0110, 2569.760
327.4931, 2579.326
327.9753, 2583.413
328.4574, 2574.922
328.9395, 2559.917
329.4216, 2549.439
329.9037, 2548.581
330.3858, 2550.441
330.8680, 2537.436
331.3501, 2491.476
331.8322, 2460.763
332.3143, 2455.852
332.7964, 2459.088
333.2785, 2460.831
333.7606, 2457.859
334.2427, 2448.142
334.7249, 2426.634
335.2070, 2390.544
335.6891, 2363.878
336.1712, 2351.365
336.6533, 2344.317
337.1354, 2340.602
337.6176, 2339.747
338.0997, 2341.667
338.5818, 2347.507
339.0639, 2355.209
339.5460, 2358.398
340.0281, 2355.402
340.5103, 2352.383
340.9924, 2354.765
341.4745, 2357.106
341.9566, 2352.425
342.4387, 2337.552
342.9208, 2321.612
343.4030, 2310.659
343.8851, 2305.084
344.3672, 2311.346
344.8493, 2339.004
345.3314, 2368.277
345.8135, 2374.087
346.2957, 2357.037
346.7778, 2341.627
347.2599, 2335.099
347.7420, 2335.989
348.2241, 2343.829
348.7062, 2358.596
349.1884, 2376.121
349.6705, 2396.640
350.1526, 2418.153
350.6347, 2422.988
351.1168, 2390.560
351.5989, 2362.419
352.0811, 2365.870
352.5632, 2389.307
353.0453, 2404.675
353.5274, 2398.380
354.0095, 2377.680
354.4916, 2360.327
354.9738, 2344.794
355.4559, 2335.405
355.9380, 2333.189
356.4201, 2336.443
356.9022, 2348.530
357.3843, 2367.432
357.8665, 2380.959
358.3486, 2373.060
358.8307, 2338.686
359.3128, 2319.148
359.7949, 2335.928
360.2770, 2346.333
360.7592, 2329.666
361.2413, 2297.170
361.7234, 2271.423
362.2055, 2265.660
362.6876, 2273.435
363.1697, 2279.236
363.6519, 2284.612
364.1340, 2283.663
364.6161, 2266.300
365.0982, 2246.825
365.5803, 2237.258
366.0624, 2239.987
366.5446, 2247.935
367.0267, 2260.802
367.5088, 2275.778
367.9909, 2273.358
368.4730, 2241.093
368.9551, 2208.677
369.4373, 2207.503
369.9194, 2230.164
370.4015, 2248.195
370.8836, 2248.978
371.3657, 2244.538
371.8478, 2248.647
372.3300, 2260.675
372.8121, 2269.043
373.2942, 2265.202
373.7763, 2254.256
374.2584, 2254.861
374.7405, 2274.252
375.2227, 2292.556
375.7048, 2303.475
376.1869, 2310.999
376.6690, 2320.039
377.1511, 2332.001
377.6332, 2346.256
378.1154, 2363.092
378.5975, 2386.356
379.0796, 2397.710
379.5617, 2384.271
380.0438, 2373.218
380.5259, 2380.533
381.0081, 2401.093
381.4902, 2419.419
381.9723, 2424.667
382.4544, 2421.672
382.9365, 2431.409
383.4186, 2464.752
383.9008, 2490.613
384.3829, 2496.480
384.8650, 2496.751
385.3471, 2504.751
385.8292, 2523.456
386.3113, 2544.479
386.7935, 2560.433
387.2756, 2571.391
387.7577, 2576.999
388.2398, 2574.365
388.7219, 2570.731
389.2040, 2574.756
389.6862, 2582.857
390.1683, 2583.149
390.6504, 2569.394
391.1325, 2547.324
391.6146, 2520.557
392.0967, 2489.653
392.5789, 2462.852
393.0610, 2446.024
393.5431, 2434.203
394.0252, 2414.263
394.5073, 2382.997
394.9894, 2352.097
395.4716, 2326.267
395.9537, 2301.430
396.4358, 2270.796
396.9179, 2233.573
397.4000, 2198.168
397.8821, 2174.986
398.3643, 2167.185
398.8464, 2145.524
399.3285, 2102.435
399.8106, 2055.194
400.2927, 1998.792
400.7748, 1944.329
401.2570, 1912.908
401.7391, 1915.956
402.2212, 1935.819
402.7033, 1931.789
403.1854, 1894.053
403.6675, 1859.112
404.1497, 1831.955
404.6317, 1809.448
405.1139, 1789.935
405.5960, 1773.466
406.0781, 1761.650
406.5602, 1758.655
407.0423, 1761.389
407.5244, 1759.506
408.0066, 1752.519
408.4887, 1741.528
408.9708, 1722.597
409.4529, 1701.037
409.9350, 1687.664
410.4171, 1688.180
410.8993, 1690.450
411.3814, 1684.836
411.8635, 1675.093
412.3456, 1671.589
412.8277, 1678.092
413.3098, 1687.968
413.7920, 1692.275
414.2741, 1688.899
414.7562, 1686.698
415.2383, 1691.653
415.7204, 1692.632
416.2025, 1676.045
416.6847, 1648.770
417.1668, 1632.244
417.6489, 1641.244
418.1310, 1667.196
418.6131, 1675.157
419.0952, 1651.047
419.5774, 1631.430
420.0595, 1622.052
420.5416, 1617.198
421.0237, 1610.509
421.5058, 1601.917
421.9879, 1599.181
422.4701, 1616.674
422.9522, 1651.028
423.4343, 1663.780
423.9164, 1643.069
424.3985, 1621.651
424.8806, 1624.151
425.3628, 1637.680
425.8449, 1639.370
426.3270, 1615.900
426.8091, 1591.230
427.2912, 1589.540
427.7733, 1604.593
428.2555, 1610.336
428.7376, 1596.217
429.2197, 1577.800
429.7018, 1579.038
430.1839, 1605.939
430.6660, 1621.843
431.1482, 1613.575
431.6303, 1602.492
432.1124, 1604.020
432.5945, 1616.204
433.0766, 1630.403
433.5587, 1642.332
434.0409, 1649.803
434.5230, 1643.479
435.0051, 1607.658
435.4872, 1536.595
435.9693, 1592.132
436.4514, 1623.032
436.9336, 1630.617
437.4157, 1545.060
437.8978, 1579.777
438.3799, 1566.294
438.8620, 1550.834
439.3441, 1602.479
439.8263, 1530.469
440.3084, 1581.050
440.7905, 1582.695
441.2726, 1606.736
441.7547, 1582.280
442.2368, 1572.803
442.7190, 1611.839
443.2011, 1624.014
443.6832, 1593.974
444.1653, 1619.440
444.6474, 1545.736
445.1295, 1559.054
445.6117, 1609.919
446.0938, 1591.168
446.5759, 1605.073
447.0580, 1606.786
447.5401, 1600.783
448.0222, 1581.884
448.5044, 1557.755
448.9865, 1543.846
449.4686, 1547.896
449.9507, 1562.730
450.4328, 1571.924
450.9149, 1570.597
451.3971, 1574.913
451.8792, 1595.972
452.3613, 1613.789
452.8434, 1613.288
453.3255, 1598.373
453.8076, 1585.791
454.2898, 1587.318
454.7719, 1597.995
455.2540, 1607.007
455.7361, 1614.904
456.2182, 1617.364
456.7003, 1607.941
457.1825, 1595.231
457.6646, 1593.350
458.1467, 1605.590
458.6288, 1614.652
459.1109, 1609.360
459.5930, 1598.825
460.0752, 1596.506
460.5573, 1603.455
461.0394, 1610.199
461.5215, 1609.046
462.0036, 1600.928
462.4857, 1596.141
462.9679, 1597.764
463.4500, 1598.730
463.9321, 1595.782
464.4142, 1592.680
464.8963, 1594.501
465.3784, 1601.923
465.8606, 1609.925
466.3427, 1613.252
466.8248, 1611.864
467.3069, 1606.208
467.7890, 1590.010
468.2711, 1579.032
468.7533, 1584.144
469.2354, 1597.296
469.7175, 1606.239
470.1996, 1607.389
470.6817, 1604.300
471.1638, 1596.653
471.6460, 1586.823
472.1281, 1585.060
472.6102, 1595.018
473.0923, 1608.217
473.5744, 1616.098
474.0565, 1618.086
474.5387, 1618.949
475.0208, 1622.187
475.5029, 1620.807
475.9850, 1607.226
476.4671, 1587.221
476.9492, 1570.945
477.4313, 1562.636
477.9135, 1560.565
478.3956, 1563.101
478.8777, 1573.948
479.3598, 1578.563
479.8419, 1566.337
480.3240, 1557.637
480.8062, 1564.109
481.2883, 1580.881
481.7704, 1595.699
482.2525, 1602.765
482.7346, 1604.975
483.2167, 1605.378
483.6989, 1604.049
484.1810, 1604.809
484.6631, 1609.622
485.1452, 1615.734
485.6273, 1620.641
486.1094, 1624.652
486.5916, 1623.987
487.0737, 1611.480
487.5558, 1599.368
488.0379, 1597.341
488.5200, 1603.926
489.0021, 1613.714
489.4843, 1624.310
489.9664, 1634.107
490.4485, 1638.910
490.9306, 1628.348
491.4127, 1642.838
491.8948, 1652.635
492.3770, 1657.993
492.8591, 1645.608
493.3412, 1656.133
493.8233, 1657.476
494.3054, 1658.443
494.7875, 1672.192
495.2697, 1662.389
495.7518, 1675.935
496.2339, 1680.160
496.7160, 1688.651
497.1981, 1687.904
497.6802, 1690.011
498.1624, 1701.359
498.6445, 1707.589
499.1266, 1705.779
499.6087, 1714.541
500.0908, 1704.415
500.5729, 1718.190
501.0551, 1730.495
501.5372, 1749.112
502.0193, 1769.425
502.5014, 1778.902
502.9835, 1770.792
503.4656, 1763.205
503.9478, 1749.464
504.4299, 1742.286
504.9120, 1755.195
505.3941, 1782.559
505.8762, 1805.133
506.3583, 1809.171
506.8405, 1802.752
507.3226, 1802.961
507.8047, 1810.184
508.2868, 1820.816
508.7689, 1838.022
509.2510, 1853.573
509.7332, 1854.148
510.2153, 1838.882
510.6974, 1830.952
511.1795, 1838.714
511.6616, 1854.479
512.1437, 1875.424
512.6259, 1898.975
513.1080, 1918.223
513.5901, 1929.298
514.0722, 1935.079
514.5543, 1943.009
515.0364, 1960.301
515.5186, 1965.001
516.0007, 1940.390
516.4828, 1919.642
516.9649, 1925.256
517.4470, 1950.046
517.9291, 1971.173
518.4113, 1974.995
518.8934, 1970.856
519.3755, 1972.464
519.8576, 1979.838
520.3397, 1997.263
520.8218, 2033.914
521.3040, 2069.176
521.7861, 2072.369
522.2682, 2045.124
522.7503, 2025.935
523.2324, 2027.706
523.7145, 2032.576
524.1967, 2024.830
524.6788, 2011.489
525.1609, 2012.241
525.6430, 2035.573
526.1251, 2065.958
526.6072, 2075.826
527.0894, 2057.004
527.5715, 2044.871
528.0536, 2048.067
528.5357, 2049.377
529.0178, 2040.540
529.4999, 2025.585
529.9821, 2010.915
530.4642, 1996.763
530.9463, 1989.978
531.4284, 2008.099
531.9105, 2042.645
532.3926, 2050.536
532.8748, 2018.017
533.3569, 1978.128
533.8390, 1958.827
534.3211, 1960.920
534.8032, 1974.924
535.2853, 2021.254
535.7675, 2055.332
536.2496, 2050.858
536.7317, 2030.293
537.2138, 2026.219
537.6959, 2045.237
538.1780, 2063.599
538.6602, 2051.484
539.1423, 2009.665
539.6244, 1980.769
540.1065, 1968.167
540.5886, 1962.584
541.0707, 1965.381
541.5529, 1970.641
542.0350, 1970.984
542.5171, 1964.453
542.9992, 1958.094
543.4813, 1957.863
543.9634, 1959.530
544.4456, 1954.635
544.9277, 1943.141
545.4098, 1935.136
545.8919, 1938.701
546.3740, 1949.582
546.8561, 1950.337
547.3383, 1928.508
547.8204, 1914.028
548.3025, 1911.574
548.7846, 1913.622
549.2667, 1916.645
549.7488, 1919.359
550.2310, 1920.712
550.7131, 1921.271
551.1952, 1918.536
551.6773, 1902.997
552.1594, 1873.472
552.6415, 1855.025
553.1237, 1858.192
553.6058, 1870.954
554.0879, 1881.481
554.5700, 1890.055
555.0521, 1892.099
555.5342, 1881.605
556.0164, 1869.570
556.4985, 1863.552
556.9806, 1860.911
557.4627, 1854.597
557.9448, 1842.157
558.4269, 1829.825
558.9091, 1829.271
559.3912, 1844.379
559.8733, 1845.551
560.3554, 1819.274
560.8375, 1796.942
561.3196, 1797.140
561.8018, 1806.871
562.2839, 1807.158
562.7660, 1792.712
563.2481, 1772.104
563.7302, 1743.191
564.2123, 1714.605
564.6945, 1709.532
565.1766, 1729.777
565.6587, 1745.227
566.1408, 1731.962
566.6229, 1696.964
567.1050, 1675.668
567.5872, 1674.486
568.0693, 1679.509
568.5514, 1702.507
569.0335, 1721.958
569.5156, 1718.015
569.9977, 1694.185
570.4799, 1669.771
570.9620, 1655.988
571.4441, 1650.967
571.9262, 1655.165
572.4083, 1668.867
572.8904, 1671.055
573.3726, 1649.750
573.8547, 1625.052
574.3368, 1626.105
574.8189, 1653.751
575.3010, 1660.472
575.7831, 1618.298
576.2653, 1579.843
576.7474, 1580.787
577.2295, 1599.869
577.7116, 1599.226
578.1937, 1568.342
578.6758, 1530.737
579.1580, 1516.883
579.6401, 1526.896
580.1222, 1528.776
580.6042, 1517.424
581.0864, 1507.942
581.5685, 1514.373
582.0506, 1522.912
582.5327, 1513.321
583.0148, 1478.924
583.4969, 1454.054
583.9791, 1465.292
584.4612, 1487.514
584.9433, 1491.460
585.4254, 1477.603
585.9075, 1460.503
586.3896, 1447.939
586.8718, 1437.832
587.3539, 1424.591
587.8360, 1405.459
588.3181, 1389.926
588.8002, 1375.944
589.2823, 1367.802
589.7645, 1374.957
590.2466, 1388.574
590.7287, 1388.794
591.2108, 1363.746
591.6929, 1335.353
592.1750, 1325.225
592.6572, 1327.929
593.1393, 1328.260
593.6214, 1323.457
594.1035, 1319.320
594.5856, 1321.521
595.0677, 1328.680
595.5499, 1329.589
596.0320, 1318.814
596.5141, 1308.633
596.9962, 1301.988
597.4783, 1294.850
597.9604, 1280.461
598.4426, 1261.475
598.9247, 1249.933
599.4068, 1256.693
599.8889, 1272.079
600.3710, 1279.289
600.8531, 1278.583
601.3353, 1274.815
601.8174, 1267.742
602.2995, 1262.070
602.7816, 1264.394
603.2637, 1275.684
603.7458, 1280.669
604.2280, 1270.087
604.7101, 1264.214
605.1922, 1278.744
605.6743, 1297.533
606.1564, 1295.702
606.6385, 1270.921
607.1207, 1249.631
607.6028, 1262.841
608.0849, 1300.008
608.5670, 1311.569
609.0491, 1292.448
609.5313, 1276.357
610.0134, 1278.077
610.4955, 1286.889
610.9776, 1284.824
611.4597, 1269.932
611.9418, 1265.576
612.4240, 1285.220
612.9061, 1306.698
613.3882, 1318.277
613.8703, 1321.628
614.3524, 1320.013
614.8345, 1314.872
615.3167, 1308.711
615.7988, 1305.036
616.2809, 1303.798
616.7630, 1300.904
617.2451, 1296.186
617.7272, 1290.012
618.2094, 1279.342
618.6915, 1269.021
619.1736, 1266.895
619.6557, 1275.076
620.1378, 1282.796
620.6199, 1287.849
621.1021, 1290.352
621.5842, 1287.283
622.0663, 1281.810
622.5484, 1283.503
623.0305, 1296.923
623.5126, 1313.270
623.9948, 1316.131
624.4769, 1302.987
624.9590, 1296.981
625.4411, 1298.877
625.9232, 1307.658
626.4053, 1331.890
626.8875, 1359.756
627.3696, 1371.933
627.8517, 1362.190
628.3338, 1351.327
628.8159, 1346.644
629.2980, 1346.024
629.7802, 1351.492
630.2623, 1359.635
630.7444, 1356.414
631.2265, 1332.878
631.7086, 1305.411
