##NAMES=Augite
##RRUFFID=R061086
##IDEAL CHEMISTRY=(Ca,Mg,Fe^2+^,Fe^3+^)_2_(Si,Al)_2_O_6_
##LOCALITY=Boreslav, Teplitz, Bohemia, Czech Republic
##OWNER=RRUFF
##SOURCE=Michael Scott
##DESCRIPTION=Black to dark green tabular euhedral crystal
##STATUS=The identification of this mineral has been confirmed by X-ray diffraction and chemical analysis
##URL=rruff.info/R061086
##MEASURED CHEMISTRY=(Ca_0.88_Mg_0.83_Fe_0.13_Al_0.08_Na_0.04_Ti_0.03_Cr_0.01_)_Σ=2_(Si_1.89_Al_0.11_)_Σ=2_O_6_
161.5804, 5644.702
162.0626, 5654.019
162.5447, 5663.747
163.0268, 5675.218
163.5089, 5688.636
163.9910, 5706.734
164.4731, 5732.965
164.9553, 5763.904
165.4374, 5795.536
165.9195, 5830.604
166.4016, 5862.691
166.8837, 5884.928
167.3658, 5895.089
167.8480, 5909.033
168.3301, 5947.525
168.8122, 5996.503
169.2943, 6029.847
169.7764, 6022.971
170.2585, 6000.069
170.7407, 5982.765
171.2228, 5973.011
171.7049, 5970.846
172.1870, 5976.175
172.6691, 5989.056
173.1512, 6009.536
173.6334, 6056.192
174.1155, 6105.922
174.5976, 6121.802
175.0797, 6080.284
175.5618, 6025.894
176.0439, 6006.319
176.5260, 6018.996
177.0082, 6044.254
177.4903, 6083.704
177.9724, 6125.509
178.4545, 6140.694
178.9366, 6099.136
179.4187, 6041.533
179.9009, 6041.802
180.3830, 6100.608
180.8651, 6163.463
181.3472, 6178.295
181.8293, 6154.883
182.3114, 6127.190
182.7936, 6106.626
183.2757, 6091.130
183.7578, 6075.334
184.2399, 6059.437
184.7220, 6041.915
185.2041, 6010.367
185.6863, 5968.903
186.1684, 5950.704
186.6505, 5994.180
187.1326, 6078.538
187.6147, 6118.408
188.0968, 6102.090
188.5790, 6061.043
189.0611, 6041.153
189.5432, 6042.317
190.0253, 6051.608
190.5074, 6070.906
190.9895, 6096.554
191.4717, 6097.486
191.9538, 6063.523
192.4359, 6012.980
192.9180, 5988.037
193.4001, 5990.787
193.8822, 5997.474
194.3644, 5995.116
194.8465, 5983.827
195.3286, 5956.173
195.8107, 5903.145
196.2928, 5836.608
196.7749, 5800.424
197.2570, 5799.325
197.7392, 5806.570
198.2213, 5796.733
198.7034, 5767.826
199.1855, 5745.084
199.6676, 5737.354
200.1497, 5741.000
200.6319, 5728.183
201.1140, 5693.473
201.5961, 5656.260
202.0782, 5639.081
202.5603, 5644.321
203.0424, 5656.519
203.5246, 5676.188
204.0067, 5703.180
204.4888, 5709.000
204.9709, 5686.500
205.4530, 5654.603
205.9352, 5641.010
206.4173, 5650.551
206.8994, 5660.722
207.3815, 5660.756
207.8636, 5648.064
208.3457, 5651.299
208.8279, 5677.704
209.3100, 5712.630
209.7921, 5726.051
210.2742, 5708.409
210.7563, 5695.047
211.2384, 5703.328
211.7206, 5739.179
212.2027, 5771.161
212.6848, 5797.797
213.1669, 5821.237
213.6490, 5846.351
214.1311, 5873.737
214.6133, 5901.702
215.0954, 5929.601
215.5775, 5956.790
216.0596, 5983.997
216.5417, 6011.425
217.0238, 6038.730
217.5059, 6065.623
217.9881, 6092.072
218.4702, 6118.345
218.9523, 6145.208
219.4344, 6173.295
219.9165, 6200.479
220.3986, 6228.370
220.8808, 6255.762
221.3629, 6274.155
221.8450, 6274.829
222.3271, 6278.693
222.8092, 6305.838
223.2913, 6377.528
223.7735, 6422.924
224.2556, 6423.763
224.7377, 6383.358
225.2198, 6359.517
225.7019, 6357.387
226.1840, 6365.131
226.6662, 6375.365
227.1483, 6397.747
227.6304, 6401.622
228.1125, 6374.153
228.5946, 6314.314
229.0767, 6275.343
229.5589, 6269.670
230.0410, 6273.280
230.5231, 6262.047
231.0052, 6232.312
231.4873, 6194.275
231.9694, 6144.639
232.4516, 6080.691
232.9337, 6037.825
233.4158, 6029.858
233.8979, 6031.744
234.3800, 6011.478
234.8621, 5953.574
235.3443, 5900.696
235.8264, 5863.849
236.3085, 5845.205
236.7906, 5830.939
237.2727, 5823.750
237.7548, 5819.092
238.2369, 5810.285
238.7191, 5795.412
239.2012, 5779.100
239.6833, 5759.608
240.1654, 5730.709
240.6475, 5724.719
241.1296, 5757.015
241.6118, 5803.326
242.0939, 5822.241
242.5760, 5801.077
243.0581, 5772.535
243.5402, 5745.050
244.0223, 5715.331
244.5045, 5699.603
244.9866, 5707.500
245.4687, 5724.958
245.9508, 5721.375
246.4329, 5676.429
246.9150, 5642.510
247.3972, 5643.602
247.8793, 5699.700
248.3614, 5737.045
248.8435, 5750.514
249.3256, 5747.047
249.8077, 5741.605
250.2899, 5730.916
250.7720, 5723.248
251.2541, 5724.005
251.7362, 5741.707
252.2183, 5746.029
252.7004, 5732.060
253.1826, 5705.946
253.6647, 5683.385
254.1468, 5664.065
254.6289, 5648.494
255.1110, 5638.314
255.5931, 5639.139
256.0753, 5629.799
256.5574, 5604.612
257.0395, 5570.076
257.5216, 5547.614
258.0037, 5544.297
258.4858, 5540.338
258.9680, 5524.557
259.4501, 5491.063
259.9322, 5461.959
260.4143, 5437.928
260.8964, 5419.014
261.3785, 5406.338
261.8607, 5401.013
262.3428, 5399.886
262.8249, 5402.985
263.3070, 5413.897
263.7891, 5417.237
264.2712, 5409.944
264.7534, 5395.218
265.2355, 5383.519
265.7176, 5375.178
266.1997, 5369.079
266.6818, 5363.881
267.1639, 5358.491
267.6461, 5358.250
268.1282, 5363.515
268.6103, 5374.042
269.0924, 5393.199
269.5745, 5427.801
270.0566, 5453.294
270.5387, 5448.024
271.0208, 5402.272
271.5030, 5373.337
271.9851, 5367.981
272.4672, 5382.249
272.9493, 5408.415
273.4314, 5452.626
273.9135, 5489.033
274.3957, 5492.328
274.8778, 5455.486
275.3599, 5440.670
275.8420, 5459.945
276.3241, 5502.589
276.8062, 5540.052
277.2884, 5575.247
277.7705, 5593.805
278.2526, 5569.097
278.7347, 5495.744
279.2168, 5475.056
279.6989, 5536.494
280.1811, 5644.762
280.6632, 5701.852
281.1453, 5702.006
281.6274, 5684.907
282.1095, 5673.150
282.5916, 5666.641
283.0738, 5666.356
283.5559, 5672.695
284.0380, 5684.838
284.5201, 5701.131
285.0022, 5721.651
285.4843, 5745.174
285.9665, 5772.333
286.4486, 5802.706
286.9307, 5830.689
287.4128, 5853.679
287.8949, 5876.269
288.3770, 5910.063
288.8592, 5955.393
289.3413, 5999.255
289.8234, 6038.123
290.3055, 6070.047
290.7876, 6077.698
291.2697, 6048.076
291.7519, 6011.274
292.2340, 6024.653
292.7161, 6086.402
293.1982, 6161.896
293.6803, 6241.332
294.1624, 6318.528
294.6446, 6368.937
295.1267, 6383.663
295.6088, 6383.000
296.0909, 6391.449
296.5730, 6409.188
297.0551, 6439.271
297.5373, 6495.527
298.0194, 6564.275
298.5015, 6614.178
298.9836, 6636.616
299.4657, 6648.517
299.9478, 6664.490
300.4300, 6685.756
300.9121, 6717.199
301.3942, 6769.536
301.8763, 6831.968
302.3584, 6885.633
302.8405, 6926.843
303.3227, 6964.870
303.8048, 7005.557
304.2869, 7050.062
304.7690, 7104.299
305.2511, 7172.769
305.7332, 7251.406
306.2154, 7339.652
306.6975, 7439.776
307.1796, 7537.359
307.6617, 7611.596
308.1438, 7672.228
308.6259, 7743.981
309.1081, 7850.590
309.5901, 7965.806
310.0723, 8064.516
310.5544, 8138.173
311.0365, 8218.802
311.5186, 8335.591
312.0007, 8473.874
312.4828, 8605.854
312.9650, 8719.630
313.4471, 8824.871
313.9292, 8924.991
314.4113, 9019.601
314.8934, 9114.401
315.3755, 9207.716
315.8577, 9304.598
316.3398, 9409.301
316.8219, 9531.273
317.3040, 9656.018
317.7861, 9779.828
318.2682, 9903.539
318.7504, 10015.35
319.2325, 10104.34
319.7146, 10182.79
320.1967, 10264.42
320.6788, 10377.41
321.1609, 10471.76
321.6431, 10520.41
322.1252, 10517.23
322.6073, 10529.95
323.0894, 10600.24
323.5715, 10679.31
324.0536, 10722.12
324.5358, 10692.69
325.0179, 10656.13
325.5000, 10626.95
325.9821, 10606.35
326.4642, 10571.76
326.9464, 10511.41
327.4285, 10442.58
327.9106, 10378.01
328.3927, 10338.19
328.8748, 10278.61
329.3569, 10191.33
329.8391, 10077.97
330.3212, 9961.335
330.8033, 9829.340
331.2854, 9705.148
331.7675, 9607.354
332.2496, 9558.132
332.7318, 9493.776
333.2139, 9399.479
333.6960, 9284.870
334.1781, 9195.416
334.6602, 9144.861
335.1423, 9098.478
335.6245, 9031.876
336.1066, 8929.999
336.5887, 8853.586
337.0708, 8813.070
337.5529, 8795.353
338.0350, 8761.359
338.5172, 8704.103
338.9993, 8649.315
339.4814, 8613.876
339.9635, 8601.532
340.4456, 8574.762
340.9277, 8527.624
341.4099, 8470.899
341.8920, 8420.104
342.3741, 8374.563
342.8562, 8344.289
343.3383, 8342.527
343.8204, 8366.021
344.3026, 8377.566
344.7847, 8375.733
345.2668, 8363.101
345.7489, 8337.042
346.2310, 8299.017
346.7131, 8268.624
347.1953, 8259.490
347.6774, 8264.790
348.1595, 8261.741
348.6416, 8249.465
349.1237, 8238.356
349.6058, 8241.817
350.0880, 8256.259
350.5700, 8270.487
351.0522, 8285.284
351.5343, 8295.107
352.0164, 8285.916
352.4985, 8258.475
352.9806, 8234.078
353.4627, 8236.843
353.9449, 8252.913
354.4270, 8259.188
354.9091, 8243.767
355.3912, 8219.845
355.8733, 8194.943
356.3554, 8170.077
356.8376, 8151.203
357.3197, 8151.440
357.8018, 8154.881
358.2839, 8144.168
358.7660, 8102.751
359.2481, 8064.839
359.7303, 8055.401
360.2124, 8065.571
360.6945, 8068.592
361.1766, 8048.884
361.6587, 8021.865
362.1408, 7997.031
362.6230, 7975.572
363.1051, 7957.708
363.5872, 7943.542
364.0693, 7933.342
364.5514, 7927.593
365.0335, 7932.048
365.5157, 7936.131
365.9978, 7935.593
366.4799, 7928.626
366.9620, 7921.128
367.4441, 7911.387
367.9262, 7901.544
368.4084, 7894.662
368.8905, 7892.986
369.3726, 7890.926
369.8547, 7889.086
370.3368, 7888.359
370.8189, 7875.972
371.3011, 7836.575
371.7832, 7798.272
372.2653, 7789.980
372.7474, 7834.313
373.2295, 7860.589
373.7116, 7849.258
374.1938, 7807.411
374.6759, 7792.035
375.1580, 7809.644
375.6401, 7841.389
376.1222, 7877.486
376.6043, 7919.415
377.0865, 7952.133
377.5686, 7967.815
378.0507, 7978.318
378.5328, 8015.293
379.0149, 8080.603
379.4970, 8158.336
379.9792, 8242.092
380.4613, 8331.907
380.9434, 8416.569
381.4255, 8495.828
381.9076, 8571.595
382.3897, 8648.800
382.8719, 8726.902
383.3540, 8797.688
383.8361, 8839.970
384.3182, 8875.018
384.8003, 8962.000
385.2824, 9106.940
385.7646, 9252.842
386.2467, 9344.926
386.7288, 9397.730
387.2109, 9444.379
387.6930, 9503.490
388.1751, 9559.593
388.6573, 9597.915
389.1394, 9619.496
389.6215, 9631.203
390.1036, 9650.039
390.5857, 9656.618
391.0678, 9628.723
391.5499, 9540.356
392.0320, 9440.699
392.5142, 9356.324
392.9963, 9282.617
393.4784, 9203.622
393.9605, 9123.979
394.4426, 9030.529
394.9247, 8915.112
395.4069, 8773.146
395.8890, 8615.340
396.3711, 8432.441
396.8532, 8237.445
397.3353, 8055.113
397.8174, 7885.981
398.2996, 7732.237
398.7817, 7605.521
399.2638, 7522.656
399.7459, 7398.432
400.2280, 7180.730
400.7101, 6952.691
401.1923, 6802.582
401.6744, 6783.495
402.1565, 6751.546
402.6386, 6674.103
403.1207, 6555.509
403.6028, 6463.667
404.0850, 6409.007
404.5671, 6362.271
405.0492, 6300.701
405.5313, 6221.747
406.0134, 6140.535
406.4955, 6055.393
406.9777, 5972.936
407.4598, 5914.136
407.9419, 5880.793
408.4240, 5853.412
408.9061, 5820.744
409.3882, 5783.852
409.8704, 5749.905
410.3525, 5719.065
410.8346, 5691.691
411.3167, 5665.446
411.7988, 5641.540
412.2809, 5626.901
412.7631, 5635.661
413.2452, 5651.196
413.7273, 5641.503
414.2094, 5606.410
414.6915, 5572.959
415.1736, 5563.239
415.6558, 5569.662
416.1379, 5582.129
416.6200, 5613.310
417.1021, 5632.243
417.5842, 5608.319
418.0663, 5550.108
418.5485, 5496.236
419.0306, 5463.328
419.5127, 5442.471
419.9948, 5426.365
420.4769, 5411.201
420.9590, 5406.930
421.4412, 5427.476
421.9233, 5459.519
422.4054, 5478.809
422.8875, 5469.373
423.3696, 5456.608
423.8517, 5450.738
424.3339, 5456.654
424.8160, 5449.337
425.2981, 5412.665
425.7802, 5372.930
426.2623, 5356.178
426.7444, 5383.384
427.2266, 5396.674
427.7087, 5378.127
428.1908, 5335.609
428.6729, 5328.534
429.1550, 5374.704
429.6371, 5417.986
430.1193, 5413.098
430.6014, 5350.988
431.0835, 5316.167
431.5656, 5321.667
432.0477, 5347.158
432.5298, 5352.552
433.0119, 5337.445
433.4940, 5324.175
433.9762, 5327.495
434.4583, 5341.716
434.9404, 5345.296
435.4225, 5337.151
435.9046, 5324.835
436.3867, 5314.962
436.8689, 5307.013
437.3510, 5299.643
437.8331, 5289.778
438.3152, 5282.742
438.7973, 5287.290
439.2794, 5301.483
439.7616, 5314.038
440.2437, 5320.115
440.7258, 5320.115
441.2079, 5313.667
441.6900, 5298.670
442.1721, 5281.960
442.6543, 5259.619
443.1364, 5238.346
443.6185, 5230.862
444.1006, 5258.924
444.5827, 5285.894
445.0648, 5296.121
445.5470, 5285.348
446.0291, 5277.145
446.5112, 5277.795
446.9933, 5280.172
447.4754, 5277.879
447.9576, 5267.765
448.4397, 5257.249
448.9218, 5244.280
449.4039, 5230.809
449.8860, 5229.939
450.3681, 5248.092
450.8503, 5266.672
451.3324, 5273.882
451.8145, 5266.753
452.2966, 5264.891
452.7787, 5268.839
453.2608, 5278.255
453.7430, 5296.062
454.2251, 5322.350
454.7072, 5343.550
455.1893, 5353.398
455.6714, 5354.291
456.1535, 5355.020
456.6357, 5355.867
457.1178, 5351.975
457.5999, 5334.627
458.0820, 5309.526
458.5641, 5288.478
459.0462, 5270.941
459.5284, 5263.719
460.0105, 5277.792
460.4926, 5308.604
460.9747, 5341.978
461.4568, 5382.255
461.9389, 5414.504
462.4211, 5423.250
462.9032, 5401.777
463.3853, 5382.452
463.8674, 5380.980
464.3495, 5387.851
464.8316, 5391.897
465.3138, 5395.158
465.7959, 5390.585
466.2780, 5369.335
466.7601, 5333.148
467.2422, 5313.410
467.7243, 5321.671
468.2065, 5336.659
468.6886, 5348.435
469.1707, 5359.051
469.6528, 5362.125
470.1349, 5355.453
470.6170, 5342.942
471.0992, 5331.040
471.5813, 5319.094
472.0634, 5310.572
472.5455, 5308.442
473.0276, 5311.486
473.5097, 5307.316
473.9918, 5294.392
474.4739, 5282.583
474.9561, 5284.586
475.4382, 5297.036
475.9203, 5303.458
476.4024, 5298.864
476.8845, 5289.195
477.3666, 5275.417
477.8488, 5261.404
478.3309, 5262.946
478.8130, 5307.514
479.2951, 5362.653
479.7772, 5392.231
480.2593, 5391.132
480.7415, 5385.488
481.2236, 5390.161
481.7057, 5398.829
482.1878, 5404.038
482.6699, 5400.955
483.1520, 5396.513
483.6342, 5391.430
484.1163, 5386.184
484.5984, 5383.886
485.0805, 5388.440
485.5626, 5393.149
486.0447, 5393.609
486.5269, 5380.987
487.0090, 5385.384
487.4911, 5421.209
487.9732, 5464.088
488.4553, 5473.566
488.9374, 5432.941
489.4196, 5409.945
489.9017, 5429.747
490.3838, 5483.139
490.8659, 5509.385
491.3480, 5504.457
491.8301, 5494.278
492.3123, 5496.057
492.7944, 5509.242
493.2765, 5533.572
493.7586, 5571.869
494.2407, 5612.136
494.7228, 5634.198
495.2050, 5643.652
495.6871, 5658.249
496.1692, 5693.602
496.6513, 5733.951
497.1334, 5761.075
497.6155, 5775.205
498.0977, 5794.512
498.5798, 5834.100
499.0619, 5881.689
499.5440, 5925.653
500.0261, 5966.229
500.5082, 5999.304
500.9904, 6014.963
501.4725, 6022.185
501.9546, 6041.278
502.4367, 6085.757
502.9188, 6131.728
503.4009, 6169.512
503.8831, 6196.073
504.3652, 6239.179
504.8473, 6311.197
505.3294, 6384.364
505.8115, 6434.593
506.2936, 6459.642
506.7758, 6467.885
507.2579, 6453.666
507.7400, 6429.551
508.2221, 6427.211
508.7042, 6447.255
509.1863, 6472.398
509.6685, 6499.730
510.1506, 6525.486
510.6327, 6534.146
511.1148, 6524.709
511.5969, 6514.095
512.0790, 6517.814
512.5612, 6531.400
513.0433, 6547.481
513.5254, 6567.397
514.0075, 6584.339
514.4896, 6596.574
514.9717, 6602.050
515.4539, 6595.417
515.9360, 6556.679
516.4181, 6519.135
516.9002, 6497.193
517.3823, 6491.475
517.8644, 6505.958
518.3466, 6572.540
518.8287, 6642.650
519.3108, 6671.104
519.7929, 6621.379
520.2750, 6588.614
520.7571, 6587.690
521.2393, 6608.837
521.7214, 6621.465
522.2035, 6624.188
522.6856, 6622.688
523.1677, 6616.613
523.6498, 6606.502
524.1320, 6609.207
524.6141, 6627.507
525.0962, 6645.689
525.5783, 6641.294
526.0604, 6621.284
526.5425, 6615.276
527.0247, 6638.839
527.5068, 6666.722
527.9889, 6661.125
528.4710, 6631.931
528.9531, 6611.629
529.4352, 6633.322
529.9174, 6660.745
530.3995, 6661.837
530.8816, 6631.538
531.3637, 6605.427
531.8458, 6603.780
532.3279, 6609.771
532.8101, 6608.829
533.2922, 6595.352
533.7743, 6578.515
534.2564, 6557.581
534.7385, 6534.071
535.2206, 6509.718
535.7027, 6478.977
536.1848, 6456.742
536.6669, 6449.035
537.1490, 6456.271
537.6312, 6468.858
538.1133, 6490.800
538.5954, 6506.254
539.0775, 6491.265
539.5596, 6449.766
540.0417, 6430.536
540.5239, 6448.104
541.0060, 6477.484
541.4881, 6480.759
541.9702, 6462.708
542.4523, 6441.354
542.9344, 6424.782
543.4166, 6410.253
543.8987, 6394.370
544.3808, 6377.150
544.8629, 6362.543
545.3450, 6356.725
545.8271, 6352.210
546.3093, 6342.020
546.7914, 6317.417
547.2735, 6299.978
547.7556, 6297.887
548.2377, 6305.218
548.7198, 6311.391
549.2020, 6317.394
549.6841, 6319.895
550.1662, 6313.939
550.6483, 6301.024
551.1304, 6307.860
551.6125, 6342.856
552.0947, 6375.901
552.5768, 6386.045
553.0589, 6373.328
553.5410, 6351.265
554.0231, 6317.503
554.5052, 6284.978
554.9874, 6277.342
555.4695, 6287.315
555.9516, 6288.259
556.4337, 6259.058
556.9158, 6226.729
557.3979, 6227.834
557.8801, 6255.217
558.3622, 6276.005
558.8443, 6266.770
559.3264, 6248.833
559.8085, 6237.329
560.2906, 6235.552
560.7728, 6233.866
561.2549, 6226.880
561.7370, 6220.357
562.2191, 6220.646
562.7012, 6241.364
563.1833, 6249.050
563.6655, 6233.410
564.1476, 6204.108
564.6297, 6192.220
565.1118, 6203.828
565.5939, 6215.042
566.0760, 6216.553
566.5582, 6208.773
567.0403, 6194.027
567.5224, 6171.336
568.0045, 6150.147
568.4866, 6143.124
568.9688, 6144.814
569.4509, 6138.495
569.9330, 6117.379
570.4151, 6097.713
570.8972, 6099.495
571.3793, 6114.537
571.8615, 6126.274
572.3436, 6133.758
572.8257, 6130.579
573.3078, 6102.139
573.7899, 6051.932
574.2720, 6024.422
574.7542, 6059.538
575.2363, 6095.846
575.7184, 6099.938
576.2005, 6059.136
576.6826, 6017.100
577.1647, 5968.511
577.6469, 5923.827
578.1290, 5899.297
578.6111, 5898.584
579.0932, 5897.856
579.5753, 5893.285
580.0574, 5885.228
580.5396, 5876.732
581.0217, 5867.307
581.5038, 5848.567
581.9859, 5803.150
582.4680, 5749.872
582.9501, 5727.356
583.4323, 5736.333
583.9144, 5740.646
584.3965, 5702.135
584.8786, 5650.994
585.3607, 5621.717
585.8428, 5642.130
586.3250, 5647.037
586.8071, 5598.408
587.2892, 5523.958
587.7713, 5470.583
588.2534, 5459.836
588.7355, 5452.647
589.2177, 5443.857
589.6998, 5433.578
590.1819, 5420.913
590.6640, 5404.760
591.1461, 5389.086
591.6282, 5379.833
592.1104, 5376.723
592.5925, 5352.663
593.0746, 5302.462
593.5567, 5254.023
594.0388, 5246.119
594.5209, 5265.587
595.0031, 5274.578
595.4852, 5257.722
595.9673, 5236.563
596.4494, 5233.617
596.9315, 5242.454
597.4136, 5247.625
597.8958, 5236.234
598.3779, 5225.211
598.8600, 5226.033
599.3421, 5238.954
599.8242, 5243.507
600.3063, 5231.308
600.7885, 5214.252
601.2706, 5197.375
601.7527, 5176.750
602.2348, 5167.627
602.7169, 5173.430
603.1990, 5186.031
603.6812, 5195.066
604.1633, 5200.046
604.6454, 5207.599
605.1275, 5220.423
605.6096, 5234.394
606.0917, 5241.235
606.5739, 5241.840
607.0560, 5241.751
607.5381, 5243.230
608.0202, 5245.946
608.5023, 5252.793
608.9844, 5263.237
609.4666, 5265.306
609.9487, 5236.453
610.4308, 5207.789
610.9129, 5204.933
611.3950, 5249.426
611.8771, 5282.124
612.3593, 5295.538
612.8414, 5294.508
613.3235, 5280.734
613.8056, 5239.350
614.2877, 5221.160
614.7698, 5242.761
615.2520, 5288.229
615.7341, 5305.494
616.2162, 5292.411
616.6983, 5281.987
617.1804, 5295.248
617.6625, 5322.804
618.1446, 5336.494
618.6267, 5336.899
619.1088, 5342.971
619.5909, 5381.060
620.0731, 5427.459
620.5552, 5452.130
621.0373, 5443.994
621.5194, 5435.182
622.0015, 5442.663
622.4836, 5456.292
622.9658, 5463.658
623.4479, 5446.514
623.9300, 5443.891
624.4121, 5473.976
624.8942, 5519.951
625.3763, 5526.936
625.8585, 5473.520
626.3406, 5440.978
626.8227, 5468.309
627.3048, 5545.207
627.7869, 5603.459
628.2690, 5642.788
628.7512, 5667.876
629.2333, 5676.063
629.7154, 5674.239
630.1975, 5673.751
630.6796, 5674.587
631.1617, 5686.369
631.6439, 5729.789
632.1260, 5784.221
632.6081, 5823.330
633.0902, 5828.692
633.5723, 5831.222
634.0544, 5837.060
634.5366, 5846.037
635.0187, 5857.338
635.5008, 5867.933
635.9829, 5885.607
636.4650, 5915.014
636.9471, 5954.175
637.4293, 5980.402
637.9114, 5988.468
638.3935, 6005.029
638.8756, 6050.754
639.3577, 6120.150
639.8398, 6193.031
640.3220, 6268.638
640.8041, 6339.336
641.2862, 6386.545
641.7683, 6428.205
642.2504, 6493.917
642.7325, 6604.679
643.2147, 6712.714
643.6968, 6777.858
644.1789, 6827.529
644.6610, 6908.689
645.1431, 7070.931
645.6252, 7219.833
646.1074, 7330.284
646.5895, 7412.317
647.0716, 7501.838
647.5537, 7590.160
648.0358, 7711.955
648.5179, 7898.832
649.0001, 8142.188
649.4822, 8331.521
649.9643, 8464.063
650.4464, 8597.725
650.9285, 8783.631
651.4106, 9007.391
651.8928, 9233.067
652.3749, 9455.159
652.8570, 9685.384
653.3391, 9935.518
653.8212, 10195.06
654.3033, 10450.28
654.7855, 10688.74
655.2676, 10937.13
655.7497, 11197.49
656.2318, 11471.40
