##NAMES=Augite
##RRUFFID=R070231
##IDEAL CHEMISTRY=(Ca,Mg,Fe^2+^,Fe^3+^)_2_(Si,Al)_2_O_6_
##LOCALITY=Old Goose Creek Quarry, Leesburg, Loudoun County, Virginia, USA
##OWNER=RRUFF
##SOURCE=Michael Scott
##DESCRIPTION=Very dark grey-green prismatic crystals frozen in quartz
##STATUS=The identification of this mineral is confirmed by single-crystal X-ray diffraction and chemical analysis.
##URL=rruff.info/R070231
##MEASURED CHEMISTRY=(Mg_0.44_Fe_0.37_Ca_0.17_Ti_0.01_Mn_0.01_)_Σ=1_(Si_0.98_Al_0.02_)_Σ=1_O_3_
167.7847, 3228.093
168.2668, 3229.693
168.7490, 3238.267
169.2311, 3257.291
169.7132, 3275.526
170.1953, 3285.345
170.6774, 3290.787
171.1595, 3298.247
171.6417, 3311.933
172.1238, 3328.969
172.6059, 3342.257
173.0880, 3351.256
173.5701, 3357.250
174.0522, 3361.327
174.5344, 3363.194
175.0165, 3361.419
175.4986, 3352.511
175.9807, 3341.206
176.4628, 3341.254
176.9449, 3357.583
177.4271, 3376.887
177.9092, 3396.547
178.3913, 3414.971
178.8734, 3430.253
179.3555, 3442.313
179.8376, 3450.042
180.3197, 3447.967
180.8019, 3424.340
181.2840, 3412.469
181.7661, 3430.488
182.2482, 3461.934
182.7303, 3486.986
183.2124, 3496.209
183.6946, 3492.753
184.1767, 3483.546
184.6588, 3459.758
185.1409, 3446.522
185.6230, 3455.502
186.1051, 3474.999
186.5873, 3492.432
187.0694, 3502.300
187.5515, 3505.822
188.0336, 3506.240
188.5157, 3503.372
188.9978, 3497.161
189.4800, 3484.619
189.9621, 3470.618
190.4442, 3459.627
190.9263, 3453.616
191.4084, 3452.273
191.8905, 3456.087
192.3727, 3472.073
192.8548, 3480.284
193.3369, 3477.041
193.8190, 3466.119
194.3011, 3448.319
194.7832, 3423.743
195.2654, 3398.747
195.7475, 3388.188
196.2296, 3400.997
196.7117, 3412.017
197.1938, 3418.020
197.6759, 3421.126
198.1581, 3423.960
198.6402, 3427.311
199.1223, 3428.442
199.6044, 3421.260
200.0865, 3399.417
200.5686, 3381.818
201.0508, 3370.770
201.5329, 3363.279
202.0150, 3358.498
202.4971, 3355.766
202.9792, 3352.848
203.4613, 3345.781
203.9435, 3332.209
204.4256, 3319.725
204.9077, 3307.867
205.3898, 3297.529
205.8719, 3289.204
206.3540, 3283.036
206.8362, 3278.998
207.3183, 3277.875
207.8004, 3282.549
208.2825, 3282.596
208.7646, 3279.137
209.2467, 3270.895
209.7289, 3251.991
210.2110, 3224.650
210.6931, 3200.621
211.1752, 3195.276
211.6573, 3215.028
212.1395, 3230.201
212.6216, 3240.398
213.1037, 3246.730
213.5858, 3247.162
214.0679, 3243.255
214.5500, 3239.992
215.0322, 3242.912
215.5143, 3253.413
215.9964, 3260.707
216.4785, 3262.170
216.9606, 3262.946
217.4427, 3262.738
217.9249, 3263.174
218.4070, 3268.198
218.8891, 3282.793
219.3712, 3307.509
219.8533, 3321.784
220.3354, 3312.812
220.8176, 3305.339
221.2997, 3308.168
221.7818, 3317.644
222.2639, 3325.356
222.7460, 3325.058
223.2281, 3317.652
223.7103, 3312.996
224.1924, 3316.170
224.6745, 3316.531
225.1566, 3308.893
225.6387, 3297.634
226.1208, 3289.499
226.6030, 3288.642
227.0851, 3293.259
227.5672, 3296.080
228.0493, 3299.352
228.5314, 3297.121
229.0135, 3281.428
229.4957, 3262.633
229.9778, 3253.351
230.4599, 3259.479
230.9420, 3275.095
231.4241, 3286.062
231.9062, 3291.822
232.3884, 3293.063
232.8705, 3286.660
233.3526, 3278.295
233.8347, 3273.955
234.3168, 3275.422
234.7989, 3277.884
235.2811, 3271.794
235.7632, 3250.580
236.2453, 3236.559
236.7274, 3234.953
237.2095, 3237.722
237.6916, 3241.356
238.1738, 3244.440
238.6559, 3245.050
239.1380, 3239.490
239.6201, 3224.947
240.1022, 3214.681
240.5843, 3208.749
241.0665, 3207.507
241.5486, 3213.847
242.0307, 3226.333
242.5128, 3238.993
242.9949, 3246.260
243.4770, 3247.828
243.9592, 3247.754
244.4413, 3249.347
244.9234, 3245.621
245.4055, 3230.413
245.8876, 3207.263
246.3697, 3185.282
246.8519, 3171.388
247.3340, 3164.547
247.8161, 3156.010
248.2982, 3142.965
248.7803, 3132.064
249.2624, 3127.447
249.7446, 3125.942
250.2267, 3122.043
250.7088, 3111.768
251.1909, 3098.274
251.6730, 3090.771
252.1551, 3091.051
252.6373, 3093.983
253.1194, 3103.646
253.6015, 3112.526
254.0836, 3110.523
254.5657, 3092.276
255.0478, 3068.539
255.5300, 3056.383
256.0121, 3057.945
256.4942, 3063.243
256.9763, 3076.919
257.4584, 3088.969
257.9406, 3090.175
258.4227, 3078.294
258.9048, 3063.350
259.3869, 3056.420
259.8690, 3057.927
260.3511, 3057.124
260.8333, 3048.546
261.3154, 3040.166
261.7975, 3039.446
262.2796, 3045.990
262.7617, 3050.645
263.2438, 3045.359
263.7260, 3031.877
264.2081, 3019.249
264.6902, 3004.111
265.1723, 2997.221
265.6544, 3013.663
266.1365, 3045.760
266.6187, 3067.334
267.1008, 3055.218
267.5829, 3026.195
268.0650, 3018.986
268.5471, 3041.193
269.0292, 3063.281
269.5114, 3061.905
269.9935, 3046.680
270.4756, 3032.537
270.9577, 3021.494
271.4398, 3014.581
271.9219, 3014.848
272.4041, 3022.532
272.8862, 3029.483
273.3683, 3032.515
273.8504, 3031.615
274.3325, 3026.745
274.8146, 3014.386
275.2968, 3004.438
275.7789, 3005.389
276.2610, 3014.894
276.7431, 3023.122
277.2252, 3026.003
277.7073, 3026.943
278.1895, 3032.879
278.6716, 3045.738
279.1537, 3054.071
279.6358, 3049.237
280.1179, 3038.181
280.6000, 3033.143
281.0822, 3037.162
281.5643, 3045.069
282.0464, 3051.141
282.5285, 3055.146
283.0106, 3059.905
283.4927, 3066.509
283.9749, 3073.502
284.4570, 3079.738
284.9391, 3085.093
285.4212, 3089.646
285.9033, 3092.940
286.3854, 3095.119
286.8676, 3100.210
287.3497, 3110.958
287.8318, 3121.675
288.3139, 3128.662
288.7960, 3133.299
289.2781, 3139.817
289.7603, 3150.964
290.2424, 3165.097
290.7245, 3175.006
291.2066, 3176.727
291.6887, 3179.454
292.1708, 3183.691
292.6530, 3189.983
293.1351, 3200.693
293.6172, 3216.469
294.0993, 3232.466
294.5814, 3239.698
295.0635, 3231.562
295.5457, 3226.756
296.0278, 3226.284
296.5099, 3228.152
296.9920, 3228.671
297.4741, 3228.845
297.9562, 3235.287
298.4384, 3256.303
298.9205, 3294.983
299.4026, 3327.073
299.8847, 3351.688
300.3668, 3370.854
300.8489, 3381.715
301.3311, 3387.703
301.8131, 3395.009
302.2953, 3407.576
302.7774, 3424.909
303.2595, 3444.443
303.7416, 3465.535
304.2237, 3490.226
304.7058, 3522.485
305.1880, 3556.570
305.6701, 3587.390
306.1522, 3613.172
306.6343, 3632.871
307.1164, 3641.019
307.5985, 3631.080
308.0807, 3633.950
308.5628, 3660.305
309.0449, 3698.021
309.5270, 3746.097
310.0091, 3802.468
310.4912, 3854.145
310.9734, 3884.126
311.4555, 3895.390
311.9376, 3922.177
312.4197, 3977.984
312.9018, 4033.335
313.3839, 4065.843
313.8661, 4083.375
314.3482, 4106.090
314.8303, 4145.923
315.3124, 4195.251
315.7945, 4240.893
316.2766, 4282.180
316.7588, 4323.268
317.2409, 4364.700
317.7230, 4407.634
318.2051, 4455.324
318.6872, 4514.114
319.1693, 4566.711
319.6515, 4594.069
320.1336, 4601.851
320.6157, 4617.222
321.0978, 4652.048
321.5799, 4693.848
322.0620, 4723.842
322.5442, 4742.196
323.0263, 4753.429
323.5084, 4758.108
323.9905, 4756.715
324.4726, 4750.251
324.9547, 4738.841
325.4369, 4721.119
325.9190, 4695.650
326.4011, 4661.611
326.8832, 4621.872
327.3653, 4577.031
327.8474, 4526.087
328.3296, 4464.256
328.8117, 4395.097
329.2938, 4329.174
329.7759, 4272.796
330.2580, 4223.491
330.7401, 4171.884
331.2223, 4106.118
331.7044, 4052.537
332.1865, 4027.570
332.6686, 4009.720
333.1507, 3972.059
333.6328, 3907.740
334.1150, 3836.018
334.5971, 3786.123
335.0792, 3768.048
335.5613, 3745.755
336.0434, 3714.827
336.5255, 3684.145
337.0077, 3656.660
337.4898, 3633.437
337.9719, 3615.864
338.4540, 3606.829
338.9361, 3604.790
339.4182, 3595.180
339.9004, 3570.955
340.3825, 3549.600
340.8646, 3538.633
341.3467, 3532.199
341.8288, 3522.703
342.3109, 3506.948
342.7931, 3488.696
343.2752, 3469.924
343.7573, 3448.411
344.2394, 3443.429
344.7215, 3479.987
345.2036, 3518.422
345.6858, 3524.342
346.1679, 3496.768
346.6500, 3465.392
347.1321, 3445.981
347.6142, 3437.076
348.0963, 3434.599
348.5785, 3438.073
349.0606, 3448.528
349.5427, 3474.608
350.0248, 3509.395
350.5069, 3531.198
350.9890, 3531.459
351.4712, 3521.204
351.9533, 3502.703
352.4354, 3479.000
352.9175, 3466.392
353.3996, 3474.506
353.8817, 3496.189
354.3639, 3514.305
354.8460, 3533.259
355.3281, 3541.115
355.8102, 3526.262
356.2923, 3502.903
356.7744, 3486.967
357.2566, 3481.975
357.7387, 3484.184
358.2208, 3489.865
358.7029, 3499.585
359.1850, 3510.039
359.6671, 3528.510
360.1493, 3540.501
360.6314, 3533.243
361.1135, 3514.626
361.5956, 3502.042
362.0777, 3506.078
362.5598, 3522.365
363.0420, 3535.061
363.5241, 3542.495
364.0062, 3548.722
364.4883, 3552.283
364.9704, 3556.183
365.4525, 3564.773
365.9347, 3578.191
366.4168, 3589.985
366.8989, 3588.991
367.3810, 3573.651
367.8631, 3572.457
368.3452, 3597.129
368.8274, 3623.862
369.3095, 3639.306
369.7916, 3647.337
370.2737, 3657.609
370.7558, 3675.483
371.2379, 3697.500
371.7201, 3718.115
372.2022, 3737.243
372.6843, 3755.360
373.1664, 3771.531
373.6485, 3787.409
374.1306, 3805.341
374.6128, 3825.586
375.0949, 3847.137
375.5770, 3866.754
376.0591, 3887.615
376.5412, 3917.654
377.0233, 3959.316
377.5055, 4003.913
377.9876, 4043.808
378.4697, 4078.383
378.9518, 4107.397
379.4339, 4123.131
379.9160, 4140.123
380.3982, 4168.424
380.8803, 4205.240
381.3624, 4241.646
381.8445, 4272.880
382.3266, 4300.193
382.8087, 4327.893
383.2909, 4355.335
383.7730, 4383.877
384.2551, 4413.825
384.7372, 4444.603
385.2193, 4476.339
385.7014, 4508.727
386.1836, 4540.991
386.6657, 4573.126
387.1478, 4605.298
387.6299, 4632.039
388.1120, 4656.754
388.5941, 4671.168
389.0763, 4670.455
389.5584, 4658.650
390.0405, 4641.714
390.5226, 4621.704
391.0047, 4598.641
391.4868, 4573.774
391.9690, 4547.971
392.4511, 4513.095
392.9332, 4467.611
393.4153, 4410.768
393.8974, 4340.904
394.3795, 4258.004
394.8617, 4174.091
395.3438, 4092.497
395.8259, 4014.570
396.3080, 3942.618
396.7901, 3877.166
397.2722, 3815.200
397.7544, 3755.424
398.2365, 3697.693
398.7186, 3639.636
399.2007, 3576.404
399.6828, 3518.817
400.1649, 3473.025
400.6471, 3435.294
401.1292, 3399.935
401.6113, 3364.896
402.0934, 3329.555
402.5755, 3291.572
403.0576, 3246.286
403.5398, 3214.121
404.0219, 3205.833
404.5040, 3198.470
404.9861, 3179.517
405.4682, 3151.408
405.9503, 3122.677
406.4325, 3098.529
406.9146, 3078.165
407.3967, 3058.768
407.8788, 3038.302
408.3609, 3023.305
408.8430, 3019.334
409.3252, 3017.937
409.8073, 3011.728
410.2894, 2999.861
410.7715, 2988.411
411.2536, 2982.767
411.7357, 2982.090
412.2179, 2983.440
412.7000, 2988.958
413.1821, 2990.870
413.6642, 2978.336
414.1463, 2958.662
414.6284, 2947.021
415.1106, 2950.415
415.5927, 2957.358
416.0748, 2962.542
416.5569, 2964.805
417.0390, 2958.477
417.5211, 2939.908
418.0033, 2918.577
418.4854, 2909.903
418.9675, 2920.241
419.4496, 2921.397
419.9317, 2899.634
420.4138, 2878.955
420.8960, 2880.660
421.3781, 2898.874
421.8602, 2910.530
422.3423, 2899.664
422.8244, 2873.027
423.3065, 2860.218
423.7887, 2872.472
424.2708, 2881.447
424.7529, 2882.459
425.2350, 2880.501
425.7171, 2878.988
426.1992, 2878.724
426.6814, 2879.435
427.1635, 2883.407
427.6456, 2889.714
428.1277, 2884.691
428.6098, 2859.395
429.0919, 2840.078
429.5741, 2846.951
430.0562, 2866.410
430.5383, 2878.372
431.0204, 2876.237
431.5025, 2869.809
431.9846, 2867.439
432.4668, 2867.560
432.9489, 2863.798
433.4310, 2853.628
433.9131, 2842.162
434.3952, 2834.603
434.8773, 2831.066
435.3595, 2832.689
435.8416, 2845.865
436.3237, 2858.565
436.8058, 2862.232
437.2879, 2859.324
437.7701, 2856.720
438.2522, 2857.851
438.7343, 2862.016
439.2164, 2868.075
439.6985, 2882.122
440.1806, 2886.679
440.6628, 2877.099
441.1449, 2862.817
441.6270, 2846.085
442.1091, 2829.644
442.5912, 2819.474
443.0733, 2821.958
443.5555, 2833.568
444.0376, 2840.493
444.5197, 2841.302
445.0018, 2841.421
445.4839, 2841.287
445.9660, 2842.369
446.4482, 2847.631
446.9303, 2858.295
447.4124, 2866.097
447.8945, 2862.060
448.3766, 2852.333
448.8587, 2852.189
449.3409, 2864.504
449.8230, 2873.538
450.3051, 2863.498
450.7872, 2837.701
451.2693, 2829.218
451.7514, 2857.626
452.2336, 2879.210
452.7157, 2873.614
453.1978, 2854.734
453.6799, 2840.335
454.1620, 2836.046
454.6441, 2840.050
455.1263, 2851.991
455.6084, 2875.223
456.0905, 2887.301
456.5726, 2875.698
457.0547, 2865.258
457.5368, 2864.391
458.0190, 2869.413
458.5011, 2874.158
458.9832, 2876.234
459.4653, 2876.177
459.9474, 2873.271
460.4295, 2867.424
460.9117, 2866.725
461.3938, 2878.194
461.8759, 2887.630
462.3580, 2877.364
462.8401, 2851.964
463.3222, 2836.067
463.8044, 2843.531
464.2865, 2857.578
464.7686, 2865.903
465.2507, 2868.304
465.7328, 2863.377
466.2149, 2848.810
466.6971, 2832.734
467.1792, 2831.886
467.6613, 2858.380
468.1434, 2874.801
468.6255, 2874.150
469.1076, 2869.746
469.5898, 2870.475
470.0719, 2874.823
470.5540, 2875.821
471.0361, 2868.598
471.5182, 2856.367
472.0003, 2849.215
472.4825, 2850.649
472.9646, 2847.696
473.4467, 2828.696
473.9288, 2810.936
474.4109, 2806.989
474.8930, 2816.568
475.3752, 2828.876
475.8573, 2841.222
476.3394, 2850.983
476.8215, 2851.824
477.3036, 2843.538
477.7857, 2835.771
478.2679, 2833.169
478.7500, 2834.267
479.2321, 2836.461
479.7142, 2842.883
480.1963, 2842.817
480.6784, 2822.138
481.1606, 2802.208
481.6427, 2808.901
482.1248, 2838.884
482.6069, 2864.252
483.0890, 2863.241
483.5711, 2841.263
484.0533, 2828.572
484.5354, 2831.265
485.0175, 2833.539
485.4996, 2833.663
485.9817, 2832.150
486.4638, 2825.895
486.9460, 2816.380
487.4281, 2814.146
487.9102, 2837.786
488.3923, 2874.577
488.8744, 2879.686
489.3565, 2846.128
489.8387, 2819.858
490.3208, 2827.583
490.8029, 2855.779
491.2850, 2875.391
491.7671, 2885.431
492.2492, 2890.200
492.7314, 2884.994
493.2135, 2878.613
493.6956, 2883.119
494.1777, 2898.319
494.6598, 2913.397
495.1419, 2920.061
495.6241, 2919.552
496.1062, 2919.958
496.5883, 2918.999
497.0704, 2922.479
497.5525, 2938.818
498.0346, 2954.251
498.5168, 2953.023
498.9989, 2936.223
499.4810, 2922.772
499.9631, 2929.857
500.4452, 2952.711
500.9273, 2974.845
501.4095, 2997.469
501.8916, 3013.881
502.3737, 3016.191
502.8558, 3013.506
503.3379, 3020.115
503.8200, 3037.722
504.3022, 3058.375
504.7843, 3083.617
505.2664, 3107.729
505.7485, 3119.675
506.2306, 3121.247
506.7127, 3129.439
507.1949, 3157.289
507.6770, 3198.585
508.1591, 3225.818
508.6412, 3229.554
509.1233, 3232.380
509.6054, 3237.068
510.0876, 3240.178
510.5697, 3235.952
511.0518, 3226.634
511.5339, 3222.519
512.0161, 3233.065
512.4982, 3252.783
512.9803, 3265.815
513.4624, 3270.480
513.9445, 3279.005
514.4266, 3302.266
514.9088, 3325.450
515.3909, 3326.704
515.8730, 3303.971
516.3551, 3286.972
516.8372, 3285.087
517.3193, 3292.494
517.8015, 3308.970
518.2836, 3330.845
518.7657, 3346.369
519.2478, 3348.928
519.7299, 3342.825
520.2120, 3337.854
520.6942, 3332.056
521.1763, 3331.373
521.6584, 3340.035
522.1405, 3349.205
522.6226, 3353.737
523.1047, 3354.844
523.5869, 3355.797
524.0690, 3357.129
524.5511, 3361.809
525.0332, 3378.729
525.5153, 3407.754
525.9974, 3426.003
526.4796, 3424.402
526.9617, 3416.343
527.4438, 3414.841
527.9259, 3419.241
528.4080, 3425.999
528.8901, 3437.496
529.3723, 3448.411
529.8544, 3460.787
530.3365, 3469.355
530.8186, 3459.464
531.3007, 3426.800
531.7828, 3391.460
532.2650, 3383.919
532.7471, 3411.487
533.2292, 3420.853
533.7113, 3392.926
534.1934, 3368.223
534.6755, 3363.772
535.1577, 3367.973
535.6398, 3363.354
536.1219, 3344.041
536.6040, 3323.802
537.0861, 3317.880
537.5682, 3321.442
538.0504, 3318.450
538.5325, 3306.554
539.0146, 3291.740
539.4967, 3276.193
539.9788, 3261.435
540.4609, 3255.051
540.9431, 3269.025
541.4252, 3273.980
541.9073, 3253.077
542.3894, 3227.579
542.8715, 3220.827
543.3536, 3232.412
543.8358, 3243.459
544.3179, 3238.685
544.8000, 3221.482
545.2821, 3206.292
545.7642, 3193.192
546.2463, 3181.966
546.7285, 3174.312
547.2106, 3167.319
547.6927, 3157.936
548.1748, 3146.474
548.6569, 3137.121
549.1390, 3132.579
549.6211, 3130.517
550.1032, 3127.986
550.5853, 3125.543
551.0674, 3125.988
551.5496, 3130.571
552.0317, 3138.063
552.5138, 3147.325
552.9959, 3161.515
553.4780, 3166.479
553.9601, 3157.522
554.4423, 3145.799
554.9244, 3131.677
555.4065, 3119.011
555.8886, 3114.853
556.3707, 3122.036
556.8528, 3130.446
557.3350, 3126.895
557.8171, 3112.854
558.2992, 3099.697
558.7813, 3087.657
559.2634, 3079.173
559.7455, 3077.705
560.2277, 3080.917
560.7098, 3081.105
561.1919, 3077.551
561.6740, 3072.141
562.1561, 3060.173
562.6382, 3049.862
563.1204, 3054.274
563.6025, 3071.215
564.0846, 3084.040
564.5667, 3080.491
565.0488, 3063.659
565.5309, 3043.928
566.0131, 3015.781
566.4952, 2998.738
566.9773, 3006.720
567.4594, 3018.514
567.9415, 3023.613
568.4236, 3021.237
568.9058, 3011.501
569.3879, 2988.003
569.8700, 2962.899
570.3521, 2948.033
570.8342, 2941.804
571.3163, 2940.560
571.7985, 2943.785
572.2806, 2945.540
572.7627, 2937.964
573.2448, 2919.625
573.7269, 2905.244
574.2090, 2900.476
574.6912, 2892.523
575.1733, 2872.651
575.6554, 2850.851
576.1375, 2840.530
576.6196, 2843.646
577.1017, 2846.801
577.5839, 2834.913
578.0660, 2813.367
578.5481, 2801.578
579.0302, 2801.004
579.5123, 2800.136
579.9944, 2795.151
580.4766, 2785.614
580.9587, 2767.451
581.4408, 2735.205
581.9229, 2717.403
582.4050, 2731.330
582.8871, 2748.919
583.3693, 2752.544
583.8514, 2744.829
584.3335, 2734.007
584.8156, 2723.826
585.2977, 2714.340
585.7798, 2705.429
586.2620, 2697.038
586.7441, 2689.921
587.2262, 2683.052
587.7083, 2679.153
588.1904, 2685.849
588.6725, 2694.918
589.1547, 2691.339
589.6368, 2668.473
590.1189, 2645.249
590.6010, 2628.174
591.0831, 2617.235
591.5652, 2615.969
592.0474, 2622.313
592.5295, 2625.253
593.0116, 2617.013
593.4937, 2601.604
593.9758, 2590.789
594.4579, 2583.892
594.9401, 2583.334
595.4222, 2599.913
595.9043, 2613.226
596.3864, 2611.120
596.8685, 2597.559
597.3506, 2582.511
597.8328, 2566.202
598.3149, 2556.411
598.7970, 2566.718
599.2791, 2588.473
599.7612, 2598.257
600.2433, 2591.562
600.7255, 2580.331
601.2076, 2574.542
601.6897, 2573.257
602.1718, 2568.684
602.6539, 2551.031
603.1360, 2543.838
603.6182, 2558.812
604.1003, 2576.847
604.5824, 2585.931
605.0645, 2584.737
605.5466, 2573.997
606.0287, 2545.418
606.5109, 2519.332
606.9930, 2538.424
607.4751, 2594.824
607.9572, 2621.717
608.4393, 2597.486
608.9214, 2560.064
609.4036, 2547.010
609.8857, 2558.475
610.3678, 2565.580
610.8499, 2566.317
611.3320, 2565.674
611.8141, 2563.522
612.2963, 2561.335
612.7784, 2560.019
613.2605, 2560.010
613.7426, 2562.140
614.2247, 2567.485
614.7068, 2575.042
615.1890, 2583.911
615.6711, 2594.408
616.1532, 2598.195
616.6353, 2590.160
617.1174, 2579.480
617.5995, 2578.297
618.0817, 2586.839
618.5638, 2586.618
619.0459, 2561.490
619.5280, 2545.327
620.0101, 2557.291
620.4922, 2582.585
620.9744, 2606.294
621.4565, 2623.392
621.9386, 2630.208
622.4207, 2620.140
622.9028, 2598.557
623.3849, 2585.919
623.8671, 2582.488
624.3492, 2587.233
624.8313, 2603.748
625.3134, 2623.935
625.7955, 2638.989
626.2776, 2649.241
626.7598, 2655.346
627.2419, 2658.048
627.7240, 2655.873
628.2061, 2642.472
628.6882, 2625.952
629.1703, 2618.435
629.6525, 2622.365
630.1346, 2631.235
630.6167, 2639.112
631.0988, 2646.401
631.5809, 2656.763
632.0630, 2672.639
632.5452, 2681.482
633.0273, 2672.859
633.5094, 2662.045
633.9915, 2667.632
634.4736, 2688.636
634.9557, 2707.496
635.4379, 2723.736
635.9200, 2733.714
636.4021, 2730.188
636.8842, 2720.950
637.3663, 2716.526
637.8484, 2720.066
638.3306, 2731.743
638.8127, 2754.364
639.2948, 2784.812
639.7769, 2802.314
640.2590, 2803.413
640.7411, 2803.809
641.2233, 2806.352
641.7054, 2811.541
642.1875, 2817.702
642.6696, 2825.381
643.1517, 2842.895
643.6339, 2881.791
644.1160, 2920.442
644.5981, 2945.833
645.0802, 2963.783
645.5623, 2982.669
646.0444, 3004.543
646.5266, 3027.177
647.0087, 3047.958
647.4908, 3067.903
647.9729, 3091.253
648.4550, 3116.882
648.9371, 3150.434
649.4193, 3198.211
649.9014, 3249.114
650.3835, 3292.238
650.8656, 3328.710
651.3477, 3367.640
651.8298, 3406.265
652.3120, 3452.693
652.7941, 3521.212
653.2762, 3594.990
653.7583, 3646.278
654.2404, 3674.541
654.7225, 3706.150
655.2047, 3762.261
655.6868, 3838.092
656.1689, 3919.205
656.6510, 4006.926
657.1331, 4091.100
657.6152, 4164.821
658.0974, 4240.639
658.5795, 4333.642
659.0616, 4439.382
659.5437, 4536.328
660.0258, 4621.980
660.5079, 4699.739
660.9901, 4768.903
661.4722, 4831.861
