##NAMES=Augite
##RRUFFID=R061086
##IDEAL CHEMISTRY=(Ca,Mg,Fe^2+^,Fe^3+^)_2_(Si,Al)_2_O_6_
##LOCALITY=Boreslav, Teplitz, Bohemia, Czech Republic
##OWNER=RRUFF
##SOURCE=Michael Scott
##DESCRIPTION=Black to dark green tabular euhedral crystal
##STATUS=The identification of this mineral has been confirmed by X-ray diffraction and chemical analysis
##URL=rruff.info/R061086
##MEASURED CHEMISTRY=(Ca_0.88_Mg_0.83_Fe_0.13_Al_0.08_Na_0.04_Ti_0.03_Cr_0.01_)_Σ=2_(Si_1.89_Al_0.11_)_Σ=2_O_6_
180.4476, 28049.64
180.9297, 28059.08
181.4118, 28080.36
181.8939, 28142.63
182.3761, 28196.16
182.8582, 28209.16
183.3403, 28182.09
183.8224, 28146.27
184.3045, 28138.13
184.7866, 28164.54
185.2688, 28175.32
185.7509, 28150.94
186.2330, 28121.39
186.7151, 28094.65
187.1972, 28074.10
187.6793, 28066.83
188.1615, 28092.61
188.6436, 28164.67
189.1257, 28193.76
189.6078, 28116.41
190.0899, 28039.67
190.5720, 28011.87
191.0542, 28035.34
191.5363, 28082.37
192.0184, 28132.30
192.5005, 28189.33
192.9826, 28225.46
193.4647, 28232.30
193.9469, 28223.57
194.4290, 28191.01
194.9111, 28142.09
195.3932, 28104.42
195.8753, 28112.86
196.3574, 28177.95
196.8396, 28223.32
197.3217, 28229.72
197.8038, 28231.25
198.2859, 28243.02
198.7680, 28263.73
199.2501, 28281.52
199.7323, 28279.45
200.2144, 28252.54
200.6965, 28248.13
201.1786, 28282.58
201.6607, 28327.45
202.1428, 28386.24
202.6250, 28449.81
203.1071, 28495.18
203.5892, 28493.50
204.0713, 28439.55
204.5534, 28412.10
205.0355, 28446.50
205.5177, 28475.75
205.9998, 28472.46
206.4819, 28442.65
206.9640, 28407.91
207.4461, 28383.96
207.9282, 28370.54
208.4104, 28363.34
208.8925, 28375.31
209.3746, 28379.59
209.8567, 28357.72
210.3388, 28320.29
210.8209, 28291.00
211.3030, 28287.18
211.7852, 28307.47
212.2673, 28336.13
212.7494, 28386.52
213.2315, 28429.83
213.7136, 28451.41
214.1957, 28460.09
214.6779, 28472.93
215.1600, 28503.57
215.6421, 28547.98
216.1242, 28575.89
216.6063, 28558.70
217.0884, 28565.47
217.5706, 28633.24
218.0527, 28734.02
218.5348, 28825.12
219.0169, 28882.99
219.4990, 28913.52
219.9811, 28937.46
220.4633, 28953.50
220.9454, 28965.23
221.4275, 28962.88
221.9096, 28960.75
222.3917, 28980.04
222.8738, 29034.89
223.3560, 29108.88
223.8381, 29159.66
224.3202, 29182.96
224.8023, 29187.52
225.2844, 29169.91
225.7665, 29139.55
226.2487, 29103.54
226.7308, 29062.95
227.2129, 29023.42
227.6950, 28997.15
228.1771, 28987.41
228.6592, 28981.37
229.1414, 28978.22
229.6235, 28975.36
230.1056, 28971.54
230.5877, 28966.59
231.0698, 28958.26
231.5519, 28942.14
232.0341, 28916.36
232.5162, 28890.95
232.9983, 28860.78
233.4804, 28837.02
233.9625, 28832.22
234.4446, 28849.22
234.9268, 28869.05
235.4089, 28864.38
235.8910, 28830.62
236.3731, 28815.93
236.8552, 28847.44
237.3373, 28888.44
237.8195, 28917.56
238.3016, 28932.57
238.7837, 28940.29
239.2658, 28941.15
239.7479, 28935.60
240.2300, 28944.39
240.7122, 28984.96
241.1943, 29025.48
241.6764, 29042.21
242.1585, 29037.63
242.6406, 29032.04
243.1227, 29042.88
243.6049, 29066.15
244.0870, 29078.51
244.5691, 29072.83
245.0512, 29063.84
245.5333, 29065.79
246.0154, 29074.33
246.4975, 29074.20
246.9797, 29052.44
247.4618, 29016.52
247.9439, 28980.43
248.4260, 28934.78
248.9081, 28912.65
249.3902, 28962.70
249.8724, 29051.65
250.3545, 29110.15
250.8366, 29088.60
251.3187, 29032.72
251.8008, 29013.28
252.2829, 29034.65
252.7651, 29067.17
253.2472, 29103.04
253.7293, 29136.12
254.2114, 29153.84
254.6935, 29142.79
255.1756, 29126.33
255.6578, 29127.98
256.1399, 29147.54
256.6220, 29172.42
257.1041, 29206.48
257.5862, 29236.36
258.0684, 29236.97
258.5505, 29191.69
259.0326, 29144.09
259.5147, 29115.99
259.9968, 29107.90
260.4789, 29128.63
260.9611, 29198.75
261.4432, 29279.94
261.9253, 29294.79
262.4074, 29219.49
262.8895, 29159.96
263.3716, 29178.33
263.8537, 29240.00
264.3358, 29273.42
264.8180, 29255.43
265.3001, 29212.30
265.7822, 29178.42
266.2643, 29151.24
266.7464, 29139.82
267.2285, 29159.88
267.7107, 29190.12
268.1928, 29202.63
268.6749, 29192.04
269.1570, 29177.84
269.6391, 29181.87
270.1212, 29208.87
270.6034, 29229.55
271.0855, 29236.50
271.5676, 29241.74
272.0497, 29256.49
272.5318, 29279.61
273.0139, 29299.47
273.4961, 29306.74
273.9782, 29300.88
274.4603, 29290.82
274.9424, 29270.45
275.4245, 29252.66
275.9066, 29238.55
276.3888, 29231.21
276.8709, 29237.05
277.3530, 29260.66
277.8351, 29300.08
278.3172, 29343.68
278.7993, 29410.05
279.2815, 29459.48
279.7636, 29482.46
280.2457, 29486.16
280.7278, 29473.07
281.2099, 29444.09
281.6920, 29415.77
282.1742, 29427.79
282.6563, 29510.68
283.1384, 29591.13
283.6205, 29686.44
284.1026, 29767.09
284.5847, 29804.77
285.0669, 29795.17
285.5490, 29760.96
286.0311, 29727.21
286.5132, 29682.01
286.9953, 29673.87
287.4774, 29740.40
287.9596, 29809.50
288.4417, 29835.48
288.9238, 29825.09
289.4059, 29821.90
289.8880, 29872.24
290.3701, 29976.66
290.8523, 30047.97
291.3344, 30061.38
291.8165, 30065.25
292.2986, 30077.09
292.7807, 30091.78
293.2628, 30095.56
293.7450, 30071.62
294.2271, 30036.99
294.7092, 30052.17
295.1913, 30145.86
295.6734, 30225.22
296.1555, 30249.97
296.6377, 30244.66
297.1198, 30231.68
297.6019, 30214.66
298.0840, 30202.03
298.5661, 30207.93
299.0482, 30234.30
299.5304, 30258.48
300.0125, 30263.98
300.4946, 30272.53
300.9767, 30311.36
301.4588, 30386.87
301.9409, 30457.23
302.4231, 30489.91
302.9052, 30492.95
303.3873, 30494.99
303.8694, 30496.93
304.3515, 30508.94
304.8336, 30542.95
305.3158, 30596.99
305.7979, 30662.13
306.2800, 30750.18
306.7621, 30841.84
307.2442, 30904.30
307.7263, 30932.54
308.2085, 30963.54
308.6906, 31033.95
309.1727, 31138.28
309.6548, 31212.44
310.1369, 31217.51
310.6190, 31223.36
311.1012, 31284.57
311.5833, 31387.82
312.0654, 31480.46
312.5475, 31532.47
313.0296, 31552.34
313.5117, 31573.35
313.9939, 31586.70
314.4760, 31610.77
314.9581, 31642.84
315.4402, 31689.38
315.9223, 31768.75
316.4044, 31886.84
316.8866, 32013.70
317.3687, 32097.67
317.8508, 32115.36
318.3329, 32130.94
318.8150, 32129.23
319.2971, 32136.08
319.7793, 32172.63
320.2614, 32238.22
320.7435, 32317.09
321.2256, 32397.23
321.7077, 32481.66
322.1898, 32537.45
322.6720, 32537.00
323.1541, 32536.04
323.6362, 32554.28
324.1183, 32584.37
324.6004, 32612.57
325.0826, 32632.88
325.5647, 32642.52
326.0468, 32627.46
326.5289, 32570.23
327.0110, 32523.33
327.4931, 32508.12
327.9753, 32504.18
328.4574, 32492.46
328.9395, 32467.26
329.4216, 32437.49
329.9037, 32413.06
330.3858, 32394.19
330.8680, 32379.55
331.3501, 32388.02
331.8322, 32380.73
332.3143, 32310.82
332.7964, 32184.18
333.2785, 32081.81
333.7606, 32070.60
334.2427, 32117.14
334.7249, 32136.03
335.2070, 32116.45
335.6891, 32081.38
336.1712, 32042.55
336.6533, 32000.99
337.1354, 31960.26
337.6176, 31919.39
338.0997, 31880.34
338.5818, 31845.78
339.0639, 31814.86
339.5460, 31781.68
340.0281, 31737.45
340.5103, 31693.57
340.9924, 31687.54
341.4745, 31751.23
341.9566, 31794.22
342.4387, 31774.61
342.9208, 31725.60
343.4030, 31694.19
343.8851, 31693.48
344.3672, 31706.01
344.8493, 31708.72
345.3314, 31702.14
345.8135, 31681.85
346.2957, 31622.46
346.7778, 31572.16
347.2599, 31570.19
347.7420, 31607.70
348.2241, 31643.06
348.7062, 31640.46
349.1884, 31605.01
349.6705, 31607.91
350.1526, 31702.79
350.6347, 31776.00
351.1168, 31789.44
351.5989, 31776.12
352.0811, 31779.76
352.5632, 31818.93
353.0453, 31872.49
353.5274, 31900.47
354.0095, 31893.55
354.4916, 31894.78
354.9738, 31930.66
355.4559, 31962.90
355.9380, 31957.72
356.4201, 31917.41
356.9022, 31887.38
357.3843, 31914.30
357.8665, 31982.96
358.3486, 32027.53
358.8307, 32039.18
359.3128, 32035.63
359.7949, 32019.71
360.2770, 31997.42
360.7592, 31982.63
361.2413, 31980.62
361.7234, 31985.84
362.2055, 31998.13
362.6876, 32015.72
363.1697, 32022.80
363.6519, 32008.01
364.1340, 31982.51
364.6161, 31974.60
365.0982, 31994.26
365.5803, 32006.02
366.0624, 31980.51
366.5446, 31949.98
367.0267, 31966.71
367.5088, 32039.87
367.9909, 32120.25
368.4730, 32150.48
368.9551, 32120.32
369.4373, 32089.56
369.9194, 32032.07
370.4015, 31999.10
370.8836, 32020.53
371.3657, 32086.36
371.8478, 32176.14
372.3300, 32281.62
372.8121, 32391.48
373.2942, 32460.68
373.7763, 32457.31
374.2584, 32462.53
374.7405, 32489.98
375.2227, 32528.22
375.7048, 32568.46
376.1869, 32608.40
376.6690, 32649.99
377.1511, 32700.24
377.6332, 32759.79
378.1154, 32800.59
378.5975, 32805.39
379.0796, 32809.88
379.5617, 32832.38
380.0438, 32871.11
380.5259, 32921.10
381.0081, 32987.73
381.4902, 33059.75
381.9723, 33115.25
382.4544, 33152.45
382.9365, 33203.66
383.4186, 33292.73
383.9008, 33400.60
384.3829, 33483.48
384.8650, 33527.47
385.3471, 33575.60
385.8292, 33646.66
386.3113, 33733.41
386.7935, 33828.72
387.2756, 33931.48
387.7577, 34026.98
388.2398, 34096.57
388.7219, 34134.01
389.2040, 34176.88
389.6862, 34232.23
390.1683, 34287.14
390.6504, 34345.05
391.1325, 34397.91
391.6146, 34425.89
392.0967, 34416.24
392.5789, 34378.46
393.0610, 34347.02
393.5431, 34340.27
394.0252, 34309.67
394.5073, 34236.04
394.9894, 34149.12
395.4716, 34071.38
395.9537, 34007.48
396.4358, 33948.68
396.9179, 33893.68
397.4000, 33841.88
397.8821, 33756.57
398.3643, 33615.45
398.8464, 33470.44
399.3285, 33347.16
399.8106, 33240.21
400.2927, 33136.31
400.7748, 33014.19
401.2570, 32910.49
401.7391, 32882.56
402.2212, 32924.14
402.7033, 32954.96
403.1854, 32945.37
403.6675, 32906.50
404.1497, 32857.34
404.6317, 32798.14
405.1139, 32729.58
405.5960, 32632.09
406.0781, 32535.96
406.5602, 32477.30
407.0423, 32459.03
407.5244, 32457.45
408.0066, 32455.22
408.4887, 32452.30
408.9708, 32434.06
409.4529, 32384.48
409.9350, 32339.59
410.4171, 32300.38
410.8993, 32274.31
411.3814, 32274.66
411.8635, 32306.06
412.3456, 32352.58
412.8277, 32389.13
413.3098, 32415.29
413.7920, 32433.92
414.2741, 32446.00
414.7562, 32449.55
415.2383, 32434.45
415.7204, 32407.94
416.2025, 32393.76
416.6847, 32417.90
417.1668, 32458.75
417.6489, 32464.89
418.1310, 32430.61
418.6131, 32396.49
419.0952, 32376.50
419.5774, 32371.17
420.0595, 32382.17
420.5416, 32418.19
421.0237, 32446.96
421.5058, 32436.03
421.9879, 32412.81
422.4701, 32433.01
422.9522, 32508.17
423.4343, 32586.56
423.9164, 32616.51
424.3985, 32593.00
424.8806, 32566.04
425.3628, 32523.47
425.8449, 32489.98
426.3270, 32476.78
426.8091, 32478.88
427.2912, 32485.56
427.7733, 32491.77
428.2555, 32503.84
428.7376, 32540.37
429.2197, 32622.86
429.7018, 32672.94
430.1839, 32654.65
430.6660, 32629.12
431.1482, 32632.49
431.6303, 32660.02
432.1124, 32681.15
432.5945, 32668.30
433.0766, 32637.20
433.5587, 32632.20
434.0409, 32659.86
434.5230, 32681.99
435.0051, 32668.78
435.4872, 32646.48
435.9693, 32658.65
436.4514, 32719.54
436.9336, 32778.47
437.4157, 32806.36
437.8978, 32817.79
438.3799, 32841.30
438.8620, 32882.25
439.3441, 32916.19
439.8263, 32918.32
440.3084, 32886.65
440.7905, 32861.79
441.2726, 32832.77
441.7547, 32821.50
442.2368, 32847.87
442.7190, 32893.55
443.2011, 32933.34
443.6832, 32957.21
444.1653, 32968.34
444.6474, 32972.79
445.1295, 32973.43
445.6117, 32957.63
446.0938, 32893.59
446.5759, 32841.59
447.0580, 32833.65
447.5401, 32861.52
448.0222, 32899.05
448.5044, 32935.31
448.9865, 32970.61
449.4686, 33010.04
449.9507, 33054.44
450.4328, 33078.70
450.9149, 33061.34
451.3971, 33029.39
451.8792, 33029.03
452.3613, 33067.03
452.8434, 33097.48
453.3255, 33093.09
453.8076, 33082.46
454.2898, 33099.47
454.7719, 33144.48
455.2540, 33195.39
455.7361, 33238.72
456.2182, 33272.56
456.7003, 33283.82
457.1825, 33242.86
457.6646, 33214.92
458.1467, 33221.01
458.6288, 33235.06
459.1109, 33225.19
459.5930, 33188.18
460.0752, 33155.81
460.5573, 33167.47
461.0394, 33222.48
461.5215, 33266.61
462.0036, 33300.92
462.4857, 33322.73
462.9679, 33323.09
463.4500, 33313.23
463.9321, 33310.46
464.4142, 33320.51
464.8963, 33335.57
465.3784, 33344.72
465.8606, 33353.64
466.3427, 33385.28
466.8248, 33449.61
467.3069, 33515.29
467.7890, 33545.93
468.2711, 33535.00
468.7533, 33534.27
469.2354, 33550.82
469.7175, 33570.07
470.1996, 33587.48
470.6817, 33602.02
471.1638, 33613.09
471.6460, 33620.40
472.1281, 33623.07
472.6102, 33618.47
473.0923, 33602.66
473.5744, 33590.36
474.0565, 33582.00
474.5387, 33577.06
475.0208, 33567.75
475.5029, 33560.89
475.9850, 33577.67
476.4671, 33648.40
476.9492, 33727.67
477.4313, 33727.91
477.9135, 33650.17
478.3956, 33607.23
478.8777, 33653.37
479.3598, 33733.32
479.8419, 33761.76
480.3240, 33736.72
480.8062, 33703.93
481.2883, 33641.69
481.7704, 33598.78
482.2525, 33637.53
482.7346, 33737.78
483.2167, 33820.54
483.6989, 33836.71
484.1810, 33803.76
484.6631, 33777.02
485.1452, 33756.89
485.6273, 33743.97
486.1094, 33738.48
486.5916, 33739.79
487.0737, 33745.19
487.5558, 33756.41
488.0379, 33780.80
488.5200, 33830.13
489.0021, 33894.06
489.4843, 33943.08
489.9664, 33974.75
490.4485, 34006.94
490.9306, 34055.74
491.4127, 34102.39
491.8948, 34113.91
492.3770, 34079.63
492.8591, 34056.33
493.3412, 34079.91
493.8233, 34113.98
494.3054, 34108.41
494.7875, 34066.10
495.2697, 34037.70
495.7518, 34061.88
496.2339, 34125.24
496.7160, 34157.43
497.1981, 34119.18
497.6802, 34104.89
498.1624, 34140.08
498.6445, 34188.02
499.1266, 34221.64
499.6087, 34237.27
500.0908, 34245.46
500.5729, 34253.34
501.0551, 34260.62
501.5372, 34266.42
502.0193, 34270.38
502.5014, 34273.31
502.9835, 34270.99
503.4656, 34270.59
503.9478, 34282.95
504.4299, 34309.95
504.9120, 34343.63
505.3941, 34386.15
505.8762, 34430.91
506.3583, 34477.77
506.8405, 34522.98
507.3226, 34542.98
507.8047, 34516.03
508.2868, 34455.07
508.7689, 34430.00
509.2510, 34459.48
509.7332, 34501.43
510.2153, 34559.59
510.6974, 34623.24
511.1795, 34690.53
511.6616, 34757.52
512.1437, 34810.11
512.6259, 34836.55
513.1080, 34840.23
513.5901, 34825.79
514.0722, 34787.87
514.5543, 34760.52
515.0364, 34752.00
515.5186, 34768.07
516.0007, 34824.76
516.4828, 34940.01
516.9649, 35021.34
517.4470, 35018.30
517.9291, 34982.14
518.4113, 34956.78
518.8934, 34947.77
519.3755, 34951.91
519.8576, 34968.54
520.3397, 34993.93
520.8218, 35014.87
521.3040, 35033.91
521.7861, 35043.13
522.2682, 35028.55
522.7503, 35015.81
523.2324, 35028.31
523.7145, 35061.08
524.1967, 35086.41
524.6788, 35083.31
525.1609, 35063.62
525.6430, 35040.81
526.1251, 35014.33
526.6072, 35023.90
527.0894, 35101.99
527.5715, 35202.07
528.0536, 35244.77
528.5357, 35221.72
529.0178, 35207.98
529.4999, 35229.43
529.9821, 35250.45
530.4642, 35240.54
530.9463, 35209.14
531.4284, 35183.53
531.9105, 35177.92
532.3926, 35186.08
532.8748, 35196.32
533.3569, 35211.11
533.8390, 35220.68
534.3211, 35226.00
534.8032, 35224.30
535.2853, 35207.79
535.7675, 35183.15
536.2496, 35168.06
536.7317, 35174.64
537.2138, 35186.29
537.6959, 35182.65
538.1780, 35168.50
538.6602, 35164.31
539.1423, 35176.89
539.6244, 35193.61
540.1065, 35198.81
540.5886, 35189.80
541.0707, 35191.54
541.5529, 35213.79
542.0350, 35234.30
542.5171, 35244.18
542.9992, 35247.82
543.4813, 35249.01
543.9634, 35249.61
544.4456, 35256.01
544.9277, 35284.88
545.4098, 35334.45
545.8919, 35350.00
546.3740, 35318.14
546.8561, 35278.12
547.3383, 35244.89
547.8204, 35219.36
548.3025, 35203.43
548.7846, 35195.52
549.2667, 35201.40
549.7488, 35232.29
550.2310, 35274.35
550.7131, 35316.14
551.1952, 35353.02
551.6773, 35370.25
552.1594, 35356.08
552.6415, 35314.19
553.1237, 35259.30
553.6058, 35150.77
554.0879, 35101.23
554.5700, 35165.13
555.0521, 35253.20
555.5342, 35304.67
556.0164, 35317.34
556.4985, 35321.13
556.9806, 35332.48
557.4627, 35347.22
557.9448, 35357.07
558.4269, 35362.64
558.9091, 35374.32
559.3912, 35400.00
559.8733, 35424.32
560.3554, 35419.70
560.8375, 35370.18
561.3196, 35355.93
561.8018, 35405.63
562.2839, 35462.22
562.7660, 35505.27
563.2481, 35532.87
563.7302, 35542.44
564.2123, 35533.17
564.6945, 35519.31
565.1766, 35529.21
565.6587, 35564.39
566.1408, 35560.57
566.6229, 35495.09
567.1050, 35425.82
567.5872, 35389.14
568.0693, 35372.52
568.5514, 35352.82
569.0335, 35315.40
569.5156, 35298.81
569.9977, 35331.10
570.4799, 35389.57
570.9620, 35458.68
571.4441, 35528.89
571.9262, 35564.50
572.4083, 35532.33
572.8904, 35450.20
573.3726, 35408.67
573.8547, 35438.42
574.3368, 35451.06
574.8189, 35411.63
575.3010, 35370.38
575.7831, 35358.65
576.2653, 35377.28
576.7474, 35413.53
577.2295, 35483.48
577.7116, 35550.97
578.1937, 35562.66
578.6758, 35528.77
579.1580, 35493.45
579.6401, 35467.62
580.1222, 35465.80
580.6042, 35517.16
581.0864, 35643.04
581.5685, 35695.25
582.0506, 35608.71
582.5327, 35533.45
583.0148, 35529.68
583.4969, 35559.90
583.9791, 35570.66
584.4612, 35547.95
584.9433, 35525.60
585.4254, 35539.43
585.9075, 35582.14
586.3896, 35632.35
586.8718, 35695.32
587.3539, 35725.11
587.8360, 35683.95
588.3181, 35603.24
588.8002, 35555.29
589.2823, 35549.84
589.7645, 35545.79
590.2466, 35532.43
590.7287, 35521.66
591.2108, 35523.68
591.6929, 35535.84
592.1750, 35549.97
592.6572, 35561.92
593.1393, 35571.65
593.6214, 35582.26
594.1035, 35595.55
594.5856, 35586.12
595.0677, 35529.07
595.5499, 35483.50
596.0320, 35509.54
596.5141, 35577.30
596.9962, 35616.09
597.4783, 35592.63
597.9604, 35575.83
598.4426, 35621.22
598.9247, 35680.45
599.4068, 35676.35
599.8889, 35608.30
600.3710, 35548.61
600.8531, 35558.81
601.3353, 35619.11
601.8174, 35634.20
602.2995, 35573.79
602.7816, 35544.20
603.2637, 35588.59
603.7458, 35650.77
604.2280, 35700.21
604.7101, 35735.52
605.1922, 35760.41
605.6743, 35758.21
606.1564, 35762.52
606.6385, 35816.77
607.1207, 35897.86
607.6028, 35947.12
608.0849, 35948.66
608.5670, 35937.63
609.0491, 35954.23
609.5313, 35998.63
610.0134, 36014.98
610.4955, 35982.48
610.9776, 35951.10
611.4597, 35926.57
611.9418, 35910.02
612.4240, 35903.46
612.9061, 35906.55
613.3882, 35914.51
613.8703, 35922.01
614.3524, 35934.45
614.8345, 35967.88
615.3167, 36015.91
615.7988, 36044.96
616.2809, 36041.31
616.7630, 36020.18
617.2451, 36000.19
617.7272, 35977.12
618.2094, 35979.28
618.6915, 36033.48
619.1736, 36082.21
619.6557, 36111.23
620.1378, 36125.64
620.6199, 36130.66
621.1021, 36127.73
621.5842, 36121.20
622.0663, 36106.59
622.5484, 36093.38
623.0305, 36106.54
623.5126, 36144.94
623.9948, 36177.36
624.4769, 36190.40
624.9590, 36187.36
625.4411, 36171.54
625.9232, 36130.36
626.4053, 36114.71
626.8875, 36133.75
627.3696, 36165.70
627.8517, 36213.29
628.3338, 36264.27
628.8159, 36300.28
629.2980, 36315.58
629.7802, 36324.75
630.2623, 36348.30
630.7444, 36375.30
631.2265, 36367.56
631.7086, 36322.25
632.1907, 36288.95
632.6729, 36297.94
633.1550, 36329.68
633.6371, 36339.11
634.1192, 36310.24
634.6013, 36292.72
635.0834, 36285.52
635.5656, 36289.80
636.0477, 36316.64
636.5298, 36352.11
637.0119, 36372.65
637.4940, 36368.80
637.9761, 36355.72
638.4583, 36351.52
638.9404, 36350.43
639.4225, 36329.13
639.9046, 36284.44
640.3867, 36247.16
640.8688, 36235.31
641.3510, 36242.84
641.8331, 36254.25
642.3152, 36268.28
642.7973, 36289.25
643.2794, 36314.03
643.7615, 36348.73
644.2437, 36419.00
644.7258, 36496.47
645.2079, 36522.32
645.6900, 36469.59
646.1721, 36401.96
646.6542, 36375.53
647.1364, 36387.77
647.6185, 36443.88
648.1006, 36545.92
648.5827, 36634.79
649.0648, 36672.03
649.5469, 36676.43
650.0291, 36696.94
650.5112, 36735.71
650.9933, 36788.50
651.4754, 36875.54
651.9575, 36956.08
652.4396, 37010.75
652.9218, 37044.04
653.4039, 37058.12
653.8860, 37048.61
654.3681, 37061.03
654.8502, 37162.49
655.3323, 37315.64
655.8145, 37421.84
656.2966, 37473.05
656.7787, 37514.51
657.2608, 37566.98
657.7429, 37636.57
658.2250, 37743.43
658.7072, 37928.90
659.1893, 38059.45
659.6714, 38099.02
660.1535, 38125.71
660.6356, 38165.39
661.1177, 38217.20
661.5999, 38279.48
662.0820, 38353.46
662.5641, 38422.69
663.0462, 38470.11
663.5283, 38505.00
664.0104, 38557.89
664.4926, 38624.01
664.9747, 38642.65
665.4568, 38576.59
665.9389, 38464.83
666.4210, 38386.32
666.9031, 38350.87
667.3853, 38318.64
667.8674, 38320.39
668.3495, 38289.80
668.8316, 38167.30
669.3137, 38013.96
669.7958, 37923.19
670.2780, 37920.44
670.7601, 37915.64
671.2422, 37853.39
671.7243, 37761.88
672.2064, 37663.25
672.6885, 37565.91
673.1707, 37494.96
673.6528, 37462.28
674.1349, 37443.10
674.6170, 37396.83
675.0991, 37318.50
