##NAMES=Augite
##RRUFFID=R110063
##IDEAL CHEMISTRY=(Ca,Mg,Fe^2+^,Fe^3+^)_2_(Si,Al)_2_O_6_
##LOCALITY=Betroka, Madagascar
##OWNER=RRUFF
##SOURCE=Marcus Origlieri
##DESCRIPTION=Dark green, almost black, single euhedral crystal
##STATUS=The identification of this mineral has been confirmed only by single crystal X-ray diffraction.
##URL=rruff.info/R110063
117.6378, 376.1276
118.1199, 381.5370
118.6021, 387.7578
119.0842, 395.5050
119.5663, 404.9142
120.0484, 413.4977
120.5305, 421.0423
121.0126, 427.9553
121.4948, 434.6929
121.9769, 441.3665
122.4590, 447.3592
122.9411, 451.3211
123.4232, 453.8239
123.9053, 456.7063
124.3875, 460.5651
124.8696, 465.2595
125.3517, 470.2462
125.8338, 474.9911
126.3159, 480.8869
126.7980, 488.5028
127.2802, 497.8038
127.7623, 508.4825
128.2444, 520.6555
128.7265, 534.3889
129.2086, 548.3663
129.6907, 562.1605
130.1729, 576.4908
130.6550, 591.6179
131.1371, 607.6085
131.6192, 624.4232
132.1013, 641.5860
132.5834, 657.4404
133.0656, 677.8461
133.5477, 702.0436
134.0298, 730.2748
134.5119, 762.7673
134.9940, 799.5046
135.4761, 840.4797
135.9583, 885.5048
136.4404, 936.3098
136.9225, 989.1473
137.4046, 1049.754
137.8867, 1111.366
138.3688, 1166.731
138.8510, 1215.030
139.3331, 1249.970
139.8152, 1250.309
140.2973, 1213.617
140.7794, 1156.867
141.2615, 1077.764
141.7437, 980.9600
142.2258, 884.9012
142.7079, 796.2159
143.1900, 717.6649
143.6721, 650.5818
144.1542, 596.3162
144.6364, 551.9502
145.1185, 515.8768
145.6006, 488.7751
146.0827, 465.9609
146.5648, 445.8953
147.0469, 428.5009
147.5291, 414.3770
148.0112, 404.2975
148.4933, 397.0199
148.9754, 389.7314
149.4575, 381.7371
149.9396, 375.0218
150.4218, 370.2722
150.9039, 366.8688
151.3860, 364.1180
151.8681, 361.7014
152.3502, 359.5390
152.8323, 357.0766
153.3145, 353.9756
153.7966, 350.8640
154.2787, 347.5646
154.7608, 344.3288
155.2429, 341.5789
155.7250, 339.6660
156.2072, 338.6507
156.6893, 337.6700
157.1714, 336.8430
157.6535, 335.9295
158.1356, 334.7330
158.6177, 333.3114
159.0999, 331.9141
159.5820, 330.7725
160.0641, 329.9293
160.5462, 329.1328
161.0283, 328.1886
161.5104, 327.4180
161.9926, 327.1502
162.4747, 327.4220
162.9568, 327.8741
163.4389, 328.2331
163.9210, 328.4938
164.4031, 328.4142
164.8853, 327.7084
165.3674, 326.7080
165.8495, 325.8897
166.3316, 325.3224
166.8137, 324.9335
167.2958, 324.7596
167.7780, 324.7372
168.2601, 324.6002
168.7422, 323.9815
169.2243, 323.0826
169.7064, 322.7734
170.1885, 323.4783
170.6707, 324.4011
171.1528, 325.0948
171.6349, 325.5580
172.1170, 325.8377
172.5991, 325.9305
173.0812, 325.8290
173.5634, 325.6985
174.0455, 325.2628
174.5276, 325.0410
175.0097, 325.3982
175.4918, 326.2550
175.9739, 327.1928
176.4561, 327.7163
176.9382, 327.6504
177.4203, 327.7715
177.9024, 328.3352
178.3845, 328.8648
178.8666, 328.9576
179.3488, 328.6440
179.8309, 328.3782
180.3130, 328.8865
180.7951, 331.0551
181.2772, 331.8888
181.7593, 330.7769
182.2415, 328.9261
182.7236, 327.0319
183.2057, 325.3181
183.6878, 323.8379
184.1699, 322.6860
184.6520, 322.0454
185.1342, 321.4289
185.6163, 320.8375
186.0984, 320.2691
186.5805, 319.6602
187.0626, 318.9793
187.5447, 318.4113
188.0269, 318.4055
188.5090, 319.1772
188.9911, 319.5619
189.4732, 319.0196
189.9553, 317.9639
190.4374, 317.0800
190.9196, 316.5274
191.4017, 316.2739
191.8838, 316.3217
192.3659, 316.6773
192.8480, 317.0410
193.3301, 317.3459
193.8123, 317.5623
194.2944, 317.5867
194.7765, 317.3774
195.2586, 316.9543
195.7407, 316.3710
196.2228, 315.6276
196.7050, 314.7964
197.1871, 313.8984
197.6692, 312.9379
198.1513, 311.9914
198.6334, 310.9817
199.1155, 310.0866
199.5977, 309.4553
200.0798, 309.0870
200.5619, 308.8177
201.0440, 308.4245
201.5261, 307.8427
202.0082, 307.5736
202.4904, 308.0995
202.9725, 308.6636
203.4546, 308.8670
203.9367, 308.6750
204.4188, 308.3370
204.9009, 308.1979
205.3831, 308.4091
205.8652, 308.3412
206.3473, 307.7906
206.8294, 307.1197
207.3115, 306.4947
207.7936, 305.9614
208.2758, 305.4965
208.7579, 305.0329
209.2400, 304.3584
209.7221, 304.2084
210.2042, 305.2420
210.6863, 306.2516
211.1685, 306.2004
211.6506, 304.9846
212.1327, 303.4909
212.6148, 303.0223
213.0969, 304.2456
213.5790, 305.1898
214.0612, 306.0290
214.5433, 306.5127
215.0254, 306.2441
215.5075, 305.1872
215.9896, 303.9265
216.4717, 303.2933
216.9539, 303.5575
217.4360, 303.9085
217.9181, 304.2662
218.4002, 304.7381
218.8823, 305.6231
219.3644, 306.9970
219.8466, 308.2430
220.3287, 308.3658
220.8108, 307.1147
221.2929, 306.2173
221.7750, 306.1183
222.2571, 306.4117
222.7393, 306.5454
223.2214, 306.3688
223.7035, 306.2506
224.1856, 306.8011
224.6677, 307.9617
225.1498, 308.9481
225.6320, 309.4800
226.1141, 309.7342
226.5962, 310.0557
227.0783, 310.5827
227.5604, 310.9267
228.0425, 310.3539
228.5247, 309.1259
229.0068, 308.4175
229.4889, 309.2016
229.9710, 310.7792
230.4531, 311.5442
230.9352, 311.1255
231.4174, 310.3134
231.8995, 309.6278
232.3816, 309.0436
232.8637, 308.5068
233.3458, 308.0399
233.8279, 307.6044
234.3101, 307.0383
234.7922, 306.2271
235.2743, 305.4856
235.7564, 305.0237
236.2385, 304.7513
236.7206, 304.5008
237.2028, 304.3179
237.6849, 304.0935
238.1670, 303.2465
238.6491, 301.0966
239.1312, 299.3607
239.6133, 298.9319
240.0955, 299.3007
240.5776, 299.5919
241.0597, 299.2543
241.5418, 298.4407
242.0239, 297.8812
242.5060, 297.5629
242.9882, 297.5663
243.4703, 298.1698
243.9524, 299.0209
244.4345, 299.5910
244.9166, 299.5327
245.3987, 299.0110
245.8809, 298.8061
246.3630, 299.1084
246.8451, 299.5177
247.3272, 300.1285
247.8093, 300.7426
248.2914, 301.0487
248.7736, 300.8497
249.2557, 300.3351
249.7378, 300.2856
250.2199, 301.1759
250.7020, 301.9764
251.1841, 302.5333
251.6663, 302.9344
252.1484, 303.3104
252.6305, 303.7293
253.1126, 304.1188
253.5947, 304.2556
254.0768, 304.0482
254.5590, 303.6549
255.0411, 303.0067
255.5232, 302.2137
256.0053, 301.4344
256.4874, 300.7364
256.9695, 299.9837
257.4517, 298.8469
257.9338, 296.4088
258.4159, 294.7000
258.8980, 294.1516
259.3801, 294.1525
259.8622, 294.1735
260.3444, 294.0192
260.8265, 293.6102
261.3086, 292.7595
261.7907, 290.5840
262.2728, 289.4174
262.7549, 290.1976
263.2371, 291.5516
263.7192, 292.0910
264.2013, 291.4519
264.6834, 290.2444
265.1655, 289.3363
265.6476, 288.8112
266.1298, 288.4625
266.6119, 288.3989
267.0940, 288.4478
267.5761, 288.3982
268.0582, 288.2188
268.5403, 288.1478
269.0225, 288.5466
269.5046, 289.6139
269.9867, 290.1622
270.4688, 289.8510
270.9509, 289.2066
271.4330, 288.6285
271.9152, 288.1748
272.3973, 287.7328
272.8794, 287.0279
273.3615, 286.0656
273.8436, 286.1659
274.3257, 288.5002
274.8079, 291.0924
275.2900, 292.2339
275.7721, 291.9062
276.2542, 291.3817
276.7363, 291.6801
277.2184, 292.6593
277.7006, 293.0219
278.1827, 291.8788
278.6648, 290.8203
279.1469, 291.3228
279.6290, 293.1786
280.1111, 294.6478
280.5933, 294.6201
281.0754, 293.3871
281.5575, 292.2570
282.0396, 290.8840
282.5217, 290.0236
283.0038, 290.5687
283.4860, 292.2242
283.9681, 293.4035
284.4502, 293.2349
284.9323, 292.2655
285.4144, 291.6831
285.8965, 291.5132
286.3787, 291.6274
286.8608, 292.0074
287.3429, 292.6256
287.8250, 293.4303
288.3071, 294.5096
288.7892, 295.6230
289.2714, 296.4058
289.7535, 296.8273
290.2356, 297.2230
290.7177, 297.9023
291.1998, 298.6802
291.6819, 298.8957
292.1641, 298.0358
292.6462, 297.3251
293.1283, 298.3887
293.6104, 300.9956
294.0925, 303.4586
294.5746, 305.1328
295.0568, 306.2037
295.5389, 306.9079
296.0210, 307.1135
296.5031, 307.4263
296.9852, 308.4500
297.4673, 310.0026
297.9495, 311.6942
298.4316, 313.3869
298.9137, 315.1454
299.3958, 317.1412
299.8779, 319.4499
300.3600, 321.6374
300.8422, 322.9689
301.3243, 324.0450
301.8064, 325.9513
302.2885, 329.2797
302.7706, 333.2162
303.2527, 336.8721
303.7349, 340.2409
304.2170, 343.6214
304.6991, 347.0056
305.1812, 350.5726
305.6633, 354.5222
306.1454, 358.8567
306.6276, 363.6133
307.1097, 369.1123
307.5918, 375.2811
308.0739, 381.0203
308.5560, 385.7296
309.0381, 389.9739
309.5203, 394.4563
310.0024, 399.2501
310.4845, 403.8862
310.9666, 407.8798
311.4487, 411.3808
311.9308, 415.1519
312.4130, 419.5258
312.8951, 423.8917
313.3772, 427.4502
313.8593, 430.3580
314.3414, 433.5856
314.8235, 437.5436
315.3057, 442.1812
315.7878, 447.4344
316.2699, 453.2863
316.7520, 459.7552
317.2341, 466.7524
317.7162, 474.2907
318.1984, 482.6299
318.6805, 492.0255
319.1626, 502.1714
319.6447, 512.8976
320.1268, 524.4421
320.6089, 535.3793
321.0911, 545.4220
321.5732, 554.2100
322.0553, 561.0490
322.5374, 565.8724
323.0195, 568.6560
323.5016, 569.7896
323.9838, 569.3025
324.4659, 565.3057
324.9480, 555.9180
325.4301, 543.1592
325.9122, 529.7014
326.3943, 515.5081
326.8765, 500.9189
327.3586, 485.5479
327.8407, 469.6765
328.3228, 455.2730
328.8049, 443.0182
329.2870, 432.1510
329.7692, 421.8383
330.2513, 412.0890
330.7334, 403.0230
331.2155, 394.7506
331.6976, 387.2336
332.1797, 380.3216
332.6619, 373.9000
333.1440, 368.3760
333.6261, 364.4706
334.1082, 361.7349
334.5903, 359.2480
335.0724, 356.4734
335.5546, 353.9579
336.0367, 352.5244
336.5188, 352.2486
337.0009, 352.3479
337.4830, 352.5543
337.9651, 352.8033
338.4473, 352.9264
338.9294, 352.6808
339.4115, 352.6642
339.8936, 353.5068
340.3757, 355.1032
340.8578, 356.6063
341.3400, 357.5873
341.8221, 358.4645
342.3042, 359.8099
342.7863, 361.6225
343.2684, 363.8315
343.7505, 366.7196
344.2327, 369.9691
344.7148, 372.6519
345.1969, 374.3322
345.6790, 376.0599
346.1611, 379.2566
346.6432, 383.6844
347.1254, 388.1899
347.6075, 392.2449
348.0896, 396.3243
348.5717, 400.8689
349.0538, 405.9308
349.5359, 411.5691
350.0181, 417.9688
350.5002, 425.0699
350.9823, 432.3761
351.4644, 439.6414
351.9465, 447.2562
352.4286, 455.6483
352.9108, 464.6774
353.3929, 473.8071
353.8750, 482.6162
354.3571, 491.4849
354.8392, 501.5028
355.3214, 513.3836
355.8035, 524.6283
356.2856, 534.7691
356.7677, 543.5629
357.2498, 550.6052
357.7319, 555.7995
358.2141, 559.1528
358.6962, 560.6102
359.1783, 560.1926
359.6604, 557.8416
360.1425, 553.7106
360.6246, 547.5256
361.1068, 538.4871
361.5889, 526.6490
362.0710, 513.8444
362.5531, 501.2622
363.0352, 488.9543
363.5173, 478.1826
363.9995, 469.5511
364.4816, 461.6322
364.9637, 453.5917
365.4458, 445.7309
365.9279, 438.8699
366.4100, 433.4516
366.8922, 429.2874
367.3743, 425.9160
367.8564, 423.0241
368.3385, 421.2719
368.8206, 421.1611
369.3027, 422.0579
369.7849, 423.2567
370.2670, 424.5529
370.7491, 426.1803
371.2312, 428.4639
371.7133, 431.4902
372.1954, 435.0139
372.6776, 439.4029
373.1597, 443.9232
373.6418, 447.9773
374.1239, 451.6949
374.6060, 455.7633
375.0881, 460.8365
375.5703, 466.8594
376.0524, 472.4930
376.5345, 476.3109
377.0166, 481.3986
377.4987, 488.7682
377.9808, 497.7925
378.4630, 507.5517
378.9451, 517.6227
379.4272, 528.2020
379.9093, 539.6432
380.3914, 551.2964
380.8735, 565.2675
381.3557, 582.2065
381.8378, 600.7521
382.3199, 619.9393
382.8020, 639.7126
383.2841, 660.5699
383.7662, 683.0079
384.2484, 707.2078
384.7305, 732.3168
385.2126, 758.2067
385.6947, 785.3387
386.1768, 815.5951
386.6589, 847.1347
387.1411, 877.0520
387.6232, 904.1896
388.1053, 927.7830
388.5874, 945.2870
389.0695, 958.0970
389.5516, 961.2520
390.0338, 954.6276
390.5159, 939.0069
390.9980, 913.7758
391.4801, 878.8015
391.9622, 837.9308
392.4443, 794.3832
392.9265, 747.8250
393.4086, 702.4659
393.8907, 657.3898
394.3728, 615.4266
394.8549, 578.4088
395.3370, 545.9781
395.8192, 516.8068
396.3013, 490.2277
396.7834, 466.2136
397.2655, 444.9385
397.7476, 426.5881
398.2297, 410.6312
398.7119, 397.5833
399.1940, 386.4705
399.6761, 376.3625
400.1582, 367.0932
400.6403, 358.5988
401.1224, 350.8131
401.6046, 343.6853
402.0867, 337.4715
402.5688, 332.5691
403.0509, 328.2892
403.5330, 323.6026
404.0151, 318.4789
404.4973, 313.9853
404.9794, 310.8329
405.4615, 308.5443
405.9436, 306.3976
406.4257, 304.3556
406.9078, 302.1880
407.3900, 299.5705
407.8721, 296.6515
408.3542, 294.1399
408.8363, 292.0303
409.3184, 290.4006
409.8005, 289.6192
410.2827, 289.4412
410.7648, 289.0205
411.2469, 287.9503
411.7290, 286.4980
412.2111, 285.2147
412.6932, 283.9658
413.1754, 283.1617
413.6575, 283.2826
414.1396, 283.6639
414.6217, 283.7372
415.1038, 283.3640
415.5859, 282.4032
416.0681, 280.5317
416.5502, 277.5663
417.0323, 275.8839
417.5144, 276.3580
417.9965, 276.9757
418.4786, 276.9273
418.9608, 276.4243
419.4429, 275.9840
419.9250, 275.8763
420.4071, 275.9715
420.8892, 275.9195
421.3713, 275.7730
421.8535, 275.3702
422.3356, 274.3853
422.8177, 273.3842
423.2998, 272.8322
423.7819, 272.7653
424.2640, 272.8997
424.7462, 272.9820
425.2283, 273.0211
425.7104, 272.8755
426.1925, 272.4326
426.6746, 271.9091
427.1567, 271.0656
427.6389, 270.2496
428.1210, 270.1243
428.6031, 271.1198
429.0852, 272.4973
429.5673, 272.6075
430.0494, 271.0044
430.5316, 269.7528
431.0137, 269.2956
431.4958, 269.4038
431.9779, 270.3535
432.4600, 272.0164
432.9421, 273.2811
433.4243, 273.1721
433.9064, 271.9350
434.3885, 270.5061
434.8706, 268.6611
435.3527, 267.2435
435.8348, 267.1567
436.3170, 267.7963
436.7991, 268.2098
437.2812, 268.2310
437.7633, 267.8609
438.2454, 266.7213
438.7275, 264.9940
439.2097, 264.1203
439.6918, 264.9619
440.1739, 266.3279
440.6560, 266.2095
441.1381, 264.4773
441.6202, 263.2858
442.1024, 263.7742
442.5845, 264.8160
443.0666, 265.0955
443.5487, 264.5157
444.0308, 263.7597
444.5129, 263.2938
444.9951, 263.1075
445.4772, 263.0396
445.9593, 263.1997
446.4414, 263.3336
446.9235, 263.4654
447.4056, 263.4942
447.8878, 263.2060
448.3699, 262.5361
448.8520, 261.7356
449.3341, 261.1690
449.8162, 260.8446
450.2983, 260.7757
450.7805, 260.8768
451.2626, 261.2657
451.7447, 262.3251
452.2268, 263.7445
452.7089, 264.7505
453.1910, 264.7768
453.6732, 264.0818
454.1553, 263.7501
454.6374, 263.9560
455.1195, 264.2497
455.6016, 264.8736
456.0837, 265.3438
456.5659, 265.0996
457.0480, 264.1011
457.5301, 263.0098
458.0122, 262.5221
458.4943, 262.6252
458.9764, 262.7219
459.4586, 262.6299
459.9407, 262.7965
460.4228, 263.6505
460.9049, 264.8563
461.3870, 265.8574
461.8691, 266.5649
462.3513, 266.8165
462.8334, 266.1461
463.3155, 264.5997
463.7976, 263.3985
464.2797, 263.0218
464.7618, 263.0387
465.2440, 262.8796
465.7261, 262.5374
466.2082, 262.3240
466.6903, 262.4764
467.1724, 262.7422
467.6545, 262.8907
468.1367, 262.8887
468.6188, 262.5751
469.1009, 261.7404
469.5830, 260.5343
470.0651, 259.6944
470.5472, 259.0870
471.0294, 258.9525
471.5115, 259.8788
471.9936, 261.0924
472.4757, 261.5031
472.9578, 260.8694
473.4399, 259.9555
473.9221, 259.7612
474.4042, 260.5788
474.8863, 260.3799
475.3684, 257.8371
475.8505, 255.8009
476.3326, 255.6220
476.8148, 256.6147
477.2969, 257.6357
477.7790, 258.1399
478.2611, 258.1864
478.7432, 257.7567
479.2253, 256.4902
479.7075, 255.7857
480.1896, 256.3620
480.6717, 257.0766
481.1538, 257.4071
481.6359, 257.3170
482.1180, 256.9209
482.6002, 255.9950
483.0823, 254.9138
483.5644, 254.9299
484.0465, 256.4042
484.5286, 257.6541
485.0107, 257.8768
485.4929, 257.4897
485.9750, 256.7452
486.4571, 255.4716
486.9392, 254.8792
487.4213, 256.5789
487.9034, 259.3662
488.3856, 260.3504
488.8677, 258.9295
489.3498, 256.9051
489.8319, 255.6476
490.3140, 255.1782
490.7961, 255.0322
491.2783, 255.5574
491.7604, 256.0340
492.2425, 255.9592
492.7246, 255.6387
493.2067, 255.7383
493.6888, 256.4919
494.1710, 257.3983
494.6531, 257.5946
495.1352, 256.5509
495.6173, 256.5199
496.0994, 258.6476
496.5815, 260.5266
497.0637, 260.6935
497.5458, 259.7090
498.0279, 258.9277
498.5100, 259.1176
498.9921, 259.9436
499.4742, 260.5230
499.9564, 260.6019
500.4385, 261.0830
500.9206, 262.3064
501.4027, 263.8006
501.8848, 265.3224
502.3669, 266.8539
502.8491, 268.4517
503.3312, 270.2677
503.8133, 272.1544
504.2954, 273.7051
504.7775, 274.8938
505.2596, 275.8445
505.7418, 276.5718
506.2239, 277.0934
506.7060, 277.4671
507.1881, 277.7086
507.6702, 277.7398
508.1523, 277.6942
508.6345, 277.3581
509.1166, 276.2560
509.5987, 274.3115
510.0808, 272.0696
510.5629, 269.7724
511.0450, 267.5256
511.5272, 266.3054
512.0093, 267.1273
512.4914, 267.6167
512.9735, 266.7213
513.4556, 265.2428
513.9377, 264.2024
514.4199, 263.8905
514.9020, 263.9923
515.3841, 264.1823
515.8662, 264.5222
516.3483, 264.5299
516.8304, 263.8275
517.3126, 263.1880
517.7947, 262.9102
518.2768, 262.8064
518.7589, 262.5825
519.2410, 262.1187
519.7231, 261.5534
520.2053, 260.9049
520.6874, 260.1178
521.1695, 260.1758
521.6516, 261.8902
522.1337, 263.6067
522.6158, 263.9865
523.0980, 263.4622
523.5801, 263.2886
524.0622, 264.1530
524.5443, 265.3116
525.0264, 265.9593
525.5085, 266.1841
525.9907, 266.4796
526.4728, 267.0442
526.9549, 267.7023
527.4370, 268.1643
527.9191, 268.3836
528.4012, 268.7553
528.8834, 269.7396
529.3655, 270.5294
529.8476, 270.3942
530.3297, 269.5695
530.8118, 268.8188
531.2939, 268.5602
531.7761, 268.5652
532.2582, 268.2070
532.7403, 266.9143
533.2224, 266.3305
533.7045, 266.9942
534.1866, 267.8235
534.6688, 268.2702
535.1509, 268.3098
535.6330, 268.0960
536.1151, 267.6767
536.5972, 267.1409
537.0793, 266.7426
537.5615, 266.5329
538.0436, 266.2647
538.5257, 265.8664
539.0078, 265.3841
539.4899, 264.7296
539.9720, 263.9343
540.4542, 263.4823
540.9363, 264.0174
541.4184, 264.8360
541.9005, 264.8370
542.3826, 264.0215
542.8647, 263.1717
543.3469, 262.6625
543.8290, 262.4060
544.3111, 262.1500
544.7932, 261.6883
545.2753, 261.6868
545.7574, 262.7981
546.2396, 264.0070
546.7217, 264.4160
547.2038, 264.0437
547.6859, 263.3525
548.1680, 262.6027
548.6501, 261.9169
549.1323, 261.9160
549.6144, 263.3723
550.0965, 264.1592
550.5786, 263.5205
551.0607, 262.6280
551.5428, 262.3583
552.0250, 262.7197
552.5071, 263.1306
552.9892, 263.0866
553.4713, 262.8069
553.9534, 262.9999
554.4355, 263.7743
554.9177, 264.4691
555.3998, 264.7684
555.8819, 264.8899
556.3640, 265.2320
556.8461, 265.8707
557.3282, 266.1295
557.8104, 265.3232
558.2925, 264.2462
558.7746, 264.0233
559.2567, 264.5916
559.7388, 264.8360
560.2209, 263.9703
560.7031, 262.4865
561.1852, 261.9592
561.6673, 263.8658
562.1494, 264.6327
562.6315, 263.3519
563.1136, 261.5925
563.5958, 260.4130
564.0779, 259.8371
564.5600, 259.4394
565.0421, 258.9497
565.5242, 258.3557
566.0063, 257.5270
566.4885, 256.2372
566.9706, 255.3838
567.4527, 255.4771
567.9348, 255.8748
568.4169, 256.3017
568.8990, 256.6847
569.3812, 256.7853
569.8633, 256.2834
570.3454, 255.5276
570.8275, 254.9590
571.3096, 254.5859
571.7917, 254.5135
572.2739, 254.9678
572.7560, 255.4511
573.2381, 254.9204
573.7202, 252.9803
574.2023, 251.6482
574.6844, 251.7033
575.1666, 251.9040
575.6487, 251.3515
576.1308, 250.2230
576.6129, 249.0967
577.0950, 248.2592
577.5771, 247.7082
578.0593, 247.5172
578.5414, 247.9771
579.0235, 247.9971
579.5056, 246.8991
579.9877, 245.9311
580.4698, 245.8564
580.9520, 246.3437
581.4341, 246.5414
581.9162, 245.9607
582.3983, 245.1550
582.8804, 244.8767
583.3625, 245.0821
583.8447, 245.3701
584.3268, 245.7480
584.8089, 245.9548
585.2910, 245.5972
585.7731, 244.7416
586.2552, 244.0820
586.7374, 243.8251
587.2195, 243.6256
587.7016, 243.4129
588.1837, 243.1104
588.6658, 242.5246
589.1479, 241.6158
589.6301, 240.6658
590.1122, 240.0166
590.5943, 239.6926
591.0764, 239.4419
591.5585, 239.2549
592.0406, 239.1575
592.5228, 239.2912
593.0049, 239.4518
593.4870, 239.3690
593.9691, 238.9786
594.4512, 238.5264
594.9333, 238.2369
595.4155, 238.0796
595.8976, 237.9068
596.3797, 237.6856
596.8618, 237.5584
597.3439, 237.5846
597.8260, 237.7837
598.3082, 238.2504
598.7903, 239.3218
599.2724, 239.8143
599.7545, 238.7385
600.2366, 237.2739
600.7188, 236.8097
601.2009, 237.3221
601.6830, 237.7684
602.1651, 237.3938
602.6472, 236.5377
603.1293, 236.5027
603.6115, 237.9160
604.0936, 239.0033
604.5757, 239.5976
605.0578, 239.9085
605.5399, 239.8215
606.0220, 239.5383
606.5042, 239.6452
606.9863, 240.6979
607.4684, 241.9629
607.9505, 242.0830
608.4326, 241.0921
608.9147, 240.3761
609.3969, 240.3458
609.8790, 240.6092
610.3611, 240.7359
610.8432, 240.7494
611.3253, 240.9752
611.8074, 241.7661
612.2896, 242.4453
612.7717, 242.5350
613.2538, 242.3056
613.7359, 242.2228
614.2180, 242.4234
614.7001, 242.7276
615.1823, 242.9022
