##NAMES=Aurichalcite
##RRUFFID=R050297
##IDEAL CHEMISTRY=Zn^2+^_5_(CO_3_)_2_(OH)_6_
##LOCALITY=79 mine, 4th level, Hayden, Gila County, Arizona, USA
##OWNER=RRUFF
##SOURCE=George Godas, John Callahan
##DESCRIPTION=Sprays of greenish blue lathlike crystals
##STATUS=The identification of this mineral has been confirmed by X-ray diffraction and chemical analysis
##URL=rruff.info/R050297
##MEASURED CHEMISTRY=(Zn_0.68_Cu_0.32_)_5_(CO_3_)_2_(OH)_6_
114.5309, 32.75469
115.0130, 33.98549
115.4951, 35.35216
115.9772, 37.04146
116.4594, 39.06355
116.9415, 41.15217
117.4236, 43.20942
117.9057, 45.28436
118.3878, 47.42013
118.8699, 49.58558
119.3521, 51.87456
119.8342, 54.55046
120.3163, 57.69478
120.7984, 60.47948
121.2805, 62.06844
121.7626, 62.97663
122.2448, 64.08449
122.7269, 66.11394
123.2090, 68.39294
123.6911, 70.21191
124.1732, 71.41565
124.6553, 72.49649
125.1375, 73.97282
125.6196, 75.72156
126.1017, 77.35306
126.5838, 78.63210
127.0659, 79.63979
127.5480, 80.48824
128.0302, 81.13551
128.5123, 81.76602
128.9944, 82.59944
129.4765, 83.63369
129.9586, 84.84932
130.4407, 86.20475
130.9229, 87.72165
131.4050, 89.49004
131.8871, 91.45596
132.3692, 93.69868
132.8513, 96.37678
133.3334, 99.33961
133.8156, 102.1990
134.2977, 105.0950
134.7798, 108.3641
135.2619, 111.4378
135.7440, 114.1438
136.2261, 116.5457
136.7083, 119.3386
137.1904, 122.7523
137.6725, 125.8978
138.1546, 127.8477
138.6367, 128.4874
139.1188, 128.7364
139.6010, 128.9187
140.0831, 129.0427
140.5652, 128.3844
141.0473, 126.9415
141.5294, 124.7515
142.0115, 121.8077
142.4937, 117.8516
142.9758, 113.6921
143.4579, 109.4424
143.9400, 105.0403
144.4221, 100.8959
144.9042, 96.90298
145.3864, 93.19933
145.8685, 90.13226
146.3506, 87.89904
146.8327, 85.97375
147.3148, 84.13014
147.7969, 82.16613
148.2791, 80.76059
148.7612, 80.12138
149.2433, 80.01390
149.7254, 79.89834
150.2075, 79.71049
150.6896, 79.57291
151.1718, 79.53042
151.6539, 79.59224
152.1360, 79.73394
152.6181, 79.92251
153.1002, 80.18439
153.5823, 80.59840
154.0645, 81.16039
154.5466, 81.88277
155.0287, 82.77173
155.5108, 84.02295
155.9929, 85.21950
156.4750, 86.18656
156.9572, 87.00896
157.4393, 88.01634
157.9214, 89.30296
158.4035, 90.78812
158.8856, 92.42366
159.3677, 94.16994
159.8499, 96.10051
160.3320, 98.37096
160.8141, 100.9038
161.2962, 103.2427
161.7783, 104.9754
162.2604, 106.5446
162.7426, 108.3156
163.2247, 110.4064
163.7068, 112.7119
164.1889, 115.4334
164.6710, 118.4929
165.1531, 121.1456
165.6353, 123.0796
166.1174, 124.3969
166.5995, 125.2066
167.0816, 125.1668
167.5637, 124.9150
168.0458, 125.0410
168.5280, 125.5455
169.0101, 125.5651
169.4922, 124.3043
169.9743, 122.2669
170.4564, 120.1599
170.9385, 118.0924
171.4207, 116.1850
171.9028, 114.5423
172.3849, 113.1786
172.8670, 112.0322
173.3491, 110.9530
173.8312, 110.0484
174.3134, 109.5233
174.7955, 109.9445
175.2776, 110.5926
175.7597, 110.5348
176.2418, 109.6636
176.7239, 108.6043
177.2061, 108.5409
177.6882, 108.8446
178.1703, 107.8215
178.6524, 103.6110
179.1345, 97.79283
179.6166, 93.05288
180.0988, 89.56357
180.5809, 86.77192
181.0630, 84.25973
181.5451, 81.94905
182.0272, 79.63662
182.5093, 76.92013
182.9915, 74.10559
183.4736, 72.07307
183.9557, 70.96729
184.4378, 70.25406
184.9199, 69.12331
185.4020, 67.67282
185.8842, 66.45206
186.3663, 65.95767
186.8484, 65.98099
187.3305, 65.76137
187.8126, 65.19290
188.2947, 64.49236
188.7769, 63.92920
189.2590, 63.50631
189.7411, 63.29289
190.2232, 63.39302
190.7053, 63.76638
191.1874, 64.15668
191.6696, 64.55042
192.1517, 64.94912
192.6338, 65.44682
193.1159, 66.05621
193.5980, 66.44223
194.0801, 66.17663
194.5623, 65.33444
195.0444, 65.01969
195.5265, 65.40398
196.0086, 66.25886
196.4907, 67.18074
196.9728, 68.18374
197.4550, 69.13262
197.9371, 69.95723
198.4192, 70.65759
198.9013, 71.20905
199.3834, 71.54155
199.8655, 71.79140
200.3477, 72.29960
200.8298, 73.08979
201.3119, 74.03454
201.7940, 75.17278
202.2761, 76.55021
202.7582, 77.57957
203.2404, 78.11440
203.7225, 78.34217
204.2046, 78.82887
204.6867, 79.67265
205.1688, 80.44394
205.6509, 80.81453
206.1331, 80.71174
206.6152, 80.73498
207.0973, 81.02885
207.5794, 81.43343
208.0615, 81.45152
208.5436, 81.03742
209.0258, 80.35571
209.5079, 79.41654
209.9900, 78.11291
210.4721, 77.09834
210.9542, 76.53796
211.4363, 76.26255
211.9185, 75.68204
212.4006, 74.70020
212.8827, 73.61137
213.3648, 72.63528
213.8469, 71.82773
214.3290, 70.86716
214.8112, 69.63436
215.2933, 68.25494
215.7754, 67.13847
216.2575, 66.32671
216.7396, 65.69512
217.2217, 65.21710
217.7038, 64.98343
218.1860, 64.61540
218.6681, 64.02198
219.1502, 63.28888
219.6323, 62.76626
220.1144, 62.59209
220.5965, 62.40093
221.0787, 61.92773
221.5608, 60.94323
222.0429, 60.32000
222.5250, 60.21579
223.0071, 60.50060
223.4892, 60.70770
223.9714, 60.82354
224.4535, 60.88825
224.9356, 60.92045
225.4177, 60.90971
225.8998, 60.90780
226.3819, 61.00236
226.8641, 61.09783
227.3462, 60.79796
227.8283, 59.77781
228.3104, 58.85738
228.7925, 58.53632
229.2746, 59.25254
229.7568, 59.56505
230.2389, 59.36327
230.7210, 58.73782
231.2031, 57.92978
231.6852, 56.71090
232.1673, 55.64737
232.6495, 55.07536
233.1316, 55.32598
233.6137, 55.30598
234.0958, 54.81987
234.5779, 54.08446
235.0600, 53.77515
235.5422, 54.29759
236.0243, 54.65376
236.5064, 54.32967
236.9885, 52.83155
237.4706, 51.75676
237.9527, 51.24589
238.4349, 51.13509
238.9170, 51.05315
239.3991, 51.09082
239.8812, 51.02098
240.3633, 50.70976
240.8454, 49.97200
241.3276, 49.47369
241.8097, 49.38899
242.2918, 49.48555
242.7739, 49.22263
243.2560, 48.33778
243.7381, 47.49950
244.2203, 46.97640
244.7024, 46.89186
245.1845, 46.77698
245.6666, 46.62156
246.1487, 46.44118
246.6308, 46.24883
247.1130, 45.98073
247.5951, 45.80699
248.0772, 45.82959
248.5593, 46.15562
249.0414, 46.27613
249.5235, 46.10316
250.0057, 45.77956
250.4878, 45.54820
250.9699, 45.49607
251.4520, 45.37484
251.9341, 45.04810
252.4162, 44.40957
252.8984, 44.10462
253.3805, 44.28595
253.8626, 44.68460
254.3447, 44.89153
254.8268, 44.81010
255.3089, 44.74261
255.7911, 44.79185
256.2732, 44.98125
256.7553, 45.08590
257.2374, 45.07058
257.7195, 45.00536
258.2017, 44.96686
258.6838, 44.93812
259.1659, 44.97683
259.6480, 45.11883
260.1301, 45.36843
260.6122, 45.57622
261.0944, 45.75019
261.5765, 45.87305
262.0586, 45.91289
262.5407, 45.83065
263.0228, 45.76737
263.5049, 45.71717
263.9871, 45.68732
264.4692, 45.88959
264.9513, 46.41272
265.4334, 47.02858
265.9155, 47.55172
266.3976, 47.97034
266.8798, 48.29967
267.3619, 48.51201
267.8440, 48.62694
268.3261, 48.77423
268.8082, 48.93175
269.2903, 49.16623
269.7725, 49.56046
270.2546, 50.15365
270.7367, 50.70831
271.2188, 51.20992
271.7009, 51.63986
272.1830, 51.89842
272.6652, 51.93031
273.1473, 51.93620
273.6294, 52.09045
274.1115, 52.44075
274.5936, 52.60588
275.0757, 52.45160
275.5579, 52.15628
276.0400, 52.28415
276.5221, 52.92084
277.0042, 53.63258
277.4863, 54.22003
277.9684, 54.69076
278.4506, 54.87730
278.9327, 54.66102
279.4148, 54.29057
279.8969, 54.39960
280.3790, 55.08013
280.8611, 55.59678
281.3433, 55.42013
281.8254, 54.55716
282.3075, 54.07415
282.7896, 54.06098
283.2717, 54.29791
283.7538, 54.50254
284.2360, 54.67921
284.7181, 54.72197
285.2002, 54.52996
285.6823, 54.13234
286.1644, 53.79224
286.6465, 53.51958
287.1287, 53.27865
287.6108, 53.00214
288.0929, 52.69561
288.5750, 52.47680
289.0571, 52.49875
289.5392, 52.64573
290.0214, 52.38633
290.5035, 51.68088
290.9856, 50.91201
291.4677, 50.49334
291.9498, 50.37873
292.4319, 50.29641
292.9141, 50.18115
293.3962, 50.03443
293.8783, 49.83089
294.3604, 49.57042
294.8425, 49.34778
295.3246, 49.26601
295.8068, 49.29174
296.2889, 49.32775
296.7710, 49.39473
297.2531, 49.40953
297.7352, 49.11919
298.2173, 48.57055
298.6995, 48.15682
299.1816, 48.37513
299.6637, 48.91984
300.1458, 49.10481
300.6279, 48.71140
301.1100, 48.13464
301.5922, 47.78944
302.0743, 47.66457
302.5564, 47.71587
303.0385, 48.01274
303.5206, 48.43683
304.0027, 48.85553
304.4849, 49.27116
304.9670, 49.58247
305.4491, 49.59269
305.9312, 49.41143
306.4133, 49.30164
306.8954, 49.53395
307.3776, 49.82839
307.8597, 49.85655
308.3418, 49.57639
308.8239, 49.29365
309.3060, 49.23771
309.7881, 49.32794
310.2703, 49.43787
310.7524, 49.57654
311.2345, 49.67362
311.7166, 49.60165
312.1987, 49.37140
312.6808, 49.27679
313.1630, 49.66682
313.6451, 50.21004
314.1272, 50.55212
314.6093, 50.41154
315.0914, 50.19461
315.5735, 50.03823
316.0557, 49.95135
316.5378, 49.98345
317.0199, 50.36750
317.5020, 50.75468
317.9841, 50.87629
318.4662, 50.47488
318.9484, 50.09294
319.4305, 49.93085
319.9126, 49.92532
320.3947, 49.90995
320.8768, 49.79752
321.3589, 49.69298
321.8411, 49.63585
322.3232, 49.60382
322.8053, 49.68914
323.2874, 50.09602
323.7695, 50.59735
324.2516, 50.83344
324.7338, 50.23498
325.2159, 49.83623
325.6980, 50.13396
326.1801, 51.43650
326.6622, 52.13214
327.1443, 51.55836
327.6265, 50.57268
328.1086, 50.03587
328.5907, 50.30954
329.0728, 50.65363
329.5549, 51.09462
330.0370, 51.63793
330.5192, 51.71485
331.0013, 50.94155
331.4834, 50.02895
331.9655, 49.47880
332.4476, 49.62062
332.9297, 49.54401
333.4119, 49.02763
333.8940, 48.21857
334.3761, 47.80224
334.8582, 47.98805
335.3403, 48.24533
335.8224, 48.29319
336.3046, 48.03166
336.7867, 47.85770
337.2688, 47.79409
337.7509, 47.80849
338.2330, 47.85932
338.7151, 47.98348
339.1973, 48.02477
339.6794, 47.87720
340.1615, 47.52749
340.6436, 47.33319
341.1257, 47.33322
341.6078, 47.40977
342.0899, 47.42161
342.5721, 47.36649
343.0542, 47.28046
343.5363, 47.14016
344.0184, 46.98119
344.5005, 46.94082
344.9826, 47.01589
345.4648, 47.23598
345.9469, 47.73504
346.4290, 48.46631
346.9111, 48.97875
347.3932, 49.10102
347.8753, 49.08199
348.3575, 49.48084
348.8396, 50.25425
349.3217, 50.93703
349.8038, 51.15939
350.2859, 51.05366
350.7680, 50.90598
351.2502, 50.72242
351.7323, 50.60378
352.2144, 50.73915
352.6965, 51.05064
353.1786, 51.29877
353.6607, 51.35070
354.1429, 51.28033
354.6250, 51.15785
355.1071, 50.98571
355.5892, 50.81276
356.0713, 50.63161
356.5534, 50.48445
357.0356, 50.43543
357.5177, 50.64393
357.9998, 50.84523
358.4819, 50.86869
358.9640, 50.72293
359.4461, 50.44941
359.9283, 49.76011
360.4104, 49.11743
360.8925, 48.95095
361.3746, 49.64657
361.8567, 50.32462
362.3388, 50.63951
362.8210, 50.67144
363.3031, 50.61192
363.7852, 50.29119
364.2673, 50.07569
364.7494, 50.19295
365.2315, 50.78667
365.7137, 51.26927
366.1958, 51.41225
366.6779, 51.41981
367.1600, 51.53336
367.6421, 51.81736
368.1242, 52.17055
368.6064, 52.59457
369.0885, 53.09485
369.5706, 53.57477
370.0527, 53.93811
370.5348, 54.35836
371.0169, 54.96931
371.4991, 55.94627
371.9812, 56.80296
372.4633, 57.46173
372.9454, 57.98270
373.4275, 58.56788
373.9096, 59.26868
374.3918, 59.95663
374.8739, 60.54009
375.3560, 60.98010
375.8381, 61.52338
376.3202, 62.17992
376.8023, 62.91768
377.2845, 63.65363
377.7666, 64.34547
378.2487, 65.25693
378.7308, 66.60131
379.2129, 68.27102
379.6950, 69.33676
380.1772, 69.72482
380.6593, 69.93305
381.1414, 70.31714
381.6235, 70.88828
382.1056, 71.87270
382.5877, 73.51092
383.0699, 75.30868
383.5520, 76.10662
384.0341, 76.01964
384.5162, 76.14127
384.9983, 77.41021
385.4804, 79.36124
385.9626, 81.07241
386.4447, 82.48017
386.9268, 83.49825
387.4089, 83.76032
387.8910, 83.55848
388.3731, 83.54403
388.8553, 84.26211
389.3374, 85.14065
389.8195, 85.61024
390.3016, 85.67679
390.7837, 85.65961
391.2658, 85.91866
391.7480, 86.12537
392.2301, 85.93407
392.7122, 85.16531
393.1943, 84.10474
393.6764, 82.75861
394.1585, 81.20775
394.6407, 79.70815
395.1228, 78.47380
395.6049, 77.20631
396.0870, 75.70903
396.5691, 73.87473
397.0512, 72.11987
397.5334, 70.57852
398.0155, 69.13438
398.4976, 67.66251
398.9797, 66.01157
399.4618, 64.46506
399.9439, 63.09011
400.4261, 61.88578
400.9082, 60.71148
401.3903, 59.51274
401.8724, 58.39394
402.3545, 57.42117
402.8366, 56.63875
403.3188, 55.93271
403.8009, 55.32980
404.2830, 54.78556
404.7651, 54.14890
405.2472, 53.34245
405.7293, 52.68481
406.2115, 52.36527
406.6936, 52.39954
407.1757, 52.33522
407.6578, 52.19527
408.1399, 51.89307
408.6220, 51.13984
409.1042, 49.95398
409.5863, 49.21931
410.0684, 49.33002
410.5505, 49.91494
411.0326, 50.08216
411.5147, 49.84285
411.9969, 49.54013
412.4790, 49.41361
412.9611, 49.40492
413.4432, 49.37940
413.9253, 49.31867
414.4074, 49.24119
414.8896, 49.09989
415.3717, 48.95302
415.8538, 48.94052
416.3359, 49.33322
416.8180, 49.75914
417.3001, 49.83252
417.7823, 49.55650
418.2644, 49.26307
418.7465, 48.99204
419.2286, 48.86209
419.7107, 49.00564
420.1928, 49.67913
420.6750, 50.32997
421.1571, 50.82453
421.6392, 51.14582
422.1213, 51.23529
422.6034, 50.55007
423.0855, 50.08187
423.5677, 50.34984
424.0498, 51.67808
424.5319, 52.70898
425.0140, 53.18380
425.4961, 53.39647
425.9782, 53.63625
426.4604, 53.84512
426.9425, 54.18137
427.4246, 54.79927
427.9067, 55.61452
428.3888, 55.94230
428.8709, 55.52000
429.3531, 55.07469
429.8352, 55.06090
430.3173, 55.60245
430.7994, 55.92031
431.2815, 55.92778
431.7636, 55.81056
432.2458, 55.91154
432.7279, 56.24999
433.2100, 56.46648
433.6921, 56.39288
434.1742, 56.10443
434.6563, 55.86443
435.1385, 55.66954
435.6206, 55.51659
436.1027, 55.40385
436.5848, 55.33052
437.0669, 55.31803
437.5490, 55.41177
438.0312, 55.46437
438.5133, 55.17426
438.9954, 54.68797
439.4775, 54.41167
439.9596, 54.84577
440.4417, 55.39953
440.9239, 55.46663
441.4060, 55.01245
441.8881, 54.60088
442.3702, 54.49821
442.8523, 54.62339
443.3344, 54.90181
443.8166, 55.44002
444.2987, 55.97951
444.7808, 56.47992
445.2629, 56.92566
445.7450, 57.27470
446.2271, 57.33156
446.7093, 57.44333
447.1914, 57.74668
447.6735, 58.29053
448.1556, 58.89207
448.6377, 59.63672
449.1198, 60.37549
449.6020, 60.92371
450.0841, 61.05841
450.5662, 61.46008
451.0483, 62.32204
451.5304, 63.52855
452.0125, 64.51797
452.4947, 65.23316
452.9768, 65.93301
453.4589, 66.76766
453.9410, 67.74716
454.4231, 68.78909
454.9052, 69.95299
455.3874, 71.02242
455.8695, 71.64706
456.3516, 71.88982
456.8337, 72.20034
457.3158, 72.77785
457.7979, 73.46805
458.2801, 73.98736
458.7622, 74.35386
459.2443, 74.71062
459.7264, 75.26148
460.2085, 75.81776
460.6906, 76.12675
461.1728, 76.14509
461.6549, 75.95763
462.1370, 75.60287
462.6191, 75.08690
463.1012, 74.42365
463.5833, 73.53580
464.0655, 72.57822
464.5476, 71.57430
465.0297, 70.54466
465.5118, 69.60133
465.9939, 68.97762
466.4760, 68.31825
466.9582, 67.39328
467.4403, 65.75094
467.9224, 64.62239
468.4045, 64.53194
468.8866, 64.75512
469.3687, 64.18815
469.8509, 62.26539
470.3330, 60.60351
470.8151, 59.63240
471.2972, 59.28054
471.7793, 58.76568
472.2614, 57.99095
472.7436, 57.30528
473.2257, 57.10807
473.7078, 57.41353
474.1899, 57.11441
474.6720, 55.98002
475.1541, 54.62605
475.6363, 54.02154
476.1184, 54.06255
476.6005, 54.08228
477.0826, 53.73955
477.5647, 53.25988
478.0468, 53.03371
478.5290, 53.03880
479.0111, 53.07313
479.4932, 53.00804
479.9753, 52.88645
480.4574, 52.74905
480.9395, 52.59074
481.4217, 52.45856
481.9038, 52.34858
482.3859, 52.29197
482.8680, 52.33746
483.3501, 52.67056
483.8322, 52.94305
484.3144, 52.98167
484.7965, 52.80189
485.2786, 52.68583
485.7607, 52.67138
486.2428, 52.73453
486.7249, 52.87484
487.2071, 53.16903
487.6892, 53.36203
488.1713, 53.36053
488.6534, 53.32370
489.1355, 53.51163
489.6176, 54.02658
490.0998, 54.46735
490.5819, 54.71025
491.0640, 54.81163
491.5461, 55.08317
492.0282, 55.55596
492.5103, 55.98713
492.9925, 56.15682
493.4746, 56.12343
493.9567, 56.17430
494.4388, 56.33540
494.9209, 56.55488
495.4030, 56.82041
495.8852, 57.09937
496.3673, 57.32109
496.8494, 57.48994
497.3315, 57.55455
497.8136, 57.41677
498.2957, 57.11416
498.7779, 56.80964
499.2600, 56.58596
499.7421, 56.38886
500.2242, 56.19636
500.7063, 56.01971
501.1884, 55.77456
501.6706, 55.24094
502.1527, 54.71509
502.6348, 54.50666
503.1169, 55.07354
503.5990, 55.46526
504.0811, 55.63100
504.5633, 55.55539
505.0454, 55.11575
505.5275, 54.03585
506.0096, 53.08327
506.4917, 52.62337
506.9738, 52.70618
507.4560, 52.59098
507.9381, 52.21070
508.4202, 51.47032
508.9023, 51.71708
509.3844, 51.77723
509.8665, 51.66081
510.3487, 50.83890
510.8308, 50.92796
511.3129, 50.65197
511.7950, 50.36099
512.2772, 50.57823
512.7593, 49.85898
513.2414, 50.06819
513.7235, 49.90676
514.2056, 49.91497
514.6877, 49.55588
515.1699, 49.31017
515.6520, 49.43197
516.1341, 49.35029
516.6162, 48.95887
517.0983, 48.82630
517.5804, 48.29174
518.0626, 47.58631
518.5447, 47.08940
519.0268, 47.08381
519.5089, 47.05499
519.9910, 46.91373
520.4731, 46.66003
520.9553, 46.26702
521.4374, 45.60271
521.9195, 45.00294
522.4016, 44.69023
522.8837, 44.74031
523.3658, 44.68982
523.8480, 44.51564
524.3301, 44.28242
524.8122, 44.08774
525.2943, 43.92778
525.7764, 43.70739
526.2585, 43.36513
526.7407, 42.99025
527.2228, 42.76068
527.7049, 42.65316
528.1870, 42.53795
528.6691, 42.36570
529.1512, 42.12522
529.6334, 41.73833
530.1155, 41.18809
530.5976, 40.76674
531.0797, 40.72819
531.5618, 40.86108
532.0439, 40.95811
532.5261, 40.95050
533.0082, 40.92788
533.4903, 40.92986
533.9724, 40.93092
534.4545, 40.87661
534.9366, 40.75899
535.4188, 40.58459
535.9009, 40.28330
536.3830, 39.86444
536.8651, 39.78600
537.3472, 40.24412
537.8293, 40.65847
538.3115, 40.54026
538.7936, 39.82881
539.2757, 39.51267
539.7578, 39.72546
540.2399, 40.09899
540.7220, 40.13527
541.2042, 39.88274
541.6863, 39.62198
542.1684, 39.43154
542.6505, 39.28133
543.1326, 39.12746
543.6147, 38.97520
544.0969, 38.84191
544.5790, 38.78501
545.0611, 38.72243
545.5432, 38.54641
546.0253, 38.23977
546.5074, 38.02796
546.9896, 38.12428
547.4717, 38.29051
547.9538, 38.33509
548.4359, 38.19316
548.9180, 37.97001
549.4001, 37.54936
549.8823, 37.09002
550.3644, 36.88008
550.8465, 37.06778
551.3286, 37.22253
551.8107, 37.22849
552.2928, 37.10791
552.7750, 37.02195
553.2571, 36.97298
553.7392, 36.94458
554.2213, 36.96399
554.7034, 37.00759
555.1855, 36.89999
555.6677, 36.61133
556.1498, 36.33119
556.6319, 36.29619
557.1140, 36.41563
557.5961, 36.51133
558.0782, 36.55235
558.5604, 36.51916
559.0425, 36.38939
559.5246, 36.17379
560.0067, 35.89531
560.4888, 35.24594
560.9709, 34.82660
561.4531, 35.09889
561.9352, 36.06840
562.4173, 36.69167
562.8994, 36.52907
563.3815, 36.22724
563.8636, 36.11681
564.3458, 36.31889
564.8279, 36.38139
565.3100, 36.25811
565.7921, 36.05498
566.2742, 35.88667
566.7563, 35.74645
567.2385, 35.71059
567.7206, 35.83290
568.2027, 36.02275
568.6848, 36.07806
569.1669, 36.01168
569.6490, 35.91199
570.1312, 35.79463
570.6133, 35.68608
571.0954, 35.65342
571.5775, 35.68979
572.0596, 35.68284
572.5417, 35.48185
573.0239, 35.25070
573.5060, 35.13642
573.9881, 35.18624
574.4702, 35.29084
574.9523, 35.50278
575.4344, 35.72215
575.9166, 35.82021
576.3987, 35.71677
576.8808, 35.58540
577.3629, 35.38952
577.8450, 35.18385
578.3271, 35.17933
578.8093, 35.46208
579.2914, 35.68759
579.7735, 35.69103
580.2556, 35.50264
580.7377, 35.32805
581.2198, 35.16170
581.7020, 35.07778
582.1841, 35.24006
582.6662, 35.52142
583.1483, 35.58045
583.6304, 35.33399
584.1125, 35.07024
584.5947, 35.09992
585.0768, 35.26165
585.5589, 35.31531
586.0410, 34.97211
586.5231, 34.73886
587.0052, 34.96050
587.4873, 35.46443
587.9694, 35.78217
588.4515, 35.76864
588.9337, 35.61263
589.4158, 35.27024
589.8979, 34.73845
590.3800, 34.58746
590.8621, 35.00821
591.3442, 35.47240
591.8264, 35.61958
592.3085, 35.00107
592.7906, 35.44283
593.2727, 35.66521
593.7548, 35.68033
594.2369, 34.84988
594.7191, 35.12469
595.2012, 34.96477
595.6833, 34.79262
596.1654, 35.23973
596.6475, 34.56235
597.1296, 35.01143
597.6118, 35.01902
598.0939, 35.23719
598.5760, 35.01789
599.0581, 34.94136
599.5402, 35.31414
600.0223, 35.44722
600.5045, 35.20028
600.9866, 35.46655
601.4687, 34.83215
601.9508, 34.99908
602.4329, 35.51507
602.9150, 35.31964
603.3972, 35.62327
603.8793, 35.74489
604.3614, 35.01874
604.8435, 35.78297
605.3256, 35.20146
605.8077, 34.88506
606.2899, 34.82758
606.7720, 34.98424
607.2541, 35.15137
607.7362, 35.26407
608.2183, 35.33877
608.7004, 35.39635
609.1826, 35.43214
609.6647, 35.42810
610.1468, 35.32136
