##NAMES=Aurichalcite
##RRUFFID=R060426
##IDEAL CHEMISTRY=Zn^2+^_5_(CO_3_)_2_(OH)_6_
##LOCALITY=Bisbee, Cochise County, Arizona, USA
##OWNER=RRUFF
##SOURCE=Michael Scott
##DESCRIPTION=Divergent sprays of light blue lathlike crystals
##STATUS=The identification of this mineral is confirmed by single-crystal X-ray diffraction and chemical analysis.
##URL=rruff.info/R060426
##MEASURED CHEMISTRY=(Zn_3.61_Cu_1.33_Fe^2+^_0.06_)_Î£=5_(CO_3_)_2_(OH)_6_
172.0831, 40.29618
172.5652, 40.16670
173.0474, 40.44430
173.5295, 41.54751
174.0116, 42.26726
174.4937, 41.23029
174.9758, 38.44019
175.4579, 36.24309
175.9401, 36.18939
176.4222, 37.02633
176.9043, 37.41358
177.3864, 37.02790
177.8685, 36.34866
178.3506, 35.96350
178.8328, 35.92686
179.3149, 35.99875
179.7970, 36.30608
180.2791, 36.58646
180.7612, 36.58235
181.2433, 36.18298
181.7255, 35.52502
182.2076, 34.82878
182.6897, 33.81561
183.1718, 33.33278
183.6539, 33.97770
184.1360, 34.97093
184.6181, 35.46734
185.1003, 35.03762
185.5824, 33.97275
186.0645, 33.30679
186.5466, 33.30970
187.0287, 33.43118
187.5108, 33.79848
187.9930, 34.18782
188.4751, 34.29501
188.9572, 33.93653
189.4393, 33.21223
189.9214, 32.68026
190.4035, 32.30779
190.8857, 32.16365
191.3678, 32.58568
191.8499, 33.22525
192.3320, 33.41346
192.8141, 32.67086
193.2962, 31.19392
193.7784, 30.53670
194.2605, 30.96903
194.7426, 31.69945
195.2247, 32.90233
195.7068, 34.26990
196.1889, 34.87501
196.6711, 33.90856
197.1532, 31.80611
197.6353, 30.84683
198.1174, 31.71353
198.5995, 32.95686
199.0816, 34.05202
199.5638, 34.95275
200.0459, 35.30725
200.5280, 34.60596
201.0101, 33.27906
201.4922, 32.64851
201.9743, 33.27250
202.4565, 34.08372
202.9386, 34.16435
203.4207, 33.49970
203.9028, 32.65156
204.3849, 31.55464
204.8670, 30.60242
205.3492, 30.44651
205.8313, 31.52929
206.3134, 33.02918
206.7955, 33.90705
207.2776, 34.03982
207.7597, 34.12116
208.2419, 34.76818
208.7240, 35.41380
209.2061, 35.38787
209.6882, 34.32526
210.1703, 32.81343
210.6524, 31.87994
211.1346, 31.72976
211.6167, 31.66005
212.0988, 31.46236
212.5809, 31.22195
213.0630, 31.00855
213.5451, 30.84697
214.0273, 30.74260
214.5094, 30.69730
214.9915, 30.65627
215.4736, 30.79739
215.9557, 31.48546
216.4378, 32.19987
216.9200, 32.31273
217.4021, 31.52307
217.8842, 30.25180
218.3663, 29.71223
218.8484, 30.59177
219.3305, 31.25353
219.8127, 31.50080
220.2948, 31.45765
220.7769, 31.18209
221.2590, 30.69989
221.7411, 30.14824
222.2232, 29.93700
222.7054, 30.46782
223.1875, 30.88452
223.6696, 31.09116
224.1517, 31.17565
224.6338, 31.26144
225.1159, 31.40519
225.5980, 31.53950
226.0802, 31.46395
226.5623, 30.69670
227.0444, 30.29698
227.5265, 30.79962
228.0086, 31.58343
228.4907, 31.70899
228.9729, 30.74464
229.4550, 29.25471
229.9371, 28.76468
230.4192, 30.19176
230.9013, 31.12397
231.3834, 30.79081
231.8656, 29.82999
232.3477, 29.19694
232.8298, 29.27649
233.3119, 29.75772
233.7940, 29.97920
234.2761, 29.88361
234.7583, 29.74622
235.2404, 29.65250
235.7225, 29.55843
236.2046, 29.36296
236.6867, 29.00482
237.1688, 28.60135
237.6510, 28.30599
238.1331, 28.05612
238.6152, 28.09180
239.0973, 28.68400
239.5794, 29.60953
240.0615, 30.46920
240.5437, 31.27556
241.0258, 31.72947
241.5079, 31.17852
241.9900, 29.62179
242.4721, 28.43347
242.9542, 28.55958
243.4364, 29.49582
243.9185, 29.90891
244.4006, 29.39681
244.8827, 28.56807
245.3648, 27.99581
245.8469, 27.65328
246.3290, 27.41303
246.8112, 27.21387
247.2933, 27.06980
247.7754, 27.03197
248.2575, 27.14559
248.7396, 27.30688
249.2217, 27.45453
249.7039, 27.58453
250.1860, 27.67699
250.6681, 27.82829
251.1502, 27.95248
251.6323, 27.64775
252.1144, 26.55274
252.5966, 25.60196
253.0787, 25.43801
253.5608, 25.81394
254.0429, 26.17887
254.5250, 26.19210
255.0071, 25.95020
255.4893, 25.83086
255.9714, 25.88890
256.4535, 25.99170
256.9356, 26.13211
257.4177, 26.26278
257.8998, 26.27622
258.3820, 26.01515
258.8641, 25.63982
259.3462, 25.78685
259.8283, 26.92072
260.3104, 27.81034
260.7925, 28.06346
261.2747, 27.88169
261.7568, 27.50721
262.2389, 27.03644
262.7210, 26.48960
263.2031, 25.89197
263.6852, 25.09899
264.1674, 24.52135
264.6495, 24.41210
265.1316, 24.46701
265.6137, 24.27706
266.0958, 23.64098
266.5779, 22.89844
267.0601, 22.90859
267.5422, 24.14491
268.0243, 25.32306
268.5064, 26.46671
268.9885, 27.37207
269.4706, 27.77485
269.9528, 27.59584
270.4349, 27.10086
270.9170, 26.79550
271.3991, 26.80444
271.8812, 26.76797
272.3633, 26.47330
272.8455, 26.24585
273.3276, 26.50058
273.8097, 27.26897
274.2918, 28.05152
274.7739, 27.96443
275.2560, 26.14806
275.7382, 25.32792
276.2202, 26.30701
276.7024, 27.46482
277.1845, 27.61076
277.6666, 26.68696
278.1487, 25.63505
278.6308, 25.72255
279.1129, 27.62395
279.5951, 28.28275
280.0772, 26.35061
280.5593, 24.55961
281.0414, 24.72851
281.5235, 26.59899
282.0056, 28.45365
282.4878, 28.52962
282.9699, 26.43115
283.4520, 25.44249
283.9341, 26.60511
284.4162, 27.69386
284.8983, 27.71607
285.3805, 26.87730
285.8626, 25.92370
286.3447, 25.41749
286.8268, 25.35360
287.3089, 25.32901
287.7910, 25.51177
288.2732, 25.55377
288.7553, 25.08588
289.2374, 24.41805
289.7195, 24.17996
290.2016, 24.78773
290.6837, 26.05117
291.1659, 26.92598
291.6480, 27.10861
292.1301, 27.25471
292.6122, 27.72746
293.0943, 28.16095
293.5764, 27.77773
294.0586, 26.17566
294.5407, 24.12180
295.0228, 23.69647
295.5049, 27.37582
295.9870, 29.69519
296.4691, 29.76787
296.9513, 28.68815
297.4334, 27.44317
297.9155, 26.38332
298.3976, 25.54095
298.8797, 24.97332
299.3618, 24.72057
299.8440, 24.74320
300.3261, 25.26102
300.8082, 25.90931
301.2903, 26.40093
301.7724, 26.68030
302.2545, 26.87808
302.7367, 27.15737
303.2188, 27.57081
303.7009, 27.83587
304.1830, 27.90379
304.6651, 27.88069
305.1472, 27.62985
305.6294, 27.26911
306.1115, 27.33603
306.5936, 28.45042
307.0757, 30.72585
307.5578, 31.58790
308.0399, 29.98194
308.5221, 28.28365
309.0042, 27.51916
309.4863, 27.51484
309.9684, 27.65567
310.4505, 27.54877
310.9326, 27.25314
311.4148, 27.19211
311.8969, 27.33814
312.3790, 27.70480
312.8611, 28.68091
313.3432, 29.81226
313.8253, 30.29401
314.3075, 29.72311
314.7896, 28.52936
315.2717, 27.81370
315.7538, 28.11836
316.2359, 28.11588
316.7180, 27.41085
317.2001, 26.47627
317.6823, 25.81958
318.1644, 25.58616
318.6465, 25.61043
319.1286, 25.65115
319.6107, 25.69409
320.0928, 25.80015
320.5750, 26.02921
321.0571, 26.27831
321.5392, 26.46401
322.0213, 26.57953
322.5034, 26.69223
322.9855, 26.89587
323.4677, 27.23836
323.9498, 27.25617
324.4319, 26.71246
324.9140, 26.11746
325.3961, 25.64968
325.8782, 25.34048
326.3604, 25.23385
326.8425, 25.40587
327.3246, 25.80499
327.8067, 25.83204
328.2888, 25.02703
328.7709, 24.42612
329.2531, 24.51609
329.7352, 24.94616
330.2173, 25.06571
330.6994, 24.54544
331.1815, 23.70977
331.6636, 23.43806
332.1458, 24.49390
332.6279, 25.18756
333.1100, 25.47764
333.5921, 25.37782
334.0742, 24.69815
334.5563, 23.44776
335.0385, 22.14438
335.5206, 21.58469
336.0027, 22.20142
336.4848, 22.47371
336.9669, 22.15698
337.4490, 21.73005
337.9312, 21.42215
338.4133, 21.29052
338.8954, 21.37140
339.3775, 21.72965
339.8596, 22.40283
340.3417, 22.88808
340.8239, 23.01510
341.3060, 23.15703
341.7881, 23.63214
342.2702, 24.21684
342.7523, 24.40587
343.2344, 23.85636
343.7166, 22.74854
344.1987, 21.96462
344.6808, 21.53202
345.1629, 21.44374
345.6450, 22.00471
346.1271, 22.79103
346.6093, 23.36430
347.0914, 23.55668
347.5735, 23.46799
348.0556, 23.26647
348.5377, 22.86174
349.0198, 22.50217
349.5020, 22.23183
349.9841, 21.96809
350.4662, 21.58270
350.9483, 21.10879
351.4304, 20.75644
351.9125, 20.78466
352.3947, 21.26492
352.8768, 21.64841
353.3589, 21.90198
353.8410, 22.09265
354.3231, 22.29560
354.8052, 22.45160
355.2874, 22.41203
355.7695, 22.04175
356.2516, 21.42718
356.7337, 21.05834
357.2158, 21.08790
357.6979, 21.17823
358.1800, 21.37304
358.6621, 21.54789
359.1443, 21.46593
359.6264, 21.03963
360.1085, 20.62141
360.5906, 21.02026
361.0727, 22.89739
361.5548, 23.83509
362.0370, 22.78571
362.5191, 21.39956
363.0012, 20.61752
363.4833, 20.54594
363.9654, 20.80006
364.4475, 21.01517
364.9297, 21.18181
365.4118, 21.48166
365.8939, 22.16739
366.3760, 22.70224
366.8581, 22.80482
367.3402, 22.60396
367.8224, 22.34768
368.3045, 22.11336
368.7866, 21.97814
369.2687, 22.32265
369.7508, 23.64460
370.2329, 24.30981
370.7151, 23.18704
371.1972, 21.47108
371.6793, 20.25631
372.1614, 19.86451
372.6435, 20.01535
373.1256, 20.61101
373.6078, 21.71752
374.0899, 22.27335
374.5720, 21.44819
375.0541, 20.53997
375.5362, 20.60328
376.0183, 21.57873
376.5005, 22.59198
376.9826, 23.04472
377.4647, 23.07217
377.9468, 23.24025
378.4289, 23.75587
378.9110, 24.01678
379.3932, 23.21044
379.8753, 21.89634
380.3574, 21.18766
380.8395, 21.74040
381.3216, 22.76416
381.8037, 23.31722
382.2859, 23.39353
382.7680, 23.37982
383.2501, 23.47924
383.7322, 23.54609
384.2143, 23.32977
384.6964, 22.73332
385.1786, 22.18605
385.6607, 21.95089
386.1428, 21.95604
386.6249, 22.05328
387.1070, 22.25935
387.5891, 22.40518
388.0713, 22.13964
388.5534, 21.50999
389.0355, 21.23509
389.5176, 21.80087
389.9997, 22.57543
390.4818, 23.08444
390.9640, 23.27008
391.4461, 22.82897
391.9282, 21.23452
392.4103, 18.87581
392.8924, 17.78521
393.3745, 19.00958
393.8567, 20.23607
394.3388, 20.48190
394.8209, 20.10168
395.3030, 19.76924
395.7851, 19.73418
396.2672, 19.83874
396.7494, 19.79568
397.2315, 19.49958
397.7136, 19.30870
398.1957, 19.42834
398.6778, 19.52988
399.1599, 19.21937
399.6420, 18.53290
400.1241, 17.95678
400.6063, 17.97546
401.0884, 18.61940
401.5705, 18.80076
402.0526, 18.28737
402.5347, 17.64323
403.0168, 16.67393
403.4990, 15.76065
403.9811, 15.57964
404.4632, 16.46457
404.9453, 17.98260
405.4274, 19.10705
405.9095, 19.78212
406.3917, 20.09338
406.8738, 19.83717
407.3559, 19.41304
407.8380, 19.08504
408.3201, 18.89288
408.8022, 18.72454
409.2844, 18.41855
409.7665, 17.94708
410.2486, 17.82663
410.7307, 18.47355
411.2128, 19.03237
411.6949, 19.34391
412.1771, 19.38257
412.6592, 19.09705
413.1413, 18.42562
413.6234, 17.54080
414.1055, 16.76377
414.5876, 16.02839
415.0698, 15.59906
415.5519, 15.77549
416.0340, 16.12547
416.5161, 16.33362
416.9982, 16.37487
417.4803, 16.50006
417.9625, 17.13450
418.4446, 18.13701
418.9267, 18.45311
419.4088, 17.63818
419.8909, 16.80404
420.3730, 16.65006
420.8552, 16.99312
421.3373, 17.52676
421.8194, 18.31860
422.3015, 19.07979
422.7836, 19.57736
423.2657, 19.80569
423.7479, 19.37514
424.2300, 17.62215
424.7121, 15.58436
425.1942, 14.89028
425.6763, 15.73320
426.1584, 16.84406
426.6406, 18.01721
427.1227, 19.01268
427.6048, 19.31829
428.0869, 18.81947
428.5690, 18.05003
429.0511, 17.39137
429.5333, 16.87406
430.0154, 16.70624
430.4975, 17.18106
430.9796, 17.73043
431.4617, 18.18273
431.9438, 18.46034
432.4260, 18.29552
432.9081, 17.49472
433.3902, 16.45102
433.8723, 16.13489
434.3544, 17.49036
434.8365, 17.99697
435.3187, 16.44780
435.8008, 14.76614
436.2829, 14.79196
436.7650, 16.55043
437.2471, 18.63444
437.7292, 19.77377
438.2114, 19.95850
438.6935, 19.73337
439.1756, 18.48136
439.6577, 17.50201
440.1398, 17.10433
440.6219, 17.15212
441.1040, 17.56360
441.5862, 18.29906
442.0683, 19.06505
442.5504, 19.20663
443.0325, 18.34843
443.5146, 18.02550
443.9967, 19.01043
444.4789, 20.02500
444.9610, 20.42090
445.4431, 20.23090
445.9252, 19.81998
446.4073, 19.38070
446.8894, 18.93570
447.3716, 18.54994
447.8537, 18.17411
448.3358, 17.98424
448.8179, 18.54187
449.3000, 19.11632
449.7821, 18.68715
450.2643, 16.81699
450.7464, 15.02777
451.2285, 14.81961
451.7106, 15.89903
452.1927, 16.80395
452.6748, 17.19590
453.1570, 17.44935
453.6391, 17.98214
454.1212, 18.72376
454.6033, 19.33903
455.0854, 19.80291
455.5675, 20.06698
456.0497, 20.02643
456.5318, 19.71794
457.0139, 19.33186
457.4960, 18.92607
457.9781, 18.55154
458.4602, 18.36451
458.9424, 18.43254
459.4245, 18.50793
459.9066, 18.72920
460.3887, 18.83582
460.8708, 18.41739
461.3529, 17.48572
461.8351, 16.57004
462.3172, 16.17092
462.7993, 16.30678
463.2814, 16.47069
463.7635, 16.72106
464.2456, 16.93060
464.7278, 17.03607
465.2099, 17.09326
465.6920, 17.15494
466.1741, 17.24557
466.6562, 17.40918
467.1383, 17.84002
467.6205, 18.87429
468.1026, 19.12552
468.5847, 17.65039
469.0668, 16.18530
469.5489, 15.38498
470.0310, 15.24893
470.5132, 15.64555
470.9953, 16.71113
471.4774, 18.04714
471.9595, 18.55097
472.4416, 18.01377
472.9237, 17.41845
473.4059, 16.99212
473.8880, 16.73999
474.3701, 16.69920
474.8522, 16.87848
475.3343, 17.15543
475.8164, 17.52188
476.2986, 17.92024
476.7807, 18.25092
477.2628, 18.52785
477.7449, 18.58994
478.2270, 18.23295
478.7091, 17.53882
479.1913, 16.89979
479.6734, 16.24523
480.1555, 15.74993
480.6376, 15.56696
481.1197, 15.60306
481.6018, 15.68701
482.0839, 15.76900
482.5660, 15.81120
483.0482, 15.73380
483.5303, 15.44478
484.0124, 15.40392
484.4945, 15.63472
484.9766, 16.07277
485.4587, 16.96407
485.9409, 18.03328
486.4230, 18.62548
486.9051, 18.34854
487.3872, 17.52744
487.8693, 17.12086
488.3514, 17.43106
488.8336, 17.58907
489.3157, 17.51389
489.7978, 17.30680
490.2799, 16.98202
490.7620, 16.57595
491.2441, 16.16325
491.7263, 15.67980
492.2084, 15.24718
492.6905, 15.61184
493.1726, 17.26174
493.6547, 18.53030
494.1368, 18.37664
494.6190, 17.66207
495.1011, 17.19766
495.5832, 17.13256
496.0653, 17.24577
496.5474, 17.53045
497.0295, 17.86826
497.5117, 17.73472
497.9938, 16.87815
498.4759, 16.31337
498.9580, 17.26825
499.4401, 19.33940
499.9222, 20.33673
500.4044, 19.20910
500.8865, 17.93298
501.3686, 17.67975
501.8507, 17.99412
502.3328, 17.75125
502.8149, 16.54032
503.2971, 15.30549
503.7792, 15.51688
504.2613, 17.92557
504.7434, 19.03866
505.2255, 17.72048
505.7076, 16.37578
506.1898, 16.29618
506.6719, 17.05721
507.1540, 17.64595
507.6361, 17.52984
508.1182, 16.96338
508.6003, 16.50226
509.0825, 16.11833
509.5646, 15.91601
510.0467, 16.13063
510.5288, 16.33725
511.0109, 16.24141
511.4930, 15.91300
511.9752, 15.65462
512.4573, 15.64623
512.9394, 15.83945
513.4215, 16.27847
513.9036, 17.08597
514.3857, 17.31602
514.8679, 16.01446
515.3500, 14.38975
515.8321, 14.11719
516.3142, 15.38591
516.7963, 16.55496
517.2784, 16.85365
517.7606, 16.67183
518.2427, 16.44753
518.7248, 16.24090
519.2069, 16.27349
519.6890, 16.85547
520.1711, 17.73881
520.6533, 17.63031
521.1354, 15.40947
521.6175, 13.84753
522.0996, 13.74311
522.5817, 14.31159
523.0638, 14.89182
523.5460, 15.31341
524.0281, 15.60902
524.5102, 15.79607
524.9923, 15.87700
525.4744, 15.97206
525.9565, 16.48796
526.4387, 16.44554
526.9208, 15.09329
527.4029, 13.40481
527.8850, 12.39578
528.3671, 12.31803
528.8492, 12.69947
529.3314, 13.09512
529.8135, 13.51850
530.2956, 14.18192
530.7777, 15.29521
531.2598, 16.23189
531.7419, 16.62030
532.2241, 16.56938
532.7062, 16.10061
533.1883, 14.84792
533.6704, 13.93312
534.1525, 14.52430
534.6346, 15.98491
535.1168, 16.75363
535.5989, 16.44226
536.0810, 15.81436
536.5631, 15.67970
537.0452, 16.06850
537.5273, 15.93369
538.0095, 14.46635
538.4916, 13.42457
538.9737, 13.76240
539.4558, 14.83067
539.9379, 15.73201
540.4200, 16.14972
540.9022, 16.18051
541.3843, 15.84893
541.8664, 14.99359
542.3485, 14.69886
542.8306, 15.69591
543.3127, 16.47344
543.7948, 16.58804
544.2769, 16.16992
544.7590, 15.29098
545.2411, 13.89190
545.7233, 12.64058
546.2054, 12.63415
546.6875, 13.76153
547.1696, 14.29033
547.6517, 13.67023
548.1339, 12.95771
548.6160, 13.15729
549.0981, 13.98616
549.5802, 14.69320
550.0623, 15.13887
550.5444, 15.42507
551.0266, 15.55330
551.5087, 15.57747
551.9908, 15.66806
552.4729, 15.88470
552.9550, 16.01402
553.4371, 15.78228
553.9193, 15.13535
554.4014, 14.42328
554.8835, 13.15028
555.3656, 12.36433
555.8477, 12.69294
556.3298, 13.66485
556.8120, 14.65862
557.2941, 15.43423
557.7762, 15.96927
558.2583, 16.30922
558.7404, 16.50603
559.2225, 15.96539
559.7047, 13.56942
560.1868, 11.92217
560.6689, 12.99143
561.1510, 15.34900
561.6331, 16.45275
562.1152, 15.18982
562.5974, 13.49201
563.0795, 13.22058
563.5616, 14.01242
564.0437, 14.60709
564.5258, 14.78901
565.0079, 14.57462
565.4901, 13.78580
565.9722, 12.48558
566.4543, 11.79845
566.9364, 11.94897
567.4185, 12.44598
567.9006, 13.53550
568.3828, 14.69318
568.8649, 14.96731
569.3470, 14.20836
569.8291, 13.46777
570.3112, 14.13070
570.7933, 16.34870
571.2755, 17.23611
571.7576, 15.35611
572.2397, 13.92492
572.7218, 14.16129
573.2039, 15.00725
573.6860, 15.12413
574.1682, 14.20115
574.6503, 13.30966
575.1324, 13.72970
575.6145, 15.09526
576.0966, 15.72952
576.5787, 15.41526
577.0609, 14.81052
577.5430, 14.16702
578.0251, 13.55360
578.5072, 13.08909
578.9893, 12.68242
579.4714, 12.63605
579.9536, 13.26928
580.4357, 14.21957
580.9178, 15.19826
581.3999, 16.09252
581.8820, 16.64037
582.3641, 16.63264
582.8463, 16.11287
583.3284, 15.32856
583.8105, 14.00958
584.2926, 12.80652
584.7747, 11.29704
585.2568, 10.26096
585.7390, 10.66922
586.2211, 12.25887
586.7032, 13.66186
587.1853, 13.86117
587.6674, 13.20837
588.1495, 12.52337
588.6317, 11.73801
589.1138, 11.35819
589.5959, 11.68675
590.0780, 12.37450
590.5601, 13.07773
591.0422, 13.79654
591.5244, 14.30613
592.0065, 14.42362
592.4886, 14.39048
592.9707, 14.38335
593.4528, 14.40970
593.9349, 14.45956
594.4171, 14.52964
594.8992, 14.62018
595.3813, 14.77699
595.8634, 15.22618
596.3455, 15.03833
596.8276, 13.26642
597.3098, 11.93946
597.7919, 12.29871
598.2740, 13.58488
598.7561, 14.43984
599.2382, 14.30068
599.7203, 13.78808
600.2025, 13.75948
600.6846, 14.19783
601.1667, 14.46521
601.6488, 14.46754
602.1309, 14.35404
602.6130, 14.08187
603.0952, 13.78504
603.5773, 13.76955
604.0594, 14.17415
604.5415, 14.67333
605.0236, 15.28733
605.5057, 15.82053
605.9879, 15.83807
606.4700, 15.32581
606.9521, 14.89665
607.4342, 15.14269
607.9163, 15.89238
608.3984, 15.81948
608.8806, 14.01162
609.3627, 12.61697
609.8448, 11.74239
610.3269, 11.38582
610.8090, 11.75807
611.2911, 12.70311
611.7733, 13.65340
612.2554, 14.28072
612.7375, 14.58948
613.2196, 14.42992
613.7017, 13.72004
614.1838, 13.46231
614.6660, 14.23933
615.1481, 15.25014
615.6302, 15.40355
616.1123, 14.77365
616.5944, 14.56495
617.0765, 15.52622
617.5587, 16.50751
618.0408, 16.71820
618.5229, 16.35526
619.0050, 15.87936
619.4871, 15.45471
619.9692, 15.00694
620.4514, 14.39803
620.9335, 13.56103
621.4156, 13.05493
621.8977, 12.91499
622.3798, 13.09546
622.8619, 13.92071
623.3441, 14.88915
623.8262, 15.44578
624.3083, 15.45691
624.7904, 15.14080
625.2725, 14.41837
625.7546, 13.53698
626.2367, 13.28587
626.7188, 13.75700
627.2009, 14.23951
627.6830, 14.39892
628.1652, 14.31168
628.6473, 14.06775
629.1294, 13.48507
629.6115, 13.33308
630.0936, 14.54248
630.5757, 15.52089
631.0579, 14.48901
631.5400, 12.24709
632.0221, 11.10343
632.5042, 12.25465
632.9863, 14.57349
633.4684, 16.13407
633.9506, 16.99782
634.4327, 16.71524
634.9148, 13.98001
635.3969, 11.73469
635.8790, 11.66897
636.3611, 12.95592
636.8433, 14.23392
637.3254, 15.22567
637.8075, 15.95394
638.2896, 16.55365
638.7717, 16.86350
639.2538, 16.32847
639.7360, 14.91617
640.2181, 13.69731
640.7002, 13.45195
641.1823, 13.97028
641.6644, 14.40184
642.1465, 14.92853
642.6287, 15.09057
643.1108, 14.61003
643.5929, 14.00016
644.0750, 13.41629
644.5571, 13.00318
645.0392, 13.08742
645.5214, 13.96369
646.0035, 15.04431
646.4856, 15.14867
646.9677, 14.28271
647.4498, 13.99876
647.9319, 14.84181
648.4141, 15.74467
648.8962, 15.73647
649.3783, 15.04594
649.8604, 14.53020
650.3425, 14.20592
650.8246, 14.13174
651.3068, 14.64102
651.7889, 15.25257
652.2710, 15.24508
652.7531, 14.61875
653.2352, 14.04058
653.7173, 14.04794
654.1995, 14.49238
654.6816, 14.80744
655.1637, 15.14770
655.6458, 14.98309
656.1279, 13.41608
656.6100, 12.00268
657.0922, 11.75045
657.5743, 12.44431
658.0564, 13.24273
658.5385, 13.99276
659.0206, 14.48443
659.5027, 14.30782
659.9849, 13.71392
660.4670, 13.41023
660.9491, 13.56112
661.4312, 14.00243
661.9133, 14.70803
662.3954, 15.61125
662.8776, 15.75266
663.3597, 13.77736
663.8418, 12.82532
664.3239, 14.07993
664.8060, 15.80569
665.2881, 16.77524
665.7703, 16.85457
666.2524, 16.27213
666.7345, 14.81771
667.2166, 13.32246
667.6987, 13.79615
