##NAMES=Aurostibite
##RRUFFID=R060923
##IDEAL CHEMISTRY=AuSb_2_
##LOCALITY=Krásná Hora, Czech Republic
##OWNER=RRUFF
##SOURCE=Michael Scott
##DESCRIPTION=Gray massive crystals tarnished to gold color
##STATUS=The identification of this mineral is confirmed by single-crystal X-ray diffraction and chemical analysis.
##URL=rruff.info/R060923
##MEASURED CHEMISTRY=Au_0.99_Sb_2.00_
99.82780, 84.88095
100.3099, 86.73737
100.7920, 87.67250
101.2742, 87.71352
101.7563, 87.41102
102.2384, 86.05116
102.7205, 85.27464
103.2026, 87.62900
103.6847, 94.59345
104.1668, 101.4837
104.6490, 106.1724
105.1311, 106.6516
105.6132, 110.9350
106.0953, 119.9075
106.5774, 132.6282
107.0595, 146.8514
107.5417, 165.0899
108.0238, 182.4231
108.5059, 196.4416
108.9880, 199.8194
109.4701, 208.7144
109.9522, 224.7911
110.4344, 247.6652
110.9165, 271.8181
111.3986, 296.6253
111.8807, 322.9636
112.3628, 351.1877
112.8449, 379.3996
113.3271, 411.2491
113.8092, 448.6996
114.2913, 492.0634
114.7734, 536.8134
115.2555, 582.2998
115.7376, 628.2660
116.2198, 673.5159
116.7019, 719.4343
117.1840, 763.1781
117.6661, 803.7624
118.1482, 840.5784
118.6303, 874.9585
119.1124, 905.6684
119.5946, 934.0754
120.0767, 962.9034
120.5588, 994.0745
121.0409, 1025.822
121.5230, 1056.330
122.0051, 1082.119
122.4873, 1110.681
122.9694, 1151.202
123.4515, 1201.557
123.9336, 1249.657
124.4157, 1288.204
124.8979, 1318.846
125.3800, 1344.100
125.8621, 1362.297
126.3442, 1377.039
126.8263, 1393.177
127.3084, 1410.629
127.7905, 1428.429
128.2727, 1446.010
128.7548, 1463.172
129.2369, 1478.885
129.7190, 1490.139
130.2011, 1499.455
130.6832, 1515.765
131.1654, 1541.014
131.6475, 1567.674
132.1296, 1582.252
132.6117, 1585.335
133.0938, 1591.703
133.5759, 1611.905
134.0581, 1644.872
134.5402, 1673.383
135.0223, 1693.699
135.5044, 1711.687
135.9865, 1742.358
136.4686, 1787.021
136.9508, 1836.676
137.4329, 1883.155
137.9150, 1924.236
138.3971, 1976.254
138.8792, 2043.311
139.3613, 2123.543
139.8434, 2206.885
140.3256, 2294.861
140.8077, 2384.627
141.2898, 2473.716
141.7719, 2557.902
142.2540, 2651.446
142.7361, 2759.957
143.2183, 2886.365
143.7004, 3000.630
144.1825, 3092.561
144.6646, 3180.389
145.1467, 3287.042
145.6288, 3425.803
146.1110, 3565.797
146.5931, 3698.310
147.0752, 3822.370
147.5573, 3944.329
148.0394, 4059.600
148.5215, 4172.702
149.0037, 4295.652
149.4858, 4448.313
149.9679, 4591.249
150.4500, 4713.255
150.9321, 4828.067
151.4142, 4901.330
151.8964, 4938.609
152.3785, 4936.177
152.8606, 4880.222
153.3427, 4745.849
153.8248, 4574.819
154.3069, 4388.808
154.7890, 4168.719
155.2712, 3954.413
155.7533, 3746.183
156.2354, 3546.864
156.7175, 3365.984
157.1996, 3205.950
157.6817, 3062.901
158.1639, 2933.210
158.6460, 2818.377
159.1281, 2714.274
159.6102, 2618.937
160.0923, 2532.124
160.5744, 2457.165
161.0566, 2401.567
161.5387, 2356.312
162.0208, 2311.402
162.5029, 2257.095
162.9850, 2207.116
163.4671, 2170.597
163.9493, 2150.741
164.4314, 2130.496
164.9135, 2096.760
165.3956, 2057.907
165.8777, 2027.457
166.3598, 2019.134
166.8420, 2016.743
167.3241, 2007.485
167.8062, 1986.853
168.2883, 1968.174
168.7704, 1960.064
169.2525, 1960.555
169.7346, 1964.727
170.2168, 1972.494
170.6989, 1981.534
171.1810, 1989.400
171.6631, 1995.268
172.1452, 2000.612
172.6273, 2008.807
173.1095, 2018.427
173.5916, 2023.813
174.0737, 2018.388
174.5558, 2006.979
175.0379, 1996.870
175.5201, 1990.406
176.0022, 1985.178
176.4843, 1976.382
176.9664, 1964.812
177.4485, 1957.445
177.9306, 1961.827
178.4128, 1974.419
178.8949, 1987.690
179.3770, 1998.577
179.8591, 2009.258
180.3412, 2023.675
180.8233, 2041.989
181.3055, 2061.364
181.7876, 2079.168
182.2697, 2095.866
182.7518, 2113.697
183.2339, 2133.347
183.7160, 2154.668
184.1982, 2177.011
184.6803, 2200.416
185.1624, 2224.301
185.6445, 2250.053
186.1266, 2276.672
186.6087, 2299.626
187.0908, 2314.575
187.5730, 2323.676
188.0551, 2335.000
188.5372, 2349.318
189.0193, 2364.148
189.5014, 2383.645
189.9835, 2406.939
190.4657, 2410.663
190.9478, 2375.852
191.4299, 2307.173
191.9120, 2240.150
192.3941, 2176.457
192.8762, 2115.299
193.3584, 2055.941
193.8405, 1998.744
194.3226, 1941.257
194.8047, 1879.824
195.2868, 1814.934
195.7689, 1759.739
196.2511, 1715.484
196.7332, 1680.402
197.2153, 1651.844
197.6974, 1630.281
198.1795, 1611.008
198.6616, 1591.352
199.1438, 1571.103
199.6259, 1551.304
200.1080, 1531.926
200.5901, 1513.064
201.0722, 1494.980
201.5543, 1477.152
202.0364, 1461.604
202.5186, 1450.918
203.0007, 1445.895
203.4828, 1438.949
203.9649, 1428.220
204.4470, 1414.662
204.9291, 1402.459
205.4113, 1390.569
205.8934, 1382.436
206.3755, 1383.339
206.8576, 1396.318
207.3397, 1403.132
207.8218, 1398.689
208.3040, 1384.568
208.7861, 1375.068
209.2682, 1371.882
209.7503, 1370.334
210.2324, 1366.150
210.7145, 1358.906
211.1967, 1350.598
211.6788, 1339.730
212.1609, 1326.690
212.6430, 1324.579
213.1251, 1338.846
213.6072, 1356.038
214.0894, 1361.557
214.5715, 1351.445
215.0536, 1340.422
215.5357, 1331.208
216.0178, 1323.648
216.4999, 1320.178
216.9820, 1322.843
217.4642, 1327.136
217.9463, 1326.971
218.4284, 1319.203
218.9105, 1314.431
219.3926, 1317.256
219.8747, 1329.377
220.3569, 1333.419
220.8390, 1325.745
221.3211, 1313.284
221.8032, 1305.037
222.2853, 1302.362
222.7674, 1301.377
223.2496, 1301.097
223.7317, 1301.504
224.2138, 1303.078
224.6959, 1306.670
225.1780, 1310.856
225.6601, 1313.686
226.1423, 1315.177
226.6244, 1315.201
227.1065, 1313.070
227.5886, 1307.532
228.0707, 1304.975
228.5528, 1306.428
229.0350, 1310.194
229.5171, 1313.681
229.9992, 1318.088
230.4813, 1320.180
230.9634, 1317.996
231.4455, 1308.930
231.9276, 1304.317
232.4098, 1306.352
232.8919, 1311.794
233.3740, 1314.271
233.8561, 1312.718
234.3382, 1310.009
234.8203, 1307.143
235.3025, 1304.421
235.7846, 1300.387
236.2667, 1292.601
236.7488, 1284.516
237.2309, 1284.474
237.7130, 1299.222
238.1952, 1311.623
238.6773, 1314.410
239.1594, 1302.923
239.6415, 1294.551
240.1236, 1291.126
240.6057, 1290.164
241.0879, 1284.732
241.5700, 1267.452
242.0521, 1256.954
242.5342, 1262.839
243.0163, 1296.645
243.4984, 1318.234
243.9806, 1322.972
244.4627, 1316.852
244.9448, 1314.318
245.4269, 1318.397
245.9090, 1321.435
246.3911, 1319.530
246.8732, 1308.492
247.3554, 1302.610
247.8375, 1303.009
248.3196, 1308.196
248.8017, 1314.689
249.2838, 1322.884
249.7659, 1331.668
250.2481, 1341.332
250.7302, 1354.585
251.2123, 1361.842
251.6944, 1360.317
252.1765, 1353.850
252.6586, 1352.115
253.1408, 1358.015
253.6229, 1364.074
254.1050, 1366.843
254.5871, 1364.383
255.0692, 1363.904
255.5513, 1366.417
256.0334, 1370.568
256.5156, 1372.914
256.9977, 1372.372
257.4798, 1371.891
257.9619, 1373.112
258.4440, 1377.425
258.9261, 1379.121
259.4083, 1376.839
259.8904, 1372.469
260.3725, 1370.433
260.8546, 1370.646
261.3367, 1373.245
261.8188, 1379.022
262.3010, 1389.892
262.7831, 1397.569
263.2652, 1400.929
263.7473, 1401.702
264.2294, 1404.541
264.7115, 1411.355
265.1937, 1415.831
265.6758, 1413.662
266.1579, 1401.959
266.6400, 1396.082
267.1221, 1397.822
267.6042, 1404.211
268.0864, 1408.914
268.5685, 1411.234
269.0506, 1413.975
269.5327, 1419.457
270.0148, 1429.201
270.4969, 1433.299
270.9791, 1429.927
271.4612, 1422.844
271.9433, 1419.819
272.4254, 1422.057
272.9075, 1424.135
273.3896, 1422.755
273.8718, 1417.046
274.3539, 1415.953
274.8360, 1421.580
275.3181, 1429.036
275.8002, 1427.583
276.2823, 1414.631
276.7645, 1405.552
277.2466, 1409.770
277.7287, 1428.586
278.2108, 1438.022
278.6929, 1435.923
279.1750, 1428.522
279.6572, 1425.041
280.1393, 1425.677
280.6214, 1428.451
281.1035, 1434.086
281.5856, 1442.365
282.0677, 1445.921
282.5499, 1443.918
283.0320, 1439.213
283.5141, 1435.946
283.9962, 1434.212
284.4783, 1431.726
284.9604, 1428.204
285.4425, 1423.416
285.9247, 1413.302
286.4068, 1395.965
286.8889, 1380.684
287.3710, 1382.027
287.8531, 1399.129
288.3352, 1415.445
288.8174, 1424.487
289.2995, 1427.698
289.7816, 1431.509
290.2637, 1436.197
290.7458, 1439.351
291.2279, 1436.885
291.7101, 1429.656
292.1922, 1423.567
292.6743, 1422.166
293.1564, 1423.099
293.6385, 1418.657
294.1206, 1408.353
294.6028, 1399.394
295.0849, 1401.534
295.5670, 1411.701
296.0491, 1418.055
296.5312, 1413.814
297.0133, 1404.987
297.4955, 1403.678
297.9776, 1409.873
298.4597, 1416.950
298.9418, 1420.553
299.4239, 1420.685
299.9060, 1416.551
300.3882, 1403.566
300.8703, 1389.945
301.3524, 1389.812
301.8345, 1401.979
302.3166, 1414.302
302.7987, 1416.723
303.2809, 1413.250
303.7630, 1410.854
304.2451, 1412.070
304.7272, 1414.111
305.2093, 1412.419
305.6914, 1408.030
306.1736, 1406.784
306.6557, 1417.515
307.1378, 1431.826
307.6199, 1438.349
308.1020, 1430.779
308.5841, 1421.633
309.0663, 1423.047
309.5484, 1431.992
310.0305, 1437.968
310.5126, 1431.668
310.9947, 1421.625
311.4768, 1415.679
311.9590, 1416.124
312.4411, 1418.939
312.9232, 1423.785
313.4053, 1429.340
313.8874, 1432.377
314.3695, 1428.956
314.8517, 1424.260
315.3337, 1422.030
315.8159, 1423.628
316.2980, 1425.091
316.7801, 1424.320
317.2622, 1422.329
317.7443, 1420.880
318.2264, 1422.954
318.7086, 1423.887
319.1907, 1420.859
319.6728, 1412.680
320.1549, 1405.039
320.6370, 1395.574
321.1191, 1388.684
321.6013, 1389.957
322.0834, 1415.384
322.5655, 1435.509
323.0476, 1436.936
323.5297, 1415.734
324.0118, 1402.649
324.4940, 1407.409
324.9761, 1420.118
325.4582, 1431.355
325.9403, 1442.851
326.4224, 1449.922
326.9045, 1450.636
327.3867, 1444.727
327.8688, 1438.499
328.3509, 1428.450
328.8330, 1420.363
329.3151, 1418.389
329.7972, 1429.284
330.2794, 1437.403
330.7615, 1440.582
331.2436, 1439.394
331.7257, 1438.604
332.2078, 1438.829
332.6899, 1438.821
333.1721, 1437.545
333.6542, 1433.167
334.1363, 1431.606
334.6184, 1434.874
335.1005, 1440.957
335.5826, 1442.769
336.0648, 1437.949
336.5469, 1433.242
337.0290, 1432.458
337.5111, 1437.119
337.9932, 1439.759
338.4753, 1439.541
338.9575, 1437.768
339.4396, 1437.207
339.9217, 1438.245
340.4038, 1438.854
340.8859, 1438.160
341.3680, 1436.139
341.8502, 1432.557
342.3323, 1426.143
342.8144, 1421.286
343.2965, 1427.787
343.7786, 1446.259
344.2607, 1457.907
344.7429, 1452.439
345.2250, 1433.980
345.7071, 1422.531
346.1892, 1418.338
346.6713, 1419.144
347.1534, 1424.391
347.6355, 1433.258
348.1176, 1441.366
348.5998, 1448.717
349.0819, 1453.652
349.5640, 1450.115
350.0461, 1438.313
350.5282, 1428.575
351.0103, 1431.662
351.4925, 1442.681
351.9746, 1451.196
352.4567, 1454.153
352.9388, 1454.304
353.4209, 1453.969
353.9030, 1453.370
354.3852, 1453.482
354.8673, 1456.538
355.3494, 1460.060
355.8315, 1460.473
356.3136, 1455.947
356.7957, 1451.924
357.2779, 1454.509
357.7600, 1460.921
358.2421, 1464.785
358.7242, 1463.016
359.2063, 1457.734
359.6884, 1447.479
360.1706, 1429.961
360.6527, 1420.629
361.1348, 1435.528
361.6169, 1460.706
362.0990, 1477.524
362.5811, 1472.797
363.0633, 1465.338
363.5454, 1463.541
364.0275, 1468.039
364.5096, 1468.711
364.9917, 1457.126
365.4738, 1443.670
365.9560, 1436.808
366.4381, 1446.933
366.9202, 1454.054
367.4023, 1452.225
367.8844, 1442.836
368.3665, 1438.786
368.8487, 1446.334
369.3308, 1455.219
369.8129, 1460.282
370.2950, 1457.953
370.7771, 1457.212
371.2592, 1457.992
371.7414, 1460.441
372.2235, 1465.719
372.7056, 1478.224
373.1877, 1486.747
373.6698, 1483.878
374.1519, 1463.202
374.6341, 1459.681
375.1162, 1481.651
375.5983, 1511.702
376.0804, 1521.933
376.5625, 1507.370
377.0446, 1491.841
377.5267, 1483.090
378.0089, 1480.525
378.4910, 1475.372
378.9731, 1466.441
379.4552, 1459.307
379.9373, 1463.045
380.4194, 1477.215
380.9016, 1483.623
381.3837, 1474.908
381.8658, 1458.279
382.3479, 1452.320
382.8300, 1456.923
383.3121, 1464.182
383.7943, 1467.065
384.2764, 1467.859
384.7585, 1473.988
385.2406, 1488.168
385.7227, 1504.103
386.2048, 1513.193
386.6870, 1516.703
387.1691, 1519.038
387.6512, 1523.900
388.1333, 1528.251
388.6154, 1527.664
389.0975, 1521.179
389.5797, 1513.905
390.0618, 1510.150
390.5439, 1508.098
391.0260, 1505.104
391.5081, 1496.131
391.9902, 1489.203
392.4724, 1491.709
392.9545, 1503.137
393.4366, 1510.984
393.9187, 1504.658
394.4008, 1495.253
394.8829, 1491.602
395.3651, 1501.651
395.8472, 1511.305
396.3293, 1518.340
396.8114, 1522.561
397.2935, 1523.234
397.7756, 1514.026
398.2578, 1506.139
398.7399, 1504.963
399.2220, 1516.225
399.7041, 1523.657
400.1862, 1526.866
400.6683, 1526.253
401.1505, 1521.889
401.6326, 1508.358
402.1147, 1499.057
402.5968, 1498.866
403.0789, 1508.825
403.5610, 1514.493
404.0432, 1514.369
404.5253, 1512.076
405.0074, 1511.067
405.4895, 1511.692
405.9716, 1512.067
406.4537, 1511.328
406.9359, 1510.278
407.4180, 1512.562
407.9001, 1518.760
408.3822, 1524.993
408.8643, 1528.525
409.3464, 1529.588
409.8285, 1530.320
410.3106, 1530.658
410.7928, 1531.401
411.2749, 1535.144
411.7570, 1541.147
412.2391, 1544.577
412.7212, 1538.686
413.2033, 1529.757
413.6855, 1531.770
414.1676, 1545.459
414.6497, 1559.212
415.1318, 1561.556
415.6139, 1557.125
416.0960, 1553.668
416.5782, 1554.715
417.0603, 1556.747
417.5424, 1557.613
418.0245, 1557.229
418.5066, 1555.275
418.9887, 1546.877
419.4709, 1539.646
419.9530, 1540.578
420.4351, 1556.607
420.9172, 1568.950
421.3993, 1568.630
421.8814, 1560.558
422.3636, 1553.790
422.8457, 1547.915
423.3278, 1545.933
423.8099, 1551.393
424.2920, 1567.395
424.7741, 1575.306
425.2563, 1567.489
425.7384, 1555.364
426.2205, 1548.826
426.7026, 1550.342
427.1847, 1553.335
427.6668, 1557.351
428.1490, 1562.243
428.6311, 1567.690
429.1132, 1575.122
429.5953, 1580.392
430.0774, 1579.359
430.5595, 1570.173
431.0417, 1568.108
431.5238, 1576.396
432.0059, 1588.006
432.4880, 1588.937
432.9701, 1578.740
433.4522, 1571.862
433.9344, 1576.557
434.4165, 1589.219
434.8986, 1596.612
435.3807, 1598.599
435.8628, 1597.694
436.3449, 1594.832
436.8271, 1590.870
437.3092, 1588.190
437.7913, 1588.238
438.2734, 1588.649
438.7555, 1585.295
439.2376, 1579.520
439.7197, 1576.429
440.2018, 1582.391
440.6840, 1590.477
441.1661, 1593.311
441.6482, 1588.339
442.1303, 1585.296
442.6124, 1595.343
443.0945, 1608.783
443.5767, 1612.221
444.0588, 1586.872
444.5409, 1565.164
445.0230, 1560.414
445.5051, 1572.547
445.9872, 1583.318
446.4694, 1591.374
446.9515, 1596.187
447.4336, 1597.191
447.9157, 1587.118
448.3978, 1584.001
448.8799, 1592.570
449.3621, 1607.263
449.8442, 1614.307
450.3263, 1609.419
450.8084, 1605.360
451.2905, 1608.209
451.7726, 1618.880
452.2548, 1620.034
452.7369, 1608.089
453.2190, 1594.486
453.7011, 1593.155
454.1832, 1604.443
454.6653, 1612.754
455.1475, 1613.835
455.6296, 1610.779
456.1117, 1610.549
456.5938, 1613.045
457.0759, 1616.336
457.5580, 1620.792
458.0402, 1624.866
458.5223, 1623.938
459.0044, 1616.478
459.4865, 1610.150
459.9686, 1614.421
460.4507, 1624.799
460.9329, 1632.888
461.4150, 1635.415
461.8971, 1633.989
462.3792, 1626.796
462.8613, 1614.906
463.3434, 1607.087
463.8256, 1612.320
464.3077, 1620.122
464.7898, 1622.335
465.2719, 1609.595
465.7540, 1603.915
466.2361, 1616.612
466.7183, 1638.587
467.2004, 1651.112
467.6825, 1647.125
468.1646, 1639.512
468.6467, 1629.355
469.1288, 1615.645
469.6110, 1609.504
470.0930, 1614.098
470.5752, 1622.103
471.0573, 1627.464
471.5394, 1629.536
472.0215, 1630.764
472.5036, 1630.134
472.9857, 1629.892
473.4679, 1638.917
473.9500, 1658.239
474.4321, 1672.542
474.9142, 1667.681
475.3963, 1649.774
475.8784, 1647.805
476.3606, 1664.331
476.8427, 1682.224
477.3248, 1680.889
477.8069, 1667.101
478.2890, 1656.631
478.7711, 1656.613
479.2533, 1659.741
479.7354, 1659.484
480.2175, 1656.322
480.6996, 1652.127
481.1817, 1643.826
481.6638, 1637.551
482.1460, 1638.821
482.6281, 1650.257
483.1102, 1661.914
483.5923, 1671.312
484.0744, 1678.628
484.5565, 1684.113
485.0387, 1690.360
485.5208, 1691.806
486.0029, 1683.450
486.4850, 1666.845
486.9671, 1658.321
487.4492, 1663.741
487.9314, 1670.479
488.4135, 1671.031
488.8956, 1661.146
489.3777, 1659.134
489.8598, 1667.929
490.3419, 1681.198
490.8241, 1689.570
491.3062, 1692.864
491.7883, 1693.582
492.2704, 1692.515
492.7525, 1689.551
493.2346, 1683.475
493.7168, 1674.366
494.1989, 1664.791
494.6810, 1654.551
495.1631, 1645.569
495.6452, 1642.472
496.1273, 1646.929
496.6095, 1654.239
497.0916, 1661.081
497.5737, 1667.247
498.0558, 1672.375
498.5379, 1675.550
499.0201, 1678.213
499.5022, 1680.414
499.9843, 1682.373
500.4664, 1686.515
500.9485, 1697.915
501.4306, 1709.079
501.9127, 1714.815
502.3948, 1711.050
502.8770, 1707.080
503.3591, 1703.431
503.8412, 1700.023
504.3233, 1696.333
504.8054, 1689.644
505.2875, 1687.363
505.7697, 1693.890
506.2518, 1708.586
506.7339, 1712.309
507.2160, 1701.833
507.6981, 1688.919
508.1802, 1682.918
508.6624, 1683.724
509.1445, 1684.819
509.6266, 1685.557
510.1087, 1686.257
510.5908, 1688.034
511.0729, 1690.485
511.5551, 1691.533
512.0372, 1686.820
512.5193, 1681.805
513.0014, 1685.258
513.4835, 1696.593
513.9656, 1708.978
514.4478, 1721.558
514.9299, 1731.120
515.4120, 1733.599
515.8941, 1724.556
516.3762, 1716.236
516.8583, 1714.227
517.3405, 1716.003
517.8226, 1717.520
518.3047, 1714.144
518.7868, 1714.221
519.2689, 1723.938
519.7510, 1743.147
520.2332, 1750.570
520.7153, 1739.045
521.1974, 1724.241
521.6795, 1714.612
522.1616, 1709.787
522.6437, 1712.756
523.1259, 1726.556
523.6080, 1743.962
524.0901, 1753.323
524.5722, 1754.486
525.0543, 1751.723
525.5364, 1744.159
526.0186, 1734.862
526.5007, 1733.682
526.9828, 1740.039
527.4649, 1744.360
527.9470, 1734.720
528.4291, 1720.186
528.9113, 1715.382
529.3934, 1724.525
529.8755, 1734.417
530.3576, 1732.288
530.8397, 1725.835
531.3218, 1726.267
531.8040, 1752.096
532.2861, 1771.180
532.7682, 1764.356
533.2503, 1736.416
533.7324, 1720.086
534.2145, 1733.467
534.6967, 1747.849
535.1788, 1750.313
535.6609, 1735.097
536.1430, 1725.671
536.6251, 1724.087
537.1072, 1726.296
537.5894, 1727.656
538.0715, 1727.837
538.5536, 1728.996
539.0357, 1731.743
539.5178, 1735.570
539.9999, 1739.544
540.4821, 1743.583
540.9642, 1746.838
541.4463, 1748.648
541.9284, 1749.313
542.4105, 1748.996
542.8926, 1747.603
543.3748, 1747.073
543.8569, 1751.521
544.3390, 1757.005
544.8211, 1758.003
545.3032, 1750.130
545.7853, 1741.686
546.2675, 1735.127
546.7495, 1731.075
547.2316, 1730.947
547.7137, 1739.282
548.1959, 1747.674
548.6780, 1753.254
549.1601, 1755.629
549.6422, 1758.032
550.1243, 1760.200
550.6064, 1762.703
551.0886, 1766.704
551.5707, 1774.047
552.0528, 1775.350
552.5349, 1767.408
553.0170, 1757.037
553.4991, 1757.984
553.9813, 1770.210
554.4634, 1779.283
554.9455, 1777.566
555.4276, 1770.615
555.9097, 1772.745
556.3918, 1782.881
556.8740, 1791.100
557.3561, 1788.909
557.8382, 1781.640
558.3203, 1774.383
558.8024, 1766.944
559.2845, 1764.338
559.7667, 1775.262
560.2488, 1790.395
560.7309, 1798.949
561.2130, 1794.988
561.6951, 1787.533
562.1772, 1772.594
562.6594, 1754.411
563.1415, 1750.535
563.6236, 1775.135
564.1057, 1795.481
564.5878, 1797.636
565.0699, 1779.414
565.5521, 1772.613
566.0342, 1781.049
566.5163, 1791.766
566.9984, 1791.026
567.4805, 1779.572
567.9626, 1774.646
568.4448, 1780.638
568.9269, 1789.242
569.4090, 1785.479
569.8911, 1773.378
570.3732, 1766.579
570.8553, 1776.007
571.3375, 1790.771
571.8196, 1801.601
572.3017, 1808.599
572.7838, 1811.774
573.2659, 1809.797
573.7480, 1805.012
574.2302, 1797.784
574.7123, 1785.380
575.1944, 1778.737
575.6765, 1784.893
576.1586, 1795.081
576.6407, 1800.151
577.1229, 1796.159
577.6050, 1794.530
578.0871, 1797.134
578.5692, 1802.859
579.0513, 1808.721
579.5334, 1814.993
580.0156, 1820.018
580.4977, 1822.409
580.9798, 1822.845
581.4619, 1825.589
581.9440, 1830.753
582.4261, 1833.357
582.9083, 1825.224
583.3904, 1812.498
583.8725, 1806.053
584.3546, 1809.203
584.8367, 1814.345
585.3188, 1816.556
585.8010, 1817.184
586.2831, 1818.347
586.7652, 1824.870
587.2473, 1827.727
587.7294, 1820.228
588.2115, 1804.821
588.6937, 1797.611
589.1758, 1804.290
589.6579, 1813.221
590.1400, 1820.802
590.6221, 1827.274
591.1042, 1829.898
591.5864, 1827.118
592.0685, 1824.036
592.5506, 1825.465
593.0327, 1831.277
593.5148, 1840.051
593.9969, 1853.685
594.4791, 1864.918
594.9612, 1860.049
595.4433, 1843.706
595.9254, 1829.696
596.4075, 1822.066
596.8896, 1821.041
