##NAMES=Austinite
##RRUFFID=R060703
##IDEAL CHEMISTRY=CaZn^2+^As^5+^O_4_(OH)
##LOCALITY=Gold Hill mine, Tooele County, Utah, USA
##OWNER=RRUFF
##SOURCE=Bob Jenkins
##DESCRIPTION=Radial sprays of colorless bladed crystals, associated with adamite
##STATUS=The identification of this mineral is confirmed by single-crystal X-ray diffraction and chemical analysis.
##URL=rruff.info/R060703
##MEASURED CHEMISTRY=Ca_1.00_Zn_1.00_(As_1.00_O_4_)(OH) ; = darker phase. The lighter phase is adamite Zn_2.00_(As_1.00_O_4_)(OH)
83.435, 0.000
83.917, 0.000
84.399, 0.000
84.881, 385.486
85.363, 381.404
85.845, 376.496
86.327, 366.806
86.809, 358.995
87.291, 360.048
87.774, 372.215
88.256, 381.443
88.738, 371.924
89.220, 351.467
89.702, 338.109
90.184, 351.366
90.666, 375.040
91.148, 385.503
91.631, 375.417
92.113, 357.414
92.595, 345.933
93.077, 340.560
93.559, 337.175
94.041, 332.338
94.523, 326.707
95.005, 322.785
95.487, 321.582
95.970, 322.544
96.452, 325.377
96.934, 330.832
97.416, 334.550
97.898, 328.578
98.380, 312.177
98.862, 299.870
99.344, 297.312
99.826, 304.798
100.309, 319.785
100.791, 348.670
101.273, 378.616
101.755, 377.760
102.237, 333.801
102.719, 289.935
103.201, 270.604
103.683, 284.466
104.165, 299.552
104.648, 315.176
105.130, 330.765
105.612, 340.286
106.094, 339.537
106.576, 336.657
107.058, 337.798
107.540, 343.566
108.022, 352.622
108.505, 365.702
108.987, 383.470
109.469, 400.862
109.951, 417.465
110.433, 433.608
110.915, 449.875
111.397, 462.829
111.879, 478.707
112.362, 500.909
112.844, 534.705
113.326, 562.851
113.808, 579.661
114.290, 589.135
114.772, 599.106
115.254, 612.931
115.736, 627.026
116.218, 639.052
116.701, 644.167
117.183, 652.808
117.665, 670.070
118.147, 694.636
118.629, 720.714
119.111, 743.875
119.593, 767.730
120.075, 795.537
120.558, 834.693
121.040, 873.883
121.522, 903.865
122.004, 924.457
122.486, 945.510
122.968, 977.755
123.450, 1014.918
123.932, 1046.592
124.414, 1065.261
124.897, 1076.220
125.379, 1084.327
125.861, 1089.081
126.343, 1094.596
126.825, 1107.934
127.307, 1126.818
127.789, 1142.187
128.271, 1148.656
128.753, 1147.590
129.236, 1139.993
129.718, 1122.413
130.200, 1104.189
130.682, 1102.424
131.164, 1116.928
131.646, 1136.857
132.128, 1156.277
132.610, 1174.694
133.093, 1188.727
133.575, 1193.330
134.057, 1194.215
134.539, 1212.000
135.021, 1248.157
135.503, 1294.944
135.985, 1346.326
136.467, 1403.367
136.949, 1457.676
137.432, 1503.762
137.914, 1542.186
138.396, 1593.662
138.878, 1662.709
139.360, 1737.138
139.842, 1798.970
140.324, 1846.871
140.806, 1884.958
141.288, 1914.119
141.771, 1933.756
142.253, 1946.251
142.735, 1944.843
143.217, 1938.895
143.699, 1953.940
144.181, 2000.812
144.663, 2053.309
145.145, 2098.847
145.628, 2134.685
146.110, 2168.813
146.592, 2204.441
147.074, 2239.827
147.556, 2262.521
148.038, 2287.858
148.520, 2288.004
149.002, 2244.890
149.484, 2113.465
149.967, 1992.116
150.449, 1888.470
150.931, 1801.935
151.413, 1733.889
151.895, 1689.771
152.377, 1661.424
152.859, 1642.653
153.342, 1630.911
153.824, 1631.156
154.306, 1647.877
154.788, 1684.604
155.270, 1719.608
155.752, 1748.086
156.234, 1774.347
156.716, 1804.084
157.198, 1835.467
157.680, 1872.704
158.163, 1918.400
158.645, 1976.102
159.127, 2033.296
159.609, 2084.438
160.091, 2132.821
160.573, 2185.054
161.055, 2242.829
161.538, 2304.679
162.020, 2371.025
162.502, 2450.585
162.984, 2519.273
163.466, 2566.886
163.948, 2595.375
164.430, 2611.250
164.912, 2620.978
165.394, 2617.472
165.876, 2593.668
166.359, 2530.024
166.841, 2465.461
167.323, 2425.447
167.805, 2406.662
168.287, 2387.914
168.769, 2351.457
169.251, 2310.225
169.733, 2278.512
170.216, 2259.391
170.698, 2253.008
171.180, 2267.412
171.662, 2302.006
172.144, 2330.516
172.626, 2325.794
173.108, 2303.025
173.590, 2288.344
174.072, 2295.939
174.555, 2315.262
175.037, 2337.815
175.519, 2363.938
176.001, 2386.536
176.483, 2392.684
176.965, 2389.125
177.447, 2392.942
177.929, 2410.856
178.412, 2441.563
178.894, 2487.369
179.376, 2550.989
179.858, 2616.055
180.340, 2659.545
180.822, 2685.980
181.304, 2717.128
181.786, 2767.629
182.268, 2831.252
182.751, 2891.773
183.233, 2944.080
183.715, 2999.659
184.197, 3080.530
184.679, 3184.604
185.161, 3283.866
185.643, 3363.319
186.125, 3423.278
186.607, 3471.835
187.090, 3511.989
187.572, 3537.684
188.054, 3534.518
188.536, 3502.448
189.018, 3456.876
189.500, 3412.165
189.982, 3366.538
190.464, 3300.562
190.947, 3202.185
191.429, 3087.022
191.911, 2998.398
192.393, 2937.175
192.875, 2895.005
193.357, 2865.739
193.839, 2849.479
194.321, 2844.457
194.803, 2849.541
195.286, 2865.508
195.768, 2896.118
196.250, 2942.009
196.732, 2999.515
197.214, 3064.539
197.696, 3136.841
198.178, 3223.187
198.661, 3326.425
199.143, 3446.020
199.625, 3575.643
200.107, 3714.752
200.589, 3869.132
201.071, 4044.977
201.553, 4241.977
202.035, 4464.763
202.517, 4718.224
202.999, 5002.723
203.482, 5283.526
203.964, 5555.997
204.446, 5832.832
204.928, 6133.139
205.410, 6459.833
205.892, 6798.100
206.374, 7142.363
206.857, 7495.048
207.339, 7842.404
207.821, 8189.829
208.303, 8524.595
208.785, 8831.583
209.267, 9119.771
209.749, 9354.422
210.231, 9530.603
210.713, 9652.502
211.195, 9685.397
211.678, 9620.845
212.160, 9474.842
212.642, 9280.452
213.124, 9037.207
213.606, 8746.129
214.088, 8399.566
214.570, 7986.185
215.052, 7562.833
215.535, 7115.143
216.017, 6660.823
216.499, 6251.639
216.981, 5888.956
217.463, 5561.814
217.945, 5263.280
218.427, 4992.457
218.909, 4758.595
219.391, 4565.689
219.874, 4408.729
220.356, 4279.239
220.838, 4191.475
221.320, 4108.464
221.802, 4006.706
222.284, 3864.669
222.766, 3759.287
223.248, 3704.608
223.731, 3688.848
224.213, 3669.802
224.695, 3651.007
225.177, 3623.670
225.659, 3581.166
226.141, 3517.931
226.623, 3453.542
227.105, 3391.817
227.587, 3330.636
228.070, 3257.091
228.552, 3168.412
229.034, 3071.828
229.516, 2972.236
229.998, 2869.500
230.480, 2762.733
230.962, 2646.025
231.444, 2524.499
231.926, 2431.835
232.409, 2383.136
232.891, 2345.526
233.373, 2296.575
233.855, 2231.010
234.337, 2164.653
234.819, 2096.764
235.301, 2028.083
235.783, 1972.822
236.266, 1934.678
236.748, 1905.552
237.230, 1880.984
237.712, 1865.437
238.194, 1844.504
238.676, 1811.128
239.158, 1768.079
239.640, 1743.890
240.122, 1747.541
240.605, 1759.586
241.087, 1766.545
241.569, 1769.854
242.051, 1764.775
242.533, 1745.830
243.015, 1714.918
243.497, 1697.442
243.980, 1699.444
244.462, 1707.999
244.944, 1713.223
245.426, 1713.528
245.908, 1713.171
246.390, 1710.462
246.872, 1705.931
247.354, 1712.592
247.836, 1739.834
248.318, 1766.886
248.801, 1774.971
249.283, 1751.508
249.765, 1735.428
250.247, 1734.778
250.729, 1748.606
251.211, 1757.887
251.693, 1761.993
252.176, 1762.519
252.658, 1760.132
253.140, 1752.724
253.622, 1747.134
254.104, 1743.581
254.586, 1742.317
255.068, 1747.598
255.550, 1763.357
256.032, 1780.386
256.514, 1790.170
256.997, 1788.198
257.479, 1789.725
257.961, 1796.852
258.443, 1809.543
258.925, 1827.394
259.407, 1853.735
259.889, 1880.211
260.371, 1899.048
260.854, 1906.143
261.336, 1916.526
261.818, 1933.596
262.300, 1956.441
262.782, 1978.267
263.264, 1999.393
263.746, 2018.141
264.228, 2032.010
264.711, 2039.272
265.193, 2046.806
265.675, 2053.076
266.157, 2059.706
266.639, 2082.182
267.121, 2127.039
267.603, 2175.114
268.085, 2209.139
268.567, 2222.476
269.050, 2248.466
269.532, 2296.918
270.014, 2362.383
270.496, 2413.355
270.978, 2444.370
271.460, 2473.068
271.942, 2515.136
272.424, 2573.281
272.906, 2629.238
273.389, 2680.505
273.871, 2727.826
274.353, 2772.459
274.835, 2810.605
275.317, 2857.858
275.799, 2929.340
276.281, 3027.816
276.763, 3126.734
277.246, 3223.670
277.728, 3317.284
278.210, 3404.521
278.692, 3484.232
279.174, 3560.369
279.656, 3632.686
280.138, 3701.139
280.620, 3775.405
281.103, 3858.225
281.585, 3946.381
282.067, 4034.802
282.549, 4124.997
283.031, 4204.331
283.513, 4259.835
283.995, 4292.787
284.477, 4325.146
284.959, 4363.352
285.441, 4397.749
285.924, 4408.159
286.406, 4394.452
286.888, 4360.645
287.370, 4304.556
287.852, 4228.697
288.334, 4147.882
288.816, 4064.232
289.298, 3975.344
289.781, 3872.045
290.263, 3754.791
290.745, 3636.829
291.227, 3519.436
291.709, 3406.630
292.191, 3315.094
292.673, 3248.586
293.155, 3196.161
293.638, 3145.162
294.120, 3095.530
294.602, 3043.233
295.084, 2977.064
295.566, 2905.977
296.048, 2861.091
296.530, 2848.901
297.012, 2844.552
297.494, 2810.388
297.977, 2754.255
298.459, 2710.525
298.941, 2707.466
299.423, 2726.221
299.905, 2731.807
300.387, 2720.717
300.869, 2705.100
301.351, 2693.228
301.833, 2686.054
302.316, 2686.364
302.798, 2699.553
303.280, 2719.181
303.762, 2734.825
304.244, 2745.125
304.726, 2760.803
305.208, 2795.090
305.690, 2840.814
306.173, 2885.166
306.655, 2922.875
307.137, 2956.069
307.619, 2980.869
308.101, 2997.296
308.583, 3023.004
309.065, 3078.169
309.547, 3148.568
310.030, 3213.501
310.512, 3258.967
310.994, 3301.284
311.476, 3347.509
311.958, 3398.323
312.440, 3458.673
312.922, 3533.103
313.404, 3618.351
313.886, 3711.276
314.369, 3811.191
314.851, 3918.255
315.333, 4033.225
315.815, 4154.714
316.297, 4280.373
316.779, 4398.107
317.261, 4524.911
317.743, 4675.747
318.225, 4865.982
318.708, 5065.183
319.190, 5265.827
319.672, 5467.066
320.154, 5672.645
320.636, 5867.828
321.118, 6078.385
321.600, 6319.822
322.082, 6607.865
322.565, 6906.778
323.047, 7210.859
323.529, 7522.399
324.011, 7841.336
324.493, 8177.004
324.975, 8515.018
325.457, 8850.874
325.939, 9189.837
326.422, 9515.350
326.904, 9826.547
327.386, 10125.740
327.868, 10408.590
328.350, 10711.370
328.832, 10966.630
329.314, 11152.260
329.796, 11254.890
330.278, 11329.300
330.760, 11356.790
331.243, 11364.930
331.725, 11387.980
332.207, 11416.330
332.689, 11474.050
333.171, 11565.250
333.653, 11690.210
334.135, 11851.390
334.617, 12054.160
335.100, 12285.340
335.582, 12535.490
336.064, 12805.470
336.546, 13079.530
337.028, 13355.980
337.510, 13632.590
337.992, 13912.780
338.474, 14201.440
338.957, 14484.150
339.439, 14759.630
339.921, 15026.680
340.403, 15261.600
340.885, 15459.380
341.367, 15620.920
341.849, 15750.900
342.331, 15855.800
342.813, 15898.910
343.296, 15846.770
343.778, 15701.750
344.260, 15524.250
344.742, 15327.260
345.224, 15091.360
345.706, 14772.280
346.188, 14369.190
346.670, 13944.440
347.152, 13518.260
347.635, 13092.690
348.117, 12702.190
348.599, 12350.440
349.081, 12020.490
349.563, 11682.720
350.045, 11348.980
350.527, 11061.230
351.009, 10858.920
351.491, 10712.190
351.974, 10573.090
352.456, 10437.490
352.938, 10320.560
353.420, 10241.890
353.902, 10191.140
354.384, 10147.700
354.866, 10104.240
355.349, 10064.460
355.831, 10046.020
356.313, 10044.920
356.795, 10016.590
357.277, 9940.832
357.759, 9819.738
358.241, 9656.209
358.723, 9449.439
359.205, 9202.953
359.688, 8902.237
360.170, 8559.835
360.652, 8214.114
361.134, 7880.321
361.616, 7550.369
362.098, 7214.123
362.580, 6847.758
363.062, 6517.139
363.544, 6251.258
364.027, 6036.447
364.509, 5837.609
364.991, 5642.617
365.473, 5464.594
365.955, 5310.978
366.437, 5183.219
366.919, 5073.452
367.401, 4987.337
367.884, 4917.186
368.366, 4851.801
368.848, 4781.218
369.330, 4725.659
369.812, 4688.745
370.294, 4670.980
370.776, 4667.395
371.258, 4681.724
371.741, 4707.220
372.223, 4738.028
372.705, 4774.120
373.187, 4816.498
373.669, 4868.232
374.151, 4927.357
374.633, 4976.235
375.115, 5004.438
375.597, 5044.248
376.079, 5123.675
376.562, 5254.446
377.044, 5355.503
377.526, 5408.841
378.008, 5440.951
378.490, 5512.091
378.972, 5627.315
379.454, 5747.007
379.936, 5858.832
380.419, 5960.156
380.901, 6036.896
381.383, 6082.207
381.865, 6125.883
382.347, 6206.930
382.829, 6322.321
383.311, 6446.237
383.793, 6582.657
384.276, 6716.742
384.758, 6821.434
385.240, 6896.116
385.722, 6954.291
386.204, 7007.012
386.686, 7051.883
387.168, 7084.615
387.650, 7103.959
388.132, 7110.598
388.615, 7094.773
389.097, 7062.764
389.579, 7043.128
390.061, 7073.055
390.543, 7113.095
391.025, 7125.956
391.507, 7099.896
391.989, 7057.488
392.471, 7012.585
392.954, 6959.894
393.436, 6890.258
393.918, 6801.359
394.400, 6694.253
394.882, 6562.922
395.364, 6401.214
395.846, 6250.579
396.328, 6132.455
396.810, 6023.279
397.293, 5898.274
397.775, 5713.567
398.257, 5555.244
398.739, 5451.840
399.221, 5401.770
399.703, 5334.740
400.185, 5230.981
400.668, 5127.198
401.150, 5045.682
401.632, 5004.011
402.114, 4952.229
402.596, 4883.213
403.078, 4804.136
403.560, 4735.063
404.042, 4680.632
404.524, 4627.600
405.007, 4570.396
405.489, 4508.721
405.971, 4444.872
406.453, 4377.564
406.935, 4310.500
407.417, 4246.282
407.899, 4184.721
408.381, 4134.219
408.863, 4097.941
409.346, 4074.169
409.828, 4057.885
410.310, 4049.070
410.792, 4046.005
411.274, 4040.564
411.756, 4038.536
412.238, 4060.434
412.720, 4113.328
413.203, 4187.101
413.685, 4270.546
414.167, 4364.534
414.649, 4470.212
415.131, 4586.660
415.613, 4717.969
416.095, 4867.100
416.577, 5037.603
417.060, 5218.674
417.542, 5410.505
418.024, 5607.377
418.506, 5804.535
418.988, 5993.813
419.470, 6186.686
419.952, 6377.108
420.434, 6568.739
420.916, 6785.185
421.398, 7060.677
421.881, 7350.190
422.363, 7624.665
422.845, 7850.535
423.327, 8090.871
423.809, 8356.163
424.291, 8639.585
424.773, 8932.275
425.255, 9215.699
425.738, 9522.926
426.220, 9870.355
426.702, 10264.430
427.184, 10673.950
427.666, 11113.740
428.148, 11561.580
428.630, 11998.390
429.112, 12422.380
429.595, 12839.930
430.077, 13265.650
430.559, 13688.890
431.041, 14033.390
431.523, 14315.290
432.005, 14472.880
432.487, 14481.640
432.969, 14338.910
433.451, 13967.820
433.934, 13326.760
434.416, 12508.820
434.898, 11642.450
435.380, 10726.520
435.862, 9814.157
436.344, 8900.672
436.826, 8024.396
437.308, 7264.364
437.790, 6625.248
438.273, 6092.864
438.755, 5691.621
439.237, 5381.949
439.719, 5100.187
440.201, 4808.379
440.683, 4545.246
441.165, 4342.204
441.647, 4194.159
442.129, 4074.704
442.612, 3981.845
443.094, 3907.413
443.576, 3846.604
444.058, 3801.680
444.540, 3765.263
445.022, 3733.123
445.504, 3708.603
445.987, 3697.856
446.469, 3700.416
446.951, 3717.971
447.433, 3752.859
447.915, 3804.928
448.397, 3866.506
448.879, 3937.180
449.361, 4018.210
449.843, 4108.981
450.326, 4207.625
450.808, 4321.614
451.290, 4447.906
451.772, 4591.253
452.254, 4766.742
452.736, 4978.793
453.218, 5200.512
453.700, 5412.583
454.182, 5614.682
454.665, 5848.006
455.147, 6113.283
455.629, 6402.347
456.111, 6702.201
456.593, 7012.218
457.075, 7338.123
457.557, 7673.521
458.039, 8029.173
458.522, 8409.112
459.004, 8819.848
459.486, 9269.334
459.968, 9763.570
460.450, 10306.210
460.932, 10891.900
461.414, 11524.590
461.896, 12205.290
462.379, 12962.570
462.861, 13769.030
463.343, 14562.480
463.825, 15381.220
464.307, 16128.780
464.789, 16802.619
465.271, 17413.289
465.753, 17789.000
466.235, 17918.680
466.717, 17787.109
467.200, 17375.961
467.682, 16520.199
468.164, 15604.440
468.646, 14615.920
469.128, 13575.560
469.610, 12556.830
470.092, 11516.720
470.574, 10576.090
471.057, 9788.961
471.539, 9161.349
472.021, 8598.632
472.503, 8091.939
472.985, 7649.294
473.467, 7283.972
473.949, 6995.905
474.431, 6752.319
474.914, 6552.991
475.396, 6385.559
475.878, 6228.110
476.360, 6080.331
476.842, 5945.411
477.324, 5831.818
477.806, 5730.979
478.288, 5629.714
478.770, 5527.454
479.253, 5420.540
479.735, 5308.323
480.217, 5189.974
480.699, 5064.776
481.181, 4923.577
481.663, 4783.266
482.145, 4648.252
482.627, 4519.409
483.109, 4401.393
483.592, 4298.179
484.074, 4205.235
484.556, 4121.904
485.038, 4051.114
485.520, 3982.173
486.002, 3911.087
486.484, 3842.383
486.966, 3780.943
487.448, 3725.419
487.931, 3680.535
488.413, 3650.898
488.895, 3635.146
489.377, 3616.195
489.859, 3596.584
490.341, 3568.639
490.823, 3522.003
491.306, 3455.897
491.788, 3402.163
492.270, 3367.553
492.752, 3337.680
493.234, 3289.701
493.716, 3225.572
494.198, 3155.675
494.680, 3077.539
495.162, 3000.024
495.645, 2942.050
496.127, 2901.975
496.609, 2863.181
497.091, 2811.301
497.573, 2754.242
498.055, 2700.274
498.537, 2651.540
499.019, 2606.541
499.501, 2564.053
499.984, 2524.977
500.466, 2490.326
500.948, 2470.162
501.430, 2446.021
501.912, 2408.878
502.394, 2357.243
502.876, 2308.312
503.358, 2259.524
503.841, 2216.714
504.323, 2184.025
504.805, 2165.019
505.287, 2148.319
505.769, 2132.892
506.251, 2119.710
506.733, 2111.592
507.215, 2109.524
507.698, 2108.005
508.180, 2105.362
508.662, 2101.553
509.144, 2095.574
509.626, 2087.151
510.108, 2079.657
510.590, 2075.232
511.072, 2074.226
511.554, 2077.015
512.036, 2082.512
512.519, 2094.765
513.001, 2125.038
513.483, 2166.171
513.965, 2200.239
514.447, 2209.737
514.929, 2215.628
515.411, 2233.571
515.893, 2263.933
516.375, 2294.864
516.858, 2319.298
517.340, 2343.892
517.822, 2374.146
518.304, 2425.503
518.786, 2461.734
519.268, 2469.320
519.750, 2461.181
520.232, 2460.179
520.715, 2477.660
521.197, 2483.891
521.679, 2469.610
522.161, 2435.144
522.643, 2396.926
523.125, 2355.305
523.607, 2309.584
524.089, 2256.513
524.571, 2197.070
525.054, 2142.695
525.536, 2094.153
526.018, 2052.181
526.500, 2023.960
526.982, 2005.457
527.464, 1979.951
527.946, 1929.308
528.429, 1874.231
528.911, 1842.414
529.393, 1831.606
529.875, 1821.824
530.357, 1802.872
530.839, 1778.668
531.321, 1751.492
531.803, 1719.027
532.286, 1690.482
532.768, 1671.446
533.250, 1657.450
533.732, 1642.728
534.214, 1621.001
534.696, 1604.662
535.178, 1598.155
535.660, 1599.972
536.142, 1597.203
536.625, 1586.291
537.107, 1576.955
537.589, 1575.357
538.071, 1583.036
538.553, 1587.391
539.035, 1587.950
539.517, 1586.238
539.999, 1584.024
540.481, 1581.226
540.964, 1577.692
541.446, 1574.543
541.928, 1569.147
542.410, 1552.353
542.892, 1527.689
543.374, 1511.275
543.856, 1516.567
544.338, 1532.167
544.820, 1550.907
545.303, 1573.045
545.785, 1585.552
546.267, 1572.178
546.749, 1551.094
547.231, 1539.254
547.713, 1555.620
548.195, 1563.443
548.677, 1550.292
549.159, 1525.124
549.642, 1510.673
550.124, 1514.854
550.606, 1517.469
551.088, 1508.690
551.570, 1488.348
552.052, 1491.287
552.534, 1524.909
553.016, 1560.725
553.499, 1573.862
553.981, 1565.691
554.463, 1555.641
554.945, 1545.820
555.427, 1535.804
555.909, 1520.528
556.391, 1503.783
556.873, 1497.630
557.356, 1517.663
557.838, 1543.793
558.320, 1555.781
558.802, 1555.505
559.284, 1553.444
559.766, 1556.405
560.248, 1558.347
560.730, 1554.183
561.213, 1540.469
561.695, 1529.662
562.177, 1524.691
562.659, 1523.572
563.141, 1524.125
563.623, 1528.601
564.105, 1530.938
564.587, 1530.060
565.069, 1526.575
565.552, 1521.995
566.034, 1515.727
566.516, 1510.740
566.998, 1510.000
567.480, 1512.325
567.962, 1506.183
568.444, 1490.515
568.926, 1479.067
569.408, 1492.422
569.891, 1518.802
570.373, 1529.914
570.855, 1514.094
571.337, 1498.876
571.819, 1516.894
572.301, 1550.912
572.783, 1569.709
573.265, 1542.621
573.747, 1514.423
574.230, 1507.326
574.712, 1519.321
575.194, 1528.045
575.676, 1524.207
576.158, 1521.282
576.640, 1527.188
577.122, 1548.781
577.604, 1554.556
578.086, 1537.927
578.569, 1514.298
579.051, 1500.272
579.533, 1496.734
580.015, 1495.371
580.497, 1494.810
580.979, 1495.419
581.461, 1499.648
581.943, 1506.722
582.426, 1510.766
582.908, 1507.230
583.390, 1499.683
583.872, 1491.150
584.354, 1482.000
584.836, 1476.692
585.318, 1476.863
585.800, 1482.713
586.282, 1496.987
586.765, 1528.771
587.247, 1547.867
587.729, 1533.923
588.211, 1507.121
588.693, 1495.578
589.175, 1517.885
589.657, 1528.897
590.140, 1516.211
590.622, 1487.922
591.104, 1477.580
591.586, 1489.524
592.068, 1503.997
592.550, 1514.224
593.032, 1519.645
593.514, 1511.945
593.996, 1490.187
594.479, 1469.155
594.961, 1461.473
595.443, 1464.348
595.925, 1474.354
596.407, 1494.534
596.889, 1510.839
597.371, 1508.177
597.853, 1495.065
598.335, 1485.106
598.818, 1487.159
599.300, 1489.057
599.782, 1482.465
600.264, 1469.997
600.746, 1469.903
601.228, 1500.660
601.710, 1524.201
602.192, 1522.275
602.674, 1489.634
603.157, 1476.879
603.639, 1489.386
604.121, 1509.725
604.603, 1525.035
605.085, 1534.984
