##NAMES=Awaruite
##RRUFFID=R061020
##IDEAL CHEMISTRY=Ni_3_Fe
##LOCALITY=Oregon, USA
##OWNER=RRUFF
##SOURCE=Michael Scott
##DESCRIPTION=Silver metallic massive pebbles with brownish-red oxidized coating, variety josephinite
##STATUS=The identification of this mineral has been confirmed by X-ray diffraction and chemical analysis
##URL=rruff.info/R061020
##MEASURED CHEMISTRY=light phase: (Ni_2.60_Fe_0.40_)_Σ=3_(Fe_0.93_Co_0.07_)_Σ=1_ ; the rim (dark phase) is a Ni-Fe-silicate
174.5606, 6544.303
175.0427, 6531.635
175.5248, 6516.489
176.0069, 6509.198
176.4890, 6518.432
176.9712, 6537.301
177.4533, 6544.292
177.9354, 6530.039
178.4175, 6520.527
178.8996, 6529.866
179.3817, 6549.196
179.8639, 6565.487
180.3460, 6571.005
180.8281, 6569.226
181.3102, 6571.778
181.7923, 6581.169
182.2744, 6590.642
182.7566, 6595.351
183.2387, 6598.941
183.7208, 6607.440
184.2029, 6626.187
184.6850, 6650.356
185.1671, 6663.108
185.6493, 6656.597
186.1314, 6650.965
186.6135, 6652.060
187.0956, 6658.017
187.5777, 6666.575
188.0598, 6677.081
188.5419, 6688.899
189.0241, 6700.052
189.5062, 6709.066
189.9883, 6719.960
190.4704, 6736.506
190.9525, 6754.657
191.4346, 6770.203
191.9168, 6782.229
192.3989, 6788.496
192.8810, 6758.208
193.3631, 6790.968
193.8452, 6811.574
194.3273, 6820.679
194.8095, 6783.834
195.2916, 6806.324
195.7737, 6805.035
196.2558, 6802.771
196.7379, 6833.612
197.2200, 6803.450
197.7022, 6833.767
198.1843, 6839.941
198.6664, 6857.165
199.1485, 6850.463
199.6306, 6851.150
200.1127, 6875.772
200.5949, 6887.142
201.0770, 6877.686
201.5591, 6869.910
202.0412, 6879.825
202.5233, 6888.661
203.0054, 6890.111
203.4876, 6881.289
203.9697, 6867.671
204.4518, 6861.305
204.9339, 6866.537
205.4160, 6870.271
205.8981, 6865.255
206.3803, 6860.426
206.8624, 6865.952
207.3445, 6885.438
207.8266, 6909.367
208.3087, 6920.425
208.7908, 6915.009
209.2730, 6903.838
209.7551, 6879.377
210.2372, 6855.809
210.7193, 6844.504
211.2014, 6848.734
211.6835, 6862.859
212.1657, 6880.374
212.6478, 6905.253
213.1299, 6922.121
213.6120, 6926.634
214.0941, 6925.177
214.5762, 6919.119
215.0584, 6909.624
215.5405, 6901.752
216.0226, 6878.465
216.5047, 6912.329
216.9868, 6934.037
217.4689, 6944.244
217.9511, 6908.501
218.4332, 6932.093
218.9153, 6931.906
219.3974, 6930.744
219.8795, 6962.687
220.3616, 6933.626
220.8438, 6965.046
221.3259, 6972.322
221.8080, 6990.647
222.2901, 6985.047
222.7722, 6986.836
223.2543, 7012.559
223.7365, 7025.031
224.2186, 7016.676
224.7007, 7035.704
225.1828, 7005.808
225.6649, 7018.843
226.1470, 7035.801
226.6292, 7050.962
227.1113, 7062.539
227.5934, 7062.217
228.0755, 7050.294
228.5576, 7045.262
229.0397, 7058.816
229.5219, 7066.217
230.0040, 7050.629
230.4861, 7020.984
230.9682, 6998.620
231.4503, 7001.496
231.9324, 7024.607
232.4146, 7034.392
232.8967, 7016.078
233.3788, 7005.565
233.8609, 7020.778
234.3430, 7051.650
234.8251, 7081.620
235.3073, 7103.654
235.7894, 7117.504
236.2715, 7120.696
236.7536, 7107.073
237.2357, 7094.547
237.7178, 7088.924
238.2000, 7088.259
238.6821, 7090.738
239.1642, 7096.432
239.6463, 7103.521
240.1284, 7107.390
240.6105, 7105.432
241.0927, 7108.167
241.5748, 7127.813
242.0569, 7150.125
242.5390, 7160.830
243.0211, 7154.480
243.5032, 7140.104
243.9854, 7128.971
244.4675, 7121.597
244.9496, 7114.562
245.4317, 7101.803
245.9138, 7092.281
246.3959, 7095.621
246.8781, 7114.501
247.3602, 7136.175
247.8423, 7147.565
248.3244, 7148.758
248.8065, 7151.622
249.2886, 7162.104
249.7708, 7171.897
250.2529, 7172.729
250.7350, 7164.125
251.2171, 7155.241
251.6992, 7150.576
252.1813, 7150.379
252.6635, 7156.988
253.1456, 7173.246
253.6277, 7192.985
254.1098, 7212.934
254.5919, 7232.511
255.0740, 7246.554
255.5562, 7247.731
256.0383, 7242.028
256.5204, 7244.571
257.0025, 7259.525
257.4846, 7275.657
257.9667, 7281.330
258.4489, 7280.178
258.9310, 7282.897
259.4131, 7298.721
259.8952, 7317.592
260.3773, 7324.741
260.8594, 7318.721
261.3416, 7309.966
261.8237, 7304.295
262.3058, 7301.428
262.7879, 7300.119
263.2700, 7299.812
263.7521, 7301.387
264.2343, 7309.040
264.7164, 7321.639
265.1985, 7326.498
265.6806, 7312.974
266.1627, 7288.513
266.6448, 7276.846
267.1270, 7289.470
267.6091, 7298.712
268.0912, 7283.005
268.5733, 7251.892
269.0554, 7234.011
269.5375, 7242.854
270.0197, 7267.342
270.5018, 7282.543
270.9839, 7286.113
271.4660, 7288.930
271.9481, 7299.268
272.4302, 7309.037
272.9124, 7302.224
273.3945, 7273.125
273.8766, 7238.967
274.3587, 7225.187
274.8408, 7239.571
275.3229, 7252.407
275.8051, 7258.142
276.2872, 7264.073
276.7693, 7279.739
277.2514, 7305.173
277.7335, 7328.371
278.2156, 7335.574
278.6978, 7322.515
279.1799, 7319.992
279.6620, 7344.169
280.1441, 7363.132
280.6262, 7354.408
281.1083, 7323.957
281.5905, 7293.552
282.0726, 7278.649
282.5547, 7278.746
283.0368, 7286.784
283.5189, 7322.596
284.0010, 7344.027
284.4832, 7331.905
284.9653, 7300.566
285.4474, 7271.902
285.9295, 7257.104
286.4116, 7252.811
286.8937, 7247.908
287.3759, 7233.685
287.8580, 7232.343
288.3401, 7258.306
288.8222, 7290.505
289.3043, 7310.143
289.7864, 7311.325
290.2685, 7300.735
290.7506, 7287.078
291.2328, 7266.771
291.7149, 7253.170
292.1970, 7255.419
292.6791, 7257.333
293.1612, 7244.544
293.6433, 7219.178
294.1255, 7199.180
294.6076, 7205.773
295.0897, 7240.907
295.5718, 7265.945
296.0539, 7276.342
296.5360, 7280.092
297.0182, 7277.272
297.5003, 7270.399
297.9824, 7263.728
298.4645, 7254.681
298.9466, 7249.240
299.4287, 7273.073
299.9109, 7346.337
300.3930, 7404.140
300.8751, 7406.224
301.3572, 7381.189
301.8393, 7363.586
302.3214, 7366.976
302.8036, 7376.669
303.2857, 7371.078
303.7678, 7348.791
304.2499, 7334.712
304.7320, 7340.458
305.2141, 7357.402
305.6963, 7377.632
306.1784, 7402.943
306.6605, 7420.431
307.1426, 7417.487
307.6247, 7399.378
308.1068, 7384.694
308.5890, 7379.186
309.0711, 7374.853
309.5532, 7358.173
310.0353, 7329.903
310.5174, 7311.826
310.9995, 7317.595
311.4817, 7332.861
311.9638, 7339.943
312.4459, 7336.981
312.9280, 7332.613
313.4101, 7335.180
313.8922, 7343.977
314.3744, 7343.780
314.8565, 7322.236
315.3386, 7303.427
315.8207, 7305.315
316.3028, 7321.947
316.7849, 7334.101
317.2671, 7330.842
317.7492, 7316.267
318.2313, 7306.167
318.7134, 7298.886
319.1955, 7297.657
319.6776, 7306.083
320.1598, 7319.466
320.6419, 7332.247
321.1240, 7342.573
321.6061, 7352.538
322.0882, 7365.483
322.5703, 7382.886
323.0525, 7399.809
323.5346, 7414.235
324.0167, 7429.592
324.4988, 7450.206
324.9809, 7474.505
325.4630, 7495.429
325.9452, 7505.261
326.4273, 7503.657
326.9094, 7510.256
327.3915, 7529.060
327.8736, 7552.595
328.3557, 7585.449
328.8379, 7620.495
329.3200, 7647.420
329.8021, 7661.013
330.2842, 7663.389
330.7663, 7655.670
331.2484, 7628.265
331.7306, 7616.743
332.2127, 7646.605
332.6948, 7686.801
333.1769, 7711.355
333.6590, 7714.814
334.1411, 7712.799
334.6233, 7722.734
335.1054, 7743.399
335.5875, 7755.738
336.0696, 7757.603
336.5517, 7748.408
337.0338, 7723.574
337.5160, 7685.936
337.9981, 7653.660
338.4802, 7636.492
338.9623, 7628.728
339.4444, 7623.505
339.9265, 7621.093
340.4087, 7614.593
340.8908, 7599.033
341.3729, 7574.935
341.8550, 7546.859
342.3371, 7505.006
342.8192, 7468.440
343.3014, 7451.855
343.7835, 7449.808
344.2656, 7445.908
344.7477, 7431.819
345.2298, 7415.215
345.7119, 7415.046
346.1941, 7446.792
346.6762, 7463.857
347.1583, 7449.044
347.6404, 7423.803
348.1225, 7409.031
348.6046, 7408.314
349.0868, 7412.727
349.5689, 7412.326
350.0510, 7405.439
350.5331, 7403.755
351.0152, 7414.565
351.4973, 7422.574
351.9795, 7417.924
352.4616, 7406.014
352.9437, 7398.971
353.4258, 7404.711
353.9079, 7419.541
354.3900, 7431.252
354.8722, 7448.046
355.3543, 7446.092
355.8364, 7394.822
356.3185, 7341.092
356.8006, 7337.537
357.2827, 7395.813
357.7649, 7460.109
358.2470, 7458.899
358.7291, 7388.618
359.2112, 7331.771
359.6933, 7294.098
360.1754, 7277.238
360.6576, 7291.061
361.1397, 7327.531
361.6218, 7355.048
362.1039, 7357.021
362.5860, 7340.298
363.0681, 7308.183
363.5503, 7255.982
364.0324, 7224.330
364.5145, 7248.307
364.9966, 7307.161
365.4787, 7350.296
365.9608, 7377.562
366.4430, 7384.536
366.9251, 7349.009
367.4072, 7291.243
367.8893, 7263.537
368.3714, 7285.667
368.8535, 7331.629
369.3357, 7361.668
369.8178, 7368.515
370.2999, 7381.641
370.7820, 7415.033
371.2641, 7446.081
371.7462, 7455.287
372.2283, 7443.688
372.7104, 7425.106
373.1926, 7408.723
373.6747, 7395.082
374.1568, 7396.594
374.6389, 7439.618
375.1210, 7467.899
375.6031, 7459.404
376.0853, 7434.651
376.5674, 7420.916
377.0495, 7428.854
377.5316, 7444.884
378.0137, 7444.115
378.4958, 7419.690
378.9780, 7402.512
379.4601, 7399.273
379.9422, 7401.630
380.4243, 7412.189
380.9064, 7426.879
381.3885, 7430.776
381.8707, 7401.736
382.3528, 7353.172
382.8349, 7334.214
383.3170, 7352.949
383.7991, 7377.522
384.2813, 7396.333
384.7634, 7408.144
385.2455, 7409.098
385.7276, 7394.153
386.2097, 7375.856
386.6918, 7359.104
387.1740, 7345.964
387.6561, 7346.962
388.1382, 7369.501
388.6203, 7396.590
389.1024, 7402.538
389.5845, 7383.873
390.0667, 7363.986
390.5488, 7332.974
391.0309, 7310.594
391.5130, 7319.848
391.9951, 7356.886
392.4772, 7394.848
392.9594, 7413.532
393.4415, 7415.375
393.9236, 7423.828
394.4057, 7434.997
394.8878, 7457.834
395.3699, 7520.443
395.8521, 7583.554
396.3342, 7594.705
396.8163, 7539.976
397.2984, 7462.729
397.7805, 7428.822
398.2626, 7450.771
398.7448, 7458.126
399.2269, 7439.069
399.7090, 7412.438
400.1911, 7384.355
400.6732, 7355.679
401.1553, 7325.942
401.6375, 7289.068
402.1196, 7254.762
402.6017, 7246.206
403.0838, 7267.507
403.5659, 7290.148
404.0480, 7303.599
404.5302, 7310.346
405.0123, 7314.313
405.4944, 7315.266
405.9765, 7315.044
406.4586, 7315.770
406.9407, 7315.802
407.4229, 7310.807
407.9050, 7299.637
408.3871, 7288.148
408.8692, 7281.661
409.3513, 7280.593
409.8334, 7283.583
410.3156, 7298.139
410.7977, 7308.908
411.2798, 7308.810
411.7619, 7299.327
412.2440, 7279.943
412.7261, 7249.465
413.2083, 7219.627
413.6904, 7222.363
414.1725, 7288.337
414.6546, 7328.127
415.1367, 7320.617
415.6188, 7303.332
416.1010, 7301.776
416.5831, 7315.394
417.0652, 7325.673
417.5473, 7311.614
418.0294, 7280.792
418.5115, 7277.398
418.9937, 7315.661
419.4758, 7349.632
419.9579, 7343.832
420.4400, 7326.965
420.9221, 7340.584
421.4042, 7407.240
421.8864, 7463.305
422.3685, 7441.059
422.8506, 7365.370
423.3327, 7321.248
423.8148, 7333.265
424.2969, 7362.846
424.7791, 7369.942
425.2612, 7353.184
425.7433, 7329.554
426.2254, 7282.678
426.7075, 7244.571
427.1896, 7247.647
427.6718, 7277.093
428.1539, 7288.104
428.6360, 7254.838
429.1181, 7197.299
429.6002, 7171.681
430.0823, 7205.042
430.5645, 7228.171
431.0466, 7227.297
431.5287, 7225.211
432.0108, 7245.321
432.4929, 7283.874
432.9750, 7312.692
433.4572, 7303.326
433.9393, 7262.301
434.4214, 7234.326
434.9035, 7220.129
435.3856, 7217.663
435.8677, 7239.327
436.3499, 7266.629
436.8320, 7274.678
437.3141, 7252.869
437.7962, 7231.607
438.2783, 7239.050
438.7604, 7266.484
439.2426, 7286.777
439.7247, 7294.212
440.2068, 7294.586
440.6889, 7294.166
441.1710, 7292.740
441.6531, 7282.443
442.1353, 7244.017
442.6174, 7214.759
443.0995, 7227.916
443.5816, 7264.887
444.0637, 7280.444
444.5458, 7253.072
445.0280, 7207.236
445.5101, 7196.915
445.9922, 7252.916
446.4743, 7283.404
446.9564, 7271.106
447.4385, 7251.836
447.9207, 7247.065
448.4028, 7254.228
448.8849, 7257.869
449.3670, 7245.542
449.8491, 7223.791
450.3312, 7213.192
450.8134, 7216.891
451.2955, 7220.240
451.7776, 7217.702
452.2597, 7212.453
452.7418, 7207.460
453.2239, 7202.828
453.7060, 7199.563
454.1881, 7200.924
454.6703, 7203.064
455.1524, 7197.921
455.6345, 7184.507
456.1166, 7171.389
456.5987, 7165.076
457.0808, 7165.001
457.5630, 7165.148
458.0451, 7162.226
458.5272, 7163.180
459.0093, 7169.946
459.4914, 7181.307
459.9735, 7197.718
460.4557, 7218.466
460.9378, 7239.035
461.4199, 7255.082
461.9020, 7267.620
462.3841, 7267.571
462.8662, 7242.006
463.3484, 7218.524
463.8305, 7209.845
464.3126, 7209.034
464.7947, 7203.049
465.2768, 7184.382
465.7589, 7167.171
466.2411, 7173.845
466.7232, 7201.218
467.2053, 7216.287
467.6874, 7208.184
468.1695, 7191.833
468.6516, 7181.982
469.1338, 7178.112
469.6159, 7178.068
470.0980, 7182.809
470.5801, 7190.076
471.0622, 7203.127
471.5443, 7217.620
472.0265, 7219.261
472.5086, 7200.188
472.9907, 7173.676
473.4728, 7170.822
473.9549, 7220.276
474.4370, 7237.259
474.9192, 7190.356
475.4013, 7143.900
475.8834, 7142.428
476.3655, 7174.396
476.8476, 7197.170
477.3297, 7181.304
477.8119, 7142.830
478.2940, 7118.862
478.7761, 7111.331
479.2582, 7108.599
479.7403, 7107.989
480.2224, 7110.325
480.7046, 7117.718
481.1867, 7130.620
481.6688, 7140.447
482.1509, 7138.485
482.6330, 7134.874
483.1151, 7146.135
483.5973, 7170.371
484.0794, 7186.460
484.5615, 7180.521
485.0436, 7158.159
485.5257, 7139.786
486.0078, 7112.838
486.4900, 7107.213
486.9721, 7146.896
487.4542, 7191.706
487.9363, 7205.513
488.4184, 7189.783
488.9005, 7174.296
489.3827, 7186.615
489.8648, 7218.473
490.3469, 7226.617
490.8290, 7200.212
491.3111, 7178.006
491.7932, 7176.410
492.2754, 7184.684
492.7575, 7198.984
493.2396, 7221.061
493.7217, 7225.136
494.2038, 7177.010
494.6859, 7109.253
495.1681, 7077.331
495.6502, 7085.650
496.1323, 7105.531
496.6144, 7120.961
497.0965, 7130.956
497.5786, 7130.194
498.0608, 7103.100
498.5429, 7086.560
499.0250, 7093.985
499.5071, 7108.051
499.9892, 7112.662
500.4713, 7106.080
500.9535, 7096.669
501.4356, 7091.111
501.9177, 7089.341
502.3998, 7091.348
502.8819, 7099.613
503.3640, 7106.393
503.8462, 7110.013
504.3283, 7110.298
504.8104, 7105.738
505.2925, 7095.643
505.7746, 7085.940
506.2567, 7076.063
506.7389, 7070.273
507.2210, 7083.237
507.7031, 7115.547
508.1852, 7134.549
508.6673, 7113.356
509.1494, 7062.262
509.6316, 7035.083
510.1137, 7043.616
510.5958, 7058.960
511.0779, 7087.644
511.5600, 7115.464
512.0421, 7129.589
512.5242, 7128.892
513.0063, 7119.741
513.4885, 7105.276
513.9706, 7087.411
514.4527, 7077.440
514.9348, 7078.303
515.4169, 7079.730
515.8990, 7074.729
516.3812, 7070.572
516.8633, 7076.733
517.3454, 7095.194
517.8275, 7109.991
518.3096, 7112.635
518.7917, 7107.146
519.2739, 7095.688
519.7560, 7079.597
520.2381, 7068.023
520.7202, 7065.874
521.2023, 7073.150
521.6844, 7090.054
522.1666, 7147.130
522.6487, 7172.052
523.1308, 7134.579
523.6129, 7087.460
524.0950, 7071.356
524.5771, 7083.869
525.0593, 7097.272
525.5414, 7092.358
526.0235, 7073.994
526.5056, 7052.969
526.9877, 7027.281
527.4698, 7010.570
527.9520, 7013.405
528.4341, 7021.609
528.9162, 7016.580
529.3983, 6997.989
529.8804, 6987.036
530.3625, 6996.368
530.8447, 7011.805
531.3268, 7020.913
531.8089, 7024.464
532.2910, 7029.579
532.7731, 7040.543
533.2552, 7050.046
533.7374, 7040.455
534.2195, 6993.382
534.7016, 6968.035
535.1837, 6978.042
535.6658, 6994.416
536.1479, 7005.855
536.6301, 7012.380
537.1122, 7017.471
537.5943, 7023.434
538.0764, 7026.776
538.5585, 7019.714
539.0406, 7003.467
539.5228, 6994.671
540.0049, 7001.076
540.4870, 7005.962
540.9691, 6986.088
541.4512, 6943.068
541.9333, 6923.438
542.4155, 6951.754
542.8976, 6979.940
543.3797, 6982.931
543.8618, 6972.758
544.3439, 6971.796
544.8260, 6985.671
545.3082, 6997.626
545.7903, 6982.737
546.2724, 6938.407
546.7545, 6915.761
547.2366, 6927.670
547.7188, 6941.996
548.2009, 6951.778
548.6830, 6954.543
549.1651, 6940.855
549.6472, 6903.434
550.1293, 6881.887
550.6115, 6923.015
551.0936, 6991.165
551.5757, 7018.563
552.0578, 6998.782
552.5399, 6967.277
553.0220, 6945.024
553.5042, 6932.505
553.9863, 6931.909
554.4684, 6963.044
554.9505, 6979.958
555.4326, 6973.808
555.9147, 6958.853
556.3969, 6944.361
556.8790, 6931.319
557.3611, 6915.620
557.8432, 6889.465
558.3253, 6864.792
558.8074, 6877.456
559.2896, 6931.773
559.7717, 6965.523
560.2538, 6953.242
560.7359, 6923.076
561.2180, 6907.173
561.7001, 6904.711
562.1823, 6904.271
562.6644, 6909.718
563.1465, 6911.096
563.6286, 6892.271
564.1107, 6866.509
564.5928, 6866.476
565.0750, 6903.072
565.5571, 6944.305
566.0392, 6940.968
566.5213, 6885.189
567.0034, 6843.133
567.4855, 6813.648
567.9677, 6800.717
568.4498, 6816.574
568.9319, 6844.061
569.4140, 6858.292
569.8961, 6851.808
570.3782, 6842.462
570.8604, 6843.816
571.3425, 6849.649
571.8246, 6849.073
572.3067, 6840.962
572.7888, 6828.501
573.2709, 6812.681
573.7531, 6795.372
574.2352, 6784.077
574.7173, 6777.128
575.1994, 6779.525
575.6815, 6806.266
576.1636, 6829.589
576.6458, 6824.270
577.1279, 6797.448
577.6100, 6778.608
578.0921, 6788.155
578.5742, 6809.553
579.0563, 6812.037
579.5385, 6797.298
580.0206, 6796.231
580.5027, 6822.231
580.9848, 6850.383
581.4669, 6850.709
581.9490, 6820.705
582.4312, 6804.851
582.9133, 6809.854
583.3954, 6821.397
583.8775, 6840.848
584.3596, 6860.601
584.8417, 6871.113
585.3239, 6870.177
585.8060, 6861.872
586.2881, 6847.953
586.7702, 6829.643
587.2523, 6816.603
587.7344, 6807.729
588.2166, 6808.318
588.6987, 6832.749
589.1808, 6860.126
589.6629, 6859.215
590.1450, 6824.755
590.6271, 6795.635
591.1093, 6785.982
591.5914, 6784.702
592.0735, 6782.692
592.5556, 6780.462
593.0377, 6782.554
593.5198, 6791.197
594.0020, 6802.526
594.4841, 6809.355
594.9662, 6810.610
595.4483, 6811.698
595.9304, 6814.089
596.4125, 6814.372
596.8947, 6806.886
597.3768, 6797.569
597.8589, 6799.366
598.3410, 6821.773
598.8231, 6834.633
599.3052, 6808.265
599.7874, 6763.319
600.2695, 6731.968
600.7516, 6718.350
601.2337, 6716.868
601.7158, 6725.046
602.1979, 6740.302
602.6801, 6753.288
603.1622, 6767.259
603.6443, 6772.756
604.1264, 6757.224
604.6085, 6744.636
605.0906, 6751.783
605.5728, 6773.943
606.0549, 6795.634
606.5370, 6812.064
607.0191, 6821.802
607.5012, 6818.706
607.9833, 6807.139
608.4655, 6804.766
608.9476, 6816.136
609.4297, 6826.594
609.9118, 6821.737
610.3939, 6802.664
610.8760, 6788.880
611.3582, 6783.610
611.8403, 6779.605
612.3224, 6776.537
612.8045, 6774.112
613.2866, 6771.471
613.7687, 6769.074
614.2509, 6769.557
614.7330, 6779.063
615.2151, 6788.698
615.6972, 6778.777
616.1793, 6751.293
616.6614, 6730.357
617.1436, 6723.861
617.6257, 6723.615
618.1078, 6718.447
618.5899, 6706.707
619.0720, 6711.811
619.5541, 6755.575
620.0363, 6788.557
620.5184, 6791.230
621.0005, 6778.468
621.4826, 6762.984
621.9647, 6749.465
622.4468, 6743.948
622.9290, 6757.966
623.4111, 6782.064
623.8932, 6788.384
624.3753, 6776.298
624.8574, 6758.125
625.3395, 6734.048
625.8217, 6713.202
626.3038, 6712.001
626.7859, 6737.119
627.2680, 6744.449
627.7501, 6711.544
628.2322, 6684.650
628.7144, 6687.665
629.1965, 6707.008
629.6786, 6725.361
630.1607, 6737.034
630.6428, 6742.088
631.1249, 6737.096
631.6071, 6725.041
632.0892, 6720.173
632.5713, 6723.859
633.0534, 6724.448
633.5355, 6714.216
634.0176, 6701.497
634.4998, 6702.818
634.9819, 6723.690
635.4640, 6730.577
635.9461, 6700.286
636.4282, 6676.763
636.9103, 6692.508
637.3925, 6727.008
637.8746, 6746.226
638.3567, 6739.263
638.8388, 6721.058
639.3209, 6705.578
639.8030, 6692.696
640.2852, 6682.932
640.7673, 6677.305
641.2494, 6668.245
641.7315, 6649.390
642.2136, 6627.977
642.6957, 6617.866
643.1779, 6620.971
643.6600, 6626.138
644.1421, 6630.207
644.6242, 6638.511
645.1063, 6667.694
645.5884, 6699.016
646.0706, 6695.604
646.5527, 6646.493
647.0348, 6590.533
647.5169, 6568.922
647.9990, 6578.025
648.4811, 6604.695
648.9633, 6653.685
649.4454, 6684.360
649.9275, 6670.757
650.4096, 6634.988
650.8917, 6618.631
651.3738, 6627.716
651.8560, 6633.448
652.3381, 6634.460
652.8202, 6631.416
653.3023, 6615.579
653.7844, 6598.855
654.2665, 6604.318
654.7487, 6638.536
655.2308, 6673.998
655.7129, 6678.617
656.1950, 6660.225
656.6771, 6648.630
657.1592, 6645.137
657.6414, 6642.351
658.1235, 6636.466
658.6056, 6630.152
659.0876, 6628.729
659.5698, 6635.214
660.0519, 6636.840
660.5340, 6618.780
661.0161, 6612.122
661.4982, 6644.994
661.9803, 6691.351
662.4625, 6712.313
662.9446, 6697.786
663.4267, 6674.529
663.9088, 6663.944
664.3909, 6662.974
664.8730, 6665.105
665.3552, 6670.081
665.8373, 6675.387
666.3194, 6679.892
666.8015, 6684.393
667.2836, 6690.069
667.7657, 6696.911
668.2479, 6704.978
668.7300, 6712.000
669.2121, 6722.719
