##NAMES=Awaruite
##RRUFFID=R061020
##IDEAL CHEMISTRY=Ni_3_Fe
##LOCALITY=Oregon, USA
##OWNER=RRUFF
##SOURCE=Michael Scott
##DESCRIPTION=Silver metallic massive pebbles with brownish-red oxidized coating, variety josephinite
##STATUS=The identification of this mineral has been confirmed by X-ray diffraction and chemical analysis
##URL=rruff.info/R061020
##MEASURED CHEMISTRY=light phase: (Ni_2.60_Fe_0.40_)_Σ=3_(Fe_0.93_Co_0.07_)_Σ=1_ ; the rim (dark phase) is a Ni-Fe-silicate
170.9127, 9315.683
171.3948, 9363.637
171.8769, 9384.653
172.3590, 9380.761
172.8412, 9374.377
173.3233, 9381.565
173.8054, 9397.839
174.2875, 9415.490
174.7696, 9433.911
175.2517, 9451.085
175.7339, 9463.300
176.2160, 9470.311
176.6981, 9477.329
177.1802, 9487.451
177.6623, 9501.270
178.1444, 9520.109
178.6266, 9552.874
179.1087, 9589.668
179.5908, 9608.948
180.0729, 9606.759
180.5550, 9600.489
181.0371, 9612.979
181.5193, 9640.919
182.0014, 9667.055
182.4835, 9677.164
182.9656, 9677.979
183.4477, 9690.169
183.9298, 9719.386
184.4120, 9752.894
184.8941, 9768.074
185.3762, 9766.337
185.8583, 9765.750
186.3404, 9782.619
186.8225, 9812.340
187.3047, 9833.345
187.7868, 9838.832
188.2689, 9837.282
188.7510, 9846.660
189.2331, 9867.124
189.7152, 9892.579
190.1974, 9921.980
190.6795, 9954.115
191.1616, 9977.344
191.6437, 9986.133
192.1258, 9985.120
192.6080, 9989.798
193.0901, 10000.95
193.5722, 10013.37
194.0543, 10021.57
194.5364, 10025.52
195.0185, 10030.20
195.5007, 10036.70
195.9828, 10045.00
196.4649, 10052.92
196.9470, 10058.57
197.4291, 10070.04
197.9112, 10103.36
198.3934, 10161.68
198.8755, 10209.19
199.3576, 10232.43
199.8397, 10232.04
200.3218, 10224.43
200.8039, 10204.20
201.2861, 10187.16
201.7682, 10203.86
202.2503, 10263.01
202.7324, 10311.38
203.2145, 10322.63
203.6966, 10292.17
204.1788, 10273.52
204.6609, 10267.66
205.1430, 10272.70
205.6251, 10289.66
206.1072, 10324.33
206.5893, 10351.38
207.0715, 10353.17
207.5536, 10321.30
208.0357, 10311.40
208.5178, 10331.00
208.9999, 10368.88
209.4820, 10399.14
209.9642, 10420.99
210.4463, 10437.23
210.9284, 10447.47
211.4105, 10448.60
211.8926, 10455.68
212.3747, 10470.92
212.8569, 10492.27
213.3390, 10514.69
213.8211, 10540.59
214.3032, 10562.26
214.7853, 10574.06
215.2674, 10572.92
215.7496, 10570.37
216.2317, 10564.16
216.7138, 10557.05
217.1959, 10563.77
217.6780, 10588.17
218.1601, 10620.30
218.6423, 10657.58
219.1244, 10713.10
219.6065, 10738.12
220.0886, 10710.84
220.5707, 10639.46
221.0528, 10619.78
221.5350, 10677.86
222.0171, 10751.78
222.4992, 10790.66
222.9813, 10779.06
223.4634, 10766.04
223.9455, 10757.62
224.4277, 10753.79
224.9098, 10757.53
225.3919, 10772.33
225.8740, 10790.72
226.3561, 10805.39
226.8382, 10812.23
227.3204, 10823.41
227.8025, 10841.75
228.2846, 10867.39
228.7667, 10896.36
229.2488, 10935.71
229.7310, 10970.90
230.2131, 10984.77
230.6952, 10964.76
231.1773, 10946.41
231.6594, 10937.37
232.1415, 10938.54
232.6237, 10942.23
233.1058, 10949.56
233.5879, 10958.51
234.0700, 10965.83
234.5521, 10967.46
235.0342, 10974.85
235.5164, 10993.09
235.9985, 11025.20
236.4806, 11050.64
236.9627, 11070.37
237.4448, 11082.49
237.9269, 11081.80
238.4091, 11054.47
238.8912, 11037.61
239.3733, 11044.59
239.8554, 11082.33
240.3375, 11112.23
240.8196, 11129.94
241.3018, 11142.54
241.7839, 11163.13
242.2660, 11204.01
242.7481, 11231.84
243.2302, 11228.91
243.7123, 11177.32
244.1945, 11165.62
244.6766, 11220.51
245.1587, 11300.07
245.6408, 11329.03
246.1229, 11274.81
246.6050, 11224.40
247.0872, 11210.28
247.5693, 11247.05
248.0514, 11271.43
248.5335, 11276.70
249.0156, 11273.00
249.4977, 11280.90
249.9799, 11307.47
250.4620, 11333.19
250.9441, 11350.24
251.4262, 11354.85
251.9083, 11363.06
252.3904, 11377.30
252.8726, 11393.87
253.3547, 11404.58
253.8368, 11406.86
254.3189, 11408.01
254.8010, 11411.49
255.2831, 11419.65
255.7653, 11422.01
256.2474, 11413.39
256.7295, 11401.63
257.2116, 11405.23
257.6937, 11431.14
258.1758, 11458.72
258.6580, 11479.82
259.1401, 11494.40
259.6222, 11502.53
260.1043, 11501.53
260.5864, 11495.53
261.0685, 11492.72
261.5507, 11491.37
262.0328, 11496.94
262.5149, 11512.96
262.9970, 11542.68
263.4791, 11572.35
263.9612, 11602.99
264.4434, 11633.11
264.9255, 11659.68
265.4076, 11682.45
265.8897, 11702.26
266.3718, 11719.81
266.8539, 11735.17
267.3361, 11747.67
267.8182, 11758.31
268.3003, 11765.14
268.7824, 11761.38
269.2645, 11742.03
269.7466, 11726.41
270.2288, 11723.33
270.7109, 11734.14
271.1930, 11752.50
271.6751, 11784.73
272.1572, 11818.47
272.6393, 11821.07
273.1215, 11782.13
273.6036, 11751.35
274.0857, 11761.01
274.5678, 11817.62
275.0499, 11847.36
275.5320, 11839.43
276.0142, 11814.83
276.4963, 11819.67
276.9784, 11860.29
277.4605, 11897.63
277.9426, 11906.31
278.4247, 11884.93
278.9069, 11886.89
279.3890, 11921.75
279.8711, 11968.39
280.3532, 11983.16
280.8354, 11962.12
281.3175, 11944.98
281.7996, 11955.42
282.2817, 11991.93
282.7638, 12021.75
283.2459, 12044.27
283.7281, 12059.01
284.2102, 12060.54
284.6923, 12048.32
285.1744, 12041.08
285.6565, 12051.18
286.1386, 12076.15
286.6208, 12098.79
287.1029, 12119.72
287.5850, 12135.07
288.0671, 12135.81
288.5492, 12122.78
289.0313, 12111.25
289.5135, 12111.07
289.9956, 12119.10
290.4777, 12117.58
290.9598, 12102.47
291.4419, 12092.49
291.9240, 12120.87
292.4062, 12182.19
292.8883, 12236.09
293.3704, 12261.38
293.8525, 12265.44
294.3346, 12266.86
294.8167, 12265.50
295.2989, 12265.06
295.7810, 12271.09
296.2631, 12282.10
296.7452, 12292.43
297.2273, 12297.76
297.7094, 12301.04
298.1916, 12309.57
298.6737, 12324.08
299.1558, 12336.49
299.6379, 12330.70
300.1200, 12315.47
300.6021, 12313.55
301.0843, 12349.49
301.5664, 12398.27
302.0485, 12423.22
302.5306, 12423.46
303.0127, 12419.93
303.4948, 12435.30
303.9770, 12459.27
304.4591, 12472.76
304.9412, 12451.48
305.4233, 12425.53
305.9054, 12427.97
306.3875, 12458.17
306.8697, 12493.26
307.3518, 12523.69
307.8339, 12547.12
308.3160, 12559.67
308.7981, 12551.54
309.2802, 12538.39
309.7624, 12529.38
310.2445, 12524.68
310.7266, 12526.56
311.2087, 12547.55
311.6908, 12571.66
312.1729, 12581.65
312.6551, 12558.10
313.1372, 12532.22
313.6193, 12514.40
314.1014, 12506.13
314.5835, 12517.10
315.0656, 12578.13
315.5478, 12646.89
316.0299, 12688.17
316.5120, 12669.08
316.9941, 12648.68
317.4762, 12653.10
317.9583, 12675.56
318.4405, 12689.86
318.9226, 12664.28
319.4047, 12642.39
319.8868, 12653.92
320.3689, 12744.08
320.8510, 12811.78
321.3332, 12817.16
321.8153, 12780.16
322.2974, 12760.26
322.7795, 12785.04
323.2616, 12817.07
323.7437, 12839.80
324.2259, 12850.93
324.7080, 12853.80
325.1901, 12838.63
325.6722, 12815.40
326.1543, 12806.68
326.6364, 12821.30
327.1186, 12843.73
327.6007, 12872.25
328.0828, 12920.88
328.5649, 12943.79
329.0470, 12917.92
329.5291, 12872.90
330.0113, 12858.04
330.4934, 12894.83
330.9755, 12933.91
331.4576, 12962.75
331.9397, 12980.47
332.4218, 12989.14
332.9040, 12976.80
333.3861, 12964.49
333.8682, 12981.46
334.3503, 13041.61
334.8324, 13102.32
335.3145, 13155.24
335.7967, 13200.55
336.2788, 13239.37
336.7609, 13280.02
337.2430, 13301.81
337.7251, 13271.18
338.2072, 13170.36
338.6894, 13095.30
339.1715, 13074.02
339.6536, 13097.76
340.1357, 13100.85
340.6178, 13076.94
341.0999, 13053.69
341.5821, 13055.49
342.0642, 13082.65
342.5463, 13119.46
343.0284, 13167.09
343.5105, 13219.41
343.9926, 13257.83
344.4748, 13281.90
344.9569, 13297.77
345.4390, 13312.63
345.9211, 13324.16
346.4032, 13314.71
346.8853, 13272.45
347.3675, 13225.14
347.8496, 13230.87
348.3317, 13282.91
348.8138, 13328.00
349.2959, 13322.17
349.7780, 13286.18
350.2602, 13263.43
350.7423, 13259.57
351.2244, 13267.33
351.7065, 13277.98
352.1887, 13293.46
352.6708, 13319.40
353.1529, 13377.09
353.6350, 13438.24
354.1171, 13466.60
354.5992, 13457.50
355.0814, 13438.84
355.5635, 13426.29
356.0456, 13419.75
356.5277, 13419.04
357.0098, 13431.92
357.4919, 13444.85
357.9741, 13442.92
358.4562, 13426.09
358.9383, 13421.22
359.4204, 13454.82
359.9025, 13502.79
360.3846, 13540.28
360.8668, 13554.93
361.3489, 13562.08
361.8310, 13562.07
362.3131, 13556.88
362.7952, 13560.31
363.2773, 13584.71
363.7595, 13614.06
364.2416, 13638.14
364.7237, 13657.54
365.2058, 13668.80
365.6879, 13664.03
366.1700, 13649.27
366.6522, 13644.21
367.1343, 13667.24
367.6164, 13686.83
368.0985, 13687.53
368.5806, 13642.82
369.0627, 13629.11
369.5449, 13664.92
370.0270, 13726.68
370.5091, 13774.39
370.9912, 13809.55
371.4733, 13828.14
371.9554, 13823.63
372.4376, 13789.23
372.9197, 13771.78
373.4018, 13777.99
373.8839, 13794.03
374.3660, 13802.74
374.8481, 13801.04
375.3303, 13802.01
375.8124, 13809.66
376.2945, 13823.17
376.7766, 13834.62
377.2587, 13843.13
377.7408, 13852.01
378.2230, 13865.09
378.7051, 13882.33
379.1872, 13898.91
379.6693, 13915.16
380.1514, 13928.90
380.6335, 13926.73
381.1157, 13908.03
381.5978, 13902.64
382.0799, 13947.42
382.5620, 14025.30
383.0441, 14072.73
383.5262, 14075.97
384.0084, 14063.69
384.4905, 14075.83
384.9726, 14106.82
385.4547, 14132.63
385.9368, 14138.08
386.4189, 14132.08
386.9011, 14123.21
387.3832, 14110.66
387.8653, 14107.33
388.3474, 14133.97
388.8295, 14175.89
389.3116, 14207.85
389.7938, 14220.06
390.2759, 14217.80
390.7580, 14193.83
391.2401, 14150.12
391.7222, 14122.69
392.2043, 14145.19
392.6865, 14184.56
393.1686, 14211.88
393.6507, 14204.93
394.1328, 14199.44
394.6149, 14210.70
395.0970, 14233.65
395.5792, 14247.72
396.0613, 14234.16
396.5434, 14221.22
397.0255, 14223.23
397.5076, 14251.97
397.9897, 14277.82
398.4719, 14302.18
398.9540, 14322.09
399.4361, 14331.00
399.9182, 14308.31
400.4003, 14299.50
400.8824, 14323.32
401.3646, 14389.60
401.8467, 14434.02
402.3288, 14450.58
402.8109, 14451.69
403.2930, 14448.73
403.7751, 14438.92
404.2573, 14433.39
404.7394, 14434.40
405.2215, 14441.67
405.7036, 14455.53
406.1857, 14478.47
406.6678, 14498.33
407.1500, 14500.95
407.6321, 14486.83
408.1142, 14483.86
408.5963, 14497.18
409.0784, 14521.09
409.5605, 14546.98
410.0427, 14574.58
410.5248, 14601.40
411.0069, 14636.37
411.4890, 14669.04
411.9711, 14666.49
412.4532, 14622.43
412.9354, 14571.43
413.4175, 14538.33
413.8996, 14526.14
414.3817, 14542.98
414.8638, 14634.66
415.3459, 14730.39
415.8281, 14746.78
416.3102, 14689.12
416.7923, 14638.84
417.2744, 14659.62
417.7565, 14708.52
418.2386, 14742.85
418.7208, 14747.27
419.2029, 14740.70
419.6850, 14721.44
420.1671, 14695.84
420.6492, 14683.08
421.1313, 14695.18
421.6135, 14716.99
422.0956, 14743.99
422.5777, 14783.05
423.0598, 14808.98
423.5420, 14805.73
424.0241, 14791.15
424.5062, 14791.13
424.9883, 14812.04
425.4704, 14840.51
425.9525, 14882.44
426.4347, 14939.54
426.9168, 14959.88
427.3989, 14917.75
427.8810, 14871.31
428.3631, 14875.44
428.8452, 14950.38
429.3274, 15001.10
429.8095, 15008.73
430.2916, 14986.69
430.7737, 14969.92
431.2558, 14957.01
431.7379, 14958.26
432.2201, 14989.56
432.7022, 15046.31
433.1843, 15082.45
433.6664, 15092.78
434.1485, 15091.78
434.6306, 15094.94
435.1128, 15102.15
435.5949, 15112.97
436.0770, 15133.14
436.5591, 15154.37
437.0412, 15160.88
437.5233, 15153.33
438.0055, 15142.77
438.4876, 15128.62
438.9697, 15119.23
439.4518, 15127.68
439.9339, 15168.07
440.4160, 15210.38
440.8982, 15234.88
441.3803, 15245.87
441.8624, 15255.97
442.3445, 15276.31
442.8266, 15292.75
443.3087, 15294.80
443.7909, 15275.55
444.2730, 15262.44
444.7551, 15261.42
445.2372, 15269.83
445.7193, 15284.37
446.2014, 15317.45
446.6836, 15342.59
447.1657, 15349.24
447.6478, 15338.52
448.1299, 15347.09
448.6120, 15395.51
449.0941, 15439.27
449.5763, 15444.89
450.0584, 15392.43
450.5405, 15361.40
451.0226, 15358.13
451.5047, 15377.14
451.9868, 15413.73
452.4690, 15473.55
452.9511, 15519.63
453.4332, 15528.09
453.9153, 15504.77
454.3974, 15497.85
454.8795, 15508.53
455.3617, 15527.94
455.8438, 15556.02
456.3259, 15587.05
456.8080, 15598.95
457.2901, 15578.25
457.7722, 15543.10
458.2544, 15507.11
458.7365, 15474.01
459.2186, 15464.61
459.7007, 15514.27
460.1828, 15583.47
460.6649, 15629.71
461.1471, 15643.25
461.6292, 15646.36
462.1113, 15643.30
462.5934, 15639.58
463.0755, 15643.48
463.5576, 15670.37
464.0398, 15693.62
464.5219, 15698.72
465.0040, 15685.22
465.4861, 15680.85
465.9682, 15698.38
466.4503, 15720.77
466.9325, 15736.84
467.4146, 15727.20
467.8967, 15740.78
468.3788, 15795.54
468.8609, 15870.01
469.3430, 15911.57
469.8252, 15912.35
470.3073, 15896.35
470.7894, 15864.23
471.2715, 15814.55
471.7536, 15796.32
472.2357, 15814.95
472.7179, 15849.67
473.2000, 15884.78
473.6821, 15919.53
474.1642, 15938.56
474.6463, 15932.83
475.1284, 15916.02
475.6106, 15908.37
476.0927, 15911.00
476.5748, 15932.72
477.0569, 16000.82
477.5390, 16084.27
478.0211, 16134.65
478.5033, 16144.55
478.9854, 16137.71
479.4675, 16128.34
479.9496, 16115.31
480.4317, 16096.89
480.9138, 16062.25
481.3960, 16031.62
481.8781, 16014.02
482.3602, 16009.04
482.8423, 16012.52
483.3244, 16025.46
483.8065, 16044.81
484.2887, 16070.28
484.7708, 16113.54
485.2529, 16141.67
485.7350, 16143.95
486.2171, 16134.36
486.6992, 16135.92
487.1814, 16157.81
487.6635, 16174.25
488.1456, 16176.06
488.6277, 16164.18
489.1098, 16160.51
489.5919, 16165.34
490.0741, 16177.50
490.5562, 16198.54
491.0383, 16228.53
491.5204, 16256.04
492.0026, 16279.64
492.4847, 16300.92
492.9668, 16323.82
493.4489, 16347.45
493.9310, 16367.31
494.4131, 16376.74
494.8953, 16382.51
495.3774, 16399.93
495.8595, 16429.21
496.3416, 16447.40
496.8237, 16419.68
497.3058, 16379.07
497.7880, 16365.61
498.2701, 16408.38
498.7522, 16452.58
499.2343, 16473.49
499.7164, 16476.26
500.1985, 16473.20
500.6807, 16446.53
501.1628, 16433.62
501.6449, 16457.46
502.1270, 16533.04
502.6091, 16578.90
503.0912, 16577.88
503.5734, 16558.46
504.0555, 16541.05
504.5376, 16515.92
505.0197, 16518.38
505.5018, 16565.94
505.9839, 16637.75
506.4661, 16668.04
506.9482, 16649.29
507.4303, 16626.17
507.9124, 16617.20
508.3945, 16622.28
508.8766, 16645.42
509.3588, 16689.32
509.8409, 16731.88
510.3230, 16743.59
510.8051, 16735.17
511.2872, 16736.88
511.7693, 16760.73
512.2515, 16793.08
512.7336, 16824.11
513.2157, 16852.58
513.6978, 16874.52
514.1799, 16885.54
514.6620, 16890.82
515.1442, 16891.45
515.6263, 16886.02
516.1084, 16887.17
516.5905, 16906.12
517.0726, 16930.38
517.5547, 16947.99
518.0369, 16954.58
518.5190, 16957.54
519.0011, 16951.12
519.4832, 16941.12
519.9653, 16949.63
520.4474, 16989.51
520.9296, 17026.10
521.4117, 17043.69
521.8938, 17040.03
522.3759, 17041.99
522.8580, 17048.52
523.3401, 17063.43
523.8223, 17104.70
524.3044, 17167.96
524.7865, 17188.85
525.2686, 17132.85
525.7507, 17057.99
526.2328, 17082.70
526.7150, 17186.21
527.1971, 17266.60
527.6792, 17233.99
528.1613, 17162.60
528.6434, 17137.74
529.1255, 17167.06
529.6077, 17207.41
530.0898, 17240.51
530.5719, 17268.27
531.0540, 17293.48
531.5361, 17331.73
532.0182, 17349.30
532.5004, 17314.41
532.9825, 17250.58
533.4646, 17225.57
533.9467, 17291.74
534.4288, 17346.16
534.9109, 17352.00
535.3931, 17300.58
535.8752, 17281.77
536.3573, 17304.70
536.8394, 17345.10
537.3215, 17389.50
537.8036, 17440.44
538.2858, 17462.88
538.7679, 17443.53
539.2500, 17408.65
539.7321, 17405.89
540.2142, 17433.12
540.6964, 17471.98
541.1785, 17533.94
541.6606, 17594.34
542.1427, 17600.96
542.6248, 17556.23
543.1069, 17511.24
543.5891, 17498.94
544.0712, 17506.52
544.5533, 17523.84
545.0354, 17559.37
545.5175, 17581.28
545.9996, 17557.77
546.4818, 17515.76
546.9639, 17499.67
547.4460, 17562.79
547.9281, 17606.29
548.4102, 17592.35
548.8923, 17525.54
549.3745, 17490.52
549.8566, 17494.81
550.3387, 17520.10
550.8208, 17566.41
551.3029, 17646.17
551.7850, 17672.40
552.2672, 17627.64
552.7493, 17563.29
553.2314, 17553.51
553.7135, 17594.20
554.1956, 17640.22
554.6777, 17685.58
555.1599, 17720.76
555.6420, 17721.55
556.1241, 17693.31
556.6062, 17664.54
557.0883, 17647.28
557.5704, 17641.97
558.0526, 17652.05
558.5347, 17679.55
559.0168, 17708.95
559.4989, 17745.89
559.9810, 17774.35
560.4631, 17778.34
560.9453, 17717.72
561.4274, 17674.93
561.9095, 17671.01
562.3916, 17694.11
562.8737, 17713.35
563.3558, 17719.56
563.8380, 17737.27
564.3201, 17784.36
564.8022, 17860.71
565.2843, 17889.98
565.7664, 17861.68
566.2485, 17820.88
566.7307, 17807.96
567.2128, 17819.03
567.6949, 17823.25
568.1770, 17816.08
568.6591, 17802.04
569.1412, 17775.64
569.6234, 17746.03
570.1055, 17737.31
570.5876, 17785.76
571.0697, 17840.52
571.5518, 17854.79
572.0339, 17835.22
572.5161, 17822.69
572.9982, 17836.69
573.4803, 17861.85
573.9624, 17891.45
574.4445, 17930.68
574.9266, 17958.34
575.4088, 17969.73
575.8909, 17971.08
576.3730, 17966.11
576.8551, 17946.56
577.3372, 17941.04
577.8193, 17959.36
578.3015, 17991.03
578.7836, 18006.91
579.2657, 18005.78
579.7478, 17997.97
580.2299, 17981.06
580.7120, 17961.15
581.1942, 17960.93
581.6763, 17980.45
582.1584, 18012.23
582.6405, 18068.27
583.1226, 18126.45
583.6047, 18149.63
584.0869, 18119.45
584.5690, 18083.92
585.0511, 18064.64
585.5332, 18060.42
586.0153, 18069.43
586.4974, 18112.07
586.9796, 18145.95
587.4617, 18152.10
587.9438, 18134.78
588.4259, 18132.72
588.9080, 18154.44
589.3901, 18180.61
589.8723, 18205.52
590.3544, 18231.41
590.8365, 18236.34
591.3186, 18213.38
591.8007, 18188.91
592.2828, 18198.46
592.7650, 18236.65
593.2471, 18256.83
593.7292, 18244.02
594.2113, 18222.64
594.6934, 18220.24
595.1755, 18235.91
595.6577, 18266.96
596.1398, 18343.70
596.6219, 18410.85
597.1040, 18413.88
597.5862, 18359.19
598.0683, 18316.11
598.5504, 18318.77
599.0325, 18335.33
599.5146, 18346.20
599.9968, 18339.55
600.4789, 18353.64
600.9610, 18409.71
601.4431, 18469.86
601.9252, 18487.37
602.4073, 18443.45
602.8895, 18426.34
603.3716, 18459.14
603.8537, 18516.85
604.3358, 18539.12
604.8179, 18526.86
605.3000, 18514.58
605.7822, 18526.50
606.2643, 18547.37
606.7464, 18544.68
607.2285, 18520.31
607.7106, 18496.83
608.1927, 18492.07
608.6749, 18494.82
609.1570, 18491.02
609.6391, 18470.71
610.1212, 18469.48
610.6033, 18521.38
611.0854, 18590.12
611.5676, 18633.38
612.0497, 18616.30
612.5318, 18614.57
613.0139, 18646.51
613.4960, 18696.06
613.9781, 18709.96
614.4603, 18675.94
614.9424, 18650.05
615.4245, 18658.25
615.9066, 18693.64
616.3887, 18722.26
616.8708, 18744.08
617.3530, 18755.48
617.8351, 18741.03
618.3172, 18717.29
618.7993, 18717.99
619.2814, 18752.00
619.7635, 18786.17
620.2457, 18790.00
620.7278, 18781.70
621.2099, 18784.08
621.6920, 18816.17
622.1741, 18846.16
622.6563, 18865.84
623.1384, 18877.34
623.6205, 18887.74
624.1026, 18907.11
624.5847, 18910.22
625.0668, 18880.71
625.5490, 18822.37
626.0311, 18801.44
626.5132, 18823.54
626.9953, 18858.58
627.4774, 18888.44
627.9595, 18913.84
628.4417, 18939.80
628.9238, 18967.46
629.4059, 18990.08
629.8880, 18996.07
630.3701, 18993.79
630.8522, 18997.28
631.3344, 19011.93
631.8165, 19031.01
632.2986, 19055.99
632.7807, 19082.33
633.2628, 19100.56
633.7449, 19093.37
634.2271, 19094.13
634.7092, 19120.01
635.1913, 19166.25
635.6734, 19187.09
636.1555, 19170.28
636.6376, 19151.23
637.1198, 19150.26
637.6019, 19167.63
638.0840, 19172.05
638.5661, 19161.45
639.0482, 19149.95
639.5303, 19149.50
640.0125, 19159.27
640.4946, 19178.03
640.9767, 19206.93
641.4588, 19240.19
641.9409, 19279.38
642.4230, 19318.02
642.9052, 19344.69
643.3873, 19345.09
643.8694, 19343.98
644.3515, 19351.63
644.8336, 19365.52
645.3157, 19373.68
645.7979, 19373.06
646.2800, 19369.66
646.7621, 19361.18
647.2442, 19347.76
647.7263, 19358.40
648.2084, 19398.56
648.6906, 19443.78
649.1727, 19481.50
649.6548, 19509.89
650.1369, 19509.93
650.6190, 19476.17
651.1011, 19443.12
651.5833, 19449.21
652.0654, 19479.01
652.5475, 19509.74
653.0296, 19546.25
653.5117, 19563.64
653.9938, 19522.82
654.4760, 19457.48
654.9581, 19432.77
655.4402, 19510.88
655.9223, 19576.42
656.4044, 19604.10
656.8865, 19598.61
657.3687, 19584.96
657.8508, 19557.28
658.3329, 19537.23
658.8150, 19537.81
659.2971, 19556.90
659.7792, 19573.58
660.2614, 19587.76
660.7435, 19603.90
661.2256, 19632.40
661.7077, 19664.06
662.1898, 19683.47
662.6719, 19688.44
663.1541, 19679.75
663.6362, 19627.71
664.1183, 19573.72
664.6004, 19567.80
665.0825, 19690.76
665.5646, 19781.38
