##NAMES=Axinite-(Fe)
##RRUFFID=R050061
##IDEAL CHEMISTRY=Ca_4_Fe^2+^_2_Al_4_[B_2_Si_8_O_30_](OH)_2_
##LOCALITY=Jamestown, California, USA
##OWNER=RRUFF
##SOURCE=Rock Currier
##DESCRIPTION=Brown colored axe-head-shaped single crystals
##STATUS=The identification of this mineral has been confirmed by X-ray diffraction and chemical analysis
##URL=rruff.info/R050061
##MEASURED CHEMISTRY=Ca_2.00_(Fe^2+^_0.73_Mg_0.20_Mn_0.07_)Al_2.00_BSi_4_O_15_(OH)
129.6975, 111.4606
130.1796, 122.5271
130.6617, 134.3641
131.1439, 145.3296
131.6260, 154.3786
132.1081, 161.7720
132.5902, 169.5458
133.0723, 176.8354
133.5544, 185.4871
134.0366, 198.1208
134.5187, 212.2441
135.0008, 223.6595
135.4829, 229.3656
135.9650, 229.6025
136.4471, 228.9400
136.9293, 226.2636
137.4114, 223.9174
137.8935, 222.9839
138.3756, 222.9922
138.8577, 222.8726
139.3398, 221.9721
139.8220, 220.2819
140.3041, 216.6836
140.7862, 206.9790
141.2683, 199.7132
141.7504, 199.5822
142.2325, 205.5784
142.7147, 213.5077
143.1968, 220.5021
143.6789, 226.4671
144.1610, 231.8316
144.6431, 233.4659
145.1252, 237.1236
145.6074, 247.1472
146.0895, 262.9948
146.5716, 280.1094
147.0537, 295.0259
147.5358, 307.6498
148.0179, 320.9207
148.5001, 336.6746
148.9822, 351.7148
149.4643, 363.3743
149.9464, 371.6840
150.4285, 379.2368
150.9106, 389.3279
151.3928, 401.0024
151.8749, 406.7350
152.3570, 405.2687
152.8391, 398.1559
153.3212, 383.9689
153.8033, 362.3290
154.2855, 342.5698
154.7676, 333.5631
155.2497, 333.1122
155.7318, 331.7728
156.2139, 327.4513
156.6960, 321.8633
157.1782, 316.3236
157.6603, 310.6462
158.1424, 306.6981
158.6245, 306.6616
159.1066, 309.5757
159.5887, 313.5682
160.0709, 319.6066
160.5530, 325.9317
161.0351, 329.0843
161.5172, 327.8557
161.9993, 327.6751
162.4814, 333.1997
162.9636, 342.4786
163.4457, 352.6111
163.9278, 362.5568
164.4099, 372.7244
164.8920, 384.1046
165.3741, 397.2974
165.8563, 409.9326
166.3384, 418.4487
166.8205, 425.5403
167.3026, 436.1136
167.7847, 453.4020
168.2668, 475.0797
168.7490, 496.8570
169.2311, 520.0529
169.7132, 540.3616
170.1953, 555.9929
170.6774, 567.5836
171.1595, 575.8510
171.6417, 582.1542
172.1238, 584.9161
172.6059, 579.2524
173.0880, 561.7581
173.5701, 542.2755
174.0522, 525.1339
174.5344, 508.9732
175.0165, 492.1765
175.4986, 474.1135
175.9807, 454.7190
176.4628, 432.5988
176.9449, 403.8784
177.4271, 379.9256
177.9092, 368.1628
178.3913, 362.3287
178.8734, 353.7686
179.3555, 337.2945
179.8376, 316.1203
180.3197, 299.6624
180.8019, 289.8300
181.2840, 281.7192
181.7661, 273.4028
182.2482, 265.6143
182.7303, 259.2670
183.2124, 254.7491
183.6946, 252.0182
184.1767, 250.9452
184.6588, 251.4721
185.1409, 254.0522
185.6230, 260.2599
186.1051, 267.6719
186.5873, 273.4969
187.0694, 276.3388
187.5515, 277.1292
188.0336, 277.8370
188.5157, 275.8523
188.9978, 278.8117
189.4800, 289.3292
189.9621, 304.2149
190.4442, 320.9864
190.9263, 338.6621
191.4084, 356.3298
191.8905, 371.4525
192.3727, 381.8726
192.8548, 393.6769
193.3369, 410.9008
193.8190, 428.4489
194.3011, 441.2182
194.7832, 447.1517
195.2654, 448.5523
195.7475, 450.4070
196.2296, 454.1691
196.7117, 455.4782
197.1938, 450.8927
197.6759, 445.5918
198.1581, 443.3711
198.6402, 445.5887
199.1223, 452.3020
199.6044, 463.9314
200.0865, 482.1222
200.5686, 502.4955
201.0508, 524.5873
201.5329, 548.2921
202.0150, 574.2710
202.4971, 602.5417
202.9792, 630.7083
203.4613, 654.4846
203.9435, 670.7322
204.4256, 689.5436
204.9077, 716.4153
205.3898, 742.2480
205.8719, 762.5306
206.3540, 775.6739
206.8362, 780.8126
207.3183, 776.2923
207.8004, 760.3074
208.2825, 738.5162
208.7646, 705.2521
209.2467, 671.3367
209.7289, 643.8069
210.2110, 623.1060
210.6931, 604.1216
211.1752, 580.3658
211.6573, 549.5811
212.1395, 522.9008
212.6216, 505.7148
213.1037, 487.9021
213.5858, 462.4844
214.0679, 430.9111
214.5500, 400.6082
215.0322, 379.3381
215.5143, 368.5804
215.9964, 357.5692
216.4785, 346.1576
216.9606, 334.5822
217.4427, 322.7807
217.9249, 310.8358
218.4070, 298.6434
218.8891, 285.5950
219.3712, 271.5461
219.8533, 261.9822
220.3354, 261.5554
220.8176, 261.3399
221.2997, 260.0403
221.7818, 257.0967
222.2639, 251.5593
222.7460, 242.2016
223.2281, 229.6425
223.7103, 221.4036
224.1924, 222.0937
224.6745, 222.3721
225.1566, 219.9993
225.6387, 216.0480
226.1208, 212.0567
226.6030, 208.7903
227.0851, 206.4550
227.5672, 206.1564
228.0493, 211.3896
228.5314, 213.8307
229.0135, 209.6249
229.4957, 202.9623
229.9778, 198.5438
230.4599, 198.4952
230.9420, 201.6208
231.4241, 205.2460
231.9062, 210.4619
232.3884, 214.1599
232.8705, 214.8202
233.3526, 214.6405
233.8347, 215.4263
234.3168, 217.7862
234.7989, 221.3031
235.2811, 225.2030
235.7632, 229.2285
236.2453, 234.3656
236.7274, 243.2283
237.2095, 251.4062
237.6916, 254.2991
238.1738, 251.7638
238.6559, 249.4666
239.1380, 255.5210
239.6201, 273.0961
240.1022, 287.3295
240.5843, 294.2772
241.0665, 300.5824
241.5486, 309.3346
242.0307, 320.6619
242.5128, 332.9629
242.9949, 345.3928
243.4770, 358.2127
243.9592, 368.1896
244.4413, 374.6100
244.9234, 378.5795
245.4055, 379.8266
245.8876, 378.8758
246.3697, 376.6463
246.8519, 372.7500
247.3340, 367.8036
247.8161, 367.8530
248.2982, 377.0764
248.7803, 385.9458
249.2624, 391.1013
249.7446, 393.7658
250.2267, 395.8916
250.7088, 398.3753
251.1909, 401.1901
251.6730, 404.2579
252.1551, 407.5543
252.6373, 411.2091
253.1194, 414.0927
253.6015, 417.7407
254.0836, 424.5605
254.5657, 436.0284
255.0478, 448.6083
255.5300, 456.3895
256.0121, 458.1826
256.4942, 459.5798
256.9763, 463.1895
257.4584, 466.3784
257.9406, 466.2217
258.4227, 461.9642
258.9048, 458.0874
259.3869, 460.6837
259.8690, 470.1787
260.3511, 476.0108
260.8333, 471.6904
261.3154, 467.1629
261.7975, 469.2719
262.2796, 478.1802
262.7617, 490.4580
263.2438, 505.5781
263.7260, 522.7534
264.2081, 536.5530
264.6902, 543.5997
265.1723, 551.6444
265.6544, 565.8003
266.1365, 585.2849
266.6187, 607.7831
267.1008, 635.1825
267.5829, 664.3383
268.0650, 687.4131
268.5471, 702.1464
269.0292, 717.5005
269.5114, 742.7315
269.9935, 772.4814
270.4756, 797.5540
270.9577, 813.0779
271.4398, 825.0011
271.9219, 841.4494
272.4041, 862.7074
272.8862, 879.3790
273.3683, 886.1891
273.8504, 885.2269
274.3325, 881.4254
274.8146, 873.8969
275.2968, 865.4976
275.7789, 861.3401
276.2610, 858.9162
276.7431, 846.5576
277.2252, 817.0572
277.7073, 779.7667
278.1895, 750.5195
278.6716, 730.6872
279.1537, 710.5449
279.6358, 686.0189
280.1179, 659.0901
280.6000, 632.4910
281.0822, 606.3734
281.5643, 582.8965
282.0464, 564.9376
282.5285, 552.8418
283.0106, 543.0244
283.4927, 536.6794
283.9749, 531.4748
284.4570, 524.5974
284.9391, 516.0707
285.4212, 509.1238
285.9033, 506.9906
286.3854, 509.5699
286.8676, 509.3158
287.3497, 502.9194
287.8318, 497.1613
288.3139, 495.6410
288.7960, 497.4574
289.2781, 499.8674
289.7603, 501.3029
290.2424, 502.2578
290.7245, 504.8397
291.2066, 510.5905
291.6887, 515.9437
292.1708, 518.3419
292.6530, 520.7758
293.1351, 526.9516
293.6172, 538.1667
294.0993, 553.2816
294.5814, 570.5839
295.0635, 593.7916
295.5457, 611.9061
296.0278, 621.6208
296.5099, 628.9429
296.9920, 636.1383
297.4741, 644.5789
297.9562, 656.8248
298.4384, 676.4519
298.9205, 705.1741
299.4026, 729.5762
299.8847, 746.3173
300.3668, 762.2095
300.8489, 777.2195
301.3311, 793.3248
301.8131, 814.3717
302.2953, 843.7371
302.7774, 879.2075
303.2595, 909.4404
303.7416, 932.3635
304.2237, 952.5421
304.7058, 972.5662
305.1880, 990.0032
305.6701, 1001.985
306.1522, 1007.398
306.6343, 1008.063
307.1164, 1008.588
307.5985, 1012.105
308.0807, 1003.681
308.5628, 975.3732
309.0449, 937.4825
309.5270, 892.9736
310.0091, 842.9720
310.4912, 792.4542
310.9734, 745.8878
311.4555, 702.8311
311.9376, 658.4854
312.4197, 608.0467
312.9018, 563.5234
313.3839, 533.0386
313.8661, 513.4294
314.3482, 497.1514
314.8303, 481.8126
315.3124, 467.2664
315.7945, 452.9189
316.2766, 438.5250
316.7588, 425.8161
317.2409, 415.4454
317.7230, 407.7423
318.2051, 403.7993
318.6872, 406.2318
319.1693, 408.1253
319.6515, 402.9681
320.1336, 392.4094
320.6157, 383.8443
321.0978, 380.0991
321.5799, 378.9778
322.0620, 377.2926
322.5442, 375.1719
323.0263, 372.2248
323.5084, 365.8269
323.9905, 359.5905
324.4726, 358.8486
324.9547, 364.4733
325.4369, 372.3741
325.9190, 379.0427
326.4011, 384.3453
326.8832, 388.6317
327.3653, 391.0335
327.8474, 393.2778
328.3296, 397.4452
328.8117, 402.4424
329.2938, 404.7862
329.7759, 402.1961
330.2580, 395.8289
330.7401, 391.0075
331.2223, 388.9809
331.7044, 386.9397
332.1865, 386.8622
332.6686, 385.5918
333.1507, 377.8759
333.6328, 362.7215
334.1150, 346.5044
334.5971, 339.0733
335.0792, 344.1842
335.5613, 348.2180
336.0434, 348.9591
336.5255, 350.6820
337.0077, 355.5207
337.4898, 363.3401
337.9719, 372.8978
338.4540, 383.0634
338.9361, 394.0397
339.4182, 407.9833
339.9004, 427.5758
340.3825, 446.0655
340.8646, 460.2065
341.3467, 472.7599
341.8288, 487.0522
342.3109, 504.3787
342.7931, 523.8658
343.2752, 544.6695
343.7573, 567.0670
344.2394, 589.0922
344.7215, 610.8699
345.2036, 631.6431
345.6858, 650.7948
346.1679, 668.3538
346.6500, 685.1897
347.1321, 702.1070
347.6142, 718.7057
348.0963, 733.8741
348.5785, 747.3182
349.0606, 759.9675
349.5427, 772.2782
350.0248, 784.3582
350.5069, 796.4601
350.9890, 812.7869
351.4712, 825.9089
351.9533, 830.2520
352.4354, 826.1927
352.9175, 816.3915
353.3996, 803.0334
353.8817, 783.6237
354.3639, 749.0355
354.8460, 692.5477
355.3281, 639.0261
355.8102, 593.0075
356.2923, 553.3222
356.7744, 520.5637
357.2566, 494.3389
357.7387, 471.3618
358.2208, 448.2132
358.7029, 424.9412
359.1850, 400.8226
359.6671, 372.0421
360.1493, 346.3539
360.6314, 327.2235
361.1135, 313.9143
361.5956, 304.7995
362.0777, 299.1648
362.5598, 295.9959
363.0420, 291.4491
363.5241, 283.9256
364.0062, 277.6171
364.4883, 273.5400
364.9704, 270.4049
365.4525, 267.0978
365.9347, 263.4128
366.4168, 259.9318
366.8989, 257.5222
367.3810, 256.2539
367.8631, 254.5272
368.3452, 251.6659
368.8274, 249.0837
369.3095, 247.5149
369.7916, 246.7395
370.2737, 246.2180
370.7558, 245.6942
371.2379, 245.2808
371.7201, 244.7464
372.2022, 243.8948
372.6843, 244.9182
373.1664, 250.0359
373.6485, 256.8290
374.1306, 261.6138
374.6128, 263.9659
375.0949, 265.4434
375.5770, 265.5363
376.0591, 265.5226
376.5412, 268.3264
377.0233, 274.7446
377.5055, 282.4848
377.9876, 289.7059
378.4697, 296.3563
378.9518, 301.0063
379.4339, 300.0442
379.9160, 300.2898
380.3982, 306.2289
380.8803, 316.8037
381.3624, 328.3567
381.8445, 338.8219
382.3266, 349.1910
382.8087, 362.7809
383.2909, 383.9590
383.7730, 402.5764
384.2551, 415.7822
384.7372, 428.0494
385.2193, 442.0240
385.7014, 458.6908
386.1836, 479.2533
386.6657, 506.2556
387.1478, 540.1614
387.6299, 569.4412
388.1120, 590.6854
388.5941, 611.1780
389.0763, 637.6973
389.5584, 664.0271
390.0405, 679.9504
390.5226, 680.5961
391.0047, 671.0612
391.4868, 658.9434
391.9690, 644.4396
392.4511, 625.5786
392.9332, 598.6038
393.4153, 569.9258
393.8974, 547.6401
394.3795, 531.5818
394.8617, 511.0912
395.3438, 474.4520
395.8259, 432.2966
396.3080, 403.1108
396.7901, 389.0052
397.2722, 379.5555
397.7544, 368.0526
398.2365, 355.3481
398.7186, 345.4416
399.2007, 340.3720
399.6828, 335.8358
400.1649, 328.6759
400.6471, 321.3154
401.1292, 318.3047
401.6113, 321.1543
402.0934, 326.7196
402.5755, 330.2809
403.0576, 330.4164
403.5398, 332.9393
404.0219, 338.2578
404.5040, 345.2400
404.9861, 354.3463
405.4682, 364.6652
405.9503, 373.9148
406.4325, 380.3013
406.9146, 385.3552
407.3967, 394.7133
407.8788, 410.6526
408.3609, 426.2651
408.8430, 438.2090
409.3252, 450.7067
409.8073, 466.5992
410.2894, 486.4724
410.7715, 510.3341
411.2536, 538.0342
411.7357, 569.7031
412.2179, 605.5264
412.7000, 645.9066
413.1821, 689.1718
413.6642, 732.0108
414.1463, 777.0963
414.6284, 830.3058
415.1106, 899.6576
415.5927, 969.3596
416.0748, 1032.634
416.5569, 1087.530
417.0390, 1127.370
417.5211, 1149.522
418.0033, 1156.520
418.4854, 1151.592
418.9675, 1133.727
419.4496, 1104.861
419.9317, 1062.489
420.4138, 1011.243
420.8960, 946.3217
421.3781, 874.0370
421.8602, 811.0493
422.3423, 768.0175
422.8244, 742.0994
423.3065, 720.9832
423.7887, 704.0713
424.2708, 693.4847
424.7529, 694.0643
425.2350, 697.2777
425.7171, 696.5122
426.1992, 690.7255
426.6814, 682.8026
427.1635, 674.9159
427.6456, 667.0585
428.1277, 660.5781
428.6098, 658.0313
429.0919, 651.8676
429.5741, 635.6301
430.0562, 614.0516
430.5383, 594.4713
431.0204, 580.4064
431.5025, 564.7582
431.9846, 539.5275
432.4668, 507.4633
432.9489, 478.2326
433.4310, 454.2639
433.9131, 433.9196
434.3952, 415.9129
434.8773, 400.5985
435.3595, 385.0405
435.8416, 366.4188
436.3237, 349.9938
436.8058, 339.2682
437.2879, 333.3713
437.7701, 329.7845
438.2522, 327.3094
438.7343, 325.8394
439.2164, 324.9148
439.6985, 322.5350
440.1806, 324.5653
440.6628, 333.5471
441.1449, 344.3805
441.6270, 354.7982
442.1091, 364.1207
442.5912, 371.8338
443.0733, 377.1103
443.5555, 380.5919
444.0376, 385.9177
444.5197, 395.9127
445.0018, 399.7911
445.4839, 388.2615
445.9660, 371.0609
446.4482, 357.8435
446.9303, 350.4350
447.4124, 342.1837
447.8945, 327.6039
448.3766, 309.5614
448.8587, 294.2809
449.3409, 282.6416
449.8230, 271.8908
450.3051, 259.3156
450.7872, 245.4830
451.2693, 235.5173
451.7514, 231.8212
452.2336, 228.8685
452.7157, 224.7218
453.1978, 220.2982
453.6799, 217.1456
454.1620, 215.6444
454.6441, 214.7011
455.1263, 212.9661
455.6084, 210.3986
456.0905, 207.2859
456.5726, 201.5519
457.0547, 197.4736
457.5368, 197.3598
458.0190, 199.5448
458.5011, 201.4315
458.9832, 201.9714
459.4653, 201.6239
459.9474, 201.0398
460.4295, 200.2264
460.9117, 198.7584
461.3938, 196.1406
461.8759, 193.4043
462.3580, 190.2937
462.8401, 187.3393
463.3222, 187.9408
463.8044, 196.9706
464.2865, 206.8468
464.7686, 210.4847
465.2507, 208.9301
465.7328, 206.2310
466.2149, 203.7028
466.6971, 202.5021
467.1792, 204.9839
467.6613, 212.9156
468.1434, 221.1592
468.6255, 231.1198
469.1076, 240.1912
469.5898, 245.3804
470.0719, 248.1048
470.5540, 252.5851
471.0361, 261.8030
471.5182, 273.7906
472.0003, 282.5605
472.4825, 286.1832
472.9646, 291.7082
473.4467, 300.8686
473.9288, 312.3080
474.4109, 326.3303
474.8930, 342.4659
475.3752, 357.8308
475.8573, 369.5349
476.3394, 379.8830
476.8215, 392.7860
477.3036, 408.3227
477.7857, 425.1177
478.2679, 441.4224
478.7500, 459.4002
479.2321, 485.5644
479.7142, 523.0691
480.1963, 558.9053
480.6784, 590.5175
481.1606, 619.4609
481.6427, 646.3018
482.1248, 671.6828
482.6069, 697.7610
483.0890, 727.1586
483.5711, 757.7498
484.0533, 778.5020
484.5354, 789.2637
485.0175, 789.3962
485.4996, 779.8582
485.9817, 760.5748
486.4638, 728.7893
486.9460, 685.5414
487.4281, 639.3661
487.9102, 595.9003
488.3923, 554.6317
488.8744, 513.4330
489.3565, 471.8198
489.8387, 433.2910
490.3208, 399.5338
490.8029, 370.4710
491.2850, 344.7452
491.7671, 321.2946
492.2492, 303.8889
492.7314, 298.4574
493.2135, 297.3139
493.6956, 290.7892
494.1777, 278.6772
494.6598, 268.0116
495.1419, 264.2768
495.6241, 266.5222
496.1062, 268.5472
496.5883, 270.5329
497.0704, 271.9856
497.5525, 271.9164
498.0346, 271.9711
498.5168, 273.5898
498.9989, 276.8594
499.4810, 280.8110
499.9631, 285.2107
500.4452, 289.6400
500.9273, 291.8990
501.4095, 291.1960
501.8916, 291.7751
502.3737, 296.5796
502.8558, 303.1251
503.3379, 307.0130
503.8200, 307.1727
504.3022, 308.8534
504.7843, 316.6057
505.2664, 325.4212
505.7485, 328.1505
506.2306, 325.1797
506.7127, 323.3036
507.1949, 327.2686
507.6770, 335.6652
508.1591, 342.3637
508.6412, 348.0502
509.1233, 350.8016
509.6054, 348.2408
510.0876, 344.6272
510.5697, 344.2650
511.0518, 346.3332
511.5339, 345.5962
512.0161, 336.9390
512.4982, 323.6567
512.9803, 315.2132
513.4624, 312.5816
513.9445, 309.1824
514.4266, 302.3077
514.9088, 293.9216
515.3909, 286.7675
515.8730, 280.9763
516.3551, 274.5820
516.8372, 266.1035
517.3193, 257.4024
517.8015, 250.3064
518.2836, 244.5994
518.7657, 238.5866
519.2478, 231.2605
519.7299, 223.7264
520.2120, 218.7203
520.6942, 217.7205
521.1763, 216.4657
521.6584, 214.2645
522.1405, 212.4759
522.6226, 212.7235
523.1047, 213.9799
523.5869, 213.4535
524.0690, 209.1167
524.5511, 203.5222
525.0332, 201.0049
525.5153, 201.5459
525.9974, 202.1385
526.4796, 202.0630
526.9617, 201.8366
527.4438, 201.2355
527.9259, 200.4686
528.4080, 202.5187
528.8901, 211.7035
529.3723, 219.9718
529.8544, 221.3111
530.3365, 218.5415
530.8186, 217.0765
531.3007, 218.7877
531.7828, 222.4369
532.2650, 226.8550
532.7471, 232.7805
533.2292, 234.8836
533.7113, 229.0482
534.1934, 224.0220
534.6755, 223.2046
535.1577, 224.4706
535.6398, 224.7911
536.1219, 223.2318
536.6040, 221.3275
537.0861, 221.0604
537.5682, 221.6205
538.0504, 219.6905
538.5325, 214.4530
539.0146, 210.2959
539.4967, 211.2584
539.9788, 215.8320
540.4609, 216.4627
540.9431, 209.1318
541.4252, 203.8252
541.9073, 204.3495
542.3894, 206.6328
542.8715, 206.4287
543.3536, 203.6666
543.8358, 201.5189
544.3179, 202.8974
544.8000, 206.5519
545.2821, 206.6709
545.7642, 201.8291
546.2463, 197.3367
546.7285, 193.5884
547.2106, 191.4688
547.6927, 192.6995
548.1748, 196.8970
548.6569, 199.8370
549.1390, 198.5451
549.6211, 195.8643
550.1032, 195.0460
550.5853, 195.6837
551.0674, 195.3050
551.5496, 192.6184
552.0317, 190.1387
552.5138, 192.5260
552.9959, 203.0300
553.4780, 207.2657
553.9601, 200.1145
554.4423, 193.1310
554.9244, 189.6094
555.4065, 189.7279
555.8886, 194.1676
556.3707, 203.3265
556.8528, 213.0315
557.3350, 217.4325
557.8171, 217.3516
558.2992, 219.9041
558.7813, 226.5860
559.2634, 233.1970
559.7455, 236.7403
560.2277, 238.1028
560.7098, 240.2813
561.1919, 243.5472
561.6740, 247.2047
562.1561, 250.6258
562.6382, 254.5797
563.1204, 260.5426
563.6025, 268.1642
564.0846, 275.1624
564.5667, 279.8143
565.0488, 282.7925
565.5309, 286.8945
566.0131, 292.6774
566.4952, 298.1606
566.9773, 301.7337
567.4594, 305.9971
567.9415, 312.8917
568.4236, 322.0765
568.9058, 331.6520
569.3879, 341.4753
569.8700, 350.8049
570.3521, 358.3258
570.8342, 364.7038
571.3163, 372.7243
571.7985, 383.4460
572.2806, 393.9193
572.7627, 400.3680
573.2448, 402.3223
573.7269, 404.8607
574.2090, 412.6263
574.6912, 415.4464
575.1733, 406.3175
575.6554, 393.2597
576.1375, 385.5055
576.6196, 384.9005
577.1017, 385.9871
577.5839, 384.2447
578.0660, 380.2245
578.5481, 374.8758
579.0302, 367.7615
579.5123, 363.4870
579.9944, 364.7253
580.4766, 369.5498
580.9587, 374.4753
581.4408, 379.3646
581.9229, 384.8705
582.4050, 389.7660
582.8871, 396.4455
583.3693, 408.1000
583.8514, 422.5732
584.3335, 435.1459
584.8156, 443.5593
585.2977, 450.3391
585.7798, 459.3991
586.2620, 470.8406
586.7441, 483.5368
587.2262, 499.3920
587.7083, 513.4439
588.1904, 524.1967
588.6725, 530.9963
589.1547, 532.0244
589.6368, 526.0991
590.1189, 516.9271
590.6010, 504.5880
591.0831, 490.9025
591.5652, 478.9245
592.0474, 468.3829
592.5295, 456.0433
593.0116, 439.7000
593.4937, 420.3647
593.9758, 400.7807
594.4579, 380.8420
594.9401, 361.1338
595.4222, 340.4883
595.9043, 321.3711
596.3864, 305.3571
596.8685, 291.9499
597.3506, 279.7106
597.8328, 267.6787
598.3149, 257.6165
598.7970, 252.5385
599.2791, 250.5247
599.7612, 246.5711
600.2433, 239.6932
600.7255, 231.4330
601.2076, 222.5598
601.6897, 213.4928
602.1718, 207.6761
602.6539, 207.4157
603.1360, 207.4170
603.6182, 206.6912
604.1003, 206.5464
604.5824, 209.0784
605.0645, 213.3718
605.5466, 215.6437
606.0287, 212.9772
606.5109, 208.1517
606.9930, 204.8555
607.4751, 203.0668
607.9572, 202.9541
608.4393, 204.9202
608.9214, 207.1490
609.4036, 207.7164
609.8857, 206.6133
610.3678, 206.2097
610.8499, 206.6251
611.3320, 207.5118
611.8141, 209.6948
612.2963, 211.7465
612.7784, 211.7356
613.2605, 209.8321
613.7426, 208.3296
614.2247, 209.3033
614.7068, 211.6203
615.1890, 212.3457
615.6711, 211.4017
616.1532, 210.6602
616.6353, 210.8027
617.1174, 211.0983
617.5995, 211.0395
618.0817, 210.6147
618.5638, 208.5481
619.0459, 202.3435
619.5280, 197.3209
620.0101, 196.3113
620.4922, 197.2562
620.9744, 198.0528
621.4565, 198.0022
621.9386, 196.7276
622.4207, 193.9142
622.9028, 189.5942
623.3849, 182.8898
623.8671, 172.7454
624.3492, 166.8433
624.8313, 170.1848
625.3134, 175.6911
