##NAMES=Axinite-(Fe)
##RRUFFID=R040074
##IDEAL CHEMISTRY=Ca_4_Fe^2+^_2_Al_4_[B_2_Si_8_O_30_](OH)_2_
##LOCALITY=Luning, Nevada, USA
##OWNER=RRUFF
##SOURCE=University of Arizona Mineral Museum
##DESCRIPTION=Pale brown wedge-shaped crystal
##STATUS=The identification of this mineral has been confirmed by X-ray diffraction and chemical analysis
##URL=rruff.info/R040074
##MEASURED CHEMISTRY=(Ca_0.98_Mn_0.01_)_2_(Fe_0.41_Mg_0.39_Mn_0.20_)Al_1.95_B_1.20_Si_3.90_O_15_(OH)
122.1115, 811.1833
122.5936, 807.7395
123.0757, 819.7263
123.5579, 864.8138
124.0400, 933.9208
124.5221, 1004.999
125.0042, 1059.156
125.4863, 1094.823
125.9684, 1135.914
126.4506, 1189.638
126.9327, 1243.052
127.4148, 1290.645
127.8969, 1333.272
128.3790, 1376.629
128.8611, 1425.365
129.3432, 1478.477
129.8254, 1541.448
130.3075, 1628.135
130.7896, 1712.801
131.2717, 1786.645
131.7538, 1846.529
132.2359, 1890.839
132.7181, 1915.231
133.2002, 1909.223
133.6823, 1907.476
134.1644, 1915.492
134.6465, 1923.271
135.1286, 1920.920
135.6108, 1907.690
136.0929, 1893.328
136.5750, 1891.975
137.0571, 1898.649
137.5392, 1931.981
138.0213, 1997.496
138.5035, 2084.228
138.9856, 2186.669
139.4677, 2302.027
139.9498, 2425.788
140.4319, 2548.150
140.9140, 2662.434
141.3962, 2786.430
141.8783, 2931.706
142.3604, 3082.166
142.8425, 3220.468
143.3246, 3339.484
143.8067, 3445.231
144.2889, 3551.681
144.7710, 3658.407
145.2531, 3766.076
145.7352, 3861.512
146.2173, 3910.666
146.6994, 3919.327
147.1816, 3933.501
147.6637, 3949.010
148.1458, 3953.447
148.6279, 3942.424
149.1100, 3931.896
149.5921, 3933.687
150.0743, 3938.000
150.5564, 3927.450
151.0385, 3896.327
151.5206, 3842.059
152.0027, 3755.495
152.4848, 3625.615
152.9670, 3484.953
153.4491, 3336.489
153.9312, 3184.672
154.4133, 3040.409
154.8954, 2905.945
155.3775, 2786.049
155.8597, 2692.143
156.3418, 2627.409
156.8239, 2579.345
157.3060, 2545.731
157.7881, 2524.648
158.2702, 2508.359
158.7524, 2495.338
159.2345, 2483.502
159.7166, 2467.092
160.1987, 2437.505
160.6808, 2414.199
161.1629, 2413.356
161.6451, 2432.426
162.1272, 2451.281
162.6093, 2455.722
163.0914, 2456.355
163.5735, 2475.001
164.0556, 2516.576
164.5378, 2570.740
165.0199, 2628.951
165.5020, 2691.591
165.9841, 2765.125
166.4662, 2856.908
166.9483, 2960.755
167.4305, 3064.502
167.9126, 3167.325
168.3947, 3269.716
168.8768, 3379.798
169.3589, 3498.831
169.8410, 3595.364
170.3232, 3655.910
170.8053, 3680.585
171.2874, 3669.065
171.7695, 3609.389
172.2516, 3525.938
172.7337, 3443.551
173.2159, 3362.845
173.6980, 3272.904
174.1801, 3161.630
174.6622, 3037.524
175.1443, 2913.039
175.6264, 2791.137
176.1086, 2668.089
176.5907, 2534.965
177.0728, 2388.968
177.5549, 2250.419
178.0370, 2130.250
178.5191, 2024.631
179.0013, 1930.141
179.4834, 1845.650
179.9655, 1772.398
180.4476, 1714.186
180.9297, 1673.131
181.4118, 1635.915
181.8940, 1590.724
182.3761, 1547.347
182.8582, 1518.204
183.3403, 1508.168
183.8224, 1511.776
184.3046, 1522.734
184.7867, 1541.211
185.2688, 1565.935
185.7509, 1596.168
186.2330, 1632.458
186.7151, 1677.236
187.1973, 1732.856
187.6794, 1794.583
188.1615, 1855.347
188.6436, 1912.621
189.1257, 1978.216
189.6078, 2056.637
190.0900, 2145.931
190.5721, 2249.730
191.0542, 2374.663
191.5363, 2503.083
192.0184, 2615.309
192.5005, 2713.180
192.9827, 2785.843
193.4648, 2833.473
193.9469, 2851.652
194.4290, 2827.005
194.9111, 2747.442
195.3932, 2642.423
195.8754, 2545.749
196.3575, 2454.476
196.8396, 2382.890
197.3217, 2341.557
197.8038, 2321.016
198.2859, 2314.534
198.7681, 2319.322
199.2502, 2340.432
199.7323, 2389.053
200.2144, 2469.646
200.6965, 2553.193
201.1786, 2627.557
201.6608, 2700.985
202.1429, 2780.649
202.6250, 2870.285
203.1071, 2960.840
203.5892, 3040.162
204.0713, 3106.630
204.5535, 3173.623
205.0356, 3248.500
205.5177, 3323.875
205.9998, 3395.682
206.4819, 3464.661
206.9640, 3523.557
207.4462, 3563.383
207.9283, 3583.080
208.4104, 3593.134
208.8925, 3590.847
209.3746, 3582.818
209.8567, 3574.245
210.3388, 3566.086
210.8210, 3555.808
211.3031, 3540.727
211.7852, 3520.752
212.2673, 3498.766
212.7494, 3479.172
213.2315, 3454.775
213.7137, 3420.775
214.1958, 3376.826
214.6779, 3323.443
215.1600, 3257.066
215.6421, 3178.195
216.1242, 3105.749
216.6064, 3053.715
217.0885, 3000.944
217.5706, 2932.237
218.0527, 2846.800
218.5348, 2748.428
219.0169, 2628.255
219.4991, 2490.307
219.9812, 2378.627
220.4633, 2315.748
220.9454, 2266.063
221.4275, 2198.220
221.9096, 2112.577
222.3918, 2028.143
222.8739, 1956.089
223.3560, 1895.020
223.8381, 1838.118
224.3202, 1786.001
224.8023, 1735.505
225.2845, 1681.786
225.7666, 1625.789
226.2487, 1574.230
226.7308, 1533.024
227.2129, 1499.498
227.6950, 1464.083
228.1772, 1423.221
228.6593, 1385.776
229.1414, 1357.784
229.6235, 1338.278
230.1056, 1326.313
230.5877, 1327.764
231.0699, 1335.514
231.5520, 1333.325
232.0341, 1317.206
232.5162, 1299.267
232.9983, 1285.769
233.4804, 1277.063
233.9626, 1276.196
234.4447, 1286.858
234.9268, 1304.925
235.4089, 1325.061
235.8910, 1347.333
236.3731, 1370.718
236.8553, 1395.787
237.3374, 1421.589
237.8195, 1446.210
238.3016, 1469.356
238.7837, 1491.021
239.2658, 1510.082
239.7480, 1526.489
240.2301, 1543.968
240.7122, 1566.060
241.1943, 1590.734
241.6764, 1612.563
242.1585, 1629.067
242.6407, 1644.766
243.1228, 1661.000
243.6049, 1678.337
244.0870, 1702.381
244.5691, 1738.580
245.0512, 1782.297
245.5334, 1819.838
246.0155, 1845.608
246.4976, 1873.266
246.9797, 1908.721
247.4618, 1951.556
247.9439, 2003.415
248.4261, 2068.806
248.9082, 2138.471
249.3903, 2191.389
249.8724, 2220.232
250.3545, 2251.469
250.8366, 2297.154
251.3188, 2351.004
251.8009, 2401.936
252.2830, 2446.374
252.7651, 2485.748
253.2472, 2523.458
253.7293, 2562.950
254.2115, 2591.022
254.6936, 2600.669
255.1757, 2599.505
255.6578, 2595.176
256.1399, 2589.455
256.6220, 2584.179
257.1042, 2580.672
257.5863, 2576.958
258.0684, 2584.277
258.5505, 2605.195
259.0326, 2635.877
259.5147, 2674.238
259.9969, 2719.754
260.4790, 2770.961
260.9611, 2827.156
261.4432, 2888.287
261.9253, 2955.317
262.4074, 3024.595
262.8896, 3101.590
263.3717, 3192.000
263.8538, 3293.979
264.3359, 3402.288
264.8180, 3514.097
265.3001, 3629.771
265.7823, 3734.906
266.2644, 3814.777
266.7465, 3901.968
267.2286, 4021.596
267.7107, 4155.260
268.1928, 4265.590
268.6750, 4328.791
269.1571, 4355.742
269.6392, 4399.097
270.1213, 4495.437
270.6034, 4566.998
271.0855, 4596.355
271.5677, 4599.900
272.0498, 4597.061
272.5319, 4596.082
273.0140, 4592.041
273.4961, 4574.335
273.9782, 4543.307
274.4604, 4495.541
274.9425, 4420.625
275.4246, 4337.699
275.9067, 4267.294
276.3888, 4211.998
276.8709, 4151.901
277.3531, 4056.448
277.8352, 3914.883
278.3173, 3772.914
278.7994, 3625.537
279.2815, 3483.753
279.7636, 3351.628
280.2458, 3230.181
280.7279, 3118.568
281.2100, 3014.841
281.6921, 2918.611
282.1742, 2838.064
282.6563, 2781.071
283.1385, 2731.606
283.6206, 2677.073
284.1027, 2623.889
284.5848, 2588.290
285.0669, 2586.088
285.5490, 2608.204
286.0312, 2620.672
286.5133, 2615.022
286.9954, 2617.544
287.4775, 2640.520
287.9596, 2678.074
288.4417, 2723.701
288.9239, 2776.330
289.4060, 2834.090
289.8881, 2893.872
290.3702, 2955.137
290.8523, 3021.884
291.3344, 3099.677
291.8166, 3181.720
292.2987, 3259.397
292.7808, 3330.399
293.2629, 3400.720
293.7450, 3474.385
294.2271, 3550.805
294.7093, 3628.962
295.1914, 3710.005
295.6735, 3790.427
296.1556, 3866.693
296.6377, 3938.591
297.1198, 4008.890
297.6020, 4084.025
298.0841, 4157.274
298.5662, 4217.129
299.0483, 4261.751
299.5304, 4294.479
300.0125, 4317.986
300.4947, 4332.272
300.9768, 4337.905
301.4589, 4331.758
301.9410, 4319.157
302.4231, 4302.093
302.9052, 4281.689
303.3874, 4263.195
303.8695, 4251.248
304.3516, 4245.390
304.8337, 4234.657
305.3158, 4220.906
305.7979, 4201.394
306.2801, 4177.246
306.7622, 4146.410
307.2443, 4104.957
307.7264, 4051.170
308.2085, 3985.126
308.6906, 3908.021
309.1728, 3797.355
309.6549, 3702.021
310.1370, 3627.983
310.6191, 3568.534
311.1012, 3516.151
311.5833, 3468.655
312.0655, 3429.980
312.5476, 3406.359
313.0297, 3399.090
313.5118, 3405.209
313.9939, 3424.911
314.4760, 3455.459
314.9582, 3497.545
315.4403, 3549.820
315.9224, 3608.576
316.4045, 3673.864
316.8866, 3745.660
317.3687, 3803.940
317.8509, 3849.669
318.3330, 3878.156
318.8151, 3886.568
319.2972, 3877.648
319.7793, 3857.425
320.2614, 3832.198
320.7436, 3793.531
321.2257, 3718.516
321.7078, 3599.585
322.1899, 3466.675
322.6720, 3316.674
323.1541, 3164.138
323.6363, 3023.687
324.1184, 2899.375
324.6005, 2783.556
325.0826, 2664.159
325.5647, 2541.917
326.0468, 2443.745
326.5290, 2384.254
327.0111, 2342.911
327.4932, 2295.930
327.9753, 2243.178
328.4574, 2195.500
328.9395, 2154.907
329.4217, 2123.168
329.9038, 2107.724
330.3859, 2111.816
330.8680, 2115.537
331.3501, 2097.929
331.8322, 2061.157
332.3144, 2035.955
332.7965, 2026.207
333.2786, 2027.196
333.7607, 2036.969
334.2428, 2055.049
334.7249, 2079.531
335.2070, 2108.492
335.6891, 2143.645
336.1713, 2193.662
336.6534, 2262.482
337.1355, 2338.736
337.6176, 2416.908
338.0997, 2502.469
338.5818, 2605.708
339.0640, 2729.281
339.5461, 2862.594
340.0282, 2987.410
340.5103, 3091.555
340.9924, 3215.609
341.4745, 3380.739
341.9567, 3545.219
342.4388, 3695.046
342.9209, 3822.369
343.4030, 3916.695
343.8851, 3965.069
344.3672, 3968.476
344.8494, 3966.681
345.3315, 3972.037
345.8136, 3955.024
346.2957, 3896.347
346.7778, 3814.190
347.2599, 3734.613
347.7421, 3668.971
348.2242, 3611.490
348.7063, 3547.355
349.1884, 3470.174
349.6705, 3413.387
350.1526, 3406.137
350.6348, 3411.679
351.1169, 3402.333
351.5990, 3374.644
352.0811, 3336.480
352.5632, 3297.245
353.0453, 3252.923
353.5275, 3188.873
354.0096, 3102.978
354.4917, 2996.548
354.9738, 2861.736
355.4559, 2704.172
355.9380, 2549.813
356.4202, 2400.938
356.9023, 2259.479
357.3844, 2125.920
357.8665, 2000.925
358.3486, 1887.448
358.8307, 1787.165
359.3129, 1699.722
359.7950, 1621.079
360.2771, 1552.658
360.7592, 1489.976
361.2413, 1430.892
361.7234, 1377.410
362.2056, 1333.396
362.6877, 1299.852
363.1698, 1273.070
363.6519, 1247.365
364.1340, 1221.823
364.6161, 1199.917
365.0983, 1184.279
365.5804, 1169.403
366.0625, 1149.661
366.5446, 1127.108
367.0267, 1109.384
367.5089, 1102.523
367.9910, 1105.866
368.4731, 1113.645
368.9552, 1132.501
369.4373, 1146.044
369.9194, 1147.744
370.4016, 1143.191
370.8837, 1138.705
371.3658, 1136.498
371.8479, 1135.421
372.3300, 1133.165
372.8121, 1129.395
373.2943, 1129.264
373.7764, 1136.875
374.2585, 1145.731
374.7406, 1150.002
375.2227, 1149.806
375.7048, 1149.173
376.1870, 1147.054
376.6691, 1146.668
377.1512, 1155.705
377.6333, 1175.700
378.1154, 1196.537
378.5975, 1209.762
379.0797, 1217.308
379.5618, 1230.739
380.0439, 1244.244
380.5260, 1269.596
381.0081, 1319.992
381.4902, 1386.612
381.9724, 1448.572
382.4545, 1497.059
382.9366, 1540.850
383.4187, 1597.042
383.9008, 1671.009
384.3829, 1750.021
384.8651, 1835.537
385.3472, 1924.777
385.8293, 2019.007
386.3114, 2116.314
386.7935, 2209.011
387.2756, 2289.840
387.7578, 2359.086
388.2399, 2429.146
388.7220, 2508.150
389.2041, 2576.610
389.6862, 2636.371
390.1683, 2680.770
390.6505, 2702.755
391.1326, 2699.688
391.6147, 2672.172
392.0968, 2615.866
392.5789, 2528.044
393.0610, 2437.160
393.5432, 2348.437
394.0253, 2258.766
394.5074, 2164.074
394.9895, 2065.145
395.4716, 1972.347
395.9537, 1892.511
396.4359, 1821.190
396.9180, 1749.065
397.4001, 1674.816
397.8822, 1612.333
398.3643, 1572.857
398.8464, 1553.656
399.3286, 1535.637
399.8107, 1520.069
400.2928, 1504.283
400.7749, 1483.303
401.2570, 1462.172
401.7391, 1451.126
402.2213, 1453.524
402.7034, 1461.587
403.1855, 1462.999
403.6676, 1453.252
404.1497, 1449.055
404.6318, 1448.765
405.1140, 1454.607
405.5961, 1466.961
406.0782, 1486.440
406.5603, 1513.827
407.0424, 1549.095
407.5245, 1593.258
408.0067, 1649.384
408.4888, 1717.895
408.9709, 1798.334
409.4530, 1893.852
409.9351, 1998.472
410.4172, 2105.909
410.8994, 2215.072
411.3815, 2329.475
411.8636, 2450.097
412.3457, 2577.393
412.8278, 2720.281
413.3099, 2884.028
413.7921, 3053.978
414.2742, 3220.495
414.7563, 3383.567
415.2384, 3546.480
415.7205, 3730.256
416.2026, 3895.856
416.6848, 4025.601
417.1669, 4113.410
417.6490, 4135.687
418.1311, 4077.521
418.6132, 3958.678
419.0953, 3820.555
419.5775, 3637.068
420.0596, 3480.069
420.5417, 3354.427
421.0238, 3253.507
421.5059, 3170.902
421.9880, 3106.908
422.4702, 3067.863
422.9523, 3061.752
423.4344, 3086.652
423.9165, 3113.902
424.3986, 3137.568
424.8807, 3172.568
425.3629, 3228.242
425.8450, 3293.414
426.3271, 3357.339
426.8092, 3416.831
427.2913, 3469.926
427.7734, 3515.183
428.2556, 3552.371
428.7377, 3582.385
429.2198, 3610.797
429.7019, 3622.796
430.1840, 3605.231
430.6661, 3561.515
431.1483, 3499.598
431.6304, 3413.933
432.1125, 3316.822
432.5946, 3221.103
433.0767, 3124.681
433.5588, 3015.076
434.0410, 2883.666
434.5231, 2739.198
435.0052, 2603.174
435.4873, 2476.157
435.9694, 2355.993
436.4515, 2232.374
436.9337, 2122.527
437.4158, 2043.216
437.8979, 1993.389
438.3800, 1960.385
438.8621, 1933.817
439.3442, 1913.931
439.8264, 1902.279
440.3085, 1901.126
440.7906, 1905.472
441.2727, 1912.516
441.7548, 1924.405
442.2369, 1945.460
442.7191, 1977.235
443.2012, 2010.225
443.6833, 2040.054
444.1654, 2064.941
444.6475, 2071.369
445.1296, 2057.226
445.6118, 2025.079
446.0939, 1972.321
446.5760, 1902.294
447.0581, 1824.109
447.5402, 1732.406
448.0223, 1639.190
448.5045, 1549.959
448.9866, 1465.683
449.4687, 1386.182
449.9508, 1311.873
450.4329, 1243.857
450.9150, 1184.901
451.3972, 1137.182
451.8793, 1095.173
452.3614, 1056.520
452.8435, 1025.489
453.3256, 1009.620
453.8077, 1004.096
454.2899, 995.3073
454.7720, 972.9896
455.2541, 942.6985
455.7362, 924.0039
456.2183, 921.4946
456.7004, 918.6595
457.1826, 910.8915
457.6647, 901.1351
458.1468, 890.9769
458.6289, 880.6412
459.1110, 871.3500
459.5931, 863.7372
460.0753, 857.7292
460.5574, 853.9543
461.0395, 852.6738
461.5216, 850.2142
462.0037, 842.3298
462.4858, 831.4913
462.9680, 829.0404
463.4501, 840.7446
463.9322, 852.8529
464.4143, 863.5132
464.8964, 871.6108
465.3785, 873.9059
465.8607, 870.4066
466.3428, 867.0015
466.8249, 870.6508
467.3070, 882.1121
467.7891, 891.9196
468.2712, 895.9973
468.7534, 903.0008
469.2355, 917.5348
469.7176, 935.5296
470.1997, 950.9737
470.6818, 961.2198
471.1639, 971.0029
471.6461, 986.1854
472.1282, 1006.527
472.6103, 1027.001
473.0924, 1045.314
473.5745, 1066.552
474.0566, 1097.885
474.5388, 1137.028
475.0209, 1174.347
475.5030, 1200.572
475.9851, 1231.430
476.4672, 1277.669
476.9493, 1337.322
477.4315, 1406.081
477.9136, 1482.663
478.3957, 1562.520
478.8778, 1635.733
479.3599, 1695.441
479.8420, 1766.649
480.3242, 1850.600
480.8063, 1943.138
481.2884, 2046.530
481.7705, 2156.060
482.2526, 2263.160
482.7347, 2363.252
483.2169, 2456.081
483.6990, 2546.385
484.1811, 2639.547
484.6632, 2698.267
485.1453, 2714.130
485.6274, 2689.205
486.1096, 2626.983
486.5917, 2528.459
487.0738, 2408.321
487.5559, 2261.360
488.0380, 2102.274
488.5201, 1938.847
489.0023, 1775.913
489.4844, 1636.035
489.9665, 1531.840
490.4486, 1455.365
490.9307, 1385.631
491.4128, 1323.668
491.8950, 1268.138
492.3771, 1215.262
492.8592, 1171.870
493.3413, 1144.340
493.8234, 1130.782
494.3055, 1122.832
494.7877, 1114.183
495.2698, 1107.618
495.7519, 1114.536
496.2340, 1140.976
496.7161, 1160.683
497.1982, 1157.567
497.6804, 1150.855
498.1625, 1158.125
498.6446, 1180.341
499.1267, 1205.826
499.6088, 1227.532
500.0909, 1250.315
500.5730, 1283.517
501.0551, 1326.035
501.5373, 1363.753
502.0194, 1386.438
502.5015, 1401.292
502.9836, 1430.681
503.4657, 1493.118
503.9478, 1543.786
504.4300, 1573.249
504.9121, 1596.882
505.3942, 1626.050
505.8763, 1660.794
506.3584, 1695.707
506.8405, 1726.678
507.3227, 1754.354
507.8048, 1782.885
508.2869, 1817.030
508.7690, 1835.972
509.2511, 1823.888
509.7332, 1799.821
510.2154, 1783.568
510.6975, 1776.446
511.1796, 1760.750
511.6617, 1722.625
512.1439, 1675.029
512.6260, 1634.757
513.1081, 1601.542
513.5902, 1565.757
514.0723, 1522.417
514.5544, 1472.070
515.0366, 1417.229
515.5187, 1350.061
516.0008, 1289.439
516.4829, 1236.232
516.9650, 1188.898
517.4471, 1148.067
517.9293, 1112.688
518.4114, 1080.798
518.8935, 1051.190
519.3756, 1023.691
519.8577, 996.2572
520.3398, 967.6819
520.8220, 946.8083
521.3041, 940.8838
521.7862, 939.8378
522.2683, 932.2800
522.7504, 918.1781
523.2325, 904.6831
523.7147, 894.4744
524.1968, 885.5743
524.6789, 874.4041
525.1610, 862.4539
525.6431, 855.8877
526.1252, 857.9141
526.6074, 865.6924
527.0895, 873.4430
527.5716, 883.6069
528.0537, 888.5765
528.5358, 881.8145
529.0179, 876.6702
529.5001, 881.7078
529.9822, 893.8184
530.4643, 904.1381
530.9464, 906.8454
531.4285, 908.4865
531.9106, 922.7974
532.3928, 949.2067
532.8749, 963.6038
533.3570, 954.2262
533.8391, 942.2767
534.3212, 951.9594
534.8033, 982.0279
535.2855, 1011.469
535.7676, 1037.358
536.2497, 1062.898
536.7318, 1091.543
537.2139, 1120.682
537.6960, 1144.815
538.1782, 1162.123
538.6603, 1175.705
539.1424, 1189.650
539.6245, 1203.704
540.1066, 1219.223
540.5887, 1235.903
541.0709, 1254.445
541.5530, 1276.574
542.0351, 1299.952
542.5172, 1321.350
542.9993, 1339.488
543.4814, 1356.441
543.9636, 1375.092
544.4457, 1393.754
544.9278, 1409.916
545.4099, 1423.587
545.8920, 1427.803
546.3741, 1415.276
546.8563, 1387.891
547.3384, 1363.489
547.8205, 1342.141
548.3026, 1323.127
548.7847, 1308.936
549.2668, 1295.472
549.7490, 1277.611
550.2311, 1255.644
550.7132, 1235.275
551.1953, 1221.529
551.6774, 1213.376
552.1595, 1205.266
552.6417, 1194.817
553.1238, 1194.755
553.6059, 1215.412
554.0880, 1244.906
554.5701, 1266.620
555.0522, 1279.290
555.5344, 1295.117
556.0165, 1321.005
556.4986, 1349.195
556.9807, 1372.010
557.4628, 1390.679
557.9449, 1411.656
558.4271, 1438.696
558.9092, 1467.085
559.3913, 1487.555
559.8734, 1500.037
560.3555, 1504.722
560.8376, 1494.430
561.3198, 1482.892
561.8019, 1477.663
562.2840, 1475.341
562.7661, 1467.604
563.2482, 1449.086
563.7303, 1429.093
564.2125, 1417.826
564.6946, 1413.087
565.1767, 1405.946
565.6588, 1393.837
566.1409, 1385.185
566.6230, 1387.743
567.1052, 1401.427
567.5873, 1420.162
568.0694, 1447.492
568.5515, 1474.793
569.0336, 1496.128
569.5157, 1518.701
569.9979, 1552.821
570.4800, 1598.212
570.9621, 1642.500
571.4442, 1674.044
571.9263, 1695.209
572.4084, 1714.949
572.8906, 1733.348
573.3727, 1749.684
573.8548, 1765.713
574.3369, 1777.486
574.8190, 1777.608
575.3011, 1764.421
575.7833, 1753.333
576.2654, 1752.353
576.7475, 1750.930
577.2296, 1741.466
577.7117, 1724.808
578.1938, 1701.692
578.6760, 1672.042
579.1581, 1645.136
579.6402, 1638.733
580.1223, 1656.539
580.6044, 1676.697
581.0865, 1699.459
581.5686, 1723.651
582.0507, 1747.226
582.5328, 1771.924
583.0150, 1801.022
583.4971, 1835.123
583.9792, 1874.079
584.4613, 1922.792
584.9434, 1974.689
585.4255, 2017.267
585.9077, 2049.299
586.3898, 2079.964
586.8719, 2117.510
587.3540, 2158.620
587.8361, 2183.856
588.3182, 2190.259
588.8004, 2184.424
589.2825, 2169.115
589.7646, 2141.349
590.2467, 2099.016
590.7288, 2042.331
591.2109, 1971.535
591.6931, 1879.193
592.1752, 1781.003
592.6573, 1700.870
593.1394, 1636.016
593.6215, 1566.236
594.1036, 1483.708
594.5858, 1401.148
595.0679, 1332.238
595.5500, 1278.167
596.0321, 1229.460
596.5142, 1188.032
596.9963, 1148.940
597.4785, 1108.148
597.9606, 1070.506
598.4427, 1042.728
598.9248, 1025.589
599.4069, 1012.088
599.8890, 995.1235
600.3712, 976.5349
600.8533, 964.0616
601.3354, 958.5533
601.8175, 950.9373
602.2996, 934.4782
602.7817, 916.8337
603.2639, 913.3340
603.7460, 927.8627
604.2281, 937.3101
604.7102, 936.9931
605.1923, 933.2996
605.6744, 926.7917
606.1566, 920.4431
606.6387, 919.4149
607.1208, 925.7872
607.6029, 935.9144
608.0850, 945.5486
608.5671, 954.6554
609.0493, 962.8808
609.5314, 970.7649
610.0135, 976.1900
610.4956, 974.4579
610.9777, 970.6188
611.4598, 975.6605
611.9420, 992.9569
612.4241, 1011.050
612.9062, 1030.543
613.3883, 1046.484
613.8704, 1052.954
614.3525, 1051.485
614.8347, 1047.862
615.3168, 1045.230
615.7989, 1043.188
616.2810, 1040.014
616.7631, 1034.756
