##NAMES=Axinite-(Fe)
##RRUFFID=R060183
##IDEAL CHEMISTRY=Ca_4_Fe^2+^_2_Al_4_[B_2_Si_8_O_30_](OH)_2_
##LOCALITY=Skagit Bluffs, near Manning Park, British Columbia, Canada
##OWNER=RRUFF
##SOURCE=Lloyd Twaites
##DESCRIPTION=Light-pink transparent axe-head-shaped single crystal
##STATUS=The identification of this mineral has been confirmed by X-ray diffraction and chemical analysis
##URL=rruff.info/R060183
##MEASURED CHEMISTRY=Ca_2.00_(Fe^2+^_0.58_Mn_0.23_Mg_0.19_)Al_2.00_B_1.00_Si_4.00_O_15_(OH)
92.02539, 204.4642
92.50751, 206.5112
92.98962, 208.9605
93.47174, 207.8793
93.95386, 206.1791
94.43597, 205.3194
94.91809, 206.4616
95.40021, 209.0557
95.88232, 210.5115
96.36444, 210.3916
96.84656, 209.7599
97.32867, 208.8826
97.81078, 207.9179
98.29290, 207.0900
98.77502, 206.5569
99.25713, 206.1901
99.73925, 204.6343
100.2214, 201.6732
100.7035, 198.1647
101.1856, 194.3091
101.6677, 190.1890
102.1498, 185.9200
102.6320, 181.5815
103.1141, 176.8092
103.5962, 172.9390
104.0783, 170.2305
104.5604, 168.2478
105.0425, 166.6059
105.5247, 165.2093
106.0068, 163.9754
106.4889, 162.7359
106.9710, 161.4581
107.4531, 160.2459
107.9352, 159.1746
108.4173, 158.2155
108.8995, 157.2572
109.3816, 156.5225
109.8637, 155.5222
110.3458, 153.8010
110.8279, 151.2586
111.3100, 148.1456
111.7922, 144.6510
112.2743, 140.6687
112.7564, 136.6856
113.2385, 132.6577
113.7206, 128.7639
114.2027, 125.1835
114.6849, 122.0260
115.1670, 119.1955
115.6491, 116.3961
116.1312, 113.0634
116.6133, 110.4655
117.0954, 109.2235
117.5776, 108.7726
118.0597, 108.2420
118.5418, 106.9931
119.0239, 105.0054
119.5060, 103.3271
119.9881, 102.9390
120.4703, 102.4312
120.9524, 101.8105
121.4345, 100.7382
121.9166, 100.2491
122.3987, 99.52630
122.8808, 98.79388
123.3630, 98.38670
123.8451, 97.38009
124.3272, 96.96789
124.8093, 96.31841
125.2914, 95.77753
125.7735, 95.00149
126.2557, 94.29794
126.7378, 93.82977
127.2199, 92.24001
127.7020, 92.25273
128.1841, 92.14600
128.6662, 91.92620
129.1483, 91.25478
129.6305, 91.16650
130.1126, 90.84455
130.5947, 90.51302
131.0768, 90.50687
131.5589, 89.90113
132.0410, 89.88982
132.5232, 89.64117
133.0053, 89.50117
133.4874, 89.12602
133.9695, 88.82350
134.4516, 88.75621
134.9337, 88.55867
135.4159, 88.15639
135.8980, 88.02331
136.3801, 87.40936
136.8622, 88.17783
137.3443, 88.72575
137.8264, 89.16064
138.3086, 89.14397
138.7907, 89.71042
139.2728, 90.04314
139.7549, 90.36629
140.2370, 91.01482
140.7191, 91.06377
141.2013, 91.70722
141.6834, 91.49268
142.1655, 92.55864
142.6476, 94.56197
143.1297, 96.15406
143.6118, 96.82913
144.0939, 97.70049
144.5761, 99.13366
145.0582, 101.1147
145.5403, 103.5901
146.0224, 106.5600
146.5045, 110.0679
146.9866, 113.9915
147.4688, 118.2775
147.9509, 123.0103
148.4330, 128.6554
148.9151, 135.4643
149.3972, 141.6472
149.8793, 145.9436
150.3615, 149.0233
150.8436, 151.5743
151.3257, 154.1247
151.8078, 156.1473
152.2899, 156.3894
152.7720, 154.5350
153.2542, 151.1974
153.7363, 146.1031
154.2184, 140.0716
154.7005, 134.2555
155.1826, 129.3426
155.6647, 125.2880
156.1469, 121.7625
156.6290, 119.5575
157.1111, 117.1490
157.5932, 113.9330
158.0753, 110.1718
158.5574, 106.4680
159.0396, 103.2916
159.5217, 100.6503
160.0038, 98.53125
160.4859, 96.92368
160.9680, 95.74934
161.4501, 95.06603
161.9323, 94.82930
162.4144, 94.88795
162.8965, 95.05822
163.3786, 95.26902
163.8607, 96.13660
164.3428, 97.75305
164.8250, 99.88148
165.3071, 102.3968
165.7892, 105.2724
166.2713, 108.4267
166.7534, 111.6692
167.2355, 114.9050
167.7177, 119.1100
168.1998, 124.8338
168.6819, 131.4543
169.1640, 138.4151
169.6461, 145.7839
170.1282, 152.7825
170.6104, 158.5222
171.0925, 163.1678
171.5746, 166.5896
172.0567, 168.9117
172.5388, 169.9776
173.0209, 169.1950
173.5031, 165.9531
173.9852, 161.3513
174.4673, 156.3826
174.9494, 151.0752
175.4315, 145.5488
175.9136, 139.7871
176.3958, 133.7936
176.8779, 128.0130
177.3600, 122.3588
177.8421, 117.1019
178.3242, 112.5768
178.8063, 108.7122
179.2885, 105.0372
179.7706, 100.9408
180.2527, 96.20432
180.7348, 91.98716
181.2169, 88.40811
181.6990, 85.31127
182.1812, 82.71742
182.6633, 80.59250
183.1454, 78.85019
183.6275, 77.37619
184.1096, 76.20572
184.5917, 75.27416
185.0738, 74.43517
185.5560, 73.86620
186.0381, 73.72732
186.5202, 74.04600
187.0023, 74.70192
187.4844, 75.49399
187.9665, 76.48671
188.4487, 77.54202
188.9308, 78.06713
189.4129, 78.92361
189.8950, 81.09011
190.3771, 84.86414
190.8592, 89.54165
191.3414, 93.78409
191.8235, 97.33981
192.3056, 100.9101
192.7877, 105.0191
193.2698, 109.0399
193.7519, 112.2355
194.2341, 114.3824
194.7162, 115.4715
195.1983, 115.1162
195.6804, 113.0522
196.1625, 111.0087
196.6446, 109.4026
197.1268, 108.1891
197.6089, 107.1815
198.0910, 106.1684
198.5731, 105.6240
199.0552, 106.1939
199.5373, 107.8723
200.0195, 110.2700
200.5016, 113.1869
200.9837, 116.6560
201.4658, 120.8442
201.9479, 126.0760
202.4300, 131.8768
202.9122, 137.5328
203.3943, 143.0201
203.8764, 148.6987
204.3585, 155.0416
204.8406, 162.0557
205.3227, 168.7511
205.8048, 174.9772
206.2870, 180.6530
206.7691, 185.7324
207.2512, 190.1970
207.7333, 194.0154
208.2154, 197.0453
208.6975, 199.2112
209.1797, 201.0266
209.6618, 202.5162
210.1439, 203.7027
210.6260, 204.4519
211.1081, 204.7809
211.5902, 204.9809
212.0724, 205.5149
212.5545, 206.6528
213.0366, 207.2703
213.5187, 206.9786
214.0008, 206.4165
214.4829, 205.9365
214.9651, 205.6197
215.4472, 205.3419
215.9293, 204.8874
216.4114, 204.0217
216.8935, 203.4857
217.3756, 204.1931
217.8578, 204.5667
218.3399, 203.5624
218.8220, 200.9449
219.3041, 197.1309
219.7862, 192.8290
220.2683, 188.6373
220.7505, 182.5000
221.2326, 173.3418
221.7147, 163.1234
222.1968, 152.9937
222.6789, 143.3389
223.1610, 134.3400
223.6432, 126.2825
224.1253, 119.5310
224.6074, 113.1910
225.0895, 107.0925
225.5716, 101.4754
226.0537, 96.61864
226.5358, 92.56535
227.0180, 89.13338
227.5001, 86.09153
227.9822, 83.46104
228.4643, 81.30033
228.9464, 79.82210
229.4285, 78.72558
229.9107, 77.72117
230.3928, 76.74358
230.8749, 75.89820
231.3570, 75.43694
231.8391, 75.42420
232.3212, 75.10768
232.8034, 73.89803
233.2855, 72.50433
233.7676, 71.88047
234.2497, 72.25334
234.7318, 73.05756
235.2139, 73.73745
235.6961, 74.31087
236.1782, 74.94117
236.6603, 75.58862
237.1424, 76.34079
237.6245, 77.42519
238.1066, 78.98145
238.5888, 80.51161
239.0709, 81.45071
239.5530, 81.96309
240.0351, 82.54185
240.5172, 83.54162
240.9993, 84.67885
241.4815, 85.31635
241.9636, 85.22131
242.4457, 85.14400
242.9278, 85.83521
243.4099, 86.95918
243.8920, 87.80953
244.3742, 87.94749
244.8563, 87.63034
245.3384, 87.38555
245.8205, 87.12642
246.3026, 87.15674
246.7847, 87.58801
247.2668, 88.38998
247.7490, 89.56859
248.2311, 91.18291
248.7132, 93.14288
249.1953, 95.23018
249.6774, 97.31501
250.1595, 99.82553
250.6417, 102.9605
251.1238, 106.5450
251.6059, 110.4300
252.0880, 114.6595
252.5701, 119.0110
253.0522, 122.9906
253.5344, 126.5314
254.0165, 129.7502
254.4986, 132.8252
254.9807, 135.6093
255.4628, 138.0596
255.9449, 140.2077
256.4271, 141.7787
256.9092, 142.0085
257.3913, 140.1717
257.8734, 138.2999
258.3555, 136.8783
258.8376, 135.5988
259.3198, 134.0989
259.8019, 132.2381
260.2840, 130.2894
260.7661, 128.6925
261.2482, 126.8814
261.7303, 126.6789
262.2125, 128.8801
262.6946, 132.1059
263.1767, 135.4033
263.6588, 138.4374
264.1409, 141.1407
264.6230, 143.3900
265.1052, 144.9790
265.5873, 146.4770
266.0694, 147.8286
266.5515, 149.1662
267.0336, 150.6809
267.5157, 152.3692
267.9979, 153.9591
268.4800, 155.0168
268.9621, 155.2710
269.4442, 155.5404
269.9263, 156.3254
270.4084, 156.7692
270.8906, 156.0309
271.3727, 154.1597
271.8548, 152.1132
272.3369, 151.1533
272.8190, 151.9262
273.3011, 151.6151
273.7833, 149.5199
274.2654, 147.1556
274.7475, 145.4448
275.2296, 144.3619
275.7117, 143.2883
276.1938, 141.6250
276.6760, 139.3168
277.1581, 136.6777
277.6402, 133.2240
278.1223, 129.9532
278.6044, 127.4000
279.0865, 125.4580
279.5686, 123.6651
280.0508, 121.6338
280.5329, 119.3568
281.0150, 117.3770
281.4971, 115.4339
281.9792, 113.9669
282.4613, 113.3468
282.9435, 113.3477
283.4256, 113.4302
283.9077, 113.2290
284.3898, 112.8113
284.8719, 112.8068
285.3540, 113.7458
285.8362, 114.4368
286.3183, 114.3802
286.8004, 113.8772
287.2825, 113.5235
287.7646, 113.6523
288.2467, 114.0565
288.7289, 113.9937
289.2110, 113.0156
289.6931, 112.1658
290.1752, 111.6082
290.6573, 111.2736
291.1394, 111.1842
291.6216, 111.3746
292.1037, 111.5490
292.5858, 111.0275
293.0679, 109.2357
293.5500, 107.8672
294.0321, 107.3786
294.5143, 107.2680
294.9964, 106.9767
295.4785, 106.3527
295.9606, 105.6132
296.4427, 105.0698
296.9248, 104.8194
297.4070, 104.4770
297.8891, 103.9942
298.3712, 103.4352
298.8533, 102.7687
299.3354, 102.0169
299.8175, 101.3982
300.2997, 101.1418
300.7818, 101.3122
301.2639, 101.5902
301.7460, 101.7548
302.2281, 102.1894
302.7102, 103.2823
303.1924, 104.9772
303.6745, 106.8004
304.1566, 108.4070
304.6387, 109.8061
305.1208, 111.3171
305.6029, 112.9789
306.0851, 114.7073
306.5672, 116.4589
307.0493, 118.2420
307.5314, 120.1550
308.0135, 122.3457
308.4956, 124.6297
308.9778, 126.1474
309.4599, 126.1203
309.9420, 126.4330
310.4241, 127.6972
310.9062, 129.7163
311.3883, 132.1001
311.8705, 134.6713
312.3526, 137.5490
312.8347, 140.9727
313.3168, 144.7708
313.7989, 149.3678
314.2810, 154.9949
314.7632, 161.4146
315.2453, 168.3945
315.7274, 175.8570
316.2095, 183.8222
316.6916, 192.6152
317.1737, 202.7069
317.6559, 211.5245
318.1380, 218.8969
318.6201, 224.8897
319.1022, 229.6656
319.5843, 233.2370
320.0664, 235.2415
320.5485, 235.3521
321.0306, 233.3386
321.5128, 229.6778
321.9949, 223.8851
322.4770, 216.9094
322.9591, 208.7962
323.4412, 199.8652
323.9233, 191.0365
324.4055, 182.8355
324.8876, 175.3185
325.3697, 169.0928
325.8518, 164.6438
326.3339, 160.7016
326.8160, 156.5559
327.2982, 152.5621
327.7803, 149.5509
328.2624, 147.9910
328.7445, 147.4390
329.2266, 146.7037
329.7087, 145.3057
330.1909, 144.5850
330.6730, 145.0234
331.1551, 146.1984
331.6372, 147.6268
332.1193, 149.1710
332.6014, 150.8179
333.0836, 152.5310
333.5657, 154.2160
334.0478, 156.3343
334.5299, 158.7708
335.0120, 161.7142
335.4941, 165.4741
335.9763, 170.0067
336.4584, 174.8698
336.9405, 179.5683
337.4226, 184.0751
337.9047, 189.3361
338.3868, 195.6343
338.8690, 202.3691
339.3511, 209.6805
339.8332, 217.2632
340.3153, 224.2486
340.7974, 230.0684
341.2795, 234.8579
341.7617, 239.3450
342.2438, 244.6647
342.7259, 248.4198
343.2080, 250.5323
343.6901, 250.6414
344.1722, 248.0759
344.6544, 242.5589
345.1365, 234.6067
345.6186, 225.2438
346.1007, 213.3157
346.5828, 201.5808
347.0649, 189.8508
347.5471, 178.5175
348.0292, 167.7690
348.5113, 157.7683
348.9934, 148.6967
349.4755, 140.9813
349.9576, 134.8951
350.4398, 129.0617
350.9219, 123.2426
351.4040, 117.8360
351.8861, 113.3139
352.3682, 109.4835
352.8503, 105.7166
353.3325, 101.5546
353.8146, 97.03701
354.2967, 92.64796
354.7788, 88.19013
355.2609, 84.09454
355.7430, 80.45724
356.2252, 77.24583
356.7073, 74.41512
357.1894, 71.95423
357.6715, 69.81203
358.1536, 67.82394
358.6357, 65.86042
359.1179, 64.29900
359.5999, 63.44780
360.0821, 62.77972
360.5642, 61.90363
361.0463, 60.72532
361.5284, 59.36366
362.0105, 57.87026
362.4926, 56.03498
362.9748, 54.91317
363.4569, 54.88366
363.9390, 55.16030
364.4211, 55.54272
364.9032, 55.95834
365.3853, 56.34309
365.8675, 56.65143
366.3496, 56.88619
366.8317, 57.06023
367.3138, 56.93464
367.7959, 57.07045
368.2780, 57.72889
368.7602, 58.65203
369.2423, 59.47266
369.7244, 60.01761
370.2065, 60.54667
370.6886, 61.68169
371.1707, 63.83323
371.6529, 65.53739
372.1350, 66.45602
372.6171, 66.99535
373.0992, 67.29623
373.5813, 67.42899
374.0634, 67.58662
374.5456, 68.02464
375.0277, 68.76325
375.5098, 69.31687
375.9919, 69.52824
376.4740, 69.70370
376.9561, 69.96255
377.4383, 70.29734
377.9204, 70.67138
378.4025, 71.05432
378.8846, 71.46982
379.3667, 71.92006
379.8488, 72.25843
380.3310, 73.02605
380.8131, 74.65283
381.2952, 76.71423
381.7773, 78.76846
382.2594, 80.65727
382.7415, 82.74638
383.2237, 85.45667
383.7058, 88.78971
384.1879, 92.37192
384.6700, 96.39902
385.1521, 100.3497
385.6342, 103.7830
386.1164, 106.7005
386.5985, 109.4726
387.0806, 112.4706
387.5627, 115.4255
388.0448, 117.7009
388.5269, 119.1936
389.0091, 120.1608
389.4912, 120.8848
389.9733, 121.2165
390.4554, 120.6791
390.9375, 118.8431
391.4196, 116.4076
391.9018, 113.9855
392.3839, 111.5397
392.8660, 108.7653
393.3481, 105.3518
393.8302, 101.6968
394.3123, 98.55725
394.7945, 95.98470
395.2766, 93.66546
395.7587, 91.53854
396.2408, 89.57498
396.7229, 87.67763
397.2050, 85.78189
397.6872, 84.20613
398.1693, 83.40922
398.6514, 83.48215
399.1335, 83.28750
399.6156, 82.64458
400.0977, 81.82269
400.5798, 80.81751
401.0620, 79.74691
401.5441, 79.06182
402.0262, 79.11193
402.5083, 79.71280
402.9904, 79.93008
403.4725, 79.48589
403.9547, 79.06570
404.4368, 78.75970
404.9189, 78.56160
405.4010, 78.40736
405.8831, 78.28841
406.3652, 78.37220
406.8474, 78.93274
407.3295, 80.15959
407.8116, 81.33275
408.2937, 82.29602
408.7758, 83.34282
409.2579, 84.48418
409.7401, 85.83863
410.2222, 87.67577
410.7043, 90.24622
411.1864, 93.47580
411.6685, 96.78118
412.1506, 100.0438
412.6328, 103.5430
413.1149, 107.3104
413.5970, 111.3330
414.0791, 115.5524
414.5612, 119.9584
415.0433, 124.6925
415.5255, 130.0722
416.0076, 136.3800
416.4897, 142.4470
416.9718, 147.8920
417.4539, 153.3218
417.9360, 159.1626
418.4182, 165.2981
418.9003, 171.1442
419.3824, 176.2704
419.8645, 180.7944
420.3466, 185.3486
420.8287, 189.9572
421.3109, 194.4920
421.7930, 198.9925
422.2751, 203.3339
422.7572, 207.4605
423.2393, 211.4541
423.7214, 214.7577
424.2036, 216.7077
424.6857, 217.3227
425.1678, 217.2340
425.6499, 216.5768
426.1320, 215.1948
426.6141, 213.1507
427.0963, 210.4330
427.5784, 206.7509
428.0605, 201.6094
428.5426, 195.5718
429.0247, 189.5584
429.5068, 183.5989
429.9890, 177.3075
430.4711, 170.3838
430.9532, 162.9468
431.4353, 155.5682
431.9174, 148.3710
432.3995, 141.0363
432.8817, 132.9384
433.3638, 124.6649
433.8459, 117.4164
434.3280, 111.6162
434.8101, 106.8307
435.2922, 102.5369
435.7744, 98.79318
436.2565, 95.47200
436.7386, 92.47588
437.2207, 89.97395
437.7028, 88.19064
438.1849, 87.05154
438.6671, 86.23838
439.1492, 85.51877
439.6313, 84.96593
440.1134, 85.03894
440.5955, 86.00833
441.0776, 87.29225
441.5598, 88.98857
442.0418, 90.88924
442.5240, 92.84511
443.0061, 94.78341
443.4882, 96.65164
443.9703, 98.53120
444.4524, 100.7575
444.9345, 101.4275
445.4167, 99.49737
445.8988, 97.01272
446.3809, 94.74949
446.8630, 92.46352
447.3451, 89.47247
447.8272, 85.32667
448.3094, 80.46041
448.7915, 75.90705
449.2736, 71.64840
449.7557, 67.76884
450.2378, 64.18158
450.7199, 61.03786
451.2021, 58.56795
451.6842, 56.76629
452.1663, 55.23576
452.6484, 53.60285
453.1305, 51.96305
453.6126, 50.83714
454.0948, 50.39844
454.5769, 50.14659
455.0590, 49.77995
455.5411, 49.36305
456.0232, 49.00179
456.5053, 48.67437
456.9875, 48.47405
457.4696, 48.62283
457.9517, 49.01345
458.4338, 49.08616
458.9159, 48.52917
459.3980, 47.82643
459.8802, 47.78661
460.3623, 48.45742
460.8444, 49.03901
461.3265, 49.32255
461.8086, 49.50252
462.2907, 49.66893
462.7729, 49.86894
463.2550, 50.23640
463.7371, 50.84691
464.2192, 51.71239
464.7013, 52.94268
465.1834, 55.04856
465.6656, 56.84329
466.1477, 57.79262
466.6298, 58.54700
467.1119, 59.90320
467.5940, 62.00451
468.0761, 64.26402
468.5583, 65.95672
469.0404, 66.98620
469.5225, 68.15844
470.0046, 69.75736
470.4867, 71.20525
470.9688, 72.40244
471.4510, 73.30847
471.9331, 73.79668
472.4152, 73.77042
472.8973, 73.54549
473.3794, 73.74402
473.8615, 74.46233
474.3437, 75.18593
474.8258, 75.63594
475.3079, 76.22569
475.7900, 77.13932
476.2721, 78.40386
476.7542, 80.08233
477.2364, 82.25466
477.7185, 84.85146
478.2006, 87.77982
478.6827, 91.05051
479.1648, 94.49400
479.6469, 97.83234
480.1291, 101.4186
480.6112, 105.8117
481.0933, 111.1659
481.5754, 116.9361
482.0575, 123.3778
482.5396, 129.9274
483.0217, 135.6748
483.5038, 140.4538
483.9860, 144.2032
484.4681, 146.9489
484.9502, 148.5984
485.4323, 148.7121
485.9144, 147.7563
486.3965, 144.9009
486.8787, 139.0641
487.3608, 131.1884
487.8429, 122.7633
488.3250, 114.3642
488.8071, 106.1253
489.2892, 98.30869
489.7714, 90.64185
490.2535, 83.99891
490.7356, 78.46674
491.2177, 73.70186
491.6998, 69.63937
492.1819, 66.21664
492.6641, 63.39910
493.1462, 61.21626
493.6283, 59.54342
494.1104, 58.00185
494.5925, 56.51587
495.0746, 55.37895
495.5568, 54.84627
496.0389, 54.57101
496.5210, 54.35509
497.0031, 54.17382
497.4852, 54.05928
497.9673, 54.12310
498.4495, 54.26598
498.9316, 54.18235
499.4137, 53.81893
499.8958, 53.43589
500.3779, 53.24546
500.8600, 53.10522
501.3422, 52.69642
501.8243, 51.82769
502.3064, 51.07159
502.7885, 50.82472
503.2706, 50.85135
503.7527, 50.58312
504.2349, 49.88937
504.7170, 49.50698
505.1991, 50.37328
505.6812, 52.60536
506.1633, 53.45021
506.6454, 51.97793
507.1276, 50.32111
507.6097, 49.09794
508.0918, 48.24285
508.5739, 47.67640
509.0560, 47.35353
509.5381, 47.08427
510.0203, 46.52665
510.5024, 45.50388
510.9845, 44.79829
511.4666, 44.93230
511.9487, 44.86691
512.4308, 44.02147
512.9130, 42.69292
513.3951, 41.50347
513.8772, 40.78070
514.3593, 40.30639
514.8414, 39.62954
515.3235, 38.68670
515.8057, 38.03731
516.2878, 38.14951
516.7699, 38.24538
517.2520, 37.49962
517.7341, 36.05052
518.2162, 34.91825
518.6984, 34.71896
519.1805, 34.95793
519.6626, 35.17655
520.1447, 35.33191
520.6268, 34.96819
521.1089, 33.64859
521.5911, 31.93590
522.0732, 31.23508
522.5553, 31.87148
523.0374, 32.33668
523.5195, 32.28358
524.0016, 32.02585
524.4838, 31.79017
524.9659, 31.61266
525.4480, 31.48138
525.9301, 31.39928
526.4122, 31.34308
526.8943, 31.17871
527.3765, 30.69184
527.8586, 30.41409
528.3407, 30.63084
528.8228, 30.89477
529.3049, 30.76341
529.7870, 30.24525
530.2692, 29.74832
530.7513, 29.57608
531.2334, 29.72594
531.7155, 30.30960
532.1976, 31.68398
532.6797, 32.65171
533.1619, 32.20603
533.6440, 31.33862
534.1261, 31.07168
534.6082, 31.60774
535.0903, 32.31178
535.5724, 32.83742
536.0546, 33.22425
536.5367, 33.50719
537.0188, 33.67535
537.5009, 33.97100
537.9830, 34.69248
538.4651, 35.68967
538.9473, 36.13813
539.4294, 35.38427
539.9115, 34.95647
540.3936, 35.53072
540.8757, 36.54569
541.3578, 37.37969
541.8400, 37.88116
542.3221, 38.13904
542.8042, 38.20203
543.2863, 38.06398
543.7684, 38.11628
544.2505, 38.63023
544.7326, 39.00982
545.2147, 39.09756
545.6968, 39.01783
546.1790, 38.83722
546.6611, 38.59404
547.1432, 38.46921
547.6253, 38.73201
548.1074, 39.34317
548.5895, 39.85048
549.0717, 40.25822
549.5538, 40.51353
550.0359, 40.45326
550.5180, 40.25145
551.0001, 40.15781
551.4822, 40.21151
551.9644, 40.37947
552.4465, 40.59370
552.9286, 40.91707
553.4107, 41.58429
553.8928, 42.65051
554.3749, 43.62154
554.8571, 43.95196
555.3392, 43.67743
555.8213, 44.07451
556.3034, 45.47093
556.7855, 47.02832
557.2676, 48.67532
557.7498, 50.30574
558.2319, 51.78277
558.7140, 53.08540
559.1961, 54.28511
559.6782, 55.50242
560.1603, 56.73524
560.6425, 57.62076
561.1246, 57.81831
561.6067, 58.15682
562.0888, 59.25118
562.5709, 60.43322
563.0530, 60.85471
563.5352, 60.29178
564.0173, 59.54003
564.4994, 59.21228
564.9815, 59.23805
565.4636, 59.36631
565.9457, 59.55104
566.4279, 59.97754
566.9100, 60.90046
567.3921, 62.15009
567.8742, 63.10285
568.3563, 63.59957
568.8384, 64.06779
569.3206, 64.48526
569.8027, 65.03626
570.2848, 66.07336
570.7669, 67.57353
571.2490, 69.10136
571.7311, 70.29622
572.2133, 71.15825
572.6954, 71.64080
573.1775, 71.65218
573.6596, 71.37483
574.1417, 70.72146
574.6238, 69.87847
575.1060, 69.03761
575.5881, 68.19825
576.0702, 67.18553
576.5523, 65.85582
577.0344, 64.23581
577.5165, 62.35101
577.9987, 60.11759
578.4808, 57.98860
578.9629, 56.11313
579.4450, 54.50967
579.9271, 53.22935
580.4092, 52.31937
580.8914, 51.39911
581.3735, 50.20649
581.8556, 49.00603
582.3377, 48.09120
582.8198, 47.46119
583.3019, 46.95522
583.7841, 46.48611
584.2662, 46.06683
584.7483, 45.72783
585.2304, 45.41763
585.7125, 45.28646
586.1946, 45.48090
