##NAMES=Axinite-(Fe)
##RRUFFID=R060194
##IDEAL CHEMISTRY=Ca_4_Fe^2+^_2_Al_4_[B_2_Si_8_O_30_](OH)_2_
##LOCALITY=near Dalbandi, Baluchistan Province, Pakistan
##OWNER=RRUFF
##SOURCE=Herbert Obodda
##DESCRIPTION=Brown transparent wedge-shaped single crystal
##STATUS=The identification of this mineral has been confirmed by X-ray diffraction and chemical analysis
##URL=rruff.info/R060194
##MEASURED CHEMISTRY=Ca_2.00_(Fe^2+^_0.66_Mg_0.30_Mn_0.04_)Al_2.00_BSi_4.00_O_15_(OH)
91.82715, 899.8124
92.30927, 888.7579
92.79138, 890.9969
93.27350, 898.6406
93.75562, 905.0290
94.23773, 909.7682
94.71985, 914.4132
95.20197, 918.8806
95.68408, 926.2491
96.16620, 931.7633
96.64832, 931.5120
97.13043, 924.6684
97.61255, 915.0026
98.09467, 907.2527
98.57678, 902.0872
99.05890, 894.8469
99.54102, 885.9536
100.0231, 877.4949
100.5052, 870.3672
100.9874, 864.4192
101.4695, 860.4510
101.9516, 863.6189
102.4337, 875.5192
102.9158, 893.7685
103.3979, 919.0715
103.8801, 950.4764
104.3622, 986.3439
104.8443, 1025.331
105.3264, 1067.875
105.8085, 1114.223
106.2906, 1165.812
106.7728, 1218.878
107.2549, 1275.429
107.7370, 1334.340
108.2191, 1387.297
108.7012, 1427.111
109.1833, 1453.978
109.6655, 1456.025
110.1476, 1423.428
110.6297, 1367.117
111.1118, 1299.477
111.5939, 1218.547
112.0760, 1137.259
112.5582, 1067.279
113.0403, 1008.073
113.5224, 958.0578
114.0045, 918.2004
114.4866, 888.1061
114.9688, 863.5147
115.4509, 845.4359
115.9330, 831.8799
116.4151, 821.8488
116.8972, 815.2518
117.3793, 811.5959
117.8615, 810.5831
118.3436, 813.1718
118.8257, 816.2607
119.3078, 819.5477
119.7899, 823.0361
120.2720, 827.0785
120.7542, 831.7796
121.2363, 836.4739
121.7184, 839.2941
122.2005, 840.2137
122.6826, 838.8006
123.1647, 835.1472
123.6468, 829.0954
124.1290, 820.3242
124.6111, 808.4562
125.0932, 793.7113
125.5753, 777.9315
126.0574, 760.7177
126.5395, 743.1260
127.0217, 725.8203
127.5038, 708.6043
127.9859, 690.5583
128.4680, 670.2428
128.9501, 648.3600
129.4323, 628.7264
129.9144, 612.8625
130.3965, 598.4267
130.8786, 581.4366
131.3607, 560.4130
131.8428, 543.2760
132.3250, 538.8944
132.8071, 542.5013
133.2892, 546.7054
133.7713, 546.7052
134.2534, 544.5997
134.7355, 548.0723
135.2177, 560.3788
135.6998, 574.3282
136.1819, 585.4969
136.6640, 595.0561
137.1461, 606.0070
137.6282, 621.7033
138.1104, 642.8376
138.5925, 660.9877
139.0746, 676.4213
139.5567, 688.4836
140.0388, 696.0057
140.5209, 699.4153
141.0031, 700.5198
141.4852, 701.4286
141.9673, 702.7057
142.4494, 702.0328
142.9315, 698.7919
143.4136, 694.4699
143.8958, 688.3826
144.3779, 680.9271
144.8600, 675.2488
145.3421, 676.5299
145.8242, 687.3986
146.3063, 701.4743
146.7885, 718.3596
147.2706, 738.4470
147.7527, 761.8910
148.2348, 788.6064
148.7169, 819.4274
149.1990, 858.0178
149.6812, 905.7702
150.1633, 953.9861
150.6454, 1005.224
151.1275, 1055.667
151.6096, 1091.471
152.0917, 1103.793
152.5739, 1101.227
153.0560, 1098.378
153.5381, 1093.751
154.0202, 1093.534
154.5023, 1105.056
154.9844, 1128.810
155.4665, 1151.783
155.9487, 1172.914
156.4308, 1188.706
156.9129, 1196.015
157.3950, 1194.054
157.8771, 1183.570
158.3592, 1163.712
158.8414, 1129.990
159.3235, 1098.207
159.8056, 1071.038
160.2877, 1047.753
160.7698, 1026.709
161.2519, 1007.011
161.7341, 991.1893
162.2162, 986.9073
162.6983, 999.4599
163.1804, 1018.273
163.6625, 1039.629
164.1446, 1066.357
164.6268, 1101.603
165.1089, 1147.330
165.5910, 1203.081
166.0731, 1267.871
166.5552, 1341.858
167.0373, 1424.619
167.5195, 1523.424
168.0016, 1631.308
168.4837, 1739.326
168.9658, 1844.441
169.4479, 1944.337
169.9300, 2000.881
170.4122, 2012.189
170.8943, 1993.182
171.3764, 1943.479
171.8585, 1866.795
172.3406, 1774.372
172.8227, 1670.197
173.3049, 1556.240
173.7870, 1449.055
174.2691, 1347.096
174.7512, 1252.177
175.2333, 1167.104
175.7154, 1091.883
176.1976, 1021.986
176.6797, 953.7285
177.1618, 888.5608
177.6439, 832.5060
178.1260, 790.6428
178.6081, 757.0617
179.0903, 722.3045
179.5724, 685.0745
180.0545, 651.0984
180.5366, 625.9482
181.0187, 606.0421
181.5008, 586.2422
181.9830, 563.0543
182.4651, 538.4393
182.9472, 518.2550
183.4293, 503.2370
183.9114, 492.3665
184.3935, 485.6804
184.8757, 482.0175
185.3578, 479.3287
185.8399, 476.0562
186.3220, 472.4771
186.8041, 471.5570
187.2862, 473.7877
187.7684, 478.6394
188.2505, 485.9331
188.7326, 495.6554
189.2147, 507.7505
189.6968, 521.9703
190.1789, 538.3175
190.6611, 558.5520
191.1432, 583.5729
191.6253, 611.6744
192.1074, 644.7383
192.5895, 680.7798
193.0716, 716.4902
193.5538, 749.7077
194.0359, 781.8956
194.5180, 798.5148
195.0001, 794.5564
195.4822, 783.7500
195.9643, 769.9600
196.4465, 754.6195
196.9286, 739.0139
197.4107, 723.7406
197.8928, 708.4797
198.3749, 700.3262
198.8570, 699.1252
199.3392, 704.2424
199.8213, 716.9269
200.3034, 736.7678
200.7855, 759.4387
201.2676, 781.0292
201.7497, 801.6006
202.2319, 825.1874
202.7140, 850.4595
203.1961, 879.7079
203.6782, 916.5414
204.1603, 961.7635
204.6424, 1008.849
205.1246, 1051.606
205.6067, 1091.350
206.0888, 1133.738
206.5709, 1183.449
207.0530, 1235.072
207.5351, 1281.118
208.0173, 1320.760
208.4994, 1356.835
208.9815, 1393.595
209.4636, 1428.907
209.9457, 1456.612
210.4278, 1473.168
210.9100, 1480.813
211.3921, 1485.297
211.8742, 1488.801
212.3563, 1483.824
212.8384, 1463.962
213.3205, 1433.745
213.8027, 1400.598
214.2848, 1368.309
214.7669, 1335.988
215.2490, 1300.819
215.7311, 1261.255
216.2132, 1220.841
216.6954, 1180.600
217.1775, 1140.757
217.6596, 1101.457
218.1417, 1062.648
218.6238, 1024.455
219.1059, 987.9766
219.5881, 953.2281
220.0702, 920.7458
220.5523, 891.3171
221.0344, 864.0697
221.5165, 837.6032
221.9986, 811.3142
222.4808, 785.1023
222.9629, 757.8622
223.4450, 725.2459
223.9271, 696.6536
224.4092, 675.3252
224.8913, 659.1553
225.3735, 644.5900
225.8556, 629.1739
226.3377, 613.1959
226.8198, 598.9284
227.3019, 586.8016
227.7840, 576.1276
228.2662, 568.1740
228.7483, 561.5178
229.2304, 553.3708
229.7125, 541.5235
230.1946, 526.7495
230.6767, 517.9853
231.1589, 521.3245
231.6410, 523.4772
232.1231, 519.4085
232.6052, 511.8236
233.0873, 506.4651
233.5694, 507.0698
234.0516, 512.5948
234.5337, 515.4667
235.0158, 514.0099
235.4979, 512.3505
235.9800, 510.5549
236.4621, 509.4352
236.9443, 510.6373
237.4264, 515.1784
237.9085, 522.6568
238.3906, 531.2823
238.8727, 542.5197
239.3548, 553.0121
239.8370, 560.2701
240.3191, 565.7751
240.8012, 573.0508
241.2833, 583.7889
241.7654, 597.6088
242.2475, 613.2578
242.7297, 630.9630
243.2118, 649.6495
243.6939, 670.4156
244.1760, 691.9925
244.6581, 710.1134
245.1402, 721.9486
245.6224, 730.5266
246.1045, 742.4486
246.5866, 758.9902
247.0687, 774.8812
247.5508, 788.0261
248.0329, 798.4553
248.5151, 805.9045
248.9972, 808.6015
249.4793, 810.3439
249.9614, 816.6964
250.4435, 828.1295
250.9256, 840.5041
251.4078, 852.8787
251.8899, 864.6920
252.3720, 873.5424
252.8541, 877.5314
253.3362, 879.7518
253.8183, 884.5606
254.3005, 891.9613
254.7826, 897.0534
255.2647, 895.7596
255.7468, 889.1748
256.2289, 882.8778
256.7110, 878.1671
257.1931, 873.4363
257.6753, 866.5092
258.1574, 857.9183
258.6395, 851.0598
259.1216, 847.1721
259.6037, 846.4991
260.0858, 851.0886
260.5680, 864.6420
261.0501, 878.9783
261.5322, 886.7613
262.0143, 890.5617
262.4964, 898.2061
262.9785, 916.1483
263.4607, 942.7383
263.9428, 968.8254
264.4249, 993.8669
264.9070, 1018.966
265.3891, 1043.104
265.8712, 1067.684
266.3534, 1095.584
266.8355, 1129.905
267.3176, 1168.704
267.7997, 1203.755
268.2818, 1232.544
268.7639, 1261.322
269.2461, 1292.949
269.7282, 1325.926
270.2103, 1358.594
270.6924, 1390.869
271.1745, 1421.371
271.6566, 1445.214
272.1388, 1461.769
272.6209, 1471.509
273.1030, 1474.500
273.5851, 1472.181
274.0672, 1466.092
274.5493, 1456.924
275.0315, 1444.356
275.5136, 1427.660
275.9957, 1406.345
276.4778, 1381.182
276.9599, 1351.893
277.4420, 1319.896
277.9242, 1286.086
278.4063, 1250.655
278.8884, 1214.416
279.3705, 1178.551
279.8526, 1143.771
280.3347, 1108.131
280.8169, 1068.587
281.2990, 1030.092
281.7811, 996.2761
282.2632, 968.0683
282.7453, 944.2868
283.2274, 923.4209
283.7096, 905.8663
284.1917, 890.5275
284.6738, 875.7654
285.1559, 864.0010
285.6380, 857.2297
286.1201, 855.3809
286.6023, 856.3865
287.0844, 857.3779
287.5665, 856.6807
288.0486, 863.0631
288.5307, 879.6669
289.0128, 899.7742
289.4950, 921.7075
289.9771, 944.7209
290.4592, 967.5167
290.9413, 988.0081
291.4234, 1005.261
291.9055, 1032.115
292.3877, 1076.945
292.8698, 1122.925
293.3519, 1164.838
293.8340, 1203.658
294.3161, 1242.800
294.7982, 1284.802
295.2804, 1329.424
295.7625, 1371.321
296.2446, 1406.646
296.7267, 1443.418
297.2088, 1486.901
297.6909, 1531.990
298.1731, 1570.685
298.6552, 1598.372
299.1373, 1617.143
299.6194, 1634.690
300.1015, 1652.556
300.5836, 1666.803
301.0658, 1677.393
301.5479, 1684.035
302.0300, 1684.497
302.5121, 1678.164
302.9942, 1669.925
303.4763, 1670.437
303.9585, 1690.639
304.4406, 1703.152
304.9227, 1705.779
305.4048, 1702.501
305.8869, 1696.756
306.3690, 1689.207
306.8512, 1677.837
307.3333, 1659.822
307.8154, 1634.199
308.2975, 1603.490
308.7796, 1567.411
309.2617, 1527.312
309.7439, 1482.247
310.2260, 1433.319
310.7081, 1383.974
311.1902, 1337.449
311.6723, 1292.844
312.1544, 1255.650
312.6366, 1222.955
313.1187, 1198.939
313.6008, 1186.561
314.0829, 1184.314
314.5650, 1188.711
315.0471, 1197.404
315.5293, 1210.389
316.0114, 1227.787
316.4935, 1253.776
316.9756, 1279.664
317.4577, 1307.712
317.9398, 1333.620
318.4220, 1352.721
318.9041, 1362.847
319.3862, 1362.603
319.8683, 1347.269
320.3504, 1308.736
320.8326, 1263.455
321.3147, 1209.919
321.7968, 1151.482
322.2789, 1088.658
322.7610, 1022.688
323.2431, 957.6874
323.7253, 901.4407
324.2074, 857.2015
324.6895, 816.0241
325.1716, 775.7535
325.6537, 739.3102
326.1358, 708.3229
326.6180, 683.0784
327.1001, 662.8487
327.5822, 647.0189
328.0643, 636.0776
328.5464, 627.2369
329.0285, 621.0706
329.5107, 616.1142
329.9928, 611.5591
330.4749, 607.6702
330.9570, 605.6483
331.4391, 606.7774
331.9212, 610.6428
332.4034, 611.0207
332.8855, 602.0817
333.3676, 595.8880
333.8497, 595.0391
334.3318, 598.2772
334.8139, 603.7881
335.2961, 610.6401
335.7782, 618.9928
336.2603, 629.0010
336.7424, 639.5973
337.2245, 653.9880
337.7066, 673.5928
338.1888, 696.0829
338.6709, 718.9220
339.1530, 741.6750
339.6351, 766.1189
340.1172, 795.2057
340.5993, 830.3088
341.0815, 866.5785
341.5636, 899.7469
342.0457, 937.1526
342.5278, 986.4310
343.0099, 1045.206
343.4920, 1103.576
343.9742, 1153.322
344.4563, 1194.521
344.9384, 1225.750
345.4205, 1243.640
345.9026, 1253.729
346.3847, 1253.600
346.8669, 1246.888
347.3490, 1238.504
347.8311, 1230.732
348.3132, 1224.833
348.7953, 1226.185
349.2774, 1238.000
349.7596, 1252.838
350.2417, 1270.417
350.7238, 1289.344
351.2059, 1310.412
351.6880, 1333.752
352.1701, 1353.387
352.6523, 1359.913
353.1344, 1352.953
353.6165, 1333.393
354.0986, 1299.367
354.5807, 1254.738
355.0628, 1198.420
355.5450, 1131.952
356.0271, 1061.457
356.5092, 990.5546
356.9913, 919.3978
357.4734, 854.6907
357.9555, 797.9191
358.4377, 747.0343
358.9198, 702.3611
359.4019, 662.6801
359.8840, 625.9841
360.3661, 591.2045
360.8482, 558.5513
361.3304, 527.3768
361.8125, 495.4052
362.2946, 470.7016
362.7767, 461.3142
363.2588, 457.5681
363.7409, 449.4643
364.2231, 433.6711
364.7052, 414.9084
365.1873, 397.5364
365.6694, 380.9565
366.1515, 370.9342
366.6336, 373.7725
367.1158, 379.9011
367.5979, 383.3320
368.0800, 383.6261
368.5621, 381.3693
369.0442, 374.7711
369.5263, 365.3326
370.0085, 361.0112
370.4906, 365.0373
370.9727, 369.4729
371.4548, 367.4615
371.9369, 361.7712
372.4190, 358.7423
372.9012, 362.6708
373.3833, 369.3322
373.8654, 372.3808
374.3475, 371.4622
374.8296, 369.7368
375.3117, 367.1475
375.7939, 365.5070
376.2760, 367.7527
376.7581, 375.3369
377.2402, 383.7381
377.7223, 389.3886
378.2044, 392.9890
378.6866, 397.5813
379.1687, 404.1124
379.6508, 411.8031
380.1329, 420.2349
380.6150, 429.3837
381.0971, 437.3686
381.5793, 437.5150
382.0614, 438.6731
382.5435, 455.8665
383.0256, 491.4771
383.5077, 529.5481
383.9898, 556.3400
384.4720, 574.1715
384.9541, 601.2189
385.4362, 643.4570
385.9183, 689.9333
386.4004, 735.8873
386.8825, 780.7864
387.3647, 823.6973
387.8468, 863.6307
388.3289, 901.8210
388.8110, 942.0751
389.2931, 989.1262
389.7752, 1028.607
390.2574, 1054.138
390.7395, 1072.077
391.2216, 1089.457
391.7037, 1107.890
392.1858, 1126.414
392.6679, 1144.851
393.1501, 1164.755
393.6322, 1173.489
394.1143, 1170.088
394.5964, 1157.588
395.0785, 1136.531
395.5606, 1107.638
396.0428, 1071.900
396.5249, 1029.200
397.0070, 981.0377
397.4891, 933.8065
397.9712, 885.4023
398.4533, 841.0486
398.9355, 801.6974
399.4176, 766.4192
399.8997, 733.7187
400.3818, 703.3022
400.8639, 676.0937
401.3460, 653.9440
401.8282, 639.0732
402.3103, 623.2466
402.7924, 604.7344
403.2745, 586.8442
403.7566, 571.2045
404.2387, 557.6684
404.7209, 545.1268
405.2030, 532.6635
405.6851, 520.5089
406.1672, 511.0803
406.6493, 505.6226
407.1314, 501.4265
407.6136, 497.0260
408.0957, 493.7607
408.5778, 493.5245
409.0599, 497.0222
409.5420, 502.2504
410.0241, 505.9350
410.5063, 507.3731
410.9884, 510.9726
411.4705, 517.8540
411.9526, 526.8448
412.4347, 537.4354
412.9168, 549.5417
413.3990, 563.1771
413.8811, 577.9485
414.3632, 594.1776
414.8453, 612.9320
415.3274, 633.9881
415.8095, 658.1821
416.2917, 689.3124
416.7738, 722.8785
417.2559, 753.2141
417.7380, 779.4085
418.2201, 801.1257
418.7022, 817.4977
419.1844, 828.8063
419.6665, 837.3454
420.1486, 842.4260
420.6307, 846.6840
421.1128, 851.8028
421.5949, 857.5500
422.0771, 869.2688
422.5592, 889.6853
423.0413, 916.7598
423.5234, 948.0537
424.0055, 983.1809
424.4876, 1022.918
424.9698, 1068.511
425.4519, 1119.491
425.9340, 1170.825
426.4161, 1222.263
426.8982, 1274.246
427.3803, 1328.524
427.8625, 1383.283
428.3446, 1435.411
428.8267, 1484.296
429.3088, 1527.689
429.7909, 1562.319
430.2730, 1590.086
430.7552, 1601.400
431.2373, 1594.197
431.7194, 1571.995
432.2015, 1535.419
432.6836, 1485.833
433.1657, 1425.217
433.6479, 1354.323
434.1300, 1274.166
434.6121, 1196.248
435.0942, 1119.598
435.5763, 1046.229
436.0584, 974.3168
436.5406, 906.8879
437.0227, 846.8500
437.5048, 795.4340
437.9869, 751.6224
438.4690, 713.7961
438.9511, 681.5905
439.4333, 656.8063
439.9154, 643.5977
440.3975, 634.0222
440.8796, 624.0079
441.3617, 614.6783
441.8438, 610.0214
442.3260, 613.4453
442.8081, 622.9307
443.2902, 632.3135
443.7723, 642.7213
444.2544, 650.2254
444.7365, 654.0231
445.2187, 654.0536
445.7008, 650.3467
446.1829, 643.0428
446.6650, 630.2621
447.1471, 608.8884
447.6292, 580.1215
448.1114, 549.1882
448.5935, 514.4021
449.0756, 482.6372
449.5577, 461.9073
450.0398, 449.1483
450.5219, 435.6889
451.0041, 418.0487
451.4862, 399.6493
451.9683, 383.6282
452.4504, 369.8291
452.9325, 357.1285
453.4146, 344.5822
453.8968, 333.4133
454.3789, 326.7261
454.8610, 325.0901
455.3431, 324.7558
455.8252, 326.6433
456.3073, 328.4610
456.7895, 327.0494
457.2716, 322.2843
457.7537, 317.4027
458.2358, 315.3393
458.7179, 316.0952
459.2000, 315.5468
459.6822, 312.2837
460.1643, 309.5649
460.6464, 309.0498
461.1285, 309.3784
461.6106, 308.1597
462.0927, 304.5887
462.5748, 300.6877
463.0569, 300.0346
463.5391, 304.0752
464.0212, 307.4852
464.5033, 308.4950
464.9854, 310.5433
465.4675, 315.7394
465.9496, 323.3801
466.4318, 331.6144
466.9139, 339.6063
467.3960, 346.9233
467.8781, 351.7012
468.3602, 352.2916
468.8423, 354.7153
469.3245, 362.8973
469.8066, 372.2719
470.2887, 379.0718
470.7708, 382.7871
471.2529, 385.9961
471.7350, 392.2585
472.2172, 399.8922
472.6993, 401.8642
473.1814, 396.3832
473.6635, 388.7031
474.1456, 381.4688
474.6277, 374.8258
475.1099, 369.2425
475.5920, 364.3516
476.0741, 361.1454
476.5562, 360.7796
477.0383, 362.7020
477.5204, 365.0474
478.0026, 366.9722
478.4847, 369.9826
478.9668, 376.1177
479.4489, 385.6361
479.9310, 397.7380
480.4131, 413.1753
480.8953, 430.5069
481.3774, 449.9377
481.8595, 470.5116
482.3416, 489.3111
482.8237, 504.3832
483.3058, 517.5093
483.7880, 535.1322
484.2701, 565.4771
484.7522, 588.2488
485.2343, 603.4473
485.7164, 610.8922
486.1985, 609.5555
486.6807, 599.9658
487.1628, 584.5381
487.6449, 564.8753
488.1270, 541.0690
488.6091, 514.4175
489.0912, 482.0343
489.5734, 451.3017
490.0555, 424.1845
490.5376, 399.6912
491.0197, 376.0908
491.5018, 352.7516
491.9839, 333.1396
492.4661, 322.7683
492.9482, 320.5190
493.4303, 316.3744
493.9124, 307.4668
494.3945, 299.4023
494.8766, 298.4663
495.3588, 302.0777
495.8409, 303.3947
496.3230, 298.1751
496.8051, 292.5082
497.2872, 291.6141
497.7693, 294.6070
498.2515, 298.5251
498.7336, 302.5414
499.2157, 306.2045
499.6978, 308.5303
500.1799, 308.7648
500.6620, 310.6412
501.1442, 315.4041
501.6263, 321.0384
502.1084, 326.6836
502.5905, 332.0089
503.0726, 336.5015
503.5547, 339.7784
504.0369, 342.2238
504.5190, 345.0962
505.0011, 347.5618
505.4832, 351.9529
505.9653, 358.1749
506.4474, 366.3265
506.9296, 378.3160
507.4117, 392.9473
507.8938, 405.2101
508.3759, 409.5439
508.8580, 408.0283
509.3401, 413.4214
509.8223, 429.3940
510.3044, 444.2512
510.7865, 453.5970
511.2686, 459.8736
511.7507, 464.8051
512.2328, 468.6091
512.7150, 472.3756
513.1971, 479.3033
513.6792, 486.8342
514.1613, 486.4985
514.6434, 476.0805
515.1255, 463.5315
515.6077, 454.1478
516.0898, 447.5384
516.5719, 441.5026
517.0540, 437.7375
517.5361, 432.4388
518.0182, 423.2285
518.5004, 411.5258
518.9825, 399.0781
519.4646, 386.3744
519.9467, 374.8961
520.4288, 366.7077
520.9109, 362.5630
521.3931, 356.5555
521.8752, 346.6335
522.3573, 337.3204
522.8394, 329.4626
523.3215, 323.4669
523.8036, 321.0610
524.2858, 322.8011
524.7679, 324.3643
525.2500, 317.3062
525.7321, 298.8966
526.2142, 285.7085
526.6964, 280.9515
527.1785, 279.4780
527.6606, 280.2862
528.1427, 282.3488
528.6248, 283.7898
529.1069, 283.9513
529.5891, 282.9182
530.0712, 279.1131
530.5533, 272.9389
531.0354, 272.1698
531.5175, 281.5467
531.9996, 293.0239
532.4818, 296.1961
532.9639, 291.8002
533.4460, 287.9440
533.9281, 284.5930
534.4102, 283.7421
534.8923, 288.1241
535.3745, 296.5123
535.8566, 304.8721
536.3387, 311.2383
536.8208, 316.8220
537.3029, 324.1224
537.7850, 334.9670
538.2672, 343.8281
538.7493, 347.6993
539.2314, 352.4234
539.7135, 361.7566
540.1956, 374.8481
540.6777, 388.9962
541.1599, 402.7218
541.6420, 415.9944
542.1241, 428.8743
542.6062, 441.7676
543.0883, 453.1356
543.5704, 461.1800
544.0526, 468.7571
544.5347, 479.2232
545.0168, 491.4259
545.4989, 499.4535
545.9810, 497.6424
546.4631, 491.3236
546.9453, 489.4243
547.4274, 491.7766
547.9095, 492.4996
548.3916, 489.4351
548.8737, 483.2518
549.3558, 474.5948
549.8380, 463.4168
550.3201, 451.4698
550.8022, 435.8870
551.2843, 422.2130
551.7664, 417.1167
552.2485, 418.4996
552.7307, 417.7279
553.2128, 409.5184
553.6949, 397.4667
554.1770, 391.7854
554.6591, 396.4599
555.1412, 400.6309
555.6234, 403.6066
556.1055, 406.4747
556.5876, 408.1032
557.0697, 410.0785
557.5518, 416.6974
558.0339, 431.5835
558.5161, 451.2286
558.9982, 468.1496
559.4803, 482.3141
559.9624, 493.4653
560.4445, 500.2425
560.9266, 504.9776
561.4088, 510.9935
561.8909, 517.8746
562.3730, 520.9210
562.8551, 518.0361
563.3372, 510.7492
563.8193, 498.6673
564.3015, 482.9546
564.7836, 469.2194
565.2657, 460.1258
565.7478, 453.6311
566.2299, 445.5834
566.7120, 433.2568
567.1942, 426.7050
567.6763, 430.4167
568.1584, 435.7182
568.6405, 437.6995
569.1226, 437.2274
569.6047, 437.0276
570.0869, 438.4504
570.5690, 441.6330
571.0511, 447.2880
571.5332, 456.3884
572.0153, 464.3421
572.4974, 468.9561
572.9796, 474.1002
573.4617, 483.4010
573.9438, 494.8966
574.4259, 503.3472
574.9080, 506.0663
575.3901, 505.7307
575.8723, 504.3308
576.3544, 502.2252
576.8365, 502.1072
577.3186, 505.6651
577.8007, 508.3873
578.2828, 503.3609
578.7650, 489.9965
579.2471, 484.6731
579.7292, 494.8407
580.2113, 505.7636
580.6934, 509.5654
581.1755, 509.6831
581.6577, 511.4545
582.1398, 516.8304
582.6219, 526.0370
583.1040, 539.9125
583.5861, 559.1679
584.0682, 577.3727
584.5504, 593.3070
585.0325, 609.8894
585.5146, 627.6426
585.9967, 646.6771
586.4788, 667.4329
