##NAMES=Axinite-(Mn)
##RRUFFID=R050299
##IDEAL CHEMISTRY=Ca_4_Mn^2+^_2_Al_4_[B_2_Si_8_O_30_](OH)_2_
##LOCALITY=Dalnegorsk, Russia
##OWNER=RRUFF
##SOURCE=Eugene Schlepp
##DESCRIPTION=Brown axe-head-shaped crystal
##STATUS=The identification of this mineral has been confirmed by X-ray diffraction and chemical analysis
##URL=rruff.info/R050299
##MEASURED CHEMISTRY=Ca_2.00_(Mn_0.64_Fe^2+^_0.34_Mg_0.02_)Al_2.00_B_1.00_Si_4.00_O_15_(OH)
92.04132, 0.0000000E+00
92.52344, 73.49818
93.00555, 72.55341
93.48767, 72.68324
93.96979, 75.66905
94.45190, 78.82687
94.93402, 82.03550
95.41614, 83.93600
95.89825, 84.80131
96.38037, 85.27037
96.86249, 85.22759
97.34460, 84.19050
97.82672, 81.50841
98.30884, 79.02698
98.79095, 76.83328
99.27307, 74.92999
99.75519, 73.54997
100.2373, 73.16164
100.7194, 73.65301
101.2015, 74.00516
101.6837, 74.17800
102.1658, 74.23582
102.6479, 74.24839
103.1300, 74.22604
103.6121, 74.06198
104.0942, 73.33369
104.5764, 72.40221
105.0585, 71.92080
105.5406, 72.24024
106.0227, 73.17661
106.5048, 74.16007
106.9869, 75.00915
107.4691, 76.15530
107.9512, 77.92155
108.4333, 80.13433
108.9154, 82.37710
109.3975, 84.62830
109.8796, 87.15932
110.3617, 87.88470
110.8439, 86.07030
111.3260, 83.13551
111.8081, 79.18562
112.2902, 74.48857
112.7723, 69.60786
113.2544, 65.30649
113.7366, 61.55963
114.2187, 58.62988
114.7008, 56.87345
115.1829, 55.66334
115.6650, 54.44508
116.1471, 53.01333
116.6293, 51.55488
117.1114, 50.54266
117.5935, 50.08146
118.0756, 49.77164
118.5577, 49.54275
119.0398, 49.39877
119.5220, 49.34201
120.0041, 49.36038
120.4862, 49.49750
120.9683, 49.80378
121.4504, 50.34290
121.9325, 50.93635
122.4147, 51.42891
122.8968, 51.80964
123.3789, 52.21861
123.8610, 52.69331
124.3431, 53.24715
124.8252, 53.89253
125.3074, 54.60293
125.7895, 55.44381
126.2716, 56.56538
126.7537, 58.03711
127.2358, 59.68938
127.7179, 61.59971
128.2001, 63.59193
128.6822, 65.54324
129.1643, 67.47093
129.6464, 69.30449
130.1285, 70.02128
130.6106, 69.07081
131.0928, 67.41856
131.5749, 64.82675
132.0570, 61.65102
132.5391, 58.47993
133.0212, 55.80404
133.5033, 53.60407
133.9855, 52.20379
134.4676, 51.78997
134.9497, 51.83140
135.4318, 52.17229
135.9139, 52.74265
136.3960, 53.37506
136.8782, 53.86872
137.3603, 54.18267
137.8424, 54.58609
138.3245, 55.21801
138.8066, 55.89838
139.2887, 56.42836
139.7709, 56.76815
140.2530, 56.93345
140.7351, 56.85827
141.2172, 56.56787
141.6993, 56.32312
142.1814, 56.25668
142.6636, 56.33135
143.1457, 56.39293
143.6278, 56.31734
144.1099, 56.34121
144.5920, 56.64565
145.0741, 57.23090
145.5563, 57.96223
146.0384, 58.69794
146.5205, 59.41297
147.0026, 60.33297
147.4847, 61.82717
147.9668, 63.33099
148.4490, 64.46905
148.9311, 65.17809
149.4132, 65.76638
149.8953, 66.79858
150.3774, 68.87112
150.8595, 70.11712
151.3417, 70.31157
151.8238, 69.85090
152.3059, 68.86031
152.7880, 67.42751
153.2701, 65.80846
153.7522, 64.66994
154.2344, 64.13711
154.7165, 64.05103
155.1986, 64.64710
155.6807, 65.62116
156.1628, 66.71308
156.6449, 67.83187
157.1271, 68.83298
157.6092, 69.04922
158.0913, 68.20150
158.5734, 67.07328
159.0555, 65.67995
159.5376, 64.14057
160.0198, 62.75193
160.5019, 61.66719
160.9840, 60.88798
161.4661, 60.29367
161.9482, 59.79765
162.4303, 59.55275
162.9125, 59.74527
163.3946, 60.35986
163.8767, 61.05875
164.3588, 61.62880
164.8409, 62.16510
165.3230, 62.82368
165.8052, 63.59789
166.2873, 64.53298
166.7694, 65.68631
167.2515, 67.08404
167.7336, 68.63572
168.2157, 70.39585
168.6979, 72.25236
169.1800, 74.12418
169.6621, 76.05720
170.1442, 77.92545
170.6263, 79.40140
171.1084, 80.49282
171.5906, 81.09494
172.0727, 81.36070
172.5548, 81.18095
173.0369, 80.38278
173.5190, 78.81965
174.0011, 76.55116
174.4833, 74.07687
174.9654, 70.77458
175.4475, 67.88605
175.9296, 65.74201
176.4117, 64.21162
176.8938, 63.04663
177.3760, 62.11435
177.8581, 61.42920
178.3402, 60.39637
178.8223, 58.78711
179.3044, 57.10355
179.7865, 55.37844
180.2687, 53.70415
180.7508, 52.28561
181.2329, 51.33708
181.7150, 50.91064
182.1971, 50.35289
182.6792, 49.45029
183.1614, 48.61135
183.6435, 48.12732
184.1256, 47.98722
184.6077, 47.90121
185.0898, 47.57752
185.5719, 47.00535
186.0540, 46.68820
186.5362, 46.70691
187.0183, 46.94541
187.5004, 47.33933
187.9825, 47.88866
188.4646, 48.49109
188.9467, 49.07244
189.4289, 49.63407
189.9110, 50.19269
190.3931, 50.73602
190.8752, 51.28229
191.3573, 51.90368
191.8394, 52.66541
192.3216, 53.32783
192.8037, 53.58189
193.2858, 53.58786
193.7679, 53.71351
194.2500, 54.26889
194.7321, 55.08560
195.2143, 55.57771
195.6964, 55.46837
196.1785, 55.45012
196.6606, 55.96506
197.1427, 56.84416
197.6248, 57.70694
198.1070, 58.21516
198.5891, 58.43335
199.0712, 59.02245
199.5533, 60.14511
200.0354, 61.51346
200.5175, 63.00238
200.9997, 64.62730
201.4818, 66.44175
201.9639, 68.49456
202.4460, 70.78895
202.9281, 73.16386
203.4102, 75.71230
203.8924, 78.24548
204.3745, 80.95446
204.8566, 83.64211
205.3387, 85.83483
205.8208, 87.11526
206.3029, 87.43149
206.7851, 87.30436
207.2672, 86.47187
207.7493, 85.49863
208.2314, 84.63001
208.7135, 83.83316
209.1956, 82.92400
209.6778, 81.73320
210.1599, 80.23512
210.6420, 78.62068
211.1241, 76.91689
211.6062, 75.07724
212.0883, 73.15308
212.5705, 71.07639
213.0526, 68.91605
213.5347, 66.63818
214.0168, 64.21304
214.4989, 62.28771
214.9810, 61.21836
215.4632, 60.31907
215.9453, 59.07423
216.4274, 57.47997
216.9095, 55.97296
217.3916, 54.92916
217.8737, 54.38306
218.3559, 53.93571
218.8380, 53.80016
219.3201, 53.61634
219.8022, 52.98322
220.2843, 51.87193
220.7664, 50.74400
221.2486, 49.94587
221.7307, 49.44265
222.2128, 49.09175
222.6949, 49.03514
223.1770, 49.03893
223.6591, 48.81971
224.1413, 48.34504
224.6234, 47.81971
225.1055, 47.30495
225.5876, 46.85052
226.0697, 46.58068
226.5518, 46.63179
227.0340, 46.83271
227.5161, 46.96455
227.9982, 47.04485
228.4803, 46.98911
228.9624, 46.58130
229.4445, 46.04665
229.9267, 45.67716
230.4088, 45.58748
230.8909, 45.71744
231.3730, 45.96966
231.8551, 46.36489
232.3372, 46.83547
232.8194, 47.43372
233.3015, 48.06279
233.7836, 48.62124
234.2657, 49.07933
234.7478, 49.42470
235.2299, 49.58895
235.7121, 49.41943
236.1942, 49.38374
236.6763, 49.61879
237.1584, 50.03244
237.6405, 50.54766
238.1227, 51.14143
238.6048, 51.79161
239.0869, 52.43446
239.5690, 53.03502
240.0511, 53.70064
240.5332, 54.51479
241.0154, 55.36455
241.4975, 56.10957
241.9796, 56.68796
242.4617, 57.18679
242.9438, 57.83382
243.4259, 58.84605
243.9081, 59.65938
244.3902, 60.27282
244.8723, 60.65524
245.3544, 60.73869
245.8365, 60.50256
246.3186, 60.04966
246.8007, 59.61051
247.2829, 59.23863
247.7650, 58.79870
248.2471, 58.27155
248.7292, 57.68665
249.2113, 56.97589
249.6934, 56.13803
250.1756, 55.38078
250.6577, 55.12373
251.1398, 55.82564
251.6219, 56.40449
252.1040, 56.82579
252.5861, 57.14506
253.0683, 57.37671
253.5504, 57.53260
254.0325, 57.68193
254.5146, 57.95638
254.9967, 58.60862
255.4788, 58.87398
255.9610, 58.67114
256.4431, 58.13905
256.9252, 57.30353
257.4073, 56.19158
257.8894, 54.99628
258.3716, 53.96732
258.8537, 53.15747
259.3358, 52.42799
259.8179, 51.61356
260.3000, 50.97370
260.7821, 50.82103
261.2643, 51.18858
261.7464, 51.72659
262.2285, 52.08091
262.7106, 52.22071
263.1927, 52.22097
263.6748, 51.89526
264.1570, 51.54845
264.6391, 51.44432
265.1212, 51.60688
265.6033, 51.88703
266.0854, 52.14514
266.5675, 52.38472
267.0497, 52.73592
267.5318, 53.32386
268.0139, 53.93775
268.4960, 54.39045
268.9781, 54.67713
269.4602, 54.93842
269.9424, 55.22582
270.4245, 55.58141
270.9066, 56.16082
271.3887, 57.07015
271.8708, 58.13092
272.3529, 59.23438
272.8351, 60.37788
273.3172, 61.55376
273.7993, 62.84144
274.2814, 64.13011
274.7635, 65.14500
275.2456, 65.87452
275.7278, 66.33113
276.2099, 66.48403
276.6920, 66.34759
277.1741, 66.03203
277.6562, 65.56956
278.1383, 64.94968
278.6204, 64.24152
279.1025, 63.49731
279.5847, 62.53833
280.0668, 60.94692
280.5489, 58.88832
281.0310, 57.43004
281.5131, 57.15287
281.9952, 57.47611
282.4774, 57.53555
282.9595, 57.30425
283.4416, 56.98146
283.9237, 56.52153
284.4058, 56.02117
284.8879, 55.92257
285.3701, 56.46843
285.8522, 57.28353
286.3343, 58.03633
286.8164, 58.72662
287.2985, 59.22880
287.7806, 59.42368
288.2628, 59.37123
288.7449, 59.20690
289.2270, 58.79729
289.7091, 58.56611
290.1912, 58.96048
290.6733, 59.83278
291.1555, 60.68404
291.6376, 61.18736
292.1197, 61.50949
292.6018, 62.06411
293.0839, 62.91288
293.5660, 63.88981
294.0482, 64.92427
294.5303, 65.99557
295.0124, 67.08591
295.4945, 68.16830
295.9766, 69.26693
296.4587, 70.45129
296.9409, 71.76432
297.4230, 73.01823
297.9051, 74.09293
298.3872, 75.06966
298.8693, 76.05132
299.3514, 77.10751
299.8336, 78.11080
300.3157, 78.82198
300.7978, 79.17283
301.2799, 79.66886
301.7620, 80.53120
302.2441, 81.62880
302.7263, 82.89627
303.2084, 84.34065
303.6905, 85.85767
304.1726, 87.53567
304.6547, 89.40181
305.1368, 90.67848
305.6190, 91.25619
306.1011, 91.02843
306.5832, 89.83047
307.0653, 87.67215
307.5474, 85.03279
308.0295, 82.18159
308.5117, 79.13801
308.9938, 76.02963
309.4759, 72.72038
309.9580, 69.55400
310.4401, 66.68284
310.9222, 64.11890
311.4044, 61.88741
311.8865, 60.02858
312.3686, 58.53358
312.8507, 57.35176
313.3328, 56.56162
313.8149, 55.97196
314.2971, 55.46531
314.7792, 55.05323
315.2613, 54.76331
315.7434, 54.62862
316.2255, 54.60855
316.7076, 54.63413
317.1898, 54.73528
317.6719, 54.79757
318.1540, 54.76019
318.6361, 54.66275
319.1182, 54.51918
319.6003, 54.30328
320.0825, 54.12597
320.5646, 54.20452
321.0467, 54.60316
321.5288, 54.84957
322.0109, 54.79991
322.4930, 54.51858
322.9752, 53.96257
323.4573, 53.11951
323.9394, 52.27116
324.4215, 51.71317
324.9036, 51.44186
325.3857, 51.10028
325.8679, 50.46601
326.3500, 49.92364
326.8321, 49.77227
327.3142, 49.97258
327.7963, 50.25117
328.2784, 50.53093
328.7606, 50.76656
329.2427, 50.71074
329.7248, 50.22330
330.2069, 49.65514
330.6890, 49.14889
331.1711, 48.72624
331.6533, 48.43882
332.1354, 48.30886
332.6175, 48.32901
333.0996, 48.53476
333.5817, 49.00456
334.0638, 49.40880
334.5460, 49.40148
335.0281, 49.29661
335.5102, 49.45772
335.9923, 50.00834
336.4744, 50.78204
336.9565, 51.67463
337.4387, 52.69837
337.9208, 53.55985
338.4029, 53.97541
338.8850, 54.32174
339.3671, 54.96996
339.8492, 55.96482
340.3314, 57.07207
340.8135, 58.19466
341.2956, 59.31591
341.7777, 60.24636
342.2598, 60.84338
342.7419, 61.39705
343.2241, 62.22404
343.7062, 63.26208
344.1883, 64.17220
344.6704, 64.71152
345.1525, 65.02470
345.6346, 65.42593
346.1168, 65.94907
346.5989, 66.50020
347.0810, 67.01585
347.5631, 67.50971
348.0452, 68.00459
348.5273, 68.45920
349.0095, 68.95922
349.4916, 69.64425
349.9737, 70.51646
350.4558, 71.38795
350.9379, 72.38993
351.4200, 73.17618
351.9022, 73.25700
352.3843, 72.51685
352.8664, 71.32530
353.3485, 69.93417
353.8306, 68.29893
354.3127, 66.15099
354.7949, 63.17770
355.2770, 60.04576
355.7591, 57.60110
356.2412, 55.81910
356.7233, 54.14708
357.2054, 52.38470
357.6876, 50.61060
358.1697, 48.88859
358.6518, 47.19889
359.1339, 45.76202
359.6160, 44.88652
360.0981, 44.47758
360.5803, 44.03664
361.0624, 43.44926
361.5445, 42.85320
362.0266, 42.33897
362.5087, 41.91063
362.9908, 41.58512
363.4730, 41.37085
363.9551, 41.27539
364.4372, 41.29689
364.9193, 41.47075
365.4014, 41.68824
365.8835, 41.97221
366.3657, 42.26125
366.8478, 42.37850
367.3299, 42.22578
367.8120, 42.04780
368.2941, 42.30642
368.7762, 43.15646
369.2584, 43.72751
369.7405, 43.55865
370.2226, 43.25563
370.7047, 43.52349
371.1868, 44.41415
371.6689, 45.28680
372.1511, 45.54185
372.6332, 45.14207
373.1153, 44.93891
373.5974, 44.96143
374.0795, 45.12635
374.5616, 45.47929
375.0438, 45.94683
375.5259, 46.35643
376.0080, 46.60443
376.4901, 46.74416
376.9722, 46.96282
377.4543, 47.29079
377.9365, 47.65503
378.4186, 48.01502
378.9007, 48.42297
379.3828, 48.95205
379.8649, 49.61738
380.3470, 50.34378
380.8292, 51.01129
381.3113, 51.53405
381.7934, 52.28651
382.2755, 53.37978
382.7576, 54.57367
383.2397, 55.73379
383.7219, 56.86833
384.2040, 58.04330
384.6861, 59.31092
385.1682, 60.66662
385.6503, 61.99794
386.1324, 63.32894
386.6146, 64.60130
387.0967, 65.87189
387.5788, 67.04450
388.0609, 68.04289
388.5430, 68.82864
389.0251, 69.34531
389.5073, 69.46714
389.9894, 69.09490
390.4715, 68.49982
390.9536, 67.48080
391.4357, 66.44560
391.9178, 65.69897
392.4000, 65.23315
392.8821, 64.78282
393.3642, 64.08151
393.8463, 63.11914
394.3284, 62.18645
394.8105, 61.29891
395.2927, 60.41503
395.7748, 59.48389
396.2569, 58.55463
396.7390, 57.68562
397.2211, 56.89064
397.7032, 56.20765
398.1854, 55.79545
398.6675, 55.80946
399.1496, 55.61628
399.6317, 54.88945
400.1138, 53.97505
400.5959, 53.02513
401.0780, 52.07817
401.5602, 51.35664
402.0423, 51.25591
402.5244, 51.69535
403.0065, 51.72611
403.4886, 50.99499
403.9707, 50.19041
404.4529, 49.75579
404.9350, 49.62850
405.4171, 49.64423
405.8992, 49.71587
406.3813, 49.90038
406.8634, 50.35976
407.3456, 51.13236
407.8277, 51.81784
408.3098, 52.06318
408.7919, 52.18772
409.2740, 52.71981
409.7561, 53.76941
410.2383, 55.01878
410.7204, 56.35193
411.2025, 57.74440
411.6846, 59.07252
412.1667, 60.23105
412.6488, 61.55605
413.1310, 63.70623
413.6131, 66.67025
414.0952, 69.07743
414.5773, 70.54097
415.0594, 71.45277
415.5415, 72.14464
416.0237, 72.62849
416.5058, 72.77767
416.9879, 72.50919
417.4700, 71.83013
417.9521, 70.79314
418.4342, 69.03967
418.9164, 67.42188
419.3985, 66.19868
419.8806, 65.24100
420.3627, 64.38277
420.8448, 63.56646
421.3269, 62.80313
421.8091, 62.09955
422.2912, 61.42650
422.7733, 60.93726
423.2554, 60.84788
423.7375, 60.74150
424.2196, 60.23969
424.7018, 59.47456
425.1839, 58.92152
425.6660, 58.94692
426.1481, 59.45522
426.6302, 59.80355
427.1123, 60.15229
427.5945, 60.09691
428.0766, 59.37706
428.5587, 58.34754
429.0408, 57.30510
429.5229, 56.35734
430.0050, 55.50723
430.4872, 54.78794
430.9693, 54.25330
431.4514, 53.63897
431.9335, 52.82566
432.4156, 52.02660
432.8977, 51.30149
433.3799, 50.65860
433.8620, 50.08384
434.3441, 49.55944
434.8262, 49.10923
435.3083, 48.79508
435.7904, 48.60115
436.2726, 48.59345
436.7547, 48.98054
437.2368, 49.46795
437.7189, 49.75941
438.2010, 49.78529
438.6831, 49.83549
439.1653, 50.13997
439.6474, 50.67728
440.1295, 51.35641
440.6116, 52.20191
441.0937, 53.11300
441.5758, 54.07422
442.0580, 55.04199
442.5401, 55.85622
443.0222, 56.49548
443.5043, 56.94085
443.9864, 57.21729
444.4685, 57.30948
444.9507, 57.09574
445.4328, 56.52564
445.9149, 55.59608
446.3970, 54.23877
446.8791, 52.28564
447.3612, 50.47963
447.8434, 49.09025
448.3255, 47.92532
448.8076, 46.68943
449.2897, 45.34372
449.7718, 44.18299
450.2539, 43.50563
450.7361, 43.33566
451.2182, 43.19544
451.7003, 43.21245
452.1824, 43.11768
452.6645, 42.61590
453.1466, 41.97716
453.6288, 41.70799
454.1109, 42.03097
454.5930, 42.63874
455.0751, 42.92971
455.5572, 42.82586
456.0393, 42.52727
456.5215, 41.86953
457.0036, 41.19025
457.4857, 40.70431
457.9678, 40.38702
458.4499, 40.05853
458.9320, 39.54882
459.4142, 38.92487
459.8963, 38.60341
460.3784, 38.79662
460.8605, 38.91890
461.3426, 38.68533
461.8247, 38.38413
462.3069, 38.34046
462.7890, 38.63459
463.2711, 38.96925
463.7532, 38.95237
464.2353, 38.62402
464.7174, 38.58406
465.1996, 39.04481
465.6817, 39.57497
466.1638, 39.83167
466.6459, 39.91547
467.1280, 40.08121
467.6101, 40.46077
468.0923, 40.91361
468.5744, 41.32396
469.0565, 41.68829
469.5386, 41.93620
470.0207, 42.02906
470.5028, 42.00404
470.9850, 41.87846
471.4671, 41.60558
471.9492, 41.48462
472.4313, 41.80223
472.9134, 42.18556
473.3955, 42.09414
473.8777, 41.54938
474.3598, 41.18428
474.8419, 41.51465
475.3240, 42.46352
475.8061, 43.26341
476.2882, 43.83963
476.7704, 44.38581
477.2525, 44.85039
477.7346, 45.34444
478.2167, 46.02036
478.6988, 46.91137
479.1809, 47.88208
479.6631, 48.76957
480.1452, 49.54325
480.6273, 50.36281
481.1094, 51.37497
481.5915, 52.27694
482.0736, 53.03441
482.5558, 53.59746
483.0379, 53.91542
483.5200, 53.97071
484.0021, 53.74043
484.4842, 53.17768
484.9663, 52.26665
485.4485, 51.07749
485.9306, 49.47399
486.4127, 47.70451
486.8948, 45.78636
487.3769, 43.79254
487.8590, 42.07715
488.3412, 40.96670
488.8233, 40.23518
489.3054, 39.47206
489.7875, 38.67596
490.2696, 37.86068
490.7517, 36.94753
491.2339, 36.08283
491.7160, 35.53559
492.1981, 35.40783
492.6802, 35.30560
493.1623, 35.05599
493.6444, 34.73537
494.1266, 34.42723
494.6087, 34.14824
495.0908, 33.96123
495.5729, 33.91546
496.0550, 34.01396
496.5371, 34.26005
497.0193, 34.79880
497.5014, 35.29216
497.9835, 35.60039
498.4656, 35.81489
498.9477, 36.09871
499.4298, 36.49711
499.9120, 36.86759
500.3941, 36.95970
500.8762, 36.62778
501.3583, 36.60347
501.8404, 37.34330
502.3225, 37.92609
502.8047, 37.90119
503.2868, 37.49758
503.7689, 37.14381
504.2510, 37.04258
504.7331, 37.11419
505.2152, 37.22025
505.6974, 37.35810
506.1795, 37.55872
506.6616, 37.97632
507.1437, 38.31017
507.6258, 38.27105
508.1079, 37.92318
508.5901, 37.63283
509.0722, 37.65820
509.5543, 37.80349
510.0364, 37.75626
510.5185, 37.51820
511.0006, 37.31761
511.4828, 37.28451
511.9649, 37.33241
512.4470, 37.30657
512.9291, 37.25734
513.4112, 37.00097
513.8933, 36.31972
514.3754, 35.51190
514.8575, 34.88795
515.3397, 34.46764
515.8218, 34.10740
516.3039, 33.69262
516.7860, 33.39979
517.2681, 33.16416
517.7502, 32.87313
518.2324, 32.77241
518.7145, 32.61499
519.1966, 32.37922
519.6787, 31.97965
520.1608, 31.44179
520.6429, 30.96207
521.1251, 30.76853
521.6072, 30.84938
522.0893, 30.80942
522.5714, 30.52391
523.0535, 30.31761
523.5356, 30.34387
524.0178, 30.47898
524.4999, 30.58634
524.9820, 30.63119
525.4641, 30.65214
525.9462, 30.70724
526.4283, 30.77466
526.9105, 30.72157
527.3926, 30.47326
527.8747, 30.27458
528.3568, 30.33638
528.8389, 30.60895
529.3210, 30.92410
529.8032, 31.44590
530.2853, 31.80115
530.7674, 31.60858
531.2495, 31.13443
531.7316, 30.89248
532.2137, 31.03218
532.6959, 31.42354
533.1780, 31.96201
533.6601, 32.73581
534.1422, 33.08698
534.6243, 32.67396
535.1064, 32.28338
535.5886, 32.24278
536.0707, 32.40812
536.5528, 32.52486
537.0349, 32.49279
537.5170, 32.42533
537.9991, 32.53164
538.4813, 32.86960
538.9634, 33.07998
539.4455, 33.05299
539.9276, 32.99632
540.4097, 32.95445
540.8918, 32.95938
541.3740, 33.07830
541.8561, 33.37105
542.3382, 33.71577
542.8203, 34.00422
543.3024, 34.22846
543.7845, 34.25846
544.2667, 33.93898
544.7488, 33.66023
545.2309, 34.02306
545.7130, 34.93469
546.1951, 35.48173
546.6772, 35.27363
547.1594, 34.89500
547.6415, 34.62407
548.1236, 34.48991
548.6057, 34.57740
549.0878, 34.93184
549.5699, 35.33742
550.0521, 35.41398
550.5342, 34.98008
551.0163, 34.77287
551.4984, 34.85981
551.9805, 35.06707
552.4626, 35.38948
552.9448, 35.76417
553.4269, 36.06921
553.9090, 36.23726
554.3911, 36.40935
554.8732, 36.89374
555.3553, 37.76617
555.8375, 38.43662
556.3196, 38.73534
556.8017, 38.91622
557.2838, 39.06438
557.7659, 39.23029
558.2480, 39.56736
558.7302, 40.28744
559.2123, 41.01136
559.6944, 41.30482
560.1765, 41.24855
560.6586, 41.21339
561.1407, 41.33080
561.6229, 41.43789
562.1050, 41.30059
562.5871, 40.86445
563.0692, 40.57837
563.5513, 40.57086
564.0334, 40.59107
564.5156, 40.40844
564.9977, 40.18450
565.4798, 40.25510
565.9619, 40.74882
566.4440, 41.43270
566.9261, 41.92942
567.4083, 42.17242
567.8904, 42.49810
568.3725, 42.96384
568.8546, 43.45770
569.3367, 43.99677
569.8188, 44.52513
570.3010, 44.95022
570.7831, 45.23654
571.2652, 45.44106
571.7473, 45.64650
572.2294, 45.84092
572.7115, 45.91781
573.1937, 45.82769
573.6758, 45.69876
574.1579, 45.64651
574.6400, 45.64554
575.1221, 45.59569
575.6042, 45.52341
576.0864, 45.36012
576.5685, 44.94959
577.0506, 44.46185
577.5327, 44.18348
578.0148, 44.18391
578.4969, 44.34791
578.9791, 44.56538
579.4612, 44.83876
579.9433, 45.10684
580.4254, 45.25674
580.9075, 45.53843
581.3896, 46.08807
581.8718, 46.74928
582.3539, 47.32185
582.8360, 47.77595
583.3181, 48.28062
583.8002, 49.04011
584.2823, 50.02053
584.7645, 50.98486
585.2466, 51.98345
585.7287, 52.83059
586.2108, 53.44881
586.6929, 53.84553
587.1750, 54.01270
587.6572, 53.93095
