##NAMES=Axinite-(Mn)
##RRUFFID=R050299
##IDEAL CHEMISTRY=Ca_4_Mn^2+^_2_Al_4_[B_2_Si_8_O_30_](OH)_2_
##LOCALITY=Dalnegorsk, Russia
##OWNER=RRUFF
##SOURCE=Eugene Schlepp
##DESCRIPTION=Brown axe-head-shaped crystal
##STATUS=The identification of this mineral has been confirmed by X-ray diffraction and chemical analysis
##URL=rruff.info/R050299
##MEASURED CHEMISTRY=Ca_2.00_(Mn_0.64_Fe^2+^_0.34_Mg_0.02_)Al_2.00_B_1.00_Si_4.00_O_15_(OH)
92.35352, 4.813406
92.83563, 4.594452
93.31775, 4.501288
93.79987, 4.572165
94.28198, 4.773953
94.76410, 5.007354
95.24622, 5.234784
95.72833, 5.501077
96.21045, 5.928395
96.69257, 6.527359
97.17468, 7.148729
97.65680, 7.652458
98.13892, 8.042777
98.62103, 8.403133
99.10315, 8.706879
99.58527, 8.983034
100.0674, 9.434417
100.5495, 10.08832
101.0316, 10.84929
101.5137, 11.56483
101.9958, 12.18744
102.4780, 12.94972
102.9601, 13.94247
103.4422, 15.19841
103.9243, 16.45250
104.4064, 17.65808
104.8885, 18.89776
105.3707, 20.32964
105.8528, 21.83550
106.3349, 23.68620
106.8170, 26.04908
107.2991, 29.49244
107.7813, 32.36253
108.2634, 34.36581
108.7455, 35.76469
109.2276, 37.36795
109.7097, 40.14015
110.1918, 42.42579
110.6740, 43.54078
111.1561, 42.55114
111.6382, 41.41991
112.1203, 40.20118
112.6024, 38.91064
113.0845, 37.70743
113.5667, 36.48589
114.0488, 35.43517
114.5309, 34.67072
115.0130, 34.19311
115.4951, 34.04164
115.9772, 34.31166
116.4594, 34.99511
116.9415, 35.75741
117.4236, 36.51210
117.9057, 37.26995
118.3878, 38.03915
118.8699, 38.61411
119.3521, 39.36388
119.8342, 40.64165
120.3163, 42.52430
120.7984, 44.31208
121.2805, 45.35466
121.7626, 46.02758
122.2448, 46.97292
122.7269, 48.70784
123.2090, 50.75610
123.6911, 52.61590
124.1732, 54.17837
124.6553, 55.78720
125.1375, 57.57174
125.6196, 59.61483
126.1017, 62.17846
126.5838, 65.42802
127.0659, 69.30752
127.5480, 73.85967
128.0302, 79.34521
128.5123, 85.02637
128.9944, 90.59227
129.4765, 95.87783
129.9586, 99.34262
130.4407, 99.55144
130.9229, 96.91132
131.4050, 92.75152
131.8871, 86.64986
132.3692, 79.89563
132.8513, 75.58802
133.3334, 73.71638
133.8156, 72.78806
134.2977, 71.81971
134.7798, 71.06953
135.2619, 71.13018
135.7440, 72.16696
136.2261, 74.07584
136.7083, 76.69697
137.1904, 80.20901
137.6725, 83.88307
138.1546, 87.28845
138.6367, 90.63173
139.1188, 92.73703
139.6010, 93.17310
140.0831, 91.94891
140.5652, 90.36461
141.0473, 88.15920
141.5294, 85.92435
142.0115, 84.49065
142.4937, 84.07375
142.9758, 83.87430
143.4579, 83.54200
143.9400, 82.86201
144.4221, 83.05081
144.9042, 84.07993
145.3864, 85.96052
145.8685, 88.78400
146.3506, 93.37293
146.8327, 97.81052
147.3148, 101.5301
147.7969, 104.3347
148.2791, 106.8262
148.7612, 108.9445
149.2433, 110.7556
149.7254, 112.4522
150.2075, 114.8155
150.6896, 116.3884
151.1718, 116.5945
151.6539, 114.4669
152.1360, 112.4224
152.6181, 109.9319
153.1002, 107.4602
153.5823, 106.4173
154.0645, 107.3406
154.5466, 109.3546
155.0287, 112.0731
155.5108, 116.7483
155.9929, 120.6129
156.4750, 123.6973
156.9572, 125.8009
157.4393, 125.9662
157.9214, 123.3842
158.4035, 119.1956
158.8856, 114.1152
159.3677, 106.8659
159.8499, 100.1544
160.3320, 94.51743
160.8141, 89.97610
161.2962, 86.75439
161.7783, 85.49284
162.2604, 85.35426
162.7426, 85.64744
163.2247, 86.18738
163.7068, 87.09297
164.1889, 88.25256
164.6710, 89.69313
165.1531, 91.94105
165.6353, 95.21124
166.1174, 99.42867
166.5995, 104.5129
167.0816, 110.8356
167.5637, 117.7120
168.0458, 124.7362
168.5280, 131.8395
169.0101, 139.3076
169.4922, 148.3314
169.9743, 157.5694
170.4564, 165.0843
170.9385, 169.7862
171.4207, 172.6194
171.9028, 174.7694
172.3849, 176.3333
172.8670, 175.6798
173.3491, 170.4952
173.8312, 162.2373
174.3134, 153.6543
174.7955, 145.5367
175.2776, 138.0451
175.7597, 131.4840
176.2418, 125.8535
176.7239, 120.8998
177.2061, 116.4084
177.6882, 112.2879
178.1703, 108.3768
178.6524, 105.0151
179.1345, 101.6559
179.6166, 97.24528
180.0988, 91.53160
180.5809, 85.56926
181.0630, 80.36945
181.5451, 75.84584
182.0272, 71.87952
182.5093, 68.28284
182.9915, 65.15051
183.4736, 62.82611
183.9557, 61.36755
184.4378, 60.49413
184.9199, 59.90744
185.4020, 59.60145
185.8842, 59.46295
186.3663, 59.36258
186.8484, 59.36831
187.3305, 59.76508
187.8126, 60.62404
188.2947, 61.75665
188.7769, 62.79680
189.2590, 63.76215
189.7411, 65.02544
190.2232, 66.95764
190.7053, 69.44933
191.1874, 71.88360
191.6696, 74.29138
192.1517, 76.52444
192.6338, 78.37795
193.1159, 79.85609
193.5980, 80.88770
194.0801, 81.20330
194.5623, 80.86834
195.0444, 80.82339
195.5265, 81.14408
196.0086, 81.80199
196.4907, 82.71485
196.9728, 83.86807
197.4550, 85.38518
197.9371, 87.28905
198.4192, 89.57536
198.9013, 92.42327
199.3834, 95.83607
199.8655, 99.80782
200.3477, 104.4649
200.8298, 109.8653
201.3119, 115.6673
201.7940, 121.6534
202.2761, 127.7840
202.7582, 134.5993
203.2404, 142.3138
203.7225, 150.6187
204.2046, 158.9444
204.6867, 167.5909
205.1688, 175.2766
205.6509, 181.0992
206.1331, 184.9829
206.6152, 187.7809
207.0973, 189.5804
207.5794, 190.3386
208.0615, 189.7968
208.5436, 187.7316
209.0258, 184.9471
209.5079, 182.1390
209.9900, 179.6362
210.4721, 175.5897
210.9542, 169.5789
211.4363, 162.0176
211.9185, 154.1916
212.4006, 145.9651
212.8827, 137.6953
213.3648, 129.6911
213.8469, 121.7591
214.3290, 114.4360
214.8112, 107.6634
215.2933, 101.5707
215.7754, 96.45537
216.2575, 92.51243
216.7396, 89.16270
217.2217, 86.16267
217.7038, 83.63587
218.1860, 81.09807
218.6681, 78.50550
219.1502, 75.89671
219.6323, 73.47813
220.1144, 71.40625
220.5965, 69.29393
221.0787, 66.86903
221.5608, 63.87270
222.0429, 61.29717
222.5250, 59.30675
223.0071, 57.77237
223.4892, 56.26937
223.9714, 54.63398
224.4535, 53.26626
224.9356, 52.40907
225.4177, 52.28529
225.8998, 52.13192
226.3819, 51.80154
226.8641, 51.42796
227.3462, 51.53886
227.8283, 52.43849
228.3104, 53.35627
228.7925, 53.85744
229.2746, 53.69228
229.7568, 53.68420
230.2389, 53.87564
230.7210, 54.23940
231.2031, 54.67926
231.6852, 55.16258
232.1673, 55.76754
232.6495, 56.50927
233.1316, 57.30812
233.6137, 58.44044
234.0958, 60.03434
234.5779, 61.92783
235.0600, 63.62074
235.5422, 64.95120
236.0243, 66.34437
236.5064, 67.97256
236.9885, 69.79560
237.4706, 71.95274
237.9527, 74.50146
238.4349, 77.34304
238.9170, 80.19202
239.3991, 82.92709
239.8812, 85.85041
240.3633, 89.10563
240.8454, 92.78639
241.3276, 96.57254
241.8097, 100.4838
242.2918, 104.4432
242.7739, 108.3413
243.2560, 112.6556
243.7381, 116.1741
244.2203, 118.4343
244.7024, 119.2910
245.1845, 119.2867
245.6666, 118.3386
246.1487, 116.5708
246.6308, 114.0720
247.1130, 110.2467
247.5951, 106.6490
248.0772, 103.8527
248.5593, 101.9630
249.0414, 100.4088
249.5235, 99.09313
250.0057, 98.17578
250.4878, 97.90586
250.9699, 98.35603
251.4520, 99.33676
251.9341, 100.8757
252.4162, 103.1178
252.8984, 105.2665
253.3805, 107.4564
253.8626, 109.4621
254.3447, 111.0463
254.8268, 112.7078
255.3089, 112.9762
255.7911, 111.1840
256.2732, 107.0743
256.7553, 102.9745
257.2374, 98.62662
257.7195, 94.53094
258.2017, 91.29945
258.6838, 89.03974
259.1659, 87.33286
259.6480, 86.05192
260.1301, 85.20049
260.6122, 84.99791
261.0944, 85.73203
261.5765, 86.76131
262.0586, 87.30982
262.5407, 87.02583
263.0228, 87.24187
263.5049, 88.33691
263.9871, 90.28577
264.4692, 92.19363
264.9513, 94.09300
265.4334, 95.92728
265.9155, 97.70836
266.3976, 99.45273
266.8798, 100.9257
267.3619, 101.8125
267.8440, 102.3018
268.3261, 103.8936
268.8082, 106.7515
269.2903, 110.3501
269.7725, 114.3627
270.2546, 118.8197
270.7367, 123.3093
271.2188, 127.7423
271.7009, 132.1223
272.1830, 136.5881
272.6652, 141.1336
273.1473, 145.6895
273.6294, 150.5491
274.1115, 155.9657
274.5936, 160.0344
275.0757, 162.5826
275.5579, 163.7030
276.0400, 163.6250
276.5221, 162.3929
277.0042, 159.7799
277.4863, 155.1929
277.9684, 148.4516
278.4506, 142.2299
278.9327, 136.7508
279.4148, 131.8261
279.8969, 127.0379
280.3790, 122.3548
280.8611, 118.0371
281.3433, 114.1076
281.8254, 110.5574
282.3075, 107.8902
282.7896, 106.1718
283.2717, 105.1748
283.7538, 104.5964
284.2360, 104.4390
284.7181, 104.6385
285.2002, 105.2711
285.6823, 106.2915
286.1644, 107.2599
286.6465, 108.1266
287.1287, 109.0845
287.6108, 110.4921
288.0929, 112.3183
288.5750, 113.9981
289.0571, 115.2433
289.5392, 116.1768
290.0214, 117.1482
290.5035, 118.1154
290.9856, 119.4094
291.4677, 121.5070
291.9498, 124.3164
292.4319, 127.1657
292.9141, 129.7390
293.3962, 132.3064
293.8783, 135.5255
294.3604, 139.3895
294.8425, 143.6343
295.3246, 148.3369
295.8068, 153.3358
296.2889, 157.9524
296.7710, 161.9307
297.2531, 165.6444
297.7352, 169.7362
298.2173, 174.1376
298.6995, 178.4344
299.1816, 181.9700
299.6637, 185.1875
300.1458, 188.8894
300.6279, 193.2091
301.1100, 198.1523
301.5922, 203.6440
302.0743, 209.7080
302.5564, 216.4175
303.0385, 224.8961
303.5206, 233.7227
304.0027, 241.2688
304.4849, 247.4136
304.9670, 251.5862
305.4491, 253.5767
305.9312, 253.1446
306.4133, 249.7117
306.8954, 242.6174
307.3776, 232.5943
307.8597, 219.7747
308.3418, 203.8549
308.8239, 187.6971
309.3060, 172.4682
309.7881, 158.3933
310.2703, 146.3089
310.7524, 137.0053
311.2345, 129.2686
311.7166, 122.4513
312.1987, 116.5328
312.6808, 111.5561
313.1630, 107.5800
313.6451, 104.4955
314.1272, 102.1559
314.6093, 100.8108
315.0914, 99.94500
315.5735, 99.34776
316.0557, 99.03500
316.5378, 99.09547
317.0199, 99.85010
317.5020, 100.8244
317.9841, 101.6795
318.4662, 102.2172
318.9484, 102.7857
319.4305, 103.7841
319.9126, 104.9298
320.3947, 105.4796
320.8768, 104.9136
321.3589, 103.9297
321.8411, 102.8573
322.3232, 101.7760
322.8053, 100.5414
323.2874, 98.85481
323.7695, 97.04710
324.2516, 95.64240
324.7338, 94.84171
325.2159, 94.34302
325.6980, 94.08407
326.1801, 94.08553
326.6622, 94.21215
327.1443, 94.70895
327.6265, 95.21772
328.1086, 95.37974
328.5907, 95.31773
329.0728, 94.76246
329.5549, 93.49915
330.0370, 91.51328
330.5192, 89.70974
331.0013, 87.91245
331.4834, 86.43175
331.9655, 85.47659
332.4476, 85.22046
332.9297, 85.18868
333.4119, 85.30087
333.8940, 85.60091
334.3761, 86.30933
334.8582, 87.49342
335.3403, 88.94674
335.8224, 90.53431
336.3046, 92.16270
336.7867, 94.25115
337.2688, 96.96060
337.7509, 100.0276
338.2330, 102.9456
338.7151, 105.5811
339.1973, 108.4258
339.6794, 111.7743
340.1615, 115.6263
340.6436, 119.3333
341.1257, 122.7826
341.6078, 126.2538
342.0899, 130.3026
342.5721, 134.9388
343.0542, 139.1015
343.5363, 142.2816
344.0184, 144.7139
344.5005, 147.5491
344.9826, 150.8197
345.4648, 154.0917
345.9469, 156.8383
346.4290, 159.1659
346.9111, 161.5526
347.3932, 163.9787
347.8753, 166.6876
348.3575, 170.2984
348.8396, 174.7211
349.3217, 179.1715
349.8038, 183.4792
350.2859, 187.3638
350.7680, 190.3660
351.2502, 192.6205
351.7323, 193.2447
352.2144, 191.3763
352.6965, 187.0674
353.1786, 180.5201
353.6607, 170.6430
354.1429, 159.1452
354.6250, 147.8324
355.1071, 136.7728
355.5892, 126.3704
356.0713, 116.7645
356.5534, 108.0531
357.0356, 100.3800
357.5177, 93.81908
357.9998, 88.26257
358.4819, 84.07774
358.9640, 81.08169
359.4461, 78.37829
359.9283, 75.40624
360.4104, 72.57285
360.8925, 70.24288
361.3746, 68.67992
361.8567, 67.31105
362.3388, 65.73991
362.8210, 64.19373
363.3031, 63.15016
363.7852, 63.29114
364.2673, 63.54298
364.7494, 63.33529
365.2315, 62.41706
365.7137, 61.74482
366.1958, 61.55862
366.6779, 61.70270
367.1600, 61.99250
367.6421, 62.55367
368.1242, 63.10785
368.6064, 63.48574
369.0885, 63.66547
369.5706, 64.27435
370.0527, 65.68544
370.5348, 67.24023
371.0169, 68.53306
371.4991, 69.45089
371.9812, 70.26543
372.4633, 70.89314
372.9454, 71.43684
373.4275, 72.27647
373.9096, 73.61684
374.3918, 74.91531
374.8739, 75.90136
375.3560, 76.54237
375.8381, 77.00795
376.3202, 77.11655
376.8023, 77.27674
377.2845, 78.15466
377.7666, 79.82394
378.2487, 81.77481
378.7308, 83.80846
379.2129, 85.96876
379.6950, 88.40366
380.1772, 91.16309
380.6593, 94.04151
381.1414, 96.75639
381.6235, 99.34946
382.1056, 102.4346
382.5877, 106.0854
383.0699, 110.3279
383.5520, 115.4282
384.0341, 121.3527
384.5162, 127.2790
384.9983, 132.6657
385.4804, 137.7355
385.9626, 143.2276
386.4447, 149.3756
386.9268, 155.0781
387.4089, 159.2299
387.8910, 162.0976
388.3731, 164.1816
388.8553, 166.0342
389.3374, 167.0134
389.8195, 166.1855
390.3016, 163.6383
390.7837, 160.6312
391.2658, 157.7912
391.7480, 154.9870
392.2301, 152.0853
392.7122, 149.0681
393.1943, 145.9313
393.6764, 142.7627
394.1585, 139.4922
394.6407, 135.9850
395.1228, 131.6555
395.6049, 127.4855
396.0870, 123.8880
396.5691, 120.9435
397.0512, 118.5589
397.5334, 117.0440
398.0155, 115.9668
398.4976, 114.8055
398.9797, 113.5170
399.4618, 112.1160
399.9439, 110.5580
400.4261, 108.8436
400.9082, 107.1794
401.3903, 105.4759
401.8724, 103.9043
402.3545, 102.5251
402.8366, 101.1521
403.3188, 100.4328
403.8009, 100.5790
404.2830, 101.3233
404.7651, 101.9596
405.2472, 102.3563
405.7293, 102.9993
406.2115, 104.0839
406.6936, 105.6038
407.1757, 107.4297
407.6578, 109.5543
408.1399, 112.0235
408.6220, 114.8810
409.1042, 118.1292
409.5863, 121.8779
410.0684, 126.1483
410.5505, 131.1620
411.0326, 136.5155
411.5147, 142.8961
411.9969, 149.7511
412.4790, 157.1568
412.9611, 164.9326
413.4432, 172.6539
413.9253, 180.4699
414.4074, 187.7404
414.8896, 194.4124
415.3717, 200.0819
415.8538, 203.7147
416.3359, 204.4487
416.8180, 203.1228
417.3001, 200.2416
417.7823, 195.8048
418.2644, 190.4095
418.7465, 183.1241
419.2286, 175.5218
419.7107, 169.2117
420.1928, 164.8687
420.6750, 161.4104
421.1571, 158.6038
421.6392, 156.3606
422.1213, 154.5318
422.6034, 153.5785
423.0855, 152.6050
423.5677, 151.1584
424.0498, 149.0097
424.5319, 147.1348
425.0140, 145.7268
425.4961, 144.5599
425.9782, 143.4180
426.4604, 142.4854
426.9425, 141.3176
427.4246, 139.8785
427.9067, 138.1546
428.3888, 136.1179
428.8709, 133.6866
429.3531, 131.0983
429.8352, 128.4042
430.3173, 125.5983
430.7994, 122.9063
431.2815, 120.3556
431.7636, 117.8876
432.2458, 115.4488
432.7279, 113.0352
433.2100, 110.6877
433.6921, 108.3548
434.1742, 106.0989
434.6563, 104.1559
435.1385, 102.4953
435.6206, 101.2419
436.1027, 100.3905
436.5848, 100.0200
437.0669, 100.4365
437.5490, 101.8650
438.0312, 103.6815
438.5133, 105.0079
438.9954, 106.1310
439.4775, 107.8466
439.9596, 110.9189
440.4417, 114.5432
440.9239, 118.1768
441.4060, 121.7892
441.8881, 125.0330
442.3702, 128.0164
442.8523, 130.3577
443.3344, 131.7209
443.8166, 132.2683
444.2987, 131.5236
444.7808, 128.9921
445.2629, 125.0088
445.7450, 120.5207
446.2271, 115.3368
446.7093, 110.1178
447.1914, 105.0583
447.6735, 100.0607
448.1556, 95.54140
448.6377, 91.38609
449.1198, 87.82623
449.6020, 85.16740
450.0841, 83.85619
450.5662, 82.59736
451.0483, 81.06876
451.5304, 79.44980
452.0125, 78.64888
452.4947, 78.84921
452.9768, 79.28115
453.4589, 79.55102
453.9410, 79.65635
454.4231, 79.83852
454.9052, 80.21148
455.3874, 80.31461
455.8695, 79.32839
456.3516, 77.39915
456.8337, 75.64677
457.3158, 74.44254
457.7979, 73.59512
458.2801, 72.83181
458.7622, 72.14101
459.2443, 71.40868
459.7264, 70.38208
460.2085, 69.34296
460.6906, 68.67964
461.1728, 68.46912
461.6549, 68.53649
462.1370, 68.84144
462.6191, 69.32990
463.1012, 69.91777
463.5833, 70.75455
464.0655, 71.51607
464.5476, 71.75497
465.0297, 71.60242
465.5118, 72.18616
465.9939, 74.37679
466.4760, 76.95980
466.9582, 79.29198
467.4403, 81.40070
467.9224, 83.14776
468.4045, 84.43746
468.8866, 85.40537
469.3687, 86.25370
469.8509, 86.96423
470.3330, 87.55259
470.8151, 87.95323
471.2972, 88.20277
471.7793, 88.69651
472.2614, 89.49224
472.7436, 90.39102
473.2257, 91.21857
473.7078, 91.97463
474.1899, 92.91089
474.6720, 94.00828
475.1541, 95.40461
475.6363, 97.27007
476.1184, 99.60437
476.6005, 102.4296
477.0826, 106.0570
477.5647, 109.9943
478.0468, 113.3791
478.5290, 116.2796
479.0111, 119.3160
479.4932, 123.0021
479.9753, 127.0367
480.4574, 131.2317
480.9395, 135.7962
481.4217, 139.7281
481.9038, 142.5428
482.3859, 144.2493
482.8680, 144.8026
483.3501, 143.8695
483.8322, 142.0890
484.3144, 139.9478
484.7965, 137.3792
485.2786, 133.1550
485.7607, 125.7587
486.2428, 117.7472
486.7249, 110.3327
487.2071, 103.7142
487.6892, 97.40797
488.1713, 91.14487
488.6534, 85.39321
489.1355, 80.82877
489.6176, 77.72976
490.0998, 74.93342
490.5819, 72.02269
491.0640, 69.15092
491.5461, 67.31064
492.0282, 66.60346
492.5103, 66.09492
492.9925, 64.95662
493.4746, 63.39526
493.9567, 62.66979
494.4388, 62.95790
494.9209, 63.54198
495.4030, 63.54553
495.8852, 63.19659
496.3673, 63.07112
496.8494, 63.42083
497.3315, 64.04955
497.8136, 64.84190
498.2957, 65.77623
498.7779, 66.73293
499.2600, 67.65873
499.7421, 68.59017
500.2242, 69.61327
500.7063, 70.82610
501.1884, 71.77512
501.6706, 71.94836
502.1527, 71.95448
502.6348, 72.40575
503.1169, 74.01057
503.5990, 75.31129
504.0811, 76.06687
504.5633, 76.39152
505.0454, 76.71069
505.5275, 77.02947
506.0096, 77.32446
506.4917, 77.57614
506.9738, 77.78084
507.4560, 78.03043
507.9381, 78.35819
508.4202, 78.64042
508.9023, 78.75552
509.3844, 78.70653
509.8665, 78.52759
510.3487, 78.18808
510.8308, 77.79026
511.3129, 77.56892
511.7950, 77.46792
512.2772, 77.22358
512.7593, 76.75308
513.2414, 76.03369
513.7235, 75.01280
514.2056, 73.69347
514.6877, 72.15627
515.1699, 70.17867
515.6520, 68.14823
516.1341, 66.44743
516.6162, 65.31922
517.0983, 64.20448
517.5804, 62.76493
518.0626, 61.24159
518.5447, 60.03007
519.0268, 59.30145
519.5089, 58.78073
519.9910, 58.50602
520.4731, 58.45017
520.9553, 58.17995
521.4374, 57.51601
521.9195, 56.91051
522.4016, 56.68090
522.8837, 56.95198
523.3658, 56.88309
523.8480, 56.31963
524.3301, 55.73152
524.8122, 55.85152
525.2943, 56.63245
525.7764, 57.31647
526.2585, 57.65294
526.7407, 57.83196
527.2228, 58.23816
527.7049, 58.83204
528.1870, 59.36851
528.6691, 59.60160
529.1512, 59.75283
529.6334, 60.07405
530.1155, 60.58723
530.5976, 61.20448
531.0797, 62.09528
531.5618, 62.96567
532.0439, 63.50092
532.5261, 63.35683
533.0082, 63.26259
533.4903, 63.37491
533.9724, 63.66395
534.4545, 64.07355
534.9366, 64.83900
535.4188, 65.44213
535.9009, 65.68391
536.3830, 65.57755
536.8651, 65.72214
537.3472, 66.26231
537.8293, 66.77086
538.3115, 66.91726
538.7936, 66.66950
539.2757, 66.49657
539.7578, 66.39171
540.2399, 66.45074
540.7220, 66.92059
541.2042, 67.71816
541.6863, 68.40271
542.1684, 68.84303
542.6505, 69.10466
543.1326, 69.13985
543.6147, 69.03683
544.0969, 69.14014
544.5790, 69.79111
545.0611, 70.63618
545.5432, 71.45336
546.0253, 72.22764
546.5074, 72.79865
546.9896, 72.98808
547.4717, 73.00082
547.9538, 73.00256
548.4359, 73.07851
548.9180, 73.06210
549.4001, 72.71040
549.8823, 72.32816
550.3644, 72.46608
550.8465, 73.40545
551.3286, 74.32883
551.8107, 74.95037
552.2928, 75.36568
552.7750, 76.25813
553.2571, 77.66934
553.7392, 79.36500
554.2213, 81.33170
554.7034, 83.48650
555.1855, 85.40060
555.6677, 87.02308
556.1498, 88.63599
556.6319, 90.59462
557.1140, 92.74316
557.5961, 94.73211
558.0782, 96.38647
558.5604, 97.98363
559.0425, 100.0310
559.5246, 102.1809
560.0067, 103.6400
560.4888, 103.6807
560.9709, 103.3084
561.4531, 102.8256
561.9352, 102.2541
562.4173, 101.9140
562.8994, 101.8496
563.3815, 102.0325
563.8636, 102.4448
564.3458, 103.0583
564.8279, 103.9840
565.3100, 105.2747
565.7921, 106.8239
566.2742, 108.4883
566.7563, 110.2754
567.2385, 112.1994
567.7206, 114.2808
568.2027, 116.4660
568.6848, 118.6637
569.1669, 120.8616
569.6490, 122.7388
570.1312, 123.9156
570.6133, 124.7898
571.0954, 126.0994
571.5775, 127.8175
572.0596, 129.0726
572.5417, 129.1453
573.0239, 128.6234
573.5060, 127.9268
573.9881, 126.9457
574.4702, 126.2930
574.9523, 126.4341
575.4344, 126.8954
575.9166, 127.0764
576.3987, 126.7321
576.8808, 126.3687
577.3629, 125.9563
577.8450, 125.5699
578.3271, 125.3910
578.8093, 125.3144
579.2914, 125.7595
579.7735, 127.0286
580.2556, 129.0008
580.7377, 130.8830
581.2198, 132.6472
581.7020, 134.5174
582.1841, 136.5928
582.6662, 138.9103
583.1483, 141.7370
583.6304, 145.1645
584.1125, 148.5460
584.5947, 151.3983
585.0768, 153.8069
585.5589, 155.9043
586.0410, 158.0831
586.5231, 159.5788
587.0052, 160.0456
587.4873, 159.5756
587.9694, 158.4130
