##NAMES=Axinite-(Fe)
##RRUFFID=R050026
##IDEAL CHEMISTRY=Ca_4_Fe^2+^_2_Al_4_[B_2_Si_8_O_30_](OH)_2_
##LOCALITY=Pouyva mine, Polar Urals, Western Siberian Region, Russia
##OWNER=RRUFF
##SOURCE=Rock Currier
##DESCRIPTION=Brown transparent flat crystal
##STATUS=The identification of this mineral has been confirmed by X-ray diffraction and chemical analysis
##URL=rruff.info/R050026
##MEASURED CHEMISTRY=Ca_2.00_(Fe^2+^_0.61_Mn_0.26_Mg_0.13_)Al_2.00_BSi_4_O_15_(OH)
147.7334, 6009.660
148.2155, 6081.833
148.6976, 6165.280
149.1797, 6272.604
149.6618, 6387.839
150.1439, 6488.950
150.6261, 6572.342
151.1082, 6643.668
151.5903, 6704.583
152.0724, 6758.872
152.5545, 6794.094
153.0366, 6799.347
153.5188, 6784.985
154.0009, 6771.427
154.4830, 6747.732
154.9651, 6735.555
155.4472, 6745.960
155.9293, 6800.713
156.4115, 6847.803
156.8936, 6873.851
157.3757, 6883.524
157.8578, 6893.563
158.3399, 6909.894
158.8221, 6927.465
159.3042, 6943.145
159.7863, 6955.494
160.2684, 6966.502
160.7505, 6969.364
161.2326, 6966.969
161.7148, 6981.701
162.1969, 7032.937
162.6790, 7102.254
163.1611, 7171.133
163.6432, 7237.457
164.1253, 7299.294
164.6075, 7351.689
165.0896, 7394.327
165.5717, 7442.586
166.0538, 7504.816
166.5359, 7578.220
167.0180, 7658.734
167.5002, 7739.831
167.9823, 7831.016
168.4644, 7946.063
168.9465, 8089.969
169.4286, 8229.970
169.9107, 8356.366
170.3929, 8461.268
170.8750, 8531.266
171.3571, 8543.913
171.8392, 8523.973
172.3213, 8496.794
172.8034, 8466.300
173.2856, 8426.945
173.7677, 8365.995
174.2498, 8289.271
174.7319, 8217.898
175.2140, 8167.690
175.6961, 8130.057
176.1783, 8092.716
176.6604, 8054.517
177.1425, 8014.852
177.6246, 7968.563
178.1067, 7917.920
178.5888, 7874.619
179.0710, 7855.062
179.5531, 7849.695
180.0352, 7836.597
180.5173, 7805.367
180.9994, 7769.464
181.4815, 7752.714
181.9637, 7754.558
182.4458, 7762.117
182.9279, 7764.466
183.4100, 7763.340
183.8921, 7764.771
184.3742, 7767.117
184.8564, 7774.599
185.3385, 7801.180
185.8206, 7848.448
186.3027, 7898.317
186.7848, 7928.287
187.2669, 7941.672
187.7491, 7964.593
188.2312, 8007.516
188.7133, 8066.861
189.1954, 8130.874
189.6775, 8198.979
190.1596, 8272.693
190.6418, 8356.357
191.1239, 8449.483
191.6060, 8545.658
192.0881, 8652.042
192.5702, 8764.469
193.0524, 8847.646
193.5345, 8901.688
194.0166, 8926.068
194.4987, 8907.137
194.9808, 8841.768
195.4629, 8780.064
195.9451, 8743.475
196.4272, 8731.297
196.9093, 8738.512
197.3914, 8769.188
197.8735, 8812.619
198.3556, 8844.926
198.8378, 8862.354
199.3199, 8891.447
199.8020, 8947.360
200.2841, 9030.615
200.7662, 9125.185
201.2483, 9229.939
201.7305, 9345.700
202.2126, 9480.265
202.6947, 9640.324
203.1768, 9794.210
203.6589, 9922.483
204.1410, 10021.57
204.6232, 10113.66
205.1053, 10204.77
205.5874, 10288.31
206.0695, 10338.80
206.5516, 10348.67
207.0337, 10345.35
207.5159, 10350.65
207.9980, 10370.73
208.4801, 10368.04
208.9622, 10330.93
209.4443, 10267.65
209.9264, 10220.91
210.4086, 10198.30
210.8907, 10176.78
211.3728, 10136.50
211.8549, 10069.52
212.3370, 10009.87
212.8191, 9963.509
213.3013, 9929.197
213.7834, 9892.711
214.2655, 9851.947
214.7476, 9812.237
215.2297, 9776.615
215.7118, 9740.736
216.1940, 9721.137
216.6761, 9726.313
217.1582, 9754.663
217.6403, 9771.413
218.1224, 9778.897
218.6045, 9771.508
219.0867, 9743.580
219.5688, 9694.309
220.0509, 9625.624
220.5330, 9533.250
221.0151, 9415.214
221.4972, 9310.541
221.9794, 9219.035
222.4615, 9140.055
222.9436, 9071.759
223.4257, 9013.802
223.9078, 8966.929
224.3899, 8933.090
224.8721, 8912.516
225.3542, 8896.264
225.8363, 8885.545
226.3184, 8877.859
226.8005, 8870.242
227.2827, 8862.869
227.7648, 8855.257
228.2469, 8846.757
228.7290, 8836.917
229.2111, 8829.446
229.6932, 8822.446
230.1754, 8819.431
230.6575, 8825.280
231.1396, 8842.116
231.6217, 8864.245
232.1038, 8891.686
232.5859, 8926.266
233.0681, 8955.844
233.5502, 8977.031
234.0323, 8995.540
234.5144, 9020.921
234.9965, 9059.320
235.4786, 9093.695
235.9608, 9116.248
236.4429, 9121.223
236.9250, 9139.817
237.4071, 9174.586
237.8892, 9221.346
238.3713, 9275.401
238.8535, 9345.060
239.3356, 9407.998
239.8177, 9455.209
240.2998, 9481.238
240.7819, 9513.569
241.2640, 9558.467
241.7462, 9606.538
242.2283, 9641.061
242.7104, 9654.625
243.1925, 9666.887
243.6746, 9685.620
244.1567, 9715.680
244.6389, 9735.388
245.1210, 9741.483
245.6031, 9739.196
246.0852, 9737.814
246.5673, 9739.629
247.0494, 9738.204
247.5316, 9727.124
248.0137, 9695.608
248.4958, 9692.039
248.9779, 9724.110
249.4600, 9779.941
249.9421, 9839.816
250.4243, 9913.734
250.9064, 9974.286
251.3885, 10004.09
251.8706, 9982.451
252.3527, 10003.00
252.8348, 10084.18
253.3170, 10195.84
253.7991, 10281.36
254.2812, 10333.99
254.7633, 10371.80
255.2454, 10401.54
255.7275, 10424.58
256.2097, 10432.74
256.6918, 10422.13
257.1739, 10399.25
257.6560, 10374.42
258.1381, 10344.57
258.6202, 10319.00
259.1024, 10301.27
259.5845, 10292.81
260.0666, 10286.45
260.5487, 10279.96
261.0308, 10277.30
261.5129, 10285.02
261.9951, 10302.56
262.4772, 10331.74
262.9593, 10374.33
263.4414, 10432.93
263.9235, 10495.69
264.4056, 10567.56
264.8878, 10639.69
265.3699, 10694.60
265.8520, 10724.13
266.3341, 10761.05
266.8162, 10821.65
267.2983, 10910.21
267.7805, 10992.02
268.2626, 11066.25
268.7447, 11133.83
269.2268, 11196.37
269.7089, 11254.07
270.1910, 11305.74
270.6732, 11348.48
271.1553, 11380.24
271.6374, 11422.21
272.1195, 11476.88
272.6016, 11538.25
273.0837, 11599.92
273.5659, 11666.08
274.0480, 11713.11
274.5301, 11733.12
275.0122, 11725.77
275.4943, 11687.81
275.9764, 11608.51
276.4586, 11518.76
276.9407, 11471.34
277.4228, 11472.77
277.9049, 11465.18
278.3870, 11425.63
278.8691, 11355.17
279.3513, 11275.83
279.8334, 11185.75
280.3155, 11091.55
280.7976, 10993.32
281.2798, 10890.58
281.7619, 10814.84
282.2440, 10787.62
282.7261, 10802.03
283.2082, 10805.08
283.6903, 10794.66
284.1725, 10780.71
284.6546, 10774.11
285.1367, 10774.84
285.6188, 10781.36
286.1009, 10794.64
286.5830, 10813.42
287.0652, 10832.37
287.5473, 10851.15
288.0294, 10870.89
288.5115, 10898.86
288.9936, 10932.57
289.4757, 10949.69
289.9579, 10929.11
290.4400, 10890.04
290.9221, 10890.43
291.4042, 10932.69
291.8863, 10984.09
292.3684, 11008.09
292.8506, 11011.62
293.3327, 11025.96
293.8148, 11069.71
294.2969, 11125.41
294.7790, 11155.50
295.2611, 11160.02
295.7433, 11164.12
296.2254, 11195.58
296.7075, 11245.04
297.1896, 11283.10
297.6717, 11288.52
298.1538, 11290.22
298.6360, 11337.34
299.1181, 11427.19
299.6002, 11522.82
300.0823, 11601.15
300.5644, 11665.42
301.0465, 11719.76
301.5287, 11752.70
302.0108, 11791.86
302.4929, 11871.54
302.9750, 11987.80
303.4571, 12113.44
303.9392, 12243.35
304.4214, 12368.47
304.9035, 12482.39
305.3856, 12591.32
305.8677, 12671.72
306.3498, 12688.44
306.8319, 12653.84
307.3141, 12611.48
307.7962, 12593.22
308.2783, 12577.15
308.7604, 12538.09
309.2425, 12461.49
309.7246, 12384.01
310.2068, 12326.16
310.6889, 12285.20
311.1710, 12253.15
311.6531, 12214.75
312.1352, 12190.66
312.6173, 12199.37
313.0995, 12250.77
313.5816, 12314.14
314.0637, 12379.51
314.5458, 12446.91
315.0279, 12516.81
315.5100, 12583.28
315.9922, 12656.94
316.4743, 12747.95
316.9564, 12863.95
317.4385, 12970.34
317.9206, 13065.01
318.4027, 13141.13
318.8849, 13189.21
319.3670, 13202.84
319.8491, 13191.35
320.3312, 13157.23
320.8133, 13100.06
321.2954, 13022.87
321.7776, 12911.93
322.2597, 12786.38
322.7418, 12666.61
323.2239, 12533.25
323.7060, 12428.18
324.1881, 12377.37
324.6703, 12388.07
325.1524, 12366.17
325.6345, 12259.83
326.1166, 12142.79
326.5987, 12073.72
327.0808, 12097.83
327.5630, 12116.98
328.0451, 12114.84
328.5272, 12093.02
329.0093, 12087.47
329.4914, 12113.54
329.9735, 12142.06
330.4557, 12152.44
330.9378, 12124.75
331.4199, 12113.50
331.9020, 12123.00
332.3841, 12152.13
332.8662, 12195.97
333.3484, 12255.28
333.8305, 12327.49
334.3126, 12413.63
334.7947, 12516.83
335.2768, 12621.69
335.7589, 12727.86
336.2411, 12834.85
336.7232, 12946.97
337.2053, 13068.00
337.6874, 13180.70
338.1695, 13270.76
338.6516, 13331.92
339.1338, 13423.41
339.6159, 13555.97
340.0980, 13702.33
340.5801, 13814.59
341.0622, 13892.18
341.5443, 13952.44
342.0265, 14006.68
342.5086, 14052.53
342.9907, 14074.94
343.4728, 14075.98
343.9549, 14044.65
344.4370, 13954.11
344.9192, 13810.42
345.4013, 13665.58
345.8834, 13543.07
346.3655, 13432.74
346.8476, 13306.49
347.3297, 13163.88
347.8119, 13031.36
348.2940, 12931.00
348.7761, 12861.21
349.2582, 12821.33
349.7403, 12823.44
350.2225, 12841.35
350.7046, 12844.57
351.1867, 12832.62
351.6688, 12801.39
352.1509, 12741.42
352.6331, 12662.00
353.1152, 12577.44
353.5973, 12493.03
354.0794, 12400.30
354.5615, 12284.95
355.0436, 12153.63
355.5258, 12026.48
356.0079, 11914.13
356.4900, 11811.07
356.9721, 11708.67
357.4542, 11599.29
357.9363, 11512.03
358.4185, 11483.27
358.9006, 11485.60
359.3827, 11471.59
359.8648, 11399.22
360.3469, 11324.42
360.8290, 11274.17
361.3112, 11251.60
361.7933, 11247.56
362.2754, 11281.74
362.7575, 11324.30
363.2396, 11342.85
363.7217, 11296.12
364.2039, 11258.41
364.6860, 11254.08
365.1681, 11283.94
365.6502, 11308.14
366.1323, 11311.78
366.6144, 11314.72
367.0966, 11330.97
367.5787, 11392.54
368.0608, 11427.90
368.5429, 11414.47
369.0250, 11365.51
369.5071, 11348.79
369.9893, 11372.93
370.4714, 11418.97
370.9535, 11484.93
371.4356, 11600.92
371.9177, 11663.00
372.3998, 11646.00
372.8820, 11586.52
373.3641, 11567.37
373.8462, 11600.99
374.3283, 11642.72
374.8104, 11675.55
375.2925, 11698.99
375.7747, 11722.59
376.2568, 11746.57
376.7389, 11770.71
377.2210, 11792.32
377.7031, 11810.68
378.1852, 11836.92
378.6674, 11877.13
379.1495, 11927.80
379.6316, 11973.16
380.1137, 12011.51
380.5958, 12056.43
381.0779, 12121.75
381.5601, 12205.51
382.0422, 12292.67
382.5243, 12381.48
383.0064, 12472.51
383.4885, 12573.54
383.9706, 12682.64
384.4528, 12778.76
384.9349, 12830.82
385.4170, 12865.53
385.8991, 12934.78
386.3812, 13057.62
386.8633, 13180.58
387.3455, 13248.51
387.8276, 13278.09
388.3097, 13308.60
388.7918, 13379.10
389.2739, 13445.52
389.7560, 13469.09
390.2382, 13444.46
390.7203, 13405.93
391.2024, 13375.20
391.6845, 13339.89
392.1666, 13285.17
392.6487, 13194.07
393.1309, 13094.01
393.6130, 12993.20
394.0951, 12891.87
394.5772, 12794.18
395.0593, 12690.72
395.5414, 12597.67
396.0236, 12526.22
396.5057, 12490.97
396.9878, 12461.64
397.4699, 12440.80
397.9520, 12424.84
398.4341, 12402.69
398.9163, 12371.03
399.3984, 12336.44
399.8805, 12297.41
400.3626, 12242.45
400.8447, 12218.90
401.3268, 12240.82
401.8090, 12283.81
402.2911, 12314.82
402.7732, 12331.23
403.2553, 12340.93
403.7374, 12341.03
404.2195, 12333.02
404.7017, 12344.98
405.1838, 12379.46
405.6659, 12427.59
406.1480, 12489.05
406.6301, 12564.63
407.1122, 12617.92
407.5944, 12632.65
408.0765, 12631.58
408.5586, 12663.62
409.0407, 12728.68
409.5228, 12822.89
410.0049, 12963.26
410.4871, 13130.23
410.9692, 13265.92
411.4513, 13359.02
411.9334, 13444.28
412.4155, 13556.05
412.8976, 13693.64
413.3798, 13849.46
413.8619, 14021.83
414.3440, 14212.16
414.8261, 14442.21
415.3082, 14712.47
415.7903, 14952.78
416.2725, 15126.44
416.7546, 15243.53
417.2367, 15318.46
417.7188, 15354.33
418.2009, 15347.73
418.6830, 15281.50
419.1652, 15166.67
419.6473, 15046.14
420.1294, 14919.88
420.6115, 14801.41
421.0937, 14693.84
421.5758, 14591.17
422.0579, 14518.42
422.5400, 14499.78
423.0221, 14508.46
423.5042, 14499.76
423.9864, 14439.45
424.4685, 14399.03
424.9506, 14406.36
425.4327, 14468.09
425.9148, 14490.27
426.3969, 14466.73
426.8791, 14410.80
427.3612, 14325.85
427.8433, 14194.14
428.3254, 14093.13
428.8075, 14047.82
429.2896, 14035.33
429.7718, 13974.54
430.2539, 13857.88
430.7360, 13733.54
431.2181, 13630.91
431.7002, 13548.46
432.1823, 13462.81
432.6645, 13371.14
433.1466, 13281.41
433.6287, 13198.96
434.1108, 13126.36
434.5929, 13077.75
435.0750, 13078.34
435.5572, 13098.81
436.0393, 13078.13
436.5214, 13018.66
437.0035, 12970.88
437.4856, 12989.00
437.9677, 13039.32
438.4499, 13073.17
438.9320, 13066.71
439.4141, 13060.53
439.8962, 13076.68
440.3783, 13114.93
440.8604, 13175.09
441.3426, 13295.57
441.8247, 13408.08
442.3068, 13466.27
442.7889, 13452.48
443.2710, 13445.57
443.7531, 13487.08
444.2353, 13538.10
444.7174, 13556.33
445.1995, 13525.77
445.6816, 13472.56
446.1637, 13388.36
446.6458, 13278.13
447.1280, 13187.41
447.6101, 13132.97
448.0922, 13079.25
448.5743, 13004.48
449.0564, 12891.90
449.5385, 12800.33
450.0207, 12731.33
450.5028, 12684.03
450.9849, 12661.23
451.4670, 12666.79
451.9491, 12678.46
452.4312, 12689.91
452.9134, 12700.78
453.3955, 12708.13
453.8776, 12711.59
454.3597, 12714.17
454.8418, 12719.33
455.3239, 12726.27
455.8061, 12730.88
456.2882, 12730.27
456.7703, 12730.12
457.2524, 12741.72
457.7345, 12762.00
458.2166, 12778.78
458.6988, 12778.95
459.1809, 12774.62
459.6630, 12779.86
460.1451, 12797.32
460.6272, 12815.72
461.1093, 12824.74
461.5915, 12831.45
462.0736, 12844.51
462.5557, 12882.47
463.0378, 12911.90
463.5199, 12907.44
464.0020, 12876.06
464.4842, 12870.41
464.9663, 12929.48
465.4484, 12996.38
465.9305, 13039.49
466.4126, 13028.50
466.8947, 13047.07
467.3769, 13119.03
467.8590, 13209.96
468.3411, 13260.61
468.8232, 13244.01
469.3053, 13241.36
469.7874, 13282.77
470.2696, 13364.26
470.7517, 13408.65
471.2338, 13408.28
471.7159, 13394.23
472.1980, 13386.50
472.6801, 13385.43
473.1623, 13406.38
473.6444, 13457.24
474.1265, 13519.89
474.6086, 13562.12
475.0907, 13586.77
475.5728, 13612.21
476.0550, 13640.39
476.5371, 13678.44
477.0192, 13741.42
477.5013, 13830.27
477.9834, 13924.87
478.4655, 14009.67
478.9477, 14091.24
479.4298, 14176.53
479.9119, 14263.78
480.3940, 14361.52
480.8761, 14481.87
481.3582, 14616.87
481.8404, 14742.19
482.3225, 14860.82
482.8046, 14958.86
483.2867, 15031.76
483.7688, 15079.63
484.2509, 15100.47
484.7331, 15100.74
485.2152, 15069.98
485.6973, 14995.44
486.1794, 14856.51
486.6615, 14707.45
487.1436, 14549.37
487.6258, 14385.94
488.1079, 14233.03
488.5900, 14090.69
489.0721, 13961.36
489.5542, 13843.23
490.0363, 13735.56
490.5185, 13662.73
491.0006, 13633.22
491.4827, 13614.42
491.9648, 13549.04
492.4470, 13450.14
492.9291, 13393.77
493.4112, 13429.33
493.8933, 13502.19
494.3754, 13526.75
494.8575, 13509.53
495.3397, 13490.16
495.8218, 13491.10
496.3039, 13505.23
496.7860, 13526.95
497.2681, 13558.39
497.7502, 13586.57
498.2324, 13599.84
498.7145, 13607.20
499.1966, 13621.09
499.6787, 13651.05
500.1608, 13682.03
500.6429, 13708.76
501.1251, 13731.56
501.6072, 13757.23
502.0893, 13794.81
502.5714, 13828.10
503.0535, 13847.34
503.5356, 13838.72
504.0178, 13850.37
504.4999, 13891.54
504.9820, 13944.51
505.4641, 13984.28
505.9462, 14010.02
506.4283, 14026.28
506.9105, 14033.15
507.3926, 14031.61
507.8747, 14022.49
508.3568, 14005.19
508.8389, 13991.24
509.3210, 13995.03
509.8032, 14008.62
510.2853, 14010.36
510.7674, 13997.21
511.2495, 13973.59
511.7316, 13931.50
512.2137, 13882.79
512.6959, 13852.12
513.1780, 13869.36
513.6601, 13891.34
514.1422, 13890.40
514.6243, 13868.52
515.1064, 13841.54
515.5886, 13809.96
516.0707, 13779.09
516.5528, 13753.27
517.0349, 13737.58
517.5170, 13716.89
517.9991, 13679.19
518.4813, 13640.00
518.9634, 13618.88
519.4455, 13618.03
519.9276, 13633.33
520.4097, 13676.35
520.8918, 13737.48
521.3740, 13752.49
521.8561, 13710.83
522.3382, 13658.07
522.8203, 13617.52
523.3024, 13589.82
523.7845, 13584.78
524.2667, 13607.36
524.7488, 13635.97
525.2309, 13640.17
525.7130, 13627.52
526.1951, 13624.39
526.6772, 13643.83
527.1594, 13673.52
527.6415, 13700.84
528.1236, 13726.09
528.6057, 13751.31
529.0878, 13790.99
529.5699, 13822.01
530.0521, 13819.31
530.5342, 13769.06
531.0163, 13733.99
531.4984, 13736.48
531.9805, 13763.02
532.4626, 13799.14
532.9448, 13869.52
533.4269, 13917.06
533.9090, 13926.57
534.3911, 13907.64
534.8732, 13896.15
535.3553, 13890.65
535.8375, 13895.50
536.3196, 13917.86
536.8017, 13959.75
537.2838, 13981.04
537.7659, 13979.26
538.2480, 13965.56
538.7302, 13947.01
539.2123, 13925.07
539.6944, 13911.10
540.1765, 13908.24
540.6586, 13913.13
541.1407, 13921.96
541.6229, 13934.68
542.1050, 13951.17
542.5871, 13976.88
543.0692, 14002.76
543.5513, 14018.54
544.0334, 14023.68
544.5156, 14030.66
544.9977, 14048.97
545.4798, 14069.40
545.9619, 14084.27
546.4440, 14087.11
546.9261, 14091.88
547.4083, 14098.93
547.8904, 14109.51
548.3725, 14126.47
548.8546, 14158.31
549.3367, 14182.59
549.8188, 14191.96
550.3010, 14187.82
550.7831, 14184.59
551.2652, 14180.12
551.7473, 14183.80
552.2294, 14207.10
552.7115, 14247.59
553.1937, 14278.10
553.6758, 14294.31
554.1579, 14309.59
554.6400, 14344.11
555.1221, 14391.66
555.6042, 14433.38
556.0864, 14457.04
556.5685, 14478.20
557.0506, 14510.27
557.5327, 14552.04
558.0148, 14598.65
558.4969, 14652.32
558.9791, 14706.86
559.4612, 14760.22
559.9433, 14813.89
560.4254, 14856.51
560.9075, 14877.22
561.3896, 14890.71
561.8718, 14910.63
562.3539, 14944.33
562.8360, 14971.41
563.3181, 14985.83
563.8002, 14994.64
564.2823, 15015.96
564.7645, 15051.83
565.2466, 15089.87
565.7287, 15120.38
566.2108, 15148.46
566.6929, 15206.48
567.1750, 15295.42
567.6572, 15381.72
568.1393, 15435.38
568.6214, 15465.30
569.1035, 15481.70
569.5856, 15480.39
570.0677, 15490.46
570.5499, 15554.74
571.0320, 15642.66
571.5141, 15706.28
571.9962, 15719.94
572.4783, 15714.10
572.9604, 15696.87
573.4426, 15669.18
573.9247, 15633.94
574.4068, 15585.03
574.8889, 15534.63
575.3710, 15483.37
575.8531, 15426.47
576.3353, 15400.35
576.8174, 15422.03
577.2995, 15449.64
577.7816, 15438.20
578.2637, 15382.95
578.7458, 15340.02
579.2280, 15318.41
579.7101, 15310.91
580.1922, 15309.35
580.6743, 15312.26
581.1564, 15311.30
581.6385, 15294.91
582.1207, 15276.56
582.6028, 15277.34
583.0849, 15294.93
583.5670, 15311.08
584.0491, 15301.26
584.5313, 15294.48
585.0134, 15317.98
585.4955, 15388.07
585.9776, 15447.75
586.4597, 15464.56
586.9418, 15470.97
587.4240, 15505.18
587.9061, 15605.71
588.3882, 15676.60
588.8703, 15708.11
589.3524, 15703.30
589.8345, 15661.93
590.3167, 15571.11
590.7988, 15493.35
591.2809, 15464.22
591.7630, 15472.31
592.2451, 15461.26
592.7272, 15430.65
593.2094, 15391.28
593.6915, 15349.82
594.1736, 15306.45
594.6557, 15258.69
595.1378, 15204.37
595.6199, 15157.38
596.1021, 15128.24
596.5842, 15113.27
597.0663, 15107.24
597.5485, 15118.16
598.0306, 15127.51
598.5127, 15129.77
598.9948, 15125.69
599.4769, 15118.67
599.9590, 15105.07
600.4412, 15093.13
600.9233, 15084.17
601.4054, 15077.67
601.8875, 15083.86
602.3696, 15107.88
602.8517, 15131.91
603.3339, 15134.22
603.8160, 15117.63
604.2981, 15122.13
604.7802, 15155.36
605.2623, 15198.90
605.7444, 15230.72
606.2266, 15253.82
606.7087, 15274.37
607.1908, 15287.17
607.6729, 15306.67
608.1550, 15354.64
608.6371, 15420.66
609.1193, 15472.55
609.6014, 15477.26
610.0835, 15481.70
610.5656, 15509.94
611.0477, 15567.03
611.5298, 15620.49
612.0120, 15673.05
612.4941, 15717.41
612.9762, 15746.40
613.4583, 15754.46
613.9404, 15767.80
614.4225, 15789.88
614.9047, 15813.02
615.3868, 15820.33
615.8689, 15814.15
616.3510, 15828.48
616.8331, 15889.57
617.3152, 15954.82
617.7974, 15950.13
618.2795, 15889.72
618.7616, 15829.01
619.2437, 15789.92
619.7258, 15768.75
620.2079, 15774.13
620.6901, 15805.60
621.1722, 15815.46
621.6543, 15768.33
622.1364, 15707.25
622.6185, 15660.31
623.1006, 15634.23
623.5828, 15610.33
624.0649, 15588.57
624.5470, 15569.03
625.0291, 15551.15
625.5112, 15534.19
625.9933, 15525.40
626.4755, 15532.67
626.9576, 15540.04
627.4397, 15502.12
627.9218, 15426.14
628.4039, 15367.36
628.8860, 15359.46
629.3682, 15381.05
629.8503, 15408.23
630.3324, 15440.32
630.8145, 15473.33
631.2966, 15518.99
631.7787, 15554.55
632.2609, 15556.36
632.7430, 15507.48
633.2251, 15480.44
633.7072, 15499.63
634.1893, 15540.44
634.6714, 15584.13
635.1536, 15635.39
635.6357, 15679.89
636.1178, 15717.67
636.5999, 15746.60
637.0820, 15756.83
637.5641, 15747.20
638.0463, 15748.28
638.5284, 15776.98
639.0105, 15816.40
639.4926, 15830.59
639.9747, 15823.37
640.4568, 15816.60
640.9390, 15826.43
641.4211, 15840.92
641.9032, 15849.17
642.3853, 15850.36
642.8674, 15849.92
