##NAMES=Axinite-(Fe)
##RRUFFID=R060558
##IDEAL CHEMISTRY=Ca_4_Fe^2+^_2_Al_4_[B_2_Si_8_O_30_](OH)_2_
##LOCALITY=unknown
##OWNER=RRUFF
##SOURCE=Gemological Institute of America
##DESCRIPTION=Brown flattened crystal
##STATUS=The identification of this mineral has been confirmed by X-ray diffraction and chemical analysis
##URL=rruff.info/R060558
##MEASURED CHEMISTRY=Ca_2.00_(Fe^2+^_0.60_Mg_0.35_Mn_0.05_)_Î£=1_Al_2.00_BSi_4.00_O_15_(OH) ; B not measured
130.682, 1687.529
131.164, 1719.716
131.646, 1758.948
132.128, 1802.706
132.610, 1851.164
133.093, 1906.693
133.575, 1967.784
134.057, 2038.146
134.539, 2127.913
135.021, 2237.603
135.503, 2363.456
135.985, 2501.852
136.467, 2654.063
136.949, 2817.508
137.432, 2990.422
137.914, 3173.967
138.396, 3379.285
138.878, 3616.165
139.360, 3849.895
139.842, 4043.740
140.324, 4193.509
140.806, 4313.302
141.288, 4407.523
141.771, 4477.932
142.253, 4513.469
142.735, 4508.075
143.217, 4472.079
143.699, 4422.237
144.181, 4354.326
144.663, 4278.320
145.145, 4191.776
145.628, 4072.862
146.110, 3992.458
146.592, 3968.180
147.074, 3984.015
147.556, 3981.177
148.038, 3913.556
148.520, 3867.947
149.002, 3888.878
149.484, 4027.384
149.967, 4168.792
150.449, 4324.749
150.931, 4493.536
151.413, 4605.397
151.895, 4639.327
152.377, 4628.426
152.859, 4595.521
153.342, 4527.917
153.824, 4453.391
154.306, 4370.766
154.788, 4276.864
155.270, 4203.135
155.752, 4160.376
156.234, 4137.324
156.716, 4120.574
157.198, 4102.822
157.680, 4095.232
158.163, 4106.657
158.645, 4147.466
159.127, 4176.983
159.609, 4165.484
160.091, 4136.165
160.573, 4131.680
161.055, 4167.519
161.538, 4230.752
162.020, 4317.437
162.502, 4441.111
162.984, 4562.908
163.466, 4646.763
163.948, 4710.193
164.430, 4811.566
164.912, 4991.786
165.394, 5213.452
165.876, 5445.006
166.359, 5667.108
166.841, 5907.224
167.323, 6184.695
167.805, 6497.150
168.287, 6826.460
168.769, 7228.934
169.251, 7620.299
169.733, 7902.493
170.216, 8032.691
170.698, 8044.560
171.180, 7941.542
171.662, 7721.095
172.144, 7457.789
172.626, 7186.632
173.108, 6911.939
173.590, 6636.234
174.072, 6365.686
174.555, 6093.493
175.037, 5805.725
175.519, 5499.568
176.001, 5187.090
176.483, 4791.007
176.965, 4375.864
177.447, 4151.328
177.929, 3980.651
178.412, 3809.939
178.894, 3639.264
179.376, 3468.595
179.858, 3297.920
180.340, 3127.246
180.822, 2956.573
181.304, 2796.995
181.786, 2671.383
182.268, 2577.009
182.751, 2511.975
183.233, 2484.566
183.715, 2476.004
184.197, 2450.796
184.679, 2409.621
185.161, 2380.008
185.643, 2390.374
186.125, 2433.017
186.607, 2475.164
187.090, 2501.756
187.572, 2525.892
188.054, 2577.303
188.536, 2655.616
189.018, 2760.138
189.500, 2885.608
189.982, 3031.861
190.464, 3215.285
190.947, 3439.705
191.429, 3705.196
191.911, 4021.535
192.393, 4401.725
192.875, 4774.886
193.357, 5087.281
193.839, 5334.534
194.321, 5467.190
194.803, 5445.269
195.286, 5277.937
195.768, 5055.377
196.250, 4756.306
196.732, 4454.130
197.214, 4254.340
197.696, 4162.868
198.178, 4127.839
198.661, 4132.989
199.143, 4178.558
199.625, 4243.483
200.107, 4324.400
200.589, 4429.518
201.071, 4586.159
201.553, 4805.396
202.035, 5026.545
202.517, 5215.859
202.999, 5369.417
203.482, 5530.719
203.964, 5701.783
204.446, 5882.696
204.928, 6076.267
205.410, 6285.661
205.892, 6497.781
206.374, 6705.933
206.857, 6913.830
207.339, 7100.828
207.821, 7263.024
208.303, 7402.683
208.785, 7528.741
209.267, 7640.042
209.749, 7741.293
210.231, 7840.659
210.713, 7946.133
211.195, 8020.465
211.678, 8055.035
212.160, 8053.146
212.642, 8040.030
213.124, 8017.578
213.606, 7981.308
214.088, 7929.055
214.570, 7862.440
215.052, 7773.481
215.535, 7656.764
216.017, 7512.212
216.499, 7365.061
216.981, 7220.153
217.463, 7064.051
217.945, 6877.529
218.427, 6651.659
218.909, 6425.485
219.391, 6209.140
219.874, 6001.731
220.356, 5801.196
220.838, 5617.814
221.320, 5432.323
221.802, 5219.041
222.284, 4959.051
222.766, 4713.886
223.248, 4503.212
223.731, 4328.543
224.213, 4167.943
224.695, 4023.213
225.177, 3890.161
225.659, 3759.441
226.141, 3629.078
226.623, 3506.577
227.105, 3395.498
227.587, 3298.812
228.070, 3200.616
228.552, 3096.333
229.034, 2993.694
229.516, 2909.221
229.998, 2850.367
230.480, 2796.780
230.962, 2739.798
231.444, 2673.873
231.926, 2623.354
232.409, 2592.688
232.891, 2575.911
233.373, 2560.664
233.855, 2545.741
234.337, 2534.411
234.819, 2527.105
235.301, 2521.321
235.783, 2525.597
236.266, 2539.270
236.748, 2563.242
237.230, 2599.645
237.712, 2650.050
238.194, 2711.647
238.676, 2786.137
239.158, 2889.755
239.640, 2970.547
240.122, 3024.254
240.605, 3055.712
241.087, 3077.875
241.569, 3088.361
242.051, 3093.276
242.533, 3094.289
243.015, 3086.500
243.497, 3085.044
243.980, 3087.243
244.462, 3096.156
244.944, 3123.813
245.426, 3177.963
245.908, 3240.030
246.390, 3299.008
246.872, 3345.095
247.354, 3409.120
247.836, 3497.477
248.318, 3604.444
248.801, 3704.652
249.283, 3787.730
249.765, 3878.353
250.247, 3993.073
250.729, 4142.488
251.211, 4289.980
251.693, 4435.465
252.176, 4576.943
252.658, 4702.100
253.140, 4810.468
253.622, 4903.996
254.104, 4987.557
254.586, 5069.108
255.068, 5118.255
255.550, 5121.749
256.032, 5089.965
256.514, 5072.387
256.997, 5072.324
257.479, 5081.509
257.961, 5092.231
258.443, 5096.108
258.925, 5122.713
259.407, 5172.054
259.889, 5245.672
260.371, 5357.354
260.854, 5517.695
261.336, 5698.824
261.818, 5884.048
262.300, 6068.152
262.782, 6267.688
263.264, 6480.183
263.746, 6710.068
264.228, 6971.054
264.711, 7272.808
265.193, 7591.042
265.675, 7918.107
266.157, 8257.822
266.639, 8583.722
267.121, 8887.497
267.603, 9170.671
268.085, 9442.447
268.567, 9702.116
269.050, 9947.079
269.532, 10179.960
270.014, 10408.950
270.496, 10586.280
270.978, 10699.430
271.460, 10755.590
271.942, 10779.390
272.424, 10768.880
272.906, 10731.390
273.389, 10676.230
273.871, 10608.040
274.353, 10491.390
274.835, 10312.660
275.317, 10087.090
275.799, 9868.409
276.281, 9661.837
276.763, 9447.521
277.246, 9209.574
277.728, 8947.694
278.210, 8677.479
278.692, 8405.495
279.174, 8126.628
279.656, 7806.620
280.138, 7436.929
280.620, 7068.166
281.103, 6731.464
281.585, 6426.791
282.067, 6156.710
282.549, 5921.226
283.031, 5721.207
283.513, 5551.600
283.995, 5411.868
284.477, 5307.743
284.959, 5250.715
285.441, 5238.604
285.924, 5239.315
286.406, 5247.634
286.888, 5267.325
287.370, 5308.122
287.852, 5370.427
288.334, 5444.506
288.816, 5517.760
289.298, 5593.779
289.781, 5696.028
290.263, 5824.032
290.745, 5986.286
291.227, 6219.828
291.709, 6522.943
292.191, 6807.528
292.673, 6991.310
293.155, 7105.906
293.638, 7270.477
294.120, 7510.443
294.602, 7782.546
295.084, 8021.040
295.566, 8228.332
296.048, 8431.695
296.530, 8659.994
297.012, 8899.315
297.494, 9115.614
297.977, 9311.236
298.459, 9472.997
298.941, 9576.629
299.423, 9629.983
299.905, 9662.328
300.387, 9695.309
300.869, 9718.049
301.351, 9712.339
301.833, 9674.374
302.316, 9611.474
302.798, 9524.409
303.280, 9417.313
303.762, 9300.947
304.244, 9163.740
304.726, 9027.679
305.208, 8930.380
305.690, 8883.562
306.172, 8835.616
306.655, 8742.902
307.137, 8616.142
307.619, 8479.003
308.101, 8345.628
308.583, 8205.699
309.065, 8046.213
309.547, 7861.072
310.030, 7683.443
310.512, 7531.433
310.994, 7402.678
311.476, 7293.087
311.958, 7183.632
312.440, 7105.428
312.922, 7080.495
313.404, 7112.259
313.886, 7178.865
314.369, 7272.079
314.851, 7393.304
315.333, 7541.465
315.815, 7728.057
316.297, 7932.730
316.779, 8160.830
317.261, 8412.571
317.743, 8633.156
318.225, 8831.504
318.708, 8975.291
319.190, 9030.158
319.672, 8957.365
320.154, 8825.173
320.636, 8660.238
321.118, 8462.365
321.600, 8194.676
322.082, 7796.737
322.565, 7350.734
323.047, 6924.924
323.529, 6518.791
324.011, 6141.117
324.493, 5789.331
324.975, 5464.617
325.457, 5180.251
325.939, 4940.353
326.422, 4739.413
326.904, 4573.512
327.386, 4465.170
327.868, 4367.985
328.350, 4276.932
328.832, 4193.807
329.314, 4128.048
329.796, 4084.915
330.278, 4054.351
330.760, 4033.049
331.243, 4033.174
331.725, 4021.698
332.207, 3991.925
332.689, 3950.700
333.171, 3917.354
333.653, 3886.263
334.135, 3870.950
334.617, 3878.033
335.100, 3911.451
335.582, 3955.656
336.064, 4006.051
336.546, 4070.247
337.028, 4162.623
337.510, 4282.386
337.992, 4429.748
338.474, 4605.452
338.957, 4808.854
339.439, 5036.970
339.921, 5282.609
340.403, 5563.761
340.885, 5906.270
341.367, 6317.636
341.849, 6756.767
342.331, 7229.418
342.813, 7727.028
343.296, 8201.396
343.778, 8661.346
344.260, 9058.100
344.742, 9336.951
345.224, 9500.800
345.706, 9551.354
346.188, 9472.651
346.670, 9287.652
347.152, 9041.867
347.635, 8732.847
348.117, 8418.391
348.599, 8132.047
349.081, 7877.556
349.563, 7679.488
350.045, 7552.295
350.527, 7474.048
351.009, 7431.712
351.491, 7419.931
351.974, 7399.752
352.456, 7355.571
352.938, 7281.431
353.420, 7167.866
353.902, 7013.987
354.384, 6818.915
354.866, 6575.978
355.349, 6292.229
355.831, 5982.894
356.313, 5637.296
356.795, 5281.148
357.277, 4936.527
357.759, 4599.896
358.241, 4287.047
358.723, 4006.620
359.205, 3757.522
359.688, 3532.056
360.170, 3327.393
360.652, 3145.534
361.134, 2990.053
361.616, 2862.845
362.098, 2749.782
362.580, 2647.666
363.062, 2556.337
363.544, 2474.127
364.027, 2408.237
364.509, 2344.156
364.991, 2273.376
365.473, 2194.778
365.955, 2130.856
366.437, 2086.959
366.919, 2057.469
367.401, 2038.507
367.884, 2033.068
368.366, 2033.796
368.848, 2029.933
369.330, 2026.071
369.812, 2022.208
370.294, 2018.346
370.776, 2014.483
371.258, 2010.620
371.741, 2006.757
372.223, 2002.895
372.705, 1999.032
373.187, 1995.170
373.669, 1991.307
374.151, 2019.268
374.633, 2049.550
375.115, 2052.318
375.597, 2017.702
376.079, 2006.260
376.562, 2023.779
377.044, 2056.253
377.526, 2080.032
378.008, 2093.030
378.490, 2112.134
378.972, 2146.105
379.454, 2192.406
379.936, 2232.085
380.419, 2261.883
380.901, 2298.861
381.383, 2361.063
381.865, 2447.675
382.347, 2546.904
382.829, 2657.502
383.311, 2778.631
383.793, 2903.484
384.276, 3032.412
384.758, 3185.772
385.240, 3386.969
385.722, 3621.603
386.204, 3864.036
386.686, 4109.976
387.168, 4355.974
387.650, 4612.194
388.132, 4872.126
388.615, 5116.007
389.097, 5345.331
389.579, 5548.645
390.061, 5721.521
390.543, 5869.152
391.025, 5960.114
391.507, 5965.949
391.989, 5903.257
392.471, 5799.581
392.954, 5657.561
393.436, 5483.163
393.918, 5268.988
394.400, 5012.492
394.882, 4759.735
395.364, 4522.141
395.846, 4300.114
396.328, 4092.234
396.810, 3895.108
397.293, 3717.830
397.775, 3561.472
398.257, 3426.089
398.739, 3311.977
399.221, 3225.726
399.703, 3157.116
400.185, 3102.128
400.668, 3066.477
401.150, 3035.414
401.632, 3008.716
402.114, 2986.483
402.596, 2968.664
403.078, 2953.807
403.560, 2946.056
404.042, 2948.305
404.524, 2962.183
405.007, 2974.751
405.489, 2984.558
405.971, 2995.392
406.453, 3010.061
406.935, 3027.471
407.417, 3057.717
407.899, 3104.042
408.381, 3165.456
408.863, 3235.455
409.346, 3313.659
409.828, 3405.957
410.310, 3512.305
410.792, 3636.557
411.274, 3794.255
411.756, 3987.483
412.238, 4215.783
412.720, 4468.698
413.203, 4749.294
413.685, 5087.643
414.167, 5506.231
414.649, 5993.763
415.131, 6545.815
415.613, 7177.083
416.095, 7821.892
416.577, 8522.066
417.060, 9192.962
417.542, 9697.354
418.024, 9994.325
418.506, 10083.020
418.988, 9903.067
419.470, 9455.222
419.952, 8965.875
420.434, 8454.977
420.916, 7979.030
421.398, 7578.943
421.881, 7267.825
422.363, 7035.502
422.845, 6890.034
423.327, 6826.408
423.809, 6821.918
424.291, 6880.156
424.773, 6992.679
425.255, 7158.809
425.738, 7399.215
426.220, 7647.642
426.702, 7896.856
427.184, 8154.598
427.666, 8447.796
428.148, 8804.341
428.630, 9138.394
429.112, 9432.573
429.595, 9689.244
430.077, 9883.494
430.559, 10020.550
431.041, 10082.770
431.523, 10058.520
432.005, 9947.669
432.487, 9739.688
432.969, 9421.279
433.451, 9015.604
433.934, 8561.147
434.416, 8058.569
434.898, 7551.172
435.380, 7050.866
435.862, 6567.384
436.344, 6127.010
436.826, 5732.728
437.308, 5379.808
437.790, 5057.402
438.273, 4770.712
438.755, 4537.893
439.237, 4359.833
439.719, 4240.698
440.201, 4198.764
440.683, 4231.542
441.165, 4286.238
441.647, 4322.597
442.129, 4370.225
442.612, 4459.098
443.094, 4624.927
443.576, 4795.459
444.058, 4974.803
444.540, 5143.615
445.022, 5246.226
445.504, 5284.138
445.987, 5241.073
446.469, 5100.442
446.951, 4827.240
447.433, 4545.771
447.915, 4249.759
448.397, 3953.856
448.879, 3675.374
449.361, 3406.924
449.843, 3168.385
450.326, 2964.585
450.808, 2794.512
451.290, 2636.680
451.772, 2487.817
452.254, 2355.769
452.736, 2250.940
453.218, 2174.385
453.700, 2102.154
454.182, 2032.034
454.665, 1965.773
455.147, 1911.389
455.629, 1867.784
456.111, 1825.059
456.593, 1771.454
457.075, 1715.814
457.557, 1686.861
458.039, 1686.084
458.522, 1689.382
459.004, 1653.564
459.486, 1609.154
459.968, 1595.609
460.450, 1593.937
460.932, 1589.383
461.414, 1582.101
461.896, 1563.922
462.379, 1559.814
462.861, 1550.068
463.343, 1540.090
463.825, 1537.964
464.307, 1521.370
464.789, 1518.347
465.271, 1519.120
465.753, 1526.941
466.235, 1533.038
466.717, 1529.725
467.200, 1531.245
467.682, 1543.086
468.164, 1564.866
468.646, 1581.372
469.128, 1586.970
469.610, 1593.673
470.092, 1609.725
470.574, 1639.010
471.057, 1665.706
471.539, 1686.498
472.021, 1706.749
472.503, 1739.799
472.985, 1787.598
473.467, 1834.158
473.949, 1870.859
474.431, 1900.245
474.914, 1932.823
475.396, 1967.711
475.878, 2015.438
476.360, 2095.921
476.842, 2198.333
477.324, 2288.997
477.806, 2351.733
478.288, 2412.665
478.770, 2498.285
479.253, 2607.453
479.735, 2736.205
480.217, 2883.475
480.699, 3048.857
481.181, 3234.470
481.663, 3440.125
482.145, 3658.532
482.627, 3891.180
483.109, 4130.694
483.592, 4368.141
484.074, 4618.559
484.556, 4847.984
485.038, 5082.162
485.520, 5306.394
486.002, 5410.306
486.484, 5369.440
486.966, 5231.176
487.448, 5005.432
487.931, 4659.325
488.413, 4310.807
488.895, 3945.160
489.377, 3588.565
489.859, 3283.337
490.341, 3030.864
490.823, 2810.286
491.306, 2616.148
491.788, 2448.522
492.270, 2320.814
492.752, 2233.672
493.234, 2162.923
493.716, 2090.833
494.198, 2020.300
494.680, 1964.078
495.162, 1923.088
495.645, 1895.299
496.127, 1881.631
496.609, 1879.114
497.091, 1880.629
497.573, 1881.046
498.055, 1885.652
498.537, 1900.003
499.019, 1923.474
499.501, 1948.549
499.984, 1964.998
500.466, 1985.709
500.948, 2021.581
501.430, 2091.559
501.912, 2149.410
502.394, 2176.351
502.876, 2186.716
503.358, 2208.269
503.841, 2245.136
504.323, 2288.164
504.805, 2335.578
505.287, 2387.137
505.769, 2446.361
506.251, 2516.400
506.733, 2586.573
507.215, 2650.136
507.698, 2706.772
508.180, 2756.208
508.662, 2798.644
509.144, 2833.381
509.626, 2861.681
510.108, 2883.107
510.590, 2888.971
511.072, 2872.899
511.554, 2839.496
512.036, 2797.255
512.519, 2746.180
513.001, 2684.356
513.483, 2599.284
513.965, 2506.907
514.447, 2424.135
514.929, 2349.587
515.411, 2296.080
515.893, 2302.316
516.375, 2332.510
516.858, 2314.697
517.340, 2169.443
517.822, 2025.216
518.304, 1930.817
518.786, 1893.883
519.268, 1856.035
519.750, 1811.349
520.232, 1768.048
520.715, 1731.614
521.197, 1703.255
521.679, 1678.934
522.161, 1658.463
522.643, 1642.191
523.125, 1632.797
523.607, 1632.019
524.089, 1626.905
524.571, 1608.869
525.054, 1582.269
525.536, 1567.094
526.018, 1563.739
526.500, 1566.235
526.982, 1570.156
527.464, 1576.136
527.946, 1586.011
528.429, 1601.152
528.911, 1617.485
529.393, 1627.339
529.875, 1635.676
530.357, 1652.470
530.839, 1689.826
531.321, 1730.047
531.803, 1763.680
532.286, 1790.788
532.768, 1819.039
533.250, 1850.317
533.732, 1883.690
534.214, 1919.512
534.696, 1960.541
535.178, 1998.867
535.660, 2031.644
536.142, 2062.924
536.625, 2099.292
537.107, 2140.518
537.589, 2187.288
538.071, 2240.765
538.553, 2299.749
539.035, 2356.789
539.517, 2410.130
539.999, 2473.138
540.481, 2562.251
540.964, 2670.558
541.446, 2772.300
541.928, 2864.015
542.410, 2953.225
542.892, 3046.830
543.374, 3143.515
543.856, 3242.453
544.338, 3358.772
544.820, 3462.778
545.303, 3532.945
545.785, 3572.202
546.267, 3592.441
546.749, 3605.442
547.231, 3594.527
547.713, 3546.239
548.195, 3447.071
548.677, 3349.450
549.159, 3257.569
549.642, 3169.121
550.124, 3079.342
550.606, 2980.551
551.088, 2898.624
551.570, 2842.544
552.052, 2804.014
552.534, 2752.020
553.016, 2680.884
553.499, 2628.890
553.981, 2622.515
554.463, 2652.795
554.945, 2675.926
555.427, 2691.054
555.909, 2711.206
556.391, 2744.926
556.873, 2793.096
557.356, 2857.367
557.838, 2940.695
558.320, 3035.977
558.802, 3148.787
559.284, 3268.269
559.766, 3371.534
560.248, 3448.777
560.730, 3509.265
561.213, 3560.479
561.695, 3603.110
562.177, 3612.941
562.659, 3570.449
563.141, 3506.675
563.623, 3433.966
564.105, 3339.751
564.587, 3264.906
565.069, 3213.674
565.552, 3176.937
566.034, 3140.907
566.516, 3103.959
566.998, 3080.245
567.480, 3074.314
567.962, 3083.794
568.444, 3103.083
568.926, 3132.517
569.408, 3171.955
569.891, 3218.124
570.373, 3275.956
570.855, 3362.524
571.337, 3480.975
571.819, 3590.355
572.301, 3653.354
572.783, 3694.418
573.265, 3740.544
573.747, 3812.604
574.230, 3873.188
574.712, 3918.318
575.194, 3944.796
575.676, 3944.884
576.158, 3900.569
576.640, 3850.375
577.122, 3806.308
577.604, 3767.674
578.086, 3709.797
578.569, 3622.806
579.051, 3539.633
579.533, 3487.841
580.015, 3467.322
580.497, 3445.438
580.979, 3418.168
581.461, 3394.746
581.943, 3378.389
582.426, 3374.457
582.908, 3402.234
583.390, 3483.284
583.872, 3583.805
584.354, 3663.732
584.836, 3731.277
585.318, 3814.108
585.800, 3933.427
586.282, 4066.150
586.765, 4198.945
587.247, 4330.423
587.729, 4462.618
588.211, 4619.584
588.693, 4761.364
589.175, 4862.266
589.657, 4928.842
590.140, 4941.152
590.622, 4894.108
591.104, 4795.779
591.586, 4654.090
592.068, 4463.471
592.550, 4262.305
593.032, 4057.777
593.514, 3852.766
593.996, 3645.618
594.479, 3437.190
594.961, 3241.112
595.443, 3071.301
595.925, 2917.377
596.407, 2763.056
596.889, 2605.660
597.371, 2463.975
597.853, 2354.434
598.335, 2265.337
598.818, 2184.000
599.300, 2104.016
599.782, 2036.208
600.264, 1987.185
600.746, 1952.619
601.228, 1921.038
601.710, 1893.495
602.192, 1867.098
602.674, 1840.250
603.157, 1813.206
603.639, 1790.016
604.121, 1770.092
604.603, 1756.557
605.085, 1752.294
605.567, 1756.680
606.049, 1767.793
606.531, 1786.518
607.013, 1805.790
607.496, 1814.574
607.978, 1819.251
608.460, 1833.136
608.942, 1867.131
609.424, 1900.798
609.906, 1917.451
610.388, 1923.658
610.870, 1933.724
611.353, 1952.155
611.835, 1975.312
612.317, 2004.369
612.799, 2039.268
613.281, 2070.102
613.763, 2093.996
614.245, 2118.069
614.727, 2148.333
615.209, 2188.484
615.692, 2215.678
616.174, 2228.255
616.656, 2231.725
617.138, 2228.918
617.620, 2221.325
618.102, 2217.210
618.584, 2218.474
619.067, 2224.117
619.549, 2244.152
620.031, 2268.333
620.513, 2270.070
620.995, 2220.659
621.477, 2158.391
621.959, 2105.348
622.441, 2061.390
622.923, 2016.029
623.406, 1965.120
623.888, 1913.784
624.370, 1864.613
624.852, 1818.164
625.334, 1771.382
625.816, 1721.396
626.298, 1674.919
626.780, 1638.747
627.263, 1613.156
627.745, 1594.673
628.227, 1583.829
628.709, 1577.399
629.191, 1571.636
629.673, 1566.062
630.155, 1558.468
630.637, 1542.671
631.119, 1528.307
631.602, 1525.921
632.084, 1534.063
632.566, 1546.020
633.048, 1556.685
633.530, 1571.522
634.012, 1594.816
634.494, 1628.509
634.976, 1662.006
635.458, 1689.741
635.941, 1719.904
636.423, 1758.320
636.905, 1807.685
637.387, 1857.385
637.869, 1906.073
638.351, 1957.033
638.833, 2011.259
639.315, 2072.297
639.797, 2131.674
640.280, 2189.508
640.762, 2241.070
641.244, 2300.710
641.726, 2357.116
642.208, 2413.389
642.690, 2472.378
643.172, 2485.892
643.654, 2510.151
644.137, 2532.192
644.619, 2544.763
645.101, 2544.406
645.583, 2534.649
646.065, 2517.912
646.547, 2497.017
647.029, 2461.556
647.511, 2407.251
647.994, 2342.624
648.476, 2274.460
648.958, 2201.300
649.440, 2133.366
649.922, 2072.427
650.404, 2015.033
650.886, 1953.714
651.368, 1890.032
651.851, 1833.738
652.333, 1792.496
652.815, 1757.676
653.297, 1720.454
