##NAMES=Axinite-(Fe)
##RRUFFID=R050026
##IDEAL CHEMISTRY=Ca_4_Fe^2+^_2_Al_4_[B_2_Si_8_O_30_](OH)_2_
##LOCALITY=Pouyva mine, Polar Urals, Western Siberian Region, Russia
##OWNER=RRUFF
##SOURCE=Rock Currier
##DESCRIPTION=Brown transparent flat crystal
##STATUS=The identification of this mineral has been confirmed by X-ray diffraction and chemical analysis
##URL=rruff.info/R050026
##MEASURED CHEMISTRY=Ca_2.00_(Fe^2+^_0.61_Mn_0.26_Mg_0.13_)Al_2.00_BSi_4_O_15_(OH)
146.5716, 1587.889
147.0537, 1664.201
147.5358, 1752.505
148.0179, 1833.884
148.5001, 1912.536
148.9822, 1981.421
149.4643, 2034.596
149.9464, 2072.304
150.4285, 2100.993
150.9106, 2129.494
151.3928, 2154.157
151.8749, 2153.327
152.3570, 2109.938
152.8391, 2050.012
153.3212, 1993.760
153.8033, 1942.583
154.2855, 1896.794
154.7676, 1858.515
155.2497, 1826.294
155.7318, 1794.333
156.2139, 1756.793
156.6960, 1721.528
157.1782, 1698.561
157.6603, 1689.342
158.1424, 1685.773
158.6245, 1680.989
159.1066, 1677.109
159.5887, 1680.600
160.0709, 1698.548
160.5530, 1722.768
161.0351, 1740.370
161.5172, 1749.033
161.9993, 1758.451
162.4814, 1773.178
162.9636, 1793.396
163.4457, 1821.819
163.9278, 1862.951
164.4099, 1911.798
164.8920, 1959.390
165.3741, 2005.426
165.8563, 2050.744
166.3384, 2092.684
166.8205, 2134.433
167.3026, 2182.199
167.7847, 2240.459
168.2668, 2305.898
168.7490, 2372.629
169.2311, 2443.080
169.7132, 2509.740
170.1953, 2573.312
170.6774, 2630.593
171.1595, 2675.523
171.6417, 2705.686
172.1238, 2721.578
172.6059, 2724.724
173.0880, 2716.066
173.5701, 2690.949
174.0522, 2642.667
174.5344, 2579.671
175.0165, 2513.308
175.4986, 2446.012
175.9807, 2380.426
176.4628, 2323.631
176.9449, 2279.077
177.4271, 2237.497
177.9092, 2196.175
178.3913, 2155.021
178.8734, 2113.043
179.3555, 2067.171
179.8376, 2021.976
180.3197, 1991.867
180.8019, 1986.005
181.2840, 1979.623
181.7661, 1964.223
182.2482, 1943.970
182.7303, 1923.465
183.2124, 1904.281
183.6946, 1887.262
184.1767, 1874.156
184.6588, 1862.184
185.1409, 1860.312
185.6230, 1873.625
186.1051, 1895.380
186.5873, 1918.173
187.0694, 1938.640
187.5515, 1958.004
188.0336, 1980.174
188.5157, 2006.619
188.9978, 2033.238
189.4800, 2053.721
189.9621, 2075.761
190.4442, 2107.517
190.9263, 2152.479
191.4084, 2208.485
191.8905, 2272.790
192.3727, 2359.440
192.8548, 2428.569
193.3369, 2477.052
193.8190, 2506.934
194.3011, 2517.563
194.7832, 2508.464
195.2654, 2486.365
195.7475, 2464.907
196.2296, 2441.766
196.7117, 2423.850
197.1938, 2407.824
197.6759, 2398.436
198.1581, 2400.675
198.6402, 2416.064
199.1223, 2440.884
199.6044, 2467.498
200.0865, 2490.677
200.5686, 2527.629
201.0508, 2578.273
201.5329, 2641.179
202.0150, 2719.230
202.4971, 2812.234
202.9792, 2909.530
203.4613, 2992.526
203.9435, 3049.793
204.4256, 3118.326
204.9077, 3219.309
205.3898, 3317.290
205.8719, 3389.094
206.3540, 3429.906
206.8362, 3449.457
207.3183, 3460.017
207.8004, 3460.677
208.2825, 3453.504
208.7646, 3438.048
209.2467, 3416.374
209.7289, 3387.889
210.2110, 3353.541
210.6931, 3316.458
211.1752, 3281.425
211.6573, 3252.096
212.1395, 3211.546
212.6216, 3147.810
213.1037, 3084.105
213.5858, 3031.546
214.0679, 2990.404
214.5500, 2954.336
215.0322, 2915.932
215.5143, 2872.943
215.9964, 2843.892
216.4785, 2843.334
216.9606, 2842.879
217.4427, 2833.331
217.9249, 2814.608
218.4070, 2790.355
218.8891, 2763.490
219.3712, 2734.056
219.8533, 2700.348
220.3354, 2664.936
220.8176, 2622.178
221.2997, 2567.486
221.7818, 2504.094
222.2639, 2437.369
222.7460, 2370.549
223.2281, 2303.770
223.7103, 2244.424
224.1924, 2197.640
224.6745, 2153.258
225.1566, 2105.041
225.6387, 2058.511
226.1208, 2022.447
226.6030, 2002.615
227.0851, 1995.792
227.5672, 1988.513
228.0493, 1978.960
228.5314, 1971.535
229.0135, 1970.456
229.4957, 1970.521
229.9778, 1963.959
230.4599, 1946.919
230.9420, 1926.109
231.4241, 1918.734
231.9062, 1933.626
232.3884, 1947.606
232.8705, 1957.420
233.3526, 1965.268
233.8347, 1972.779
234.3168, 1980.525
234.7989, 1988.891
235.2811, 1997.961
235.7632, 2006.037
236.2453, 2019.285
236.7274, 2038.766
237.2095, 2062.515
237.6916, 2091.711
238.1738, 2125.556
238.6559, 2158.940
239.1380, 2184.803
239.6201, 2200.575
240.1022, 2218.476
240.5843, 2241.707
241.0665, 2264.860
241.5486, 2285.388
242.0307, 2303.294
242.5128, 2320.082
242.9949, 2337.428
243.4770, 2355.558
243.9592, 2371.867
244.4413, 2387.711
244.9234, 2400.219
245.4055, 2407.209
245.8876, 2409.843
246.3697, 2410.851
246.8519, 2411.266
247.3340, 2411.522
247.8161, 2415.691
248.2982, 2426.709
248.7803, 2437.977
249.2624, 2440.215
249.7446, 2442.197
250.2267, 2458.906
250.7088, 2501.073
251.1909, 2560.353
251.6730, 2611.963
252.1551, 2649.828
252.6373, 2692.931
253.1194, 2751.263
253.6015, 2815.621
254.0836, 2877.436
254.5657, 2934.347
255.0478, 2984.751
255.5300, 3027.901
256.0121, 3065.549
256.4942, 3088.459
256.9763, 3091.660
257.4584, 3079.845
257.9406, 3050.303
258.4227, 3001.810
258.9048, 2951.097
259.3869, 2913.739
259.8690, 2889.881
260.3511, 2875.457
260.8333, 2871.088
261.3154, 2875.819
261.7975, 2890.587
262.2796, 2914.765
262.7617, 2941.239
263.2438, 2963.857
263.7260, 2984.013
264.2081, 3009.059
264.6902, 3038.523
265.1723, 3075.521
265.6544, 3126.031
266.1365, 3186.175
266.6187, 3242.359
267.1008, 3284.157
267.5829, 3318.424
268.0650, 3358.698
268.5471, 3404.879
269.0292, 3458.195
269.5114, 3528.325
269.9935, 3605.321
270.4756, 3671.877
270.9577, 3718.030
271.4398, 3756.404
271.9219, 3802.073
272.4041, 3855.428
272.8862, 3906.135
273.3683, 3953.726
273.8504, 3992.225
274.3325, 4012.071
274.8146, 4006.938
275.2968, 3993.734
275.7789, 3985.099
276.2610, 3978.401
276.7431, 3962.573
277.2252, 3933.299
277.7073, 3893.194
278.1895, 3847.246
278.6716, 3796.950
279.1537, 3737.745
279.6358, 3661.716
280.1179, 3577.132
280.6000, 3497.979
281.0822, 3426.982
281.5643, 3362.232
282.0464, 3300.731
282.5285, 3242.372
283.0106, 3192.745
283.4927, 3152.488
283.9749, 3121.338
284.4570, 3100.443
284.9391, 3089.366
285.4212, 3083.755
285.9033, 3080.867
286.3854, 3080.761
286.8676, 3081.019
287.3497, 3083.032
287.8318, 3084.042
288.3139, 3079.952
288.7960, 3073.483
289.2781, 3072.325
289.7603, 3081.334
290.2424, 3097.854
290.7245, 3110.592
291.2066, 3116.386
291.6887, 3122.617
292.1708, 3130.254
292.6530, 3138.965
293.1351, 3148.922
293.6172, 3160.123
294.0993, 3171.123
294.5814, 3179.438
295.0635, 3185.436
295.5457, 3187.433
296.0278, 3184.627
296.5099, 3178.752
296.9920, 3168.169
297.4741, 3154.387
297.9562, 3143.715
298.4384, 3142.908
298.9205, 3153.149
299.4026, 3165.435
299.8847, 3177.413
300.3668, 3193.662
300.8489, 3215.117
301.3311, 3242.268
301.8131, 3276.480
302.2953, 3319.773
302.7774, 3369.692
303.2595, 3412.875
303.7416, 3439.502
304.2237, 3474.220
304.7058, 3531.326
305.1880, 3594.187
305.6701, 3647.435
306.1522, 3685.642
306.6343, 3707.451
307.1164, 3707.420
307.5985, 3679.938
308.0807, 3651.474
308.5628, 3636.690
309.0449, 3614.912
309.5270, 3568.262
310.0091, 3497.063
310.4912, 3424.088
310.9734, 3368.657
311.4555, 3329.426
311.9376, 3290.825
312.4197, 3240.576
312.9018, 3209.068
313.3839, 3220.440
313.8661, 3263.239
314.3482, 3307.995
314.8303, 3336.915
315.3124, 3361.687
315.7945, 3404.812
316.2766, 3468.794
316.7588, 3536.415
317.2409, 3602.869
317.7230, 3664.958
318.2051, 3717.714
318.6872, 3760.888
319.1693, 3793.454
319.6515, 3820.939
320.1336, 3838.995
320.6157, 3825.646
321.0978, 3767.125
321.5799, 3683.785
322.0620, 3603.062
322.5442, 3523.582
323.0263, 3453.617
323.5084, 3401.388
323.9905, 3357.211
324.4726, 3306.174
324.9547, 3245.638
325.4369, 3188.731
325.9190, 3147.979
326.4011, 3125.264
326.8832, 3107.050
327.3653, 3091.155
327.8474, 3081.390
328.3296, 3083.979
328.8117, 3095.085
329.2938, 3103.450
329.7759, 3102.113
330.2580, 3093.651
330.7401, 3089.803
331.2223, 3093.921
331.7044, 3098.535
332.1865, 3101.776
332.6686, 3105.657
333.1507, 3111.485
333.6328, 3119.914
334.1150, 3132.384
334.5971, 3150.510
335.0792, 3171.983
335.5613, 3206.133
336.0434, 3262.048
336.5255, 3320.899
337.0077, 3367.916
337.4898, 3407.827
337.9719, 3458.729
338.4540, 3537.331
338.9361, 3639.930
339.4182, 3733.044
339.9004, 3809.696
340.3825, 3885.866
340.8646, 3975.233
341.3467, 4064.178
341.8288, 4136.740
342.3109, 4187.835
342.7931, 4217.952
343.2752, 4227.138
343.7573, 4214.896
344.2394, 4184.799
344.7215, 4135.226
345.2036, 4068.003
345.6858, 3978.299
346.1679, 3866.779
346.6500, 3758.674
347.1321, 3666.833
347.6142, 3590.599
348.0963, 3529.901
348.5785, 3487.783
349.0606, 3451.541
349.5427, 3409.847
350.0248, 3365.828
350.5069, 3329.785
350.9890, 3312.557
351.4712, 3296.636
351.9533, 3270.390
352.4354, 3233.626
352.9175, 3185.345
353.3996, 3124.050
353.8817, 3052.130
354.3639, 2973.965
354.8460, 2887.041
355.3281, 2801.343
355.8102, 2718.158
356.2923, 2637.887
356.7744, 2560.437
357.2566, 2485.870
357.7387, 2419.311
358.2208, 2366.948
358.7029, 2330.805
359.1850, 2298.440
359.6671, 2270.173
360.1493, 2244.824
360.6314, 2222.974
361.1135, 2203.588
361.5956, 2183.966
362.0777, 2161.959
362.5598, 2140.094
363.0420, 2128.369
363.5241, 2138.005
364.0062, 2139.662
364.4883, 2122.387
364.9704, 2101.303
365.4525, 2089.447
365.9347, 2089.404
366.4168, 2093.910
366.8989, 2094.556
367.3810, 2090.912
367.8631, 2090.825
368.3452, 2096.546
368.8274, 2103.734
369.3095, 2110.281
369.7916, 2116.472
370.2737, 2122.958
370.7558, 2129.330
371.2379, 2136.758
371.7201, 2148.201
372.2022, 2164.209
372.6843, 2178.725
373.1664, 2188.686
373.6485, 2195.824
374.1306, 2202.689
374.6128, 2208.988
375.0949, 2216.302
375.5770, 2225.301
376.0591, 2235.869
376.5412, 2247.531
377.0233, 2260.091
377.5055, 2274.856
377.9876, 2295.355
378.4697, 2322.443
378.9518, 2338.853
379.4339, 2330.244
379.9160, 2323.558
380.3982, 2333.244
380.8803, 2358.104
381.3624, 2393.828
381.8445, 2439.150
382.3266, 2489.873
382.8087, 2533.870
383.2909, 2553.782
383.7730, 2590.033
384.2551, 2653.442
384.7372, 2726.621
385.2193, 2798.447
385.7014, 2865.539
386.1836, 2927.492
386.6657, 2982.356
387.1478, 3029.223
387.6299, 3083.132
388.1120, 3164.243
388.5941, 3228.464
389.0763, 3259.810
389.5584, 3265.985
390.0405, 3258.825
390.5226, 3242.865
391.0047, 3217.280
391.4868, 3178.421
391.9690, 3125.235
392.4511, 3070.415
392.9332, 3019.871
393.4153, 2966.372
393.8974, 2902.409
394.3795, 2827.823
394.8617, 2753.393
395.3438, 2678.667
395.8259, 2609.435
396.3080, 2557.285
396.7901, 2524.001
397.2722, 2496.269
397.7544, 2465.040
398.2365, 2431.932
398.7186, 2404.237
399.2007, 2382.918
399.6828, 2366.002
400.1649, 2350.397
400.6471, 2339.276
401.1292, 2341.330
401.6113, 2359.534
402.0934, 2380.494
402.5755, 2383.015
403.0576, 2355.658
403.5398, 2345.106
404.0219, 2365.967
404.5040, 2387.540
404.9861, 2390.326
405.4682, 2380.385
405.9503, 2375.287
406.4325, 2386.193
406.9146, 2410.009
407.3967, 2436.053
407.8788, 2464.794
408.3609, 2494.847
408.8430, 2516.428
409.3252, 2545.374
409.8073, 2599.402
410.2894, 2679.584
410.7715, 2762.885
411.2536, 2821.795
411.7357, 2864.430
412.2179, 2932.768
412.7000, 3034.927
413.1821, 3149.095
413.6642, 3259.470
414.1463, 3371.288
414.6284, 3494.572
415.1106, 3642.899
415.5927, 3789.824
416.0748, 3923.718
416.5569, 4041.607
417.0390, 4134.393
417.5211, 4199.444
418.0033, 4235.060
418.4854, 4236.100
418.9675, 4194.425
419.4496, 4141.428
419.9317, 4068.496
420.4138, 3992.555
420.8960, 3919.561
421.3781, 3852.871
421.8602, 3798.458
422.3423, 3760.273
422.8244, 3736.452
423.3065, 3719.719
423.7887, 3720.358
424.2708, 3711.669
424.7529, 3690.414
425.2350, 3660.066
425.7171, 3621.177
426.1992, 3574.930
426.6814, 3526.787
427.1635, 3481.812
427.6456, 3439.426
428.1277, 3397.864
428.6098, 3360.356
429.0919, 3317.404
429.5741, 3264.038
430.0562, 3202.109
430.5383, 3131.983
431.0204, 3048.616
431.5025, 2968.133
431.9846, 2905.369
432.4668, 2856.838
432.9489, 2810.415
433.4310, 2763.204
433.9131, 2716.633
434.3952, 2671.967
434.8773, 2629.408
435.3595, 2590.141
435.8416, 2549.615
436.3237, 2516.765
436.8058, 2495.974
437.2879, 2487.268
437.7701, 2490.593
438.2522, 2506.353
438.7343, 2531.467
439.2164, 2557.791
439.6985, 2581.718
440.1806, 2613.739
440.6628, 2655.813
441.1449, 2703.694
441.6270, 2758.207
442.1091, 2816.684
442.5912, 2872.823
443.0733, 2923.114
443.5555, 2966.571
444.0376, 3001.866
444.5197, 3034.332
445.0018, 3043.659
445.4839, 3017.197
445.9660, 2965.005
446.4482, 2889.355
446.9303, 2787.760
447.4124, 2686.922
447.8945, 2605.070
448.3766, 2535.112
448.8587, 2460.626
449.3409, 2378.313
449.8230, 2302.997
450.3051, 2245.888
450.7872, 2206.558
451.2693, 2174.239
451.7514, 2156.085
452.2336, 2136.086
452.7157, 2106.204
453.1978, 2072.397
453.6799, 2040.798
454.1620, 2013.882
454.6441, 1996.275
455.1263, 1997.644
455.6084, 2025.401
456.0905, 2030.089
456.5726, 1980.459
457.0547, 1939.133
457.5368, 1930.011
458.0190, 1940.594
458.5011, 1950.064
458.9832, 1949.820
459.4653, 1944.692
459.9474, 1941.350
460.4295, 1939.849
460.9117, 1937.047
461.3938, 1931.086
461.8759, 1925.404
462.3580, 1921.388
462.8401, 1919.534
463.3222, 1923.595
463.8044, 1939.519
464.2865, 1957.940
464.7686, 1970.125
465.2507, 1977.340
465.7328, 1986.026
466.2149, 1999.643
466.6971, 2013.654
467.1792, 2018.074
467.6613, 2001.222
468.1434, 2000.260
468.6255, 2029.191
469.1076, 2061.541
469.5898, 2079.877
470.0719, 2086.851
470.5540, 2094.688
471.0361, 2111.633
471.5182, 2133.417
472.0003, 2146.865
472.4825, 2147.547
472.9646, 2151.750
473.4467, 2165.340
473.9288, 2181.892
474.4109, 2196.743
474.8930, 2210.094
475.3752, 2226.611
475.8573, 2246.095
476.3394, 2271.512
476.8215, 2312.143
477.3036, 2368.233
477.7857, 2419.689
478.2679, 2452.753
478.7500, 2477.819
479.2321, 2521.733
479.7142, 2589.656
480.1963, 2658.887
480.6784, 2721.580
481.1606, 2786.112
481.6427, 2866.163
482.1248, 2958.310
482.6069, 3042.514
483.0890, 3104.511
483.5711, 3145.995
484.0533, 3178.694
484.5354, 3213.704
485.0175, 3219.518
485.4996, 3192.379
485.9817, 3138.199
486.4638, 3054.936
486.9460, 2945.641
487.4281, 2828.987
487.9102, 2713.994
488.3923, 2602.978
488.8744, 2503.741
489.3565, 2417.409
489.8387, 2336.666
490.3208, 2252.359
490.8029, 2175.582
491.2850, 2128.902
491.7671, 2122.567
492.2492, 2115.745
492.7314, 2091.209
493.2135, 2061.168
493.6956, 2038.120
494.1777, 2023.859
494.6598, 2016.410
495.1419, 2015.226
495.6241, 2018.983
496.1062, 2018.737
496.5883, 2005.347
497.0704, 2001.167
497.5525, 2015.165
498.0346, 2034.093
498.5168, 2046.744
498.9989, 2052.167
499.4810, 2057.107
499.9631, 2068.265
500.4452, 2083.360
500.9273, 2092.339
501.4095, 2093.144
501.8916, 2096.917
502.3737, 2112.266
502.8558, 2131.174
503.3379, 2140.274
503.8200, 2136.844
504.3022, 2134.042
504.7843, 2134.325
505.2664, 2139.218
505.7485, 2153.112
506.2306, 2174.817
506.7127, 2195.986
507.1949, 2211.678
507.6770, 2221.698
508.1591, 2224.928
508.6412, 2215.365
509.1233, 2207.542
509.6054, 2204.239
510.0876, 2201.334
510.5697, 2196.117
511.0518, 2188.358
511.5339, 2178.972
512.0161, 2168.024
512.4982, 2156.319
512.9803, 2148.020
513.4624, 2145.110
513.9445, 2133.086
514.4266, 2100.881
514.9088, 2062.154
515.3909, 2037.004
515.8730, 2026.981
516.3551, 2009.848
516.8372, 1969.243
517.3193, 1925.665
517.8015, 1899.317
518.2836, 1887.961
518.7657, 1877.363
519.2478, 1860.157
519.7299, 1838.758
520.2120, 1818.445
520.6942, 1795.878
521.1763, 1781.043
521.6584, 1779.680
522.1405, 1779.722
522.6226, 1773.668
523.1047, 1763.611
523.5869, 1755.971
524.0690, 1753.914
524.5511, 1756.287
525.0332, 1764.546
525.5153, 1778.595
525.9974, 1781.404
526.4796, 1761.884
526.9617, 1741.428
527.4438, 1749.816
527.9259, 1782.634
528.4080, 1799.113
528.8901, 1776.172
529.3723, 1752.596
529.8544, 1753.131
530.3365, 1769.256
530.8186, 1784.039
531.3007, 1791.659
531.7828, 1796.051
532.2650, 1803.150
532.7471, 1814.310
533.2292, 1819.767
533.7113, 1813.191
534.1934, 1808.070
534.6755, 1812.032
535.1577, 1818.499
535.6398, 1817.490
536.1219, 1805.534
536.6040, 1791.784
537.0861, 1783.727
537.5682, 1780.696
538.0504, 1781.803
538.5325, 1787.592
539.0146, 1792.819
539.4967, 1794.713
539.9788, 1792.842
540.4609, 1785.366
540.9431, 1762.019
541.4252, 1747.592
541.9073, 1755.002
542.3894, 1768.427
542.8715, 1773.321
543.3536, 1768.199
543.8358, 1758.805
544.3179, 1748.766
544.8000, 1739.074
545.2821, 1734.199
545.7642, 1734.894
546.2463, 1738.408
546.7285, 1747.807
547.2106, 1756.984
547.6927, 1761.076
548.1748, 1760.165
548.6569, 1757.779
549.1390, 1753.193
549.6211, 1749.474
550.1032, 1752.215
550.5853, 1759.462
551.0674, 1761.194
551.5496, 1752.396
552.0317, 1741.751
552.5138, 1744.231
552.9959, 1766.386
553.4780, 1779.477
553.9601, 1774.440
554.4423, 1771.440
554.9244, 1779.034
555.4065, 1793.863
555.8886, 1810.954
556.3707, 1828.667
556.8528, 1844.888
557.3350, 1854.632
557.8171, 1859.363
558.2992, 1872.123
558.7813, 1896.250
559.2634, 1921.791
559.7455, 1944.130
560.2277, 1962.479
560.7098, 1975.099
561.1919, 1978.645
561.6740, 1982.388
562.1561, 1988.671
562.6382, 1996.908
563.1204, 2008.949
563.6025, 2023.213
564.0846, 2031.862
564.5667, 2027.653
565.0488, 2016.280
565.5309, 2021.481
566.0131, 2050.849
566.4952, 2077.565
566.9773, 2095.583
567.4594, 2110.778
567.9415, 2124.569
568.4236, 2138.193
568.9058, 2155.884
569.3879, 2179.870
569.8700, 2208.419
570.3521, 2247.671
570.8342, 2291.101
571.3163, 2313.240
571.7985, 2304.928
572.2806, 2287.529
572.7627, 2288.408
573.2448, 2311.471
573.7269, 2315.514
574.2090, 2282.874
574.6912, 2253.331
575.1733, 2241.362
575.6554, 2235.243
576.1375, 2220.542
576.6196, 2194.480
577.1017, 2166.713
577.5839, 2144.054
578.0660, 2126.681
578.5481, 2116.261
579.0302, 2113.429
579.5123, 2112.201
579.9944, 2109.981
580.4766, 2107.717
580.9587, 2107.178
581.4408, 2108.174
581.9229, 2111.021
582.4050, 2115.488
582.8871, 2122.059
583.3693, 2130.483
583.8514, 2141.302
584.3335, 2156.526
584.8156, 2177.035
585.2977, 2199.495
585.7798, 2218.634
586.2620, 2234.107
586.7441, 2250.579
587.2262, 2272.709
587.7083, 2288.697
588.1904, 2286.675
588.6725, 2275.529
589.1547, 2270.859
589.6368, 2279.820
590.1189, 2281.708
590.6010, 2264.849
591.0831, 2236.209
591.5652, 2203.449
592.0474, 2167.824
592.5295, 2127.884
593.0116, 2081.801
593.4937, 2033.696
593.9758, 1996.230
594.4579, 1973.949
594.9401, 1951.927
595.4222, 1928.506
595.9043, 1905.725
596.3864, 1884.572
596.8685, 1864.967
597.3506, 1846.428
597.8328, 1828.084
598.3149, 1812.289
598.7970, 1801.083
599.2791, 1794.047
599.7612, 1791.953
600.2433, 1794.966
600.7255, 1794.617
601.2076, 1781.655
601.6897, 1759.049
602.1718, 1751.246
602.6539, 1776.848
603.1360, 1791.994
603.6182, 1781.521
604.1003, 1768.967
604.5824, 1773.854
605.0645, 1794.086
605.5466, 1813.800
606.0287, 1824.599
606.5109, 1829.119
606.9930, 1827.638
607.4751, 1821.772
607.9572, 1825.453
608.4393, 1843.609
608.9214, 1866.587
609.4036, 1885.487
609.8857, 1900.295
610.3678, 1913.207
610.8499, 1924.911
611.3320, 1934.016
611.8141, 1936.562
612.2963, 1938.650
612.7784, 1946.576
613.2605, 1960.733
613.7426, 1977.446
614.2247, 1996.155
614.7068, 2013.621
615.1890, 2019.948
615.6711, 2014.573
616.1532, 2010.662
616.6353, 2011.933
617.1174, 2016.241
617.5995, 2024.211
618.0817, 2035.939
618.5638, 2035.261
619.0459, 2008.033
619.5280, 1983.947
620.0101, 1980.442
620.4922, 1983.546
620.9744, 1973.615
621.4565, 1948.246
621.9386, 1922.259
622.4207, 1911.555
622.9028, 1909.776
623.3849, 1889.059
623.8671, 1845.054
624.3492, 1807.587
624.8313, 1786.964
625.3134, 1775.125
625.7955, 1764.417
626.2776, 1754.745
626.7598, 1744.128
627.2419, 1731.067
627.7240, 1718.375
628.2061, 1705.066
628.6882, 1694.091
629.1703, 1690.057
629.6525, 1693.762
630.1346, 1702.822
630.6167, 1718.264
631.0988, 1736.515
631.5809, 1733.666
632.0630, 1701.502
632.5452, 1680.650
633.0273, 1687.912
633.5094, 1707.433
633.9915, 1723.578
634.4736, 1736.383
634.9557, 1745.196
635.4379, 1746.449
635.9200, 1747.161
636.4021, 1750.038
636.8842, 1755.404
637.3663, 1764.041
637.8484, 1775.868
638.3306, 1788.881
638.8127, 1800.117
639.2948, 1810.945
639.7769, 1832.386
640.2590, 1870.886
640.7411, 1897.024
641.2233, 1898.050
641.7054, 1887.062
