##NAMES=Axinite-(Mg)
##RRUFFID=R070133
##IDEAL CHEMISTRY=Ca_4_Mg_2_Al_4_[B_2_Si_8_O_30_](OH)_2_
##LOCALITY=Merelani, Tanzania
##OWNER=RRUFF
##SOURCE=Michael Gray
##DESCRIPTION=Pale brown cut gem stone
##STATUS=The identification of this mineral is confirmed by single-crystal X-ray diffraction and chemical analysis.
##URL=rruff.info/R070133
##MEASURED CHEMISTRY=Ca_4.00_(Mg_1.86_Al_0.08_Mn_0.06_)_Σ=2_Al_4.00_[B_2_(Si_7.92_Al_0.08_)_Σ=8_O_30_](OH)_2_; B and OH not measured but assumed by stoichiometry
120.2904, 1105.854
120.7725, 1178.047
121.2547, 1258.821
121.7368, 1347.741
122.2189, 1449.586
122.7010, 1558.038
123.1831, 1665.996
123.6652, 1768.542
124.1474, 1870.755
124.6295, 1979.633
125.1116, 2095.415
125.5937, 2211.488
126.0758, 2322.635
126.5579, 2429.754
127.0401, 2533.255
127.5222, 2630.296
128.0043, 2724.891
128.4864, 2828.724
128.9685, 2946.175
129.4506, 3062.955
129.9328, 3154.479
130.4149, 3222.626
130.8970, 3295.985
131.3791, 3397.522
131.8612, 3523.386
132.3433, 3641.579
132.8255, 3748.300
133.3076, 3845.237
133.7897, 3934.851
134.2718, 4016.368
134.7539, 4096.558
135.2360, 4188.631
135.7182, 4296.038
136.2003, 4377.984
136.6824, 4417.438
137.1645, 4418.397
137.6466, 4437.951
138.1287, 4483.451
138.6109, 4535.145
139.0930, 4563.289
139.5751, 4558.938
140.0572, 4558.863
140.5393, 4577.592
141.0215, 4621.125
141.5036, 4654.580
141.9857, 4667.235
142.4678, 4675.068
142.9499, 4718.349
143.4320, 4814.349
143.9142, 4918.397
144.3963, 5008.662
144.8784, 5079.010
145.3605, 5147.756
145.8426, 5209.682
146.3247, 5268.049
146.8069, 5348.636
147.2890, 5466.016
147.7711, 5593.746
148.2532, 5714.876
148.7353, 5825.939
149.2174, 5934.489
149.6996, 6046.517
150.1817, 6165.712
150.6638, 6257.951
151.1459, 6318.755
151.6280, 6354.217
152.1101, 6370.109
152.5923, 6355.854
153.0744, 6332.305
153.5565, 6299.857
154.0386, 6252.342
154.5207, 6218.365
155.0028, 6202.971
155.4850, 6203.211
155.9671, 6214.412
156.4492, 6244.960
156.9313, 6279.210
157.4134, 6309.949
157.8955, 6332.742
158.3777, 6359.063
158.8598, 6388.735
159.3419, 6423.859
159.8240, 6469.729
160.3061, 6536.969
160.7882, 6610.756
161.2704, 6682.037
161.7525, 6761.011
162.2346, 6823.646
162.7167, 6861.181
163.1988, 6874.503
163.6809, 6866.591
164.1631, 6827.530
164.6452, 6772.295
165.1273, 6715.833
165.6094, 6651.559
166.0915, 6597.110
166.5736, 6566.248
167.0558, 6559.596
167.5379, 6559.878
168.0200, 6559.188
168.5021, 6558.115
168.9842, 6557.560
169.4663, 6556.437
169.9485, 6556.813
170.4306, 6561.614
170.9127, 6571.902
171.3948, 6582.000
171.8769, 6585.561
172.3591, 6585.060
172.8412, 6586.488
173.3233, 6594.389
173.8054, 6605.626
174.2875, 6615.528
174.7696, 6622.027
175.2518, 6630.467
175.7339, 6650.752
176.2160, 6679.988
176.6981, 6704.205
177.1802, 6709.522
177.6623, 6704.139
178.1445, 6703.615
178.6266, 6712.204
179.1087, 6726.114
179.5908, 6740.252
180.0729, 6754.619
180.5550, 6770.166
181.0372, 6788.300
181.5193, 6808.318
182.0014, 6827.157
182.4835, 6841.233
182.9656, 6855.027
183.4477, 6879.505
183.9299, 6915.108
184.4120, 6954.235
184.8941, 6989.110
185.3762, 7020.838
185.8583, 7053.458
186.3404, 7091.576
186.8226, 7132.064
187.3047, 7164.601
187.7868, 7188.031
188.2689, 7207.531
188.7510, 7228.773
189.2331, 7251.628
189.7153, 7275.934
190.1974, 7305.824
190.6795, 7338.837
191.1616, 7356.124
191.6437, 7352.102
192.1258, 7342.684
192.6080, 7355.764
193.0901, 7392.141
193.5722, 7434.629
194.0543, 7473.628
194.5364, 7509.323
195.0185, 7551.673
195.5007, 7605.557
195.9828, 7661.552
196.4649, 7699.352
196.9470, 7719.763
197.4291, 7720.745
197.9112, 7692.354
198.3934, 7632.632
198.8755, 7584.980
199.3576, 7555.094
199.8397, 7541.052
200.3218, 7540.428
200.8039, 7557.445
201.2861, 7573.103
201.7682, 7564.884
202.2503, 7526.548
202.7324, 7511.733
203.2145, 7538.487
203.6967, 7598.810
204.1788, 7634.376
204.6609, 7636.897
205.1430, 7633.218
205.6251, 7651.808
206.1072, 7698.963
206.5894, 7739.971
207.0715, 7764.149
207.5536, 7772.055
208.0357, 7788.407
208.5178, 7814.419
208.9999, 7847.037
209.4821, 7882.633
209.9642, 7920.025
210.4463, 7964.528
210.9284, 8021.044
211.4105, 8090.901
211.8926, 8151.750
212.3748, 8205.260
212.8569, 8247.889
213.3390, 8271.952
213.8211, 8268.875
214.3032, 8268.571
214.7853, 8284.420
215.2675, 8322.196
215.7496, 8345.581
216.2317, 8350.930
216.7138, 8344.475
217.1959, 8335.751
217.6780, 8319.682
218.1602, 8311.638
218.6423, 8316.858
219.1244, 8334.333
219.6065, 8370.235
220.0886, 8433.437
220.5707, 8512.143
221.0529, 8574.360
221.5350, 8616.872
222.0171, 8650.383
222.4992, 8679.474
222.9813, 8702.467
223.4634, 8725.800
223.9456, 8755.377
224.4277, 8784.777
224.9098, 8788.120
225.3919, 8751.496
225.8740, 8710.161
226.3561, 8681.813
226.8383, 8667.203
227.3204, 8665.774
227.8025, 8685.647
228.2846, 8719.885
228.7667, 8733.838
229.2488, 8718.637
229.7310, 8694.685
230.2131, 8672.085
230.6952, 8643.420
231.1773, 8633.141
231.6594, 8650.733
232.1415, 8691.633
232.6237, 8720.225
233.1058, 8735.152
233.5879, 8739.389
234.0700, 8731.885
234.5521, 8698.008
235.0343, 8682.428
235.5164, 8697.541
235.9985, 8741.145
236.4806, 8772.108
236.9627, 8783.883
237.4448, 8789.887
237.9270, 8799.843
238.4091, 8810.689
238.8912, 8831.599
239.3733, 8866.937
239.8554, 8916.585
240.3375, 8962.711
240.8197, 9006.813
241.3018, 9045.868
241.7839, 9077.932
242.2660, 9103.941
242.7481, 9120.902
243.2302, 9126.043
243.7124, 9118.770
244.1945, 9113.351
244.6766, 9108.263
245.1587, 9106.504
245.6408, 9112.039
246.1229, 9130.055
246.6051, 9145.122
247.0872, 9150.465
247.5693, 9143.908
248.0514, 9156.074
248.5335, 9200.545
249.0156, 9251.682
249.4978, 9275.752
249.9799, 9250.447
250.4620, 9242.550
250.9441, 9274.362
251.4262, 9352.328
251.9083, 9409.752
252.3905, 9439.475
252.8726, 9454.659
253.3547, 9468.723
253.8368, 9475.920
254.3189, 9494.231
254.8010, 9532.500
255.2832, 9595.090
255.7653, 9645.589
256.2474, 9682.991
256.7295, 9708.756
257.2116, 9719.885
257.6938, 9702.678
258.1759, 9701.452
258.6580, 9732.688
259.1401, 9801.338
259.6222, 9864.737
260.1043, 9919.743
260.5865, 9972.044
261.0686, 10028.48
261.5507, 10089.30
262.0328, 10153.32
262.5149, 10220.08
262.9970, 10289.46
263.4792, 10365.78
263.9613, 10453.87
264.4434, 10544.79
264.9255, 10622.51
265.4076, 10678.74
265.8897, 10744.96
266.3719, 10835.22
266.8540, 10951.98
267.3361, 11063.41
267.8182, 11166.84
268.3003, 11266.65
268.7824, 11376.97
269.2646, 11508.59
269.7467, 11613.66
270.2288, 11676.95
270.7109, 11696.63
271.1930, 11688.06
271.6751, 11643.90
272.1573, 11581.78
272.6394, 11524.42
273.1215, 11469.82
273.6036, 11429.24
274.0857, 11415.33
274.5678, 11430.18
275.0500, 11415.24
275.5321, 11362.12
276.0142, 11293.48
276.4963, 11251.03
276.9784, 11242.67
277.4605, 11208.96
277.9427, 11111.30
278.4248, 10952.35
278.9069, 10837.38
279.3890, 10774.15
279.8711, 10740.42
280.3532, 10705.70
280.8354, 10669.26
281.3175, 10640.55
281.7996, 10627.21
282.2817, 10627.54
282.7638, 10618.51
283.2459, 10596.00
283.7281, 10576.01
284.2102, 10578.50
284.6923, 10603.51
285.1744, 10647.07
285.6565, 10725.83
286.1386, 10828.48
286.6208, 10875.71
287.1029, 10858.73
287.5850, 10819.70
288.0671, 10808.09
288.5492, 10822.52
289.0313, 10845.47
289.5135, 10872.27
289.9956, 10902.21
290.4777, 10932.93
290.9598, 10964.46
291.4419, 10997.30
291.9240, 11033.69
292.4062, 11072.88
292.8883, 11109.03
293.3704, 11130.82
293.8525, 11149.12
294.3346, 11201.60
294.8167, 11291.41
295.2989, 11378.43
295.7810, 11403.04
296.2631, 11384.88
296.7452, 11393.93
297.2273, 11475.80
297.7094, 11595.36
298.1916, 11693.16
298.6737, 11767.85
299.1558, 11835.71
299.6379, 11914.54
300.1200, 11997.61
300.6021, 12071.38
301.0843, 12137.61
301.5664, 12187.25
302.0485, 12205.20
302.5306, 12192.03
303.0127, 12162.40
303.4948, 12122.42
303.9770, 12074.77
304.4591, 12023.12
304.9412, 11968.71
305.4233, 11911.40
305.9054, 11846.36
306.3875, 11775.13
306.8697, 11711.85
307.3518, 11659.07
307.8339, 11622.58
308.3160, 11611.51
308.7981, 11642.77
309.2802, 11687.42
309.7624, 11730.78
310.2445, 11771.49
310.7266, 11799.15
311.2087, 11790.73
311.6909, 11773.73
312.1730, 11776.35
312.6551, 11820.57
313.1372, 11870.45
313.6193, 11908.24
314.1014, 11935.46
314.5836, 11957.85
315.0657, 11968.05
315.5478, 11980.09
316.0299, 12005.49
316.5120, 12056.67
316.9941, 12108.67
317.4763, 12148.17
317.9584, 12179.84
318.4405, 12219.38
318.9226, 12276.57
319.4047, 12339.77
319.8868, 12403.94
320.3690, 12482.45
320.8511, 12539.76
321.3332, 12556.66
321.8153, 12545.25
322.2974, 12538.04
322.7795, 12554.49
323.2617, 12566.13
323.7438, 12558.38
324.2259, 12511.99
324.7080, 12478.61
325.1901, 12470.03
325.6722, 12477.54
326.1544, 12482.46
326.6365, 12488.63
327.1186, 12487.78
327.6007, 12475.70
328.0828, 12444.65
328.5649, 12420.64
329.0471, 12404.23
329.5292, 12394.72
330.0113, 12391.16
330.4934, 12397.34
330.9755, 12404.43
331.4576, 12409.06
331.9398, 12409.25
332.4219, 12415.53
332.9040, 12424.50
333.3861, 12442.28
333.8682, 12482.41
334.3503, 12568.79
334.8325, 12625.97
335.3146, 12620.40
335.7967, 12547.76
336.2788, 12534.92
336.7609, 12600.34
337.2430, 12697.08
337.7252, 12776.85
338.2073, 12839.99
338.6894, 12888.83
339.1715, 12919.76
339.6536, 12936.22
340.1357, 12961.03
340.6179, 12994.56
341.1000, 13035.90
341.5821, 13092.88
342.0642, 13165.46
342.5463, 13214.31
343.0284, 13219.19
343.5106, 13203.24
343.9927, 13239.83
344.4748, 13331.69
344.9569, 13432.10
345.4390, 13496.93
345.9211, 13534.97
346.4033, 13599.06
346.8854, 13705.83
347.3675, 13827.90
347.8496, 13916.01
348.3317, 13972.39
348.8138, 14020.04
349.2960, 14077.74
349.7781, 14136.19
350.2602, 14175.82
350.7423, 14191.51
351.2244, 14195.43
351.7065, 14199.36
352.1887, 14202.64
352.6708, 14202.95
353.1529, 14197.98
353.6350, 14189.81
354.1171, 14181.65
354.5992, 14174.23
355.0814, 14163.05
355.5635, 14137.14
356.0456, 14105.65
356.5277, 14084.63
357.0098, 14097.52
357.4919, 14111.71
357.9741, 14099.08
358.4562, 14057.79
358.9383, 14021.29
359.4204, 14013.94
359.9025, 14018.76
360.3846, 14016.80
360.8668, 13999.77
361.3489, 13976.62
361.8310, 13949.06
362.3131, 13917.50
362.7952, 13886.75
363.2773, 13846.76
363.7595, 13815.08
364.2416, 13804.03
364.7237, 13827.74
365.2058, 13859.18
365.6879, 13904.09
366.1700, 13956.78
366.6522, 13989.94
367.1343, 13979.79
367.6164, 13965.68
368.0985, 13965.86
368.5806, 13990.44
369.0627, 14014.13
369.5449, 14037.57
370.0270, 14059.87
370.5091, 14079.86
370.9912, 14095.71
371.4733, 14111.74
371.9554, 14128.70
372.4376, 14145.68
372.9197, 14168.28
373.4018, 14199.88
373.8839, 14233.61
374.3661, 14257.83
374.8482, 14266.84
375.3303, 14284.19
375.8124, 14322.06
376.2945, 14378.82
376.7766, 14415.11
377.2588, 14425.90
377.7409, 14428.93
378.2230, 14441.82
378.7051, 14464.62
379.1872, 14491.03
379.6693, 14520.62
380.1515, 14552.08
380.6336, 14575.87
381.1157, 14591.22
381.5978, 14617.08
382.0799, 14686.76
382.5620, 14783.56
383.0442, 14839.43
383.5263, 14831.04
384.0084, 14800.13
384.4905, 14806.07
384.9726, 14844.32
385.4547, 14888.99
385.9369, 14930.33
386.4190, 14967.30
386.9011, 14995.38
387.3832, 15011.40
387.8653, 15032.17
388.3474, 15074.90
388.8296, 15133.11
389.3117, 15193.36
389.7938, 15251.87
390.2759, 15307.52
390.7580, 15356.64
391.2401, 15398.26
391.7223, 15446.93
392.2044, 15524.55
392.6865, 15607.15
393.1686, 15670.78
393.6507, 15696.45
394.1328, 15711.60
394.6150, 15724.43
395.0971, 15734.68
395.5792, 15738.47
396.0613, 15726.26
396.5434, 15713.12
397.0255, 15707.69
397.5077, 15709.79
397.9898, 15721.40
398.4719, 15751.62
398.9540, 15792.19
399.4361, 15819.46
399.9182, 15820.01
400.4004, 15821.85
400.8825, 15832.96
401.3646, 15849.67
401.8467, 15890.59
402.3288, 15972.75
402.8109, 16064.94
403.2931, 16116.83
403.7752, 16112.83
404.2573, 16111.99
404.7394, 16131.85
405.2215, 16171.77
405.7036, 16210.23
406.1858, 16245.39
406.6679, 16284.15
407.1500, 16341.84
407.6321, 16418.51
408.1142, 16468.37
408.5963, 16473.38
409.0785, 16452.60
409.5606, 16450.79
410.0427, 16467.84
410.5248, 16490.63
411.0069, 16507.00
411.4890, 16522.25
411.9712, 16552.20
412.4533, 16601.82
412.9354, 16658.11
413.4175, 16703.07
413.8996, 16741.17
414.3817, 16784.01
414.8639, 16839.82
415.3460, 16901.85
415.8281, 16963.07
416.3102, 17023.36
416.7923, 17083.10
417.2744, 17137.53
417.7566, 17192.23
418.2387, 17252.72
418.7208, 17350.24
419.2029, 17427.29
419.6850, 17434.93
420.1671, 17386.19
420.6493, 17378.14
421.1314, 17518.78
421.6135, 17657.99
422.0956, 17703.32
422.5777, 17559.89
423.0598, 17438.78
423.5420, 17368.74
424.0241, 17336.73
424.5062, 17308.65
424.9883, 17256.29
425.4704, 17239.71
425.9525, 17288.51
426.4347, 17425.58
426.9168, 17523.84
427.3989, 17576.44
427.8810, 17598.00
428.3631, 17597.79
428.8452, 17561.20
429.3274, 17551.78
429.8095, 17591.00
430.2916, 17669.80
430.7737, 17737.14
431.2558, 17791.88
431.7379, 17839.71
432.2201, 17876.80
432.7022, 17905.40
433.1843, 17959.92
433.6664, 18054.31
434.1486, 18156.14
434.6307, 18209.18
435.1128, 18218.59
435.5949, 18217.72
436.0770, 18218.77
436.5591, 18223.27
437.0413, 18235.63
437.5234, 18256.68
438.0055, 18278.28
438.4876, 18298.40
438.9697, 18313.62
439.4518, 18318.10
439.9340, 18299.60
440.4161, 18278.08
440.8982, 18260.07
441.3803, 18247.61
441.8624, 18252.56
442.3445, 18292.51
442.8267, 18344.18
443.3088, 18391.12
443.7909, 18425.70
444.2730, 18463.26
444.7551, 18514.79
445.2372, 18571.16
445.7194, 18614.50
446.2015, 18630.64
446.6836, 18645.25
447.1657, 18664.12
447.6478, 18686.65
448.1299, 18718.21
448.6121, 18769.72
449.0942, 18820.21
449.5763, 18847.54
450.0584, 18845.35
450.5405, 18836.86
451.0226, 18822.46
451.5048, 18805.16
451.9869, 18798.52
452.4690, 18804.59
452.9511, 18812.69
453.4332, 18810.11
453.9153, 18799.01
454.3975, 18814.04
454.8796, 18863.40
455.3617, 18922.43
455.8438, 18958.43
456.3259, 18973.83
456.8080, 18982.66
457.2902, 18985.60
457.7723, 18987.79
458.2544, 18993.80
458.7365, 19004.05
459.2186, 19026.97
459.7007, 19087.51
460.1829, 19158.37
460.6650, 19203.37
461.1471, 19200.17
461.6292, 19188.96
462.1113, 19187.09
462.5934, 19194.48
463.0756, 19210.67
463.5577, 19244.19
464.0398, 19279.69
464.5219, 19305.80
465.0040, 19314.43
465.4861, 19341.81
465.9683, 19414.31
466.4504, 19498.85
466.9325, 19560.96
467.4146, 19577.74
467.8967, 19601.28
468.3788, 19639.94
468.8610, 19691.95
469.3431, 19747.09
469.8252, 19814.73
470.3073, 19868.84
470.7894, 19882.20
471.2715, 19840.97
471.7537, 19855.49
472.2358, 19950.76
472.7179, 20067.77
473.2000, 20090.11
473.6821, 20018.98
474.1642, 19981.50
474.6464, 20054.31
475.1285, 20191.24
475.6106, 20259.31
476.0927, 20258.47
476.5748, 20246.24
477.0569, 20269.44
477.5391, 20314.72
478.0212, 20358.27
478.5033, 20393.14
478.9854, 20427.92
479.4675, 20469.59
479.9496, 20516.62
480.4318, 20565.15
480.9139, 20613.94
481.3960, 20662.64
481.8781, 20711.07
482.3602, 20759.42
482.8423, 20806.99
483.3245, 20848.97
483.8066, 20892.75
484.2887, 20945.23
484.7708, 21021.90
485.2529, 21089.07
485.7350, 21130.81
486.2172, 21158.47
486.6993, 21222.62
487.1814, 21354.69
487.6635, 21475.22
488.1456, 21543.41
488.6277, 21544.58
489.1099, 21569.36
489.5920, 21623.63
490.0741, 21691.00
490.5562, 21763.93
491.0383, 21844.16
491.5204, 21880.22
492.0026, 21844.71
492.4847, 21765.36
492.9668, 21706.79
493.4489, 21668.73
493.9310, 21644.21
494.4131, 21623.30
494.8953, 21614.15
495.3774, 21639.48
495.8595, 21710.81
496.3416, 21778.84
496.8238, 21793.05
497.3059, 21778.55
497.7880, 21778.16
498.2701, 21822.26
498.7522, 21873.65
499.2343, 21907.15
499.7165, 21925.20
500.1986, 21961.32
500.6807, 22049.89
501.1628, 22141.77
501.6449, 22207.98
502.1270, 22223.13
502.6092, 22247.66
503.0913, 22289.27
503.5734, 22338.82
504.0555, 22380.34
504.5376, 22404.52
505.0197, 22439.27
505.5019, 22498.94
505.9840, 22580.17
506.4661, 22628.83
506.9482, 22638.15
507.4303, 22638.68
507.9124, 22654.71
508.3946, 22685.34
508.8767, 22717.07
509.3588, 22749.22
509.8409, 22779.89
510.3230, 22795.70
510.8051, 22804.26
511.2873, 22836.10
511.7694, 22927.24
512.2515, 23038.01
512.7336, 23132.25
513.2157, 23208.19
513.6978, 23251.43
514.1799, 23223.68
514.6620, 23173.75
515.1442, 23147.07
515.6263, 23160.41
516.1084, 23186.64
516.5905, 23228.35
517.0726, 23276.01
517.5547, 23310.25
518.0369, 23321.78
518.5190, 23326.01
519.0011, 23320.01
519.4832, 23301.85
519.9653, 23310.36
520.4474, 23353.85
520.9296, 23413.10
521.4117, 23477.28
521.8938, 23548.60
522.3759, 23615.16
522.8580, 23677.47
523.3401, 23732.64
523.8223, 23775.10
524.3044, 23804.60
524.7865, 23829.60
525.2686, 23857.65
525.7507, 23882.47
526.2328, 23880.62
526.7150, 23853.01
527.1971, 23832.08
527.6793, 23833.05
528.1614, 23860.33
528.6435, 23927.08
529.1256, 24052.95
529.6077, 24174.94
530.0898, 24257.26
530.5720, 24307.54
531.0541, 24341.38
531.5362, 24347.99
532.0183, 24353.73
532.5004, 24366.61
532.9825, 24387.12
533.4647, 24415.15
533.9468, 24456.08
534.4289, 24500.19
534.9110, 24540.61
535.3931, 24563.06
535.8752, 24616.38
536.3574, 24715.33
536.8395, 24831.30
537.3216, 24926.22
537.8037, 25002.84
538.2858, 25031.78
538.7679, 24980.56
539.2501, 24881.49
539.7322, 24850.45
540.2143, 24887.33
540.6964, 24948.66
541.1785, 25005.03
541.6606, 25062.42
542.1428, 25135.38
542.6249, 25229.99
543.1070, 25320.61
543.5891, 25382.77
544.0712, 25427.40
544.5533, 25471.66
545.0355, 25518.18
545.5176, 25569.38
545.9997, 25631.16
546.4818, 25701.12
546.9639, 25761.67
547.4460, 25811.19
547.9282, 25848.33
548.4103, 25868.86
548.8924, 25859.74
549.3745, 25875.27
549.8566, 25929.63
550.3387, 25994.88
550.8209, 26036.97
551.3030, 26048.63
551.7851, 26069.00
552.2672, 26107.15
552.7493, 26157.24
553.2314, 26203.07
553.7136, 26244.69
554.1957, 26289.88
554.6778, 26356.45
555.1599, 26427.81
555.6420, 26456.95
556.1241, 26441.12
556.6063, 26425.13
557.0884, 26449.11
557.5705, 26494.23
558.0526, 26534.04
558.5347, 26543.72
559.0168, 26574.75
559.4990, 26686.23
559.9811, 26835.45
560.4632, 26930.67
560.9453, 26885.96
561.4274, 26845.03
561.9095, 26859.85
562.3917, 26933.17
562.8738, 27003.14
563.3559, 27076.76
563.8380, 27136.38
564.3201, 27160.45
564.8022, 27132.63
565.2844, 27149.99
565.7665, 27229.36
566.2486, 27335.10
566.7307, 27417.91
567.2128, 27477.78
567.6949, 27520.72
568.1771, 27541.07
568.6592, 27552.10
569.1413, 27576.41
569.6234, 27613.06
570.1055, 27657.67
570.5876, 27718.64
571.0698, 27779.44
571.5519, 27818.54
572.0340, 27828.77
572.5161, 27848.38
572.9982, 27899.23
573.4803, 27966.51
573.9625, 28034.12
574.4446, 28102.17
574.9267, 28167.70
575.4088, 28236.47
575.8909, 28303.03
576.3730, 28345.43
576.8552, 28338.90
577.3373, 28356.41
577.8194, 28437.98
578.3015, 28579.85
578.7836, 28658.91
579.2657, 28662.30
579.7479, 28655.36
580.2300, 28702.75
580.7121, 28790.85
581.1942, 28849.72
581.6763, 28862.12
582.1584, 28869.07
582.6406, 28933.58
583.1227, 29027.71
583.6048, 29090.77
584.0869, 29039.39
584.5690, 28998.60
585.0511, 29069.90
585.5333, 29230.38
586.0154, 29361.93
586.4975, 29397.88
586.9796, 29417.71
587.4617, 29463.88
587.9438, 29553.51
588.4260, 29617.95
588.9081, 29638.85
589.3902, 29650.71
589.8723, 29686.54
590.3544, 29753.75
590.8365, 29815.88
591.3187, 29864.77
591.8008, 29911.82
592.2829, 29996.40
592.7650, 30115.29
593.2471, 30196.39
593.7292, 30167.79
594.2114, 30096.75
594.6935, 30128.31
595.1756, 30251.52
595.6577, 30357.48
596.1398, 30357.58
596.6219, 30312.39
597.1041, 30273.38
597.5862, 30243.16
598.0683, 30243.00
598.5504, 30302.68
599.0325, 30388.34
599.5146, 30461.17
599.9968, 30499.66
600.4789, 30546.32
600.9610, 30610.16
601.4431, 30684.01
601.9252, 30746.07
602.4073, 30793.03
602.8895, 30834.34
603.3716, 30874.40
603.8537, 30912.06
604.3358, 30936.46
604.8179, 30945.87
605.3000, 30958.94
605.7822, 30990.71
606.2643, 31037.75
606.7464, 31093.59
607.2285, 31156.60
607.7106, 31229.20
608.1927, 31327.99
608.6749, 31433.79
609.1570, 31516.08
609.6391, 31548.32
610.1212, 31572.90
610.6033, 31607.99
611.0854, 31649.04
611.5676, 31677.19
612.0497, 31650.01
612.5318, 31654.24
613.0139, 31729.39
613.4960, 31883.03
613.9781, 31982.75
614.4603, 32008.92
