##NAMES=Axinite-(Fe)
##RRUFFID=R060194
##IDEAL CHEMISTRY=Ca_4_Fe^2+^_2_Al_4_[B_2_Si_8_O_30_](OH)_2_
##LOCALITY=near Dalbandi, Baluchistan Province, Pakistan
##OWNER=RRUFF
##SOURCE=Herbert Obodda
##DESCRIPTION=Brown transparent wedge-shaped single crystal
##STATUS=The identification of this mineral has been confirmed by X-ray diffraction and chemical analysis
##URL=rruff.info/R060194
##MEASURED CHEMISTRY=Ca_2.00_(Fe^2+^_0.66_Mg_0.30_Mn_0.04_)Al_2.00_BSi_4.00_O_15_(OH)
92.07813, 18.87780
92.56024, 18.77142
93.04236, 18.89868
93.52448, 19.18104
94.00659, 19.32824
94.48871, 18.94805
94.97083, 18.29787
95.45294, 18.15149
95.93506, 18.75433
96.41718, 19.57702
96.89929, 19.64939
97.38141, 18.96283
97.86353, 18.10303
98.34564, 17.42717
98.82776, 16.94300
99.30988, 16.59552
99.79199, 16.46665
100.2741, 16.44071
100.7562, 15.91851
101.2383, 14.67312
101.7205, 13.56015
102.2026, 13.47802
102.6847, 14.73226
103.1668, 15.83880
103.6489, 16.44372
104.1310, 16.52765
104.6132, 16.86754
105.0953, 17.91299
105.5774, 18.78476
106.0595, 18.22727
106.5416, 14.92081
107.0237, 12.19609
107.5059, 10.92998
107.9880, 11.52355
108.4701, 12.38681
108.9522, 13.87302
109.4343, 15.56327
109.9164, 16.72691
110.3986, 16.90787
110.8807, 16.92513
111.3628, 17.01160
111.8449, 17.13023
112.3270, 17.38383
112.8091, 17.96067
113.2913, 18.70342
113.7734, 19.17652
114.2555, 19.08210
114.7376, 18.85527
115.2197, 18.73074
115.7018, 18.91500
116.1840, 19.01724
116.6661, 18.65337
117.1482, 17.99129
117.6303, 17.90336
118.1124, 19.12287
118.5945, 20.87957
119.0767, 22.49765
119.5588, 23.60551
120.0409, 24.67272
120.5230, 25.77227
121.0051, 26.92035
121.4872, 28.53445
121.9694, 31.00983
122.4515, 34.06766
122.9336, 37.33588
123.4157, 40.73216
123.8978, 44.19574
124.3799, 47.74987
124.8621, 51.41776
125.3442, 54.88575
125.8263, 57.80164
126.3084, 60.29776
126.7905, 62.70804
127.2726, 65.30166
127.7548, 67.87099
128.2369, 69.94807
128.7190, 71.39373
129.2011, 72.75864
129.6832, 74.97923
130.1653, 77.86649
130.6474, 80.41135
131.1296, 81.13937
131.6117, 80.85759
132.0938, 82.64104
132.5759, 87.20515
133.0580, 93.35107
133.5401, 98.44125
134.0223, 102.4432
134.5044, 107.3230
134.9865, 114.7317
135.4686, 124.6877
135.9507, 134.8161
136.4328, 144.8045
136.9150, 154.9299
137.3971, 165.9657
137.8792, 178.1004
138.3613, 190.6393
138.8434, 203.6162
139.3255, 217.3920
139.8077, 228.9843
140.2898, 237.7979
140.7719, 243.9236
141.2540, 248.9827
141.7361, 253.1498
142.2182, 255.8796
142.7004, 256.4002
143.1825, 253.9985
143.6646, 251.0699
144.1467, 247.9297
144.6288, 244.4731
145.1109, 241.7380
145.5931, 239.3698
146.0752, 237.9814
146.5573, 238.2989
147.0394, 240.6660
147.5215, 244.2601
148.0036, 248.7230
148.4858, 253.9097
148.9679, 260.8117
149.4500, 269.5693
149.9321, 280.0197
150.4142, 291.7281
150.8963, 306.4152
151.3785, 320.9660
151.8606, 334.5694
152.3427, 347.9669
152.8248, 359.3098
153.3069, 367.2908
153.7890, 373.3705
154.2712, 378.9239
154.7533, 383.4506
155.2354, 387.5975
155.7175, 391.0808
156.1996, 394.2036
156.6817, 395.9348
157.1639, 396.4339
157.6460, 395.5171
158.1281, 392.7118
158.6102, 387.4256
159.0923, 380.6728
159.5744, 372.7600
160.0566, 362.7383
160.5387, 353.3546
161.0208, 344.5135
161.5029, 336.7408
161.9850, 331.6557
162.4671, 331.1128
162.9493, 332.5988
163.4314, 334.3537
163.9135, 334.8610
164.3956, 336.9569
164.8777, 341.8634
165.3598, 349.3504
165.8420, 358.5568
166.3241, 368.8716
166.8062, 380.7686
167.2883, 394.7702
167.7704, 412.8838
168.2525, 431.2056
168.7346, 448.2387
169.2168, 463.8846
169.6989, 477.4114
170.1810, 491.2271
170.6631, 501.8899
171.1452, 505.2538
171.6273, 498.3199
172.1095, 484.9315
172.5916, 466.7086
173.0737, 443.9361
173.5558, 419.6987
174.0379, 394.7324
174.5201, 370.0673
175.0022, 346.9104
175.4843, 325.8510
175.9664, 306.2855
176.4485, 287.9474
176.9306, 270.6545
177.4128, 254.8866
177.8949, 241.4576
178.3770, 229.9252
178.8591, 219.0053
179.3412, 207.8256
179.8233, 197.0676
180.3055, 187.9038
180.7876, 180.2906
181.2697, 173.5357
181.7518, 166.5753
182.2339, 159.7818
182.7160, 154.1278
183.1982, 150.4353
183.6803, 148.1544
184.1624, 146.1435
184.6445, 144.3860
185.1266, 143.0448
185.6087, 142.3217
186.0909, 142.1806
186.5730, 142.4746
187.0551, 143.2455
187.5372, 144.4060
188.0193, 145.5236
188.5014, 146.4612
188.9836, 147.9114
189.4657, 150.7915
189.9478, 155.0284
190.4299, 160.1773
190.9120, 166.0132
191.3941, 172.5219
191.8763, 180.0827
192.3584, 188.9216
192.8405, 198.0586
193.3226, 206.6044
193.8047, 214.5226
194.2868, 221.5381
194.7690, 228.2194
195.2511, 234.3566
195.7332, 237.1455
196.2153, 236.0799
196.6974, 232.7134
197.1795, 228.9869
197.6617, 224.7537
198.1438, 221.7486
198.6259, 220.7088
199.1080, 221.6191
199.5901, 224.3352
200.0722, 229.1736
200.5544, 235.3068
201.0365, 241.1305
201.5186, 246.5658
202.0007, 252.3593
202.4828, 258.6845
202.9649, 265.4911
203.4471, 273.6051
203.9292, 283.5016
204.4113, 294.2582
204.8934, 304.0098
205.3755, 312.3285
205.8576, 320.9726
206.3398, 331.0915
206.8219, 343.0791
207.3040, 353.8792
207.7861, 363.1928
208.2682, 371.4224
208.7503, 379.5136
209.2325, 387.7436
209.7146, 394.7421
210.1967, 399.7404
210.6788, 402.4741
211.1609, 404.6467
211.6430, 406.6599
212.1252, 407.8485
212.6073, 406.6088
213.0894, 402.6016
213.5715, 397.1445
214.0536, 390.7799
214.5357, 383.4885
215.0179, 375.2193
215.5000, 365.7356
215.9821, 355.3742
216.4642, 344.7446
216.9463, 333.7036
217.4284, 322.8777
217.9105, 312.4277
218.3927, 302.5012
218.8748, 292.7778
219.3569, 283.1774
219.8390, 273.8391
220.3211, 264.8307
220.8032, 256.0208
221.2854, 247.7266
221.7675, 240.0483
222.2496, 233.4349
222.7317, 226.2094
223.2138, 217.9363
223.6959, 209.2815
224.1781, 201.4346
224.6602, 194.4683
225.1423, 188.2750
225.6244, 183.0339
226.1065, 178.9448
226.5886, 174.9412
227.0708, 170.7603
227.5529, 166.7607
228.0350, 163.7748
228.5171, 162.4404
228.9992, 160.9909
229.4813, 158.5318
229.9635, 154.2695
230.4456, 151.5555
230.9277, 151.0387
231.4098, 151.7591
231.8919, 151.8681
232.3740, 150.9662
232.8562, 150.0993
233.3383, 149.6687
233.8204, 149.8478
234.3025, 149.8435
234.7846, 149.2865
235.2667, 148.7449
235.7489, 149.2932
236.2310, 151.3170
236.7131, 153.7934
237.1952, 156.4641
237.6773, 159.3224
238.1594, 162.2742
238.6416, 165.4097
239.1237, 168.5871
239.6058, 171.5184
240.0879, 173.9285
240.5700, 176.5916
241.0521, 179.7543
241.5343, 183.4168
242.0164, 187.4367
242.4985, 191.8021
242.9806, 196.5304
243.4627, 201.7644
243.9448, 208.1228
244.4270, 213.9010
244.9091, 218.3330
245.3912, 220.9588
245.8733, 224.8559
246.3554, 230.6672
246.8375, 237.2561
247.3197, 243.1078
247.8018, 247.7975
248.2839, 252.4996
248.7660, 257.4633
249.2481, 262.7083
249.7302, 268.1825
250.2124, 273.7018
250.6945, 279.6635
251.1766, 286.6914
251.6587, 295.2819
252.1408, 303.9854
252.6229, 312.5133
253.1051, 320.9319
253.5872, 329.2782
254.0693, 337.8403
254.5514, 346.1744
255.0335, 353.9611
255.5156, 361.4444
255.9978, 367.6823
256.4799, 372.4641
256.9620, 375.8013
257.4441, 377.8504
257.9262, 377.9618
258.4083, 377.6195
258.8904, 378.0480
259.3726, 379.1993
259.8547, 381.2395
260.3368, 384.2135
260.8189, 388.1247
261.3010, 392.6454
261.7831, 397.5206
262.2653, 403.3803
262.7474, 410.7405
263.2295, 420.0380
263.7116, 429.7802
264.1937, 439.9873
264.6758, 450.5039
265.1580, 460.8200
265.6401, 470.3340
266.1222, 480.6675
266.6043, 493.2012
267.0864, 508.8528
267.5685, 523.8439
268.0507, 537.9980
268.5328, 551.2930
269.0149, 563.7090
269.4970, 575.1776
269.9791, 586.2668
270.4612, 597.9594
270.9434, 610.7730
271.4255, 621.3322
271.9076, 629.2827
272.3897, 635.0429
272.8718, 639.8965
273.3539, 644.0565
273.8361, 646.5875
274.3182, 647.0818
274.8003, 645.5630
275.2824, 641.7316
275.7645, 635.2560
276.2466, 626.8444
276.7288, 617.9427
277.2109, 608.7430
277.6930, 598.2352
278.1751, 586.0881
278.6572, 572.2298
279.1393, 557.2697
279.6215, 541.0433
280.1036, 524.0630
280.5857, 506.7532
281.0678, 489.0647
281.5499, 472.0910
282.0320, 456.1931
282.5142, 441.3919
282.9963, 429.1719
283.4784, 419.7143
283.9605, 412.2673
284.4426, 405.9912
284.9247, 400.8808
285.4069, 397.0609
285.8890, 394.7095
286.3711, 393.7038
286.8532, 393.3214
287.3353, 393.5256
287.8174, 394.5479
288.2996, 396.6778
288.7817, 399.8861
289.2638, 403.8295
289.7459, 408.5817
290.2280, 413.9190
290.7101, 419.2559
291.1923, 424.5909
291.6744, 430.3614
292.1565, 437.0580
292.6386, 444.5942
293.1207, 452.5815
293.6028, 461.1246
294.0850, 469.8607
294.5671, 478.6161
295.0492, 487.3631
295.5313, 495.7597
296.0134, 503.3469
296.4955, 510.3174
296.9777, 517.3264
297.4598, 524.6689
297.9419, 531.4875
298.4240, 536.2464
298.9061, 539.1569
299.3882, 541.4166
299.8704, 544.0729
300.3525, 546.5149
300.8346, 547.5399
301.3167, 546.9205
301.7988, 545.3220
302.2809, 542.8752
302.7631, 539.9344
303.2452, 537.4609
303.7273, 536.5524
304.2094, 536.1832
304.6915, 535.0976
305.1736, 533.2216
305.6558, 530.6124
306.1379, 527.4431
306.6200, 523.5616
307.1021, 518.7054
307.5842, 512.6539
308.0663, 505.6039
308.5485, 497.7886
309.0306, 489.2059
309.5127, 479.2671
309.9948, 466.5645
310.4769, 452.5526
310.9590, 439.0984
311.4412, 426.1175
311.9233, 414.3716
312.4054, 404.1880
312.8875, 395.5331
313.3696, 388.7182
313.8517, 384.3324
314.3339, 381.7114
314.8160, 380.2581
315.2981, 379.7076
315.7802, 380.5554
316.2623, 383.7556
316.7444, 388.6311
317.2266, 393.4299
317.7087, 398.4362
318.1908, 402.4009
318.6729, 404.8268
319.1550, 406.0737
319.6371, 404.5837
320.1193, 399.1599
320.6014, 390.7889
321.0835, 380.9742
321.5656, 369.9137
322.0477, 357.7512
322.5298, 343.8404
323.0120, 327.5372
323.4941, 312.7754
323.9762, 300.3251
324.4583, 289.8256
324.9404, 280.8871
325.4225, 274.0868
325.9047, 268.1512
326.3868, 262.6017
326.8689, 257.3239
327.3510, 253.9933
327.8331, 253.1873
328.3152, 254.0937
328.7974, 256.1638
329.2795, 261.1671
329.7616, 265.2332
330.2437, 267.8530
330.7258, 269.2076
331.2079, 270.3182
331.6901, 271.0306
332.1722, 271.6482
332.6543, 272.2926
333.1364, 272.7885
333.6185, 273.5946
334.1006, 274.5889
334.5828, 275.9265
335.0649, 277.9266
335.5470, 280.5967
336.0291, 283.9296
336.5112, 287.7558
336.9933, 291.8935
337.4755, 297.6525
337.9576, 305.3927
338.4397, 314.2593
338.9218, 323.0246
339.4039, 331.1794
339.8860, 340.8737
340.3681, 353.0621
340.8503, 367.6070
341.3324, 380.9120
341.8145, 392.7475
342.2966, 404.4183
342.7787, 418.0031
343.2608, 433.5465
343.7430, 447.8383
344.2251, 460.4115
344.7072, 471.1068
345.1893, 479.1803
345.6714, 484.7123
346.1535, 487.4876
346.6357, 486.7882
347.1178, 482.9733
347.5999, 477.8922
348.0820, 471.2817
348.5641, 464.5130
349.0462, 459.4683
349.5284, 456.0931
350.0105, 453.7803
350.4926, 452.8501
350.9747, 452.6637
351.4568, 452.2150
351.9389, 451.5942
352.4211, 449.5404
352.9032, 445.0410
353.3853, 438.1335
353.8674, 428.9077
354.3495, 417.6113
354.8316, 403.8936
355.3138, 386.4292
355.7959, 365.5096
356.2780, 344.2609
356.7601, 324.1651
357.2422, 305.0480
357.7243, 286.3939
358.2065, 267.6964
358.6886, 250.3423
359.1707, 235.5042
359.6528, 222.8628
360.1349, 211.4607
360.6170, 201.0388
361.0992, 191.5454
361.5813, 182.8782
362.0634, 175.0470
362.5455, 168.2567
363.0276, 163.0773
363.5097, 158.9024
363.9919, 154.8307
364.4740, 150.3186
364.9561, 146.1104
365.4382, 142.2917
365.9203, 138.8088
366.4024, 136.4489
366.8846, 136.1879
367.3667, 136.6472
367.8488, 136.7111
368.3309, 136.0844
368.8130, 135.2461
369.2951, 133.9321
369.7773, 132.2999
370.2594, 131.4274
370.7415, 131.8200
371.2236, 132.4992
371.7057, 132.9862
372.1878, 132.7919
372.6700, 133.3979
373.1521, 135.2729
373.6342, 137.7390
374.1163, 139.3999
374.5984, 139.7193
375.0805, 140.2494
375.5627, 141.4845
376.0448, 143.4677
376.5269, 145.7280
377.0090, 148.3094
377.4911, 151.1192
377.9732, 154.0930
378.4554, 157.2029
378.9375, 160.5699
379.4196, 164.3254
379.9017, 168.3279
380.3838, 172.1928
380.8659, 175.8686
381.3481, 179.5622
381.8302, 182.7913
382.3123, 185.8459
382.7944, 191.0834
383.2765, 199.1778
383.7586, 208.5634
384.2408, 216.9483
384.7229, 224.4803
385.2050, 232.5656
385.6871, 242.0612
386.1692, 252.4182
386.6513, 263.2251
387.1335, 274.4128
387.6156, 285.2609
388.0977, 295.0967
388.5798, 303.9740
389.0619, 312.1696
389.5440, 320.1421
390.0262, 326.9713
390.5083, 331.9749
390.9904, 335.2334
391.4725, 336.9051
391.9546, 336.4210
392.4367, 334.7682
392.9189, 332.9339
393.4010, 331.5504
393.8831, 328.8369
394.3652, 323.6173
394.8473, 316.5943
395.3294, 308.8526
395.8116, 300.5532
396.2937, 291.8515
396.7758, 282.6434
397.2579, 272.8555
397.7400, 263.3011
398.2221, 253.6532
398.7043, 244.6522
399.1864, 236.9368
399.6685, 230.8043
400.1506, 225.6948
400.6327, 221.5412
401.1148, 218.3492
401.5970, 216.2230
402.0791, 216.0331
402.5612, 215.9247
403.0433, 214.9529
403.5254, 212.4013
404.0075, 211.0579
404.4897, 211.3526
404.9718, 212.4876
405.4539, 213.1810
405.9360, 213.1659
406.4181, 213.5628
406.9002, 214.6785
407.3824, 216.4806
407.8645, 218.7656
408.3466, 221.5291
408.8287, 224.7875
409.3108, 228.3967
409.7929, 232.3770
410.2751, 237.4770
410.7572, 243.9094
411.2393, 251.4205
411.7214, 259.5055
412.2035, 268.1856
412.6856, 277.4044
413.1678, 286.7800
413.6499, 296.7367
414.1320, 308.5055
414.6141, 322.3540
415.0962, 336.7578
415.5783, 350.3318
416.0605, 363.5342
416.5426, 377.5804
417.0247, 394.6772
417.5068, 411.2149
417.9889, 424.5335
418.4710, 434.6931
418.9532, 442.2306
419.4353, 446.7583
419.9174, 449.0699
420.3995, 449.3493
420.8816, 446.7295
421.3637, 444.4805
421.8459, 443.1863
422.3280, 443.1881
422.8101, 445.0107
423.2922, 449.5605
423.7743, 455.1960
424.2564, 461.7356
424.7386, 469.2085
425.2207, 476.2939
425.7028, 482.6923
426.1849, 488.7415
426.6670, 494.6658
427.1491, 500.6526
427.6313, 506.2960
428.1134, 512.1371
428.5955, 517.4999
429.0776, 520.4568
429.5597, 520.5354
430.0418, 519.2465
430.5240, 517.6143
431.0061, 515.9154
431.4882, 510.2902
431.9703, 500.2881
432.4524, 487.3799
432.9345, 472.8127
433.4167, 456.6242
433.8988, 439.4845
434.3809, 421.4740
434.8630, 403.0584
435.3451, 385.2277
435.8272, 368.0039
436.3094, 352.0925
436.7915, 337.5219
437.2736, 324.5993
437.7557, 314.2929
438.2378, 306.6420
438.7199, 301.4190
439.2020, 298.6609
439.6841, 298.1509
440.1663, 299.4450
440.6484, 302.5756
441.1305, 307.2976
441.6126, 313.7922
442.0947, 321.8818
442.5768, 330.3528
443.0590, 339.3198
443.5411, 347.9622
444.0232, 355.9010
444.5053, 363.9086
444.9874, 369.3268
445.4695, 372.2130
445.9517, 371.7416
446.4338, 366.5960
446.9159, 355.1542
447.3980, 340.3200
447.8801, 321.9579
448.3622, 299.7384
448.8444, 278.4733
449.3265, 257.1703
449.8086, 237.6420
450.2907, 221.1944
450.7728, 208.7379
451.2549, 197.0268
451.7371, 185.8623
452.2192, 175.4803
452.7013, 166.5205
453.1834, 159.1681
453.6655, 152.8210
454.1476, 147.2744
454.6298, 142.5710
455.1119, 139.1657
455.5940, 137.2153
456.0761, 135.8720
456.5582, 134.5220
457.0403, 133.1379
457.5225, 131.5274
458.0046, 129.5524
458.4867, 127.5840
458.9688, 126.3572
459.4509, 125.7022
459.9330, 124.9731
460.4152, 123.5731
460.8973, 122.0042
461.3794, 120.9153
461.8615, 120.3328
462.3436, 119.8825
462.8257, 118.9658
463.3079, 118.1775
463.7900, 118.2078
464.2721, 119.9511
464.7542, 121.7002
465.2363, 122.4355
465.7184, 122.6127
466.2006, 123.5260
466.6827, 126.2057
467.1648, 129.0619
467.6469, 131.3325
468.1290, 132.6579
468.6111, 134.6607
469.0933, 137.8417
469.5754, 141.4102
470.0575, 144.7485
470.5396, 147.8956
471.0217, 150.7161
471.5038, 153.1639
471.9860, 155.3005
472.4681, 157.3698
472.9502, 159.3851
473.4323, 161.2952
473.9144, 162.9646
474.3965, 164.4153
474.8787, 166.1229
475.3608, 168.0713
475.8429, 170.3108
476.3250, 172.8572
476.8071, 175.7137
477.2892, 178.8693
477.7714, 182.1493
478.2535, 185.9193
478.7356, 190.8465
479.2177, 196.7995
479.6998, 203.0659
480.1819, 209.2315
480.6641, 216.0094
481.1462, 222.5195
481.6283, 230.1046
482.1104, 237.6111
482.5925, 245.2987
483.0746, 252.4030
483.5568, 258.1580
484.0389, 261.9031
484.5210, 264.6777
485.0031, 267.3854
485.4852, 269.4153
485.9673, 268.9563
486.4495, 265.8622
486.9316, 260.0579
487.4137, 251.1294
487.8958, 238.3916
488.3779, 225.7030
488.8600, 212.7779
489.3422, 200.0807
489.8243, 187.6207
490.3064, 175.0959
490.7885, 164.3267
491.2706, 155.7888
491.7527, 148.9621
492.2349, 142.1656
492.7170, 135.3578
493.1991, 129.7217
493.6812, 126.2854
494.1633, 124.6088
494.6454, 122.7578
495.1276, 120.7160
495.6097, 119.1309
496.0918, 119.0126
496.5739, 119.7646
497.0560, 120.0473
497.5381, 119.2698
498.0203, 118.5858
498.5024, 118.9978
498.9845, 120.2835
499.4666, 121.9631
499.9487, 124.3147
500.4308, 126.5743
500.9130, 128.1762
501.3951, 129.0986
501.8772, 130.1790
502.3593, 131.5475
502.8414, 133.2222
503.3235, 135.2423
503.8057, 137.8627
504.2878, 140.4494
504.7699, 142.9190
505.2520, 145.3657
505.7341, 147.9501
506.2162, 150.7045
506.6984, 153.4897
507.1805, 156.0866
507.6626, 158.5958
508.1447, 162.2157
508.6268, 167.2625
509.1089, 172.2346
509.5911, 175.8853
510.0732, 178.3490
510.5553, 181.3397
511.0374, 185.1868
511.5195, 188.8040
512.0016, 190.7055
512.4838, 191.2022
512.9659, 191.2983
513.4480, 191.3723
513.9301, 191.2150
514.4122, 190.8486
514.8943, 190.1338
515.3765, 188.4738
515.8586, 185.1120
516.3407, 180.9378
516.8228, 176.5015
517.3049, 171.7416
517.7870, 167.2976
518.2692, 163.6408
518.7513, 160.3257
519.2334, 156.9411
519.7155, 153.7001
520.1976, 150.0249
520.6797, 145.4333
521.1619, 140.4007
521.6440, 136.3507
522.1261, 133.6885
522.6082, 131.3609
523.0903, 128.9965
523.5724, 126.5888
524.0546, 124.4978
524.5367, 122.7001
525.0188, 121.3423
525.5009, 120.9431
525.9830, 121.3516
526.4651, 120.6584
526.9473, 118.3266
527.4294, 115.5423
527.9115, 113.8125
528.3936, 113.0589
528.8757, 113.0077
529.3578, 114.0067
529.8400, 115.3443
530.3221, 116.2802
530.8042, 116.8592
531.2863, 117.4447
531.7684, 117.8873
532.2505, 118.6345
532.7327, 120.1982
533.2148, 123.0309
533.6969, 125.3673
534.1790, 126.4076
534.6611, 126.8343
535.1432, 127.3878
535.6254, 127.8722
536.1075, 128.8610
536.5896, 130.6762
537.0717, 133.0324
537.5538, 134.7702
538.0359, 135.5630
538.5181, 136.5455
539.0002, 138.3547
539.4823, 140.9582
539.9644, 142.8849
540.4465, 143.9875
540.9286, 145.1552
541.4108, 147.3499
541.8929, 150.3700
542.3750, 153.2870
542.8571, 155.9803
543.3392, 158.4043
543.8214, 160.5744
544.3035, 162.4416
544.7856, 163.9674
545.2677, 165.1378
545.7498, 165.9549
546.2319, 166.5361
546.7141, 166.8121
547.1962, 166.3817
547.6783, 164.5827
548.1604, 162.4191
548.6425, 160.4332
549.1246, 158.8177
549.6068, 157.0054
550.0889, 154.8083
550.5710, 152.4783
551.0531, 150.2514
551.5352, 148.2310
552.0173, 145.9734
552.4995, 142.9811
552.9816, 140.0279
553.4637, 139.4454
553.9458, 141.5895
554.4279, 143.6049
554.9100, 143.9975
555.3922, 143.3228
555.8743, 143.9237
556.3564, 145.7965
556.8385, 147.8610
557.3206, 148.8539
557.8027, 149.5538
558.2849, 151.4797
558.7670, 155.0637
559.2491, 158.8830
559.7312, 162.0286
560.2133, 164.6573
560.6954, 166.9704
561.1776, 169.6293
561.6597, 171.3269
562.1418, 171.4050
562.6239, 170.1155
563.1060, 168.3965
563.5881, 166.2403
564.0703, 163.7822
564.5524, 160.9418
565.0345, 157.6975
565.5166, 154.5906
565.9987, 151.3645
566.4808, 148.7084
566.9630, 147.2784
567.4451, 147.1748
567.9272, 147.0090
568.4093, 146.5844
568.8914, 146.3008
569.3735, 146.7131
569.8557, 147.7645
570.3378, 149.2283
570.8199, 151.1568
571.3020, 153.3026
571.7841, 155.3886
572.2662, 157.4092
572.7484, 159.3366
573.2305, 161.0629
573.7126, 162.7763
574.1947, 164.6571
574.6768, 166.7113
575.1589, 168.7545
575.6411, 170.7936
576.1232, 172.7205
576.6053, 174.4135
577.0874, 175.5455
577.5695, 176.9647
578.0516, 178.7303
578.5338, 180.7255
579.0159, 182.8776
579.4980, 185.2558
579.9801, 187.3442
580.4622, 188.7044
580.9443, 189.9022
581.4265, 192.8492
581.9086, 197.5420
582.3907, 202.5146
582.8728, 206.8780
583.3549, 210.9715
583.8370, 215.5517
584.3192, 220.6393
584.8013, 226.3074
585.2834, 233.3820
585.7655, 240.7726
586.2476, 247.2212
586.7297, 252.2432
