##NAMES=Axinite-(Mg)
##RRUFFID=R070133
##IDEAL CHEMISTRY=Ca_4_Mg_2_Al_4_[B_2_Si_8_O_30_](OH)_2_
##LOCALITY=Merelani, Tanzania
##OWNER=RRUFF
##SOURCE=Michael Gray
##DESCRIPTION=Pale brown cut gem stone
##STATUS=The identification of this mineral is confirmed by single-crystal X-ray diffraction and chemical analysis.
##URL=rruff.info/R070133
##MEASURED CHEMISTRY=Ca_4.00_(Mg_1.86_Al_0.08_Mn_0.06_)_Σ=2_Al_4.00_[B_2_(Si_7.92_Al_0.08_)_Σ=8_O_30_](OH)_2_; B and OH not measured but assumed by stoichiometry
147.8264, 342.1579
148.3086, 367.5387
148.7907, 394.3110
149.2728, 424.2840
149.7549, 456.7048
150.2370, 488.5421
150.7191, 517.4354
151.2013, 544.0705
151.6834, 562.3521
152.1655, 573.6293
152.6476, 577.1177
153.1297, 571.4989
153.6118, 557.1495
154.0940, 535.5466
154.5761, 506.8875
155.0582, 467.7554
155.5403, 437.4129
156.0224, 417.1027
156.5045, 403.4948
156.9867, 394.5104
157.4688, 389.8695
157.9509, 390.3624
158.4330, 397.6583
158.9151, 414.0789
159.3972, 427.5150
159.8793, 433.0755
160.3615, 439.0404
160.8436, 452.2408
161.3257, 473.3837
161.8078, 498.8350
162.2899, 526.7889
162.7720, 558.4650
163.2542, 580.1033
163.7363, 590.8670
164.2184, 591.5762
164.7005, 581.2390
165.1826, 559.8315
165.6647, 531.9253
166.1469, 500.7419
166.6290, 465.9869
167.1111, 432.2439
167.5932, 396.5811
168.0753, 363.7315
168.5574, 339.4659
169.0396, 324.7452
169.5217, 313.9693
170.0038, 302.3210
170.4859, 290.0193
170.9680, 279.6806
171.4501, 273.0493
171.9323, 267.9438
172.4144, 261.0319
172.8965, 251.5674
173.3786, 243.8955
173.8607, 243.5224
174.3428, 248.8069
174.8250, 252.7271
175.3071, 254.7908
175.7892, 254.3673
176.2713, 250.1726
176.7534, 241.7992
177.2355, 231.5315
177.7177, 219.6883
178.1998, 207.1774
178.6819, 196.8433
179.1640, 189.6662
179.6461, 184.9988
180.1283, 181.9623
180.6104, 180.4734
181.0925, 180.8257
181.5746, 184.5188
182.0567, 190.2332
182.5388, 195.6867
183.0210, 200.4063
183.5031, 204.4379
183.9852, 207.4213
184.4673, 208.9747
184.9494, 211.1185
185.4315, 214.6192
185.9137, 219.6382
186.3958, 227.1717
186.8779, 240.6028
187.3600, 254.7168
187.8421, 260.3084
188.3242, 255.0033
188.8064, 250.6237
189.2885, 255.7123
189.7706, 265.3166
190.2527, 273.5450
190.7348, 278.2771
191.2169, 281.1925
191.6991, 284.3642
192.1812, 287.6391
192.6633, 291.7955
193.1454, 295.9604
193.6275, 301.6512
194.1096, 311.3889
194.5918, 327.2429
195.0739, 345.0746
195.5560, 359.9950
196.0381, 372.1219
196.5202, 380.5514
197.0023, 385.1959
197.4845, 385.6472
197.9666, 380.7282
198.4487, 369.8718
198.9308, 354.2968
199.4129, 334.0674
199.8950, 307.8177
200.3771, 283.8795
200.8593, 264.5319
201.3414, 249.0210
201.8235, 237.8035
202.3056, 231.4214
202.7877, 226.9368
203.2698, 220.0695
203.7520, 209.8646
204.2341, 203.5622
204.7162, 207.1516
205.1983, 213.0824
205.6804, 215.6870
206.1625, 213.9474
206.6447, 212.0300
207.1268, 213.7732
207.6089, 219.2099
208.0910, 228.1525
208.5731, 246.2159
209.0552, 263.6052
209.5374, 272.0836
210.0195, 271.2870
210.5016, 270.3727
210.9837, 277.8018
211.4658, 293.7851
211.9479, 311.9803
212.4301, 333.9512
212.9122, 355.8344
213.3943, 375.8596
213.8764, 393.9134
214.3585, 409.4163
214.8406, 423.5659
215.3228, 436.1800
215.8049, 440.0141
216.2870, 429.6272
216.7691, 415.0490
217.2512, 400.8297
217.7333, 387.2801
218.2155, 374.3981
218.6976, 361.5394
219.1797, 349.0910
219.6618, 339.4213
220.1439, 331.7182
220.6260, 328.5817
221.1082, 333.1676
221.5903, 342.7411
222.0724, 351.1125
222.5545, 353.5085
223.0366, 351.8904
223.5187, 354.6649
224.0009, 365.8328
224.4830, 374.3131
224.9651, 374.4568
225.4472, 369.2086
225.9293, 363.1530
226.4114, 358.8459
226.8936, 354.7785
227.3757, 346.6112
227.8578, 331.6987
228.3399, 318.9478
228.8220, 314.4678
229.3041, 312.9956
229.7863, 308.0313
230.2684, 296.1828
230.7505, 282.0719
231.2326, 274.1648
231.7147, 274.6352
232.1968, 273.3053
232.6790, 264.9703
233.1611, 254.0140
233.6432, 243.5487
234.1253, 234.1924
234.6074, 226.2626
235.0895, 220.9647
235.5717, 218.7533
236.0538, 215.1674
236.5359, 206.9740
237.0180, 198.3115
237.5001, 192.0619
237.9822, 188.6519
238.4644, 187.1229
238.9465, 186.8986
239.4286, 187.9660
239.9107, 189.9062
240.3928, 192.9231
240.8749, 196.6064
241.3571, 200.8587
241.8392, 205.5923
242.3213, 210.1470
242.8034, 213.8297
243.2855, 216.8523
243.7676, 220.8326
244.2497, 227.9691
244.7319, 232.8551
245.2140, 229.8355
245.6961, 221.1685
246.1782, 214.7398
246.6603, 215.3300
247.1424, 220.9759
247.6246, 226.6991
248.1067, 232.4341
248.5888, 238.1567
249.0709, 242.5225
249.5530, 246.9266
250.0351, 254.3815
250.5173, 267.4444
250.9994, 283.1141
251.4815, 297.2917
251.9636, 309.7911
252.4457, 321.5122
252.9278, 331.1363
253.4100, 340.8170
253.8921, 354.2874
254.3742, 374.9639
254.8563, 395.5516
255.3384, 407.7647
255.8205, 411.8846
256.3027, 416.9868
256.7848, 426.2519
257.2669, 438.9237
257.7490, 453.4200
258.2311, 470.2698
258.7133, 487.2617
259.1954, 502.0888
259.6775, 515.6932
260.1596, 531.7910
260.6417, 551.5287
261.1238, 574.1475
261.6060, 598.5209
262.0880, 624.2342
262.5702, 652.8257
263.0523, 684.8710
263.5344, 720.0302
264.0165, 757.7966
264.4986, 798.3904
264.9807, 840.9661
265.4629, 884.9132
265.9450, 930.1476
266.4271, 978.0458
266.9092, 1031.285
267.3913, 1085.967
267.8734, 1137.255
268.3556, 1185.009
268.8377, 1234.113
269.3198, 1292.984
269.8019, 1357.725
270.2840, 1401.161
270.7661, 1419.540
271.2483, 1420.046
271.7304, 1405.667
272.2125, 1376.910
272.6946, 1334.040
273.1767, 1274.162
273.6588, 1202.072
274.1410, 1136.468
274.6231, 1077.297
275.1052, 1023.662
275.5873, 977.8206
276.0694, 936.7347
276.5515, 895.6245
277.0337, 852.7696
277.5158, 808.3765
277.9979, 762.8539
278.4800, 716.7478
278.9621, 668.3406
279.4442, 611.0282
279.9264, 554.8493
280.4085, 510.6017
280.8906, 480.2284
281.3727, 457.2546
281.8548, 433.8846
282.3369, 409.2760
282.8191, 388.9681
283.3012, 374.7262
283.7833, 362.8363
284.2654, 349.9029
284.7475, 336.8519
285.2296, 327.4786
285.7118, 325.0202
286.1939, 329.4308
286.6760, 336.1816
287.1581, 348.4494
287.6402, 359.4839
288.1223, 366.4944
288.6045, 371.1736
289.0866, 376.3177
289.5687, 383.3790
290.0508, 392.0117
290.5329, 400.9689
291.0150, 409.9616
291.4972, 419.7867
291.9793, 432.4719
292.4614, 444.9239
292.9435, 452.9723
293.4256, 455.8301
293.9077, 458.0539
294.3899, 466.2398
294.8720, 480.9366
295.3541, 500.3778
295.8362, 528.2707
296.3183, 557.4041
296.8004, 584.7220
297.2826, 609.7404
297.7647, 632.6271
298.2468, 652.5480
298.7289, 669.5147
299.2110, 689.8353
299.6931, 713.9718
300.1753, 741.5245
300.6574, 778.0072
301.1395, 816.8384
301.6216, 846.8174
302.1037, 862.1692
302.5858, 864.8558
303.0680, 860.0922
303.5501, 849.4286
304.0322, 826.6494
304.5143, 780.3065
304.9964, 725.5390
305.4785, 675.5685
305.9607, 634.3026
306.4428, 596.8405
306.9249, 556.1818
307.4070, 512.5560
307.8891, 477.6608
308.3712, 458.4471
308.8534, 445.2200
309.3355, 427.3716
309.8176, 405.0054
310.2997, 386.8768
310.7818, 380.0519
311.2639, 380.6996
311.7461, 378.5612
312.2282, 371.3663
312.7103, 365.2202
313.1924, 367.6298
313.6745, 375.7593
314.1566, 380.3345
314.6388, 374.9512
315.1209, 368.3230
315.6030, 368.4269
316.0851, 375.1059
316.5672, 385.3486
317.0493, 398.9874
317.5315, 414.2840
318.0136, 425.5975
318.4957, 429.1252
318.9778, 434.6909
319.4599, 449.3435
319.9420, 468.0768
320.4242, 482.4456
320.9063, 489.7900
321.3884, 490.5262
321.8705, 484.5347
322.3526, 469.1810
322.8347, 453.6480
323.3169, 437.2014
323.7990, 421.5251
324.2811, 408.5178
324.7632, 397.9777
325.2453, 387.5163
325.7274, 374.6606
326.2096, 359.1393
326.6917, 347.0447
327.1738, 340.6523
327.6559, 334.6458
328.1380, 328.3431
328.6201, 321.0664
329.1023, 311.3505
329.5844, 298.3065
330.0665, 283.5504
330.5486, 272.0761
331.0307, 264.2873
331.5128, 259.5200
331.9950, 259.0541
332.4771, 260.3642
332.9592, 261.6474
333.4413, 262.4552
333.9234, 263.2268
334.4055, 263.8592
334.8877, 263.8025
335.3698, 267.1465
335.8519, 277.8067
336.3340, 288.2574
336.8161, 295.6831
337.2982, 300.3873
337.7804, 303.5974
338.2625, 305.6681
338.7446, 306.9405
339.2267, 307.7236
339.7088, 306.6588
340.1909, 308.8585
340.6731, 319.9767
341.1552, 334.1237
341.6373, 344.7198
342.1194, 349.6167
342.6015, 353.5215
343.0836, 359.6772
343.5658, 368.2598
344.0479, 380.6885
344.5300, 397.9254
345.0121, 418.4962
345.4942, 442.1078
345.9763, 468.5484
346.4584, 493.2204
346.9406, 514.2194
347.4227, 532.7669
347.9048, 549.5008
348.3869, 564.5229
348.8690, 581.2755
349.3511, 603.4454
349.8333, 630.0308
350.3154, 652.3529
350.7975, 671.6425
351.2796, 685.7606
351.7617, 692.5648
352.2438, 693.5400
352.7260, 690.8752
353.2081, 685.1237
353.6902, 678.4834
354.1723, 675.5364
354.6544, 677.4979
355.1365, 681.8064
355.6187, 690.5446
356.1008, 700.2160
356.5829, 709.7236
357.0650, 717.9610
357.5471, 722.5157
358.0292, 721.5883
358.5114, 715.3621
358.9935, 699.8849
359.4756, 671.2858
359.9577, 636.9958
360.4398, 594.7603
360.9219, 549.0085
361.4041, 505.2420
361.8862, 466.1979
362.3683, 430.9427
362.8504, 397.3446
363.3325, 364.6783
363.8146, 335.8412
364.2968, 310.7112
364.7789, 289.7887
365.2610, 274.9684
365.7431, 265.8840
366.2252, 258.0033
366.7073, 246.8403
367.1895, 233.5122
367.6716, 224.4890
368.1537, 222.0472
368.6358, 219.8166
369.1179, 211.8333
369.6000, 201.3258
370.0822, 194.6938
370.5643, 196.1463
371.0464, 199.2690
371.5285, 196.2731
372.0106, 188.4307
372.4927, 185.2896
372.9749, 192.2993
373.4570, 203.6649
373.9391, 208.3221
374.4212, 204.7445
374.9033, 202.5473
375.3854, 204.9123
375.8676, 209.5154
376.3497, 214.2593
376.8318, 218.7084
377.3139, 222.3146
377.7960, 224.5450
378.2781, 225.3468
378.7603, 226.0683
379.2424, 225.9918
379.7245, 226.6287
380.2066, 228.7222
380.6887, 231.8117
381.1708, 235.3488
381.6530, 239.0897
382.1351, 242.6355
382.6172, 245.0921
383.0993, 246.0478
383.5814, 246.7380
384.0635, 245.3486
384.5457, 245.2406
385.0278, 248.5336
385.5099, 255.1412
385.9920, 263.6308
386.4741, 273.2953
386.9562, 283.9291
387.4384, 294.2914
387.9205, 304.5729
388.4026, 314.2949
388.8847, 322.2369
389.3668, 329.9514
389.8489, 339.5004
390.3311, 351.8694
390.8132, 364.6860
391.2953, 374.9227
391.7774, 383.1138
392.2595, 392.7766
392.7416, 404.0926
393.2238, 418.1336
393.7059, 439.2129
394.1880, 466.2353
394.6701, 486.0387
395.1522, 492.3664
395.6343, 492.0424
396.1165, 492.1626
396.5986, 492.3623
397.0807, 487.2330
397.5628, 472.9995
398.0449, 451.5815
398.5270, 429.6176
399.0092, 403.7216
399.4913, 381.8618
399.9734, 365.9280
400.4555, 354.2863
400.9376, 345.1765
401.4197, 338.2089
401.9019, 333.7612
402.3840, 331.9948
402.8661, 332.6265
403.3482, 338.2228
403.8303, 353.5738
404.3124, 368.9656
404.7946, 380.5714
405.2767, 390.5769
405.7588, 403.6463
406.2409, 422.6353
406.7230, 442.7627
407.2051, 454.1502
407.6873, 454.7015
408.1694, 456.2944
408.6515, 463.8322
409.1336, 470.9149
409.6157, 472.4876
410.0978, 468.8737
410.5800, 464.7639
411.0621, 460.9110
411.5442, 458.8547
412.0263, 462.2075
412.5084, 471.4492
412.9905, 482.8078
413.4727, 493.8906
413.9548, 505.7265
414.4369, 520.9493
414.9190, 540.5817
415.4011, 561.7081
415.8832, 582.1408
416.3654, 603.6450
416.8475, 629.8476
417.3296, 661.8337
417.8117, 696.0608
418.2938, 729.9313
418.7759, 765.3287
419.2581, 787.0186
419.7402, 793.3304
420.2223, 790.1193
420.7044, 779.1660
421.1865, 760.5509
421.6686, 732.4407
422.1508, 693.6445
422.6329, 649.0878
423.1150, 609.2657
423.5971, 575.0986
424.0792, 543.2883
424.5613, 511.3169
425.0435, 483.4902
425.5256, 462.8474
426.0077, 449.1002
426.4898, 440.4030
426.9719, 437.3886
427.4540, 437.9643
427.9361, 435.0984
428.4182, 427.0707
428.9004, 423.8261
429.3825, 433.2387
429.8646, 448.7793
430.3467, 460.0564
430.8288, 465.6026
431.3109, 469.8883
431.7931, 474.3399
432.2752, 479.2293
432.7573, 485.5586
433.2394, 493.5291
433.7215, 500.9102
434.2036, 505.8423
434.6858, 508.2309
435.1679, 508.3731
435.6500, 506.5562
436.1321, 502.4962
436.6142, 496.4727
437.0963, 488.0292
437.5785, 475.8545
438.0606, 459.6341
438.5427, 441.4235
439.0248, 424.5949
439.5069, 409.5052
439.9890, 394.4515
440.4712, 378.5873
440.9533, 363.4835
441.4354, 348.8324
441.9175, 335.5117
442.3996, 325.2073
442.8817, 319.0401
443.3639, 315.9662
443.8460, 313.8261
444.3281, 312.4224
444.8102, 314.2907
445.2923, 321.7887
445.7744, 331.4460
446.2566, 339.6198
446.7387, 346.2901
447.2208, 351.4007
447.7029, 355.1940
448.1850, 357.2578
448.6671, 357.7971
449.1493, 356.5417
449.6314, 351.1533
450.1135, 339.7012
450.5956, 323.5753
451.0777, 307.6338
451.5598, 293.3077
452.0420, 277.3593
452.5241, 255.7998
453.0062, 234.8620
453.4883, 220.6614
453.9704, 213.5119
454.4525, 209.1723
454.9347, 203.9527
455.4168, 197.9082
455.8989, 191.3475
456.3810, 181.4361
456.8631, 175.5055
457.3452, 179.3205
457.8274, 185.7217
458.3095, 186.2306
458.7916, 178.5723
459.2737, 169.6581
459.7558, 165.8190
460.2379, 166.2294
460.7201, 167.0245
461.2022, 167.8102
461.6843, 168.8028
462.1664, 170.4294
462.6485, 172.4198
463.1306, 173.7885
463.6128, 175.0471
464.0949, 175.0130
464.5770, 171.2948
465.0591, 166.1904
465.5412, 164.5217
466.0233, 167.7345
466.5055, 172.5611
466.9876, 174.6866
467.4697, 173.1951
467.9518, 173.4377
468.4339, 176.9008
468.9160, 180.2874
469.3982, 182.4308
469.8803, 183.6780
470.3624, 184.8336
470.8445, 186.2725
471.3266, 187.3534
471.8087, 186.3654
472.2909, 182.7545
472.7730, 181.7122
473.2551, 185.2813
473.7372, 189.9651
474.2193, 193.0307
474.7014, 195.1299
475.1836, 198.3816
475.6657, 203.3215
476.1478, 209.9494
476.6299, 218.8083
477.1120, 229.5643
477.5941, 240.6293
478.0763, 251.6505
478.5584, 262.1646
479.0405, 271.5087
479.5226, 279.8626
480.0047, 286.2350
480.4868, 286.3817
480.9690, 288.3974
481.4511, 298.1482
481.9332, 313.6733
482.4153, 329.6834
482.8974, 343.4950
483.3795, 356.0045
483.8617, 368.9240
484.3438, 381.0241
484.8259, 396.8773
485.3080, 421.4515
485.7901, 446.0467
486.2722, 463.5894
486.7544, 476.8698
487.2365, 495.8059
487.7186, 529.9051
488.2007, 568.5311
488.6828, 595.3734
489.1649, 610.7585
489.6471, 623.5175
490.1292, 638.5514
490.6113, 649.9484
491.0934, 647.8041
491.5755, 632.1425
492.0576, 609.6137
492.5398, 578.5325
493.0219, 543.0964
493.5040, 503.3150
493.9861, 461.7244
494.4682, 423.4756
494.9503, 391.5394
495.4325, 364.9221
495.9146, 341.8523
496.3967, 321.8314
496.8788, 306.7263
497.3609, 299.2407
497.8430, 294.0669
498.3252, 289.0620
498.8073, 284.0477
499.2894, 279.3567
499.7715, 275.0963
500.2536, 271.3170
500.7357, 267.5711
501.2179, 263.8322
501.7000, 262.7967
502.1821, 266.2970
502.6642, 271.4548
503.1463, 274.7071
503.6284, 276.1005
504.1106, 277.2955
504.5927, 277.2842
505.0748, 278.3084
505.5569, 283.5202
506.0390, 291.2025
506.5211, 296.2985
507.0033, 296.3095
507.4854, 293.9832
507.9675, 294.6038
508.4496, 298.8611
508.9317, 304.5134
509.4138, 315.3176
509.8959, 323.7774
510.3781, 326.4632
510.8602, 324.1702
511.3423, 318.4648
511.8244, 309.0168
512.3065, 299.4121
512.7886, 296.5675
513.2708, 300.0458
513.7529, 299.4649
514.2350, 291.8094
514.7171, 280.8259
515.1992, 269.3985
515.6813, 257.5944
516.1635, 246.6857
516.6456, 237.2378
517.1277, 228.3777
517.6098, 218.8842
518.0919, 209.7889
518.5740, 203.3766
519.0562, 200.4115
519.5383, 199.2689
520.0204, 197.8958
520.5025, 196.4103
520.9846, 194.0511
521.4667, 190.1508
521.9489, 186.0533
522.4310, 182.1043
522.9131, 178.2072
523.3952, 173.9219
523.8773, 169.0236
524.3594, 164.7836
524.8416, 162.7294
525.3237, 162.5209
525.8058, 162.4744
526.2879, 162.2536
526.7700, 162.8734
527.2521, 166.2115
527.7343, 171.0610
528.2164, 171.8410
528.6985, 165.4044
529.1806, 159.1433
529.6627, 155.0742
530.1448, 152.5069
530.6270, 150.7697
531.1091, 149.6739
531.5912, 149.1706
532.0733, 149.2222
532.5554, 149.8287
533.0375, 151.0763
533.5197, 153.5495
534.0018, 155.6054
534.4839, 156.8552
534.9660, 157.5731
535.4481, 157.3159
535.9302, 156.2745
536.4124, 156.7148
536.8945, 161.2769
537.3766, 167.7248
537.8587, 172.6299
538.3408, 175.8592
538.8229, 177.1528
539.3051, 175.8428
539.7872, 173.3403
540.2693, 172.6867
540.7514, 175.2365
541.2335, 176.2290
541.7156, 174.0051
542.1978, 171.4925
542.6799, 170.5186
543.1620, 170.7892
543.6441, 171.4001
544.1262, 171.9451
544.6083, 172.0746
545.0905, 170.6029
545.5726, 167.0238
546.0547, 165.4351
546.5368, 166.9874
547.0189, 169.7791
547.5010, 173.0809
547.9832, 176.5536
548.4653, 179.3277
548.9474, 181.4590
549.4295, 182.4374
549.9116, 181.9183
550.3937, 179.9651
550.8759, 175.9489
551.3580, 169.8113
551.8401, 164.4056
552.3222, 162.8648
552.8043, 165.1698
553.2864, 165.8699
553.7686, 160.7437
554.2507, 159.1770
554.7328, 167.4974
555.2149, 176.9665
555.6970, 177.6482
556.1791, 168.9895
556.6613, 160.4766
557.1434, 160.8715
557.6255, 167.2474
558.1076, 170.8692
558.5897, 171.3920
559.0718, 172.9688
559.5540, 178.1917
560.0361, 184.6522
560.5182, 187.7439
561.0003, 186.9834
561.4824, 186.3997
561.9645, 186.2571
562.4467, 186.7870
562.9288, 188.2638
563.4109, 190.5335
563.8930, 193.7071
564.3751, 197.8559
564.8572, 201.5108
565.3394, 201.3191
565.8215, 196.0840
566.3036, 193.7106
566.7857, 195.6765
567.2678, 199.1060
567.7499, 204.4096
568.2321, 209.6131
568.7142, 210.4701
569.1963, 204.0094
569.6784, 198.2533
570.1605, 199.4327
570.6426, 204.7391
571.1248, 209.0859
571.6069, 211.7398
572.0890, 214.7527
572.5711, 219.8290
573.0532, 226.4751
573.5353, 231.8721
574.0175, 235.3592
574.4996, 238.5170
574.9817, 239.2478
575.4638, 241.4925
575.9459, 249.6324
576.4280, 262.2276
576.9102, 273.3645
577.3923, 279.4761
577.8744, 282.5281
578.3565, 285.2682
578.8386, 287.7598
579.3207, 291.2727
579.8029, 296.6684
580.2850, 301.7979
580.7671, 303.7219
581.2492, 302.2069
581.7313, 303.5536
582.2134, 312.3461
582.6956, 318.7214
583.1777, 315.3947
583.6598, 309.2710
584.1419, 310.1243
584.6240, 319.4864
585.1061, 330.3137
585.5883, 335.8697
586.0704, 336.7474
586.5525, 336.1302
587.0346, 332.4258
587.5167, 332.4713
587.9988, 340.8339
588.4810, 352.6439
588.9631, 362.2639
589.4452, 369.5171
589.9273, 376.4304
590.4094, 384.6168
590.8915, 391.8835
591.3737, 397.1648
591.8558, 400.0558
592.3379, 399.6365
592.8200, 395.5288
593.3021, 388.7430
593.7842, 380.7105
594.2664, 371.4814
594.7485, 360.5991
595.2306, 348.4213
595.7127, 333.8065
596.1948, 314.0712
596.6769, 292.9270
597.1591, 274.8593
597.6412, 260.6015
598.1233, 248.8099
598.6054, 238.7639
599.0875, 230.5599
599.5696, 225.4023
600.0518, 222.7973
600.5339, 218.9578
601.0160, 211.8050
601.4981, 202.5756
601.9802, 193.6635
602.4623, 183.7110
602.9445, 177.5012
603.4266, 178.9481
603.9087, 179.7564
604.3908, 174.1781
604.8729, 166.1281
605.3550, 162.8125
605.8372, 167.0788
606.3193, 173.4496
606.8014, 176.8342
607.2835, 178.0095
607.7656, 179.2444
608.2477, 180.7844
608.7299, 182.1913
609.2120, 183.3437
609.6941, 184.0486
610.1762, 183.6370
610.6583, 180.1229
611.1404, 178.8645
611.6226, 182.9804
612.1047, 186.6524
612.5868, 185.3457
613.0689, 180.7650
613.5510, 177.3391
614.0331, 177.2276
614.5153, 178.4884
614.9974, 178.4935
615.4795, 177.4267
615.9616, 176.5045
616.4437, 175.6814
616.9258, 175.9590
617.4080, 178.8325
617.8901, 183.2182
618.3722, 184.7478
618.8543, 181.4286
619.3364, 178.9404
619.8185, 178.5160
620.3007, 178.9942
620.7828, 179.2749
621.2649, 179.6254
621.7470, 181.7011
622.2291, 186.8733
622.7112, 191.8449
623.1934, 189.6211
623.6755, 180.1704
624.1576, 173.5408
624.6397, 171.6531
625.1218, 171.2401
625.6039, 170.3594
626.0861, 169.1190
626.5682, 168.0311
627.0503, 167.9481
627.5324, 166.5870
628.0145, 161.6999
628.4966, 156.4672
628.9788, 153.9821
629.4609, 154.0232
629.9430, 154.7637
630.4251, 155.2054
630.9072, 155.2775
631.3893, 154.3069
631.8715, 152.0580
632.3535, 152.4300
632.8356, 157.8063
633.3177, 162.2640
633.7999, 160.4290
634.2820, 154.5335
634.7641, 150.6461
635.2462, 149.4825
635.7283, 149.7034
636.2104, 151.3892
636.6926, 153.9191
637.1747, 157.4534
637.6568, 161.3423
638.1389, 163.5418
638.6210, 162.6612
639.1031, 160.3926
639.5853, 160.5296
640.0674, 163.4130
640.5495, 165.2119
641.0316, 164.9881
641.5137, 164.6048
641.9958, 165.4361
