##NAMES=Axinite-(Mn)
##RRUFFID=R061121
##IDEAL CHEMISTRY=Ca_4_Mn^2+^_2_Al_4_[B_2_Si_8_O_30_](OH)_2_
##LOCALITY=Franklin, Sussex County, New Jersey, USA
##OWNER=RRUFF
##SOURCE=Michael Scott
##DESCRIPTION=Honey-yellow massive associated with pink rhodonite
##STATUS=The identification of this mineral has been confirmed by X-ray diffraction and chemical analysis
##URL=rruff.info/R061121
##MEASURED CHEMISTRY=(Ca_1.93_Mn_0.07_)_Σ=2_(Mn^2+^_0.87_Zn_0.08_Fe^2+^_0.05_)_Σ=1_(Al_1.95_Fe^3+^_0.05_)_Σ=2_BSi_4.00_O_15_(OH); OH and B assumed by stoichiometry
127.4148, 1045.220
127.8969, 1152.119
128.3790, 1259.902
128.8611, 1367.378
129.3432, 1469.558
129.8254, 1560.063
130.3075, 1642.389
130.7896, 1701.795
131.2717, 1725.160
131.7538, 1725.806
132.2359, 1723.289
132.7181, 1722.478
133.2002, 1720.051
133.6823, 1716.149
134.1644, 1715.315
134.6465, 1690.553
135.1286, 1615.219
135.6108, 1508.229
136.0929, 1411.797
136.5750, 1333.241
137.0571, 1278.160
137.5392, 1254.723
138.0213, 1264.554
138.5035, 1282.054
138.9856, 1290.071
139.4677, 1292.346
139.9498, 1307.247
140.4319, 1338.851
140.9140, 1388.274
141.3961, 1450.416
141.8783, 1524.715
142.3604, 1616.683
142.8425, 1734.452
143.3246, 1877.262
143.8067, 2027.857
144.2888, 2191.343
144.7710, 2354.473
145.2531, 2510.761
145.7352, 2640.035
146.2173, 2717.760
146.6994, 2734.836
147.1815, 2710.402
147.6637, 2686.815
148.1458, 2679.313
148.6279, 2672.909
149.1100, 2661.155
149.5921, 2643.457
150.0742, 2612.502
150.5564, 2555.571
151.0385, 2466.779
151.5206, 2378.268
152.0027, 2279.392
152.4848, 2192.479
152.9669, 2135.997
153.4491, 2114.980
153.9312, 2115.005
154.4133, 2115.739
154.8954, 2113.741
155.3775, 2121.427
155.8596, 2157.623
156.3418, 2193.419
156.8239, 2209.266
157.3060, 2199.111
157.7881, 2165.285
158.2702, 2108.150
158.7523, 2014.931
159.2345, 1927.790
159.7166, 1843.715
160.1987, 1771.981
160.6808, 1720.105
161.1629, 1690.511
161.6451, 1680.224
162.1272, 1683.713
162.6093, 1699.873
163.0914, 1733.552
163.5735, 1782.307
164.0556, 1845.931
164.5378, 1925.023
165.0199, 2019.443
165.5020, 2126.875
165.9841, 2242.388
166.4662, 2367.663
166.9483, 2500.636
167.4305, 2655.541
167.9126, 2810.354
168.3947, 2944.896
168.8768, 3051.648
169.3589, 3139.033
169.8410, 3227.073
170.3232, 3320.962
170.8053, 3407.452
171.2874, 3511.742
171.7695, 3598.009
172.2516, 3635.151
172.7337, 3610.320
173.2159, 3527.340
173.6980, 3392.936
174.1801, 3141.709
174.6622, 2920.983
175.1443, 2738.911
175.6264, 2589.393
176.1085, 2469.179
176.5907, 2377.401
177.0728, 2308.064
177.5549, 2249.092
178.0370, 2223.793
178.5191, 2179.380
179.0012, 2101.020
179.4834, 2008.647
179.9655, 1924.239
180.4476, 1856.032
180.9297, 1796.981
181.4118, 1730.198
181.8939, 1630.636
182.3761, 1554.472
182.8582, 1505.995
183.3403, 1479.936
183.8224, 1473.681
184.3045, 1486.136
184.7866, 1511.625
185.2688, 1538.420
185.7509, 1565.317
186.2330, 1595.379
186.7151, 1619.100
187.1972, 1649.819
187.6793, 1704.555
188.1615, 1789.483
188.6436, 1892.239
189.1257, 1987.693
189.6078, 2070.025
190.0899, 2152.654
190.5720, 2257.563
191.0542, 2353.573
191.5363, 2410.909
192.0184, 2419.519
192.5005, 2384.951
192.9826, 2314.764
193.4647, 2175.846
193.9469, 2052.933
194.4290, 1938.947
194.9111, 1845.122
195.3932, 1784.944
195.8753, 1761.681
196.3574, 1766.373
196.8396, 1785.490
197.3217, 1821.696
197.8038, 1870.729
198.2859, 1929.253
198.7680, 2002.018
199.2501, 2093.600
199.7323, 2204.711
200.2144, 2333.853
200.6965, 2478.904
201.1786, 2649.782
201.6607, 2818.453
202.1428, 2993.649
202.6250, 3162.037
203.1071, 3316.080
203.5892, 3453.670
204.0713, 3568.360
204.5534, 3650.618
205.0355, 3690.713
205.5177, 3716.145
205.9998, 3724.858
206.4819, 3720.456
206.9640, 3701.317
207.4461, 3668.623
207.9282, 3633.428
208.4104, 3610.683
208.8925, 3609.316
209.3746, 3578.399
209.8567, 3515.679
210.3388, 3426.785
210.8209, 3310.436
211.3030, 3168.473
211.7852, 3011.784
212.2673, 2845.926
212.7494, 2668.968
213.2315, 2506.349
213.7136, 2352.902
214.1957, 2217.197
214.6779, 2109.224
215.1600, 2026.983
215.6421, 1956.389
216.1242, 1887.557
216.6063, 1820.801
217.0884, 1749.890
217.5706, 1670.267
218.0527, 1590.933
218.5348, 1514.062
219.0169, 1441.139
219.4990, 1375.700
219.9811, 1320.640
220.4633, 1275.964
220.9454, 1236.149
221.4275, 1200.309
221.9096, 1168.991
222.3917, 1143.548
222.8738, 1122.914
223.3560, 1104.464
223.8381, 1086.444
224.3202, 1069.193
224.8023, 1055.439
225.2844, 1047.633
225.7665, 1039.915
226.2487, 1029.840
226.7308, 1018.751
227.2129, 1008.902
227.6950, 1001.381
228.1771, 996.3694
228.6592, 994.8444
229.1414, 997.6603
229.6235, 1002.649
230.1056, 1010.078
230.5877, 1019.325
231.0698, 1029.557
231.5519, 1040.459
232.0341, 1052.142
232.5162, 1064.957
232.9983, 1077.009
233.4804, 1092.733
233.9625, 1114.102
234.4446, 1138.581
234.9268, 1161.777
235.4089, 1182.315
235.8910, 1205.551
236.3731, 1241.488
236.8552, 1300.879
237.3373, 1356.941
237.8195, 1409.101
238.3016, 1458.190
238.7837, 1503.917
239.2658, 1546.497
239.7479, 1588.875
240.2300, 1635.577
240.7122, 1690.579
241.1943, 1739.083
241.6764, 1788.923
242.1585, 1827.618
242.6406, 1843.128
243.1227, 1836.816
243.6049, 1821.985
244.0870, 1813.074
244.5691, 1813.306
245.0512, 1802.893
245.5333, 1771.525
246.0154, 1740.649
246.4975, 1718.328
246.9797, 1705.089
247.4618, 1699.301
247.9439, 1700.547
248.4260, 1709.053
248.9081, 1714.465
249.3902, 1699.501
249.8724, 1699.161
250.3545, 1732.912
250.8366, 1788.036
251.3187, 1841.835
251.8008, 1880.061
252.2829, 1903.778
252.7651, 1920.266
253.2472, 1939.537
253.7293, 1937.264
254.2114, 1898.319
254.6935, 1839.730
255.1756, 1781.234
255.6578, 1732.386
256.1399, 1690.599
256.6220, 1648.621
257.1041, 1602.943
257.5862, 1563.755
258.0684, 1529.657
258.5505, 1502.625
259.0326, 1483.876
259.5147, 1473.931
259.9968, 1473.232
260.4789, 1484.915
260.9611, 1515.349
261.4432, 1540.039
261.9253, 1553.189
262.4074, 1562.522
262.8895, 1573.151
263.3716, 1585.617
263.8537, 1596.298
264.3358, 1598.600
264.8180, 1590.393
265.3001, 1591.738
265.7822, 1612.773
266.2643, 1636.127
266.7464, 1654.869
267.2285, 1668.633
267.7107, 1678.885
268.1928, 1682.016
268.6749, 1679.991
269.1570, 1692.379
269.6391, 1726.050
270.1212, 1765.484
270.6034, 1801.814
271.0855, 1837.131
271.5676, 1876.557
272.0497, 1926.587
272.5318, 1980.483
273.0139, 2021.931
273.4961, 2050.204
273.9782, 2068.038
274.4603, 2080.694
274.9424, 2083.015
275.4245, 2065.473
275.9066, 2020.937
276.3888, 1962.652
276.8709, 1904.188
277.3530, 1845.178
277.8351, 1788.350
278.3172, 1733.944
278.7993, 1683.087
279.2815, 1636.454
279.7636, 1592.912
280.2457, 1556.823
280.7278, 1532.865
281.2099, 1519.450
281.6920, 1509.190
282.1742, 1500.640
282.6563, 1493.935
283.1384, 1487.582
283.6205, 1480.832
284.1026, 1481.175
284.5847, 1498.296
285.0669, 1522.705
285.5490, 1536.644
286.0311, 1535.514
286.5132, 1531.416
286.9953, 1535.086
287.4774, 1546.399
287.9596, 1565.335
288.4417, 1595.164
288.9238, 1630.515
289.4059, 1666.894
289.8880, 1704.141
290.3701, 1742.441
290.8523, 1779.735
291.3344, 1818.029
291.8165, 1873.608
292.2986, 1956.913
292.7807, 2045.154
293.2628, 2124.533
293.7450, 2200.779
294.2271, 2289.553
294.7092, 2398.722
295.1913, 2524.629
295.6734, 2656.849
296.1555, 2804.471
296.6377, 2945.516
297.1198, 3083.464
297.6019, 3210.398
298.0840, 3314.639
298.5661, 3392.914
299.0482, 3453.890
299.5304, 3510.747
300.0125, 3559.122
300.4946, 3613.344
300.9767, 3678.933
301.4588, 3745.840
301.9409, 3809.739
302.4231, 3868.973
302.9052, 3922.949
303.3873, 3974.007
303.8694, 4025.772
304.3515, 4042.036
304.8336, 4031.999
305.3158, 3977.204
305.7979, 3858.631
306.2800, 3690.665
306.7621, 3497.203
307.2442, 3289.063
307.7263, 3072.226
308.2085, 2867.757
308.6906, 2672.151
309.1727, 2496.761
309.6548, 2335.082
310.1369, 2195.246
310.6190, 2089.149
311.1012, 2021.398
311.5833, 1976.407
312.0654, 1930.214
312.5475, 1880.587
313.0296, 1841.302
313.5117, 1817.505
313.9939, 1804.379
314.4760, 1802.784
314.9581, 1811.848
315.4402, 1821.685
315.9223, 1820.647
316.4044, 1811.911
316.8866, 1816.187
317.3687, 1840.403
317.8508, 1869.772
318.3329, 1899.154
318.8150, 1925.923
319.2971, 1940.388
319.7793, 1932.337
320.2614, 1912.999
320.7435, 1898.279
321.2256, 1888.813
321.7077, 1879.649
322.1898, 1870.535
322.6720, 1858.698
323.1541, 1838.465
323.6362, 1806.681
324.1183, 1770.416
324.6004, 1728.173
325.0826, 1684.015
325.5647, 1649.476
326.0468, 1628.888
326.5289, 1620.347
327.0110, 1623.399
327.4931, 1643.402
327.9753, 1657.146
328.4574, 1651.639
328.9395, 1642.270
329.4216, 1646.221
329.9037, 1666.287
330.3858, 1693.968
330.8680, 1720.004
331.3501, 1742.848
331.8322, 1775.717
332.3143, 1819.759
332.7964, 1871.002
333.2785, 1929.540
333.7606, 1993.939
334.2427, 2061.501
334.7249, 2130.739
335.2070, 2201.393
335.6891, 2270.421
336.1712, 2336.167
336.6533, 2402.667
337.1354, 2477.730
337.6176, 2550.080
338.0997, 2608.584
338.5818, 2649.282
339.0639, 2676.945
339.5460, 2698.077
340.0281, 2712.910
340.5103, 2720.322
340.9924, 2715.796
341.4745, 2707.208
341.9566, 2696.125
342.4387, 2683.881
342.9208, 2673.668
343.4030, 2667.854
343.8851, 2666.179
344.3672, 2666.522
344.8493, 2666.027
345.3314, 2673.485
345.8135, 2699.639
346.2957, 2734.752
346.7778, 2762.581
347.2599, 2771.275
347.7420, 2780.115
348.2241, 2818.168
348.7062, 2884.494
349.1884, 2942.405
349.6705, 2986.480
350.1526, 3006.286
350.6347, 2991.268
351.1168, 2939.750
351.5989, 2864.602
352.0811, 2765.746
352.5632, 2648.276
353.0453, 2517.349
353.5274, 2372.655
354.0095, 2225.498
354.4916, 2083.034
354.9738, 1945.374
355.4559, 1823.968
355.9380, 1720.909
356.4201, 1632.027
356.9022, 1555.828
357.3843, 1491.302
357.8665, 1436.263
358.3486, 1389.950
358.8307, 1350.605
359.3128, 1310.254
359.7949, 1262.462
360.2770, 1221.087
360.7592, 1186.416
361.2413, 1159.163
361.7234, 1142.776
362.2055, 1137.113
362.6876, 1134.354
363.1697, 1122.573
363.6519, 1097.115
364.1340, 1079.714
364.6161, 1076.239
365.0982, 1075.632
365.5803, 1073.690
366.0624, 1070.931
366.5446, 1069.893
367.0267, 1072.538
367.5088, 1077.934
367.9909, 1082.611
368.4730, 1085.104
368.9551, 1090.493
369.4373, 1105.420
369.9194, 1122.026
370.4015, 1131.587
370.8836, 1130.932
371.3657, 1128.380
371.8478, 1131.819
372.3300, 1140.232
372.8121, 1146.992
373.2942, 1149.736
373.7763, 1152.041
374.2584, 1157.694
374.7405, 1166.403
375.2227, 1177.069
375.7048, 1187.484
376.1869, 1200.984
376.6690, 1222.857
377.1511, 1252.661
377.6332, 1282.206
378.1154, 1304.775
378.5975, 1322.920
379.0796, 1352.889
379.5617, 1397.005
380.0438, 1447.660
380.5259, 1503.660
381.0081, 1565.084
381.4902, 1633.570
381.9723, 1709.621
382.4544, 1787.683
382.9365, 1858.893
383.4186, 1918.406
383.9008, 1984.390
384.3829, 2068.819
384.8650, 2148.070
385.3471, 2210.977
385.8292, 2258.638
386.3113, 2296.650
386.7935, 2328.359
387.2756, 2353.815
387.7577, 2373.854
388.2398, 2392.482
388.7219, 2396.848
389.2040, 2383.304
389.6862, 2354.956
390.1683, 2310.067
390.6504, 2247.363
391.1325, 2182.592
391.6146, 2136.279
392.0967, 2104.393
392.5789, 2057.201
393.0610, 1984.695
393.5431, 1905.538
394.0252, 1833.952
394.5073, 1769.542
394.9894, 1712.972
395.4716, 1664.766
395.9537, 1623.916
396.4358, 1592.406
396.9179, 1568.662
397.4000, 1543.631
397.8821, 1511.649
398.3643, 1475.693
398.8464, 1445.852
399.3285, 1422.550
399.8106, 1403.245
400.2927, 1387.521
400.7748, 1375.603
401.2570, 1366.828
401.7391, 1361.478
402.2212, 1362.072
402.7033, 1371.423
403.1854, 1389.745
403.6675, 1414.877
404.1497, 1453.006
404.6317, 1491.487
405.1139, 1521.379
405.5960, 1550.056
406.0781, 1589.671
406.5602, 1646.536
407.0423, 1715.299
407.5244, 1786.153
408.0066, 1857.678
408.4887, 1936.844
408.9708, 2024.657
409.4529, 2121.585
409.9350, 2228.547
410.4171, 2345.283
410.8993, 2470.556
411.3814, 2608.538
411.8635, 2752.930
412.3456, 2895.777
412.8277, 3038.904
413.3098, 3161.318
413.7920, 3247.510
414.2741, 3300.094
414.7562, 3341.931
415.2383, 3376.795
415.7204, 3396.244
416.2025, 3391.367
416.6847, 3369.833
417.1668, 3344.094
417.6489, 3317.807
418.1310, 3288.117
418.6131, 3249.673
419.0952, 3196.192
419.5774, 3158.272
420.0595, 3149.939
420.5416, 3141.246
421.0237, 3119.882
421.5058, 3086.904
421.9879, 3046.198
422.4701, 2999.031
422.9522, 2949.029
423.4343, 2908.168
423.9164, 2883.872
424.3985, 2850.260
424.8806, 2803.220
425.3628, 2744.896
425.8449, 2673.828
426.3270, 2590.605
426.8091, 2502.704
427.2912, 2411.360
427.7733, 2319.207
428.2555, 2234.169
428.7376, 2156.452
429.2197, 2083.816
429.7018, 2017.457
430.1839, 1954.859
430.6660, 1888.134
431.1482, 1807.076
431.6303, 1735.172
432.1124, 1688.287
432.5945, 1658.521
433.0766, 1629.965
433.5587, 1597.861
434.0409, 1568.500
434.5230, 1550.055
435.0051, 1544.609
435.4872, 1542.674
435.9693, 1545.238
436.4514, 1549.845
436.9336, 1554.422
437.4157, 1560.255
437.8978, 1569.911
438.3799, 1584.792
438.8620, 1604.256
439.3441, 1627.855
439.8263, 1659.198
440.3084, 1685.013
440.7905, 1703.375
441.2726, 1715.372
441.7547, 1721.511
442.2368, 1721.645
442.7190, 1714.941
443.2011, 1700.049
443.6832, 1678.153
444.1653, 1653.002
444.6474, 1625.484
445.1295, 1587.873
445.6117, 1531.614
446.0938, 1463.837
446.5759, 1400.990
447.0580, 1339.949
447.5401, 1291.057
448.0222, 1264.840
448.5044, 1250.524
448.9865, 1232.040
449.4686, 1206.682
449.9507, 1184.005
450.4328, 1174.336
450.9149, 1178.567
451.3971, 1179.336
451.8792, 1173.424
452.3613, 1167.891
452.8434, 1165.987
453.3255, 1165.010
453.8076, 1161.316
454.2898, 1153.554
454.7719, 1143.248
455.2540, 1132.827
455.7361, 1122.570
456.2182, 1109.232
456.7003, 1089.380
457.1825, 1070.205
457.6646, 1054.341
458.1467, 1042.348
458.6288, 1035.977
459.1109, 1038.821
459.5930, 1044.666
460.0752, 1046.863
460.5573, 1045.823
461.0394, 1043.493
461.5215, 1039.433
462.0036, 1036.736
462.4857, 1041.005
462.9679, 1053.633
463.4500, 1067.428
463.9321, 1082.650
464.4142, 1098.084
464.8963, 1112.947
465.3784, 1127.278
465.8606, 1141.239
466.3427, 1154.712
466.8248, 1168.553
467.3069, 1186.224
467.7890, 1212.105
468.2711, 1233.660
468.7533, 1247.138
469.2354, 1258.156
469.7175, 1268.463
470.1996, 1279.409
470.6817, 1294.731
471.1638, 1317.157
471.6460, 1346.086
472.1281, 1379.854
472.6102, 1418.858
473.0923, 1460.795
473.5744, 1502.903
474.0565, 1548.317
474.5387, 1600.876
475.0208, 1659.927
475.5029, 1728.267
475.9850, 1812.215
476.4671, 1903.387
476.9492, 1990.369
477.4313, 2071.792
477.9135, 2155.670
478.3956, 2250.408
478.8777, 2354.428
479.3598, 2440.497
479.8419, 2502.510
480.3240, 2552.298
480.8062, 2603.413
481.2883, 2636.276
481.7704, 2628.371
482.2525, 2575.803
482.7346, 2496.396
483.2167, 2403.080
483.6989, 2296.973
484.1810, 2186.262
484.6631, 2069.211
485.1452, 1952.414
485.6273, 1834.750
486.1094, 1720.862
486.5916, 1618.701
487.0737, 1529.578
487.5558, 1451.330
488.0379, 1382.322
488.5200, 1322.887
489.0021, 1273.276
489.4843, 1233.541
489.9664, 1204.616
490.4485, 1189.510
490.9306, 1189.286
491.4127, 1181.699
491.8948, 1157.306
492.3770, 1137.611
492.8591, 1127.378
493.3412, 1125.813
493.8233, 1133.929
494.3054, 1151.324
494.7875, 1170.740
495.2697, 1181.981
495.7518, 1184.584
496.2339, 1189.372
496.7160, 1193.836
497.1981, 1205.120
497.6802, 1230.314
498.1624, 1263.703
498.6445, 1295.570
499.1266, 1322.606
499.6087, 1349.638
500.0908, 1384.091
500.5729, 1421.204
501.0551, 1446.529
501.5372, 1455.956
502.0193, 1463.625
502.5014, 1486.453
502.9835, 1526.837
503.4656, 1549.060
503.9478, 1541.652
504.4299, 1531.899
504.9120, 1528.124
505.3941, 1527.401
505.8762, 1525.649
506.3583, 1521.424
506.8405, 1514.844
507.3226, 1503.582
507.8047, 1486.923
508.2868, 1481.967
508.7689, 1501.942
509.2510, 1513.355
509.7332, 1494.423
510.2153, 1456.655
510.6974, 1419.071
511.1795, 1387.383
511.6616, 1353.742
512.1437, 1311.996
512.6259, 1264.297
513.1080, 1213.088
513.5901, 1158.828
514.0722, 1109.646
514.5543, 1074.697
515.0364, 1054.586
515.5186, 1028.167
516.0007, 985.4821
516.4828, 949.0305
516.9649, 927.2274
517.4470, 913.2905
517.9291, 899.2817
518.4113, 883.0493
518.8934, 867.8498
519.3755, 856.6316
519.8576, 849.4047
520.3397, 848.2108
520.8218, 858.4114
521.3040, 863.3531
521.7861, 847.2532
522.2682, 822.6136
522.7503, 806.9011
523.2324, 803.4429
523.7145, 805.8855
524.1967, 814.9293
524.6788, 826.2361
525.1609, 831.7893
525.6430, 830.8959
526.1251, 831.2014
526.6072, 839.7181
527.0894, 854.9238
527.5715, 862.3585
528.0536, 849.6705
528.5357, 844.9382
529.0178, 858.1519
529.4999, 875.5347
529.9821, 884.2099
530.4642, 883.3475
530.9463, 882.4043
531.4284, 890.7323
531.9105, 904.7588
532.3926, 910.3144
532.8748, 904.7361
533.3569, 906.1904
533.8390, 926.3585
534.3211, 955.0867
534.8032, 976.2756
535.2853, 989.8239
535.7675, 996.9833
536.2496, 993.1735
536.7317, 986.7044
537.2138, 983.3380
537.6959, 984.1308
538.1780, 990.4901
538.6602, 1003.797
539.1423, 1020.897
539.6244, 1033.285
540.1065, 1039.320
540.5886, 1044.366
541.0707, 1048.013
541.5529, 1051.462
542.0350, 1056.184
542.5171, 1061.357
542.9992, 1064.488
543.4813, 1064.534
543.9634, 1061.789
544.4456, 1053.907
544.9277, 1042.389
545.4098, 1037.973
545.8919, 1045.490
546.3740, 1055.603
546.8561, 1056.103
547.3383, 1044.657
547.8204, 1040.839
548.3025, 1048.321
548.7846, 1059.228
549.2667, 1072.870
549.7488, 1086.896
550.2310, 1096.945
550.7131, 1101.869
551.1952, 1107.690
551.6773, 1123.683
552.1594, 1149.945
552.6415, 1171.919
553.1237, 1188.176
553.6058, 1202.547
554.0879, 1214.022
554.5700, 1225.922
555.0521, 1245.216
555.5342, 1277.878
556.0164, 1303.610
556.4985, 1305.671
556.9806, 1297.996
557.4627, 1301.050
557.9448, 1316.042
558.4269, 1330.782
558.9091, 1336.790
559.3912, 1334.601
559.8733, 1326.161
560.3554, 1302.711
560.8375, 1287.835
561.3196, 1289.186
561.8018, 1294.440
562.2839, 1294.252
562.7660, 1289.563
563.2481, 1288.055
563.7302, 1294.756
564.2123, 1306.703
564.6945, 1319.428
565.1766, 1332.983
565.6587, 1349.568
566.1408, 1371.308
566.6229, 1392.416
567.1050, 1403.219
567.5872, 1399.722
568.0693, 1410.348
568.5514, 1449.702
569.0335, 1487.543
569.5156, 1511.879
569.9977, 1525.551
570.4799, 1533.726
570.9620, 1538.197
571.4441, 1538.820
571.9262, 1532.587
572.4083, 1519.904
572.8904, 1516.378
573.3726, 1524.821
573.8547, 1536.527
574.3368, 1549.597
574.8189, 1562.153
575.3010, 1569.471
575.7831, 1566.698
576.2653, 1572.514
576.7474, 1599.686
577.2295, 1635.716
577.7116, 1666.541
578.1937, 1692.033
578.6758, 1719.427
579.1580, 1753.000
579.6401, 1792.286
580.1222, 1836.803
580.6042, 1890.090
581.0864, 1939.805
581.5685, 1979.370
582.0506, 2019.893
582.5327, 2073.375
583.0148, 2132.689
583.4969, 2177.964
583.9791, 2196.106
584.4612, 2204.463
584.9433, 2226.219
585.4254, 2251.443
585.9075, 2248.455
586.3896, 2209.022
586.8718, 2155.068
587.3539, 2109.307
587.8360, 2071.460
588.3181, 2013.201
588.8002, 1908.438
589.2823, 1814.667
589.7645, 1745.868
590.2466, 1688.366
590.7287, 1629.287
591.2108, 1566.824
591.6929, 1508.309
592.1750, 1459.871
592.6572, 1418.513
593.1393, 1376.353
593.6214, 1333.636
594.1035, 1297.720
594.5856, 1271.090
595.0677, 1253.515
595.5499, 1246.285
596.0320, 1252.962
596.5141, 1254.698
596.9962, 1245.947
597.4783, 1237.675
597.9604, 1234.987
598.4426, 1236.197
598.9247, 1237.475
599.4068, 1237.699
599.8889, 1240.614
600.3710, 1253.219
600.8531, 1274.069
601.3353, 1287.208
601.8174, 1289.478
602.2995, 1293.745
602.7816, 1309.076
603.2637, 1329.363
603.7458, 1341.996
604.2280, 1345.141
604.7101, 1347.001
605.1922, 1352.145
605.6743, 1354.700
606.1564, 1346.102
606.6385, 1330.579
607.1207, 1321.019
607.6028, 1324.236
608.0849, 1333.617
608.5670, 1337.341
609.0491, 1334.975
609.5313, 1330.152
610.0134, 1320.980
610.4955, 1312.730
610.9776, 1311.236
611.4597, 1312.472
611.9418, 1307.778
612.4240, 1291.319
612.9061, 1278.791
613.3882, 1281.499
613.8703, 1289.615
614.3524, 1292.115
614.8345, 1287.801
615.3167, 1279.861
615.7988, 1270.364
616.2809, 1258.905
616.7630, 1243.476
617.2451, 1221.745
617.7272, 1203.511
618.2094, 1194.307
618.6915, 1184.219
619.1736, 1167.408
619.6557, 1144.888
620.1378, 1119.748
