##NAMES=Azurite
##RRUFFID=R050638
##IDEAL CHEMISTRY=Cu^2+^_3_(CO_3_)_2_(OH)_2_
##LOCALITY=Zacatecas, Mexico
##OWNER=RRUFF
##SOURCE=University of Arizona Mineral Museum
##DESCRIPTION=Blue bladed crystals
##STATUS=The identification of this mineral has been confirmed by X-ray diffraction and chemical analysis
##URL=rruff.info/R050638
##MEASURED CHEMISTRY=Cu_3.00_(CO_3_)_2_(OH)_2_
92.02539, 179.1732
92.50751, 183.9834
92.98962, 187.5564
93.47174, 185.7116
93.95386, 181.8174
94.43597, 177.6807
94.91809, 174.3434
95.40021, 171.6561
95.88232, 168.3575
96.36444, 163.3581
96.84656, 159.2971
97.32867, 157.8369
97.81078, 157.7609
98.29290, 156.9461
98.77502, 153.3826
99.25713, 146.3252
99.73925, 141.3902
100.2214, 139.3192
100.7035, 138.0761
101.1856, 137.0110
101.6677, 135.9223
102.1498, 134.7283
102.6320, 133.2562
103.1141, 131.0257
103.5962, 129.8412
104.0783, 130.3996
104.5604, 131.6833
105.0425, 132.7929
105.5247, 133.5890
106.0068, 133.6705
106.4889, 131.9276
106.9710, 128.0885
107.4531, 124.5509
107.9352, 122.3720
108.4173, 121.4043
108.8995, 120.8344
109.3816, 120.3377
109.8637, 120.2112
110.3458, 120.9957
110.8279, 123.0227
111.3100, 124.9400
111.7922, 124.9070
112.2743, 122.2848
112.7564, 119.7397
113.2385, 117.8773
113.7206, 116.4947
114.2027, 115.5469
114.6849, 115.0671
115.1670, 114.8618
115.6491, 114.2313
116.1312, 112.2911
116.6133, 110.9653
117.0954, 110.9293
117.5776, 111.6531
118.0597, 112.3421
118.5418, 112.4476
119.0239, 111.9599
119.5060, 111.4352
119.9881, 110.5725
120.4703, 109.9457
120.9524, 109.7937
121.4345, 110.1061
121.9166, 110.7999
122.3987, 111.9867
122.8808, 113.7799
123.3630, 114.4284
123.8451, 112.9867
124.3272, 110.8823
124.8093, 109.3995
125.2914, 108.7252
125.7735, 108.6991
126.2557, 109.4112
126.7378, 110.7108
127.2199, 112.1355
127.7020, 113.8454
128.1841, 115.5995
128.6662, 116.5468
129.1483, 116.2239
129.6305, 115.3941
130.1126, 114.7480
130.5947, 114.2571
131.0768, 113.5923
131.5589, 112.2496
132.0410, 110.0718
132.5232, 108.5137
133.0053, 108.6152
133.4874, 108.8056
133.9695, 108.1250
134.4516, 106.4438
134.9337, 104.5002
135.4159, 103.4819
135.8980, 104.1228
136.3801, 104.3252
136.8622, 103.7055
137.3443, 102.8236
137.8264, 102.1002
138.3086, 101.7026
138.7907, 101.5791
139.2728, 101.6018
139.7549, 102.1032
140.2370, 102.3692
140.7191, 102.5251
141.2013, 102.3878
141.6834, 101.5325
142.1655, 99.61600
142.6476, 97.01335
143.1297, 95.43800
143.6118, 96.10081
144.0939, 96.32192
144.5761, 94.18929
145.0582, 90.31642
145.5403, 87.66418
146.0224, 88.73577
146.5045, 92.16286
146.9866, 93.56084
147.4688, 91.31509
147.9509, 88.18190
148.4330, 86.99889
148.9151, 88.08662
149.3972, 89.10900
149.8793, 87.81582
150.3615, 85.75040
150.8436, 84.98745
151.3257, 87.09305
151.8078, 90.55412
152.2899, 91.80912
152.7720, 89.93167
153.2542, 87.31131
153.7363, 84.22127
154.2184, 81.26235
154.7005, 79.41863
155.1826, 79.60337
155.6647, 81.55999
156.1469, 82.62367
156.6290, 81.80206
157.1111, 80.97241
157.5932, 80.42319
158.0753, 80.24355
158.5574, 80.57442
159.0396, 81.67637
159.5217, 83.75748
160.0038, 84.62694
160.4859, 83.20744
160.9680, 81.72533
161.4501, 81.17384
161.9323, 81.51157
162.4144, 82.04093
162.8965, 82.00289
163.3786, 81.13744
163.8607, 80.92283
164.3428, 81.96015
164.8250, 83.17500
165.3071, 83.78059
165.7892, 83.66026
166.2713, 83.21380
166.7534, 82.83971
167.2355, 82.52650
167.7177, 82.42937
168.1998, 82.66427
168.6819, 83.09074
169.1640, 83.59847
169.6461, 84.21648
170.1282, 84.72031
170.6104, 84.63515
171.0925, 84.03515
171.5746, 83.71856
172.0567, 84.59634
172.5388, 86.06652
173.0209, 86.17400
173.5031, 83.77847
173.9852, 81.01149
174.4673, 79.58422
174.9494, 79.43361
175.4315, 80.02029
175.9136, 81.52878
176.3958, 83.89690
176.8779, 85.03891
177.3600, 83.20658
177.8421, 81.25862
178.3242, 80.85275
178.8063, 82.02536
179.2885, 83.82249
179.7706, 85.35551
180.2527, 86.60162
180.7348, 87.67977
181.2169, 88.80165
181.6990, 89.61913
182.1812, 89.80547
182.6633, 89.36780
183.1454, 88.66495
183.6275, 88.14916
184.1096, 87.72256
184.5917, 87.75187
185.0738, 88.72649
185.5560, 89.74549
186.0381, 90.15453
186.5202, 89.79903
187.0023, 88.99700
187.4844, 88.26347
187.9665, 87.36366
188.4487, 86.97530
188.9308, 88.01694
189.4129, 89.10439
189.8950, 88.59075
190.3771, 85.96521
190.8592, 82.56714
191.3414, 81.08089
191.8235, 82.72573
192.3056, 83.99021
192.7877, 84.61788
193.2698, 84.63548
193.7519, 83.96964
194.2341, 82.52383
194.7162, 80.62963
195.1983, 78.88155
195.6804, 77.20290
196.1625, 75.78933
196.6446, 74.78159
197.1268, 74.07939
197.6089, 73.50906
198.0910, 73.12161
198.5731, 72.66309
199.0552, 71.69795
199.5373, 70.14912
200.0195, 68.58950
200.5016, 67.08305
200.9837, 65.72606
201.4658, 65.08620
201.9479, 65.67465
202.4300, 66.75365
202.9122, 67.59361
203.3943, 68.20141
203.8764, 68.36086
204.3585, 67.59270
204.8406, 65.90388
205.3227, 64.73455
205.8048, 64.96345
206.2870, 65.45683
206.7691, 65.29575
207.2512, 64.38950
207.7333, 63.48680
208.2154, 63.47682
208.6975, 64.53152
209.1797, 65.45853
209.6618, 66.03466
210.1439, 66.44014
210.6260, 66.81581
211.1081, 67.16501
211.5902, 67.29971
212.0724, 66.77629
212.5545, 65.08962
213.0366, 64.32858
213.5187, 65.45012
214.0008, 66.87679
214.4829, 67.71200
214.9651, 67.75709
215.4472, 67.35286
215.9293, 66.94309
216.4114, 66.41147
216.8935, 66.14156
217.3756, 65.94262
217.8578, 66.06865
218.3399, 66.98367
218.8220, 68.65871
219.3041, 70.37383
219.7862, 70.94467
220.2683, 69.32640
220.7505, 68.58152
221.2326, 69.50388
221.7147, 70.70473
222.1968, 70.85511
222.6789, 69.73219
223.1610, 68.42257
223.6432, 68.58733
224.1253, 71.32222
224.6074, 73.37120
225.0895, 73.92702
225.5716, 74.25352
226.0537, 75.57028
226.5358, 78.15005
227.0180, 81.28317
227.5001, 84.07166
227.9822, 86.53834
228.4643, 88.42793
228.9464, 89.59901
229.4285, 90.23673
229.9107, 90.20220
230.3928, 89.42663
230.8749, 88.84593
231.3570, 89.89007
231.8391, 92.71767
232.3212, 95.27441
232.8034, 97.12228
233.2855, 98.57291
233.7676, 99.98958
234.2497, 101.4327
234.7318, 102.8652
235.2139, 104.2574
235.6961, 105.6121
236.1782, 106.9216
236.6603, 107.7762
237.1424, 108.7044
237.6245, 110.7605
238.1066, 114.3939
238.5888, 118.1147
239.0709, 120.4170
239.5530, 121.6584
240.0351, 122.8245
240.5172, 124.2953
240.9993, 125.8968
241.4815, 127.1911
241.9636, 127.9685
242.4457, 128.9446
242.9278, 131.2339
243.4099, 134.1382
243.8920, 136.1042
244.3742, 136.2727
244.8563, 135.0868
245.3384, 133.5883
245.8205, 131.9486
246.3026, 129.5612
246.7847, 125.8924
247.2668, 121.3717
247.7490, 116.6224
248.2311, 111.9259
248.7132, 107.1978
249.1953, 102.0237
249.6774, 96.03683
250.1595, 90.39436
250.6417, 85.36770
251.1238, 80.97994
251.6059, 77.34232
252.0880, 74.55673
252.5701, 72.48640
253.0522, 70.85262
253.5344, 69.98682
254.0165, 68.92021
254.4986, 66.96373
254.9807, 64.83070
255.4628, 63.34214
255.9449, 62.91029
256.4271, 63.12682
256.9092, 62.96250
257.3913, 61.88015
257.8734, 61.48899
258.3555, 62.40093
258.8376, 63.87223
259.3198, 65.31670
259.8019, 66.50635
260.2840, 67.40424
260.7661, 67.90125
261.2482, 67.80820
261.7303, 67.64306
262.2125, 67.42175
262.6946, 67.19533
263.1767, 66.95199
263.6588, 66.70017
264.1409, 66.55702
264.6230, 66.85163
265.1052, 68.33633
265.5873, 68.70856
266.0694, 66.73148
266.5515, 64.53968
267.0336, 63.85742
267.5157, 64.99682
267.9979, 66.88094
268.4800, 67.88967
268.9621, 67.42946
269.4442, 67.35511
269.9263, 67.72620
270.4084, 68.35441
270.8906, 69.32908
271.3727, 70.54757
271.8548, 71.58353
272.3369, 71.85484
272.8190, 70.99817
273.3011, 70.58141
273.7833, 70.92403
274.2654, 71.34985
274.7475, 71.64519
275.2296, 71.70376
275.7117, 71.33275
276.1938, 70.24677
276.6760, 68.21021
277.1581, 66.94032
277.6402, 66.76587
278.1223, 66.85445
278.6044, 66.98310
279.0865, 67.05742
279.5686, 66.95494
280.0508, 66.56351
280.5329, 65.87827
281.0150, 65.17693
281.4971, 64.95796
281.9792, 64.23172
282.4613, 61.91714
282.9435, 58.74925
283.4256, 56.54266
283.9077, 56.60311
284.3898, 58.58584
284.8719, 59.38014
285.3540, 58.03123
285.8362, 56.77283
286.3183, 56.40358
286.8004, 56.50614
287.2825, 56.25381
287.7646, 55.18914
288.2467, 53.57560
288.7289, 52.32011
289.2110, 51.50786
289.6931, 50.91354
290.1752, 50.59341
290.6573, 50.45539
291.1394, 50.40266
291.6216, 50.40378
292.1037, 50.41216
292.5858, 50.30823
293.0679, 49.87953
293.5500, 49.75360
294.0321, 50.30439
294.5143, 51.05408
294.9964, 51.52090
295.4785, 51.57488
295.9606, 51.25963
296.4427, 50.56993
296.9248, 49.28729
297.4070, 48.30099
297.8891, 47.69436
298.3712, 47.36397
298.8533, 47.20332
299.3354, 47.20165
299.8175, 47.48510
300.2997, 48.32804
300.7818, 49.89159
301.2639, 50.55696
301.7460, 49.38453
302.2281, 48.06472
302.7102, 47.94535
303.1924, 48.94060
303.6745, 49.81742
304.1566, 49.56962
304.6387, 48.25541
305.1208, 47.41882
305.6029, 47.25377
306.0851, 47.31704
306.5672, 47.45070
307.0493, 47.63917
307.5314, 47.84480
308.0135, 48.01354
308.4956, 48.21223
308.9778, 48.74964
309.4599, 50.53186
309.9420, 51.50361
310.4241, 50.43164
310.9062, 48.13586
311.3883, 46.09810
311.8705, 44.86727
312.3526, 44.40012
312.8347, 44.85559
313.3168, 46.93544
313.7989, 48.16442
314.2810, 47.41798
314.7632, 45.76954
315.2453, 44.47443
315.7274, 43.85585
316.2095, 43.96609
316.6916, 45.17845
317.1737, 48.00457
317.6559, 49.57347
318.1380, 48.58506
318.6201, 46.87945
319.1022, 46.25287
319.5843, 46.90174
320.0664, 47.71375
320.5485, 47.57886
321.0306, 46.40020
321.5128, 45.84809
321.9949, 46.56892
322.4770, 47.35004
322.9591, 47.35430
323.4412, 46.66845
323.9233, 45.93512
324.4055, 45.62147
324.8876, 45.61681
325.3697, 45.16022
325.8518, 43.50745
326.3339, 42.27050
326.8160, 42.15903
327.2982, 42.90171
327.7803, 44.06002
328.2624, 45.56740
328.7445, 47.03773
329.2266, 47.32276
329.7087, 45.76165
330.1909, 44.40051
330.6730, 43.43016
331.1551, 42.93206
331.6372, 43.28507
332.1193, 44.61637
332.6014, 46.03631
333.0836, 46.16862
333.5657, 44.33924
334.0478, 43.19989
334.5299, 43.33986
335.0120, 43.87266
335.4941, 44.12621
335.9763, 44.00510
336.4584, 43.71354
336.9405, 43.41933
337.4226, 43.11885
337.9047, 42.88295
338.3868, 42.77875
338.8690, 42.66610
339.3511, 42.50590
339.8332, 42.28041
340.3153, 41.88416
340.7974, 41.17321
341.2795, 40.29253
341.7617, 40.23990
342.2438, 41.83466
342.7259, 43.15999
343.2080, 43.75267
343.6901, 43.82106
344.1722, 43.59426
344.6544, 43.15724
345.1365, 42.66825
345.6186, 42.45538
346.1007, 42.62828
346.5828, 42.95693
347.0649, 43.64359
347.5471, 44.36596
348.0292, 45.01796
348.5113, 45.50236
348.9934, 45.43840
349.4755, 44.20164
349.9576, 41.16749
350.4398, 39.63929
350.9219, 40.36584
351.4040, 41.65345
351.8861, 42.70864
352.3682, 43.54094
352.8503, 44.63719
353.3325, 46.49711
353.8146, 48.97936
354.2967, 49.80051
354.7788, 47.05388
355.2609, 44.83238
355.7430, 43.98565
356.2252, 44.18525
356.7073, 45.09868
357.1894, 46.58689
357.6715, 48.24840
358.1536, 49.05993
358.6357, 48.31386
359.1179, 47.74250
359.5999, 47.32054
360.0821, 47.13676
360.5642, 47.45770
361.0463, 48.23897
361.5284, 48.94548
362.0105, 48.80269
362.4926, 47.41312
362.9748, 46.72755
363.4569, 47.49205
363.9390, 48.21693
364.4211, 48.20222
364.9032, 47.58266
365.3853, 46.82988
365.8675, 46.22215
366.3496, 45.80510
366.8317, 46.03058
367.3138, 47.20012
367.7959, 48.70031
368.2780, 51.16210
368.7602, 53.59066
369.2423, 54.54445
369.7244, 53.34362
370.2065, 51.17347
370.6886, 50.41682
371.1707, 51.62132
371.6529, 52.90173
372.1350, 54.21534
372.6171, 55.35549
373.0992, 56.18869
373.5813, 56.69246
374.0634, 56.95148
374.5456, 56.95253
375.0277, 56.67541
375.5098, 56.55177
375.9919, 56.26913
376.4740, 56.56531
376.9561, 58.21942
377.4383, 60.68685
377.9204, 62.71915
378.4025, 63.53662
378.8846, 63.47848
379.3667, 63.38593
379.8488, 63.08667
380.3310, 63.21375
380.8131, 64.48210
381.2952, 66.09356
381.7773, 67.10725
382.2594, 67.14450
382.7415, 67.21189
383.2237, 68.67233
383.7058, 71.51668
384.1879, 73.81088
384.6700, 74.80639
385.1521, 75.36919
385.6342, 76.38526
386.1164, 77.81116
386.5985, 79.02993
387.0806, 79.49947
387.5627, 79.52603
388.0448, 79.84828
388.5269, 80.56107
389.0091, 81.44768
389.4912, 82.73499
389.9733, 84.07700
390.4554, 84.58435
390.9375, 83.27481
391.4196, 81.80276
391.9018, 81.66085
392.3839, 82.76244
392.8660, 84.39956
393.3481, 86.52283
393.8302, 88.76572
394.3123, 90.48716
394.7945, 91.73933
395.2766, 92.42817
395.7587, 92.44531
396.2408, 91.88905
396.7229, 90.80479
397.2050, 89.15052
397.6872, 87.36021
398.1693, 85.92313
398.6514, 84.88357
399.1335, 83.66492
399.6156, 82.26598
400.0977, 80.64830
400.5798, 78.73368
401.0620, 76.55661
401.5441, 74.26899
402.0262, 71.98161
402.5083, 69.64444
402.9904, 67.03729
403.4725, 63.41285
403.9547, 60.47306
404.4368, 58.96832
404.9189, 58.15853
405.4010, 57.12695
405.8831, 55.59558
406.3652, 53.87407
406.8474, 52.36028
407.3295, 50.89017
407.8116, 50.23578
408.2937, 50.86392
408.7758, 51.78745
409.2579, 52.80484
409.7401, 53.66673
410.2222, 53.87832
410.7043, 53.00508
411.1864, 51.18783
411.6685, 49.63430
412.1506, 48.04827
412.6328, 47.16432
413.1149, 47.61147
413.5970, 48.56726
414.0791, 49.23630
414.5612, 49.32811
415.0433, 48.90333
415.5255, 47.96749
416.0076, 46.33954
416.4897, 44.80852
416.9718, 43.10781
417.4539, 41.79642
417.9360, 41.25127
418.4182, 41.37115
418.9003, 41.78124
419.3824, 42.30351
419.8645, 42.88731
420.3466, 43.33720
420.8287, 43.70361
421.3109, 43.81247
421.7930, 43.47689
422.2751, 42.91442
422.7572, 42.44121
423.2393, 42.22124
423.7214, 41.74309
424.2036, 39.97876
424.6857, 37.02295
425.1678, 35.32086
425.6499, 35.84367
426.1320, 37.29626
426.6141, 38.77960
427.0963, 40.21636
427.5784, 40.92281
428.0605, 40.09194
428.5426, 38.56626
429.0247, 37.55739
429.5068, 37.12277
429.9890, 37.16604
430.4711, 37.81733
430.9532, 38.88086
431.4353, 39.67781
431.9174, 40.14765
432.3995, 40.43873
432.8817, 40.68420
433.3638, 40.79755
433.8459, 40.43765
434.3280, 39.42213
434.8101, 38.41483
435.2922, 38.44198
435.7744, 39.87793
436.2565, 40.84007
436.7386, 41.47055
437.2207, 41.44651
437.7028, 39.87833
438.1849, 37.26351
438.6671, 35.49566
439.1492, 35.97909
439.6313, 38.22663
440.1134, 39.36625
440.5955, 38.13720
441.0776, 37.34496
441.5598, 37.86662
442.0418, 38.67669
442.5240, 38.52534
443.0061, 37.17844
443.4882, 35.61006
443.9703, 35.16929
444.4524, 36.19161
444.9345, 36.76127
445.4167, 36.54088
445.8988, 36.19215
446.3809, 35.66755
446.8630, 35.21545
447.3451, 35.32781
447.8272, 36.39264
448.3094, 37.92860
448.7915, 38.69643
449.2736, 38.48468
449.7557, 38.10174
450.2378, 37.73768
450.7199, 37.27305
451.2021, 36.42266
451.6842, 35.21534
452.1663, 34.33628
452.6484, 34.58527
453.1305, 35.67734
453.6126, 36.42453
454.0948, 36.85434
454.5769, 36.68654
455.0590, 34.88283
455.5411, 32.44814
456.0232, 31.27726
456.5053, 32.36136
456.9875, 34.03370
457.4696, 35.09076
457.9517, 35.57860
458.4338, 35.68383
458.9159, 35.39300
459.3980, 34.88589
459.8802, 34.30664
460.3623, 33.58224
460.8444, 33.33423
461.3265, 34.14326
461.8086, 35.15623
462.2907, 35.47046
462.7729, 35.15022
463.2550, 35.02722
463.7371, 35.74564
464.2192, 37.08417
464.7013, 37.77342
465.1834, 37.64099
465.6656, 37.13332
466.1477, 35.88698
466.6298, 34.50420
467.1119, 33.55193
467.5940, 33.19048
468.0761, 33.38045
468.5583, 34.15670
469.0404, 35.66721
469.5225, 36.84640
470.0046, 37.81730
470.4867, 38.31307
470.9688, 38.10855
471.4510, 37.39141
471.9331, 36.33596
472.4152, 34.96893
472.8973, 33.66517
473.3794, 33.19537
473.8615, 33.72223
474.3437, 34.39874
474.8258, 35.48767
475.3079, 36.33117
475.7900, 36.45598
476.2721, 35.91574
476.7542, 35.13895
477.2364, 34.17336
477.7185, 33.19859
478.2006, 32.53239
478.6827, 32.13326
479.1648, 32.38052
479.6469, 34.19344
480.1291, 36.43866
480.6112, 36.90391
481.0933, 34.71527
481.5754, 32.94255
482.0575, 33.62048
482.5396, 35.65779
483.0217, 37.08413
483.5038, 37.50745
483.9860, 37.42554
484.4681, 37.29836
484.9502, 37.11683
485.4323, 36.55999
485.9144, 35.08149
486.3965, 33.83138
486.8787, 33.48890
487.3608, 33.67859
487.8429, 33.68036
488.3250, 33.20525
488.8071, 32.51780
489.2892, 32.05045
489.7714, 31.65490
490.2535, 31.88359
490.7356, 32.97598
491.2177, 34.35629
491.6998, 36.39576
492.1819, 38.48158
492.6641, 39.17995
493.1462, 37.37245
493.6283, 34.02780
494.1104, 31.89372
494.5925, 31.05790
495.0746, 31.21256
495.5568, 33.74689
496.0389, 36.23500
496.5210, 36.49689
497.0031, 34.58133
497.4852, 32.98287
497.9673, 34.09584
498.4495, 36.81608
498.9316, 37.97272
499.4137, 37.21208
499.8958, 36.04543
500.3779, 35.19454
500.8600, 34.54575
501.3422, 33.80368
501.8243, 32.73502
502.3064, 32.04553
502.7885, 32.59370
503.2706, 33.62790
503.7527, 33.59427
504.2349, 32.14237
504.7170, 30.53522
505.1991, 30.04423
505.6812, 30.74463
506.1633, 31.18234
506.6454, 31.19394
507.1276, 31.15665
507.6097, 30.94220
508.0918, 30.84455
508.5739, 31.41407
509.0560, 32.83155
509.5381, 34.58014
510.0203, 35.85464
510.5024, 36.59653
510.9845, 37.06652
511.4666, 37.35213
511.9487, 37.27466
512.4308, 36.58016
512.9130, 35.48630
513.3951, 34.39714
513.8772, 33.51200
514.3593, 32.74067
514.8414, 31.77860
515.3235, 30.51301
515.8057, 29.94358
516.2878, 30.87960
516.7699, 32.01161
517.2520, 31.95037
517.7341, 30.91333
518.2162, 30.51088
518.6984, 32.27089
519.1805, 34.54731
519.6626, 35.02834
520.1447, 33.80040
520.6268, 32.51353
521.1089, 31.84007
521.5911, 31.70769
522.0732, 32.11671
522.5553, 33.40204
523.0374, 34.17430
523.5195, 33.84755
524.0016, 33.16012
524.4838, 32.65073
524.9659, 32.40218
525.4480, 32.35536
525.9301, 32.47196
526.4122, 32.75079
526.8943, 33.21345
527.3765, 34.21767
527.8586, 34.87455
528.3407, 35.02400
528.8228, 34.88186
529.3049, 34.53949
529.7870, 34.05896
530.2692, 33.55745
530.7513, 33.01453
531.2334, 32.52325
531.7155, 32.78045
532.1976, 34.24117
532.6797, 35.38505
533.1619, 35.32497
533.6440, 34.73767
534.1261, 34.23857
534.6082, 33.91690
535.0903, 33.68036
535.5724, 33.39955
536.0546, 33.17321
536.5367, 33.13347
537.0188, 33.27670
537.5009, 33.98001
537.9830, 35.99269
538.4651, 38.79199
538.9473, 39.56374
539.4294, 36.43490
539.9115, 33.83477
540.3936, 33.33482
540.8757, 33.87160
541.3578, 34.34820
541.8400, 34.45471
542.3221, 34.09463
542.8042, 33.06059
543.2863, 31.33121
543.7684, 30.25644
544.2505, 30.25837
544.7326, 30.46004
545.2147, 30.91689
545.6968, 31.38074
546.1790, 31.57376
546.6611, 31.43378
547.1432, 31.14670
547.6253, 30.90447
548.1074, 30.69762
548.5895, 30.35074
549.0717, 29.63062
549.5538, 29.25863
550.0359, 29.94387
550.5180, 31.18748
551.0001, 32.37203
551.4822, 33.59569
551.9644, 34.25698
552.4465, 33.38389
552.9286, 31.79507
553.4107, 31.44898
553.8928, 32.75496
554.3749, 33.97581
554.8571, 33.41036
555.3392, 31.12420
555.8213, 29.78669
556.3034, 29.26385
556.7855, 29.68580
557.2676, 32.25556
557.7498, 35.22984
558.2319, 36.29992
558.7140, 35.07398
559.1961, 33.21175
559.6782, 32.59705
560.1603, 33.25479
560.6425, 33.18410
561.1246, 31.67323
561.6067, 30.47651
562.0888, 30.12955
562.5709, 30.34142
563.0530, 30.95633
563.5352, 31.96083
564.0173, 32.72304
564.4994, 32.42897
564.9815, 31.44728
565.4636, 31.00348
565.9457, 31.25772
566.4279, 31.85955
566.9100, 32.95757
567.3921, 34.14180
567.8742, 34.06698
568.3563, 31.83811
568.8384, 29.85374
569.3206, 28.93043
569.8027, 28.69263
570.2848, 28.84256
570.7669, 29.25183
571.2490, 29.61085
571.7311, 29.60652
572.2133, 29.30332
572.6954, 29.42695
573.1775, 30.64041
573.6596, 31.36162
574.1417, 30.78948
574.6238, 30.06754
575.1060, 30.37533
575.5881, 31.72887
576.0702, 33.03246
576.5523, 33.36137
577.0344, 32.91491
577.5165, 32.36139
577.9987, 31.64876
578.4808, 31.06162
578.9629, 30.76066
579.4450, 30.63713
579.9271, 30.49225
580.4092, 30.29175
580.8914, 30.29582
581.3735, 30.97959
581.8556, 31.68197
582.3377, 31.45210
582.8198, 30.41700
583.3019, 29.56182
583.7841, 29.42724
584.2662, 29.92587
584.7483, 30.85662
585.2304, 33.09601
585.7125, 34.28901
586.1946, 33.49602
586.6768, 32.55923
587.1589, 33.00764
587.6410, 34.30285
588.1231, 34.64745
588.6052, 32.79043
589.0873, 30.04717
