##NAMES=Azurite
##RRUFFID=R050638
##IDEAL CHEMISTRY=Cu^2+^_3_(CO_3_)_2_(OH)_2_
##LOCALITY=Zacatecas, Mexico
##OWNER=RRUFF
##SOURCE=University of Arizona Mineral Museum
##DESCRIPTION=Blue bladed crystals
##STATUS=The identification of this mineral has been confirmed by X-ray diffraction and chemical analysis
##URL=rruff.info/R050638
##MEASURED CHEMISTRY=Cu_3.00_(CO_3_)_2_(OH)_2_
89.78156, 0.0000000E+00
90.26367, 11.14268
90.74579, 11.96342
91.22791, 11.60109
91.71002, 10.18887
92.19214, 8.896610
92.67426, 8.829392
93.15638, 9.645917
93.63850, 10.45640
94.12061, 11.05287
94.60273, 11.43148
95.08485, 11.64341
95.56696, 11.71332
96.04908, 11.43850
96.53120, 10.14473
97.01331, 7.931092
97.49543, 6.351021
97.97755, 6.480396
98.45966, 8.196600
98.94178, 9.158022
99.42390, 9.192994
99.90602, 8.694491
100.3881, 8.337921
100.8703, 8.102214
101.3524, 8.085459
101.8345, 8.448617
102.3166, 9.355676
102.7987, 9.917718
103.2808, 10.02000
103.7630, 9.733963
104.2451, 9.330380
104.7272, 8.651226
105.2093, 8.058465
105.6914, 7.810045
106.1735, 8.179592
106.6557, 8.413773
107.1378, 8.227704
107.6199, 7.588240
108.1020, 7.668135
108.5841, 9.343457
109.0662, 11.27929
109.5484, 12.29982
110.0305, 11.48557
110.5126, 10.68199
110.9947, 10.03085
111.4768, 9.384559
111.9590, 9.574062
112.4411, 11.51756
112.9232, 14.14126
113.4053, 16.00664
113.8874, 15.73009
114.3695, 15.58756
114.8517, 16.55164
115.3338, 19.19602
115.8159, 21.76629
116.2980, 23.65027
116.7801, 25.11413
117.2622, 26.72473
117.7444, 28.44966
118.2265, 30.55255
118.7086, 33.12114
119.1907, 35.83763
119.6728, 39.58693
120.1549, 45.27952
120.6371, 52.58517
121.1192, 60.19772
121.6013, 67.94341
122.0834, 75.33702
122.5655, 81.77654
123.0476, 86.75159
123.5298, 90.98745
124.0119, 94.88733
124.4940, 98.48279
124.9761, 102.2362
125.4582, 106.6222
125.9404, 111.4016
126.4225, 116.0647
126.9046, 119.4156
127.3867, 122.8335
127.8688, 128.4526
128.3509, 136.3064
128.8331, 146.0368
129.3152, 157.5003
129.7973, 170.6657
130.2794, 185.0374
130.7615, 202.5262
131.2436, 221.3938
131.7258, 235.5036
132.2079, 244.5356
132.6900, 249.0741
133.1721, 247.8322
133.6542, 240.7225
134.1364, 235.1573
134.6185, 234.4157
135.1006, 238.5171
135.5827, 247.3083
136.0648, 261.1573
136.5469, 279.3060
137.0291, 300.8917
137.5112, 326.5190
137.9933, 352.5138
138.4754, 379.9594
138.9575, 411.0836
139.4396, 428.1996
139.9218, 428.3670
140.4039, 413.0182
140.8860, 386.5741
141.3681, 344.5475
141.8502, 299.6486
142.3323, 262.2664
142.8145, 232.5166
143.2966, 208.7108
143.7787, 191.9121
144.2608, 181.8860
144.7429, 172.6189
145.2250, 163.7065
145.7072, 155.8118
146.1893, 149.5266
146.6714, 145.0797
147.1535, 141.9038
147.6356, 139.9222
148.1178, 139.1214
148.5999, 139.5959
149.0820, 141.4290
149.5641, 144.5096
150.0462, 148.7058
150.5283, 154.5078
151.0105, 160.8811
151.4926, 165.9402
151.9747, 170.5104
152.4568, 176.2895
152.9389, 185.5542
153.4210, 195.4614
153.9032, 202.1511
154.3853, 206.7378
154.8674, 206.8558
155.3495, 201.0655
155.8316, 186.4998
156.3137, 172.7181
156.7959, 160.3691
157.2780, 149.7637
157.7601, 141.5724
158.2422, 135.9590
158.7243, 132.5821
159.2065, 131.3008
159.6886, 132.6908
160.1707, 135.0271
160.6528, 138.0131
161.1349, 141.5782
161.6170, 145.5486
162.0992, 150.6898
162.5813, 155.7170
163.0634, 159.7367
163.5455, 161.9602
164.0276, 163.9726
164.5097, 166.1679
164.9919, 168.6361
165.4740, 171.7456
165.9561, 175.4714
166.4382, 179.9913
166.9203, 185.5416
167.4024, 192.8037
167.8846, 200.4693
168.3667, 207.6884
168.8488, 214.5740
169.3309, 221.8540
169.8130, 231.4971
170.2952, 241.4020
170.7773, 248.8692
171.2594, 253.3635
171.7415, 254.9322
172.2236, 252.2225
172.7057, 245.5370
173.1879, 239.3732
173.6700, 236.0518
174.1521, 235.5989
174.6342, 238.0020
175.1163, 243.3659
175.5984, 251.5144
176.0806, 262.6200
176.5627, 276.7169
177.0448, 292.2398
177.5269, 310.2425
178.0090, 328.7484
178.4911, 343.5367
178.9733, 356.6015
179.4554, 363.6175
179.9375, 355.7854
180.4196, 332.3470
180.9017, 302.1390
181.3838, 270.5840
181.8660, 239.0958
182.3481, 211.5583
182.8302, 190.1768
183.3123, 174.1589
183.7944, 162.3641
184.2766, 154.9439
184.7587, 150.0498
185.2408, 145.4206
185.7229, 141.2327
186.2050, 138.3347
186.6871, 137.7227
187.1693, 138.8499
187.6514, 139.5677
188.1335, 139.5815
188.6156, 139.8830
189.0977, 142.1227
189.5798, 146.2179
190.0620, 150.7372
190.5441, 155.2285
191.0262, 159.6389
191.5083, 163.6092
191.9904, 167.1863
192.4725, 170.3294
192.9547, 173.2993
193.4368, 176.1592
193.9189, 177.7391
194.4010, 177.5700
194.8831, 175.6487
195.3652, 171.5607
195.8474, 164.8792
196.3295, 156.6778
196.8116, 148.9094
197.2937, 141.6223
197.7758, 134.5588
198.2579, 127.3734
198.7401, 120.0343
199.2222, 113.9396
199.7043, 109.3603
200.1864, 105.9684
200.6685, 103.1914
201.1507, 101.1486
201.6328, 99.22498
202.1149, 96.87955
202.5970, 93.99758
203.0791, 91.92287
203.5612, 90.97539
204.0434, 90.75954
204.5255, 90.20545
205.0076, 89.21780
205.4897, 88.22335
205.9718, 87.46618
206.4539, 86.95899
206.9361, 86.62811
207.4182, 86.51330
207.9003, 86.55076
208.3824, 86.60916
208.8645, 86.80913
209.3466, 86.71684
209.8288, 85.84660
210.3109, 83.84500
210.7930, 82.65510
211.2751, 82.65480
211.7572, 83.53332
212.2393, 84.17919
212.7215, 84.55019
213.2036, 84.76865
213.6857, 84.94846
214.1678, 85.18015
214.6499, 85.02424
215.1320, 84.27715
215.6142, 83.12234
216.0963, 82.38950
216.5784, 82.19392
217.0605, 82.19926
217.5426, 82.18864
218.0247, 82.10934
218.5069, 82.20072
218.9890, 82.64272
219.4711, 83.27895
219.9532, 83.25851
220.4353, 82.09876
220.9175, 81.07494
221.3996, 81.06510
221.8817, 82.51009
222.3638, 83.80602
222.8459, 84.70873
223.3280, 85.34316
223.8102, 86.24201
224.2923, 87.38433
224.7744, 88.83948
225.2565, 90.68449
225.7386, 93.07505
226.2207, 95.41370
226.7029, 97.34756
227.1850, 99.14224
227.6671, 102.0372
228.1492, 105.9898
228.6313, 111.0937
229.1134, 117.4122
229.5956, 125.1816
230.0777, 133.8359
230.5598, 143.9693
231.0419, 155.0763
231.5240, 164.8760
232.0062, 173.1147
232.4883, 180.4041
232.9704, 187.0230
233.4525, 192.6553
233.9346, 198.2756
234.4167, 203.8466
234.8989, 209.4228
235.3810, 215.3043
235.8631, 221.9920
236.3452, 228.4218
236.8273, 233.8807
237.3094, 237.3602
237.7916, 242.0590
238.2737, 248.5969
238.7558, 256.5284
239.2379, 264.0005
239.7200, 270.2807
240.2021, 277.0938
240.6843, 285.1573
241.1664, 293.5125
241.6485, 305.1876
242.1306, 320.3485
242.6127, 338.9759
243.0948, 360.4111
243.5770, 384.5011
244.0591, 411.7227
244.5412, 442.4070
245.0233, 478.5728
245.5054, 514.3276
245.9876, 550.7617
246.4697, 586.3858
246.9518, 618.9340
247.4339, 654.6887
247.9160, 678.1160
248.3981, 681.9816
248.8803, 665.5853
249.3624, 630.5287
249.8445, 570.0095
250.3266, 492.6225
250.8087, 420.4303
251.2908, 352.0430
251.7730, 292.0568
252.2551, 243.5368
252.7372, 207.9729
253.2193, 179.3514
253.7014, 159.2516
254.1835, 145.5948
254.6657, 134.0647
255.1478, 124.7109
255.6299, 117.3805
256.1120, 112.1311
256.5941, 109.5194
257.0763, 107.3598
257.5584, 105.6580
258.0405, 104.3826
258.5226, 103.4522
259.0047, 102.7334
259.4868, 102.6196
259.9690, 103.3539
260.4511, 105.1137
260.9332, 106.8615
261.4153, 108.4189
261.8974, 110.1411
262.3795, 112.7651
262.8617, 116.8486
263.3438, 120.5327
263.8259, 123.0414
264.3080, 124.1090
264.7901, 125.9179
265.2722, 128.8607
265.7544, 132.0759
266.2365, 134.2737
266.7186, 135.2794
267.2007, 135.7738
267.6828, 135.7666
268.1649, 135.2000
268.6471, 135.1977
269.1292, 135.8166
269.6113, 136.9065
270.0934, 138.2182
270.5755, 139.6608
271.0576, 141.7423
271.5398, 144.6972
272.0219, 148.5284
272.5040, 152.3736
272.9861, 156.0720
273.4682, 160.0224
273.9503, 164.7700
274.4325, 170.4134
274.9146, 176.1340
275.3967, 181.5066
275.8788, 186.7446
276.3610, 193.4381
276.8431, 201.8862
277.3252, 210.6713
277.8073, 218.6047
278.2894, 225.6814
278.7715, 231.9975
279.2537, 237.7332
279.7358, 242.7342
280.2179, 246.5463
280.7000, 249.2243
281.1821, 250.5088
281.6642, 250.4704
282.1464, 249.1179
282.6285, 245.2836
283.1106, 238.3672
283.5927, 229.1913
284.0748, 219.7300
284.5569, 209.9096
285.0391, 200.1147
285.5212, 190.5022
286.0033, 181.0614
286.4854, 171.5505
286.9675, 161.6756
287.4496, 152.1180
287.9318, 144.4306
288.4139, 138.5784
288.8960, 133.3953
289.3781, 128.0251
289.8602, 122.5995
290.3423, 117.8308
290.8245, 113.8535
291.3066, 110.3474
291.7887, 106.9583
292.2708, 103.6655
292.7529, 100.3940
293.2350, 97.16557
293.7172, 93.93517
294.1993, 90.60193
294.6814, 87.09344
295.1635, 83.70377
295.6456, 80.87158
296.1277, 78.51620
296.6099, 76.33663
297.0920, 74.05054
297.5741, 71.90610
298.0562, 70.61183
298.5383, 70.24394
299.0204, 69.99797
299.5026, 68.98542
299.9847, 67.46023
300.4668, 66.06173
300.9489, 65.16603
301.4311, 64.49879
301.9132, 63.65424
302.3953, 62.63733
302.8774, 61.75008
303.3595, 61.28260
303.8416, 61.09876
304.3238, 60.95123
304.8059, 60.77255
305.2880, 60.59216
305.7701, 60.42216
306.2522, 60.26829
306.7343, 60.17648
307.2165, 60.38708
307.6986, 60.60467
308.1807, 60.41792
308.6628, 59.50916
309.1449, 58.52016
309.6270, 57.87493
310.1092, 57.53325
310.5913, 57.38885
311.0734, 57.61232
311.5555, 57.88210
312.0376, 57.84860
312.5197, 57.28409
313.0019, 56.86269
313.4840, 56.93387
313.9661, 57.41777
314.4482, 58.14730
314.9303, 59.45446
315.4124, 60.69812
315.8946, 61.38977
316.3767, 61.35876
316.8588, 61.37517
317.3409, 61.91654
317.8230, 62.65253
318.3051, 63.14572
318.7873, 62.95750
319.2694, 62.77367
319.7515, 62.92662
320.2336, 63.46148
320.7157, 63.92918
321.1978, 64.00208
321.6800, 64.03954
322.1621, 64.36595
322.6442, 65.40511
323.1263, 66.36778
323.6084, 66.98351
324.0905, 67.28043
324.5727, 67.74942
325.0548, 68.40923
325.5369, 69.28996
326.0190, 70.40940
326.5012, 72.34033
326.9833, 73.84904
327.4654, 74.62639
327.9475, 74.84868
328.4296, 75.20714
328.9117, 75.55425
329.3939, 76.16985
329.8760, 77.25428
330.3581, 79.56717
330.8402, 80.92957
331.3223, 80.91100
331.8044, 80.06791
332.2866, 79.53474
332.7687, 79.57457
333.2508, 79.54168
333.7329, 79.20703
334.2150, 78.49223
334.6971, 77.85363
335.1793, 77.36807
335.6614, 76.87736
336.1435, 76.14346
336.6256, 75.02285
337.1077, 74.03479
337.5898, 73.38203
338.0720, 73.03352
338.5541, 72.42557
339.0362, 71.36804
339.5183, 70.46800
340.0004, 70.42905
340.4825, 71.40706
340.9647, 72.13375
341.4468, 72.32718
341.9289, 72.15938
342.4110, 72.16439
342.8931, 72.34624
343.3752, 72.66821
343.8574, 73.08482
344.3395, 73.60411
344.8216, 74.34294
345.3037, 75.36710
345.7858, 76.50236
346.2679, 77.47984
346.7501, 78.30749
347.2322, 78.99193
347.7143, 79.25610
348.1964, 79.36411
348.6785, 80.24644
349.1607, 82.01775
349.6428, 84.16158
350.1249, 86.23286
350.6070, 88.23084
351.0891, 90.19946
351.5713, 92.25282
352.0534, 94.21371
352.5355, 95.66994
353.0176, 96.63086
353.4997, 97.79145
353.9818, 99.82762
354.4640, 102.3771
354.9461, 104.9433
355.4282, 107.4867
355.9103, 109.8312
356.3924, 111.4262
356.8745, 112.5632
357.3567, 114.3472
357.8388, 117.9149
358.3209, 122.1193
358.8030, 126.0204
359.2851, 129.3585
359.7672, 132.5506
360.2494, 135.7342
360.7315, 138.9483
361.2136, 142.2128
361.6957, 145.4828
362.1778, 148.8825
362.6599, 152.6074
363.1421, 156.7529
363.6242, 160.5482
364.1063, 163.4904
364.5884, 166.0900
365.0705, 168.8439
365.5526, 171.9857
366.0348, 175.1386
366.5169, 178.3969
366.9990, 181.7184
367.4811, 184.4703
367.9632, 186.1555
368.4453, 187.5594
368.9275, 189.1128
369.4096, 190.7663
369.8917, 192.6264
370.3738, 194.6362
370.8559, 196.8657
371.3380, 199.4892
371.8202, 202.7957
372.3023, 206.1339
372.7844, 209.0880
373.2665, 211.2903
373.7487, 214.5726
374.2308, 219.1846
374.7129, 224.6265
375.1950, 230.3555
375.6771, 236.4404
376.1592, 242.6552
376.6414, 249.0219
377.1235, 255.5117
377.6056, 262.0700
378.0877, 268.7621
378.5698, 275.4965
379.0519, 282.1188
379.5341, 288.5688
380.0162, 295.8510
380.4983, 304.2599
380.9804, 313.3924
381.4625, 321.8990
381.9446, 329.9014
382.4268, 337.9740
382.9089, 346.6768
383.3910, 355.7710
383.8731, 364.8829
384.3552, 373.9950
384.8373, 382.8087
385.3195, 390.8428
385.8016, 398.2365
386.2837, 405.5637
386.7658, 413.1348
387.2479, 420.6435
387.7300, 427.5905
388.2122, 433.9832
388.6943, 440.6924
389.1764, 448.0694
389.6585, 456.1851
390.1406, 464.9315
390.6227, 473.8781
391.1049, 484.0150
391.5870, 495.6173
392.0691, 508.8052
392.5512, 523.9440
393.0333, 542.1423
393.5154, 561.6886
393.9976, 581.4727
394.4797, 601.1794
394.9618, 621.6822
395.4439, 643.5707
395.9260, 666.3287
396.4081, 689.1740
396.8903, 713.7062
397.3724, 736.8710
397.8545, 758.8927
398.3366, 779.8654
398.8188, 796.2807
399.3009, 808.6022
399.7830, 815.7828
400.2651, 817.2150
400.7472, 813.8603
401.2293, 803.1434
401.7115, 783.5256
402.1936, 756.5627
402.6757, 726.7106
403.1578, 693.3461
403.6399, 657.9625
404.1220, 620.6796
404.6042, 580.3491
405.0863, 543.5536
405.5684, 510.7844
406.0505, 481.3832
406.5326, 454.7360
407.0147, 430.7383
407.4969, 409.8018
407.9790, 392.3332
408.4611, 377.7732
408.9432, 363.8647
409.4253, 350.6419
409.9074, 338.5020
410.3896, 327.6742
410.8717, 318.1105
411.3538, 309.6822
411.8359, 302.6109
412.3180, 296.2787
412.8001, 289.8386
413.2823, 283.4826
413.7644, 277.4991
414.2465, 272.4385
414.7286, 267.7044
415.2107, 262.2472
415.6928, 256.0426
416.1750, 249.9809
416.6571, 245.2935
417.1392, 241.0498
417.6213, 235.7940
418.1034, 228.2847
418.5855, 220.5202
419.0677, 213.7712
419.5498, 207.7702
420.0319, 201.7825
420.5140, 195.2835
420.9961, 188.7825
421.4782, 182.6263
421.9604, 177.0837
422.4425, 171.3315
422.9246, 164.7331
423.4067, 158.0171
423.8889, 152.0942
424.3710, 147.8007
424.8531, 143.5963
425.3352, 139.1567
425.8173, 134.4781
426.2994, 130.1691
426.7816, 126.4164
427.2637, 122.8816
427.7458, 119.3305
428.2279, 115.5559
428.7100, 112.1634
429.1921, 109.2246
429.6743, 106.6900
430.1564, 104.6458
430.6385, 103.2261
431.1206, 101.7851
431.6027, 100.1742
432.0848, 98.36452
432.5670, 95.78345
433.0491, 92.21484
433.5312, 88.73141
434.0133, 86.57653
434.4954, 85.58065
434.9775, 84.65894
435.4597, 83.70850
435.9418, 82.48957
436.4239, 80.22242
436.9060, 77.12196
437.3881, 74.43745
437.8702, 73.30207
438.3524, 72.95439
438.8345, 72.32200
439.3166, 71.26957
439.7987, 70.08000
440.2808, 68.94840
440.7629, 67.82687
441.2451, 66.65331
441.7272, 65.18204
442.2093, 63.85049
442.6914, 63.05786
443.1735, 62.70411
443.6556, 62.11708
444.1378, 60.61722
444.6199, 59.09850
445.1020, 58.15814
445.5841, 58.17422
446.0662, 58.20134
446.5483, 58.27926
447.0305, 58.26292
447.5126, 57.88944
447.9947, 56.58369
448.4768, 55.63517
448.9590, 55.52112
449.4411, 56.27002
449.9232, 56.36777
450.4053, 55.45628
450.8874, 54.40909
451.3695, 53.91921
451.8517, 54.13794
452.3338, 54.24807
452.8159, 54.21421
453.2980, 53.99195
453.7801, 53.29427
454.2622, 52.06880
454.7444, 51.23021
455.2265, 51.44867
455.7086, 52.42856
456.1907, 52.86657
456.6728, 52.73801
457.1549, 52.44667
457.6371, 52.41523
458.1192, 52.50985
458.6013, 52.35127
459.0834, 51.69184
459.5655, 51.03962
460.0476, 51.03429
460.5298, 51.50885
461.0119, 51.96688
461.4940, 52.12505
461.9761, 52.18908
462.4582, 52.35475
462.9403, 52.65444
463.4225, 52.83381
463.9046, 52.76994
464.3867, 52.53405
464.8688, 52.19566
465.3509, 51.64501
465.8330, 51.13392
466.3152, 50.62753
466.7973, 50.18414
467.2794, 50.01617
467.7615, 50.41922
468.2436, 50.81899
468.7257, 51.02056
469.2079, 50.97859
469.6900, 50.95281
470.1721, 51.02350
470.6542, 51.02149
471.1363, 50.73719
471.6184, 50.09509
472.1006, 49.43687
472.5827, 48.72184
473.0648, 48.09052
473.5469, 48.13972
474.0291, 48.93954
474.5112, 49.59690
474.9933, 49.56717
475.4754, 48.95840
475.9575, 48.10469
476.4396, 46.96460
476.9218, 45.99154
477.4039, 45.74550
477.8860, 46.04070
478.3681, 46.48101
478.8502, 47.10508
479.3323, 47.61879
479.8145, 47.56664
480.2966, 47.10883
480.7787, 46.83805
481.2608, 47.30849
481.7429, 47.89639
482.2250, 48.18967
482.7072, 48.12705
483.1893, 47.84933
483.6714, 47.17004
484.1535, 46.40233
484.6356, 45.86156
485.1177, 45.77444
485.5999, 45.71006
486.0820, 45.60127
486.5641, 45.46661
487.0462, 45.37330
487.5283, 45.34069
488.0104, 45.32566
488.4926, 45.32119
488.9747, 45.33688
489.4568, 45.25452
489.9389, 44.95263
490.4210, 44.77299
490.9031, 45.40189
491.3853, 46.94773
491.8674, 47.42296
492.3495, 46.06850
492.8316, 43.83609
493.3137, 42.72055
493.7958, 42.66387
494.2780, 43.11009
494.7601, 44.26337
495.2422, 45.56376
495.7243, 45.68001
496.2064, 44.50729
496.6885, 43.38095
497.1707, 43.63458
497.6528, 44.50277
498.1349, 44.91973
498.6170, 44.33586
499.0992, 43.60370
499.5813, 43.15773
500.0634, 42.91372
500.5455, 42.65886
501.0276, 42.13451
501.5097, 41.75536
501.9919, 41.82312
502.4740, 42.47680
502.9561, 42.70166
503.4382, 41.92998
503.9203, 41.05857
504.4024, 40.74322
504.8846, 41.48024
505.3667, 41.72400
505.8488, 41.15546
506.3309, 40.18791
506.8130, 39.73187
507.2951, 39.87084
507.7773, 40.14130
508.2594, 40.31636
508.7415, 40.46937
509.2236, 41.19892
509.7057, 42.56173
510.1878, 43.78123
510.6700, 44.17984
511.1521, 43.92559
511.6342, 43.45506
512.1163, 42.76936
512.5984, 42.13858
513.0806, 41.98727
513.5627, 42.09962
514.0448, 42.02459
514.5269, 41.24237
515.0090, 40.47057
515.4911, 40.30584
515.9733, 40.65301
516.4554, 40.84963
516.9375, 40.17466
517.4196, 39.61027
517.9017, 39.82948
518.3839, 41.36791
518.8660, 42.56190
519.3481, 42.99346
519.8302, 43.10137
520.3123, 43.30782
520.7944, 43.50135
521.2766, 44.01125
521.7587, 44.98753
522.2408, 46.30131
522.7229, 47.51069
523.2050, 48.62530
523.6871, 49.60424
524.1693, 50.32741
524.6514, 50.82227
525.1335, 51.58937
525.6156, 52.63768
526.0977, 53.92815
526.5798, 55.60021
527.0620, 57.51472
527.5441, 59.19509
528.0262, 60.41856
528.5083, 61.59528
528.9904, 63.12503
529.4725, 64.93504
529.9547, 66.84372
530.4368, 68.74023
530.9189, 70.70595
531.4010, 72.80193
531.8831, 75.05098
532.3652, 77.24431
532.8474, 79.26260
533.3295, 81.27589
533.8116, 83.43120
534.2937, 85.88881
534.7758, 88.20094
535.2579, 90.17110
535.7401, 92.08190
536.2222, 94.30108
536.7043, 97.05384
537.1864, 99.71544
537.6685, 102.3208
538.1506, 104.7286
538.6328, 106.0160
539.1149, 106.0571
539.5970, 105.8467
540.0791, 106.1505
540.5612, 106.7606
541.0433, 106.7369
541.5255, 106.0523
542.0076, 104.6681
542.4897, 102.2931
542.9718, 99.20525
543.4539, 95.89521
543.9360, 92.40566
544.4182, 88.96879
544.9003, 85.83428
545.3824, 82.92833
545.8645, 80.08778
546.3466, 77.37641
546.8287, 74.59764
547.3109, 71.56440
547.7930, 68.29026
548.2751, 65.31795
548.7572, 62.60799
549.2393, 60.32792
549.7214, 58.57473
550.2036, 57.44769
550.6857, 56.71917
551.1678, 56.81641
551.6499, 56.87407
552.1320, 55.39730
552.6141, 52.03072
553.0963, 49.48890
553.5784, 48.69862
554.0605, 48.87860
554.5426, 47.81051
555.0247, 45.57122
555.5068, 43.54527
555.9890, 42.56050
556.4711, 42.34800
556.9532, 42.62635
557.4353, 43.37861
557.9174, 44.08314
558.3995, 44.66150
558.8817, 44.83595
559.3638, 44.19739
559.8459, 42.21681
560.3281, 40.31583
560.8102, 39.04517
561.2923, 38.23139
561.7744, 37.61397
562.2565, 37.25753
562.7386, 36.97561
563.2208, 36.79155
563.7029, 36.67406
564.1850, 36.35271
564.6671, 35.65916
565.1492, 35.06734
565.6313, 34.84350
566.1135, 35.01974
566.5956, 35.22486
567.0777, 35.53196
567.5598, 35.60298
568.0419, 34.83605
568.5240, 33.43734
569.0062, 32.45515
569.4883, 32.16728
569.9704, 32.21700
570.4525, 32.34744
570.9346, 32.47377
571.4167, 32.37497
571.8989, 31.61728
572.3810, 30.87425
572.8631, 30.65582
573.3452, 30.90472
573.8273, 31.17565
574.3094, 31.27145
574.7916, 31.36844
575.2737, 31.58924
575.7558, 32.03175
576.2379, 32.31385
576.7200, 32.39590
577.2021, 32.33997
577.6843, 32.18286
578.1664, 31.88516
578.6485, 31.60170
579.1306, 31.33517
579.6127, 31.10134
580.0948, 30.96702
580.5770, 30.93326
581.0591, 30.79922
581.5412, 30.45429
582.0233, 29.97564
582.5054, 29.39350
582.9875, 28.76178
583.4697, 28.44205
583.9518, 28.86393
584.4339, 29.63615
584.9160, 30.47334
585.3981, 31.39292
585.8802, 31.88315
586.3624, 31.22269
586.8445, 30.24833
