##NAMES=Babingtonite
##RRUFFID=R060084
##IDEAL CHEMISTRY=Ca_2_Fe^2+^Fe^3+^Si_5_O_14_(OH)
##LOCALITY=Winchester Highlands, Massachusetts, USA
##OWNER=RRUFF
##SOURCE=University of Arizona Mineral Museum
##DESCRIPTION=Black stubby prismatic crystals
##STATUS=The identification of this mineral has been confirmed by X-ray diffraction and chemical analysis
##URL=rruff.info/R060084
##MEASURED CHEMISTRY=Ca_2.00_(Fe^2+^_0.89_Mg_0.07_Mn_0.04_)(Fe^3+^_0.96_Al_0.04_)Si_5.00_O_14_(OH)
93.74609, 1.799626
94.22821, 1.752906
94.71033, 1.772331
95.19244, 1.849103
95.67456, 1.951262
96.15668, 2.054289
96.63879, 2.172553
97.12091, 2.374439
97.60303, 2.678199
98.08514, 3.000525
98.56726, 3.210204
99.04938, 3.305660
99.53149, 3.390338
100.0136, 3.500245
100.4957, 3.634325
100.9778, 3.816799
101.4600, 4.050874
101.9421, 4.330276
102.4242, 4.644972
102.9063, 5.014340
103.3884, 5.372903
103.8705, 5.670465
104.3527, 5.885247
104.8348, 6.111051
105.3169, 6.339405
105.7990, 6.579963
106.2811, 6.934961
106.7632, 7.494576
107.2454, 8.071988
107.7275, 8.521177
108.2096, 8.826328
108.6917, 9.027098
109.1738, 9.045426
109.6559, 8.833172
110.1381, 8.891913
110.6202, 9.382646
111.1023, 10.08189
111.5844, 10.77122
112.0665, 11.55326
112.5486, 12.23324
113.0308, 12.72666
113.5129, 12.95929
113.9950, 13.29579
114.4771, 13.78076
114.9592, 14.39647
115.4413, 15.12597
115.9235, 16.05957
116.4056, 17.03469
116.8877, 18.02283
117.3698, 19.19155
117.8519, 20.02065
118.3340, 20.29851
118.8162, 20.10090
119.2983, 19.61122
119.7804, 18.50704
120.2625, 17.34009
120.7446, 16.54351
121.2267, 16.24992
121.7089, 16.28596
122.1910, 16.62478
122.6731, 17.23533
123.1552, 17.97259
123.6373, 18.80051
124.1194, 19.68610
124.6016, 20.60155
125.0837, 21.47761
125.5658, 22.40470
126.0479, 23.64359
126.5300, 25.16934
127.0121, 26.42153
127.4943, 26.93521
127.9764, 26.81446
128.4585, 26.31313
128.9406, 25.32325
129.4227, 24.06637
129.9048, 22.88185
130.3869, 21.75313
130.8691, 20.82900
131.3512, 20.36202
131.8333, 20.23322
132.3154, 20.07072
132.7975, 19.79205
133.2796, 19.45809
133.7618, 19.21111
134.2439, 19.04121
134.7260, 18.98056
135.2081, 19.09631
135.6902, 19.38838
136.1723, 19.76835
136.6545, 20.19084
137.1366, 20.65377
137.6187, 21.20098
138.1008, 21.85168
138.5829, 22.57198
139.0650, 23.27890
139.5472, 23.94608
140.0293, 24.69907
140.5114, 25.59884
140.9935, 26.63912
141.4756, 27.90133
141.9577, 29.49186
142.4399, 31.31973
142.9220, 33.00605
143.4041, 34.81330
143.8862, 36.08686
144.3683, 36.33616
144.8504, 35.30689
145.3326, 33.82483
145.8147, 31.82211
146.2968, 29.32024
146.7789, 27.32320
147.2610, 25.86707
147.7431, 24.85079
148.2253, 24.18701
148.7074, 24.03337
149.1895, 24.01556
149.6716, 24.10587
150.1537, 24.31656
150.6358, 24.51791
151.1180, 24.88274
151.6001, 25.16305
152.0822, 25.09487
152.5643, 24.23833
153.0464, 23.47486
153.5285, 22.98446
154.0107, 22.81944
154.4928, 22.74354
154.9749, 22.74048
155.4570, 22.81785
155.9391, 22.98394
156.4212, 23.28656
156.9034, 23.63768
157.3855, 24.02365
157.8676, 24.46296
158.3497, 24.86550
158.8318, 25.27981
159.3139, 25.64376
159.7961, 25.85475
160.2782, 25.88168
160.7603, 25.75677
161.2424, 25.43550
161.7245, 24.72939
162.2066, 24.24224
162.6888, 24.34604
163.1709, 24.82012
163.6530, 25.17770
164.1351, 25.14462
164.6172, 24.98691
165.0993, 24.87761
165.5815, 24.87443
166.0636, 24.88111
166.5457, 24.88952
167.0278, 24.87838
167.5099, 24.78222
167.9921, 24.36718
168.4742, 23.94530
168.9563, 23.81488
169.4384, 24.21009
169.9205, 24.70189
170.4026, 25.04661
170.8848, 25.25381
171.3669, 25.35168
171.8490, 25.27752
172.3311, 25.13001
172.8132, 25.02190
173.2953, 24.96053
173.7775, 24.97704
174.2596, 25.12188
174.7417, 25.38431
175.2238, 25.68640
175.7059, 26.12071
176.1880, 26.53464
176.6702, 26.67325
177.1523, 26.36383
177.6344, 25.80221
178.1165, 25.20288
178.5986, 24.56011
179.0807, 23.87044
179.5629, 23.04325
180.0450, 22.15253
180.5271, 21.38486
181.0092, 20.79888
181.4913, 20.36671
181.9734, 20.07349
182.4556, 19.92103
182.9377, 19.83658
183.4198, 19.70315
183.9019, 19.56550
184.3840, 19.58429
184.8661, 19.87534
185.3483, 20.35324
185.8304, 20.85383
186.3125, 21.38015
186.7946, 21.88214
187.2767, 22.23207
187.7588, 22.47424
188.2409, 22.84741
188.7231, 23.49200
189.2052, 24.35040
189.6873, 25.24082
190.1694, 26.18067
190.6515, 27.11204
191.1336, 27.98389
191.6158, 28.79561
192.0979, 29.52684
192.5800, 30.27593
193.0621, 30.98442
193.5442, 31.24938
194.0263, 31.02229
194.5085, 30.50961
194.9906, 29.99882
195.4727, 29.49116
195.9548, 28.88257
196.4369, 28.05794
196.9190, 27.03815
197.4012, 26.18437
197.8833, 25.51656
198.3654, 24.96958
198.8475, 24.42994
199.3296, 23.87903
199.8117, 23.49796
200.2939, 23.43162
200.7760, 23.68472
201.2581, 23.85129
201.7402, 23.89783
202.2223, 23.90481
202.7044, 24.01703
203.1866, 24.24619
203.6687, 24.50874
204.1508, 24.79812
204.6329, 25.12710
205.1150, 25.33316
205.5971, 25.38670
206.0793, 25.35215
206.5614, 25.34664
207.0435, 25.37325
207.5256, 25.41725
208.0077, 25.47437
208.4898, 25.54598
208.9720, 25.58862
209.4541, 25.51567
209.9362, 25.49283
210.4183, 25.91300
210.9004, 26.88498
211.3825, 27.97338
211.8647, 28.97735
212.3468, 29.84706
212.8289, 30.90658
213.3110, 32.31818
213.7931, 33.81229
214.2752, 34.76501
214.7574, 35.12625
215.2395, 35.08979
215.7216, 34.72960
216.2037, 34.04118
216.6858, 33.04227
217.1679, 31.64654
217.6501, 29.98508
218.1322, 28.35072
218.6143, 26.65479
219.0964, 25.13525
219.5785, 23.93419
220.0606, 23.08351
220.5428, 22.40412
221.0249, 21.93959
221.5070, 21.62712
221.9891, 21.32718
222.4712, 21.00928
222.9533, 20.75447
223.4355, 20.60922
223.9176, 20.60171
224.3997, 20.61145
224.8818, 20.61668
225.3639, 20.64842
225.8460, 20.79882
226.3282, 21.15124
226.8103, 21.47761
227.2924, 21.64109
227.7745, 21.50090
228.2566, 21.58938
228.7387, 21.95050
229.2209, 22.52200
229.7030, 23.14439
230.1851, 23.78842
230.6672, 24.54351
231.1493, 25.46906
231.6314, 26.65128
232.1136, 27.77675
232.5957, 28.85476
233.0778, 29.87558
233.5599, 30.80924
234.0420, 31.72161
234.5241, 32.44072
235.0063, 32.90391
235.4884, 33.11964
235.9705, 33.03319
236.4526, 32.56407
236.9347, 31.82557
237.4168, 31.04931
237.8990, 30.27242
238.3811, 29.39902
238.8632, 28.37757
239.3453, 27.13064
239.8274, 25.95392
240.3095, 24.82322
240.7917, 23.76718
241.2738, 22.84141
241.7559, 22.06742
242.2380, 21.39047
242.7201, 20.79738
243.2022, 20.28309
243.6844, 19.86723
244.1665, 19.55333
244.6486, 19.33244
245.1307, 19.19367
245.6128, 19.15737
246.0949, 19.16925
246.5771, 19.21353
247.0592, 19.28971
247.5413, 19.40279
248.0234, 19.56482
248.5055, 19.75467
248.9876, 19.93405
249.4697, 20.08764
249.9519, 20.26056
250.4340, 20.46989
250.9161, 20.72331
251.3982, 20.97930
251.8803, 21.26007
252.3624, 21.52366
252.8446, 21.70650
253.3267, 21.79522
253.8088, 21.83116
254.2909, 21.80491
254.7730, 21.69995
255.2551, 21.67642
255.7373, 21.79097
256.2194, 21.92965
256.7015, 21.93752
257.1836, 21.73589
257.6657, 21.57515
258.1479, 21.50638
258.6300, 21.52982
259.1121, 21.64676
259.5942, 21.88093
260.0763, 22.18112
260.5584, 22.49893
261.0406, 22.81954
261.5227, 23.18642
262.0048, 23.61260
262.4869, 24.09389
262.9690, 24.61146
263.4511, 25.15762
263.9333, 25.74670
264.4154, 26.40386
264.8975, 27.16954
265.3796, 27.89927
265.8617, 28.57214
266.3438, 29.18657
266.8260, 29.82146
267.3081, 30.56127
267.7902, 31.16045
268.2723, 31.38428
268.7544, 31.18413
269.2365, 30.80331
269.7187, 30.24367
270.2008, 29.52856
270.6829, 28.81831
271.1650, 28.12675
271.6471, 27.40695
272.1292, 26.59678
272.6114, 25.64790
273.0935, 24.87134
273.5756, 24.33595
274.0577, 23.99477
274.5398, 23.66431
275.0219, 23.31917
275.5041, 23.07098
275.9862, 23.01706
276.4683, 23.17874
276.9504, 23.34994
277.4325, 23.51273
277.9146, 23.67338
278.3968, 23.85179
278.8788, 24.05155
279.3610, 24.24873
279.8431, 24.41927
280.3252, 24.56020
280.8073, 24.74331
281.2894, 24.99308
281.7715, 25.25692
282.2537, 25.42004
282.7358, 25.47326
283.2179, 25.52287
283.7000, 25.68159
284.1821, 25.93590
284.6642, 25.95303
285.1464, 25.69399
285.6285, 25.27544
286.1106, 24.85765
286.5927, 24.44021
287.0748, 24.00112
287.5569, 23.51940
288.0391, 23.00014
288.5212, 22.49883
289.0033, 22.01484
289.4854, 21.53908
289.9675, 21.02892
290.4496, 20.49256
290.9318, 20.05127
291.4139, 19.77805
291.8960, 19.62750
292.3781, 19.42492
292.8602, 19.15589
293.3423, 18.96207
293.8245, 18.97599
294.3066, 19.18491
294.7887, 19.55555
295.2708, 20.22805
295.7529, 20.96338
296.2350, 21.19535
296.7172, 20.92536
297.1993, 20.53108
297.6814, 20.26589
298.1635, 20.11776
298.6456, 20.06787
299.1277, 20.15258
299.6099, 20.28234
300.0920, 20.30946
300.5741, 20.24668
301.0562, 20.17857
301.5383, 20.13266
302.0204, 20.12712
302.5026, 20.19600
302.9847, 20.34890
303.4668, 20.57219
303.9489, 20.87641
304.4310, 21.24387
304.9131, 21.63181
305.3953, 21.98693
305.8774, 22.35399
306.3595, 22.79322
306.8416, 23.32107
307.3237, 23.88095
307.8058, 24.42997
308.2880, 24.96856
308.7701, 25.49583
309.2522, 25.98367
309.7343, 26.48150
310.2164, 27.05005
310.6985, 27.70736
311.1807, 28.35909
311.6628, 29.01238
312.1449, 29.61320
312.6270, 30.05946
313.1091, 30.15551
313.5912, 30.21050
314.0734, 30.44176
314.5555, 30.85494
315.0376, 31.26258
315.5197, 31.58460
316.0018, 31.84689
316.4839, 32.06821
316.9661, 32.10249
317.4482, 32.24119
317.9303, 32.67181
318.4124, 33.34857
318.8945, 33.99718
319.3766, 34.59483
319.8588, 35.07367
320.3409, 35.37174
320.8230, 35.34789
321.3051, 35.31548
321.7872, 35.40839
322.2693, 35.56572
322.7515, 35.60136
323.2336, 35.46212
323.7157, 35.19764
324.1978, 34.81215
324.6799, 34.22187
325.1620, 33.68679
325.6442, 33.30426
326.1263, 32.99106
326.6084, 32.59956
327.0905, 31.99191
327.5726, 31.41699
328.0547, 30.94276
328.5369, 30.58440
329.0190, 30.30081
329.5011, 30.10863
329.9832, 29.98444
330.4653, 29.90641
330.9474, 29.94355
331.4296, 29.94201
331.9117, 29.87042
332.3938, 29.72696
332.8759, 29.55848
333.3580, 29.33911
333.8401, 29.11741
334.3223, 28.94381
334.8044, 28.87806
335.2865, 28.73512
335.7686, 28.47836
336.2507, 28.12260
336.7328, 27.76248
337.2150, 27.39211
337.6971, 27.02106
338.1792, 26.66623
338.6613, 26.35953
339.1434, 25.94104
339.6255, 25.35645
340.1077, 24.69147
340.5898, 24.12176
341.0719, 23.66805
341.5540, 23.26497
342.0361, 22.91929
342.5182, 22.63524
343.0004, 22.24343
343.4825, 21.71715
343.9646, 21.15463
344.4467, 20.68860
344.9288, 20.32454
345.4109, 20.03438
345.8931, 19.83109
346.3752, 19.69593
346.8573, 19.55564
347.3394, 19.40572
347.8215, 19.27761
348.3036, 19.18956
348.7858, 19.14526
349.2679, 19.16805
349.7500, 19.28050
350.2321, 19.44492
350.7142, 19.60186
351.1964, 19.75016
351.6785, 19.88648
352.1606, 19.98966
352.6427, 20.07995
353.1248, 20.21167
353.6069, 20.41554
354.0891, 20.60427
354.5712, 20.67706
355.0533, 20.65687
355.5354, 20.60896
356.0175, 20.55441
356.4996, 20.49801
356.9818, 20.43017
357.4639, 20.34464
357.9460, 20.30241
358.4281, 20.40188
358.9102, 20.56095
359.3923, 20.65848
359.8745, 20.50951
360.3566, 20.39383
360.8387, 20.50396
361.3208, 20.82913
361.8029, 21.19330
362.2850, 21.57377
362.7672, 21.92864
363.2493, 22.22107
363.7314, 22.38252
364.2135, 22.55288
364.6956, 22.77148
365.1777, 23.03143
365.6599, 23.30914
366.1420, 23.62703
366.6241, 23.94105
367.1062, 24.22580
367.5883, 24.47019
368.0704, 24.70949
368.5526, 24.98514
369.0347, 25.24850
369.5168, 25.42884
369.9989, 25.42608
370.4810, 25.44036
370.9631, 25.51991
371.4453, 25.67342
371.9274, 25.82518
372.4095, 25.99388
372.8916, 26.14280
373.3737, 26.22596
373.8558, 26.15202
374.3380, 26.20315
374.8201, 26.46756
375.3022, 26.89589
375.7843, 27.19626
376.2664, 27.33203
376.7485, 27.42459
377.2307, 27.54313
377.7128, 27.69322
378.1949, 27.84698
378.6770, 28.01349
379.1591, 28.16857
379.6412, 28.21820
380.1234, 28.14050
380.6055, 28.17600
381.0876, 28.47087
381.5697, 28.98436
382.0518, 29.44116
382.5339, 29.82380
383.0161, 30.22777
383.4982, 30.75408
383.9803, 31.39363
384.4624, 32.08719
384.9445, 32.88382
385.4266, 33.66082
385.9088, 34.13125
386.3909, 34.32492
386.8730, 34.57113
387.3551, 35.20131
387.8372, 36.02416
388.3193, 36.71073
388.8015, 37.18904
389.2836, 37.57046
389.7657, 37.92036
390.2478, 38.25321
390.7299, 38.59424
391.2120, 38.98624
391.6942, 39.37378
392.1763, 39.71755
392.6584, 40.01276
393.1405, 40.24968
393.6226, 40.44169
394.1047, 40.56606
394.5869, 40.59552
395.0690, 40.43864
395.5511, 40.26838
396.0332, 40.09571
396.5153, 39.94220
396.9974, 39.91940
397.4796, 40.08194
397.9617, 40.36399
398.4438, 40.73832
398.9259, 41.25330
399.4080, 41.76887
399.8901, 42.31184
400.3723, 42.84374
400.8544, 43.29131
401.3365, 43.71552
401.8186, 43.98951
402.3007, 44.07855
402.7828, 43.97695
403.2649, 43.75198
403.7470, 43.46813
404.2292, 42.98808
404.7113, 42.18719
405.1934, 41.01808
405.6755, 39.63055
406.1576, 37.98620
406.6397, 36.16634
407.1219, 34.46954
407.6040, 32.89559
408.0861, 31.44426
408.5682, 30.11765
409.0503, 28.93638
409.5324, 27.82286
410.0146, 26.76819
410.4967, 25.79856
410.9788, 24.95803
411.4609, 24.24809
411.9430, 23.60941
412.4251, 22.98900
412.9073, 22.44141
413.3894, 22.09098
413.8715, 21.93380
414.3536, 21.83457
414.8357, 21.68190
415.3178, 21.50726
415.8000, 21.37148
416.2821, 21.28895
416.7642, 21.24478
417.2463, 21.25134
417.7284, 21.28793
418.2105, 21.29910
418.6927, 21.20320
419.1748, 21.10699
419.6569, 21.13363
420.1390, 21.31861
420.6211, 21.39952
421.1032, 21.19415
421.5854, 20.84577
422.0675, 20.51068
422.5496, 20.19939
423.0317, 19.93613
423.5138, 19.71458
423.9959, 19.54133
424.4781, 19.44236
424.9602, 19.49673
425.4423, 19.57111
425.9244, 19.58653
426.4065, 19.39886
426.8886, 19.42642
427.3708, 19.80510
427.8529, 20.34196
428.3350, 20.72907
428.8171, 20.86303
429.2992, 21.03780
429.7813, 21.34700
430.2635, 21.78355
430.7456, 22.15377
431.2277, 22.43532
431.7098, 22.69394
432.1919, 23.00891
432.6740, 23.39388
433.1562, 23.66221
433.6383, 23.78194
434.1204, 23.78765
434.6025, 23.75748
435.0846, 23.69007
435.5667, 23.52454
436.0489, 23.23911
436.5310, 22.82811
437.0131, 22.24544
437.4952, 21.47932
437.9773, 20.67337
438.4594, 19.95619
438.9416, 19.30282
439.4237, 18.65780
439.9058, 17.98166
440.3879, 17.33488
440.8700, 16.76393
441.3521, 16.26357
441.8343, 15.81533
442.3164, 15.41868
442.7985, 15.06401
443.2806, 14.74232
443.7627, 14.45431
444.2448, 14.20341
444.7270, 13.98745
445.2091, 13.81291
445.6912, 13.68894
446.1733, 13.68267
446.6554, 13.65937
447.1375, 13.56683
447.6197, 13.41231
448.1018, 13.29121
448.5839, 13.21676
449.0660, 13.17231
449.5481, 13.15372
450.0302, 13.17788
450.5124, 13.19198
450.9945, 13.18748
451.4766, 13.17888
451.9587, 13.19336
452.4408, 13.24348
452.9229, 13.28027
453.4051, 13.27642
453.8872, 13.24312
454.3693, 13.28777
454.8514, 13.42847
455.3335, 13.56960
455.8156, 13.62701
456.2978, 13.60870
456.7799, 13.59597
457.2620, 13.60221
457.7441, 13.60950
458.2262, 13.56171
458.7083, 13.48015
459.1905, 13.46048
459.6726, 13.59364
460.1547, 13.79755
460.6368, 13.96342
461.1189, 14.09157
461.6010, 14.20271
462.0832, 14.30686
462.5653, 14.40492
463.0474, 14.49409
463.5295, 14.56461
464.0116, 14.64502
464.4937, 14.75268
464.9759, 14.88115
465.4580, 15.01404
465.9401, 15.13925
466.4222, 15.27465
466.9043, 15.42756
467.3864, 15.59979
467.8686, 15.78035
468.3507, 15.92926
468.8328, 16.11117
469.3149, 16.37661
469.7970, 16.80104
470.2791, 17.18331
470.7613, 17.50021
471.2434, 17.76704
471.7255, 18.01754
472.2076, 18.23589
472.6897, 18.47667
473.1718, 18.75915
473.6540, 19.08231
474.1361, 19.49168
474.6182, 20.01724
475.1003, 20.52049
475.5824, 20.83220
476.0645, 20.97452
476.5467, 21.14791
477.0288, 21.42928
477.5109, 21.69994
477.9930, 21.73660
478.4751, 21.57693
478.9572, 21.39971
479.4394, 21.31379
479.9215, 21.26353
480.4036, 21.20398
480.8857, 21.13347
481.3678, 20.98220
481.8499, 20.62203
482.3321, 20.18557
482.8142, 19.82922
483.2963, 19.67114
483.7784, 19.49605
484.2605, 19.19080
484.7426, 18.80543
485.2248, 18.46552
485.7069, 18.21196
486.1890, 18.00283
486.6711, 17.82305
487.1532, 17.66977
487.6353, 17.56276
488.1175, 17.51898
488.5996, 17.50924
489.0817, 17.51117
489.5638, 17.52071
490.0459, 17.55328
490.5280, 17.61656
491.0102, 17.69974
491.4923, 17.76418
491.9744, 17.79655
492.4565, 17.88304
492.9386, 18.08809
493.4207, 18.39025
493.9029, 18.63478
494.3850, 18.81998
494.8671, 18.98496
495.3492, 19.14434
495.8313, 19.31364
496.3134, 19.54596
496.7956, 19.86856
497.2777, 20.21859
497.7598, 20.57713
498.2419, 20.91169
498.7240, 21.13016
499.2061, 21.11576
499.6883, 21.02631
500.1704, 20.99943
500.6525, 21.03682
501.1346, 20.97841
501.6167, 20.72037
502.0988, 20.36529
502.5810, 19.98337
503.0631, 19.52756
503.5452, 19.12664
504.0273, 18.85352
504.5094, 18.63431
504.9915, 18.34546
505.4737, 17.91203
505.9558, 17.52088
506.4379, 17.22512
506.9200, 17.02027
507.4021, 16.82302
507.8842, 16.61960
508.3664, 16.45053
508.8485, 16.36067
509.3306, 16.35242
509.8127, 16.28971
510.2948, 16.14477
510.7769, 15.99800
511.2591, 15.99438
511.7412, 16.10759
512.2233, 16.18568
512.7054, 16.13729
513.1875, 16.05488
513.6696, 16.08238
514.1517, 16.20465
514.6339, 16.33798
515.1160, 16.39269
515.5981, 16.45440
516.0802, 16.61946
516.5623, 16.91945
517.0444, 17.21913
517.5266, 17.44788
518.0087, 17.64662
518.4908, 17.85996
518.9729, 18.04208
519.4550, 18.30340
519.9371, 18.69489
520.4193, 19.19344
520.9014, 19.68132
521.3835, 20.18941
521.8656, 20.64984
522.3477, 21.01134
522.8298, 21.24721
523.3120, 21.61455
523.7941, 22.13742
524.2762, 22.72614
524.7583, 23.30005
525.2404, 23.86100
525.7225, 24.41069
526.2047, 24.93817
526.6868, 25.48350
527.1689, 26.13748
527.6510, 26.88378
528.1331, 27.63273
528.6152, 28.29732
529.0974, 28.96334
529.5795, 29.80942
530.0616, 30.82257
530.5437, 31.79590
531.0258, 32.56335
531.5079, 33.24883
531.9901, 33.99339
532.4722, 34.84985
532.9543, 35.69551
533.4364, 36.53233
533.9185, 37.32039
534.4006, 38.02155
534.8828, 38.67059
535.3649, 39.17682
535.8470, 39.48714
536.3291, 39.62782
536.8112, 39.72132
537.2933, 39.84492
537.7755, 39.80097
538.2576, 39.49223
538.7397, 38.89876
539.2218, 38.15306
539.7039, 37.24370
540.1860, 36.23989
540.6682, 35.21721
541.1503, 34.18082
541.6324, 33.10720
542.1145, 31.94585
542.5966, 30.85010
543.0787, 30.14943
543.5609, 29.74762
544.0430, 29.28544
544.5251, 28.51232
545.0072, 27.63153
545.4893, 26.82445
545.9714, 26.09731
546.4536, 25.45665
546.9357, 24.97791
547.4178, 24.54152
547.8999, 24.05332
548.3820, 23.46888
548.8641, 22.89870
549.3463, 22.32980
549.8284, 21.80023
550.3105, 21.35663
550.7926, 20.98749
551.2747, 20.72773
551.7568, 20.63340
552.2390, 20.64941
552.7211, 20.52320
553.2032, 20.20938
553.6853, 19.89421
554.1674, 19.65242
554.6495, 19.48436
555.1317, 19.42208
555.6138, 19.48092
556.0959, 19.53649
556.5780, 19.43106
557.0601, 19.22838
557.5422, 19.09626
558.0244, 19.06449
558.5065, 19.12199
558.9886, 19.29491
559.4707, 19.54694
559.9528, 19.80111
560.4349, 20.01603
560.9171, 20.23475
561.3992, 20.45436
561.8813, 20.68699
562.3634, 21.00022
562.8455, 21.50531
563.3276, 22.02009
563.8098, 22.45006
564.2919, 22.74910
564.7740, 23.09964
565.2561, 23.49582
565.7382, 23.94900
566.2203, 24.48728
566.7025, 25.13868
567.1846, 25.77101
567.6667, 26.36350
568.1488, 26.95019
568.6309, 27.57475
569.1130, 28.24391
569.5952, 28.98828
570.0773, 29.85814
570.5594, 30.79767
571.0415, 31.74347
571.5236, 32.69970
572.0057, 33.65834
572.4879, 34.63534
572.9700, 35.61488
573.4521, 36.57846
573.9342, 37.52940
574.4163, 38.48501
574.8984, 39.50376
575.3806, 40.50615
575.8627, 41.42341
576.3448, 42.27156
576.8269, 42.98252
577.3090, 43.61053
577.7911, 44.09315
578.2733, 44.28175
578.7554, 44.09747
579.2375, 43.77050
579.7196, 43.38718
580.2017, 42.92667
580.6838, 42.21132
581.1660, 41.22679
581.6481, 40.09764
582.1302, 38.91626
582.6123, 37.66872
583.0944, 36.30513
583.5765, 34.81156
584.0587, 33.28709
584.5408, 31.76650
585.0229, 30.31425
585.5050, 29.05472
585.9871, 28.11756
586.4692, 27.23235
586.9514, 26.17981
587.4335, 25.05102
587.9156, 24.05741
588.3977, 23.31210
