##NAMES=Babingtonite
##RRUFFID=R060093
##IDEAL CHEMISTRY=Ca_2_Fe^2+^Fe^3+^Si_5_O_14_(OH)
##LOCALITY=Iron Cap mine, Aravaipa District, Graham County, Arizona, USA
##OWNER=RRUFF
##SOURCE=University of Arizona Mineral Museum
##DESCRIPTION=Dark prismatic striated crystals
##STATUS=The identification of this mineral has been confirmed by X-ray diffraction and chemical analysis
##URL=rruff.info/R060093
##MEASURED CHEMISTRY=Ca_2.00_(Fe^2+^_0.54_Mn_0.46_)(Fe^3+^_0.96_Al_0.04_)Si_5.00_O_14_(OH)
93.46680, 43.21366
93.94891, 43.38700
94.43103, 43.40181
94.91315, 42.79694
95.39526, 42.10315
95.87738, 41.61308
96.35950, 41.38185
96.84161, 41.35657
97.32373, 41.58874
97.80585, 42.00187
98.28796, 42.60603
98.77008, 43.50664
99.25220, 44.38935
99.73431, 44.77138
100.2164, 44.47209
100.6985, 44.09066
101.1807, 43.89232
101.6628, 43.84877
102.1449, 43.93002
102.6270, 44.12315
103.1091, 44.40827
103.5912, 44.68998
104.0734, 44.86726
104.5555, 45.14279
105.0376, 45.63702
105.5197, 46.26430
106.0018, 46.85462
106.4839, 47.26556
106.9661, 47.47963
107.4482, 47.61046
107.9303, 47.68202
108.4124, 47.66076
108.8945, 47.59121
109.3766, 47.46138
109.8588, 47.12301
110.3409, 46.35370
110.8230, 45.10636
111.3051, 43.73419
111.7872, 42.03571
112.2693, 40.29080
112.7515, 38.89491
113.2336, 37.93862
113.7157, 37.42580
114.1978, 37.40334
114.6799, 37.85591
115.1620, 38.39946
115.6442, 38.96631
116.1263, 39.53901
116.6084, 39.64798
117.0905, 38.94432
117.5726, 37.84631
118.0547, 36.47868
118.5369, 34.86378
119.0190, 33.29383
119.5011, 32.12672
119.9832, 31.34633
120.4653, 31.09306
120.9474, 31.45687
121.4296, 32.20398
121.9117, 33.26314
122.3938, 34.60484
122.8759, 36.05944
123.3580, 37.08332
123.8401, 37.51066
124.3223, 37.59093
124.8044, 37.26490
125.2865, 36.61128
125.7686, 35.71048
126.2507, 34.58103
126.7328, 33.24546
127.2150, 32.03411
127.6971, 30.95020
128.1792, 29.94640
128.6613, 28.99705
129.1434, 28.10453
129.6255, 27.30119
130.1077, 26.62161
130.5898, 26.06805
131.0719, 25.53991
131.5540, 25.03341
132.0361, 24.54667
132.5182, 24.06785
133.0004, 23.59012
133.4825, 23.14960
133.9646, 22.70935
134.4467, 22.31088
134.9288, 22.10951
135.4109, 22.22518
135.8931, 22.59810
136.3752, 23.02560
136.8573, 23.50810
137.3394, 24.04288
137.8215, 24.63464
138.3036, 25.27220
138.7858, 25.91781
139.2679, 26.47701
139.7500, 26.90313
140.2321, 27.62470
140.7142, 29.00979
141.1963, 30.40683
141.6785, 31.71543
142.1606, 32.83540
142.6427, 33.60160
143.1248, 33.79842
143.6069, 33.32347
144.0890, 32.39740
144.5712, 30.77661
145.0533, 28.96255
145.5354, 27.18965
146.0175, 25.56045
146.4996, 24.13574
146.9817, 23.03550
147.4639, 22.42430
147.9460, 21.91579
148.4281, 21.48506
148.9102, 21.15152
149.3923, 20.96829
149.8744, 20.97438
150.3566, 21.07690
150.8387, 21.06282
151.3208, 20.93772
151.8029, 20.73888
152.2850, 20.39986
152.7671, 19.97851
153.2493, 19.68054
153.7314, 19.63993
154.2135, 19.73128
154.6956, 19.70410
155.1777, 19.50875
155.6598, 19.30997
156.1420, 19.23707
156.6241, 19.29300
157.1062, 19.40856
157.5883, 19.59255
158.0704, 19.80889
158.5525, 20.01992
159.0347, 20.20681
159.5168, 20.26269
159.9989, 20.49178
160.4810, 20.66538
160.9631, 20.78785
161.4452, 20.62951
161.9274, 20.89237
162.4095, 21.02221
162.8916, 21.17111
163.3737, 21.56629
163.8558, 21.58029
164.3379, 22.02308
164.8201, 22.33051
165.3022, 22.73712
165.7843, 23.00976
166.2664, 23.35723
166.7485, 23.88983
167.2306, 24.35962
167.7128, 24.85668
168.1949, 25.47022
168.6770, 26.09787
169.1591, 26.79828
169.6412, 27.52865
170.1233, 28.20829
170.6055, 28.78020
171.0876, 29.24723
171.5697, 29.64847
172.0518, 29.95260
172.5339, 30.23539
173.0160, 30.50927
173.4982, 30.78403
173.9803, 31.11232
174.4624, 31.59316
174.9445, 32.18476
175.4266, 32.46700
175.9087, 32.41648
176.3909, 32.07988
176.8730, 31.44463
177.3551, 30.50493
177.8372, 29.41897
178.3193, 28.25017
178.8014, 27.02245
179.2836, 25.84459
179.7657, 24.70255
180.2478, 23.63248
180.7299, 22.67263
181.2120, 21.82465
181.6941, 21.10477
182.1763, 20.54047
182.6584, 20.10077
183.1405, 19.75785
183.6226, 19.51408
184.1047, 19.35768
184.5868, 19.25398
185.0690, 19.22687
185.5511, 19.22212
186.0332, 19.21511
186.5153, 19.20775
186.9974, 19.20371
187.4795, 19.20282
187.9617, 19.20598
188.4438, 19.22608
188.9259, 19.26864
189.4080, 19.32537
189.8901, 19.39687
190.3722, 19.48040
190.8544, 19.57673
191.3365, 19.69958
191.8186, 19.85867
192.3007, 19.90535
192.7828, 19.81405
193.2649, 19.63761
193.7471, 19.34788
194.2292, 18.97808
194.7113, 18.59494
195.1934, 18.25593
195.6755, 17.95411
196.1576, 17.74416
196.6398, 17.64872
197.1219, 17.60021
197.6040, 17.54703
198.0861, 17.49965
198.5682, 17.52620
199.0503, 17.71220
199.5325, 18.10394
200.0146, 18.36573
200.4967, 18.37142
200.9788, 18.35298
201.4609, 18.47358
201.9430, 18.74614
202.4252, 19.06813
202.9073, 19.34808
203.3894, 19.58022
203.8715, 19.80689
204.3536, 20.01486
204.8357, 20.22631
205.3179, 20.44732
205.8000, 20.67755
206.2821, 20.95719
206.7642, 21.33469
207.2463, 21.80298
207.7284, 22.32836
208.2106, 22.87445
208.6927, 23.48577
209.1748, 24.23201
209.6569, 25.13647
210.1390, 26.12812
210.6211, 27.26748
211.1033, 28.46943
211.5854, 29.48409
212.0675, 30.26289
212.5496, 30.79036
213.0317, 31.02208
213.5138, 30.91694
213.9960, 30.57215
214.4781, 29.97440
214.9602, 29.20956
215.4423, 28.44991
215.9244, 27.90221
216.4065, 27.44299
216.8886, 26.53974
217.3708, 24.79310
217.8529, 23.20311
218.3350, 22.22155
218.8171, 21.69712
219.2992, 21.34423
219.7813, 21.01676
220.2635, 20.71473
220.7456, 20.44455
221.2277, 20.22937
221.7098, 20.02271
222.1919, 19.80972
222.6740, 19.59433
223.1562, 19.37744
223.6383, 19.15035
224.1204, 18.92034
224.6025, 18.77836
225.0846, 18.78956
225.5667, 18.83292
226.0489, 18.86153
226.5310, 18.90375
227.0131, 19.00818
227.4952, 19.20734
227.9773, 19.49894
228.4594, 19.87771
228.9416, 20.40792
229.4237, 20.96020
229.9058, 21.53931
230.3879, 22.11799
230.8700, 22.66360
231.3521, 23.16596
231.8343, 23.61720
232.3164, 23.86926
232.7985, 23.90057
233.2806, 23.77788
233.7627, 23.46222
234.2448, 23.00314
234.7270, 22.48035
235.2091, 21.93697
235.6912, 21.37826
236.1733, 20.85797
236.6554, 20.41295
237.1375, 19.95544
237.6197, 19.41852
238.1018, 18.84702
238.5839, 18.34010
239.0660, 17.96212
239.5481, 17.69160
240.0302, 17.40519
240.5124, 17.02654
240.9945, 16.71631
241.4766, 16.57007
241.9587, 16.54080
242.4408, 16.50947
242.9229, 16.41161
243.4051, 16.27155
243.8872, 16.17257
244.3693, 16.13950
244.8514, 16.10501
245.3335, 16.02645
245.8156, 15.92112
246.2978, 15.84357
246.7799, 15.82207
247.2620, 15.83893
247.7441, 15.85358
248.2262, 15.86832
248.7083, 15.87650
249.1905, 15.87920
249.6726, 15.87377
250.1547, 15.84574
250.6368, 15.77518
251.1189, 15.69651
251.6010, 15.65009
252.0832, 15.62675
252.5653, 15.66532
253.0474, 15.83799
253.5295, 16.10750
254.0116, 16.30370
254.4937, 16.34168
254.9759, 16.33224
255.4580, 16.40235
255.9401, 16.55298
256.4222, 16.73084
256.9043, 16.89349
257.3864, 17.05113
257.8686, 17.25526
258.3507, 17.51100
258.8328, 17.82908
259.3149, 18.23346
259.7970, 18.71252
260.2791, 19.16851
260.7613, 19.48754
261.2434, 19.70799
261.7255, 20.07033
262.2076, 20.70324
262.6897, 21.34793
263.1718, 21.82961
263.6540, 22.17887
264.1361, 22.50652
264.6182, 22.91531
265.1003, 23.37594
265.5824, 23.73157
266.0645, 24.01813
266.5467, 24.11785
267.0288, 23.94382
267.5109, 23.56722
267.9930, 23.14200
268.4751, 22.75948
268.9572, 22.40405
269.4394, 21.98382
269.9215, 21.39611
270.4036, 20.90469
270.8857, 20.65104
271.3678, 20.53761
271.8499, 20.40499
272.3321, 20.14713
272.8142, 19.82598
273.2963, 19.66552
273.7784, 19.73655
274.2605, 19.86471
274.7426, 19.97724
275.2248, 20.11366
275.7069, 20.32401
276.1890, 20.63555
276.6711, 21.02254
277.1532, 21.39062
277.6353, 21.60025
278.1175, 22.07566
278.5996, 22.83755
279.0817, 23.68050
279.5638, 24.33273
280.0459, 24.79901
280.5280, 24.82421
281.0102, 25.18828
281.4923, 25.27545
281.9744, 25.25467
282.4565, 25.37845
282.9386, 24.94960
283.4207, 24.86808
283.9029, 24.50691
284.3850, 24.09761
284.8671, 23.73298
285.3492, 23.34521
285.8313, 22.92811
286.3134, 22.49071
286.7956, 22.02174
287.2777, 21.48730
287.7598, 20.89947
288.2419, 20.31933
288.7240, 19.81727
289.2061, 19.41326
289.6883, 19.02981
290.1704, 18.66465
290.6525, 18.32094
291.1346, 17.99063
291.6167, 17.68048
292.0988, 17.41241
292.5810, 17.20845
293.0631, 17.07253
293.5452, 16.96307
294.0273, 16.90721
294.5094, 16.85023
294.9915, 16.77137
295.4737, 16.67652
295.9558, 16.57723
296.4379, 16.47705
296.9200, 16.37932
297.4021, 16.34473
297.8842, 16.40455
298.3664, 16.49917
298.8485, 16.67299
299.3306, 16.86449
299.8127, 16.96817
300.2948, 16.91832
300.7769, 16.76721
301.2591, 16.72914
301.7412, 16.95667
302.2233, 17.11965
302.7054, 17.11123
303.1875, 17.05354
303.6696, 17.09231
304.1518, 17.28539
304.6339, 17.39981
305.1160, 17.78773
305.5981, 18.08562
306.0802, 18.29829
306.5623, 18.17054
307.0445, 18.48242
307.5266, 18.61809
308.0087, 18.74654
308.4908, 19.12024
308.9729, 19.04201
309.4550, 19.41181
309.9372, 19.60282
310.4193, 19.87564
310.9014, 19.97120
311.3835, 20.12152
311.8656, 20.44913
312.3477, 20.67857
312.8299, 20.75377
313.3120, 21.03179
313.7941, 20.94737
314.2762, 21.18100
314.7583, 21.55183
315.2404, 21.63590
315.7226, 21.78252
316.2047, 21.95010
316.6868, 21.99203
317.1689, 21.92294
317.6510, 21.97727
318.1331, 22.24802
318.6153, 22.53989
319.0974, 22.82669
319.5795, 23.10532
320.0616, 23.37711
320.5437, 23.64274
321.0258, 23.90128
321.5080, 24.15397
321.9901, 24.45118
322.4722, 24.66911
322.9543, 24.69847
323.4364, 24.69549
323.9185, 24.82726
324.4007, 25.14535
324.8828, 25.56458
325.3649, 25.93615
325.8470, 26.23937
326.3291, 26.53209
326.8112, 26.80013
327.2934, 27.07151
327.7755, 27.38687
328.2576, 27.73919
328.7397, 28.07388
329.2218, 28.33529
329.7039, 28.52277
330.1861, 28.63358
330.6682, 28.66984
331.1503, 28.64030
331.6324, 28.55545
332.1145, 28.40789
332.5966, 28.16589
333.0788, 27.78882
333.5609, 27.29070
334.0430, 26.91519
334.5251, 26.80381
335.0072, 26.66492
335.4893, 26.41149
335.9715, 26.10384
336.4536, 25.83594
336.9357, 25.65813
337.4178, 25.53782
337.8999, 25.38192
338.3820, 25.16065
338.8642, 24.94476
339.3463, 24.78853
339.8284, 24.61244
340.3105, 24.32462
340.7926, 23.90668
341.2747, 23.44557
341.7568, 23.07827
342.2390, 22.85968
342.7211, 22.60108
343.2032, 22.23430
343.6853, 21.89017
344.1674, 21.63201
344.6495, 21.46657
345.1317, 21.37146
345.6138, 21.32312
346.0959, 21.31911
346.5780, 21.40277
347.0601, 21.65684
347.5422, 21.92490
348.0244, 22.13925
348.5065, 22.34094
348.9886, 22.62716
349.4707, 23.07475
349.9528, 23.61668
350.4349, 23.97320
350.9171, 24.08818
351.3992, 24.08772
351.8813, 24.00838
352.3634, 23.83845
352.8455, 23.54663
353.3276, 23.12296
353.8098, 22.62911
354.2919, 22.16401
354.7740, 21.73063
355.2561, 21.31816
355.7382, 20.89623
356.2203, 20.51544
356.7025, 20.22933
357.1846, 20.03010
357.6667, 19.84854
358.1488, 19.59100
358.6309, 19.25154
359.1130, 19.03416
359.5952, 18.98924
360.0773, 19.02544
360.5594, 19.12167
361.0415, 19.26488
361.5236, 19.43908
362.0057, 19.65074
362.4879, 19.87582
362.9700, 20.04480
363.4521, 20.15236
363.9342, 20.21011
364.4163, 20.18244
364.8984, 20.12935
365.3806, 20.11927
365.8627, 20.17775
366.3448, 20.25043
366.8269, 20.25459
367.3090, 20.17881
367.7911, 20.14085
368.2733, 20.18981
368.7554, 20.26965
369.2375, 20.35528
369.7196, 20.44141
370.2017, 20.49792
370.6838, 20.48921
371.1660, 20.42844
371.6481, 20.37547
372.1302, 20.33011
372.6123, 20.30263
373.0944, 20.29743
373.5765, 20.31327
374.0587, 20.35128
374.5408, 20.42674
375.0229, 20.51465
375.5050, 20.58474
375.9871, 20.63837
376.4692, 20.65864
376.9514, 20.61541
377.4335, 20.54252
377.9156, 20.48367
378.3977, 20.43397
378.8798, 20.42178
379.3619, 20.48371
379.8441, 20.60522
380.3262, 20.72547
380.8083, 20.83226
381.2904, 20.92566
381.7725, 20.99700
382.2546, 21.04643
382.7368, 21.11506
383.2189, 21.25066
383.7010, 21.39932
384.1831, 21.49840
384.6652, 21.54276
385.1473, 21.51111
385.6295, 21.37812
386.1116, 21.14374
386.5937, 20.86165
387.0758, 20.53899
387.5579, 20.16513
388.0400, 19.69358
388.5222, 19.15800
389.0043, 18.66232
389.4864, 18.25704
389.9685, 17.92125
390.4506, 17.60905
390.9327, 17.31325
391.4149, 17.04536
391.8970, 16.83432
392.3791, 16.64064
392.8612, 16.39490
393.3433, 16.08664
393.8254, 15.80287
394.3076, 15.64898
394.7897, 15.65274
395.2718, 15.65922
395.7539, 15.68462
396.2360, 15.69791
396.7181, 15.66732
397.2003, 15.60781
397.6824, 15.56776
398.1645, 15.58165
398.6466, 15.63292
399.1287, 15.63678
399.6108, 15.56638
400.0930, 15.47908
400.5751, 15.38581
401.0572, 15.27586
401.5393, 15.14292
402.0214, 14.98339
402.5035, 14.78372
402.9857, 14.50923
403.4678, 14.09545
403.9499, 13.79814
404.4320, 13.73036
404.9141, 13.65839
405.3962, 13.45738
405.8784, 13.14781
406.3605, 12.81252
406.8426, 12.50218
407.3247, 12.22459
407.8068, 12.05916
408.2889, 12.11233
408.7711, 12.12768
409.2532, 12.03105
409.7353, 11.87910
410.2174, 11.71549
410.6995, 11.55558
411.1816, 11.43542
411.6638, 11.43126
412.1459, 11.57481
412.6280, 11.66157
413.1101, 11.62385
413.5922, 11.55377
414.0743, 11.47654
414.5565, 11.40547
415.0386, 11.37490
415.5207, 11.44616
416.0028, 11.57821
416.4849, 11.60910
416.9670, 11.49790
417.4492, 11.38769
417.9313, 11.34169
418.4134, 11.34462
418.8955, 11.38962
419.3776, 11.48945
419.8597, 11.59738
420.3419, 11.65975
420.8240, 11.68310
421.3061, 11.72609
421.7882, 11.79748
422.2703, 11.90658
422.7524, 12.06948
423.2346, 12.28503
423.7167, 12.50793
424.1988, 12.73658
424.6809, 12.95653
425.1630, 13.11822
425.6451, 13.21531
426.1273, 13.38242
426.6094, 13.74766
427.0915, 14.27077
427.5736, 14.70029
428.0557, 14.92659
428.5378, 15.17925
429.0200, 15.58654
429.5021, 16.08951
429.9842, 16.56261
430.4663, 16.96048
430.9484, 17.32556
431.4305, 17.73075
431.9127, 18.21363
432.3948, 18.64266
432.8769, 19.06108
433.3590, 19.38956
433.8411, 19.57334
434.3232, 19.61074
434.8054, 19.52484
435.2875, 19.32875
435.7696, 19.02676
436.2517, 18.65510
436.7338, 18.15222
437.2159, 17.64730
437.6981, 17.15518
438.1802, 16.67277
438.6623, 16.18406
439.1444, 15.68781
439.6265, 15.20917
440.1086, 14.79307
440.5908, 14.46360
441.0729, 14.11875
441.5550, 13.69341
442.0371, 13.30997
442.5192, 13.03693
443.0013, 12.85213
443.4835, 12.69402
443.9656, 12.52740
444.4477, 12.35681
444.9298, 12.19739
445.4119, 12.03988
445.8940, 11.91643
446.3762, 11.84121
446.8583, 11.80182
447.3404, 11.81014
447.8225, 11.87003
448.3046, 11.90860
448.7867, 11.81289
449.2689, 11.62301
449.7510, 11.58525
450.2331, 11.80913
450.7152, 12.03157
451.1973, 11.98955
451.6794, 11.77609
452.1616, 11.62805
452.6437, 11.65566
453.1258, 11.73627
453.6079, 11.75093
454.0900, 11.71012
454.5721, 11.68670
455.0543, 11.72228
455.5364, 11.77808
456.0185, 11.76154
456.5006, 11.64534
456.9827, 11.57649
457.4648, 11.65109
457.9470, 11.75407
458.4291, 11.73828
458.9112, 11.59796
459.3933, 11.46697
459.8754, 11.46120
460.3575, 11.57642
460.8397, 11.65366
461.3218, 11.71060
461.8039, 11.71666
462.2860, 11.60365
462.7681, 11.45599
463.2502, 11.38911
463.7324, 11.44236
464.2145, 11.56572
464.6966, 11.68575
465.1787, 11.80637
465.6608, 11.90908
466.1429, 11.97320
466.6251, 12.04003
467.1072, 12.12886
467.5893, 12.23563
468.0714, 12.33771
468.5535, 12.40860
469.0356, 12.48848
469.5178, 12.71300
469.9999, 13.14911
470.4820, 13.55397
470.9641, 13.87253
471.4462, 14.13302
471.9283, 14.32024
472.4105, 14.44104
472.8926, 14.59462
473.3747, 14.88956
473.8568, 15.28359
474.3389, 15.61017
474.8210, 15.84401
475.3032, 16.05624
475.7853, 16.32660
476.2674, 16.60293
476.7495, 16.77109
477.2316, 16.77316
477.7137, 16.72460
478.1959, 16.70969
478.6780, 16.70794
479.1601, 16.65249
479.6422, 16.51732
480.1243, 16.35009
480.6064, 16.22428
481.0886, 16.15553
481.5707, 16.00494
482.0528, 15.70483
482.5349, 15.37306
483.0170, 15.06964
483.4991, 14.80082
483.9813, 14.56944
484.4634, 14.37856
484.9455, 14.21544
485.4276, 14.03967
485.9097, 13.80547
486.3918, 13.62919
486.8740, 13.54762
487.3561, 13.49462
487.8382, 13.40485
488.3203, 13.28676
488.8024, 13.21052
489.2845, 13.24033
489.7667, 13.36712
490.2488, 13.49502
490.7309, 13.60854
491.2130, 13.75113
491.6951, 13.92014
492.1772, 14.12676
492.6594, 14.39295
493.1415, 14.72376
493.6236, 15.07282
494.1057, 15.39708
494.5878, 15.69886
495.0699, 15.98759
495.5521, 16.26580
496.0342, 16.52721
496.5163, 16.76696
496.9984, 16.98653
497.4805, 17.18752
497.9626, 17.43425
498.4448, 17.58930
498.9269, 17.51053
499.4090, 17.23942
499.8911, 16.91557
500.3732, 16.58065
500.8553, 16.22721
501.3375, 15.83166
501.8196, 15.37761
502.3017, 14.96837
502.7838, 14.63671
503.2659, 14.32927
503.7480, 14.01729
504.2302, 13.69830
504.7123, 13.36261
505.1944, 12.99991
505.6765, 12.63761
506.1586, 12.35679
506.6407, 12.21070
507.1228, 12.06319
507.6049, 11.89988
508.0871, 11.74164
508.5692, 11.59248
509.0513, 11.45982
509.5334, 11.36635
510.0155, 11.34769
510.4977, 11.37537
510.9798, 11.28990
511.4619, 11.00152
511.9440, 10.80373
512.4261, 10.87096
512.9083, 11.02189
513.3904, 11.11141
513.8725, 11.11595
514.3546, 11.06819
514.8367, 10.96868
515.3188, 10.83641
515.8010, 10.71091
516.2831, 10.58537
516.7652, 10.52008
517.2473, 10.58319
517.7294, 10.73864
518.2115, 10.85860
518.6937, 10.93524
519.1758, 10.98145
519.6579, 10.97413
520.1400, 10.94862
520.6221, 10.96126
521.1042, 11.02567
521.5864, 11.12541
522.0685, 11.24801
522.5506, 11.39781
523.0327, 11.52552
523.5148, 11.64128
523.9969, 11.72918
524.4791, 11.75682
524.9612, 11.76289
525.4433, 11.79511
525.9254, 11.87115
526.4075, 11.98517
526.8896, 12.14874
527.3718, 12.38889
527.8539, 12.53193
528.3360, 12.45602
528.8181, 12.41330
529.3002, 12.53224
529.7823, 12.75352
530.2645, 12.96687
530.7466, 13.13312
531.2287, 13.26297
531.7108, 13.33514
532.1929, 13.35832
532.6750, 13.48086
533.1572, 13.78380
533.6393, 14.11891
534.1214, 14.31514
534.6035, 14.39448
535.0856, 14.49372
535.5677, 14.69502
536.0499, 14.87811
536.5320, 14.94172
537.0141, 14.91096
537.4962, 14.86023
537.9783, 14.81641
538.4604, 14.79410
538.9426, 14.81997
539.4247, 14.90834
539.9068, 15.01462
540.3889, 15.16967
540.8710, 15.31159
541.3531, 15.41643
541.8353, 15.48164
542.3174, 15.50804
542.7995, 15.49473
543.2816, 15.45221
543.7637, 15.40584
544.2458, 15.36188
544.7280, 15.29224
545.2101, 15.20665
545.6922, 15.08000
546.1743, 14.87878
546.6564, 14.61982
547.1385, 14.36446
547.6207, 14.14147
548.1028, 13.93834
548.5849, 13.73458
549.0670, 13.53062
549.5491, 13.35064
550.0313, 13.21197
550.5134, 13.09015
550.9955, 12.94589
551.4776, 12.77793
551.9597, 12.62647
552.4418, 12.53505
552.9240, 12.43471
553.4061, 12.24281
553.8882, 11.99089
554.3703, 11.78520
554.8524, 11.68015
555.3345, 11.64442
555.8167, 11.60586
556.2988, 11.55080
556.7809, 11.52089
557.2630, 11.54429
557.7451, 11.56313
558.2272, 11.52482
558.7094, 11.45546
559.1915, 11.42711
559.6736, 11.48691
560.1557, 11.59141
560.6378, 11.65663
561.1199, 11.68202
561.6021, 11.66475
562.0842, 11.55318
562.5663, 11.45312
563.0484, 11.45134
563.5305, 11.53677
564.0126, 11.64675
564.4948, 11.74306
564.9769, 11.86473
565.4590, 12.08125
565.9411, 12.36781
566.4232, 12.60680
566.9053, 12.74963
567.3875, 12.83725
567.8696, 12.91800
568.3517, 12.95839
568.8338, 13.12784
569.3159, 13.54481
569.7980, 13.97219
570.2802, 14.27525
570.7623, 14.49604
571.2444, 14.74251
571.7265, 15.06302
572.2086, 15.41519
572.6907, 15.71577
573.1729, 15.95135
573.6550, 16.19390
574.1371, 16.14841
574.6192, 16.68451
575.1013, 17.07294
575.5834, 17.31852
576.0656, 17.16612
576.5477, 17.39561
577.0298, 17.39132
577.5119, 17.32219
577.9940, 17.44069
578.4761, 17.04965
578.9583, 17.04895
579.4404, 16.81182
579.9225, 16.41207
580.4046, 16.03182
580.8867, 15.63594
581.3688, 15.19165
581.8510, 14.76908
582.3331, 14.42827
582.8152, 14.11754
583.2973, 13.72560
583.7794, 13.23487
584.2615, 12.76851
584.7437, 12.49182
585.2258, 12.42162
585.7079, 12.23822
586.1900, 11.79689
586.6721, 11.42114
587.1542, 11.22970
587.6363, 11.12038
