##NAMES=Babingtonite
##RRUFFID=R060084
##IDEAL CHEMISTRY=Ca_2_Fe^2+^Fe^3+^Si_5_O_14_(OH)
##LOCALITY=Winchester Highlands, Massachusetts, USA
##OWNER=RRUFF
##SOURCE=University of Arizona Mineral Museum
##DESCRIPTION=Black stubby prismatic crystals
##STATUS=The identification of this mineral has been confirmed by X-ray diffraction and chemical analysis
##URL=rruff.info/R060084
##MEASURED CHEMISTRY=Ca_2.00_(Fe^2+^_0.89_Mg_0.07_Mn_0.04_)(Fe^3+^_0.96_Al_0.04_)Si_5.00_O_14_(OH)
93.46680, 25.69106
93.94891, 25.32609
94.43103, 25.40417
94.91315, 25.76975
95.39526, 26.03797
95.87738, 26.10064
96.35950, 26.02089
96.84161, 25.89078
97.32373, 25.80554
97.80585, 25.66370
98.28796, 25.36417
98.77008, 24.86419
99.25220, 24.30473
99.73431, 23.85090
100.2164, 23.47624
100.6985, 23.21500
101.1807, 23.23327
101.6628, 23.37104
102.1449, 23.42875
102.6270, 23.26662
103.1091, 22.95516
103.5912, 22.97034
104.0734, 23.90339
104.5555, 24.59446
105.0376, 24.72663
105.5197, 24.43864
106.0018, 24.04206
106.4839, 23.79785
106.9661, 23.73143
107.4482, 23.62207
107.9303, 23.40986
108.4124, 23.20220
108.8945, 23.05505
109.3766, 22.97708
109.8588, 22.95568
110.3409, 23.01136
110.8230, 23.17106
111.3051, 23.19139
111.7872, 22.94849
112.2693, 22.56830
112.7515, 22.22666
113.2336, 21.95430
113.7157, 21.76552
114.1978, 21.70532
114.6799, 21.77378
115.1620, 21.81227
115.6442, 21.78436
116.1263, 21.68340
116.6084, 21.34465
117.0905, 20.46176
117.5726, 19.49754
118.0547, 18.73815
118.5369, 18.23921
119.0190, 17.90358
119.5011, 17.58800
119.9832, 17.24133
120.4653, 17.05657
120.9474, 17.14517
121.4296, 17.33323
121.9117, 17.48356
122.3938, 17.53626
122.8759, 17.51884
123.3580, 17.52188
123.8401, 17.60111
124.3223, 17.64029
124.8044, 17.60397
125.2865, 17.52353
125.7686, 17.44964
126.2507, 17.41563
126.7328, 17.41609
127.2150, 17.37192
127.6971, 17.22105
128.1792, 17.09534
128.6613, 17.08043
129.1434, 17.15837
129.6255, 17.21959
130.1077, 17.16412
130.5898, 17.00499
131.0719, 16.90716
131.5540, 16.88456
132.0361, 16.92138
132.5182, 17.02287
133.0004, 17.20561
133.4825, 17.37862
133.9646, 17.42707
134.4467, 17.40408
134.9288, 17.42720
135.4109, 17.56965
135.8931, 17.80107
136.3752, 18.01459
136.8573, 18.18143
137.3394, 18.36389
137.8215, 18.61699
138.3036, 18.91816
138.7858, 19.19678
139.2679, 19.37952
139.7500, 19.44943
140.2321, 19.56026
140.7142, 19.75728
141.1963, 19.96069
141.6785, 20.15953
142.1606, 20.34101
142.6427, 20.48261
143.1248, 20.55040
143.6069, 20.50820
144.0890, 20.46793
144.5712, 20.36171
145.0533, 20.29855
145.5354, 20.38650
146.0175, 20.64541
146.4996, 20.97082
146.9817, 21.17059
147.4639, 21.06185
147.9460, 21.12547
148.4281, 21.49994
148.9102, 22.02217
149.3923, 22.48856
149.8744, 22.81940
150.3566, 23.06872
150.8387, 23.35696
151.3208, 23.67302
151.8029, 24.03472
152.2850, 24.46140
152.7671, 24.94247
153.2493, 25.43813
153.7314, 25.93855
154.2135, 26.44330
154.6956, 26.96331
155.1777, 27.51943
155.6598, 28.03693
156.1420, 28.43971
156.6241, 28.72201
157.1062, 28.98090
157.5883, 29.28242
158.0704, 29.56071
158.5525, 29.74759
159.0347, 29.81678
159.5168, 29.81629
159.9989, 29.79301
160.4810, 29.69181
160.9631, 29.71457
161.4452, 30.05274
161.9274, 30.46852
162.4095, 30.72564
162.8916, 30.70418
163.3737, 30.49167
163.8558, 30.37647
164.3379, 30.46686
164.8201, 30.51688
165.3022, 30.45947
165.7843, 30.34535
166.2664, 30.24230
166.7485, 30.19127
167.2306, 30.18521
167.7128, 30.16178
168.1949, 30.14541
168.6770, 30.08655
169.1591, 29.99620
169.6412, 29.85491
170.1233, 29.61731
170.6055, 29.24232
171.0876, 28.73083
171.5697, 28.27567
172.0518, 27.84230
172.5339, 27.48145
173.0160, 27.29093
173.4982, 27.22839
173.9803, 27.10209
174.4624, 26.76552
174.9445, 26.20645
175.4266, 25.59344
175.9087, 24.87499
176.3909, 24.13391
176.8730, 23.43705
177.3551, 22.78726
177.8372, 22.16119
178.3193, 21.53509
178.8014, 20.91761
179.2836, 20.35940
179.7657, 19.87075
180.2478, 19.44611
180.7299, 19.08096
181.2120, 18.78804
181.6941, 18.52401
182.1763, 18.23072
182.6584, 17.94220
183.1405, 17.73543
183.6226, 17.67460
184.1047, 17.72309
184.5868, 17.75712
185.0690, 17.74922
185.5511, 17.77104
186.0332, 17.86717
186.5153, 18.01173
186.9974, 18.15333
187.4795, 18.24114
187.9617, 18.28414
188.4438, 18.41131
188.9259, 18.73248
189.4080, 19.02997
189.8901, 19.21869
190.3722, 19.32735
190.8544, 19.43014
191.3365, 19.59324
191.8186, 19.82531
192.3007, 19.99971
192.7828, 20.02573
193.2649, 20.08102
193.7471, 20.28719
194.2292, 20.59060
194.7113, 20.82899
195.1934, 20.83289
195.6755, 20.53968
196.1576, 20.41437
196.6398, 20.55717
197.1219, 20.73696
197.6040, 20.83638
198.0861, 20.85754
198.5682, 20.87620
199.0503, 20.96703
199.5325, 21.14532
200.0146, 21.32088
200.4967, 21.50155
200.9788, 21.67373
201.4609, 21.83421
201.9430, 21.98095
202.4252, 22.09809
202.9073, 22.15168
203.3894, 22.13209
203.8715, 22.20238
204.3536, 22.46717
204.8357, 22.76965
205.3179, 22.93804
205.8000, 22.94559
206.2821, 22.94165
206.7642, 23.10400
207.2463, 23.40078
207.7284, 23.62148
208.2106, 23.68484
208.6927, 23.66425
209.1748, 23.64076
209.6569, 23.60731
210.1390, 23.62377
210.6211, 23.79309
211.1033, 24.05893
211.5854, 24.28392
212.0675, 24.42245
212.5496, 24.48578
213.0317, 24.51505
213.5138, 24.55033
213.9960, 24.45954
214.4781, 24.11454
214.9602, 23.59703
215.4423, 23.06369
215.9244, 22.59650
216.4065, 22.17776
216.8886, 21.73925
217.3708, 21.22821
217.8529, 20.78193
218.3350, 20.45730
218.8171, 20.23088
219.2992, 20.05763
219.7813, 19.91374
220.2635, 19.79965
220.7456, 19.72427
221.2277, 19.72681
221.7098, 19.72323
222.1919, 19.67930
222.6740, 19.61091
223.1562, 19.54807
223.6383, 19.51471
224.1204, 19.50686
224.6025, 19.47386
225.0846, 19.36698
225.5667, 19.28571
226.0489, 19.25704
226.5310, 19.27005
227.0131, 19.30824
227.4952, 19.36621
227.9773, 19.43961
228.4594, 19.45899
228.9416, 19.34570
229.4237, 19.25774
229.9058, 19.26095
230.3879, 19.31491
230.8700, 19.34561
231.3521, 19.30409
231.8343, 19.19247
232.3164, 19.04567
232.7985, 18.88159
233.2806, 18.66759
233.7627, 18.36239
234.2448, 17.99958
234.7270, 17.64881
235.2091, 17.35933
235.6912, 17.11865
236.1733, 16.80345
236.6554, 16.30470
237.1375, 15.86075
237.6197, 15.58292
238.1018, 15.41912
238.5839, 15.23594
239.0660, 14.94516
239.5481, 14.58249
240.0302, 14.34897
240.5124, 14.29944
240.9945, 14.28956
241.4766, 14.28611
241.9587, 14.28564
242.4408, 14.28015
242.9229, 14.26361
243.4051, 14.24096
243.8872, 14.22856
244.3693, 14.22862
244.8514, 14.23355
245.3335, 14.23793
245.8156, 14.24417
246.2978, 14.26368
246.7799, 14.31017
247.2620, 14.36244
247.7441, 14.37707
248.2262, 14.35046
248.7083, 14.30123
249.1905, 14.20001
249.6726, 14.07394
250.1547, 14.03036
250.6368, 14.13999
251.1189, 14.31696
251.6010, 14.42636
252.0832, 14.46357
252.5653, 14.46904
253.0474, 14.45924
253.5295, 14.43505
254.0116, 14.39432
254.4937, 14.31519
254.9759, 14.24733
255.4580, 14.24113
255.9401, 14.29642
256.4222, 14.38739
256.9043, 14.52802
257.3864, 14.70200
257.8686, 14.82033
258.3507, 14.84157
258.8328, 14.83074
259.3149, 14.83197
259.7970, 14.84773
260.2791, 14.90011
260.7613, 15.04015
261.2434, 15.24366
261.7255, 15.37218
262.2076, 15.38677
262.6897, 15.34742
263.1718, 15.25820
263.6540, 15.14465
264.1361, 15.09478
264.6182, 15.20897
265.1003, 15.45347
265.5824, 15.63206
266.0645, 15.75112
266.5467, 15.77665
267.0288, 15.64540
267.5109, 15.42054
267.9930, 15.24195
268.4751, 15.22214
268.9572, 15.31754
269.4394, 15.32124
269.9215, 15.16572
270.4036, 15.01618
270.8857, 14.92706
271.3678, 14.88654
271.8499, 14.87998
272.3321, 14.90852
272.8142, 14.95806
273.2963, 14.97519
273.7784, 14.92795
274.2605, 14.90210
274.7426, 14.94165
275.2248, 15.00630
275.7069, 15.04296
276.1890, 15.02337
276.6711, 14.97542
277.1532, 14.97416
277.6353, 15.04880
278.1175, 15.11752
278.5996, 15.17944
279.0817, 15.22195
279.5638, 15.23185
280.0459, 15.20429
280.5280, 15.14766
281.0102, 15.07425
281.4923, 14.97288
281.9744, 14.87905
282.4565, 14.78941
282.9386, 14.71200
283.4207, 14.65589
283.9029, 14.62257
284.3850, 14.60329
284.8671, 14.58551
285.3492, 14.56862
285.8313, 14.55500
286.3134, 14.56313
286.7956, 14.56053
287.2777, 14.50407
287.7598, 14.40164
288.2419, 14.31722
288.7240, 14.34000
289.2061, 14.51824
289.6883, 14.62497
290.1704, 14.58531
290.6525, 14.54553
291.1346, 14.57098
291.6167, 14.66166
292.0988, 14.78508
292.5810, 14.91825
293.0631, 15.06597
293.5452, 15.16836
294.0273, 15.11279
294.5094, 15.12346
294.9915, 15.33719
295.4737, 15.68126
295.9558, 15.98595
296.4379, 16.12097
296.9200, 16.10027
297.4021, 16.14006
297.8842, 16.32118
298.3664, 16.47963
298.8485, 16.55761
299.3306, 16.59618
299.8127, 16.65738
300.2948, 16.77568
300.7769, 16.94218
301.2591, 17.12072
301.7412, 17.31714
302.2233, 17.51930
302.7054, 17.71252
303.1875, 17.91449
303.6696, 18.15914
304.1518, 18.45795
304.6339, 18.77166
305.1160, 19.01332
305.5981, 19.06877
306.0802, 19.22378
306.5623, 19.58296
307.0445, 19.97538
307.5266, 20.24518
308.0087, 20.36176
308.4908, 20.42922
308.9729, 20.59652
309.4550, 20.90204
309.9372, 21.21869
310.4193, 21.59779
310.9014, 21.94840
311.3835, 22.19678
311.8656, 22.35078
312.3477, 22.48243
312.8299, 22.66989
313.3120, 22.93647
313.7941, 23.10867
314.2762, 23.10673
314.7583, 23.10345
315.2404, 23.18627
315.7226, 23.32839
316.2047, 23.44454
316.6868, 23.46521
317.1689, 23.39983
317.6510, 23.39951
318.1331, 23.55423
318.6153, 23.67419
319.0974, 23.70075
319.5795, 23.66998
320.0616, 23.65297
320.5437, 23.68995
321.0258, 23.73919
321.5080, 23.65814
321.9901, 23.27257
322.4722, 22.97078
322.9543, 22.80500
323.4364, 22.71671
323.9185, 22.66753
324.4007, 22.63963
324.8828, 22.60067
325.3649, 22.48917
325.8470, 22.23849
326.3291, 22.04162
326.8112, 21.94416
327.2934, 21.85830
327.7755, 21.72732
328.2576, 21.54248
328.7397, 21.32479
329.2218, 21.09403
329.7039, 20.84687
330.1861, 20.60040
330.6682, 20.33515
331.1503, 20.08813
331.6324, 19.88716
332.1145, 19.71903
332.5966, 19.55120
333.0788, 19.35883
333.5609, 19.14316
334.0430, 18.92694
334.5251, 18.69178
335.0072, 18.47440
335.4893, 18.28269
335.9715, 18.11373
336.4536, 17.95713
336.9357, 17.80752
337.4178, 17.67857
337.8999, 17.62039
338.3820, 17.71230
338.8642, 17.75803
339.3463, 17.73200
339.8284, 17.66328
340.3105, 17.56017
340.7926, 17.43115
341.2747, 17.31106
341.7568, 17.25368
342.2390, 17.27584
342.7211, 17.32253
343.2032, 17.40231
343.6853, 17.49554
344.1674, 17.60712
344.6495, 17.72671
345.1317, 17.82324
345.6138, 17.85762
346.0959, 17.82313
346.5780, 17.84060
347.0601, 17.96719
347.5422, 18.09362
348.0244, 18.20500
348.5065, 18.29396
348.9886, 18.35009
349.4707, 18.36349
349.9528, 18.34519
350.4349, 18.34048
350.9171, 18.36533
351.3992, 18.37868
351.8813, 18.42559
352.3634, 18.43467
352.8455, 18.30867
353.3276, 18.01562
353.8098, 17.65927
354.2919, 17.42096
354.7740, 17.34641
355.2561, 17.25115
355.7382, 17.09801
356.2203, 16.93193
356.7025, 16.77123
357.1846, 16.62132
357.6667, 16.48712
358.1488, 16.38172
358.6309, 16.30758
359.1130, 16.21087
359.5952, 16.06546
360.0773, 15.92632
360.5594, 15.80514
361.0415, 15.70752
361.5236, 15.64589
362.0057, 15.63805
362.4879, 15.66390
362.9700, 15.66362
363.4521, 15.63628
363.9342, 15.58309
364.4163, 15.47946
364.8984, 15.36362
365.3806, 15.28503
365.8627, 15.26461
366.3448, 15.24350
366.8269, 15.12521
367.3090, 14.89323
367.7911, 14.71513
368.2733, 14.67932
368.7554, 14.67066
369.2375, 14.60007
369.7196, 14.46689
370.2017, 14.33493
370.6838, 14.25976
371.1660, 14.22784
371.6481, 14.17461
372.1302, 14.08917
372.6123, 13.99252
373.0944, 13.88943
373.5765, 13.78644
374.0587, 13.69797
374.5408, 13.63210
375.0229, 13.58246
375.5050, 13.54471
375.9871, 13.52100
376.4692, 13.49067
376.9514, 13.42784
377.4335, 13.36092
377.9156, 13.33188
378.3977, 13.35173
378.8798, 13.39015
379.3619, 13.45054
379.8441, 13.51838
380.3262, 13.51894
380.8083, 13.40248
381.2904, 13.26106
381.7725, 13.20374
382.2546, 13.22487
382.7368, 13.29099
383.2189, 13.42936
383.7010, 13.59161
384.1831, 13.72031
384.6652, 13.81069
385.1473, 13.84525
385.6295, 13.78972
386.1116, 13.65727
386.5937, 13.55543
387.0758, 13.48498
387.5579, 13.44843
388.0400, 13.47901
388.5222, 13.55170
389.0043, 13.57396
389.4864, 13.48889
389.9685, 13.35076
390.4506, 13.30281
390.9327, 13.38366
391.4149, 13.44776
391.8970, 13.47755
392.3791, 13.46970
392.8612, 13.39967
393.3433, 13.26613
393.8254, 13.13371
394.3076, 13.08082
394.7897, 13.12782
395.2718, 13.15110
395.7539, 13.13041
396.2360, 13.10668
396.7181, 13.11473
397.2003, 13.14079
397.6824, 13.14569
398.1645, 13.10616
398.6466, 13.02344
399.1287, 12.89967
399.6108, 12.62777
400.0930, 12.44728
400.5751, 12.46472
401.0572, 12.54713
401.5393, 12.54140
402.0214, 12.40510
402.5035, 12.22230
402.9857, 12.12258
403.4678, 12.15278
403.9499, 12.13075
404.4320, 11.99574
404.9141, 11.87063
405.3962, 11.82599
405.8784, 11.84669
406.3605, 11.88137
406.8426, 11.90351
407.3247, 11.90240
407.8068, 11.78633
408.2889, 11.41231
408.7711, 11.13289
409.2532, 11.02096
409.7353, 11.03509
410.2174, 11.16422
410.6995, 11.40486
411.1816, 11.65773
411.6638, 11.75665
412.1459, 11.66145
412.6280, 11.62882
413.1101, 11.73355
413.5922, 11.87813
414.0743, 12.02031
414.5565, 12.15615
415.0386, 12.29039
415.5207, 12.43985
416.0028, 12.59032
416.4849, 12.67786
416.9670, 12.67080
417.4492, 12.68028
417.9313, 12.80356
418.4134, 12.96573
418.8955, 13.06590
419.3776, 13.06300
419.8597, 13.03320
420.3419, 13.03766
420.8240, 13.07637
421.3061, 13.15897
421.7882, 13.32001
422.2703, 13.48206
422.7524, 13.52897
423.2346, 13.46480
423.7167, 13.44451
424.1988, 13.58474
424.6809, 13.77307
425.1630, 13.83917
425.6451, 13.76595
426.1273, 13.68977
426.6094, 13.71738
427.0915, 13.82707
427.5736, 13.88435
428.0557, 13.85460
428.5378, 13.81151
429.0200, 13.77431
429.5021, 13.74807
429.9842, 13.75682
430.4663, 13.81431
430.9484, 13.87162
431.4305, 13.84994
431.9127, 13.73092
432.3948, 13.55901
432.8769, 13.27268
433.3590, 12.98158
433.8411, 12.76898
434.3232, 12.63125
434.8054, 12.51445
435.2875, 12.38206
435.7696, 12.23301
436.2517, 12.05179
436.7338, 11.79048
437.2159, 11.55181
437.6981, 11.33568
438.1802, 11.15668
438.6623, 11.03961
439.1444, 10.98984
439.6265, 10.97102
440.1086, 10.93137
440.5908, 10.86860
441.0729, 10.79233
441.5550, 10.70954
442.0371, 10.60591
442.5192, 10.42670
443.0013, 10.21885
443.4835, 10.10191
443.9656, 10.18016
444.4477, 10.37816
444.9298, 10.44240
445.4119, 10.31058
445.8940, 10.20462
446.3762, 10.19522
446.8583, 10.24426
447.3404, 10.35421
447.8225, 10.52809
448.3046, 10.65564
448.7867, 10.60627
449.2689, 10.41459
449.7510, 10.26320
450.2331, 10.16915
450.7152, 10.13268
451.1973, 10.19537
451.6794, 10.31833
452.1616, 10.39965
452.6437, 10.39311
453.1258, 10.34896
453.6079, 10.30779
454.0900, 10.26932
454.5721, 10.23050
455.0543, 10.18598
455.5364, 10.14579
456.0185, 10.12654
456.5006, 10.11827
456.9827, 10.15477
457.4648, 10.31392
457.9470, 10.48218
458.4291, 10.51676
458.9112, 10.41131
459.3933, 10.28886
459.8754, 10.24928
460.3575, 10.29049
460.8397, 10.33614
461.3218, 10.39785
461.8039, 10.44994
462.2860, 10.48319
462.7681, 10.50385
463.2502, 10.52332
463.7324, 10.54493
464.2145, 10.55677
464.6966, 10.53428
465.1787, 10.45334
465.6608, 10.41216
466.1429, 10.42269
466.6251, 10.45854
467.1072, 10.53686
467.5893, 10.63091
468.0714, 10.67762
468.5535, 10.62354
469.0356, 10.52201
469.5178, 10.54007
469.9999, 10.72922
470.4820, 10.90150
470.9641, 11.02162
471.4462, 11.09841
471.9283, 11.11749
472.4105, 11.08202
472.8926, 11.05094
473.3747, 11.08238
473.8568, 11.15651
474.3389, 11.20782
474.8210, 11.24333
475.3032, 11.22147
475.7853, 11.03471
476.2674, 10.78251
476.7495, 10.67252
477.2316, 10.81164
477.7137, 10.98441
478.1959, 11.03767
478.6780, 11.00569
479.1601, 10.99391
479.6422, 11.03968
480.1243, 11.08843
480.6064, 11.05333
481.0886, 10.91149
481.5707, 10.84884
482.0528, 10.93985
482.5349, 11.05720
483.0170, 11.10199
483.4991, 11.09867
483.9813, 11.15017
484.4634, 11.32365
484.9455, 11.55263
485.4276, 11.63676
485.9097, 11.41954
486.3918, 11.28157
486.8740, 11.25506
487.3561, 11.28522
487.8382, 11.36267
488.3203, 11.46525
488.8024, 11.53278
489.2845, 11.50062
489.7667, 11.38475
490.2488, 11.35243
490.7309, 11.46575
491.2130, 11.56276
491.6951, 11.57827
492.1772, 11.56868
492.6594, 11.59871
493.1415, 11.68469
493.6236, 11.77441
494.1057, 11.81571
494.5878, 11.81268
495.0699, 11.80319
495.5521, 11.80513
496.0342, 11.77316
496.5163, 11.62320
496.9984, 11.41472
497.4805, 11.29033
497.9626, 11.33987
498.4448, 11.41893
498.9269, 11.42468
499.4090, 11.36329
499.8911, 11.24563
500.3732, 11.06472
500.8553, 10.86145
501.3375, 10.69137
501.8196, 10.55861
502.3017, 10.43987
502.7838, 10.33626
503.2659, 10.24428
503.7480, 10.16448
504.2302, 10.09434
504.7123, 10.02510
505.1944, 9.950824
505.6765, 9.878466
506.1586, 9.827602
506.6407, 9.798158
507.1228, 9.793104
507.6049, 9.867942
508.0871, 9.921355
508.5692, 9.844805
509.0513, 9.667663
509.5334, 9.532157
510.0155, 9.564497
510.4977, 9.722986
510.9798, 9.796642
511.4619, 9.744018
511.9440, 9.700557
512.4261, 9.725385
512.9083, 9.769460
513.3904, 9.779361
513.8725, 9.746459
514.3546, 9.737374
514.8367, 9.830918
515.3188, 9.984934
515.8010, 10.06985
516.2831, 10.06060
516.7652, 10.05165
517.2473, 10.12071
517.7294, 10.23853
518.2115, 10.30488
518.6937, 10.27727
519.1758, 10.25596
519.6579, 10.28599
520.1400, 10.35149
520.6221, 10.44049
521.1042, 10.54874
521.5864, 10.63546
522.0685, 10.64811
522.5506, 10.57431
523.0327, 10.55968
523.5148, 10.63617
523.9969, 10.72538
524.4791, 10.82259
524.9612, 10.91033
525.4433, 10.96269
525.9254, 10.97140
526.4075, 10.95963
526.8896, 10.95481
527.3718, 10.95175
527.8539, 10.98526
528.3360, 11.12177
528.8181, 11.22028
529.3002, 11.18665
529.7823, 11.08074
530.2645, 11.01700
530.7466, 11.04805
531.2287, 11.11964
531.7108, 11.18334
532.1929, 11.23616
532.6750, 11.21866
533.1572, 11.07719
533.6393, 10.92761
534.1214, 10.92668
534.6035, 11.04628
535.0856, 11.10095
535.5677, 10.99871
536.0499, 10.86629
536.5320, 10.79542
537.0141, 10.77380
537.4962, 10.75333
537.9783, 10.71369
538.4604, 10.66861
538.9426, 10.64242
539.4247, 10.64035
539.9068, 10.64549
540.3889, 10.68094
540.8710, 10.70130
541.3531, 10.68927
541.8353, 10.64219
542.3174, 10.54656
542.7995, 10.38929
543.2816, 10.21996
543.7637, 10.16237
544.2458, 10.25793
544.7280, 10.32708
545.2101, 10.39157
545.6922, 10.37913
546.1743, 10.16408
546.6564, 9.820598
547.1385, 9.608561
547.6207, 9.750849
548.1028, 10.00996
548.5849, 10.00029
549.0670, 9.732724
549.5491, 9.494111
550.0313, 9.374802
550.5134, 9.343455
550.9955, 9.382414
551.4776, 9.495069
551.9597, 9.577458
552.4418, 9.589458
552.9240, 9.580688
553.4061, 9.577560
553.8882, 9.586502
554.3703, 9.620221
554.8524, 9.686898
555.3345, 9.772448
555.8167, 9.843402
556.2988, 9.878376
556.7809, 9.941349
557.2630, 10.02042
557.7451, 10.13413
558.2272, 10.32693
558.7094, 10.56293
559.1915, 10.75346
559.6736, 10.84244
560.1557, 10.87790
560.6378, 10.96914
561.1199, 11.13072
561.6021, 11.24622
562.0842, 11.22374
562.5663, 11.21960
563.0484, 11.41393
563.5305, 11.75830
564.0126, 11.99337
564.4948, 11.93021
564.9769, 11.78411
565.4590, 11.76489
565.9411, 11.85625
566.4232, 11.98184
566.9053, 12.11808
567.3875, 12.25830
567.8696, 12.39814
568.3517, 12.54969
568.8338, 12.64942
569.3159, 12.63844
569.7980, 12.63296
570.2802, 12.71095
570.7623, 12.83816
571.2444, 12.94766
571.7265, 13.00828
572.2086, 13.02265
572.6907, 12.98465
573.1729, 12.87458
573.6550, 12.78963
574.1371, 12.73828
574.6192, 12.71026
575.1013, 12.73252
575.5834, 12.76972
576.0656, 12.75062
576.5477, 12.63982
577.0298, 12.48441
577.5119, 12.33364
577.9940, 12.18382
578.4761, 12.01325
578.9583, 11.81759
579.4404, 11.59894
579.9225, 11.34417
580.4046, 11.05855
580.8867, 10.82719
581.3688, 10.69262
581.8510, 10.56942
582.3331, 10.42515
582.8152, 10.26713
583.2973, 10.10049
583.7794, 9.929587
584.2615, 9.765121
584.7437, 9.621420
585.2258, 9.499485
585.7079, 9.381069
586.1900, 9.272943
586.6721, 9.157929
587.1542, 8.992949
587.6363, 8.838942
588.1184, 8.781474
