##NAMES=Babingtonite
##RRUFFID=R060093
##IDEAL CHEMISTRY=Ca_2_Fe^2+^Fe^3+^Si_5_O_14_(OH)
##LOCALITY=Iron Cap mine, Aravaipa District, Graham County, Arizona, USA
##OWNER=RRUFF
##SOURCE=University of Arizona Mineral Museum
##DESCRIPTION=Dark prismatic striated crystals
##STATUS=The identification of this mineral has been confirmed by X-ray diffraction and chemical analysis
##URL=rruff.info/R060093
##MEASURED CHEMISTRY=Ca_2.00_(Fe^2+^_0.54_Mn_0.46_)(Fe^3+^_0.96_Al_0.04_)Si_5.00_O_14_(OH)
93.74609, 4.610464
94.22821, 4.519830
94.71033, 4.544441
95.19244, 4.676396
95.67456, 4.888166
96.15668, 5.202508
96.63879, 5.591481
97.12091, 5.956847
97.60303, 6.291280
98.08514, 6.639154
98.56726, 7.052636
99.04938, 7.533591
99.53149, 8.069214
100.0136, 8.666072
100.4957, 9.322484
100.9778, 9.967850
101.4600, 10.58018
101.9421, 11.19326
102.4242, 11.88280
102.9063, 12.68052
103.3884, 13.48263
103.8705, 14.19442
104.3527, 14.75655
104.8348, 15.44168
105.3169, 16.32453
105.7990, 17.36635
106.2811, 18.34375
106.7632, 19.17899
107.2454, 20.02174
107.7275, 20.97536
108.2096, 22.13268
108.6917, 23.28992
109.1738, 24.44246
109.6559, 25.60931
110.1381, 26.68619
110.6202, 27.84200
111.1023, 28.84465
111.5844, 29.47285
112.0665, 29.39159
112.5486, 29.25585
113.0308, 29.10406
113.5129, 28.80094
113.9950, 29.00470
114.4771, 30.11299
114.9592, 31.71800
115.4413, 33.24846
115.9235, 34.50533
116.4056, 35.70311
116.8877, 36.97787
117.3698, 38.55308
117.8519, 39.79004
118.3340, 40.05152
118.8162, 39.57963
119.2983, 39.59515
119.7804, 39.71619
120.2625, 39.94832
120.7446, 39.99828
121.2267, 40.76233
121.7089, 41.53315
122.1910, 42.50452
122.6731, 43.96669
123.1552, 45.11854
123.6373, 47.44036
124.1194, 49.51086
124.6016, 51.26201
125.0837, 52.73273
125.5658, 53.71133
126.0479, 53.91609
126.5300, 53.35860
127.0121, 52.30119
127.4943, 50.67850
127.9764, 48.70669
128.4585, 46.84383
128.9406, 45.24308
129.4227, 43.88875
129.9048, 42.77744
130.3869, 41.91263
130.8691, 41.26348
131.3512, 40.86216
131.8333, 40.54960
132.3154, 40.07703
132.7975, 39.47627
133.2796, 38.85256
133.7618, 38.44336
134.2439, 38.24369
134.7260, 38.25732
135.2081, 38.55559
135.6902, 39.14446
136.1723, 39.77049
136.6545, 40.19910
137.1366, 40.42877
137.6187, 41.06215
138.1008, 42.16348
138.5829, 43.64009
139.0650, 45.39741
139.5472, 47.52972
140.0293, 49.61657
140.5114, 51.29499
140.9935, 52.37947
141.4756, 54.03420
141.9577, 56.60155
142.4399, 59.82496
142.9220, 62.57002
143.4041, 65.19756
143.8862, 66.82659
144.3683, 66.78024
144.8504, 64.66169
145.3326, 61.76594
145.8147, 57.97902
146.2968, 53.33160
146.7789, 49.51670
147.2610, 46.67051
147.7431, 44.47994
148.2253, 42.65236
148.7074, 41.22817
149.1895, 40.11955
149.6716, 39.37169
150.1537, 39.00570
150.6358, 38.74791
151.1180, 38.70760
151.6001, 38.72664
152.0822, 38.64109
152.5643, 38.29502
153.0464, 37.99823
153.5285, 37.77277
154.0107, 37.57599
154.4928, 37.62762
154.9749, 38.06116
155.4570, 38.71202
155.9391, 39.36977
156.4212, 39.92712
156.9034, 40.56603
157.3855, 41.36221
157.8676, 42.35400
158.3497, 43.37928
158.8318, 44.41822
159.3139, 45.47753
159.7961, 46.57538
160.2782, 47.76686
160.7603, 48.96227
161.2424, 50.12144
161.7245, 51.23672
162.2066, 52.32285
162.6888, 53.41977
163.1709, 54.49349
163.6530, 55.46808
164.1351, 56.20164
164.6172, 56.89467
165.0993, 57.66436
165.5815, 58.50079
166.0636, 59.47486
166.5457, 60.58063
167.0278, 61.84377
167.5099, 63.34837
167.9921, 65.20765
168.4742, 67.29042
168.9563, 69.47868
169.4384, 71.73147
169.9205, 74.10924
170.4026, 76.68406
170.8848, 79.43814
171.3669, 82.25344
171.8490, 85.02999
172.3311, 87.83858
172.8132, 90.76908
173.2953, 93.91593
173.7775, 97.14091
174.2596, 100.6124
174.7417, 104.2439
175.2238, 107.2679
175.7059, 109.3065
176.1880, 110.3326
176.6702, 110.2697
177.1523, 109.0427
177.6344, 106.7449
178.1165, 103.3265
178.5986, 98.78487
179.0807, 93.66749
179.5629, 87.94914
180.0450, 81.90666
180.5271, 76.28550
181.0092, 71.25634
181.4913, 66.76582
181.9734, 62.80658
182.4556, 59.37907
182.9377, 56.42146
183.4198, 53.86954
183.9019, 51.70944
184.3840, 49.94576
184.8661, 48.63140
185.3483, 47.69178
185.8304, 46.93629
186.3125, 46.37095
186.7946, 45.97560
187.2767, 45.75184
187.7588, 45.68824
188.2409, 45.72980
188.7231, 45.83745
189.2052, 46.03131
189.6873, 46.38947
190.1694, 46.92250
190.6515, 47.58695
191.1336, 48.40364
191.6158, 49.35778
192.0979, 50.22675
192.5800, 50.98524
193.0621, 51.60765
193.5442, 51.94001
194.0263, 51.97363
194.5085, 51.75491
194.9906, 51.27197
195.4727, 50.52405
195.9548, 49.79161
196.4369, 49.14688
196.9190, 48.59717
197.4012, 48.27750
197.8833, 48.18966
198.3654, 48.32464
198.8475, 48.71692
199.3296, 49.38501
199.8117, 50.11262
200.2939, 50.76898
200.7760, 51.34701
201.2581, 52.11936
201.7402, 53.10753
202.2223, 54.25143
202.7044, 55.50191
203.1866, 56.88014
203.6687, 58.18472
204.1508, 59.24097
204.6329, 60.00260
205.1150, 61.07327
205.5971, 62.54872
206.0793, 64.22601
206.5614, 65.65449
207.0435, 66.71005
207.5256, 67.94938
208.0077, 69.61560
208.4898, 71.73441
208.9720, 74.14314
209.4541, 76.90865
209.9362, 79.89846
210.4183, 82.87496
210.9004, 85.84204
211.3825, 88.71819
211.8647, 91.58668
212.3468, 94.58772
212.8289, 97.01258
213.3110, 99.07049
213.7931, 100.3952
214.2752, 100.0769
214.7574, 97.84612
215.2395, 94.62617
215.7216, 90.62989
216.2037, 85.65317
216.6858, 80.77496
217.1679, 75.89952
217.6501, 71.16775
218.1322, 66.97282
218.6143, 63.29144
219.0964, 60.10636
219.5785, 57.50022
220.0606, 55.51978
220.5428, 53.87429
221.0249, 52.66944
221.5070, 51.75353
221.9891, 50.79449
222.4712, 49.72310
222.9533, 48.71709
223.4355, 47.84743
223.9176, 47.04507
224.3997, 46.53985
224.8818, 46.36223
225.3639, 46.46294
225.8460, 46.67433
226.3282, 46.76597
226.8103, 47.36783
227.2924, 48.96527
227.7745, 52.46136
228.2566, 54.48282
228.7387, 54.36016
229.2209, 53.04648
229.7030, 52.77088
230.1851, 53.93584
230.6672, 55.48605
231.1493, 57.06098
231.6314, 58.78351
232.1136, 60.23430
232.5957, 61.56727
233.0778, 62.56790
233.5599, 62.70866
234.0420, 61.75581
234.5241, 60.32439
235.0063, 58.61278
235.4884, 56.57982
235.9705, 54.42124
236.4526, 51.99010
236.9347, 49.47888
237.4168, 47.26738
237.8990, 45.43823
238.3811, 43.77894
238.8632, 42.22340
239.3453, 40.74503
239.8274, 39.43531
240.3095, 38.26843
240.7917, 37.27385
241.2738, 36.52118
241.7559, 36.09291
242.2380, 35.77315
242.7201, 35.49342
243.2022, 35.24471
243.6844, 35.07227
244.1665, 35.01190
244.6486, 35.00610
245.1307, 34.94232
245.6128, 34.73798
246.0949, 34.61471
246.5771, 34.65232
247.0592, 34.88383
247.5413, 35.15155
248.0234, 35.48176
248.5055, 35.82813
248.9876, 36.09797
249.4697, 36.21285
249.9519, 36.39961
250.4340, 36.76419
250.9161, 37.37335
251.3982, 37.77131
251.8803, 37.72899
252.3624, 37.65995
252.8446, 38.21289
253.3267, 39.82236
253.8088, 41.19331
254.2909, 41.89754
254.7730, 41.82603
255.2551, 41.96980
255.7373, 42.38873
256.2194, 42.96178
256.7015, 43.51556
257.1836, 43.96276
257.6657, 44.59132
258.1479, 45.50652
258.6300, 46.71589
259.1121, 47.92390
259.5942, 49.10208
260.0763, 50.31162
260.5584, 51.64727
261.0406, 53.08646
261.5227, 54.67432
262.0048, 56.44990
262.4869, 58.39489
262.9690, 60.39751
263.4511, 62.50254
263.9333, 64.57932
264.4154, 66.53138
264.8975, 68.43111
265.3796, 70.04449
265.8617, 71.34594
266.3438, 72.33062
266.8260, 73.08200
267.3081, 73.68053
267.7902, 73.89005
268.2723, 73.47371
268.7544, 72.34206
269.2365, 70.89125
269.7187, 69.10820
270.2008, 67.04137
270.6829, 65.00196
271.1650, 62.92151
271.6471, 61.03277
272.1292, 59.58588
272.6114, 58.63322
273.0935, 57.78192
273.5756, 56.94743
274.0577, 56.20214
274.5398, 55.81823
275.0219, 55.85346
275.5041, 56.07526
275.9862, 56.32203
276.4683, 56.57430
276.9504, 57.03482
277.4325, 57.77884
277.9146, 58.69012
278.3968, 59.47691
278.8788, 60.11950
279.3610, 60.72923
279.8431, 61.41087
280.3252, 62.16902
280.8073, 62.72555
281.2894, 63.04012
281.7715, 63.18952
282.2537, 63.37150
282.7358, 63.61423
283.2179, 63.62075
283.7000, 63.21383
284.1821, 62.40113
284.6642, 61.42454
285.1464, 60.27082
285.6285, 58.98787
286.1106, 57.65376
286.5927, 56.26754
287.0748, 54.77110
287.5569, 53.06681
288.0391, 51.19105
288.5212, 49.43842
289.0033, 47.79401
289.4854, 46.29220
289.9675, 44.97078
290.4496, 43.82500
290.9318, 42.86219
291.4139, 42.13324
291.8960, 41.57570
292.3781, 40.96560
292.8602, 40.28363
293.3423, 39.69300
293.8245, 39.36176
294.3066, 39.26310
294.7887, 39.27979
295.2708, 39.42423
295.7529, 39.63187
296.2350, 39.75063
296.7172, 39.78077
297.1993, 39.82455
297.6814, 39.95547
298.1635, 40.16756
298.6456, 40.44212
299.1277, 40.78310
299.6099, 41.18023
300.0920, 41.61141
300.5741, 42.08142
301.0562, 42.58030
301.5383, 43.08607
302.0204, 43.62563
302.5026, 44.23385
302.9847, 44.91356
303.4668, 45.68493
303.9489, 46.63857
304.4310, 47.72046
304.9131, 48.80147
305.3953, 49.67897
305.8774, 50.54518
306.3595, 51.66800
306.8416, 53.12329
307.3237, 54.66048
307.8058, 56.03949
308.2880, 57.31855
308.7701, 58.62395
309.2522, 60.09179
309.7343, 61.58632
310.2164, 63.03646
310.6985, 64.46775
311.1807, 65.68540
311.6628, 66.44644
312.1449, 66.93880
312.6270, 67.42410
313.1091, 68.03886
313.5912, 68.66547
314.0734, 69.23302
314.5555, 69.73721
315.0376, 70.23310
315.5197, 70.66441
316.0018, 71.13774
316.4839, 71.75204
316.9661, 72.68407
317.4482, 73.63280
317.9303, 74.41243
318.4124, 75.05907
318.8945, 75.83903
319.3766, 76.94014
319.8588, 78.15880
320.3409, 79.33951
320.8230, 80.49934
321.3051, 81.56470
321.7872, 82.42339
322.2693, 83.15588
322.7515, 84.00888
323.2336, 85.19868
323.7157, 86.40427
324.1978, 87.46425
324.6799, 88.25292
325.1620, 89.08438
325.6442, 89.99699
326.1263, 90.97884
326.6084, 92.00867
327.0905, 93.09544
327.5726, 94.22015
328.0547, 95.44855
328.5369, 96.91232
329.0190, 98.01225
329.5011, 98.58452
329.9832, 98.85660
330.4653, 99.08945
330.9474, 99.59608
331.4296, 99.67606
331.9117, 99.12399
332.3938, 97.91606
332.8759, 96.63182
333.3580, 95.28688
333.8401, 93.83597
334.3223, 92.24277
334.8044, 90.39693
335.2865, 88.59563
335.7686, 86.85345
336.2507, 85.17770
336.7328, 83.70285
337.2150, 82.42060
337.6971, 81.32655
338.1792, 80.45792
338.6613, 79.91617
339.1434, 79.21025
339.6255, 78.26140
340.1077, 77.17410
340.5898, 76.14413
341.0719, 75.19054
341.5540, 74.29086
342.0361, 73.46119
342.5182, 72.70096
343.0004, 71.87995
343.4825, 70.92127
343.9646, 70.10157
344.4467, 69.88850
344.9288, 70.28638
345.4109, 70.81725
345.8931, 71.27628
346.3752, 71.73543
346.8573, 72.46671
347.3394, 73.48170
347.8215, 74.72530
348.3036, 76.27131
348.7858, 78.04524
349.2679, 79.70715
349.7500, 81.21995
350.2321, 82.52023
350.7142, 83.46627
351.1964, 84.06067
351.6785, 84.35693
352.1606, 84.49302
352.6427, 84.33677
353.1248, 83.58413
353.6069, 82.09240
354.0891, 80.24220
354.5712, 78.40443
355.0533, 76.54652
355.5354, 74.53365
356.0175, 71.99939
356.4996, 69.44946
356.9818, 67.38168
357.4639, 65.85143
357.9460, 64.66718
358.4281, 63.78476
358.9102, 63.13909
359.3923, 62.65110
359.8745, 62.28270
360.3566, 62.06383
360.8387, 62.03222
361.3208, 62.18112
361.8029, 62.44002
362.2850, 62.87550
362.7672, 63.35571
363.2493, 63.77086
363.7314, 64.04916
364.2135, 64.31368
364.6956, 64.67955
365.1777, 65.07493
365.6599, 65.27000
366.1420, 65.00101
366.6241, 64.67827
367.1062, 64.51674
367.5883, 64.65347
368.0704, 64.68774
368.5526, 64.45672
369.0347, 64.12481
369.5168, 63.94383
369.9989, 64.28118
370.4810, 64.39486
370.9631, 64.04361
371.4453, 63.14637
371.9274, 62.41857
372.4095, 62.00517
372.8916, 61.64621
373.3737, 61.09713
373.8558, 60.19896
374.3380, 59.42891
374.8201, 58.87215
375.3022, 58.49196
375.7843, 58.09666
376.2664, 57.66989
376.7485, 57.25604
377.2307, 56.88235
377.7128, 56.55070
378.1949, 56.22858
378.6770, 55.89342
379.1591, 55.60122
379.6412, 55.48495
380.1234, 55.55879
380.6055, 55.67080
381.0876, 55.75328
381.5697, 55.81554
382.0518, 55.93293
382.5339, 56.11209
383.0161, 56.30314
383.4982, 56.43886
383.9803, 56.53153
384.4624, 56.65604
384.9445, 56.89742
385.4266, 57.12151
385.9088, 57.10331
386.3909, 56.84697
386.8730, 56.41542
387.3551, 55.76760
387.8372, 54.98877
388.3193, 54.22892
388.8015, 53.52774
389.2836, 52.80619
389.7657, 51.94945
390.2478, 51.00982
390.7299, 50.12903
391.2120, 49.35498
391.6942, 48.68086
392.1763, 48.10213
392.6584, 47.62264
393.1405, 47.26459
393.6226, 47.10332
394.1047, 47.04589
394.5869, 46.99551
395.0690, 46.94007
395.5511, 46.86873
396.0332, 46.74272
396.5153, 46.58275
396.9974, 46.49898
397.4796, 46.54995
397.9617, 46.66288
398.4438, 46.81129
398.9259, 47.07599
399.4080, 47.22724
399.8901, 47.23122
400.3723, 47.10988
400.8544, 46.90945
401.3365, 46.65161
401.8186, 46.29131
402.3007, 45.83180
402.7828, 45.28230
403.2649, 44.54295
403.7470, 43.54634
404.2292, 42.42703
404.7113, 41.30077
405.1934, 40.13536
405.6755, 39.03017
406.1576, 38.00297
406.6397, 37.05169
407.1219, 36.20064
407.6040, 35.46712
408.0861, 34.76495
408.5682, 34.01515
409.0503, 33.23207
409.5324, 32.56297
410.0146, 32.02164
410.4967, 31.57291
410.9788, 31.15830
411.4609, 30.78652
411.9430, 30.50737
412.4251, 30.36134
412.9073, 30.31497
413.3894, 30.28485
413.8715, 30.27192
414.3536, 30.30797
414.8357, 30.40096
415.3178, 30.56450
415.8000, 30.83582
416.2821, 31.26759
416.7642, 31.72752
417.2463, 32.02164
417.7284, 32.23646
418.2105, 32.59273
418.6927, 33.30666
419.1748, 34.13891
419.6569, 34.93288
420.1390, 35.68034
420.6211, 36.37500
421.1032, 36.80872
421.5854, 37.28343
422.0675, 38.12299
422.5496, 40.01231
423.0317, 41.66516
423.5138, 42.49416
423.9959, 42.65527
424.4781, 43.21483
424.9602, 44.62149
425.4423, 46.23515
425.9244, 47.76110
426.4065, 49.07135
426.8886, 50.49449
427.3708, 52.00561
427.8529, 53.65089
428.3350, 55.53406
428.8171, 57.79411
429.2992, 60.03653
429.7813, 62.15672
430.2635, 64.14951
430.7456, 66.17764
431.2277, 68.28178
431.7098, 70.30369
432.1919, 72.14320
432.6740, 73.80639
433.1562, 75.23848
433.6383, 76.47939
434.1204, 77.41893
434.6025, 77.86382
435.0846, 77.81429
435.5667, 77.26015
436.0489, 76.12282
436.5310, 74.46449
437.0131, 72.47794
437.4952, 70.15688
437.9773, 67.56236
438.4594, 64.64553
438.9416, 61.50605
439.4237, 58.33192
439.9058, 55.03990
440.3879, 51.90987
440.8700, 49.16409
441.3521, 46.77135
441.8343, 44.62238
442.3164, 42.69317
442.7985, 40.96072
443.2806, 39.39269
443.7627, 37.98803
444.2448, 36.79747
444.7270, 35.95333
445.2091, 35.30885
445.6912, 34.69570
446.1733, 34.05001
446.6554, 33.45180
447.1375, 32.94439
447.6197, 32.51817
448.1018, 32.08748
448.5839, 31.56324
449.0660, 31.10622
449.5481, 30.80599
450.0302, 30.75612
450.5124, 30.66561
450.9945, 30.52444
451.4766, 30.35129
451.9587, 30.16479
452.4408, 29.93775
452.9229, 29.77426
453.4051, 29.71213
453.8872, 29.74105
454.3693, 29.78069
454.8514, 29.83753
455.3335, 29.87784
455.8156, 29.85707
456.2978, 29.78422
456.7799, 29.75690
457.2620, 29.80500
457.7441, 29.85691
458.2262, 29.78038
458.7083, 29.60324
459.1905, 29.44997
459.6726, 29.38047
460.1547, 29.37311
460.6368, 29.41326
461.1189, 29.49882
461.6010, 29.58659
462.0832, 29.61254
462.5653, 29.63726
463.0474, 29.72759
463.5295, 29.90060
464.0116, 30.14505
464.4937, 30.49510
464.9759, 30.91137
465.4580, 31.30239
465.9401, 31.56383
466.4222, 31.86273
466.9043, 32.26995
467.3864, 32.79969
467.8686, 33.36682
468.3507, 33.94926
468.8328, 34.57489
469.3149, 35.26459
469.7970, 36.04921
470.2791, 36.84367
470.7613, 37.63298
471.2434, 38.42606
471.7255, 39.25293
472.2076, 40.13295
472.6897, 40.99722
473.1718, 41.82105
473.6540, 42.60082
474.1361, 43.46372
474.6182, 44.44466
475.1003, 45.38267
475.5824, 46.07927
476.0645, 46.56248
476.5467, 47.07723
477.0288, 47.73360
477.5109, 48.34796
477.9930, 48.54889
478.4751, 48.41007
478.9572, 48.28108
479.4394, 48.45316
479.9215, 48.70326
480.4036, 48.77393
480.8857, 48.65211
481.3678, 48.34591
481.8499, 47.69171
482.3321, 46.91962
482.8142, 46.29815
483.2963, 45.98530
483.7784, 45.71448
484.2605, 45.40503
484.7426, 45.06254
485.2248, 44.70223
485.7069, 44.25869
486.1890, 43.86601
486.6711, 43.54771
487.1532, 43.28418
487.6353, 43.22076
488.1175, 43.40873
488.5996, 43.75269
489.0817, 44.18604
489.5638, 44.71679
490.0459, 45.29370
490.5280, 45.86507
491.0102, 46.50689
491.4923, 47.47509
491.9744, 48.83777
492.4565, 50.21515
492.9386, 51.44851
493.4207, 52.57092
493.9029, 53.75834
494.3850, 55.02240
494.8671, 56.33177
495.3492, 57.78006
495.8313, 59.26903
496.3134, 60.54972
496.7956, 61.58358
497.2777, 62.36010
497.7598, 62.87590
498.2419, 63.11886
498.7240, 63.04335
499.2061, 62.53238
499.6883, 61.76723
500.1704, 60.89837
500.6525, 59.92834
501.1346, 58.70602
501.6167, 57.08534
502.0988, 55.22731
502.5810, 53.23890
503.0631, 50.95957
503.5452, 48.77909
504.0273, 46.73307
504.5094, 44.82348
504.9915, 43.12071
505.4737, 41.74932
505.9558, 40.39445
506.4379, 38.92760
506.9200, 37.37173
507.4021, 36.18535
507.8842, 35.44763
508.3664, 34.86408
508.8485, 34.22719
509.3306, 33.53474
509.8127, 32.88884
510.2948, 32.29204
510.7769, 31.76000
511.2591, 31.32903
511.7412, 30.99268
512.2233, 30.72817
512.7054, 30.55466
513.1875, 30.42185
513.6696, 30.22850
514.1517, 29.99508
514.6339, 29.83416
515.1160, 29.85402
515.5981, 29.95931
516.0802, 30.06834
516.5623, 30.17238
517.0444, 30.26876
517.5266, 30.31991
518.0087, 30.37760
518.4908, 30.49829
518.9729, 30.64446
519.4550, 30.91215
519.9371, 31.37925
520.4193, 32.00185
520.9014, 32.56948
521.3835, 33.07879
521.8656, 33.54088
522.3477, 33.93094
522.8298, 34.22369
523.3120, 34.67101
523.7941, 35.31158
524.2762, 36.00813
524.7583, 36.62818
525.2404, 37.17162
525.7225, 37.70475
526.2047, 38.23836
526.6868, 38.77233
527.1689, 39.28112
527.6510, 39.77633
528.1331, 40.34142
528.6152, 41.09106
529.0974, 41.90215
529.5795, 42.58600
530.0616, 43.15666
530.5437, 43.75283
531.0258, 44.52235
531.5079, 45.33633
531.9901, 46.09600
532.4722, 46.78725
532.9543, 47.41423
533.4364, 47.93509
533.9185, 48.41051
534.4006, 48.93279
534.8828, 49.60825
535.3649, 50.23086
535.8470, 50.77557
536.3291, 51.24014
536.8112, 51.56879
537.2933, 51.78404
537.7755, 51.82566
538.2576, 51.61326
538.7397, 51.09542
539.2218, 50.74375
539.7039, 50.61067
540.1860, 50.51030
540.6682, 50.22709
541.1503, 49.77873
541.6324, 49.34040
542.1145, 48.94657
542.5966, 48.58655
543.0787, 48.28297
543.5609, 48.00989
544.0430, 47.66980
544.5251, 47.21189
545.0072, 46.66344
545.4893, 46.05398
545.9714, 45.38407
546.4536, 44.64904
546.9357, 43.83800
547.4178, 42.96589
547.8999, 42.02546
548.3820, 40.94678
548.8641, 39.96009
549.3463, 39.12292
549.8284, 38.39973
550.3105, 37.73873
550.7926, 37.08606
551.2747, 36.57587
551.7568, 36.24801
552.2390, 36.07193
552.7211, 35.93382
553.2032, 35.86805
553.6853, 35.73376
554.1674, 35.40681
554.6495, 34.90980
555.1317, 34.61336
555.6138, 34.54194
556.0959, 34.52224
556.5780, 34.35952
557.0601, 34.11942
557.5422, 33.98272
558.0244, 33.99575
558.5065, 34.09269
558.9886, 34.22168
559.4707, 34.38485
559.9528, 34.58311
560.4349, 34.75866
560.9171, 35.02326
561.3992, 35.49092
561.8813, 36.13159
562.3634, 36.71813
562.8455, 37.08546
563.3276, 37.47541
563.8098, 38.00754
564.2919, 38.68709
564.7740, 39.48024
565.2561, 40.44526
565.7382, 41.46482
566.2203, 42.42651
566.7025, 43.30448
567.1846, 44.26410
567.6667, 45.36249
568.1488, 46.52985
568.6309, 47.55767
569.1130, 48.46555
569.5952, 49.49466
570.0773, 50.79422
570.5594, 52.26707
571.0415, 53.84404
571.5236, 55.51469
572.0057, 57.10753
572.4879, 58.52951
572.9700, 59.82499
573.4521, 61.01946
573.9342, 62.11045
574.4163, 63.20349
574.8984, 64.51939
575.3806, 65.78111
575.8627, 66.72136
576.3448, 67.26688
576.8269, 67.49220
577.3090, 67.38752
577.7911, 66.97937
578.2733, 66.29813
578.7554, 65.31673
579.2375, 64.13343
579.7196, 62.76934
580.2017, 61.21910
580.6838, 59.54698
581.1660, 57.76358
581.6481, 55.83561
582.1302, 53.67828
582.6123, 51.34959
583.0944, 49.12154
583.5765, 47.00512
584.0587, 45.02440
584.5408, 43.29660
585.0229, 41.72868
585.5050, 40.15136
585.9871, 38.43286
586.4692, 36.81872
586.9514, 35.46734
587.4335, 34.30762
587.9156, 33.22197
