##NAMES=Babingtonite
##RRUFFID=R060083
##IDEAL CHEMISTRY=Ca_2_Fe^2+^Fe^3+^Si_5_O_14_(OH)
##LOCALITY=Hampden Quarry, Springfield, Massachusetts, USA
##OWNER=RRUFF
##SOURCE=University of Arizona Mineral Museum
##DESCRIPTION=Black stubby prismatic crystal associated with quartz
##STATUS=The identification of this mineral has been confirmed by X-ray diffraction and chemical analysis
##URL=rruff.info/R060083
##MEASURED CHEMISTRY=Ca_2.00_(Fe^2+^_0.73_Mg_0.21_Mn_0.06_)(Fe^3+^_0.93_Al_0.07_)Si_5.00_O_14_(OH)
93.74609, 1.966441
94.22821, 1.980310
94.71033, 1.960233
95.19244, 1.918903
95.67456, 1.901636
96.15668, 1.903548
96.63879, 1.941643
97.12091, 2.100333
97.60303, 2.404708
98.08514, 2.737188
98.56726, 2.909821
99.04938, 2.919347
99.53149, 2.928114
100.0136, 2.998219
100.4957, 3.128721
100.9778, 3.346707
101.4600, 3.683237
101.9421, 4.077503
102.4242, 4.355794
102.9063, 4.473264
103.3884, 4.602128
103.8705, 4.850479
104.3527, 5.261075
104.8348, 5.670960
105.3169, 6.068866
105.7990, 6.455385
106.2811, 6.867850
106.7632, 7.332936
107.2454, 7.792561
107.7275, 8.201684
108.2096, 8.607878
108.6917, 8.897592
109.1738, 8.962667
109.6559, 8.747458
110.1381, 8.834832
110.6202, 9.380655
111.1023, 10.16939
111.5844, 10.98992
112.0665, 11.93388
112.5486, 12.82968
113.0308, 13.65324
113.5129, 14.42045
113.9950, 15.08148
114.4771, 15.58701
114.9592, 15.98866
115.4413, 16.36793
115.9235, 16.66166
116.4056, 16.99557
116.8877, 17.44063
117.3698, 18.08053
117.8519, 18.67862
118.3340, 19.17712
118.8162, 19.57598
119.2983, 19.87399
119.7804, 19.89863
120.2625, 19.91575
120.7446, 20.11740
121.2267, 20.50060
121.7089, 21.14425
122.1910, 22.15702
122.6731, 23.49963
123.1552, 24.98854
123.6373, 26.47242
124.1194, 28.04078
124.6016, 29.84020
125.0837, 31.95554
125.5658, 34.25448
126.0479, 36.85058
126.5300, 39.71162
127.0121, 42.11466
127.4943, 43.74322
127.9764, 44.46650
128.4585, 44.01595
128.9406, 41.66394
129.4227, 38.21160
129.9048, 34.98088
130.3869, 31.95292
130.8691, 29.29755
131.3512, 27.27331
131.8333, 25.75179
132.3154, 24.39357
132.7975, 23.18309
133.2796, 22.16279
133.7618, 21.45806
134.2439, 21.08464
134.7260, 20.94092
135.2081, 20.86495
135.6902, 20.84965
136.1723, 21.00165
136.6545, 21.40038
137.1366, 22.04187
137.6187, 22.75684
138.1008, 23.52167
138.5829, 24.37183
139.0650, 25.46915
139.5472, 26.89274
140.0293, 28.28549
140.5114, 29.36031
140.9935, 29.98776
141.4756, 30.96282
141.9577, 32.46324
142.4399, 34.36988
142.9220, 36.19072
143.4041, 38.22787
143.8862, 39.72243
144.3683, 40.13615
144.8504, 39.28468
145.3326, 37.76555
145.8147, 35.46992
146.2968, 32.42392
146.7789, 29.73590
147.2610, 27.27331
147.7431, 25.24945
148.2253, 23.82898
148.7074, 23.26356
149.1895, 22.95560
149.6716, 22.85038
150.1537, 22.95719
150.6358, 23.14930
151.1180, 23.49085
151.6001, 23.88793
152.0822, 24.23778
152.5643, 24.67310
153.0464, 24.93398
153.5285, 24.93774
154.0107, 24.62876
154.4928, 24.28599
154.9749, 23.92271
155.4570, 23.53254
155.9391, 23.10758
156.4212, 22.46700
156.9034, 21.94202
157.3855, 21.66047
157.8676, 21.70539
158.3497, 21.78465
158.8318, 21.89047
159.3139, 21.99285
159.7961, 22.04119
160.2782, 22.03817
160.7603, 21.96825
161.2424, 21.82044
161.7245, 21.58004
162.2066, 21.29330
162.6888, 20.92203
163.1709, 20.51257
163.6530, 20.16769
164.1351, 19.91928
164.6172, 19.75153
165.0993, 19.66220
165.5815, 19.68366
166.0636, 19.72312
166.5457, 19.68826
167.0278, 19.62263
167.5099, 19.66280
167.9921, 19.90433
168.4742, 20.26821
168.9563, 20.68868
169.4384, 21.17188
169.9205, 21.67943
170.4026, 22.23713
170.8848, 22.81924
171.3669, 23.30350
171.8490, 23.64887
172.3311, 23.84685
172.8132, 23.87920
173.2953, 23.67428
173.7775, 23.37179
174.2596, 23.07450
174.7417, 22.78305
175.2238, 22.50979
175.7059, 22.24884
176.1880, 22.01606
176.6702, 21.84517
177.1523, 21.82442
177.6344, 21.81474
178.1165, 21.65731
178.5986, 21.35276
179.0807, 20.93824
179.5629, 20.37554
180.0450, 19.71706
180.5271, 19.09461
181.0092, 18.53613
181.4913, 18.04070
181.9734, 17.60216
182.4556, 17.21902
182.9377, 16.92724
183.4198, 16.79983
183.9019, 16.80066
184.3840, 16.80251
184.8661, 16.69418
185.3483, 16.56383
185.8304, 16.64690
186.3125, 16.95986
186.7946, 17.34705
187.2767, 17.65586
187.7588, 17.89609
188.2409, 18.10536
188.7231, 18.25489
189.2052, 18.38227
189.6873, 18.64221
190.1694, 19.05288
190.6515, 19.52127
191.1336, 19.97501
191.6158, 20.40901
192.0979, 20.74198
192.5800, 20.90006
193.0621, 20.91101
193.5442, 20.98835
194.0263, 21.16421
194.5085, 21.31029
194.9906, 21.22877
195.4727, 20.92060
195.9548, 20.53721
196.4369, 20.09946
196.9190, 19.61597
197.4012, 19.23877
197.8833, 18.97608
198.3654, 18.80046
198.8475, 18.68326
199.3296, 18.62466
199.8117, 18.61021
200.2939, 18.63835
200.7760, 18.70890
201.2581, 18.80469
201.7402, 18.92768
202.2223, 19.07181
202.7044, 19.24751
203.1866, 19.46848
203.6687, 19.63716
204.1508, 19.68851
204.6329, 19.60932
205.1150, 19.56058
205.5971, 19.54293
206.0793, 19.55780
206.5614, 19.61236
207.0435, 19.71125
207.5256, 19.82971
208.0077, 19.96307
208.4898, 20.11615
208.9720, 20.23879
209.4541, 20.29107
209.9362, 20.34883
210.4183, 20.59344
210.9004, 21.07661
211.3825, 21.58990
211.8647, 22.04429
212.3468, 22.42606
212.8289, 22.80993
213.3110, 23.19705
213.7931, 23.58760
214.2752, 23.98688
214.7574, 24.42459
215.2395, 24.80759
215.7216, 25.12430
216.2037, 25.41434
216.6858, 25.46556
217.1679, 25.20630
217.6501, 24.74762
218.1322, 24.35829
218.6143, 24.07533
219.0964, 23.77701
219.5785, 23.38846
220.0606, 22.82446
220.5428, 22.42909
221.0249, 22.24000
221.5070, 22.20525
221.9891, 22.22461
222.4712, 22.34603
222.9533, 22.43220
223.4355, 22.40017
223.9176, 22.16626
224.3997, 22.05037
224.8818, 22.05709
225.3639, 22.17794
225.8460, 22.40866
226.3282, 22.79583
226.8103, 23.21095
227.2924, 23.57329
227.7745, 23.81251
228.2566, 24.20919
228.7387, 24.79885
229.2209, 25.53220
229.7030, 26.26633
230.1851, 26.94082
230.6672, 27.72903
231.1493, 28.73257
231.6314, 30.07427
232.1136, 31.30383
232.5957, 32.41662
233.0778, 33.42318
233.5599, 34.33666
234.0420, 35.22874
234.5241, 35.91199
235.0063, 36.30745
235.4884, 36.39098
235.9705, 36.24373
236.4526, 35.83431
236.9347, 35.20494
237.4168, 34.41508
237.8990, 33.34956
238.3811, 32.30976
238.8632, 31.43533
239.3453, 30.81151
239.8274, 30.08118
240.3095, 29.18208
240.7917, 28.20449
241.2738, 27.31755
241.7559, 26.55075
242.2380, 25.82739
242.7201, 25.10312
243.2022, 24.31194
243.6844, 23.75558
244.1665, 23.54190
244.6486, 23.49555
245.1307, 23.31002
245.6128, 22.91339
246.0949, 22.49694
246.5771, 22.10577
247.0592, 21.72110
247.5413, 21.43988
248.0234, 21.29675
248.5055, 21.23504
248.9876, 21.16590
249.4697, 21.05457
249.9519, 20.99869
250.4340, 21.04289
250.9161, 21.21450
251.3982, 21.33689
251.8803, 21.36748
252.3624, 21.38295
252.8446, 21.49055
253.3267, 21.72102
253.8088, 21.98416
254.2909, 22.25835
254.7730, 22.54434
255.2551, 22.84914
255.7373, 23.18050
256.2194, 23.52291
256.7015, 23.83965
257.1836, 24.08786
257.6657, 24.40701
258.1479, 24.82810
258.6300, 25.34726
259.1121, 25.96247
259.5942, 26.68972
260.0763, 27.49496
260.5584, 28.35690
261.0406, 29.24088
261.5227, 30.25288
262.0048, 31.47040
262.4869, 32.87686
262.9690, 34.12697
263.4511, 35.10693
263.9333, 36.08477
264.4154, 37.33440
264.8975, 38.97011
265.3796, 40.57344
265.8617, 42.12030
266.3438, 43.58745
266.8260, 44.86629
267.3081, 45.94371
267.7902, 46.84294
268.2723, 47.62267
268.7544, 48.40026
269.2365, 48.64546
269.7187, 48.20874
270.2008, 47.16990
270.6829, 45.94955
271.1650, 44.49161
271.6471, 42.98757
272.1292, 41.59178
272.6114, 40.29762
273.0935, 39.11985
273.5756, 38.05550
274.0577, 37.12193
274.5398, 36.36912
275.0219, 35.81374
275.5041, 35.40068
275.9862, 35.08422
276.4683, 34.85498
276.9504, 34.80847
277.4325, 34.97533
277.9146, 35.30983
278.3968, 35.70620
278.8788, 36.16313
279.3610, 36.68084
279.8431, 37.27953
280.3252, 37.95835
280.8073, 38.61420
281.2894, 39.24470
281.7715, 39.84716
282.2537, 40.44579
282.7358, 41.05334
283.2179, 41.53865
283.7000, 41.84851
284.1821, 41.98317
284.6642, 41.93038
285.1464, 41.67705
285.6285, 41.26912
286.1106, 40.79488
286.5927, 40.25404
287.0748, 39.53791
287.5569, 38.50743
288.0391, 37.21564
288.5212, 36.08706
289.0033, 35.14373
289.4854, 34.23997
289.9675, 33.16816
290.4496, 31.94065
290.9318, 30.76147
291.4139, 29.69433
291.8960, 28.72140
292.3781, 27.79102
292.8602, 26.88995
293.3423, 26.08662
293.8245, 25.47617
294.3066, 25.02757
294.7887, 24.59520
295.2708, 24.14751
295.7529, 23.68430
296.2350, 23.16742
296.7172, 22.60044
297.1993, 22.11419
297.6814, 21.84824
298.1635, 21.74888
298.6456, 21.67132
299.1277, 21.58856
299.6099, 21.49830
300.0920, 21.36271
300.5741, 21.19525
301.0562, 21.10537
301.5383, 21.24111
302.0204, 21.49722
302.5026, 21.65954
302.9847, 21.65088
303.4668, 21.61867
303.9489, 21.75232
304.4310, 22.01287
304.9131, 22.26571
305.3953, 22.33281
305.8774, 22.37861
306.3595, 22.65229
306.8416, 23.23482
307.3237, 23.85192
307.8058, 24.21466
308.2880, 24.42138
308.7701, 24.69228
309.2522, 25.22012
309.7343, 25.81659
310.2164, 26.28017
310.6985, 26.58158
311.1807, 26.92278
311.6628, 27.49854
312.1449, 28.19916
312.6270, 28.83934
313.1091, 29.27648
313.5912, 29.68804
314.0734, 30.19805
314.5555, 30.80852
315.0376, 31.43050
315.5197, 32.05084
316.0018, 32.65073
316.4839, 33.19469
316.9661, 33.68737
317.4482, 34.11446
317.9303, 34.44629
318.4124, 34.69320
318.8945, 34.93292
319.3766, 35.18425
319.8588, 35.44285
320.3409, 35.70375
320.8230, 35.98445
321.3051, 36.24528
321.7872, 36.51810
322.2693, 36.77021
322.7515, 36.90186
323.2336, 36.76874
323.7157, 36.60046
324.1978, 36.50447
324.6799, 36.50805
325.1620, 36.55800
325.6442, 36.68821
326.1263, 36.85542
326.6084, 36.98279
327.0905, 36.95233
327.5726, 36.98221
328.0547, 37.14000
328.5369, 37.44638
329.0190, 37.81883
329.5011, 38.30441
329.9832, 38.83164
330.4653, 39.31590
330.9474, 39.66838
331.4296, 40.08911
331.9117, 40.63264
332.3938, 41.30302
332.8759, 41.96686
333.3580, 42.60076
333.8401, 43.25938
334.3223, 43.98133
334.8044, 44.79755
335.2865, 45.63198
335.7686, 46.49614
336.2507, 47.37556
336.7328, 48.14704
337.2150, 48.80983
337.6971, 49.37593
338.1792, 49.87575
338.6613, 50.33399
339.1434, 50.61261
339.6255, 50.71793
340.1077, 50.62658
340.5898, 50.27380
341.0719, 49.65242
341.5540, 48.82949
342.0361, 47.83172
342.5182, 46.65440
343.0004, 45.32116
343.4825, 43.80751
343.9646, 42.22447
344.4467, 40.70636
344.9288, 39.27095
345.4109, 37.98485
345.8931, 36.96656
346.3752, 36.12269
346.8573, 35.04947
347.3394, 33.70419
347.8215, 32.40823
348.3036, 31.51800
348.7858, 30.96615
349.2679, 30.41858
349.7500, 29.74709
350.2321, 29.07826
350.7142, 28.68995
351.1964, 28.56200
351.6785, 28.48759
352.1606, 28.27763
352.6427, 28.02334
353.1248, 27.91637
353.6069, 28.01859
354.0891, 28.18355
354.5712, 28.27026
355.0533, 28.29278
355.5354, 28.29141
356.0175, 28.27872
356.4996, 28.25823
356.9818, 28.23147
357.4639, 28.19803
357.9460, 28.16537
358.4281, 28.12836
358.9102, 28.09727
359.3923, 28.08773
359.8745, 28.10001
360.3566, 28.14009
360.8387, 28.19909
361.3208, 28.28005
361.8029, 28.42228
362.2850, 28.68875
362.7672, 29.00086
363.2493, 29.29265
363.7314, 29.50917
364.2135, 29.75090
364.6956, 30.10994
365.1777, 30.52901
365.6599, 30.82489
366.1420, 30.85988
366.6241, 30.83326
367.1062, 30.83185
367.5883, 30.85462
368.0704, 30.92428
368.5526, 31.00707
369.0347, 31.14561
369.5168, 31.40690
369.9989, 31.88527
370.4810, 32.39205
370.9631, 32.90372
371.4453, 33.42639
371.9274, 33.89590
372.4095, 34.21053
372.8916, 34.55164
373.3737, 35.09274
373.8558, 35.95852
374.3380, 36.77800
374.8201, 37.50506
375.3022, 38.15371
375.7843, 38.79323
376.2664, 39.46504
376.7485, 40.05497
377.2307, 40.49512
377.7128, 40.78065
378.1949, 40.95849
378.6770, 41.00623
379.1591, 40.98023
379.6412, 40.96062
380.1234, 40.94084
380.6055, 40.99573
381.0876, 41.21076
381.5697, 41.54844
382.0518, 41.71092
382.5339, 41.66191
383.0161, 41.63621
383.4982, 41.94769
383.9803, 42.53672
384.4624, 43.07305
384.9445, 43.46973
385.4266, 43.75207
385.9088, 43.98663
386.3909, 44.16425
386.8730, 44.21348
387.3551, 44.11518
387.8372, 43.84627
388.3193, 43.35925
388.8015, 42.63089
389.2836, 41.73014
389.7657, 40.67148
390.2478, 39.48341
390.7299, 38.25658
391.2120, 36.90428
391.6942, 35.61469
392.1763, 34.57554
392.6584, 33.81635
393.1405, 33.14146
393.6226, 32.46329
394.1047, 31.80865
394.5869, 31.21528
395.0690, 30.68891
395.5511, 30.23058
396.0332, 29.87138
396.5153, 29.59356
396.9974, 29.30270
397.4796, 28.90987
397.9617, 28.54398
398.4438, 28.27151
398.9259, 28.09950
399.4080, 28.02120
399.8901, 28.06953
400.3723, 28.20770
400.8544, 28.36863
401.3365, 28.65479
401.8186, 28.84443
402.3007, 28.87136
402.7828, 28.72165
403.2649, 28.53332
403.7470, 28.31898
404.2292, 28.05075
404.7113, 27.71279
405.1934, 27.31449
405.6755, 26.80705
406.1576, 26.17040
406.6397, 25.42757
407.1219, 24.67013
407.6040, 23.90407
408.0861, 23.09885
408.5682, 22.18644
409.0503, 21.18515
409.5324, 20.32291
410.0146, 19.62956
410.4967, 19.01854
410.9788, 18.34803
411.4609, 17.63608
411.9430, 17.00015
412.4251, 16.49751
412.9073, 16.10122
413.3894, 15.72426
413.8715, 15.36627
414.3536, 15.06814
414.8357, 14.88075
415.3178, 14.76974
415.8000, 14.68060
416.2821, 14.61783
416.7642, 14.53720
417.2463, 14.36521
417.7284, 14.13670
418.2105, 13.94957
418.6927, 13.85509
419.1748, 13.81844
419.6569, 13.83581
420.1390, 13.91692
420.6211, 13.95587
421.1032, 13.83855
421.5854, 13.67930
422.0675, 13.60162
422.5496, 13.69753
423.0317, 13.81702
423.5138, 13.90889
423.9959, 13.98184
424.4781, 14.10110
424.9602, 14.32052
425.4423, 14.55214
425.9244, 14.74981
426.4065, 14.85356
426.8886, 15.03172
427.3708, 15.30313
427.8529, 15.64238
428.3350, 16.00973
428.8171, 16.38992
429.2992, 16.83104
429.7813, 17.38448
430.2635, 18.04082
430.7456, 18.52865
431.2277, 18.78131
431.7098, 19.00380
432.1919, 19.39606
432.6740, 19.98034
433.1562, 20.45374
433.6383, 20.77083
434.1204, 20.97148
434.6025, 21.14236
435.0846, 21.28217
435.5667, 21.33261
436.0489, 21.29962
436.5310, 21.15342
437.0131, 20.77810
437.4952, 20.16236
437.9773, 19.44388
438.4594, 18.70896
438.9416, 17.97277
439.4237, 17.26691
439.9058, 16.59856
440.3879, 15.96723
440.8700, 15.36773
441.3521, 14.79836
441.8343, 14.25315
442.3164, 13.69142
442.7985, 13.17617
443.2806, 12.76354
443.7627, 12.47913
444.2448, 12.23117
444.7270, 11.98832
445.2091, 11.76145
445.6912, 11.56483
446.1733, 11.39535
446.6554, 11.26230
447.1375, 11.17653
447.6197, 11.13477
448.1018, 11.10794
448.5839, 11.12912
449.0660, 11.13536
449.5481, 11.08989
450.0302, 10.92838
450.5124, 10.85130
450.9945, 10.89243
451.4766, 10.99578
451.9587, 11.06191
452.4408, 11.05801
452.9229, 11.11476
453.4051, 11.29798
453.8872, 11.58308
454.3693, 11.76838
454.8514, 11.83730
455.3335, 11.88048
455.8156, 11.96895
456.2978, 12.09906
456.7799, 12.23340
457.2620, 12.36086
457.7441, 12.50932
458.2262, 12.76421
458.7083, 13.09335
459.1905, 13.36253
459.6726, 13.44250
460.1547, 13.44800
460.6368, 13.53751
461.1189, 13.71196
461.6010, 13.91443
462.0832, 14.10641
462.5653, 14.30369
463.0474, 14.52571
463.5295, 14.80570
464.0116, 15.06731
464.4937, 15.21118
464.9759, 15.30991
465.4580, 15.50906
465.9401, 15.91628
466.4222, 16.37916
466.9043, 16.83769
467.3864, 17.28536
467.8686, 17.74844
468.3507, 18.22459
468.8328, 18.72098
469.3149, 19.23835
469.7970, 19.73139
470.2791, 20.32141
470.7613, 21.04700
471.2434, 21.86303
471.7255, 22.63547
472.2076, 23.32376
472.6897, 24.07370
473.1718, 24.99360
473.6540, 26.07965
474.1361, 27.03299
474.6182, 27.83651
475.1003, 28.56988
475.5824, 29.33977
476.0645, 30.13337
476.5467, 30.80299
477.0288, 31.32196
477.5109, 31.71163
477.9930, 32.01710
478.4751, 32.22878
478.9572, 32.30011
479.4394, 32.13822
479.9215, 31.85111
480.4036, 31.60688
480.8857, 31.41594
481.3678, 31.10807
481.8499, 30.51012
482.3321, 29.75199
482.8142, 28.98513
483.2963, 28.23666
483.7784, 27.49380
484.2605, 26.79129
484.7426, 26.09640
485.2248, 25.33137
485.7069, 24.35320
486.1890, 23.42592
486.6711, 22.66068
487.1532, 22.09976
487.6353, 21.52099
488.1175, 20.92726
488.5996, 20.32727
489.0817, 19.71128
489.5638, 19.01470
490.0459, 18.48176
490.5280, 18.16576
491.0102, 18.00902
491.4923, 17.85496
491.9744, 17.69045
492.4565, 17.59431
492.9386, 17.63135
493.4207, 17.77556
493.9029, 17.82775
494.3850, 17.77668
494.8671, 17.74950
495.3492, 17.90700
495.8313, 18.18589
496.3134, 18.40204
496.7956, 18.49943
497.2777, 18.56297
497.7598, 18.68264
498.2419, 18.84099
498.7240, 18.99051
499.2061, 19.15872
499.6883, 19.27388
500.1704, 19.26551
500.6525, 19.13373
501.1346, 18.98675
501.6167, 18.91372
502.0988, 18.81224
502.5810, 18.60294
503.0631, 18.18057
503.5452, 17.78714
504.0273, 17.49365
504.5094, 17.23950
504.9915, 16.93124
505.4737, 16.57310
505.9558, 16.14951
506.4379, 15.61215
506.9200, 14.97554
507.4021, 14.52343
507.8842, 14.29897
508.3664, 14.14708
508.8485, 13.96768
509.3306, 13.76040
509.8127, 13.53967
510.2948, 13.30306
510.7769, 13.06493
511.2591, 12.84824
511.7412, 12.65083
512.2233, 12.46589
512.7054, 12.28177
513.1875, 12.11403
513.6696, 11.97750
514.1517, 11.87461
514.6339, 11.81853
515.1160, 11.84435
515.5981, 11.90582
516.0802, 11.95490
516.5623, 11.97835
517.0444, 12.02746
517.5266, 12.12459
518.0087, 12.26049
518.4908, 12.42510
518.9729, 12.55768
519.4550, 12.78482
519.9371, 13.14592
520.4193, 13.62912
520.9014, 14.16264
521.3835, 14.81853
521.8656, 15.43749
522.3477, 15.96816
522.8298, 16.40949
523.3120, 16.77904
523.7941, 17.08022
524.2762, 17.28917
524.7583, 17.29367
525.2404, 17.07850
525.7225, 17.13926
526.2047, 17.60657
526.6868, 18.27386
527.1689, 18.75295
527.6510, 19.08099
528.1331, 19.50306
528.6152, 20.22882
529.0974, 21.07783
529.5795, 21.77561
530.0616, 22.33934
530.5437, 22.94917
531.0258, 23.78733
531.5079, 24.69974
531.9901, 25.56091
532.4722, 26.33972
532.9543, 27.09097
533.4364, 27.86007
533.9185, 28.61169
534.4006, 29.31263
534.8828, 29.89212
535.3649, 30.48679
535.8470, 31.18023
536.3291, 31.93335
536.8112, 32.47337
537.2933, 32.78305
537.7755, 32.90583
538.2576, 32.84409
538.7397, 32.58500
539.2218, 32.23259
539.7039, 31.79173
540.1860, 31.25768
540.6682, 30.59679
541.1503, 29.82471
541.6324, 29.08520
542.1145, 28.42884
542.5966, 27.78832
543.0787, 27.02299
543.5609, 26.17251
544.0430, 25.38413
544.5251, 24.74405
545.0072, 24.19459
545.4893, 23.74655
545.9714, 23.38389
546.4536, 22.92039
546.9357, 22.13539
547.4178, 21.28632
547.8999, 20.57633
548.3820, 20.10346
548.8641, 19.62047
549.3463, 19.03200
549.8284, 18.42330
550.3105, 17.90539
550.7926, 17.51503
551.2747, 17.16544
551.7568, 16.85772
552.2390, 16.57789
552.7211, 16.24893
553.2032, 15.84438
553.6853, 15.47352
554.1674, 15.20341
554.6495, 15.02670
555.1317, 14.81370
555.6138, 14.56031
556.0959, 14.33220
556.5780, 14.23741
557.0601, 14.21970
557.5422, 14.11045
558.0244, 13.84466
558.5065, 13.56631
558.9886, 13.41043
559.4707, 13.35063
559.9528, 13.33780
560.4349, 13.35380
560.9171, 13.40744
561.3992, 13.51759
561.8813, 13.67721
562.3634, 13.83459
562.8455, 13.95799
563.3276, 14.09178
563.8098, 14.25687
564.2919, 14.44897
564.7740, 14.68375
565.2561, 14.98971
565.7382, 15.30955
566.2203, 15.57719
566.7025, 15.76253
567.1846, 16.03651
567.6667, 16.44975
568.1488, 16.93056
568.6309, 17.29105
569.1130, 17.54293
569.5952, 17.88111
570.0773, 18.43216
570.5594, 19.10554
571.0415, 19.77201
571.5236, 20.43285
572.0057, 21.06846
572.4879, 21.63267
572.9700, 22.19229
573.4521, 22.81975
573.9342, 23.53825
574.4163, 24.28434
574.8984, 25.06866
575.3806, 25.84595
575.8627, 26.57961
576.3448, 27.29345
576.8269, 27.91220
577.3090, 28.38078
577.7911, 28.75775
578.2733, 29.21740
578.7554, 29.89644
579.2375, 30.36903
579.7196, 30.49722
580.2017, 30.30168
580.6838, 29.95287
581.1660, 29.44905
581.6481, 28.81594
582.1302, 28.00466
582.6123, 27.06793
583.0944, 26.29022
583.5765, 25.71440
584.0587, 25.08637
584.5408, 24.07440
585.0229, 22.85881
585.5050, 21.74743
585.9871, 20.85040
586.4692, 20.04843
586.9514, 19.30862
587.4335, 18.59808
587.9156, 17.86433
