##NAMES=Babingtonite
##RRUFFID=X050027
##IDEAL CHEMISTRY=Ca_2_Fe^2+^Fe^3+^Si_5_O_14_(OH)
##LOCALITY=Kandivill, India
##OWNER=Caltech
##SOURCE=G.R. Rossman
##DESCRIPTION=
##STATUS=The identification of this mineral has been determined only by Raman spectroscopy
##URL=rruff.info/X050027
150.2535, 22913.426
152.7725, 23560.017
155.2914, 23014.351
157.8104, 22477.420
160.3293, 22650.988
162.8483, 23212.367
165.3672, 23856.182
167.8861, 24391.654
170.4051, 24634.980
172.9240, 24887.877
175.4430, 25643.223
177.9619, 26613.281
180.4809, 27033.978
182.9998, 26167.871
185.5188, 25352.330
188.0377, 25628.041
190.5566, 26599.504
193.0756, 28320.463
195.5945, 29671.170
198.1135, 29336.562
200.6324, 28111.244
203.1514, 27302.756
205.6703, 27210.137
208.1893, 27304.473
210.7082, 27448.758
213.2272, 28391.771
215.7461, 30575.287
218.2650, 32588.615
220.7840, 31927.201
223.3029, 28068.605
225.8219, 24656.646
228.3408, 23229.900
230.8598, 22988.871
233.3787, 23436.156
235.8977, 23979.070
238.4166, 24118.605
240.9356, 23777.230
243.4545, 23396.207
245.9735, 23423.096
248.4924, 23938.777
251.0113, 24651.049
253.5303, 25397.182
256.0492, 26181.877
258.5682, 26180.621
261.0871, 25596.988
263.6061, 25323.301
266.1250, 25643.473
268.6440, 26127.842
271.1629, 26320.467
273.6819, 25821.266
276.2008, 24842.375
278.7198, 24399.016
281.2387, 24417.797
283.7576, 24829.238
286.2766, 25263.408
288.7955, 25205.971
291.3145, 24590.262
293.8334, 23742.096
296.3524, 23044.121
298.8713, 22814.516
301.3903, 23046.105
303.9092, 23493.260
306.4282, 23893.080
308.9471, 24535.742
311.4660, 25723.197
313.9850, 26800.935
316.5039, 27567.205
319.0229, 27781.635
321.5418, 28230.406
324.0608, 28688.439
326.5797, 29163.469
329.0987, 29402.154
331.6176, 29769.047
334.1365, 30173.853
336.6555, 29980.717
339.1744, 28828.055
341.6934, 26988.183
344.2123, 25386.603
346.7313, 24180.180
349.2502, 23335.986
351.7692, 22879.674
354.2881, 23085.896
356.8071, 23629.586
359.3260, 24104.721
361.8449, 24188.447
364.3639, 24313.730
366.8828, 24641.873
369.4018, 25292.031
371.9207, 25808.539
374.4397, 25993.982
376.9586, 26071.086
379.4776, 26369.615
381.9965, 26987.713
384.5155, 27927.892
387.0344, 29437.797
389.5533, 31529.801
392.0723, 33837.984
394.5913, 36106.414
397.1102, 37777.211
399.6292, 39272.289
402.1481, 41200.871
404.6670, 43467.430
407.1860, 44029.047
409.7049, 40702.473
412.2239, 35759.148
414.7428, 31818.568
417.2618, 29814.084
419.7807, 28525.226
422.2997, 27933.277
424.8186, 27389.141
427.3376, 26683.658
429.8565, 26272.957
432.3754, 26272.041
434.8944, 26615.869
437.4133, 26655.691
439.9323, 26123.885
442.4512, 25140.303
444.9702, 24074.342
447.4891, 23518.963
450.0081, 23263.670
452.5270, 23124.303
455.0459, 23069.109
457.5649, 23203.570
460.0838, 23332.051
462.6028, 23454.607
465.1217, 23426.898
467.6407, 23303.420
470.1596, 23201.012
472.6786, 23511.910
475.1975, 23738.545
477.7165, 23954.850
480.2354, 24347.605
482.7543, 24576.838
485.2733, 24812.738
487.7922, 24691.514
490.3112, 24803.767
492.8301, 24871.814
495.3491, 25165.529
497.8680, 25697.562
500.3870, 26186.291
502.9059, 26564.965
505.4249, 26385.873
507.9438, 25581.863
510.4627, 24804.566
512.9817, 24255.531
515.5006, 23948.771
518.0196, 23828.969
520.5385, 23672.449
523.0575, 23910.851
525.5764, 24498.244
528.0953, 25187.217
530.6143, 25829.057
533.1332, 26930.252
535.6522, 28039.734
538.1711, 29366.246
540.6901, 30335.094
543.2090, 29998.215
545.7280, 29502.129
548.2470, 28419.340
550.7659, 27449.301
553.2849, 26483.808
555.8038, 25672.787
558.3227, 25138.408
560.8417, 25074.998
563.3606, 25243.111
565.8796, 25732.937
568.3985, 26558.471
570.9174, 28005.101
573.4364, 29726.566
575.9553, 31701.168
578.4743, 33810.176
580.9932, 35220.691
583.5121, 34841.277
586.0311, 33024.320
588.5501, 30734.412
591.0690, 28470.152
593.5880, 26916.475
596.1069, 25947.279
598.6259, 25161.937
601.1448, 24465.100
603.6638, 24009.117
606.1827, 23436.074
608.7016, 23172.226
611.2206, 23048.787
613.7395, 22911.959
616.2585, 22869.346
618.7774, 22856.933
621.2964, 22834.392
623.8153, 22807.941
626.3342, 22958.516
628.8532, 22925.766
631.3721, 23126.986
633.8911, 23052.187
636.4100, 23192.344
638.9290, 23623.500
641.4479, 23981.074
643.9669, 24293.183
646.4858, 24960.668
649.0048, 26202.738
651.5237, 27466.113
654.0427, 29121.506
656.5616, 30890.650
659.0806, 33093.367
661.5995, 35848.812
664.1184, 39039.027
666.6374, 42143.203
669.1563, 42647.293
671.6753, 39152.379
674.1942, 34234.973
676.7131, 30187.433
679.2321, 27721.754
681.7510, 26116.168
684.2700, 25196.191
686.7889, 24581.828
689.3079, 24104.523
691.8268, 23673.982
694.3458, 23242.680
696.8648, 23118.600
699.3837, 23133.836
701.9027, 23001.144
704.4216, 22865.514
706.9405, 22921.750
709.4595, 22983.789
711.9784, 22820.168
714.4974, 22784.736
717.0163, 22976.851
719.5352, 22994.621
722.0542, 23068.851
724.5731, 23425.961
727.0921, 23786.627
729.6110, 24224.443
732.1299, 24535.717
734.6489, 24518.560
737.1679, 23983.834
739.6868, 23557.404
742.2058, 23249.633
744.7247, 23134.879
747.2437, 22978.289
749.7626, 22891.521
752.2816, 23018.289
754.8005, 22978.937
757.3194, 23001.957
759.8384, 23229.025
762.3573, 23204.873
764.8763, 23203.365
767.3952, 23295.158
769.9141, 23203.596
772.4331, 23077.582
774.9520, 23124.254
777.4710, 23181.924
779.9899, 23239.832
782.5089, 23113.846
785.0278, 22961.090
787.5468, 22958.685
790.0657, 22802.514
792.5847, 22795.500
795.1036, 22710.797
797.6226, 22799.769
800.1415, 22790.328
802.6605, 22763.021
805.1794, 22666.728
807.6984, 22779.016
810.2173, 22775.529
812.7362, 22873.658
815.2552, 22868.730
817.7741, 22836.101
820.2931, 22869.250
822.8120, 22698.070
825.3309, 22692.808
827.8499, 22789.721
830.3688, 22741.359
832.8878, 22976.892
835.4067, 22942.820
837.9257, 23005.285
840.4446, 23001.646
842.9636, 23278.168
845.4825, 23538.586
848.0015, 23842.199
850.5204, 24238.803
853.0394, 24524.035
855.5583, 25307.609
858.0773, 26417.998
860.5962, 27527.226
863.1151, 29347.615
865.6341, 31586.324
868.1530, 33727.078
870.6720, 35955.887
873.1909, 37209.711
875.7099, 36505.805
878.2288, 34815.594
880.7477, 32888.742
883.2667, 31216.830
885.7856, 30522.135
888.3046, 30056.295
890.8236, 29921.162
893.3425, 30414.598
895.8615, 31298.088
898.3804, 32739.308
900.8994, 34708.519
903.4183, 36250.687
905.9372, 37101.387
908.4562, 38067.226
910.9751, 38772.348
913.4941, 37435.629
916.0130, 33983.172
918.5319, 30242.705
921.0509, 27186.492
923.5698, 25072.490
926.0888, 24114.631
928.6077, 23411.260
931.1267, 23029.107
933.6456, 22817.558
936.1646, 22995.525
938.6835, 23357.367
941.2025, 23755.373
943.7214, 24192.486
946.2404, 24765.746
948.7593, 25152.652
951.2783, 25547.967
953.7972, 26228.574
956.3162, 26872.418
958.8351, 27458.287
961.3540, 27613.394
963.8730, 27155.719
966.3919, 26562.109
968.9109, 26029.068
971.4298, 25725.529
973.9487, 25657.008
976.4677, 25737.947
978.9866, 26030.982
981.5056, 26344.369
984.0245, 26599.308
986.5435, 27055.547
989.0624, 27756.185
991.5814, 28990.564
994.1003, 30404.922
996.6193, 31931.894
999.1382, 34006.504
1001.6572, 36984.590
1004.1761, 40443.910
1006.6951, 43802.953
1009.2140, 46689.547
1011.7329, 47919.969
1014.2519, 46833.375
1016.7708, 44397.570
1019.2898, 42126.465
1021.8087, 40275.949
1024.3276, 37121.543
1026.8465, 33095.570
1029.3656, 29934.129
1031.8845, 27864.039
1034.4034, 26746.127
1036.9224, 26499.082
1039.4413, 26586.898
1041.9603, 26532.365
1044.4792, 26764.838
1046.9982, 26711.771
1049.5171, 27261.594
1052.0360, 27477.082
1054.5550, 28470.027
1057.0740, 29994.172
1059.5929, 31680.754
1062.1118, 31845.555
1064.6307, 29698.896
1067.1498, 27274.336
1069.6687, 25606.219
1072.1876, 24756.314
1074.7065, 24227.926
1077.2255, 23875.726
1079.7445, 23696.607
1082.2634, 23476.074
1084.7823, 23329.758
1087.3013, 23327.197
1089.8203, 23281.402
1092.3392, 23243.857
1094.8581, 23202.394
1097.3771, 23363.808
1099.8960, 23448.467
1102.4150, 23620.178
1104.9339, 23863.068
1107.4529, 24156.367
1109.9718, 24458.185
1112.4907, 24746.957
1115.0098, 24658.500
1117.5287, 24417.937
1120.0476, 24034.426
1122.5665, 23523.730
1125.0854, 23429.248
1127.6045, 23296.658
1130.1234, 23289.527
1132.6423, 23153.320
1135.1612, 22984.125
1137.6802, 23013.225
1140.1992, 23067.728
1142.7181, 22913.426
1145.2371, 23024.195
1147.7560, 23079.736
1150.2749, 23032.189
1152.7939, 22977.635
1155.3129, 22865.771
1157.8318, 22910.082
1160.3507, 22846.285
1162.8696, 22711.600
1165.3887, 22712.619
1167.9076, 22740.322
1170.4265, 22809.445
1172.9454, 22803.973
1175.4643, 22750.350
1177.9834, 22893.379
1180.5023, 22860.961
1183.0212, 22742.428
1185.5402, 22916.433
1188.0591, 22792.558
1190.5781, 22875.248
1193.0970, 22760.840
1195.6160, 23005.693
1198.1349, 22950.570
1200.6538, 22879.408
1203.1728, 22846.574
1205.6918, 23006.730
1208.2107, 22925.689
1210.7296, 22932.334
1213.2485, 23084.318
1215.7676, 23050.791
1218.2865, 23049.500
1220.8054, 22935.902
1223.3243, 22994.976
1225.8433, 23098.908
1228.3623, 23211.709
1230.8812, 23151.660
1233.4001, 23027.812
1235.9191, 23007.773
1238.4380, 22958.760
1240.9570, 22978.203
1243.4759, 23230.717
1245.9949, 23011.080
1248.5138, 23123.107
1251.0328, 23276.824
1253.5517, 23192.193
1256.0707, 23018.219
1258.5896, 22902.283
1261.1085, 23044.978
1263.6276, 23163.350
1266.1465, 22986.994
1268.6654, 22957.971
1271.1843, 22934.258
1273.7032, 22997.572
1276.2223, 23031.100
1278.7412, 23017.146
1281.2601, 23088.267
1283.7790, 23136.498
1286.2980, 23008.363
1288.8170, 23088.039
1291.3359, 23063.894
1293.8548, 23053.791
1296.3738, 23129.746
1298.8927, 22926.516
1301.4117, 23113.641
1303.9307, 22917.449
1306.4496, 23117.316
1308.9685, 22970.385
1311.4874, 23110.680
1314.0065, 22861.158
1316.5254, 22917.133
1319.0443, 22909.764
1321.5632, 22952.461
1324.0821, 23028.443
1326.6012, 22991.316
1329.1201, 22843.129
1331.6390, 22827.441
1334.1579, 22797.350
1336.6769, 22737.664
1339.1959, 22892.738
1341.7148, 22994.560
1344.2338, 23002.932
1346.7527, 22998.078
1349.2716, 22837.168
1351.7906, 22962.543
1354.3096, 23135.072
1356.8285, 23073.818
1359.3474, 22860.219
1361.8663, 23079.398
1364.3854, 22939.135
1366.9043, 22897.254
1369.4232, 22949.709
1371.9421, 23027.422
1374.4610, 23127.215
1376.9801, 23060.385
1379.4990, 23092.912
1382.0179, 23189.674
1384.5369, 22996.248
1387.0558, 22960.555
1389.5748, 23099.945
1392.0937, 22942.664
1394.6127, 23012.748
1397.1316, 22655.619
1399.6505, 23045.922
1402.1695, 23000.170
1404.6885, 22934.826
1407.2074, 22837.060
1409.7263, 22814.494
1412.2452, 22813.414
1414.7643, 22838.389
1417.2832, 22922.564
1419.8021, 22884.506
1422.3210, 22898.803
1424.8401, 23083.551
1427.3590, 22855.289
1429.8779, 23008.889
1432.3968, 22903.412
1434.9158, 22852.465
1437.4348, 22845.746
1439.9537, 23043.564
1442.4726, 23015.279
1444.9916, 22960.057
1447.5105, 22933.182
1450.0295, 23043.592
1452.5485, 23019.564
1455.0674, 22898.758
1457.5863, 22908.023
1460.1052, 22958.269
1462.6243, 23032.986
1465.1432, 22815.105
1467.6621, 22934.705
1470.1810, 22876.014
1472.6999, 22716.113
1475.2190, 22767.805
1477.7379, 22895.392
1480.2568, 22901.213
1482.7757, 22957.738
1485.2947, 22689.758
1487.8137, 22835.475
1490.3326, 22900.197
1492.8516, 22763.127
1495.3705, 22782.369
1497.8894, 22792.613
1500.4084, 22949.891
1502.9274, 22913.4267
##END=



