##NAMES=Baddeleyite
##RRUFFID=R060078
##IDEAL CHEMISTRY=Zr^4+^O_2_
##LOCALITY=Wetloo mine, Mogok, Burma
##OWNER=RRUFF
##SOURCE=Marcus Origlieri
##DESCRIPTION=Dark brown fragment
##STATUS=The identification of this mineral has been confirmed by X-ray diffraction and chemical analysis
##URL=rruff.info/R060078
##MEASURED CHEMISTRY=(Zr_0.99_Hf_0.01_)_Î£=1_O_2_
93.74609, 55.43055
94.22821, 52.95510
94.71033, 54.32573
95.19244, 58.83661
95.67456, 63.93962
96.15668, 68.50797
96.63879, 72.90520
97.12091, 78.42712
97.60303, 85.18009
98.08514, 92.77567
98.56726, 100.3715
99.04938, 107.9691
99.53149, 116.6326
100.0136, 126.4740
100.4957, 137.4185
100.9778, 150.7931
101.4600, 166.4761
101.9421, 184.6760
102.4242, 206.3379
102.9063, 233.1073
103.3884, 259.3187
103.8705, 282.8348
104.3527, 306.5914
104.8348, 319.0036
105.3169, 317.0799
105.7990, 302.4503
106.2811, 285.9952
106.7632, 265.9830
107.2454, 246.0902
107.7275, 229.2946
108.2096, 215.5655
108.6917, 204.7344
109.1738, 196.9488
109.6559, 192.2794
110.1381, 189.4422
110.6202, 189.4126
111.1023, 190.8149
111.5844, 192.2982
112.0665, 193.1724
112.5486, 194.7745
113.0308, 197.5307
113.5129, 201.7429
113.9950, 206.1179
114.4771, 210.8372
114.9592, 215.5358
115.4413, 219.7524
115.9235, 222.9941
116.4056, 225.9889
116.8877, 229.0347
117.3698, 232.3251
117.8519, 235.4505
118.3340, 238.2500
118.8162, 240.7801
119.2983, 243.1658
119.7804, 245.3748
120.2625, 247.5384
120.7446, 249.7522
121.2267, 252.1396
121.7089, 254.4691
122.1910, 256.3228
122.6731, 257.8712
123.1552, 259.9097
123.6373, 263.6086
124.1194, 267.8825
124.6016, 271.3930
125.0837, 272.8211
125.5658, 273.8874
126.0479, 276.4306
126.5300, 280.4065
127.0121, 284.8192
127.4943, 288.7100
127.9764, 292.3738
128.4585, 296.6156
128.9406, 302.3695
129.4227, 308.7275
129.9048, 313.8718
130.3869, 317.7110
130.8691, 321.0645
131.3512, 324.6977
131.8333, 327.5326
132.3154, 328.8947
132.7975, 330.1408
133.2796, 331.6537
133.7618, 333.0850
134.2439, 334.4069
134.7260, 335.7773
135.2081, 337.5519
135.6902, 339.7667
136.1723, 341.7891
136.6545, 343.0869
137.1366, 343.6632
137.6187, 344.7820
138.1008, 346.5327
138.5829, 348.8209
139.0650, 351.7507
139.5472, 355.6259
140.0293, 359.0375
140.5114, 360.9666
140.9935, 361.0387
141.4756, 361.3983
141.9577, 362.2878
142.4399, 363.5928
142.9220, 364.7415
143.4041, 365.5457
143.8862, 366.4985
144.3683, 367.9748
144.8504, 370.0654
145.3326, 372.4078
145.8147, 374.6974
146.2968, 377.0182
146.7789, 380.6909
147.2610, 387.0211
147.7431, 393.5775
148.2253, 398.3145
148.7074, 399.6047
149.1895, 401.3304
149.6716, 404.0445
150.1537, 407.7757
150.6358, 412.0775
151.1180, 416.8019
151.6001, 422.1317
152.0822, 428.1867
152.5643, 434.9767
153.0464, 442.4354
153.5285, 450.3031
154.0107, 458.1493
154.4928, 467.7173
154.9749, 477.9745
155.4570, 490.3340
155.9391, 506.5519
156.4212, 525.7303
156.9034, 549.8518
157.3855, 579.3492
157.8676, 613.4006
158.3497, 654.1932
158.8318, 703.9733
159.3139, 760.7100
159.7961, 821.2475
160.2782, 893.7881
160.7603, 963.2764
161.2424, 1022.841
161.7245, 1070.846
162.2066, 1110.614
162.6888, 1138.888
163.1709, 1159.570
163.6530, 1181.252
164.1351, 1205.704
164.6172, 1233.137
165.0993, 1263.536
165.5815, 1296.455
166.0636, 1333.142
166.5457, 1374.647
167.0278, 1420.629
167.5099, 1470.122
167.9920, 1520.970
168.4742, 1575.803
168.9563, 1636.536
169.4384, 1701.547
169.9205, 1775.735
170.4026, 1860.539
170.8847, 1956.720
171.3669, 2066.580
171.8490, 2188.253
172.3311, 2325.299
172.8132, 2481.735
173.2953, 2657.903
173.7774, 2855.572
174.2596, 3073.187
174.7417, 3312.365
175.2238, 3580.978
175.7059, 3889.600
176.1880, 4228.472
176.6701, 4584.187
177.1523, 5004.318
177.6344, 5403.072
178.1165, 5718.497
178.5986, 5949.511
179.0807, 6006.986
179.5628, 5756.947
180.0450, 5274.934
180.5271, 4739.458
181.0092, 4147.217
181.4913, 3562.394
181.9734, 3097.598
182.4555, 2753.522
182.9377, 2500.551
183.4198, 2324.237
183.9019, 2216.937
184.3840, 2154.665
184.8661, 2131.472
185.3482, 2145.375
185.8304, 2190.971
186.3125, 2267.840
186.7946, 2378.885
187.2767, 2527.656
187.7588, 2714.442
188.2409, 2932.744
188.7231, 3198.104
189.2052, 3496.006
189.6873, 3799.714
190.1694, 4125.764
190.6515, 4393.539
191.1336, 4527.436
191.6158, 4526.400
192.0979, 4367.427
192.5800, 3973.270
193.0621, 3383.781
193.5442, 2841.089
194.0263, 2334.967
194.5085, 1887.678
194.9906, 1540.198
195.4727, 1291.603
195.9548, 1097.821
196.4369, 951.6525
196.9190, 851.3282
197.4012, 770.5400
197.8833, 711.2207
198.3654, 666.8796
198.8475, 630.7761
199.3296, 603.0020
199.8117, 580.0408
200.2939, 560.7593
200.7760, 545.2213
201.2581, 532.6230
201.7402, 523.2556
202.2223, 516.5214
202.7044, 511.5365
203.1866, 508.4010
203.6687, 506.6918
204.1508, 506.8325
204.6329, 509.1073
205.1150, 509.9567
205.5971, 508.9418
206.0793, 506.9982
206.5614, 505.8974
207.0435, 505.7811
207.5256, 505.9971
208.0077, 506.2127
208.4898, 506.3525
208.9720, 506.8912
209.4541, 507.6716
209.9362, 508.9923
210.4183, 511.5316
210.9004, 515.4017
211.3825, 520.0876
211.8647, 525.5215
212.3468, 531.8618
212.8289, 538.1154
213.3110, 544.0028
213.7931, 550.0077
214.2752, 556.8834
214.7574, 564.3009
215.2395, 573.5092
215.7216, 584.8783
216.2037, 597.8240
216.6858, 614.6424
217.1679, 635.4437
217.6500, 660.1744
218.1322, 688.3998
218.6143, 720.6830
219.0964, 755.9205
219.5785, 793.6664
220.0606, 836.0915
220.5427, 876.7322
221.0249, 919.4049
221.5070, 958.2051
221.9891, 978.9282
222.4712, 982.6072
222.9533, 966.6302
223.4354, 927.4547
223.9176, 855.4156
224.3997, 785.7684
224.8818, 715.8239
225.3639, 649.1646
225.8460, 592.1923
226.3281, 546.1308
226.8103, 508.3421
227.2924, 479.2899
227.7745, 461.0103
228.2566, 444.7006
228.7387, 430.3274
229.2208, 417.8926
229.7030, 407.8977
230.1851, 400.8842
230.6672, 395.2669
231.1493, 390.5194
231.6314, 386.9332
232.1135, 383.4254
232.5957, 379.9197
233.0778, 376.5174
233.5599, 373.5007
234.0420, 370.8500
234.5241, 368.6187
235.0062, 366.9543
235.4884, 366.2325
235.9705, 364.9774
236.4526, 362.7911
236.9347, 360.2267
237.4168, 358.4368
237.8989, 357.7243
238.3811, 357.2924
238.8632, 356.8830
239.3453, 356.5169
239.8274, 356.0706
240.3095, 355.3824
240.7916, 354.6940
241.2738, 354.5103
241.7559, 355.1578
242.2380, 355.7809
242.7201, 356.0520
243.2022, 355.8369
243.6843, 355.7546
244.1665, 355.9189
244.6486, 356.1561
245.1307, 356.1645
245.6128, 355.8956
246.0949, 355.4738
246.5770, 354.8231
247.0592, 353.7205
247.5413, 353.3217
248.0234, 353.9868
248.5055, 355.1074
248.9876, 355.7090
249.4697, 355.5116
249.9519, 355.3081
250.4340, 355.3537
250.9161, 355.7206
251.3982, 355.9813
251.8803, 356.2132
252.3624, 356.2775
252.8446, 355.7832
253.3267, 353.8968
253.8088, 353.1338
254.2909, 354.5493
254.7730, 358.5626
255.2551, 361.4942
255.7373, 363.0192
256.2194, 363.7964
256.7015, 364.5777
257.1836, 365.4419
257.6657, 366.1329
258.1478, 366.5640
258.6299, 366.7148
259.1121, 366.7565
259.5942, 366.5096
260.0763, 366.3485
260.5584, 366.7666
261.0405, 368.0787
261.5226, 369.1376
262.0048, 369.6048
262.4869, 369.4933
262.9690, 369.6254
263.4511, 370.0642
263.9332, 370.6649
264.4153, 371.3439
264.8975, 372.2106
265.3796, 372.8556
265.8617, 373.1508
266.3438, 373.1394
266.8259, 373.1798
267.3080, 373.1044
267.7902, 373.4015
268.2723, 374.6535
268.7544, 377.2367
269.2365, 379.3642
269.7186, 380.5573
270.2007, 381.0707
270.6829, 382.3221
271.1650, 384.5094
271.6471, 386.9496
272.1292, 389.0708
272.6113, 390.8022
273.0934, 392.6041
273.5756, 394.5233
274.0577, 396.5219
274.5398, 398.4798
275.0219, 400.3082
275.5040, 402.3109
275.9861, 404.7615
276.4683, 407.7213
276.9504, 410.5189
277.4325, 413.0002
277.9146, 415.3627
278.3967, 417.9316
278.8788, 420.5801
279.3610, 424.0313
279.8431, 429.1350
280.3252, 435.9394
280.8073, 441.8053
281.2894, 446.3232
281.7715, 450.2737
282.2537, 455.0342
282.7358, 460.6273
283.2179, 466.8793
283.7000, 473.8447
284.1821, 481.5324
284.6642, 489.1661
285.1464, 496.5523
285.6285, 504.4142
286.1106, 513.8979
286.5927, 524.9991
287.0748, 536.9799
287.5569, 549.7194
288.0391, 563.1829
288.5212, 576.7628
289.0033, 590.5427
289.4854, 604.3400
289.9675, 617.8480
290.4496, 631.1583
290.9318, 644.5659
291.4139, 658.2528
291.8960, 672.2755
292.3781, 686.6249
292.8602, 701.4709
293.3423, 716.2232
293.8245, 729.8025
294.3066, 742.6866
294.7887, 757.2449
295.2708, 774.5423
295.7529, 793.6127
296.2350, 812.3029
296.7172, 830.5411
297.1993, 849.2500
297.6814, 868.9377
298.1635, 889.8796
298.6456, 912.3223
299.1277, 936.0997
299.6099, 962.1754
300.0920, 991.9017
300.5741, 1025.307
301.0562, 1059.691
301.5383, 1093.703
302.0204, 1127.786
302.5026, 1162.352
302.9847, 1198.197
303.4668, 1233.824
303.9489, 1270.187
304.4310, 1305.604
304.9131, 1336.530
305.3953, 1361.792
305.8774, 1380.571
306.3595, 1391.827
306.8416, 1395.812
307.3237, 1390.714
307.8058, 1373.594
308.2880, 1346.039
308.7701, 1311.786
309.2522, 1268.774
309.7343, 1221.771
310.2164, 1173.709
310.6985, 1123.943
311.1807, 1077.644
311.6628, 1037.681
312.1449, 1003.174
312.6270, 974.0067
313.1091, 949.4123
313.5912, 930.2728
314.0734, 917.5388
314.5555, 911.3008
315.0376, 908.9600
315.5197, 909.8730
316.0018, 913.7256
316.4839, 920.1493
316.9661, 931.5033
317.4482, 943.1122
317.9303, 952.2454
318.4124, 959.4052
318.8945, 968.2369
319.3766, 980.0144
319.8588, 994.0037
320.3409, 1009.521
320.8230, 1026.390
321.3051, 1044.941
321.7872, 1065.537
322.2693, 1087.923
322.7515, 1111.330
323.2336, 1133.785
323.7157, 1158.558
324.1978, 1187.505
324.6799, 1221.813
325.1620, 1257.753
325.6442, 1292.855
326.1263, 1329.513
326.6084, 1371.971
327.0905, 1419.315
327.5726, 1473.722
328.0547, 1536.381
328.5369, 1607.569
329.0190, 1684.660
329.5011, 1771.966
329.9832, 1862.683
330.4653, 1949.141
330.9474, 2035.802
331.4296, 2112.987
331.9117, 2183.008
332.3938, 2246.442
332.8759, 2283.417
333.3580, 2294.201
333.8401, 2278.786
334.3223, 2235.504
334.8044, 2153.654
335.2865, 2063.767
335.7686, 1964.784
336.2507, 1859.671
336.7328, 1769.626
337.2150, 1693.955
337.6971, 1633.069
338.1792, 1586.844
338.6613, 1556.423
339.1434, 1537.702
339.6255, 1530.824
340.1077, 1535.248
340.5898, 1550.320
341.0719, 1576.197
341.5540, 1610.770
342.0361, 1653.214
342.5182, 1703.752
343.0003, 1761.084
343.4825, 1825.791
343.9646, 1894.868
344.4467, 1966.073
344.9288, 2038.644
345.4109, 2105.000
345.8930, 2164.739
346.3752, 2215.890
346.8573, 2249.859
347.3394, 2267.543
347.8215, 2263.041
348.3036, 2229.260
348.7857, 2167.812
349.2679, 2085.014
349.7500, 1977.728
350.2321, 1855.036
350.7142, 1730.661
351.1963, 1605.842
351.6784, 1486.879
352.1606, 1377.751
352.6427, 1279.465
353.1248, 1192.224
353.6069, 1115.576
354.0890, 1048.959
354.5711, 992.6276
355.0533, 945.9031
355.5354, 905.8907
356.0175, 873.1084
356.4996, 845.8058
356.9817, 821.5518
357.4638, 800.0381
357.9460, 782.7274
358.4281, 771.8004
358.9102, 765.4406
359.3923, 761.2038
359.8744, 757.4081
360.3565, 755.9675
360.8387, 758.4821
361.3208, 764.7926
361.8029, 772.7434
362.2850, 780.8873
362.7671, 790.4797
363.2492, 802.5490
363.7314, 817.3674
364.2135, 834.7465
364.6956, 854.7464
365.1777, 877.2236
365.6598, 901.5215
366.1419, 928.4932
366.6241, 956.5909
367.1062, 984.6797
367.5883, 1012.126
368.0704, 1041.153
368.5525, 1071.805
369.0346, 1104.110
369.5168, 1138.615
369.9989, 1176.671
370.4810, 1215.568
370.9631, 1254.642
371.4452, 1293.591
371.9273, 1334.983
372.4095, 1377.448
372.8916, 1422.964
373.3737, 1473.698
373.8558, 1531.006
374.3379, 1590.964
374.8200, 1652.990
375.3022, 1717.748
375.7843, 1787.290
376.2664, 1863.526
376.7485, 1942.044
377.2306, 2021.126
377.7127, 2101.932
378.1949, 2179.644
378.6770, 2254.459
379.1591, 2324.699
379.6412, 2385.734
380.1233, 2438.058
380.6054, 2482.112
381.0876, 2519.375
381.5697, 2549.048
382.0518, 2567.186
382.5339, 2574.110
383.0160, 2566.912
383.4981, 2543.292
383.9803, 2502.865
384.4624, 2444.397
384.9445, 2365.496
385.4266, 2270.559
385.9087, 2162.104
386.3908, 2041.387
386.8730, 1917.740
387.3551, 1791.617
387.8372, 1667.349
388.3193, 1551.202
388.8014, 1444.100
389.2835, 1345.779
389.7657, 1257.268
390.2478, 1177.029
390.7299, 1103.596
391.2120, 1036.443
391.6941, 975.3565
392.1762, 921.1875
392.6584, 874.5414
393.1405, 832.9311
393.6226, 796.7292
394.1047, 764.2156
394.5868, 734.0478
395.0689, 705.5172
395.5511, 679.4822
396.0332, 656.4586
396.5153, 636.2824
396.9974, 618.0830
397.4795, 602.1662
397.9616, 587.7694
398.4438, 574.5580
398.9259, 562.9515
399.4080, 551.7107
399.8901, 540.6773
400.3722, 529.9183
400.8543, 519.6663
401.3365, 509.2666
401.8186, 500.0577
402.3007, 492.4767
402.7828, 486.6342
403.2649, 481.5542
403.7470, 477.8750
404.2292, 474.2480
404.7113, 469.2695
405.1934, 462.0615
405.6755, 455.9898
406.1576, 451.7715
406.6397, 448.9759
407.1219, 446.3039
407.6040, 443.8449
408.0861, 441.1400
408.5682, 437.5665
409.0503, 433.2064
409.5324, 430.0145
410.0146, 428.3365
410.4967, 427.0695
410.9788, 424.4329
411.4609, 420.6070
411.9430, 417.0897
412.4251, 414.4009
412.9073, 412.4585
413.3894, 411.2624
413.8715, 410.7885
414.3536, 410.0887
414.8357, 408.1663
415.3178, 405.4948
415.8000, 402.9617
416.2821, 400.6968
416.7642, 398.7149
417.2463, 397.1231
417.7284, 395.8237
418.2105, 394.6024
418.6927, 393.0607
419.1748, 391.7354
419.6569, 391.1446
420.1390, 391.4134
420.6211, 391.6852
421.1032, 391.4754
421.5854, 391.0947
422.0675, 390.8795
422.5496, 391.2825
423.0317, 391.4901
423.5138, 390.8251
423.9959, 389.5518
424.4781, 389.2998
424.9602, 391.2701
425.4423, 393.5963
425.9244, 395.3949
426.4065, 396.3014
426.8886, 397.2918
427.3708, 398.4286
427.8529, 399.6224
428.3350, 400.6782
428.8171, 401.2183
429.2992, 402.3398
429.7813, 404.6053
430.2635, 407.9462
430.7456, 410.1527
431.2277, 410.6654
431.7098, 411.2357
432.1919, 413.5384
432.6740, 417.7498
433.1562, 421.4706
433.6383, 424.3217
434.1204, 426.6670
434.6025, 429.0850
435.0846, 431.5810
435.5667, 434.4019
436.0489, 437.7870
436.5310, 441.6299
437.0131, 445.5722
437.4952, 449.6210
437.9773, 453.8221
438.4594, 458.2438
438.9416, 462.8539
439.4236, 467.5584
439.9058, 472.1994
440.3879, 477.1030
440.8700, 482.5378
441.3521, 488.5300
441.8342, 495.1615
442.3163, 502.8521
442.7985, 510.9657
443.2806, 518.9730
443.7627, 526.6116
444.2448, 534.6985
444.7269, 542.9596
445.2090, 551.9717
445.6912, 562.3861
446.1733, 575.6408
446.6554, 589.0236
447.1375, 601.1071
447.6196, 612.1696
448.1017, 625.1295
448.5839, 640.0976
449.0660, 657.0078
449.5481, 675.7225
450.0302, 696.8741
450.5123, 718.7275
450.9944, 740.2977
451.4766, 763.0253
451.9587, 789.2646
452.4408, 819.9492
452.9229, 851.9461
453.4050, 884.2802
453.8871, 917.1957
454.3693, 954.9131
454.8514, 997.6381
455.3335, 1044.966
455.8156, 1096.958
456.2977, 1153.559
456.7798, 1215.890
457.2620, 1284.930
457.7441, 1358.988
458.2262, 1437.389
458.7083, 1519.407
459.1904, 1605.455
459.6725, 1696.255
460.1547, 1790.082
460.6368, 1884.154
461.1189, 1979.226
461.6010, 2075.747
462.0831, 2173.682
462.5652, 2273.863
463.0474, 2374.878
463.5295, 2474.410
464.0116, 2580.975
464.4937, 2698.722
464.9758, 2826.683
465.4579, 2959.499
465.9401, 3089.802
466.4222, 3229.938
466.9043, 3384.610
467.3864, 3555.022
467.8685, 3733.594
468.3506, 3918.753
468.8328, 4112.498
469.3149, 4316.205
469.7970, 4532.841
470.2791, 4754.678
470.7612, 4986.020
471.2433, 5219.693
471.7255, 5438.097
472.2076, 5644.564
472.6897, 5827.982
473.1718, 5992.613
473.6539, 6137.588
474.1360, 6235.609
474.6182, 6288.835
475.1003, 6287.554
475.5824, 6222.042
476.0645, 6092.322
476.5466, 5901.754
477.0287, 5643.765
477.5109, 5336.369
477.9930, 4991.933
478.4751, 4617.495
478.9572, 4246.576
479.4393, 3886.776
479.9214, 3545.136
480.4036, 3234.561
480.8857, 2954.102
481.3678, 2701.588
481.8499, 2477.761
482.3320, 2279.360
482.8141, 2105.661
483.2963, 1959.163
483.7784, 1830.492
484.2605, 1719.871
484.7426, 1625.159
485.2247, 1542.097
485.7068, 1475.004
486.1890, 1415.662
486.6711, 1361.601
487.1532, 1312.836
487.6353, 1269.243
488.1174, 1232.202
488.5995, 1200.111
489.0817, 1172.097
489.5638, 1149.068
490.0459, 1128.498
490.5280, 1109.929
491.0101, 1093.849
491.4922, 1080.854
491.9744, 1070.739
492.4565, 1064.518
492.9386, 1063.386
493.4207, 1066.688
493.9028, 1069.546
494.3849, 1071.742
494.8671, 1075.877
495.3492, 1084.918
495.8313, 1097.921
496.3134, 1112.559
496.7955, 1128.827
497.2776, 1145.395
497.7598, 1160.490
498.2419, 1174.632
498.7240, 1188.671
499.2061, 1205.870
499.6882, 1221.222
500.1703, 1232.401
500.6525, 1239.179
501.1346, 1238.797
501.6167, 1229.745
502.0988, 1213.340
502.5809, 1190.627
503.0630, 1161.658
503.5452, 1126.004
504.0273, 1080.251
504.5094, 1028.437
504.9915, 978.5135
505.4736, 929.8130
505.9557, 884.0219
506.4379, 841.5594
506.9200, 802.4814
507.4021, 768.3567
507.8842, 739.7028
508.3663, 713.8682
508.8484, 688.3389
509.3306, 663.0547
509.8127, 641.3865
510.2948, 624.0585
510.7769, 609.0816
511.2590, 593.6068
511.7411, 577.9822
512.2233, 564.6425
512.7054, 554.9714
513.1875, 547.4705
513.6696, 540.1186
514.1517, 532.9998
514.6339, 526.5652
515.1160, 521.1213
515.5981, 516.5021
516.0802, 512.5133
516.5623, 509.1495
517.0444, 506.3329
517.5266, 504.0482
518.0087, 502.2852
518.4908, 501.0324
518.9729, 499.6986
519.4550, 499.5319
519.9371, 501.4702
520.4193, 504.9829
520.9014, 507.6075
521.3835, 508.0485
521.8656, 509.2946
522.3477, 512.5326
522.8298, 517.9829
523.3120, 523.7842
523.7941, 530.0049
524.2762, 536.1973
524.7583, 541.5242
525.2404, 545.9357
525.7225, 551.7061
526.2047, 559.4491
526.6868, 568.2493
527.1689, 576.0457
527.6510, 583.1621
528.1331, 591.7977
528.6152, 604.3277
529.0974, 618.4266
529.5795, 630.5950
530.0616, 641.0700
530.5437, 652.1765
531.0258, 665.4696
531.5079, 680.2146
531.9901, 696.1133
532.4722, 713.3461
532.9543, 731.1583
533.4364, 750.5894
533.9185, 770.1228
534.4006, 788.0733
534.8828, 803.2688
535.3649, 817.6395
535.8470, 832.0004
536.3291, 846.0404
536.8112, 856.9825
537.2933, 865.5123
537.7755, 869.8625
538.2576, 868.9315
538.7397, 862.3919
539.2218, 852.6282
539.7039, 839.3367
540.1860, 824.0106
540.6682, 807.7435
541.1503, 790.7740
541.6324, 774.8128
542.1145, 760.1016
542.5966, 747.0211
543.0787, 735.9434
543.5609, 726.9570
544.0430, 720.3822
544.5251, 716.4092
545.0072, 714.8995
545.4893, 716.0856
545.9714, 719.8810
546.4536, 725.2276
546.9357, 731.2436
547.4178, 738.7800
547.8999, 748.5937
548.3820, 761.3574
548.8641, 775.1030
549.3463, 789.0013
549.8284, 803.8210
550.3105, 820.6327
550.7926, 840.7943
551.2747, 860.7874
551.7568, 880.1236
552.2390, 899.0957
552.7211, 919.6424
553.2032, 942.5148
553.6853, 964.6846
554.1674, 985.4684
554.6495, 1004.708
555.1317, 1019.995
555.6138, 1031.149
556.0959, 1037.969
556.5780, 1040.547
557.0601, 1038.560
557.5422, 1031.007
558.0244, 1017.504
558.5065, 998.8407
558.9886, 975.0061
559.4707, 946.6801
559.9528, 915.8262
560.4349, 880.7702
560.9171, 845.3334
561.3992, 811.0674
561.8813, 777.9101
562.3634, 746.3154
562.8455, 715.4822
563.3276, 686.6688
563.8098, 660.1448
564.2919, 636.0136
564.7740, 614.3394
565.2561, 595.2200
565.7382, 578.4639
566.2203, 563.8835
566.7025, 551.7145
567.1846, 540.4724
567.6667, 529.8613
568.1488, 519.9036
568.6309, 510.6382
569.1130, 502.0197
569.5952, 494.7245
570.0773, 489.2005
570.5594, 485.0666
571.0415, 481.6354
571.5236, 478.8422
572.0057, 476.1941
572.4879, 472.9138
572.9700, 469.8114
573.4521, 467.7306
573.9342, 466.8319
574.4163, 466.5954
574.8984, 467.4173
575.3806, 468.4837
575.8627, 468.9752
576.3448, 467.7742
576.8269, 467.1224
577.3090, 466.8198
577.7911, 467.2716
578.2733, 469.7401
578.7554, 475.5491
579.2375, 480.5958
579.7196, 483.2873
580.2017, 483.9960
580.6838, 486.0988
581.1660, 489.7759
581.6481, 493.6790
582.1302, 496.5795
582.6123, 498.8280
583.0944, 502.0747
583.5765, 506.5783
584.0587, 510.8825
584.5408, 513.4315
585.0229, 514.7529
585.5050, 515.7214
585.9871, 516.5248
586.4692, 517.1650
586.9514, 516.9490
587.4335, 516.6188
587.9155, 517.7212
588.3976, 521.7579
588.8798, 526.2820
589.3619, 530.3007
589.8440, 533.8218
590.3261, 538.3663
590.8082, 543.8452
591.2903, 550.3711
