##NAMES=Baddeleyite
##RRUFFID=R060016
##IDEAL CHEMISTRY=Zr^4+^O_2_
##LOCALITY=Wet Loo, Myanmar
##OWNER=RRUFF
##SOURCE=American Museum of Natural History
##DESCRIPTION=Brown crystal fragment
##STATUS=The identification of this mineral has been confirmed by X-ray diffraction and chemical analysis
##URL=rruff.info/R060016
##MEASURED CHEMISTRY=(Zr_0.99_Ti_0.01_)_Î£=1_O_2_
94.51007, 0.0000000E+00
94.99219, 440.6603
95.47430, 436.5674
95.95642, 438.9657
96.43854, 447.0342
96.92065, 458.6191
97.40277, 469.9331
97.88489, 481.5150
98.36700, 493.9838
98.84912, 507.0555
99.33124, 520.8725
99.81335, 536.0216
100.2955, 552.7017
100.7776, 569.9869
101.2597, 587.1506
101.7418, 606.6812
102.2239, 617.5321
102.7061, 618.5558
103.1882, 609.6614
103.6703, 588.9033
104.1524, 552.5233
104.6345, 505.9713
105.1166, 459.7013
105.5988, 412.1915
106.0809, 367.6282
106.5630, 329.4273
107.0451, 297.4613
107.5272, 270.6341
108.0093, 249.6912
108.4915, 232.8142
108.9736, 219.1327
109.4557, 208.4914
109.9378, 200.4062
110.4199, 193.6219
110.9020, 188.6707
111.3842, 184.3813
111.8663, 180.4658
112.3484, 176.9266
112.8305, 173.8170
113.3126, 171.1903
113.7947, 169.0341
114.2769, 167.1807
114.7590, 165.7439
115.2411, 164.4541
115.7232, 163.1956
116.2053, 161.9844
116.6874, 160.9479
117.1696, 160.2452
117.6517, 160.0178
118.1338, 159.5059
118.6159, 158.2697
119.0980, 157.0154
119.5801, 156.4625
120.0623, 156.7985
120.5444, 157.3721
121.0265, 157.2045
121.5086, 156.2931
121.9907, 155.4848
122.4728, 155.1587
122.9550, 155.1241
123.4371, 154.8405
123.9192, 153.9437
124.4013, 153.0557
124.8834, 152.8924
125.3655, 153.4836
125.8476, 154.2060
126.3298, 154.6145
126.8119, 154.6980
127.2940, 154.5838
127.7761, 153.8799
128.2582, 153.2280
128.7404, 153.1175
129.2225, 153.6805
129.7046, 154.5053
130.1867, 154.8682
130.6688, 154.4480
131.1509, 154.1531
131.6331, 154.1426
132.1152, 154.2783
132.5973, 154.4084
133.0794, 154.4561
133.5615, 154.4872
134.0436, 154.7800
134.5258, 155.6230
135.0079, 156.4343
135.4900, 157.1398
135.9721, 157.7629
136.4542, 158.3660
136.9363, 158.9969
137.4185, 159.6453
137.9006, 160.1514
138.3827, 160.4773
138.8648, 160.7372
139.3469, 160.8747
139.8290, 160.9370
140.3112, 161.1941
140.7933, 161.9710
141.2754, 163.1938
141.7575, 164.1054
142.2396, 164.2947
142.7217, 164.3377
143.2039, 164.9398
143.6860, 166.2631
144.1681, 167.6086
144.6502, 168.2059
145.1323, 168.3549
145.6144, 168.7247
146.0966, 169.8202
146.5787, 171.3678
147.0608, 172.4483
147.5429, 172.6086
148.0250, 172.8705
148.5071, 173.6314
148.9893, 174.9005
149.4714, 176.6923
149.9535, 179.1641
150.4356, 182.3718
150.9177, 185.5097
151.3998, 188.4477
151.8820, 191.3954
152.3641, 194.0552
152.8462, 196.6482
153.3283, 199.8855
153.8104, 204.5692
154.2925, 210.7372
154.7747, 218.4204
155.2568, 227.2130
155.7389, 237.4294
156.2210, 249.6655
156.7031, 263.8365
157.1852, 279.0435
157.6673, 294.0013
158.1495, 309.7705
158.6316, 322.9342
159.1137, 333.4990
159.5958, 341.6071
160.0779, 346.7909
160.5600, 348.8205
161.0422, 349.2364
161.5243, 351.1183
162.0064, 354.4627
162.4885, 358.8853
162.9706, 364.0469
163.4527, 370.2479
163.9349, 378.1068
164.4170, 387.9446
164.8991, 399.5828
165.3812, 412.5382
165.8633, 426.8485
166.3454, 442.1709
166.8276, 458.1172
167.3097, 474.7594
167.7918, 493.1866
168.2739, 513.7281
168.7560, 536.5106
169.2381, 561.5821
169.7203, 589.2608
170.2024, 618.0404
170.6845, 647.1105
171.1666, 676.6422
171.6487, 704.7627
172.1308, 729.2852
172.6130, 752.7639
173.0951, 776.3906
173.5772, 800.2308
174.0593, 825.8310
174.5414, 856.4929
175.0235, 894.1071
175.5057, 933.0304
175.9878, 979.5819
176.4699, 1023.379
176.9520, 1057.479
177.4341, 1078.994
177.9162, 1085.202
178.3984, 1067.153
178.8805, 1007.586
179.3626, 942.6884
179.8447, 868.6318
180.3268, 794.3392
180.8089, 728.5201
181.2911, 676.2032
181.7732, 637.0378
182.2553, 609.4484
182.7374, 598.1849
183.2195, 593.0936
183.7016, 593.6813
184.1838, 599.1398
184.6659, 608.2858
185.1480, 620.3544
185.6301, 635.5805
186.1122, 656.2686
186.5943, 682.4664
187.0765, 712.3636
187.5586, 746.9412
188.0407, 785.0101
188.5228, 825.1280
189.0049, 870.4463
189.4870, 915.4257
189.9692, 935.3065
190.4513, 930.8160
190.9334, 902.9216
191.4155, 844.0148
191.8976, 756.0589
192.3797, 662.4982
192.8619, 573.8957
193.3440, 492.7224
193.8261, 424.0833
194.3082, 370.9929
194.7903, 329.3631
195.2724, 296.7641
195.7546, 273.8556
196.2367, 255.8887
196.7188, 241.7254
197.2009, 230.4801
197.6830, 221.6437
198.1651, 215.6521
198.6473, 211.5952
199.1294, 207.9306
199.6115, 204.5780
200.0936, 201.8996
200.5757, 200.0923
201.0578, 198.9547
201.5400, 198.3501
202.0221, 198.3858
202.5042, 198.7998
202.9863, 198.8230
203.4684, 198.3090
203.9505, 197.5968
204.4327, 196.5476
204.9148, 195.4535
205.3969, 194.7423
205.8790, 194.7114
206.3611, 195.2062
206.8432, 195.4116
207.3254, 194.7205
207.8075, 194.4872
208.2896, 195.1662
208.7717, 196.4437
209.2538, 197.8827
209.7359, 199.2133
210.2181, 200.4513
210.7002, 201.6865
211.1823, 202.6433
211.6644, 203.8972
212.1465, 205.7128
212.6286, 207.8979
213.1108, 210.0951
213.5929, 212.0473
214.0750, 213.8006
214.5571, 215.9754
215.0392, 218.6851
215.5213, 221.6576
216.0035, 224.8252
216.4856, 228.1959
216.9677, 231.8003
217.4498, 235.7196
217.9319, 239.8928
218.4140, 243.8298
218.8962, 247.3656
219.3783, 250.8561
219.8604, 255.2463
220.3425, 259.8836
220.8246, 263.0901
221.3067, 264.0760
221.7889, 262.4700
222.2710, 257.3011
222.7531, 246.6771
223.2352, 234.8234
223.7173, 223.0767
224.1994, 211.6404
224.6816, 201.0513
225.1637, 191.4216
225.6458, 183.1488
226.1279, 176.7653
226.6100, 173.1668
227.0921, 170.5124
227.5743, 167.7090
228.0564, 164.7971
228.5385, 162.0457
229.0206, 159.4856
229.5027, 157.2926
229.9848, 155.8034
230.4670, 155.3697
230.9491, 155.1894
231.4312, 154.4450
231.9133, 153.1285
232.3954, 152.1938
232.8775, 152.5254
233.3597, 153.2952
233.8418, 153.3588
234.3239, 152.3349
234.8060, 151.0646
235.2881, 150.4848
235.7702, 150.6730
236.2524, 150.8237
236.7345, 150.5709
237.2166, 150.1653
237.6987, 149.7614
238.1808, 149.3547
238.6629, 149.1157
239.1451, 149.3968
239.6272, 150.3537
240.1093, 151.0007
240.5914, 150.7707
241.0735, 150.2627
241.5556, 149.8365
242.0378, 149.5748
242.5199, 149.4226
243.0020, 149.2960
243.4841, 149.1700
243.9662, 149.1684
244.4483, 149.5845
244.9305, 149.9531
245.4126, 149.9023
245.8947, 149.3667
246.3768, 148.6683
246.8589, 148.1767
247.3410, 147.8261
247.8232, 147.9171
248.3053, 149.1113
248.7874, 150.2754
249.2695, 150.5911
249.7516, 149.9760
250.2337, 149.0679
250.7159, 148.7314
251.1980, 149.2146
251.6801, 149.6151
252.1622, 149.9513
252.6443, 150.1897
253.1264, 150.2480
253.6086, 150.1509
254.0907, 150.0446
254.5728, 150.0984
255.0549, 150.3147
255.5370, 150.7073
256.0191, 151.4119
256.5013, 152.1502
256.9834, 152.8794
257.4655, 153.5284
257.9476, 153.9163
258.4297, 153.7792
258.9118, 152.8674
259.3940, 152.4632
259.8761, 152.8127
260.3582, 153.3376
260.8403, 153.8232
261.3224, 154.2161
261.8045, 154.5013
262.2867, 154.6372
262.7688, 154.5681
263.2509, 154.7497
263.7330, 155.3795
264.2151, 156.0178
264.6972, 156.5096
265.1794, 156.8326
265.6615, 156.9819
266.1436, 156.9049
266.6257, 156.5774
267.1078, 156.6767
267.5899, 157.4989
268.0721, 158.3594
268.5542, 159.1016
269.0363, 159.6550
269.5184, 159.8317
270.0005, 159.3985
270.4826, 158.4448
270.9648, 158.3215
271.4469, 159.5610
271.9290, 160.8724
272.4111, 161.8768
272.8932, 162.5852
273.3753, 163.0620
273.8575, 163.3090
274.3396, 163.3764
274.8217, 163.5273
275.3038, 163.5269
275.7859, 163.8385
276.2680, 164.8196
276.7502, 166.2092
277.2323, 167.4400
277.7144, 168.2061
278.1965, 168.7265
278.6786, 169.6817
279.1607, 171.1488
279.6429, 172.7649
280.1250, 174.7468
280.6071, 176.7798
281.0892, 178.0878
281.5713, 178.2293
282.0534, 178.0418
282.5356, 179.3676
283.0177, 182.5727
283.4998, 185.6006
283.9819, 187.6456
284.4640, 189.2773
284.9461, 191.3731
285.4283, 194.1853
285.9104, 197.4074
286.3925, 200.7518
286.8746, 204.2593
287.3567, 207.5328
287.8388, 210.3619
288.3210, 212.9802
288.8031, 215.6481
289.2852, 218.4286
289.7673, 221.2797
290.2494, 224.1643
290.7315, 227.0941
291.2137, 230.0057
291.6958, 232.9698
292.1779, 235.8860
292.6600, 238.3858
293.1421, 240.4055
293.6242, 242.9345
294.1064, 247.0919
294.5885, 252.5692
295.0706, 257.4878
295.5527, 261.2401
296.0348, 264.6624
296.5169, 268.3420
296.9991, 272.2915
297.4812, 276.6357
297.9633, 281.5890
298.4454, 286.9740
298.9275, 292.1519
299.4096, 296.8926
299.8918, 301.6550
300.3739, 306.8460
300.8560, 312.4097
301.3381, 317.8832
301.8202, 323.1412
302.3023, 328.1133
302.7845, 332.8628
303.2666, 337.3905
303.7487, 341.6338
304.2308, 345.7309
304.7129, 349.5367
305.1950, 352.7796
305.6772, 355.8931
306.1593, 357.5307
306.6414, 355.6976
307.1235, 350.3135
307.6056, 343.7926
308.0877, 336.8114
308.5699, 329.4499
309.0520, 321.6341
309.5341, 313.0222
310.0162, 304.7675
310.4983, 298.6011
310.9804, 294.1595
311.4626, 289.6330
311.9447, 283.4244
312.4268, 277.1300
312.9089, 273.3105
313.3910, 272.4285
313.8731, 272.8762
314.3553, 273.9191
314.8374, 275.3090
315.3195, 276.2278
315.8016, 275.8950
316.2837, 275.3785
316.7658, 275.8060
317.2480, 277.2081
317.7301, 279.1397
318.2122, 281.4767
318.6943, 284.1693
319.1764, 286.9823
319.6585, 289.6316
320.1407, 292.7408
320.6228, 296.8432
321.1049, 301.8644
321.5870, 307.3658
322.0691, 313.2174
322.5512, 319.4167
323.0334, 325.8330
323.5155, 332.3171
323.9976, 339.3276
324.4797, 347.0199
324.9618, 355.4142
325.4439, 364.5138
325.9261, 374.4170
326.4082, 384.9281
326.8903, 396.0139
327.3724, 407.5652
327.8545, 419.4889
328.3366, 431.9604
328.8188, 444.6592
329.3009, 457.4919
329.7830, 470.7188
330.2651, 482.8484
330.7472, 492.7451
331.2293, 500.4220
331.7115, 505.1405
332.1936, 506.7724
332.6757, 505.3466
333.1578, 500.4757
333.6399, 492.1392
334.1220, 481.7737
334.6042, 469.4607
335.0863, 455.8027
335.5684, 443.3484
336.0505, 431.6613
336.5326, 421.7119
337.0147, 414.0805
337.4969, 408.6833
337.9790, 405.1749
338.4611, 403.4765
338.9432, 403.6142
339.4253, 405.4902
339.9074, 409.1778
340.3896, 413.9785
340.8717, 419.7331
341.3538, 426.4018
341.8359, 434.0058
342.3180, 442.6663
342.8001, 451.9706
343.2823, 461.6753
343.7644, 471.8756
344.2465, 481.4688
344.7286, 491.3368
345.2107, 499.9447
345.6928, 506.0124
346.1750, 509.3610
346.6571, 509.2499
347.1392, 504.9147
347.6213, 495.8363
348.1034, 484.0874
348.5855, 469.5974
349.0677, 452.4420
349.5498, 431.1133
350.0319, 406.4977
350.5140, 382.5228
350.9961, 361.2557
351.4782, 342.4872
351.9604, 325.2839
352.4425, 308.8272
352.9246, 294.4716
353.4067, 283.0904
353.8888, 273.9495
354.3709, 265.7867
354.8531, 258.0980
355.3352, 251.2687
355.8173, 246.1241
356.2994, 242.9505
356.7815, 240.7661
357.2636, 239.5790
357.7458, 239.3010
358.2279, 239.8765
358.7100, 241.2819
359.1921, 243.5279
359.6742, 246.7234
360.1563, 251.1074
360.6385, 255.0760
361.1206, 257.7621
361.6027, 260.8495
362.0848, 265.4551
362.5669, 271.2993
363.0490, 277.3741
363.5312, 282.9302
364.0133, 288.1068
364.4954, 293.9936
364.9775, 301.1636
365.4596, 308.2951
365.9417, 314.9809
366.4239, 321.5000
366.9060, 328.1891
367.3881, 335.2178
367.8702, 342.5639
368.3523, 350.2169
368.8344, 358.3167
369.3166, 366.5155
369.7987, 374.3936
370.2808, 382.6753
370.7629, 391.8609
371.2450, 402.0379
371.7271, 413.1138
372.2093, 425.0455
372.6914, 438.1503
373.1735, 450.5553
373.6556, 461.4250
374.1377, 472.4464
374.6198, 484.2885
375.1020, 496.7601
375.5841, 509.3117
376.0662, 521.7135
376.5483, 533.7518
377.0304, 544.2426
377.5125, 553.8147
377.9947, 560.5664
378.4768, 564.4326
378.9589, 565.4587
379.4410, 563.3199
379.9231, 557.9822
380.4052, 550.5269
380.8874, 542.5991
381.3695, 534.5305
381.8516, 524.8990
382.3337, 513.4964
382.8158, 500.5747
383.2979, 485.9634
383.7801, 469.8084
384.2622, 452.5945
384.7443, 434.5514
385.2264, 415.7809
385.7085, 396.5320
386.1906, 376.0214
386.6728, 356.1795
387.1549, 337.6601
387.6370, 320.2569
388.1191, 303.7798
388.6012, 288.0023
389.0833, 273.2031
389.5655, 259.9764
390.0476, 248.3969
390.5297, 238.0723
391.0118, 229.4709
391.4939, 221.7395
391.9760, 214.2605
392.4582, 206.9427
392.9403, 200.1861
393.4224, 194.3996
393.9045, 189.4965
394.3866, 184.9440
394.8687, 180.6379
395.3509, 176.7543
395.8330, 173.5211
396.3151, 170.8052
396.7972, 168.2125
397.2793, 165.6124
397.7614, 163.0471
398.2436, 160.4398
398.7257, 157.7732
399.2078, 155.5269
399.6899, 154.1861
400.1720, 153.4184
400.6541, 152.4482
401.1363, 151.2046
401.6184, 149.8449
402.1005, 148.2927
402.5826, 146.6913
403.0647, 145.4805
403.5468, 144.8642
404.0290, 144.5030
404.5111, 143.9079
404.9932, 143.0585
405.4753, 142.2714
405.9574, 141.7045
406.4395, 141.1639
406.9217, 140.4704
407.4038, 139.6066
407.8859, 138.6126
408.3680, 137.4435
408.8501, 136.1497
409.3322, 135.3567
409.8144, 135.5114
410.2965, 135.5837
410.7786, 135.0844
411.2607, 134.2787
411.7428, 133.6611
412.2249, 133.4442
412.7071, 133.4159
413.1892, 133.1554
413.6713, 132.4403
414.1534, 131.8908
414.6355, 131.7298
415.1176, 131.5643
415.5998, 130.9394
416.0819, 129.9445
416.5640, 129.2031
417.0461, 129.3781
417.5282, 130.4917
418.0103, 130.8174
418.4925, 129.2571
418.9746, 128.0854
419.4567, 128.0530
419.9388, 128.6324
420.4209, 129.1092
420.9030, 129.1608
421.3852, 128.9066
421.8673, 128.5266
422.3494, 127.8495
422.8315, 127.4933
423.3136, 127.8020
423.7957, 128.2045
424.2779, 128.2378
424.7600, 127.9632
425.2421, 127.8988
425.7242, 128.6888
426.2063, 130.1965
426.6884, 131.0280
427.1706, 130.8966
427.6527, 130.5401
428.1348, 130.1628
428.6169, 129.8248
429.0990, 129.6289
429.5811, 129.6402
430.0633, 129.7304
430.5454, 129.6242
431.0275, 129.3092
431.5096, 129.4375
431.9917, 130.4413
432.4738, 131.7323
432.9560, 132.7254
433.4381, 133.4222
433.9202, 133.9147
434.4023, 134.1187
434.8844, 134.1826
435.3665, 134.3581
435.8487, 134.6710
436.3308, 135.0531
436.8129, 135.3677
437.2950, 135.7246
437.7771, 136.4991
438.2592, 138.1966
438.7414, 139.7833
439.2235, 140.5974
439.7056, 140.8722
440.1877, 141.1096
440.6698, 141.4580
441.1519, 141.9984
441.6341, 142.9051
442.1162, 144.3179
442.5983, 145.7020
443.0804, 146.9229
443.5625, 148.1869
444.0446, 149.6262
444.5268, 151.2583
445.0089, 153.1352
445.4910, 155.3474
445.9731, 157.8265
446.4552, 159.9310
446.9373, 160.8596
447.4195, 162.4074
447.9016, 165.1589
448.3837, 168.5168
448.8658, 171.7321
449.3479, 174.5992
449.8300, 177.5830
450.3122, 181.3885
450.7943, 186.2545
451.2764, 191.0470
451.7585, 194.8724
452.2406, 199.4883
452.7227, 205.7321
453.2049, 213.3174
453.6870, 221.5060
454.1691, 229.8860
454.6512, 238.5443
455.1333, 247.9698
455.6154, 258.3875
456.0976, 268.8653
456.5797, 278.9467
457.0618, 289.1058
457.5439, 300.0125
458.0260, 311.6791
458.5081, 323.2969
458.9903, 334.0180
459.4724, 344.1010
459.9545, 354.6737
460.4366, 366.0812
460.9187, 377.3904
461.4008, 387.4865
461.8830, 396.9514
462.3651, 407.2014
462.8472, 418.5843
463.3293, 430.7782
463.8114, 443.6335
464.2935, 457.1258
464.7756, 471.1950
465.2578, 485.8276
465.7399, 500.9918
466.2220, 516.4037
466.7041, 532.0291
467.1862, 548.2035
467.6683, 565.1788
468.1505, 582.5967
468.6326, 600.5309
469.1147, 618.7535
469.5968, 636.1746
470.0789, 652.1141
470.5610, 666.6830
471.0432, 680.3847
471.5253, 694.9672
472.0074, 706.5120
472.4895, 715.2762
472.9716, 720.4424
473.4537, 721.7617
473.9359, 718.9152
474.4180, 710.6066
474.9001, 694.7646
475.3822, 670.8888
475.8643, 644.5336
476.3464, 614.9517
476.8286, 583.5382
477.3107, 549.6201
477.7928, 514.4631
478.2749, 479.5925
478.7570, 445.3492
479.2391, 412.8695
479.7213, 384.3207
480.2034, 359.7729
480.6855, 337.6815
481.1676, 317.6640
481.6497, 300.0313
482.1318, 284.9558
482.6140, 272.2672
483.0961, 261.1930
483.5782, 251.5558
484.0603, 243.1794
484.5424, 235.8193
485.0245, 229.4965
485.5067, 223.8031
485.9888, 218.4581
486.4709, 213.6763
486.9530, 209.9403
487.4351, 207.4526
487.9172, 205.4604
488.3994, 203.8352
488.8815, 202.4897
489.3636, 201.4086
489.8457, 200.5649
490.3278, 199.6927
490.8099, 198.4672
491.2921, 196.8585
491.7742, 195.8096
492.2563, 195.3005
492.7384, 195.2686
493.2205, 195.9809
493.7026, 197.0657
494.1848, 197.9133
494.6669, 198.3179
495.1490, 198.7795
495.6311, 200.2678
496.1132, 203.3653
496.5953, 205.5807
497.0775, 206.2997
497.5596, 206.7042
498.0417, 207.1616
498.5238, 207.6694
499.0059, 208.2327
499.4880, 209.0382
499.9702, 209.5480
500.4523, 208.7223
500.9344, 206.5102
501.4165, 203.2427
501.8986, 198.4762
502.3807, 193.1141
502.8629, 188.0005
503.3450, 183.1660
503.8271, 178.2962
504.3092, 173.0536
504.7913, 167.7607
505.2734, 162.9232
505.7556, 158.5679
506.2377, 154.5431
506.7198, 150.7080
507.2019, 147.1637
507.6840, 144.2322
508.1661, 142.0956
508.6483, 140.1275
509.1304, 138.0660
509.6125, 136.1362
510.0946, 134.6327
510.5767, 133.5882
511.0588, 132.8200
511.5410, 132.1720
512.0231, 131.6438
512.5052, 131.2456
512.9873, 130.9750
513.4694, 130.8380
513.9515, 130.9245
514.4337, 131.1053
514.9158, 131.2424
515.3979, 131.2948
515.8800, 131.3070
516.3621, 131.2814
516.8442, 131.1912
517.3264, 131.3493
517.8085, 131.7882
518.2906, 132.4660
518.7727, 133.4241
519.2548, 134.5655
519.7369, 135.7427
520.2191, 136.9347
520.7012, 138.0880
521.1833, 139.0329
521.6654, 139.8278
522.1475, 141.0015
522.6296, 142.8432
523.1118, 144.7631
523.5939, 146.0784
524.0760, 146.8622
524.5581, 147.5522
525.0402, 147.8916
525.5223, 148.4473
526.0045, 149.6818
526.4866, 151.4723
526.9687, 153.4680
527.4508, 155.5129
527.9329, 157.6548
528.4150, 159.9953
528.8972, 162.6614
529.3793, 165.2126
529.8614, 167.4312
530.3435, 169.7264
530.8256, 172.5734
531.3077, 175.6939
531.7899, 178.3007
532.2720, 179.8499
532.7541, 180.9420
533.2362, 183.2174
533.7183, 187.1253
534.2004, 190.9704
534.6826, 194.9375
535.1647, 198.3937
535.6468, 200.8775
536.1289, 202.4549
536.6110, 203.4829
537.0931, 204.1314
537.5753, 204.3814
538.0574, 204.2538
538.5395, 203.7625
539.0216, 202.5476
539.5037, 200.0670
539.9858, 197.1295
540.4680, 195.0889
540.9501, 194.0046
541.4322, 193.1538
541.9143, 192.4766
542.3964, 191.8425
542.8785, 190.8872
543.3607, 189.7528
543.8428, 189.2353
544.3249, 189.9106
544.8070, 191.4678
545.2891, 192.7493
545.7712, 192.9641
546.2534, 194.0279
546.7355, 196.7149
547.2176, 199.6918
547.6997, 201.7809
548.1818, 203.0980
548.6639, 204.6915
549.1461, 207.3422
549.6282, 210.9107
550.1103, 214.8456
550.5924, 219.3397
551.0745, 223.7231
551.5566, 228.0422
552.0388, 232.0445
552.5209, 235.4167
553.0030, 238.1544
553.4851, 240.7614
553.9672, 243.8521
554.4493, 246.9112
554.9315, 249.2736
555.4136, 250.9078
555.8957, 251.0707
556.3778, 249.0756
556.8599, 245.5517
557.3420, 242.2131
557.8242, 239.3653
558.3063, 235.9727
558.7884, 232.1574
559.2705, 227.5114
559.7526, 221.3252
560.2347, 213.8478
560.7169, 206.0977
561.1990, 198.7967
561.6811, 191.9368
562.1632, 185.5471
562.6453, 179.6856
563.1274, 174.2787
563.6096, 169.2121
564.0917, 164.6373
564.5738, 160.7085
565.0559, 157.3811
565.5380, 154.4342
566.0201, 151.7209
566.5023, 149.2662
566.9844, 147.2357
567.4665, 145.7044
567.9486, 144.0551
568.4307, 141.9854
568.9128, 139.7502
569.3950, 137.5902
569.8771, 135.4550
570.3592, 133.8289
570.8413, 133.1235
571.3234, 132.8219
571.8055, 132.4980
572.2877, 132.1004
572.7698, 131.5855
573.2519, 130.9211
573.7340, 130.1541
574.2161, 129.4025
574.6982, 128.5219
575.1804, 127.9210
575.6625, 127.7058
576.1446, 127.6596
576.6267, 127.7983
577.1088, 127.9919
577.5909, 127.9186
578.0731, 127.3195
578.5552, 126.5595
579.0373, 126.5547
579.5194, 127.4845
580.0015, 128.1639
580.4836, 128.2533
580.9658, 128.1264
581.4479, 127.9564
581.9300, 127.7998
582.4121, 127.8877
582.8942, 128.3918
583.3763, 129.1059
583.8585, 129.8964
584.3406, 130.7355
584.8227, 131.5399
585.3048, 132.2904
585.7869, 132.9455
586.2690, 133.4134
586.7512, 133.6202
587.2333, 134.0185
587.7154, 134.5282
588.1975, 135.2990
588.6796, 136.5971
589.1617, 138.1412
589.6439, 139.4064
590.1260, 140.2134
590.6081, 141.0474
591.0902, 142.6091
591.5723, 144.9573
