##NAMES=Baddeleyite
##RRUFFID=R060078
##IDEAL CHEMISTRY=Zr^4+^O_2_
##LOCALITY=Wetloo mine, Mogok, Burma
##OWNER=RRUFF
##SOURCE=Marcus Origlieri
##DESCRIPTION=Dark brown fragment
##STATUS=The identification of this mineral has been confirmed by X-ray diffraction and chemical analysis
##URL=rruff.info/R060078
##MEASURED CHEMISTRY=(Zr_0.99_Hf_0.01_)_Î£=1_O_2_
93.46680, 2284.938
93.94891, 2209.633
94.43103, 2216.337
94.91315, 2289.145
95.39526, 2378.458
95.87738, 2467.617
96.35950, 2561.298
96.84161, 2665.583
97.32373, 2775.126
97.80585, 2904.578
98.28796, 3065.467
98.77008, 3256.000
99.25220, 3484.299
99.73431, 3767.796
100.2164, 4121.564
100.6985, 4480.930
101.1807, 4917.156
101.6628, 5338.214
102.1449, 5653.436
102.6270, 5826.474
103.1091, 5856.170
103.5912, 5713.933
104.0734, 5249.198
104.5555, 4740.442
105.0376, 4188.102
105.5197, 3624.884
106.0018, 3101.251
106.4839, 2658.999
106.9661, 2299.181
107.4482, 2006.553
107.9303, 1788.140
108.4124, 1613.039
108.8945, 1469.379
109.3766, 1353.744
109.8588, 1259.714
110.3409, 1183.981
110.8230, 1128.071
111.3051, 1079.315
111.7872, 1037.216
112.2693, 1001.163
112.7515, 970.3777
113.2336, 945.5477
113.7157, 925.1682
114.1978, 907.3549
114.6799, 892.0596
115.1620, 878.2659
115.6442, 865.7673
116.1263, 854.4828
116.6084, 843.9243
117.0905, 834.1484
117.5726, 824.9867
118.0547, 815.9992
118.5369, 807.1578
119.0190, 799.1550
119.5011, 793.0374
119.9832, 789.4377
120.4653, 786.4053
120.9474, 783.8832
121.4296, 781.5217
121.9117, 778.9099
122.3938, 775.8635
122.8759, 772.6807
123.3580, 770.3243
123.8401, 769.5712
124.3223, 768.9338
124.8044, 768.7043
125.2865, 768.4512
125.7686, 767.4265
126.2507, 765.0385
126.7328, 761.4594
127.2150, 759.2090
127.6971, 758.6950
128.1792, 758.7274
128.6613, 758.9029
129.1434, 759.2017
129.6255, 759.6808
130.1077, 760.3673
130.5898, 761.3118
131.0719, 762.5663
131.5540, 764.5128
132.0361, 766.5931
132.5182, 768.1632
133.0004, 769.0945
133.4825, 769.9225
133.9646, 770.8796
134.4467, 772.0345
134.9288, 773.6622
135.4109, 776.0047
135.8931, 778.9286
136.3752, 782.0137
136.8573, 785.2572
137.3394, 788.6713
137.8215, 792.1976
138.3036, 795.8585
138.7858, 799.6820
139.2679, 803.8669
139.7500, 808.5205
140.2321, 812.6745
140.7142, 815.2645
141.1963, 818.2037
141.6785, 822.5547
142.1606, 828.2313
142.6427, 834.3195
143.1248, 839.5667
143.6069, 843.1490
144.0890, 847.8577
144.5712, 854.3826
145.0533, 861.3302
145.5354, 867.6533
146.0175, 873.0732
146.4996, 878.3098
146.9817, 884.6285
147.4639, 892.2477
147.9460, 900.7977
148.4281, 910.0860
148.9102, 920.3809
149.3923, 931.8377
149.8744, 944.4291
150.3566, 958.5862
150.8387, 975.5494
151.3208, 994.2958
151.8029, 1016.735
152.2850, 1041.983
152.7671, 1071.139
153.2493, 1106.734
153.7314, 1147.990
154.2135, 1199.755
154.6956, 1265.484
155.1777, 1345.855
155.6598, 1437.854
156.1420, 1542.764
156.6241, 1660.857
157.1062, 1778.189
157.5883, 1899.300
158.0704, 2010.244
158.5525, 2096.676
159.0347, 2153.694
159.5168, 2188.846
159.9989, 2210.003
160.4810, 2209.158
160.9631, 2213.864
161.4452, 2228.945
161.9274, 2253.476
162.4095, 2286.934
162.8916, 2328.854
163.3737, 2380.096
163.8558, 2443.039
164.3379, 2521.798
164.8201, 2609.248
165.3022, 2703.069
165.7843, 2804.436
166.2664, 2913.603
166.7485, 3031.101
167.2306, 3157.108
167.7128, 3298.368
168.1949, 3458.981
168.6770, 3630.417
169.1591, 3815.177
169.6412, 4010.112
170.1233, 4210.765
170.6055, 4413.750
171.0876, 4620.541
171.5697, 4826.752
172.0518, 5009.591
172.5339, 5212.085
173.0160, 5440.533
173.4982, 5700.640
173.9803, 6014.437
174.4624, 6400.206
174.9445, 6864.142
175.4266, 7368.475
175.9087, 8032.979
176.3909, 8661.458
176.8730, 9146.660
177.3551, 9487.175
177.8372, 9569.438
178.3193, 9193.046
178.8014, 8463.115
179.2836, 7679.186
179.7657, 6806.526
180.2478, 5945.108
180.7299, 5233.663
181.2120, 4688.189
181.6941, 4274.157
182.1763, 3996.315
182.6584, 3822.218
183.1405, 3712.546
183.6226, 3657.416
184.1047, 3653.023
184.5868, 3687.184
185.0690, 3760.037
185.5511, 3878.799
186.0332, 4029.643
186.5153, 4219.259
186.9974, 4463.631
187.4795, 4782.514
187.9617, 5171.998
188.4438, 5570.074
188.9259, 6107.210
189.4080, 6507.712
189.8901, 6720.639
190.3722, 6733.059
190.8544, 6525.839
191.3365, 6055.136
191.8186, 5298.172
192.3007, 4581.978
192.7828, 3855.152
193.2649, 3210.677
193.7471, 2689.135
194.2292, 2284.778
194.7113, 1969.686
195.1934, 1725.488
195.6755, 1558.086
196.1576, 1425.485
196.6398, 1332.448
197.1219, 1260.322
197.6040, 1204.160
198.0861, 1161.610
198.5682, 1129.091
199.0503, 1103.833
199.5325, 1086.877
200.0146, 1074.868
200.4967, 1070.102
200.9788, 1068.017
201.4609, 1066.444
201.9430, 1064.893
202.4252, 1062.651
202.9073, 1059.039
203.3894, 1053.867
203.8715, 1047.585
204.3536, 1038.431
204.8357, 1029.154
205.3179, 1022.168
205.8000, 1017.758
206.2821, 1015.399
206.7642, 1014.803
207.2463, 1015.915
207.7284, 1018.908
208.2106, 1024.620
208.6927, 1031.964
209.1748, 1039.601
209.6569, 1047.536
210.1390, 1055.474
210.6211, 1062.755
211.1033, 1069.773
211.5854, 1077.681
212.0675, 1086.819
212.5496, 1097.167
213.0317, 1108.756
213.5138, 1121.590
213.9960, 1135.646
214.4781, 1150.187
214.9602, 1165.706
215.4423, 1183.491
215.9244, 1203.623
216.4065, 1226.485
216.8886, 1253.283
217.3708, 1284.862
217.8529, 1319.770
218.3350, 1358.578
218.8171, 1399.585
219.2992, 1440.847
219.7813, 1485.663
220.2635, 1530.684
220.7456, 1552.219
221.2277, 1546.301
221.7098, 1517.218
222.1919, 1459.648
222.6740, 1382.518
223.1562, 1298.463
223.6383, 1214.129
224.1204, 1130.413
224.6025, 1058.339
225.0846, 1001.855
225.5667, 955.3420
226.0489, 919.9257
226.5310, 893.2880
227.0131, 872.1708
227.4952, 854.4435
227.9773, 840.1041
228.4594, 827.6230
228.9416, 817.7271
229.4237, 809.1199
229.9058, 801.7609
230.3879, 795.5073
230.8700, 790.3271
231.3521, 786.2242
231.8343, 783.1335
232.3164, 780.1823
232.7985, 777.2220
233.2806, 774.5361
233.7627, 772.1815
234.2448, 770.1519
234.7270, 768.4888
235.2091, 767.2800
235.6912, 766.4318
236.1733, 765.0178
236.6554, 762.1414
237.1375, 759.7614
237.6197, 758.5064
238.1018, 758.2199
238.5839, 758.5764
239.0660, 759.5003
239.5481, 760.8367
240.0302, 761.7055
240.5124, 762.5135
240.9945, 762.5555
241.4766, 761.2106
241.9587, 758.8655
242.4408, 756.4231
242.9229, 754.2394
243.4051, 752.4043
243.8872, 751.1391
244.3693, 750.4560
244.8514, 750.1901
245.3335, 750.5801
245.8156, 751.3959
246.2978, 751.8535
246.7799, 751.4208
247.2620, 750.6464
247.7441, 750.7263
248.2262, 751.8554
248.7083, 753.2630
249.1905, 755.0149
249.6726, 756.8420
250.1547, 757.6242
250.6368, 756.4484
251.1189, 754.6068
251.6010, 754.2625
252.0832, 755.7120
252.5653, 757.1059
253.0474, 757.1237
253.5295, 756.1171
254.0116, 755.7469
254.4937, 756.8578
254.9759, 758.3087
255.4580, 758.5814
255.9401, 757.6262
256.4222, 756.9500
256.9043, 757.6174
257.3864, 759.4155
257.8686, 761.3441
258.3507, 763.6015
258.8328, 765.3964
259.3149, 765.7949
259.7970, 764.9732
260.2791, 764.4477
260.7613, 765.2551
261.2434, 767.2155
261.7255, 769.4167
262.2076, 772.0936
262.6897, 774.5283
263.1718, 776.3811
263.6540, 777.6743
264.1361, 778.4995
264.6182, 778.6503
265.1003, 778.2744
265.5824, 778.2911
266.0645, 778.8969
266.5467, 779.6747
267.0288, 780.2105
267.5109, 780.7245
267.9930, 781.7015
268.4751, 783.5491
268.9572, 786.0990
269.4394, 788.6155
269.9215, 791.1222
270.4036, 793.5671
270.8857, 795.5258
271.3678, 797.4843
271.8499, 800.3389
272.3321, 804.8950
272.8142, 810.4245
273.2963, 814.1510
273.7784, 814.5399
274.2605, 815.6354
274.7426, 818.8563
275.2248, 823.2260
275.7069, 827.5087
276.1890, 831.1094
276.6711, 834.4528
277.1532, 838.6163
277.6353, 843.8904
278.1175, 849.5380
278.5996, 855.3854
279.0817, 861.4662
279.5638, 867.6003
280.0459, 873.7491
280.5280, 880.4487
281.0102, 889.0322
281.4923, 900.6735
281.9744, 911.6984
282.4565, 920.4926
282.9386, 929.3300
283.4207, 939.8412
283.9029, 952.4693
284.3850, 966.6039
284.8671, 981.4639
285.3492, 997.3514
285.8313, 1013.248
286.3134, 1029.096
286.7956, 1044.968
287.2777, 1061.120
287.7598, 1077.416
288.2419, 1093.407
288.7240, 1108.447
289.2061, 1121.839
289.6883, 1136.515
290.1704, 1152.792
290.6525, 1169.868
291.1346, 1187.353
291.6167, 1205.312
292.0988, 1223.993
292.5810, 1243.691
293.0631, 1264.418
293.5452, 1285.616
294.0273, 1306.869
294.5094, 1329.045
294.9915, 1351.717
295.4737, 1375.554
295.9558, 1401.776
296.4379, 1431.204
296.9200, 1463.903
297.4021, 1499.002
297.8842, 1537.469
298.3664, 1577.622
298.8485, 1618.905
299.3306, 1661.687
299.8127, 1706.127
300.2948, 1752.104
300.7769, 1799.862
301.2591, 1850.209
301.7412, 1905.864
302.2233, 1960.750
302.7054, 2015.864
303.1875, 2068.895
303.6696, 2119.058
304.1518, 2165.692
304.6339, 2206.171
305.1160, 2235.604
305.5981, 2255.322
306.0802, 2258.936
306.5623, 2244.633
307.0445, 2216.897
307.5266, 2176.800
308.0087, 2125.674
308.4908, 2067.643
308.9729, 2007.778
309.4550, 1942.993
309.9372, 1884.857
310.4193, 1829.517
310.9014, 1782.111
311.3835, 1746.810
311.8656, 1723.155
312.3477, 1707.693
312.8299, 1697.515
313.3120, 1693.078
313.7941, 1690.759
314.2762, 1691.585
314.7583, 1693.165
315.2404, 1694.110
315.7226, 1694.955
316.2047, 1697.109
316.6868, 1701.553
317.1689, 1708.265
317.6510, 1717.010
318.1331, 1727.697
318.6153, 1740.577
319.0974, 1754.261
319.5795, 1770.467
320.0616, 1791.815
320.5437, 1819.716
321.0258, 1853.219
321.5080, 1889.663
321.9901, 1930.644
322.4722, 1972.492
322.9543, 2014.207
323.4364, 2056.927
323.9185, 2101.926
324.4007, 2149.344
324.8828, 2199.409
325.3649, 2251.736
325.8470, 2304.448
326.3291, 2364.175
326.8112, 2432.233
327.2934, 2505.581
327.7755, 2584.099
328.2576, 2666.781
328.7397, 2751.619
329.2218, 2838.287
329.7039, 2930.501
330.1861, 3006.059
330.6682, 3070.837
331.1503, 3116.378
331.6324, 3142.765
332.1145, 3147.085
332.5966, 3122.097
333.0788, 3060.638
333.5609, 2964.356
334.0430, 2861.501
334.5251, 2736.439
335.0072, 2620.655
335.4893, 2516.809
335.9715, 2427.218
336.4536, 2354.651
336.9357, 2300.988
337.4178, 2264.551
337.8999, 2241.952
338.3820, 2235.793
338.8642, 2241.700
339.3463, 2258.878
339.8284, 2286.852
340.3105, 2325.094
340.7926, 2373.616
341.2747, 2432.479
341.7568, 2502.898
342.2390, 2588.600
342.7211, 2676.608
343.2032, 2768.128
343.6853, 2860.135
344.1674, 2956.694
344.6495, 3054.018
345.1317, 3141.268
345.6138, 3211.260
346.0959, 3265.100
346.5780, 3283.213
347.0601, 3257.036
347.5422, 3199.140
348.0244, 3103.313
348.5065, 2978.206
348.9886, 2834.969
349.4707, 2678.890
349.9528, 2513.711
350.4349, 2356.973
350.9171, 2203.556
351.3992, 2066.127
351.8813, 1945.482
352.3634, 1840.078
352.8455, 1750.241
353.3276, 1675.644
353.8098, 1613.648
354.2919, 1560.529
354.7740, 1516.359
355.2561, 1481.317
355.7382, 1458.350
356.2203, 1441.880
356.7025, 1429.073
357.1846, 1419.761
357.6667, 1415.667
358.1488, 1419.117
358.6309, 1430.245
359.1130, 1444.082
359.5952, 1460.745
360.0773, 1480.396
360.5594, 1501.910
361.0415, 1526.236
361.5236, 1555.333
362.0057, 1590.995
362.4879, 1631.752
362.9700, 1673.836
363.4521, 1717.134
363.9342, 1761.644
364.4163, 1807.582
364.8984, 1854.552
365.3806, 1902.422
365.8627, 1951.470
366.3448, 2000.833
366.8269, 2048.932
367.3090, 2095.623
367.7911, 2144.099
368.2733, 2193.990
368.7554, 2247.161
369.2375, 2303.986
369.7196, 2364.901
370.2017, 2431.313
370.6838, 2504.346
371.1660, 2583.703
371.6481, 2666.930
372.1302, 2752.333
372.6123, 2844.841
373.0944, 2948.212
373.5765, 3060.258
374.0587, 3178.587
374.5408, 3303.491
375.0229, 3432.718
375.5050, 3566.343
375.9871, 3705.448
376.4692, 3835.726
376.9514, 3953.430
377.4335, 4054.410
377.9156, 4135.615
378.3977, 4198.169
378.8798, 4236.905
379.3619, 4245.480
379.8441, 4226.350
380.3262, 4189.553
380.8083, 4136.142
381.2904, 4067.683
381.7725, 3986.794
382.2546, 3895.014
382.7368, 3787.226
383.2189, 3659.335
383.7010, 3514.809
384.1831, 3355.429
384.6652, 3180.134
385.1473, 3002.097
385.6295, 2826.669
386.1116, 2656.240
386.5937, 2495.030
387.0758, 2342.301
387.5579, 2200.528
388.0400, 2071.810
388.5222, 1955.865
389.0043, 1849.696
389.4864, 1752.462
389.9685, 1664.342
390.4506, 1587.442
390.9327, 1522.452
391.4149, 1463.071
391.8970, 1408.102
392.3791, 1358.013
392.8612, 1314.015
393.3433, 1276.317
393.8254, 1242.616
394.3076, 1210.651
394.7897, 1180.426
395.2718, 1152.761
395.7539, 1127.771
396.2360, 1104.832
396.7181, 1084.030
397.2003, 1065.134
397.6824, 1047.964
398.1645, 1032.340
398.6466, 1018.256
399.1287, 1005.192
399.6108, 993.9783
400.0930, 982.9364
400.5751, 971.1113
401.0572, 959.7214
401.5393, 950.1467
402.0214, 942.7809
402.5035, 936.6959
402.9857, 930.5263
403.4678, 924.0255
403.9499, 918.2128
404.4320, 913.9570
404.9141, 909.4769
405.3962, 903.5558
405.8784, 896.5768
406.3605, 889.7308
406.8426, 883.8676
407.3247, 878.9434
407.8068, 874.9865
408.2889, 872.8034
408.7711, 870.4869
409.2532, 867.5593
409.7353, 864.3151
410.2174, 860.9122
410.6995, 857.4109
411.1816, 854.2270
411.6638, 852.1376
412.1459, 851.4166
412.6280, 850.3319
413.1101, 848.3622
413.5922, 846.2069
414.0743, 844.3074
414.5565, 842.6053
415.0386, 840.7197
415.5207, 838.1125
416.0028, 835.1149
416.4849, 833.0164
416.9670, 832.1156
417.4492, 831.3818
417.9313, 830.3071
418.4134, 829.0712
418.8955, 827.8522
419.3776, 826.6173
419.8597, 825.5921
420.3419, 824.8172
420.8240, 824.3463
421.3061, 824.8815
421.7882, 827.3293
422.2703, 829.8898
422.7524, 829.8926
423.2346, 827.4201
423.7167, 825.9583
424.1988, 827.3768
424.6809, 830.2367
425.1630, 832.8013
425.6451, 834.8988
426.1273, 836.5479
426.6094, 837.5745
427.0915, 838.1280
427.5736, 839.0945
428.0557, 839.9996
428.5378, 841.7943
429.0200, 845.4903
429.5021, 850.3244
429.9842, 854.6824
430.4663, 857.9752
430.9484, 860.7459
431.4305, 863.8604
431.9127, 867.4364
432.3948, 871.1500
432.8769, 874.5616
433.3590, 878.4261
433.8411, 883.4990
434.3232, 889.6087
434.8054, 895.9622
435.2875, 901.9254
435.7696, 907.5350
436.2517, 913.3219
436.7338, 919.4631
437.2159, 925.5939
437.6981, 930.8647
438.1802, 936.4369
438.6623, 943.9142
439.1444, 953.7131
439.6265, 964.5262
440.1086, 974.2120
440.5908, 981.9996
441.0729, 991.1931
441.5550, 1002.211
442.0371, 1014.373
442.5192, 1027.402
443.0013, 1041.352
443.4835, 1056.376
443.9656, 1072.444
444.4477, 1089.706
444.9298, 1108.110
445.4119, 1127.641
445.8940, 1148.629
446.3762, 1170.611
446.8583, 1194.477
447.3404, 1220.830
447.8225, 1249.735
448.3046, 1281.354
448.7867, 1315.285
449.2689, 1351.702
449.7510, 1392.079
450.2331, 1436.491
450.7152, 1484.945
451.1973, 1536.909
451.6794, 1592.570
452.1616, 1654.266
452.6437, 1721.894
453.1258, 1796.274
453.6079, 1878.432
454.0900, 1968.115
454.5721, 2062.747
455.0543, 2161.073
455.5364, 2263.954
456.0185, 2374.712
456.5006, 2493.924
456.9827, 2614.132
457.4648, 2736.427
457.9470, 2857.187
458.4291, 2973.318
458.9112, 3084.284
459.3933, 3191.560
459.8754, 3295.914
460.3575, 3397.754
460.8397, 3504.239
461.3218, 3613.063
461.8039, 3728.492
462.2860, 3850.029
462.7681, 3979.596
463.2502, 4119.442
463.7324, 4270.294
464.2145, 4429.667
464.6966, 4593.389
465.1787, 4757.726
465.6608, 4935.418
466.1429, 5128.420
466.6251, 5331.408
467.1072, 5543.016
467.5893, 5763.459
468.0714, 5994.100
468.5535, 6236.838
469.0356, 6489.238
469.5178, 6747.489
469.9999, 7018.521
470.4820, 7279.135
470.9641, 7535.638
471.4462, 7772.937
471.9283, 7986.521
472.4105, 8173.484
472.8926, 8309.839
473.3747, 8387.201
473.8568, 8400.587
474.3389, 8329.109
474.8210, 8168.842
475.3032, 7931.297
475.7853, 7597.593
476.2674, 7193.111
476.7495, 6761.700
477.2316, 6295.866
477.7137, 5829.137
478.1959, 5372.284
478.6780, 4934.197
479.1601, 4529.616
479.6422, 4165.926
480.1243, 3839.359
480.6064, 3550.238
481.0886, 3300.371
481.5707, 3079.589
482.0528, 2893.765
482.5349, 2732.419
483.0170, 2593.726
483.4991, 2474.795
483.9813, 2370.286
484.4634, 2277.063
484.9455, 2194.730
485.4276, 2121.671
485.9097, 2062.313
486.3918, 2006.849
486.8740, 1952.890
487.3561, 1903.936
487.8382, 1863.005
488.3203, 1829.808
488.8024, 1801.897
489.2845, 1777.008
489.7667, 1755.239
490.2488, 1737.457
490.7309, 1724.209
491.2130, 1714.335
491.6951, 1707.403
492.1772, 1703.126
492.6594, 1701.125
493.1415, 1701.297
493.6236, 1704.184
494.1057, 1710.911
494.5878, 1721.178
495.0699, 1732.256
495.5521, 1743.826
496.0342, 1756.223
496.5163, 1770.551
496.9984, 1785.851
497.4805, 1799.883
497.9626, 1813.358
498.4448, 1823.994
498.9269, 1832.221
499.4090, 1836.483
499.8911, 1831.124
500.3732, 1814.198
500.8553, 1786.788
501.3375, 1748.875
501.8196, 1698.709
502.3017, 1646.283
502.7838, 1591.796
503.2659, 1535.566
503.7480, 1474.914
504.2302, 1412.361
504.7123, 1353.621
505.1944, 1301.853
505.6765, 1256.447
506.1586, 1215.382
506.6407, 1178.769
507.1228, 1146.654
507.6049, 1119.990
508.0871, 1096.435
508.5692, 1074.391
509.0513, 1053.829
509.5334, 1035.678
510.0155, 1020.901
510.4977, 1008.987
510.9798, 997.8380
511.4619, 987.0212
511.9440, 977.9171
512.4261, 971.3406
512.9083, 966.4094
513.3904, 962.8968
513.8725, 960.7591
514.3546, 958.4795
514.8367, 953.7807
515.3188, 948.1116
515.8010, 945.7822
516.2831, 947.5350
516.7652, 950.8583
517.2473, 954.1299
517.7294, 957.7297
518.2115, 962.7145
518.6937, 970.0045
519.1758, 977.3520
519.6579, 983.4779
520.1400, 989.0854
520.6221, 995.3969
521.1042, 1002.718
521.5864, 1010.282
522.0685, 1017.244
522.5506, 1023.520
523.0327, 1030.182
523.5148, 1037.430
523.9969, 1044.851
524.4791, 1051.760
524.9612, 1058.938
525.4433, 1067.526
525.9254, 1077.853
526.4075, 1089.359
526.8896, 1100.855
527.3718, 1111.935
527.8539, 1125.061
528.3360, 1141.599
528.8181, 1158.734
529.3002, 1175.118
529.7823, 1191.251
530.2645, 1208.094
530.7466, 1225.859
531.2287, 1244.847
531.7108, 1265.298
532.1929, 1287.207
532.6750, 1310.885
533.1572, 1337.465
533.6393, 1364.012
534.1214, 1388.459
534.6035, 1410.681
535.0856, 1428.918
535.5677, 1442.492
536.0499, 1452.215
536.5320, 1459.474
537.0141, 1463.544
537.4962, 1461.972
537.9783, 1453.536
538.4604, 1440.229
538.9426, 1425.486
539.4247, 1408.714
539.9068, 1391.522
540.3889, 1371.511
540.8710, 1353.432
541.3531, 1339.128
541.8353, 1328.738
542.3174, 1321.954
542.7995, 1318.678
543.2816, 1318.396
543.7637, 1319.765
544.2458, 1322.224
544.7280, 1328.247
545.2101, 1339.145
545.6922, 1353.048
546.1743, 1369.180
546.6564, 1387.560
547.1385, 1408.055
547.6207, 1430.528
548.1028, 1455.327
548.5849, 1482.756
549.0670, 1512.866
549.5491, 1545.731
550.0313, 1581.236
550.5134, 1619.519
550.9955, 1661.166
551.4776, 1705.913
551.9597, 1751.965
552.4418, 1800.434
552.9240, 1848.571
553.4061, 1896.045
553.8882, 1941.503
554.3703, 1982.309
554.8524, 2017.623
555.3345, 2045.547
555.8167, 2062.167
556.2988, 2068.532
556.7809, 2060.078
557.2630, 2035.712
557.7451, 1999.706
558.2272, 1951.277
558.7094, 1893.049
559.1915, 1829.977
559.6736, 1764.006
560.1557, 1696.455
560.6378, 1629.451
561.1199, 1562.977
561.6021, 1498.630
562.0842, 1435.726
562.5663, 1376.919
563.0484, 1323.619
563.5305, 1275.838
564.0126, 1232.922
564.4948, 1195.608
564.9769, 1162.307
565.4590, 1131.820
565.9411, 1104.166
566.4232, 1079.632
566.9053, 1058.472
567.3875, 1040.022
567.8696, 1023.198
568.3517, 1008.181
568.8338, 994.8406
569.3159, 984.3773
569.7980, 974.5009
570.2802, 963.5538
570.7623, 952.3403
571.2444, 942.3972
571.7265, 934.4838
572.2086, 928.1052
572.6907, 922.4818
573.1729, 917.5175
573.6550, 913.5280
574.1371, 911.3873
574.6192, 909.3389
575.1013, 906.0446
575.5834, 902.3158
576.0656, 899.8883
576.5477, 899.6236
577.0298, 900.3739
577.5119, 901.0859
577.9940, 901.7617
578.4761, 902.2355
578.9583, 902.2285
579.4404, 902.8330
579.9225, 905.4537
580.4046, 909.9774
580.8867, 913.6415
581.3688, 915.2324
581.8510, 917.2054
582.3331, 920.9014
582.8152, 925.5556
583.2973, 929.8441
583.7794, 933.4486
584.2615, 937.4883
584.7437, 943.2769
585.2258, 950.8828
585.7079, 958.9631
586.1900, 967.2452
586.6721, 976.5352
587.1542, 987.3979
587.6363, 999.1286
588.1184, 1010.692
588.6005, 1021.939
589.0826, 1034.127
589.5648, 1048.423
590.0469, 1064.602
590.5290, 1081.654
591.0111, 1099.445
