##NAMES=Baddeleyite
##RRUFFID=R100171
##IDEAL CHEMISTRY=Zr^4+^O_2_
##LOCALITY=Palabora Mine, Phalaborwa, Transvaal, Republic of South Africa 
##OWNER=RRUFF
##SOURCE=Mauricio Ibanez-Mejia
##DESCRIPTION=Fragments of black prismatic crystals
##STATUS=The identification of this mineral has been confirmed by single-crystal X-ray diffraction.
##URL=rruff.info/R100171
137.3708, 405.2524
137.8529, 405.1633
138.3350, 405.9919
138.8171, 406.7660
139.2992, 407.1542
139.7813, 407.2902
140.2635, 407.5713
140.7456, 408.4075
141.2277, 409.9545
141.7098, 410.5014
142.1919, 409.4697
142.6740, 408.1502
143.1561, 406.9622
143.6383, 406.0458
144.1204, 405.6751
144.6025, 406.2335
145.0846, 407.9064
145.5667, 409.5193
146.0488, 410.8500
146.5310, 412.1823
147.0131, 413.9604
147.4952, 416.3594
147.9773, 418.7118
148.4594, 419.9112
148.9415, 420.1819
149.4237, 420.9585
149.9058, 422.8838
150.3879, 425.7198
150.8700, 428.7133
151.3521, 431.5128
151.8342, 434.9057
152.3164, 439.3385
152.7985, 444.7627
153.2806, 451.0117
153.7627, 457.9687
154.2448, 465.6463
154.7269, 473.9485
155.2091, 482.2067
155.6912, 491.7082
156.1733, 503.9744
156.6554, 518.8313
157.1375, 533.8849
157.6196, 546.3718
158.1018, 555.8654
158.5839, 563.7910
159.0660, 570.2405
159.5481, 575.4203
160.0302, 578.9081
160.5123, 580.7842
160.9945, 582.0098
161.4766, 584.2194
161.9587, 587.7179
162.4408, 591.9826
162.9229, 597.1261
163.4050, 602.8873
163.8871, 608.8741
164.3693, 614.9672
164.8514, 621.4971
165.3335, 629.3547
165.8156, 639.4769
166.2977, 649.5763
166.7798, 658.8400
167.2620, 668.0859
167.7441, 678.4537
168.2262, 690.4018
168.7083, 703.8531
169.1904, 718.6940
169.6725, 735.7538
170.1547, 752.3750
170.6368, 766.8146
171.1189, 779.7451
171.6010, 793.3985
172.0831, 808.6252
172.5652, 825.4233
173.0474, 843.2880
173.5295, 861.6855
174.0116, 882.0214
174.4937, 906.7386
174.9758, 935.8730
175.4579, 963.3497
175.9401, 989.6918
176.4222, 1010.984
176.9043, 1023.582
177.3864, 1027.584
177.8685, 1020.953
178.3506, 999.1013
178.8328, 958.6920
179.3149, 914.3534
179.7970, 865.9515
180.2791, 818.2843
180.7612, 775.6676
181.2433, 739.3010
181.7255, 709.0574
182.2076, 684.8091
182.6897, 668.1227
183.1718, 655.3720
183.6539, 645.3453
184.1360, 638.1033
184.6181, 633.9145
185.1003, 632.9330
185.5824, 634.8622
186.0645, 638.6411
186.5466, 644.5971
187.0287, 652.4020
187.5108, 663.7476
187.9930, 676.3565
188.4751, 688.1625
188.9572, 698.1475
189.4393, 705.6582
189.9214, 706.5045
190.4035, 700.9813
190.8857, 688.5490
191.3678, 666.1809
191.8499, 637.0055
192.3320, 605.2665
192.8141, 572.9031
193.2962, 540.5897
193.7784, 513.5822
194.2605, 491.5373
194.7426, 473.5422
195.2247, 460.2811
195.7068, 450.9780
196.1889, 443.5690
196.6711, 436.9892
197.1532, 431.3477
197.6353, 426.7212
198.1174, 423.2357
198.5995, 420.4879
199.0816, 418.2663
199.5638, 416.5740
200.0459, 415.4919
200.5280, 415.1895
201.0101, 415.5600
201.4922, 416.1270
201.9743, 417.3799
202.4565, 418.3228
202.9386, 417.8247
203.4207, 415.8432
203.9028, 413.9843
204.3849, 413.2150
204.8670, 413.0921
205.3492, 413.0005
205.8313, 412.8026
206.3134, 412.6397
206.7955, 412.7209
207.2776, 413.0968
207.7597, 413.4833
208.2419, 413.7615
208.7240, 413.9790
209.2061, 414.1281
209.6882, 414.1409
210.1703, 414.2147
210.6524, 414.7568
211.1346, 415.9702
211.6167, 417.1181
212.0988, 417.6791
212.5809, 418.1802
213.0630, 419.1847
213.5451, 420.9464
214.0273, 423.1741
214.5094, 425.1913
214.9915, 426.7814
215.4736, 428.5641
215.9557, 430.5659
216.4378, 432.8214
216.9200, 435.3285
217.4021, 438.0652
217.8842, 441.1526
218.3663, 445.0576
218.8484, 451.6880
219.3305, 456.2229
219.8127, 457.5306
220.2948, 456.9204
220.7769, 455.8347
221.2590, 454.9311
221.7411, 453.7461
222.2232, 450.8960
222.7054, 445.0510
223.1875, 438.9250
223.6696, 431.9868
224.1517, 425.0819
224.6338, 419.2593
225.1159, 414.9660
225.5980, 411.7985
226.0802, 408.6027
226.5623, 404.7990
227.0444, 401.6904
227.5265, 399.9170
228.0086, 398.7406
228.4907, 397.2090
228.9729, 394.9072
229.4550, 392.1718
229.9371, 389.8722
230.4192, 387.6077
230.9013, 386.3293
231.3834, 386.8332
231.8656, 388.2809
232.3477, 389.4000
232.8298, 389.6690
233.3119, 389.5464
233.7940, 390.1441
234.2761, 391.9166
234.7583, 393.1514
235.2404, 393.1587
235.7225, 392.3871
236.2046, 391.4047
236.6867, 390.1849
237.1688, 389.3576
237.6510, 390.5226
238.1331, 394.0908
238.6152, 396.7617
239.0973, 396.8433
239.5794, 395.2810
240.0615, 393.9671
240.5437, 393.2621
241.0258, 393.2550
241.5079, 394.3311
241.9900, 396.4793
242.4721, 398.3919
242.9542, 399.5960
243.4364, 400.1558
243.9185, 400.0272
244.4006, 398.7472
244.8827, 397.6410
245.3648, 398.4286
245.8469, 400.8307
246.3290, 402.7566
246.8112, 402.8158
247.2933, 401.5780
247.7754, 400.8044
248.2575, 400.8787
248.7396, 401.1741
249.2217, 401.1558
249.7039, 400.9186
250.1860, 400.7908
250.6681, 401.0205
251.1502, 401.5119
251.6323, 401.9694
252.1144, 402.5608
252.5966, 402.7802
253.0787, 402.0726
253.5608, 400.8111
254.0429, 399.8347
254.5250, 399.7481
255.0071, 400.3266
255.4893, 400.6569
255.9714, 400.4577
256.4535, 400.4789
256.9356, 401.4672
257.4177, 402.8116
257.8998, 403.4200
258.3820, 402.3483
258.8641, 400.2685
259.3462, 399.7517
259.8283, 402.2176
260.3104, 403.8975
260.7925, 403.1369
261.2747, 401.1196
261.7568, 399.3251
262.2389, 398.4260
262.7210, 398.2986
263.2031, 398.6635
263.6852, 399.9752
264.1674, 400.9995
264.6495, 401.4447
265.1316, 401.5077
265.6137, 401.3150
266.0958, 400.9038
266.5779, 400.4329
267.0601, 400.2986
267.5422, 400.6927
268.0243, 401.1056
268.5064, 401.5703
268.9885, 401.9629
269.4706, 402.0425
269.9528, 401.7453
270.4349, 401.4363
270.9170, 401.8938
271.3991, 403.7282
271.8812, 405.1268
272.3633, 405.8784
272.8455, 406.2830
273.3276, 406.4195
273.8097, 406.3670
274.2918, 406.3666
274.7739, 406.8406
275.2560, 408.1830
275.7382, 409.1558
276.2202, 409.7163
276.7024, 410.0265
277.1845, 409.8976
277.6666, 409.4663
278.1487, 409.3725
278.6308, 410.5434
279.1129, 413.6641
279.5951, 415.6304
280.0772, 415.4228
280.5593, 415.1554
281.0414, 415.9894
281.5235, 417.8868
282.0056, 420.1339
282.4878, 422.1337
282.9699, 423.9795
283.4520, 424.8861
283.9341, 423.1001
284.4162, 422.1957
284.8983, 424.5719
285.3805, 429.2123
285.8626, 433.1940
286.3447, 434.1337
286.8268, 432.0984
287.3089, 431.3080
287.7910, 432.6778
288.2732, 434.1964
288.7553, 435.4547
289.2374, 436.4385
289.7195, 437.1103
290.2016, 437.3933
290.6837, 437.4567
291.1659, 438.3033
291.6480, 441.3468
292.1301, 443.5054
292.6122, 443.4244
293.0943, 442.3658
293.5764, 442.1756
294.0586, 443.7193
294.5407, 446.3651
295.0228, 448.4118
295.5049, 449.4078
295.9870, 450.3163
296.4691, 450.8162
296.9513, 451.3983
297.4334, 452.7286
297.9155, 454.9936
298.3976, 457.6464
298.8797, 459.7619
299.3618, 460.9537
299.8440, 462.2894
300.3261, 464.1921
300.8082, 465.9643
301.2903, 466.8697
301.7724, 466.8409
302.2545, 466.6084
302.7367, 467.0249
303.2188, 468.2611
303.7009, 469.5928
304.1830, 471.5037
304.6651, 473.1194
305.1472, 473.6185
305.6294, 473.1578
306.1115, 472.7485
306.5936, 473.3313
307.0757, 474.9950
307.5578, 475.8595
308.0399, 474.8250
308.5221, 474.2207
309.0042, 475.1683
309.4863, 477.3956
309.9684, 479.9835
310.4505, 482.2799
310.9326, 484.4792
311.4148, 487.9372
311.8969, 493.3329
312.3790, 499.0014
312.8611, 504.8728
313.3432, 510.6986
313.8253, 516.1432
314.3075, 521.0230
314.7896, 525.4871
315.2717, 529.9428
315.7538, 534.7772
316.2359, 539.0585
316.7180, 542.0831
317.2001, 544.7960
317.6823, 548.3361
318.1644, 553.0308
318.6465, 558.1580
319.1286, 562.6142
319.6107, 565.7867
320.0928, 569.7355
320.5750, 574.7215
321.0571, 580.2825
321.5392, 586.2159
322.0213, 592.4092
322.5034, 598.6986
322.9855, 604.8089
323.4677, 610.6894
323.9498, 617.2285
324.4319, 624.3058
324.9140, 632.0366
325.3961, 640.5610
325.8782, 649.8035
326.3604, 659.6556
326.8425, 670.0632
327.3246, 681.0042
327.8067, 692.4843
328.2888, 704.9972
328.7709, 717.4291
329.2531, 730.5804
329.7352, 743.2444
330.2173, 753.8369
330.6994, 761.6719
331.1815, 766.5061
331.6636, 767.6191
332.1458, 765.4482
332.6279, 758.5079
333.1100, 745.8177
333.5921, 728.8518
334.0742, 707.9485
334.5563, 683.6268
335.0385, 657.7488
335.5206, 633.1419
336.0027, 609.8658
336.4848, 587.7889
336.9669, 566.2260
337.4490, 546.0295
337.9312, 527.3345
338.4133, 510.3138
338.8954, 495.7675
339.3775, 484.6439
339.8596, 477.2023
340.3417, 469.6837
340.8239, 461.3560
341.3060, 453.7180
341.7881, 447.4700
342.2702, 442.3021
342.7523, 437.5655
343.2344, 432.8660
343.7166, 428.3123
344.1987, 424.4887
344.6808, 422.3423
345.1629, 419.8767
345.6450, 416.4316
346.1271, 412.7951
346.6093, 410.0801
347.0914, 408.6642
347.5735, 407.6489
348.0556, 405.3161
348.5377, 400.6852
349.0198, 396.4369
349.5020, 392.3864
349.9841, 388.7929
350.4662, 386.1642
350.9483, 384.3762
351.4304, 382.5976
351.9125, 379.8112
352.3947, 375.7164
352.8768, 372.6709
353.3589, 371.1034
353.8410, 370.1464
354.3231, 369.9655
354.8052, 370.1628
355.2874, 369.9419
355.7695, 368.6443
356.2516, 366.6075
356.7337, 365.7950
357.2158, 367.3934
357.6979, 368.6552
358.1800, 368.7725
358.6621, 368.4520
359.1443, 368.4468
359.6264, 369.0479
360.1085, 370.0683
360.5906, 371.2189
361.0727, 372.5785
361.5548, 373.8676
362.0370, 375.1661
362.5191, 376.3110
363.0012, 377.0636
363.4833, 377.4818
363.9654, 377.9463
364.4475, 378.8569
364.9297, 380.2361
365.4118, 381.6985
365.8939, 383.6151
366.3760, 385.1765
366.8581, 385.7208
367.3402, 385.6891
367.8224, 385.9931
368.3045, 387.2252
368.7866, 389.1001
369.2687, 390.8616
369.7508, 392.6528
370.2329, 393.9749
370.7151, 393.9705
371.1972, 393.7836
371.6793, 394.7393
372.1614, 397.3188
372.6435, 400.2741
373.1256, 401.8949
373.6078, 402.0555
374.0899, 402.7015
374.5720, 404.7550
375.0541, 406.9664
375.5362, 408.4255
376.0183, 409.1507
376.5005, 409.6269
376.9826, 410.2175
377.4647, 410.8221
377.9468, 411.1161
378.4289, 411.1464
378.9110, 410.6951
379.3932, 409.2516
379.8753, 407.2638
380.3574, 405.6489
380.8395, 405.4095
381.3216, 404.9993
381.8037, 402.2411
382.2859, 397.0874
382.7680, 391.7005
383.2501, 386.6077
383.7322, 382.1390
384.2143, 378.8993
384.6964, 377.4335
385.1786, 375.3712
385.6607, 370.8279
386.1428, 364.6682
386.6249, 359.0946
387.1070, 354.6172
387.5891, 350.8868
388.0713, 347.6947
388.5534, 344.9908
389.0355, 342.3438
389.5176, 339.4546
389.9997, 336.7155
390.4818, 334.7114
390.9640, 333.4065
391.4461, 331.9179
391.9282, 329.4112
392.4103, 326.2582
392.8924, 324.3724
393.3745, 325.0392
393.8567, 325.4457
394.3388, 324.2191
394.8209, 321.9847
395.3030, 319.8515
395.7851, 318.1703
396.2672, 317.0200
396.7494, 316.6272
397.2315, 317.5689
397.7136, 317.8705
398.1957, 317.0247
398.6778, 315.7901
399.1599, 314.7404
399.6420, 313.9500
400.1241, 313.2365
400.6063, 312.4327
401.0884, 311.5298
401.5705, 310.7777
402.0526, 309.7682
402.5347, 309.3301
403.0168, 310.2933
403.4990, 311.8847
403.9811, 312.7961
404.4632, 312.3902
404.9453, 311.2178
405.4274, 310.6541
405.9095, 311.5056
406.3917, 311.5922
406.8738, 309.8774
407.3559, 308.1604
407.8380, 307.9624
408.3201, 309.2906
408.8022, 310.8648
409.2844, 311.4254
409.7665, 310.9112
410.2486, 310.2555
410.7307, 309.3164
411.2128, 308.3771
411.6949, 307.0551
412.1771, 305.8802
412.6592, 305.8259
413.1413, 307.5288
413.6234, 310.0700
414.1055, 311.4176
414.5876, 311.2022
415.0698, 310.9283
415.5519, 311.2506
416.0340, 311.4324
416.5161, 310.5541
416.9982, 308.6323
417.4803, 307.2515
417.9625, 308.2744
418.4446, 311.2637
418.9267, 313.1830
419.4088, 313.5312
419.8909, 313.2959
420.3730, 313.0027
420.8552, 312.6355
421.3373, 312.1148
421.8194, 311.1261
422.3015, 310.2690
422.7836, 310.4010
423.2657, 311.5103
423.7479, 312.6834
424.2300, 313.6396
424.7121, 314.3902
425.1942, 314.9369
425.6763, 315.2169
426.1584, 315.6128
426.6406, 316.7083
427.1227, 317.9098
427.6048, 317.9922
428.0869, 316.6827
428.5690, 315.2028
429.0511, 314.6100
429.5333, 314.9581
430.0154, 315.5263
430.4975, 316.1654
430.9796, 317.1644
431.4617, 319.1224
431.9438, 321.5855
432.4260, 323.3831
432.9081, 323.9192
433.3902, 323.6122
433.8723, 323.4355
434.3544, 323.6292
434.8365, 323.5406
435.3187, 322.5365
435.8008, 321.6453
436.2829, 321.7816
436.7650, 322.9943
437.2471, 324.7404
437.7292, 326.5910
438.2114, 328.5674
438.6935, 330.0616
439.1756, 330.3349
439.6577, 330.9519
440.1398, 332.5839
440.6219, 334.6703
441.1040, 336.4153
441.5862, 337.4799
442.0683, 338.1948
442.5504, 339.1967
443.0325, 340.7051
443.5146, 341.8391
443.9967, 341.3345
444.4789, 341.4405
444.9610, 343.8078
445.4431, 348.0017
445.9252, 352.1948
446.4073, 354.9565
446.8894, 356.6713
447.3716, 358.7271
447.8537, 361.0078
448.3358, 363.9214
448.8179, 367.9266
449.3000, 372.5514
449.7821, 377.4769
450.2643, 382.7397
450.7464, 387.8126
451.2285, 391.5685
451.7106, 394.5127
452.1927, 399.2560
452.6748, 406.7094
453.1570, 415.1974
453.6391, 423.1869
454.1212, 430.7852
454.6033, 438.4876
455.0854, 446.1311
455.5675, 454.0854
456.0497, 462.7950
456.5318, 472.1703
457.0139, 481.8251
457.4960, 491.5443
457.9781, 501.4549
458.4602, 512.1520
458.9424, 524.7098
459.4245, 535.7440
459.9066, 543.5856
460.3887, 550.1855
460.8708, 557.3318
461.3529, 565.3697
461.8351, 573.9797
462.3172, 582.9908
462.7993, 592.3679
463.2814, 601.5934
463.7635, 609.8259
464.2456, 618.8692
464.7278, 630.3019
465.2099, 642.5300
465.6920, 653.2023
466.1741, 661.4879
466.6562, 668.5652
467.1383, 676.1849
467.6205, 684.1216
468.1026, 693.5433
468.5847, 706.1824
469.0668, 718.8187
469.5489, 729.8077
470.0310, 739.5425
470.5132, 749.3273
470.9953, 760.2547
471.4774, 771.5123
471.9595, 781.1527
472.4416, 789.2128
472.9237, 795.5143
473.4059, 799.9750
473.8880, 802.4789
474.3701, 803.4378
474.8522, 802.9787
475.3343, 798.6133
475.8164, 787.5746
476.2986, 771.5500
476.7807, 754.3749
477.2628, 736.5090
477.7449, 717.6234
478.2270, 696.9861
478.7091, 675.0067
479.1913, 653.7722
479.6734, 632.8177
480.1555, 613.2916
480.6376, 596.0340
481.1197, 580.6265
481.6018, 566.0267
482.0839, 551.8691
482.5660, 538.7988
483.0482, 527.7060
483.5303, 519.0903
484.0124, 511.1138
484.4945, 503.6815
484.9766, 496.9475
485.4587, 490.9752
485.9409, 485.7420
486.4230, 481.1950
486.9051, 477.2839
487.3872, 474.0094
487.8693, 471.5102
488.3514, 470.5712
488.8336, 468.8792
489.3157, 465.1277
489.7978, 461.5875
490.2799, 459.9705
490.7620, 460.1629
491.2441, 460.8201
491.7263, 460.9027
492.2084, 460.5598
492.6905, 460.4432
493.1726, 460.4286
493.6547, 460.9488
494.1368, 462.4024
494.6190, 464.3741
495.1011, 466.5135
495.5832, 468.7631
496.0653, 471.1358
496.5474, 473.6958
497.0295, 476.3721
497.5117, 479.0402
497.9938, 481.7823
498.4759, 484.0807
498.9580, 485.3473
499.4401, 485.7484
499.9222, 486.2873
500.4044, 487.8912
500.8865, 488.7523
501.3686, 488.1934
501.8507, 486.1904
502.3328, 482.5213
502.8149, 477.0888
503.2971, 470.5244
503.7792, 463.6994
504.2613, 456.5389
504.7434, 449.1362
505.2255, 441.1501
505.7076, 433.2954
506.1898, 425.5799
506.6719, 418.2841
507.1540, 411.9843
507.6361, 406.9903
508.1182, 402.9795
508.6003, 399.2962
509.0825, 396.0228
509.5646, 392.8460
510.0467, 389.3458
510.5288, 386.2765
511.0109, 384.0697
511.4930, 382.6742
511.9752, 381.7940
512.4573, 381.3497
512.9394, 381.2313
513.4215, 381.2426
513.9036, 381.4181
514.3857, 381.4752
514.8679, 381.0418
515.3500, 380.6432
515.8321, 380.7920
516.3142, 381.4682
516.7963, 382.9722
517.2784, 386.3655
517.7606, 390.2370
518.2427, 392.2934
518.7248, 392.4330
519.2069, 392.7138
519.6890, 394.5807
520.1711, 397.6739
520.6533, 400.1345
521.1354, 401.2559
521.6175, 402.8044
522.0996, 405.6156
522.5817, 408.6673
523.0638, 410.8051
523.5460, 411.9154
524.0281, 412.7738
524.5102, 414.0701
524.9923, 415.7939
525.4744, 417.8814
525.9565, 420.6936
526.4387, 423.3847
526.9208, 425.4849
527.4029, 427.5511
527.8850, 430.1132
528.3671, 433.3144
528.8492, 437.0357
529.3314, 441.6663
529.8135, 446.9871
530.2956, 450.6038
530.7777, 451.4081
531.2598, 452.5151
531.7419, 456.5843
532.2241, 462.0790
532.7062, 466.5619
533.1883, 469.2068
533.6704, 471.5452
534.1525, 475.2138
534.6346, 479.3115
535.1168, 481.6687
535.5989, 481.7467
536.0810, 480.5499
536.5631, 479.0406
537.0452, 477.1974
537.5273, 474.5527
538.0095, 470.9313
538.4916, 466.7758
538.9737, 462.1492
539.4558, 457.1080
539.9379, 451.4936
540.4200, 445.3294
540.9022, 439.2192
541.3843, 434.0260
541.8664, 429.8199
542.3485, 426.1428
542.8306, 423.3589
543.3127, 420.7697
543.7948, 417.6479
544.2769, 414.7427
544.7590, 413.5228
545.2411, 414.7232
545.7233, 416.2740
546.2054, 415.0919
546.6875, 411.4317
547.1696, 409.2669
547.6517, 409.6325
548.1339, 410.7590
548.6160, 411.0984
549.0981, 410.9965
549.5802, 411.5067
550.0623, 413.4055
550.5444, 415.3416
551.0266, 416.4304
551.5087, 416.9052
551.9908, 417.3039
552.4729, 417.7900
552.9550, 418.1950
553.4371, 418.2570
553.9193, 417.8524
554.4014, 417.8864
554.8835, 419.2538
555.3656, 420.0154
555.8477, 419.1208
556.3298, 417.2918
556.8120, 415.6605
557.2941, 414.6266
557.7762, 413.7008
558.2583, 412.2363
558.7404, 410.2386
559.2225, 407.6592
559.7047, 403.7663
560.1868, 400.2873
560.6689, 398.2937
561.1510, 397.1324
561.6331, 395.6871
562.1152, 393.6039
562.5974, 391.2295
563.0795, 388.6291
563.5616, 385.9671
564.0437, 383.9003
564.5258, 382.6090
565.0079, 381.6656
565.4901, 380.7732
565.9722, 379.9157
566.4543, 378.8795
566.9364, 377.4409
567.4185, 376.0851
567.9006, 375.1230
568.3828, 374.3120
568.8649, 373.2017
569.3470, 371.7233
569.8291, 370.2945
570.3112, 369.4083
570.7933, 369.0783
571.2755, 369.0136
571.7576, 369.7399
572.2397, 370.0541
572.7218, 369.5724
573.2039, 368.5925
573.6860, 367.2969
574.1682, 365.7474
574.6503, 364.4020
575.1324, 363.6483
575.6145, 363.4543
576.0966, 363.7707
576.5787, 364.7031
577.0609, 365.7220
577.5430, 366.5870
578.0251, 367.2772
578.5072, 367.7465
578.9893, 367.8581
579.4714, 368.0561
579.9536, 368.6528
580.4357, 369.3550
580.9178, 369.8251
581.3999, 370.0184
581.8820, 369.9890
582.3641, 369.7075
582.8463, 369.2993
583.3284, 369.4904
583.8105, 370.6025
584.2926, 371.8949
584.7747, 373.3964
585.2568, 374.9893
585.7390, 376.5277
586.2211, 378.0532
586.7032, 379.7657
587.1853, 381.7624
587.6674, 384.0821
588.1495, 386.8911
588.6317, 390.2746
589.1138, 393.6539
589.5959, 396.8598
590.0780, 399.9854
590.5601, 403.0550
591.0422, 406.0741
591.5244, 409.2614
592.0065, 412.6078
592.4886, 416.1976
592.9707, 419.9165
593.4528, 423.8824
593.9349, 428.4706
594.4171, 433.8192
594.8992, 439.9632
595.3813, 447.1249
595.8634, 455.9775
596.3455, 463.8675
596.8276, 470.3192
597.3098, 476.4449
597.7919, 482.4345
598.2740, 488.5121
598.7561, 495.0466
599.2382, 502.2156
599.7203, 509.5919
600.2025, 516.3053
600.6846, 522.4348
601.1667, 530.3948
601.6488, 541.8035
602.1309, 552.2331
602.6130, 557.1749
603.0952, 559.1459
603.5773, 563.0699
604.0594, 570.2545
604.5415, 578.2053
605.0236, 585.8309
605.5057, 593.3870
605.9879, 601.3167
606.4700, 609.6411
606.9521, 617.8868
607.4342, 625.5216
607.9163, 632.7120
608.3984, 640.9026
608.8806, 651.2129
609.3627, 660.9550
609.8448, 670.1453
610.3269, 678.5119
610.8090, 685.8984
611.2911, 692.2647
611.7733, 697.5770
612.2554, 701.7259
612.7375, 704.8783
613.2196, 707.8384
613.7017, 710.8145
614.1838, 711.3546
614.6660, 707.9725
615.1481, 702.7422
615.6302, 698.3664
616.1123, 694.7358
616.5944, 689.2101
617.0765, 679.5131
617.5587, 669.4183
618.0408, 661.2416
618.5229, 654.6553
619.0050, 648.8654
619.4871, 643.5745
619.9692, 638.4772
620.4514, 633.0341
620.9335, 626.9901
621.4156, 622.3817
621.8977, 619.7916
622.3798, 618.0457
622.8619, 617.0205
623.3441, 616.5883
623.8262, 616.5294
624.3083, 616.8075
624.7904, 617.8984
625.2725, 620.8736
625.7546, 624.9001
626.2367, 627.3327
626.7188, 627.8727
627.2009, 628.9023
627.6830, 631.7754
628.1652, 635.8353
628.6473, 639.7064
629.1294, 643.3881
629.6115, 646.9023
630.0936, 650.5925
630.5757, 653.8394
631.0579, 656.0997
631.5400, 657.5446
632.0221, 658.8312
632.5042, 660.3067
632.9863, 661.3781
633.4684, 660.8422
633.9506, 658.4500
634.4327, 655.6808
634.9148, 652.9833
