##NAMES=Baddeleyite
##RRUFFID=R100171
##IDEAL CHEMISTRY=Zr^4+^O_2_
##LOCALITY=Palabora Mine, Phalaborwa, Transvaal, Republic of South Africa 
##OWNER=RRUFF
##SOURCE=Mauricio Ibanez-Mejia
##DESCRIPTION=Fragments of black prismatic crystals
##STATUS=The identification of this mineral has been confirmed by single-crystal X-ray diffraction.
##URL=rruff.info/R100171
168.1739, 342.9269
168.6560, 353.2573
169.1381, 363.9049
169.6203, 374.5742
170.1024, 382.5013
170.5845, 388.9006
171.0666, 395.2587
171.5487, 401.5217
172.0309, 407.6967
172.5130, 414.2422
172.9951, 421.8342
173.4772, 429.9403
173.9593, 437.7564
174.4414, 443.7235
174.9236, 449.8605
175.4057, 458.9363
175.8878, 471.0560
176.3699, 482.8843
176.8520, 493.0396
177.3341, 501.0219
177.8163, 505.6862
178.2984, 506.6536
178.7805, 504.0472
179.2626, 497.1698
179.7447, 485.9496
180.2268, 472.9787
180.7090, 459.4914
181.1911, 446.1484
181.6732, 435.2370
182.1553, 429.0517
182.6374, 425.8485
183.1195, 421.9385
183.6017, 416.9698
184.0838, 412.4901
184.5659, 409.8709
185.0480, 409.0868
185.5301, 409.9852
186.0123, 412.3904
186.4944, 416.3941
186.9765, 422.7416
187.4586, 431.9364
187.9407, 441.8551
188.4228, 449.5850
188.9050, 455.2495
189.3871, 460.4528
189.8692, 467.2962
190.3513, 474.7834
190.8334, 477.6407
191.3155, 475.2162
191.7977, 469.2042
192.2798, 461.9413
192.7619, 453.4427
193.2440, 443.6629
193.7261, 431.3619
194.2082, 416.9777
194.6904, 405.1221
195.1725, 396.2863
195.6546, 389.5016
196.1367, 383.2972
196.6188, 377.5862
197.1009, 373.0136
197.5831, 370.1699
198.0652, 369.0186
198.5473, 368.1830
199.0294, 367.6178
199.5115, 367.2738
199.9937, 367.0534
200.4758, 366.9484
200.9579, 366.9936
201.4400, 367.4703
201.9221, 368.4746
202.4042, 368.3665
202.8864, 366.6353
203.3685, 364.1588
203.8506, 363.2081
204.3327, 364.1613
204.8148, 365.1232
205.2969, 364.8925
205.7791, 363.2338
206.2612, 362.1904
206.7433, 362.1599
207.2254, 362.5976
207.7075, 361.9113
208.1896, 359.6499
208.6718, 357.5761
209.1539, 356.7357
209.6360, 357.3917
210.1181, 358.0168
210.6002, 358.6249
211.0823, 359.1116
211.5645, 359.1080
212.0466, 358.4486
212.5287, 357.7111
213.0108, 357.2624
213.4929, 357.2494
213.9750, 356.9286
214.4572, 356.1089
214.9393, 355.0216
215.4214, 354.3528
215.9035, 354.2406
216.3856, 354.2555
216.8678, 354.1107
217.3499, 353.6265
217.8320, 353.5746
218.3141, 354.1679
218.7962, 355.1502
219.2783, 355.6705
219.7605, 355.4475
220.2426, 355.2437
220.7247, 355.6201
221.2068, 357.1274
221.6889, 357.5411
222.1710, 356.2614
222.6532, 353.9473
223.1353, 352.8094
223.6174, 353.5272
224.0995, 354.2771
224.5816, 354.2305
225.0637, 353.4437
225.5459, 351.5950
226.0280, 347.9839
226.5101, 343.4539
226.9922, 340.8383
227.4743, 341.1403
227.9564, 341.7349
228.4386, 341.3108
228.9207, 339.3735
229.4028, 337.6006
229.8849, 335.8834
230.3670, 334.3693
230.8492, 333.5230
231.3313, 333.8460
231.8134, 334.0885
232.2955, 333.5640
232.7776, 331.5926
233.2597, 330.4699
233.7419, 330.3446
234.2240, 331.0436
234.7061, 332.3148
235.1882, 335.1315
235.6703, 337.0575
236.1524, 336.7148
236.6346, 332.1237
237.1167, 329.9473
237.5988, 331.2738
238.0809, 334.5984
238.5630, 336.3401
239.0451, 335.4162
239.5273, 334.5092
240.0094, 334.7993
240.4915, 336.9764
240.9736, 338.4667
241.4557, 338.7431
241.9378, 338.5635
242.4200, 339.6973
242.9021, 343.4647
243.3842, 346.4908
243.8663, 347.2436
244.3484, 344.5677
244.8306, 343.1219
245.3127, 343.4476
245.7948, 344.7256
246.2769, 345.3564
246.7590, 344.6162
247.2411, 344.4720
247.7233, 346.0043
248.2054, 350.2534
248.6875, 352.1617
249.1696, 350.6236
249.6517, 347.4845
250.1338, 345.6879
250.6160, 345.5545
251.0981, 346.2185
251.5802, 347.7154
252.0623, 350.4627
252.5444, 351.8360
253.0265, 351.1193
253.5087, 349.6107
253.9908, 349.2139
254.4729, 350.4614
254.9550, 351.7233
255.4371, 352.4178
255.9192, 352.3755
256.4014, 353.2494
256.8835, 355.8480
257.3656, 358.5595
257.8477, 359.2347
258.3298, 356.7133
258.8120, 354.7701
259.2941, 354.5047
259.7762, 356.0421
260.2583, 357.1381
260.7404, 357.7664
261.2225, 357.9884
261.7047, 357.7948
262.1868, 356.9545
262.6689, 356.2907
263.1510, 356.0430
263.6331, 356.1940
264.1152, 356.0706
264.5974, 355.5025
265.0795, 354.9231
265.5616, 354.8452
266.0437, 355.5061
266.5258, 355.8845
267.0079, 355.7405
267.4901, 355.1379
267.9722, 354.5168
268.4543, 353.6703
268.9364, 353.2252
269.4185, 353.8611
269.9006, 355.8860
270.3828, 357.6214
270.8649, 358.6490
271.3470, 359.2163
271.8291, 360.7049
272.3112, 363.5358
272.7933, 366.2062
273.2755, 367.4825
273.7576, 367.1607
274.2397, 366.8150
274.7218, 366.5319
275.2039, 366.3850
275.6860, 366.7332
276.1682, 367.7406
276.6503, 368.6388
277.1324, 368.5654
277.6145, 367.3487
278.0966, 367.7611
278.5787, 370.5887
279.0609, 374.4957
279.5430, 376.2576
280.0251, 375.4995
280.5072, 374.9279
280.9893, 376.2691
281.4715, 379.5034
281.9536, 382.2100
282.4357, 384.1878
282.9178, 385.8022
283.3999, 387.7671
283.8820, 390.1129
284.3642, 392.1502
284.8463, 393.1520
285.3284, 393.2825
285.8105, 394.5996
286.2926, 397.2962
286.7747, 400.5681
287.2569, 403.5942
287.7390, 406.3527
288.2211, 408.3938
288.7032, 409.1481
289.1853, 408.9702
289.6674, 409.4708
290.1496, 410.7000
290.6317, 412.2998
291.1138, 414.1379
291.5959, 416.1345
292.0780, 417.6245
292.5602, 418.1683
293.0423, 418.1648
293.5244, 418.6487
294.0065, 419.6376
294.4886, 420.7550
294.9707, 421.7112
295.4529, 422.5329
295.9350, 423.3034
296.4171, 424.0930
296.8992, 424.8094
297.3813, 425.3070
297.8634, 425.5847
298.3456, 425.6317
298.8277, 425.0959
299.3098, 424.3354
299.7919, 424.1801
300.2740, 424.9103
300.7561, 426.1239
301.2383, 427.4905
301.7204, 428.9580
302.2025, 430.1918
302.6846, 431.1302
303.1667, 431.6719
303.6488, 431.4947
304.1310, 430.2998
304.6131, 429.1695
305.0952, 429.6192
305.5773, 431.0714
306.0594, 431.9635
306.5415, 430.9106
307.0237, 429.1602
307.5058, 428.3024
307.9879, 428.6941
308.4700, 428.5276
308.9521, 425.2260
309.4343, 420.5329
309.9164, 417.4392
310.3985, 418.9338
310.8806, 421.3350
311.3627, 421.6075
311.8448, 419.5949
312.3270, 417.6165
312.8091, 417.4425
313.2912, 417.9628
313.7733, 417.8659
314.2554, 415.5464
314.7375, 413.4798
315.2197, 413.1983
315.7018, 414.5182
316.1839, 415.8471
316.6660, 416.4596
317.1481, 416.7843
317.6302, 417.1898
318.1124, 418.2864
318.5945, 418.8354
319.0766, 417.8012
319.5587, 415.7381
320.0408, 414.5495
320.5229, 415.6514
321.0051, 417.2153
321.4872, 418.2075
321.9693, 418.1123
322.4514, 418.0914
322.9335, 418.3907
323.4156, 418.9194
323.8978, 419.5017
324.3799, 420.0717
324.8620, 420.7230
325.3441, 421.4352
325.8262, 422.0834
326.3083, 423.1652
326.7905, 425.4118
327.2726, 427.8955
327.7547, 429.4472
328.2368, 429.0410
328.7189, 428.7442
329.2010, 428.9377
329.6832, 429.6507
330.1653, 430.5320
330.6474, 432.2982
331.1295, 433.7161
331.6116, 433.7665
332.0938, 431.7873
332.5759, 429.4771
333.0580, 427.0516
333.5401, 424.4634
334.0222, 421.6140
334.5043, 418.8110
334.9865, 415.2920
335.4686, 410.3012
335.9507, 402.8290
336.4328, 396.6455
336.9149, 392.2585
337.3970, 389.0545
337.8792, 385.3769
338.3613, 380.6917
338.8434, 376.8838
339.3255, 374.9560
339.8076, 375.1481
340.2898, 375.4271
340.7719, 375.8419
341.2540, 376.2751
341.7361, 376.4610
342.2182, 376.3429
342.7003, 376.5157
343.1825, 377.2926
343.6646, 378.5721
344.1467, 379.6872
344.6288, 380.6698
345.1109, 381.3706
345.5930, 381.5694
346.0752, 381.2973
346.5573, 381.0448
347.0394, 381.3184
347.5215, 381.3387
348.0036, 379.0682
348.4857, 374.5476
348.9679, 369.4130
349.4500, 364.7846
349.9321, 360.4413
350.4142, 355.8040
350.8963, 350.7888
351.3784, 345.3955
351.8606, 339.0861
352.3427, 332.2996
352.8248, 326.5263
353.3069, 323.1302
353.7890, 321.1252
354.2711, 319.3200
354.7533, 317.6853
355.2354, 315.7814
355.7175, 312.8905
356.1996, 309.5274
356.6817, 306.5899
357.1638, 304.5248
357.6460, 302.9789
358.1281, 301.7658
358.6102, 300.8667
359.0923, 300.0652
359.5744, 298.8797
360.0565, 297.9023
360.5387, 297.7626
361.0208, 299.4622
361.5029, 300.9976
361.9850, 301.2401
362.4671, 300.5656
362.9492, 300.1221
363.4314, 300.5764
363.9135, 301.1751
364.3956, 301.3947
364.8777, 300.7279
365.3598, 300.7430
365.8419, 302.6791
366.3241, 305.2967
366.8062, 306.7218
367.2883, 305.3195
367.7704, 304.0248
368.2526, 303.5556
368.7347, 303.9881
369.2168, 304.9549
369.6989, 306.8446
370.1810, 309.0125
370.6631, 310.9374
371.1453, 312.2812
371.6274, 313.8967
372.1095, 316.0082
372.5916, 318.5316
373.0737, 320.8250
373.5558, 322.8224
374.0380, 324.7153
374.5201, 326.6934
375.0022, 328.9053
375.4843, 330.5674
375.9664, 331.3764
376.4485, 331.8653
376.9307, 333.2393
377.4128, 335.7165
377.8949, 338.1147
378.3770, 340.1028
378.8591, 341.6560
379.3412, 342.2370
379.8234, 341.7116
380.3055, 340.6689
380.7876, 339.7892
381.2697, 339.0421
381.7518, 338.0026
382.2339, 336.5425
382.7161, 334.7437
383.1982, 332.8477
383.6803, 330.8602
384.1624, 328.4190
384.6445, 325.3999
385.1266, 321.7392
385.6088, 316.9854
386.0909, 310.7232
386.5730, 304.5027
387.0551, 300.4179
387.5372, 297.9705
388.0193, 295.6621
388.5015, 292.7500
388.9836, 289.5897
389.4657, 286.4456
389.9478, 283.3219
390.4299, 280.5196
390.9120, 278.4517
391.3942, 276.7505
391.8763, 274.9940
392.3584, 272.9559
392.8405, 270.9007
393.3226, 269.0274
393.8047, 267.2782
394.2869, 265.3846
394.7690, 263.1812
395.2511, 260.8441
395.7332, 258.3437
396.2154, 255.0862
396.6975, 252.9142
397.1796, 252.9578
397.6617, 254.2000
398.1438, 254.8886
398.6259, 254.5814
399.1081, 253.9079
399.5902, 252.9202
400.0723, 251.5470
400.5544, 250.3747
401.0365, 249.6346
401.5186, 248.9129
402.0008, 247.8120
402.4829, 245.7625
402.9650, 244.4400
403.4471, 244.4032
403.9292, 245.2256
404.4113, 244.9951
404.8935, 243.2286
405.3756, 241.5196
405.8577, 240.9331
406.3398, 241.7578
406.8219, 241.4386
407.3040, 239.5872
407.7862, 237.2883
408.2683, 236.1044
408.7504, 236.0627
409.2325, 236.3363
409.7146, 236.9263
410.1967, 237.5614
410.6789, 237.2442
411.1610, 235.9538
411.6431, 234.3382
412.1252, 232.4441
412.6073, 230.6380
413.0894, 230.1575
413.5716, 231.5831
414.0537, 233.6694
414.5358, 235.2221
415.0179, 236.2198
415.5000, 236.6472
415.9821, 236.0266
416.4643, 235.0695
416.9464, 234.4556
417.4285, 234.2392
417.9106, 234.3290
418.3927, 234.9267
418.8748, 235.7053
419.3570, 236.2675
419.8391, 236.2749
420.3212, 236.2434
420.8033, 236.4851
421.2854, 236.9112
421.7675, 237.1053
422.2497, 236.5806
422.7318, 236.0653
423.2139, 235.9660
423.6960, 236.4920
424.1781, 237.0834
424.6602, 237.9501
425.1424, 238.7803
425.6245, 239.0745
426.1066, 237.9180
426.5887, 237.3881
427.0709, 238.0672
427.5530, 239.9532
428.0351, 241.8070
428.5172, 243.9518
428.9993, 245.6420
429.4814, 246.1932
429.9636, 245.2311
430.4457, 244.5322
430.9278, 244.1844
431.4099, 244.2303
431.8920, 244.9517
432.3741, 246.4694
432.8563, 247.7669
433.3384, 248.3211
433.8205, 248.2281
434.3026, 248.0808
434.7847, 247.8658
435.2668, 247.6948
435.7490, 247.6241
436.2311, 247.6804
436.7132, 248.0149
437.1953, 248.8619
437.6774, 249.7297
438.1595, 249.6387
438.6417, 248.8747
439.1238, 248.6203
439.6059, 250.1351
440.0880, 252.2443
440.5701, 253.7933
441.0522, 254.6661
441.5344, 254.9325
442.0165, 254.0135
442.4986, 252.7205
442.9807, 252.0530
443.4628, 253.1094
443.9449, 254.0993
444.4271, 254.1049
444.9092, 253.3317
445.3913, 252.9977
445.8734, 253.7935
446.3555, 254.8048
446.8376, 255.5957
447.3198, 256.1068
447.8019, 256.4369
448.2840, 256.3578
448.7661, 256.1952
449.2482, 256.3776
449.7303, 256.8248
450.2125, 257.8013
450.6946, 259.7265
451.1767, 262.4657
451.6588, 263.7186
452.1409, 262.9335
452.6230, 261.9710
453.1052, 262.1386
453.5873, 263.4988
454.0694, 265.2365
454.5515, 267.3510
455.0337, 269.6765
455.5158, 272.0215
455.9979, 274.3823
456.4800, 276.4047
456.9621, 277.8555
457.4442, 278.9069
457.9264, 279.7545
458.4085, 280.4172
458.8906, 281.5447
459.3727, 284.2189
459.8548, 287.5684
460.3369, 290.0035
460.8191, 290.8018
461.3012, 291.6067
461.7833, 293.8300
462.2654, 297.0410
462.7475, 300.3283
463.2296, 303.3046
463.7118, 306.2839
464.1939, 309.4855
464.6760, 312.9520
465.1581, 316.3298
465.6402, 319.3987
466.1223, 322.3724
466.6045, 325.3597
467.0866, 328.8927
467.5687, 331.7677
468.0508, 332.9582
468.5329, 333.5529
469.0150, 336.1246
469.4972, 342.0157
469.9793, 347.7915
470.4614, 352.2868
470.9435, 355.4276
471.4256, 358.9043
471.9077, 363.0102
472.3899, 366.8788
472.8720, 369.6208
473.3541, 371.1814
473.8362, 372.7855
474.3183, 374.8397
474.8004, 376.6792
475.2826, 377.1172
475.7647, 376.1649
476.2468, 373.9853
476.7289, 370.0168
477.2110, 364.9825
477.6931, 360.8681
478.1753, 357.6646
478.6574, 353.7906
479.1395, 347.4257
479.6216, 339.7028
480.1037, 332.1939
480.5858, 325.0175
481.0680, 318.6350
481.5501, 313.8280
482.0322, 310.0161
482.5143, 306.0329
482.9964, 300.2565
483.4786, 295.2156
483.9607, 292.7377
484.4428, 293.1952
484.9249, 292.3793
485.4070, 288.0664
485.8892, 283.1060
486.3713, 279.5125
486.8534, 277.9362
487.3355, 276.8840
487.8176, 276.6685
488.2997, 276.8422
488.7819, 276.3911
489.2640, 275.0003
489.7461, 273.6573
490.2282, 272.5244
490.7103, 271.6283
491.1924, 271.8051
491.6746, 273.2671
492.1567, 274.9149
492.6388, 275.7434
493.1209, 275.8473
493.6030, 275.9760
494.0851, 276.2293
494.5673, 276.5450
495.0494, 276.5595
495.5315, 276.4869
496.0136, 277.0965
496.4957, 279.5681
496.9778, 282.4232
497.4600, 283.9466
497.9421, 284.2354
498.4242, 284.4121
498.9063, 285.4334
499.3884, 286.4836
499.8705, 286.6804
500.3527, 285.2220
500.8348, 284.4821
501.3169, 286.2375
501.7990, 288.9704
502.2811, 290.5511
502.7632, 290.3010
503.2454, 289.1692
503.7275, 286.9197
504.2096, 283.7135
504.6917, 281.0834
505.1738, 278.8958
505.6559, 277.5025
506.1381, 277.4416
506.6202, 279.4102
507.1023, 279.7138
507.5844, 277.8572
508.0665, 275.2386
508.5486, 273.8716
509.0308, 273.7863
509.5129, 273.3782
509.9950, 272.0792
510.4771, 270.3428
510.9592, 269.0964
511.4413, 268.3136
511.9235, 267.7191
512.4056, 267.2676
512.8877, 266.8421
513.3698, 266.0234
513.8519, 264.7159
514.3340, 264.0180
514.8162, 265.4492
515.2983, 267.6895
515.7804, 269.1575
516.2625, 269.1173
516.7446, 268.5685
517.2267, 267.2458
517.7089, 265.6942
518.1910, 265.2720
518.6731, 267.6410
519.1552, 269.9080
519.6373, 270.9703
520.1194, 270.7206
520.6016, 270.4861
521.0837, 270.0048
521.5658, 269.8271
522.0479, 270.3781
522.5300, 271.7689
523.0121, 273.5435
523.4943, 275.9016
523.9764, 278.3173
524.4585, 279.8305
524.9406, 280.4056
525.4227, 280.5678
525.9048, 280.0188
526.3870, 279.4221
526.8691, 280.9092
527.3513, 284.3436
527.8334, 287.5360
528.3155, 288.4568
528.7976, 288.3494
529.2797, 289.0753
529.7618, 290.9638
530.2440, 293.0872
530.7261, 295.2870
531.2082, 297.1657
531.6903, 298.1758
532.1724, 296.9225
532.6545, 296.0755
533.1367, 296.7526
533.6188, 298.5716
534.1009, 300.1769
534.5830, 301.3158
535.0651, 302.2477
535.5472, 302.9933
536.0294, 303.5172
536.5115, 304.2229
536.9936, 305.3905
537.4757, 306.3525
537.9578, 306.3492
538.4399, 305.1255
538.9221, 304.6125
539.4042, 305.1358
539.8863, 306.2154
540.3684, 307.1761
540.8505, 307.9974
541.3326, 308.4148
541.8148, 307.9970
542.2969, 307.3034
542.7790, 307.5340
543.2611, 308.5594
543.7432, 309.3545
544.2253, 308.9819
544.7075, 308.1565
545.1896, 307.4437
545.6717, 306.8097
546.1538, 306.9344
546.6359, 308.9248
547.1180, 311.5250
547.6002, 313.3753
548.0823, 313.2801
548.5644, 313.4261
549.0465, 314.4843
549.5286, 316.0802
550.0107, 317.0532
550.4929, 316.5710
550.9750, 316.7358
551.4571, 318.4821
551.9392, 321.8280
552.4213, 324.3508
552.9034, 326.0445
553.3856, 326.9892
553.8677, 327.0845
554.3498, 326.3853
554.8319, 325.4507
555.3140, 324.2373
555.7961, 323.1615
556.2783, 322.7898
556.7604, 323.0048
557.2425, 323.5474
557.7246, 324.9929
558.2067, 326.0283
558.6888, 324.9624
559.1710, 322.3142
559.6531, 319.8347
560.1352, 318.8684
560.6173, 317.9597
561.0994, 316.0233
561.5815, 312.7658
562.0637, 310.2651
562.5458, 309.7671
563.0279, 309.6267
563.5100, 308.6021
563.9921, 305.8658
564.4742, 303.6653
564.9564, 302.0776
565.4385, 301.0186
565.9206, 300.5513
566.4027, 300.8849
566.8848, 300.7278
567.3669, 299.5667
567.8491, 297.7274
568.3312, 296.2631
568.8133, 295.1686
569.2954, 294.1703
569.7775, 292.9250
570.2596, 291.7148
570.7418, 291.2961
571.2239, 291.7397
571.7060, 291.9760
572.1881, 290.6609
572.6702, 288.9347
573.1523, 288.1715
573.6345, 289.5716
574.1166, 290.4243
574.5987, 289.0939
575.0808, 286.6904
575.5629, 285.0329
576.0450, 285.0024
576.5272, 285.1381
577.0093, 285.2877
577.4914, 285.4162
577.9735, 285.2014
578.4556, 284.3345
578.9377, 283.7727
579.4199, 284.1217
579.9020, 285.4008
580.3841, 286.4384
580.8662, 287.2407
581.3483, 287.7795
581.8304, 287.8776
582.3126, 287.6618
582.7947, 287.6642
583.2768, 288.1348
583.7589, 288.3818
584.2410, 287.4380
584.7231, 285.7448
585.2053, 284.1774
585.6874, 282.6535
586.1696, 281.7634
586.6517, 282.0825
587.1338, 283.3836
587.6159, 284.6702
588.0980, 285.8374
588.5801, 286.7881
589.0623, 287.4213
589.5444, 287.6846
590.0265, 287.9551
590.5086, 287.9694
590.9907, 288.3307
591.4728, 289.8011
591.9550, 292.7106
592.4371, 294.3430
592.9192, 294.1056
593.4013, 293.4652
593.8834, 294.7216
594.3655, 297.6112
594.8477, 300.4986
595.3298, 302.9582
595.8119, 304.9956
596.2940, 305.8927
596.7761, 306.1965
597.2582, 307.7682
597.7404, 313.3339
598.2225, 319.1679
598.7046, 322.1887
599.1867, 322.2504
599.6688, 323.1400
600.1509, 326.8009
600.6331, 331.0664
601.1152, 334.5043
601.5973, 336.4697
602.0794, 339.0871
602.5615, 342.6042
603.0436, 346.5141
603.5258, 350.3899
604.0079, 354.3925
604.4900, 357.3019
604.9721, 358.5152
605.4542, 359.0977
605.9363, 361.2927
606.4185, 364.9337
606.9006, 368.7254
607.3827, 372.4036
607.8648, 375.6269
608.3469, 377.5101
608.8290, 378.2709
609.3112, 379.0261
609.7933, 380.8618
610.2754, 382.6599
610.7575, 383.5048
611.2396, 383.1696
611.7217, 382.7380
612.2039, 382.7963
612.6860, 382.6780
613.1681, 381.8393
613.6502, 379.7769
614.1323, 377.9134
614.6144, 376.6055
615.0966, 375.2155
615.5787, 372.6477
616.0608, 368.7394
616.5429, 364.7723
617.0250, 361.0887
617.5071, 357.4824
617.9893, 353.4722
618.4714, 349.1072
618.9535, 344.9187
619.4356, 341.2814
619.9177, 337.8400
620.3998, 334.0808
620.8820, 330.0358
621.3641, 326.0538
621.8462, 321.6809
622.3283, 317.8284
622.8104, 315.3459
623.2925, 314.6535
623.7747, 313.9371
624.2568, 312.7708
624.7389, 311.5074
625.2210, 310.3880
625.7031, 309.2157
626.1852, 308.6717
626.6674, 309.0335
627.1495, 309.7637
627.6316, 309.8862
628.1137, 309.3663
628.5958, 309.1002
629.0779, 309.3891
629.5601, 310.0345
630.0422, 310.9443
630.5243, 311.9674
631.0064, 312.4146
631.4885, 311.1967
631.9706, 309.7089
632.4528, 309.5070
632.9349, 310.5019
633.4170, 311.1371
633.8991, 310.3903
634.3812, 309.3349
634.8633, 308.6279
635.3455, 308.5076
635.8276, 308.2129
636.3097, 307.7357
636.7918, 307.0668
637.2739, 306.2260
637.7560, 305.2806
638.2382, 303.8289
638.7203, 301.6903
639.2024, 299.3292
639.6845, 297.3734
640.1666, 295.7960
640.6487, 294.5148
641.1309, 293.6753
641.6130, 292.8358
642.0951, 291.2665
642.5772, 289.1855
643.0594, 287.2789
643.5415, 285.9820
644.0236, 284.8521
644.5057, 283.7105
644.9879, 282.5254
645.4700, 281.1407
645.9521, 279.1289
646.4342, 277.2625
646.9163, 275.8018
647.3984, 274.7161
647.8806, 274.3698
648.3627, 275.2822
648.8448, 275.9768
649.3269, 274.8751
649.8090, 271.9838
650.2911, 270.2680
650.7733, 270.0423
651.2554, 270.4965
651.7375, 270.8818
652.2196, 271.1810
652.7017, 271.3613
653.1838, 271.4279
653.6660, 271.3348
654.1481, 270.8272
654.6302, 270.1652
655.1123, 269.8053
655.5944, 270.0993
656.0765, 270.5008
656.5587, 270.8922
657.0408, 271.2558
657.5229, 271.6124
658.0050, 272.3243
658.4871, 272.3385
658.9692, 270.8959
659.4514, 268.2344
659.9335, 267.1832
660.4156, 267.8871
660.8977, 269.0129
661.3798, 269.8072
661.8619, 270.2692
662.3441, 270.3592
662.8262, 270.0709
663.3083, 269.6347
663.7904, 268.8590
664.2725, 268.2188
664.7546, 268.3567
665.2368, 269.7842
665.7189, 270.9521
