##NAMES=Bahianite
##RRUFFID=R050627
##IDEAL CHEMISTRY=Al_5_Sb^5+^_3_O_14_(OH)_2_
##LOCALITY=Paramirim Region, Bahia, Brazil
##OWNER=RRUFF
##SOURCE=Gemological Center
##DESCRIPTION=Brown water worn pebble
##STATUS=The identification of this mineral has been confirmed by X-ray diffraction and chemical analysis
##URL=rruff.info/R050627
##MEASURED CHEMISTRY=Al_5.00_Sb^5+^_3.00_O_14_(OH)_2_
92.06543, 1501.467
92.54755, 1494.465
93.02966, 1499.994
93.51178, 1514.784
93.99390, 1517.516
94.47601, 1506.559
94.95813, 1486.140
95.44025, 1462.291
95.92236, 1439.808
96.40448, 1418.503
96.88660, 1394.544
97.36871, 1366.841
97.85082, 1339.118
98.33294, 1313.877
98.81506, 1290.653
99.29717, 1266.184
99.77929, 1242.785
100.2614, 1220.698
100.7435, 1199.080
101.2256, 1176.390
101.7078, 1153.632
102.1899, 1133.658
102.6720, 1117.277
103.1541, 1103.383
103.6362, 1090.572
104.1183, 1078.769
104.6005, 1067.426
105.0826, 1055.941
105.5647, 1044.055
106.0468, 1033.246
106.5289, 1024.836
107.0110, 1016.573
107.4931, 1007.213
107.9753, 996.3350
108.4574, 984.3052
108.9395, 971.5342
109.4216, 955.9286
109.9037, 942.9915
110.3858, 935.1367
110.8680, 929.2162
111.3501, 921.6981
111.8322, 910.5274
112.3143, 896.6303
112.7964, 885.8074
113.2785, 879.9844
113.7607, 874.8099
114.2428, 870.1782
114.7249, 865.4979
115.2070, 859.2531
115.6891, 849.9452
116.1712, 837.6493
116.6534, 827.6558
117.1355, 821.2745
117.6176, 816.0829
118.0997, 810.5516
118.5818, 804.5613
119.0639, 797.9288
119.5461, 789.5505
120.0282, 780.1564
120.5103, 772.2574
120.9924, 767.5961
121.4745, 764.9212
121.9566, 761.3369
122.4388, 756.4978
122.9209, 750.7718
123.4030, 743.9449
123.8851, 736.4172
124.3672, 729.5182
124.8493, 724.7502
125.3315, 722.2924
125.8136, 719.1121
126.2957, 714.6088
126.7778, 709.6077
127.2599, 704.0958
127.7420, 698.2426
128.2242, 692.4447
128.7063, 687.3055
129.1884, 683.0922
129.6705, 679.0134
130.1526, 675.7302
130.6347, 672.1531
131.1169, 667.2158
131.5990, 660.6290
132.0811, 653.2263
132.5632, 646.8565
133.0453, 642.3922
133.5274, 637.9302
134.0096, 633.4354
134.4917, 628.8900
134.9738, 624.0656
135.4559, 618.6727
135.9380, 613.3015
136.4201, 610.1488
136.9023, 610.8812
137.3844, 611.1602
137.8665, 608.9498
138.3486, 604.6355
138.8307, 599.8124
139.3128, 594.9575
139.7950, 590.4145
140.2771, 586.8343
140.7592, 584.5419
141.2413, 582.9094
141.7234, 581.4029
142.2055, 580.0504
142.6877, 578.7028
143.1698, 577.4118
143.6519, 576.0500
144.1340, 574.3929
144.6161, 572.1823
145.0982, 569.7133
145.5803, 567.7850
146.0625, 566.6963
146.5446, 565.7084
147.0267, 564.4926
147.5088, 563.1832
147.9909, 561.9584
148.4730, 560.8840
148.9552, 559.9742
149.4373, 559.5463
149.9194, 560.8378
150.4015, 561.4711
150.8836, 560.1791
151.3657, 557.6111
151.8479, 555.3665
152.3300, 554.9863
152.8121, 556.9177
153.2942, 557.9211
153.7763, 557.1785
154.2584, 556.4266
154.7406, 556.5862
155.2227, 557.6840
155.7048, 559.0911
156.1869, 560.0426
156.6690, 560.1835
157.1511, 561.4345
157.6333, 564.4501
158.1154, 568.1755
158.5975, 571.5345
159.0796, 574.2816
159.5617, 577.2020
160.0438, 581.3552
160.5260, 586.6813
161.0081, 592.7969
161.4902, 600.4020
161.9723, 608.6332
162.4544, 616.1349
162.9365, 622.8543
163.4187, 628.0682
163.9008, 631.7010
164.3829, 633.9024
164.8650, 632.9178
165.3471, 626.9152
165.8292, 616.4250
166.3113, 604.9096
166.7935, 592.6603
167.2756, 579.8010
167.7577, 566.1191
168.2398, 551.6458
168.7219, 537.4841
169.2040, 524.4095
169.6862, 512.3085
170.1683, 502.2126
170.6504, 495.0456
171.1325, 489.5514
171.6146, 485.5936
172.0967, 483.0255
172.5789, 481.0548
173.0610, 478.5869
173.5431, 475.4989
174.0252, 472.1358
174.5073, 467.9093
174.9894, 463.8102
175.4716, 460.4834
175.9537, 458.1671
176.4358, 456.7289
176.9179, 455.9327
177.4000, 456.0592
177.8821, 456.5652
178.3643, 457.5744
178.8464, 458.8729
179.3285, 460.1527
179.8106, 461.2928
180.2927, 462.5465
180.7748, 464.6248
181.2570, 468.7859
181.7391, 472.2177
182.2212, 474.4478
182.7033, 475.7920
183.1854, 476.5661
183.6675, 476.8202
184.1497, 476.8094
184.6318, 477.3806
185.1139, 478.6736
185.5960, 480.1447
186.0781, 482.0879
186.5602, 484.1463
187.0423, 485.0955
187.5245, 483.8359
188.0066, 481.5716
188.4887, 481.0840
188.9708, 482.6938
189.4529, 485.3680
189.9350, 488.6976
190.4172, 492.6361
190.8993, 496.8636
191.3814, 501.3675
191.8635, 506.0218
192.3456, 510.5463
192.8277, 514.6233
193.3099, 519.1179
193.7920, 525.0160
194.2741, 532.4578
194.7562, 540.3640
195.2383, 548.6536
195.7204, 557.0726
196.2026, 565.7123
196.6847, 574.9426
197.1668, 583.4735
197.6489, 589.3509
198.1310, 592.2079
198.6131, 593.2921
199.0953, 592.7640
199.5774, 590.9416
200.0595, 588.1014
200.5416, 584.3801
201.0237, 579.4752
201.5058, 572.6229
201.9880, 562.9068
202.4701, 552.6705
202.9522, 541.1913
203.4343, 530.0123
203.9164, 520.5450
204.3985, 513.4132
204.8807, 508.5508
205.3628, 505.9259
205.8449, 507.3481
206.3270, 508.8970
206.8091, 509.9784
207.2912, 510.9897
207.7733, 512.4029
208.2555, 514.4496
208.7376, 517.0507
209.2197, 519.9207
209.7018, 522.8001
210.1839, 526.2916
210.6660, 530.6407
211.1482, 535.5989
211.6303, 540.7523
212.1124, 545.8708
212.5945, 551.1248
213.0766, 557.4541
213.5587, 566.1437
214.0409, 574.2911
214.5230, 581.1031
215.0051, 587.0099
215.4872, 592.8253
215.9693, 598.9358
216.4514, 605.2650
216.9336, 611.4987
217.4157, 618.3857
217.8978, 624.3304
218.3799, 628.9442
218.8620, 632.2429
219.3441, 634.4389
219.8263, 635.8258
220.3084, 635.8015
220.7905, 633.2201
221.2726, 628.5437
221.7547, 621.1357
222.2368, 610.0820
222.7190, 595.8309
223.2011, 579.9057
223.6832, 561.9832
224.1653, 543.5809
224.6474, 527.1087
225.1295, 512.2930
225.6117, 499.8808
226.0938, 491.1049
226.5759, 485.6405
227.0580, 480.9201
227.5401, 475.8667
228.0222, 471.3505
228.5043, 468.4066
228.9865, 467.3574
229.4686, 466.8612
229.9507, 465.6983
230.4328, 463.8799
230.9149, 462.7007
231.3970, 463.0995
231.8792, 463.9425
232.3613, 464.1030
232.8434, 463.3932
233.3255, 462.8429
233.8076, 463.4649
234.2897, 465.3213
234.7719, 467.6234
235.2540, 470.0120
235.7361, 473.0055
236.2182, 476.9146
236.7003, 481.8031
237.1824, 487.5968
237.6646, 494.5650
238.1467, 503.0581
238.6288, 510.9693
239.1109, 518.3054
239.5930, 524.7576
240.0751, 529.9321
240.5573, 533.8622
241.0394, 537.1405
241.5215, 540.1887
242.0036, 542.7554
242.4857, 546.1891
242.9678, 551.4828
243.4500, 556.9131
243.9321, 561.5330
244.4142, 565.3109
244.8963, 568.9274
245.3784, 572.9841
245.8605, 577.2488
246.3427, 582.8666
246.8248, 590.5767
247.3069, 598.8987
247.7890, 607.0782
248.2711, 615.1482
248.7532, 623.5876
249.2354, 633.0081
249.7175, 643.4951
250.1996, 654.6255
250.6817, 666.0484
251.1638, 678.2637
251.6459, 690.8387
252.1281, 704.2507
252.6102, 719.7835
253.0923, 738.9866
253.5744, 762.3325
254.0565, 786.0785
254.5386, 811.2263
255.0208, 835.8096
255.5029, 861.0051
255.9850, 885.3932
256.4671, 906.0386
256.9492, 921.3172
257.4313, 931.9348
257.9135, 926.3799
258.3956, 901.7969
258.8777, 868.0995
259.3598, 824.9809
259.8419, 775.4752
260.3240, 725.6288
260.8062, 679.4590
261.2883, 636.9569
261.7704, 601.2396
262.2525, 572.5707
262.7346, 548.2058
263.2167, 527.5856
263.6989, 510.4311
264.1810, 496.8305
264.6631, 487.0925
265.1452, 480.8482
265.6273, 474.7118
266.1094, 468.0035
266.5916, 462.0991
267.0737, 457.7751
267.5558, 454.6751
268.0379, 451.9237
268.5200, 449.0428
269.0021, 446.1700
269.4843, 443.8746
269.9664, 441.9940
270.4485, 440.7136
270.9306, 440.3390
271.4127, 440.6094
271.8948, 440.9321
272.3770, 440.9937
272.8591, 441.0509
273.3412, 441.9328
273.8233, 444.1731
274.3054, 445.9515
274.7875, 446.1355
275.2697, 445.5343
275.7518, 445.7428
276.2339, 447.4154
276.7160, 449.8610
277.1981, 451.8548
277.6802, 453.4368
278.1623, 454.7369
278.6444, 455.3327
279.1266, 455.7739
279.6087, 457.2528
280.0908, 460.3127
280.5729, 463.5620
281.0550, 464.6087
281.5371, 463.4254
282.0193, 463.1949
282.5014, 465.0760
282.9835, 468.2621
283.4656, 471.8222
283.9477, 475.6982
284.4298, 479.3858
284.9120, 482.0760
285.3941, 483.9283
285.8762, 486.0442
286.3583, 488.6197
286.8404, 491.5874
287.3225, 494.8336
287.8047, 498.3403
288.2868, 502.2643
288.7689, 506.9531
289.2510, 512.2092
289.7331, 517.4493
290.2152, 522.8647
290.6974, 528.0203
291.1795, 532.6245
291.6616, 536.6857
292.1437, 539.7607
292.6258, 541.8867
293.1079, 542.6287
293.5901, 541.2579
294.0722, 537.4438
294.5543, 531.7695
295.0364, 524.2210
295.5185, 514.8542
296.0006, 505.1928
296.4828, 495.7108
296.9649, 486.4881
297.4470, 477.3385
297.9291, 467.6699
298.4112, 459.4532
298.8933, 454.8709
299.3755, 453.3693
299.8576, 451.4037
300.3397, 447.5775
300.8218, 443.0225
301.3039, 439.0622
301.7860, 435.6333
302.2682, 433.2179
302.7503, 432.3447
303.2324, 432.7408
303.7145, 433.5931
304.1966, 435.1310
304.6787, 436.3926
305.1609, 436.0172
305.6430, 434.2192
306.1251, 432.9053
306.6072, 433.4513
307.0893, 434.9939
307.5714, 435.4124
308.0536, 434.0065
308.5357, 432.7958
309.0178, 433.8565
309.4999, 436.5146
309.9820, 439.1368
310.4641, 441.1203
310.9463, 442.7895
311.4284, 444.6103
311.9105, 446.6159
312.3926, 448.5884
312.8747, 450.0815
313.3568, 451.4946
313.8390, 453.5887
314.3211, 456.7989
314.8032, 460.4437
315.2853, 464.0433
315.7674, 467.5975
316.2495, 470.5871
316.7317, 472.0351
317.2138, 473.2228
317.6959, 476.4522
318.1780, 482.9663
318.6601, 488.6903
319.1422, 490.0852
319.6243, 487.6820
320.1064, 485.1656
320.5886, 483.8767
321.0707, 482.6367
321.5528, 480.2797
322.0349, 476.8530
322.5170, 472.0685
322.9991, 464.9860
323.4813, 456.3946
323.9634, 448.2880
324.4455, 440.8683
324.9276, 434.4539
325.4097, 429.8343
325.8918, 426.6690
326.3740, 423.5940
326.8561, 419.5870
327.3382, 415.5518
327.8203, 413.0970
328.3024, 412.5575
328.7845, 412.4585
329.2667, 411.4318
329.7488, 410.0070
330.2309, 409.5667
330.7130, 411.1961
331.1951, 413.3316
331.6772, 414.1398
332.1594, 413.6488
332.6415, 413.7599
333.1236, 415.8632
333.6057, 419.0718
334.0878, 421.3658
334.5699, 422.2248
335.0521, 422.9865
335.5342, 424.5511
336.0163, 426.7574
336.4984, 429.0448
336.9805, 431.4161
337.4626, 433.4762
337.9448, 434.4567
338.4269, 434.2251
338.9090, 434.1562
339.3911, 434.6967
339.8732, 435.7891
340.3553, 437.4366
340.8375, 439.7303
341.3196, 442.1904
341.8017, 444.1979
342.2838, 445.8066
342.7659, 447.7065
343.2480, 449.7923
343.7302, 452.3656
344.2123, 456.1166
344.6944, 461.0522
345.1765, 465.6979
345.6586, 468.7892
346.1407, 470.5660
346.6229, 472.9900
347.1050, 476.3498
347.5871, 480.0860
348.0692, 483.8148
348.5513, 487.5984
349.0334, 492.0377
349.5156, 497.8199
349.9977, 503.9265
350.4798, 507.4937
350.9619, 508.1595
351.4440, 507.6841
351.9261, 506.3599
352.4083, 504.3016
352.8904, 501.8836
353.3725, 499.3068
353.8546, 495.7852
354.3367, 489.7571
354.8188, 480.4250
355.3010, 472.0541
355.7831, 465.2392
356.2652, 459.4178
356.7473, 454.2155
357.2294, 449.5419
357.7115, 445.1738
358.1937, 440.8430
358.6758, 436.5590
359.1579, 432.9865
359.6400, 429.5370
360.1221, 427.2599
360.6042, 427.6253
361.0863, 429.6793
361.5685, 430.7307
362.0506, 429.0469
362.5327, 425.6231
363.0148, 424.6210
363.4969, 428.1035
363.9790, 431.2432
364.4612, 432.9272
364.9433, 434.0829
365.4254, 435.7139
365.9075, 438.1647
366.3896, 441.3453
366.8717, 445.1813
367.3539, 450.1771
367.8360, 454.6774
368.3181, 457.8131
368.8002, 461.1349
369.2823, 465.7028
369.7644, 471.5332
370.2466, 478.0750
370.7287, 484.9362
371.2108, 492.1514
371.6929, 499.0215
372.1750, 505.5123
372.6571, 511.7413
373.1393, 517.7996
373.6214, 523.6353
374.1035, 529.4321
374.5856, 535.3294
375.0677, 540.8455
375.5498, 544.3384
376.0320, 543.8982
376.5141, 544.1877
376.9962, 546.1956
377.4783, 548.7037
377.9604, 550.6529
378.4425, 551.7864
378.9247, 552.5279
379.4068, 553.2488
379.8889, 553.5941
380.3710, 555.1991
380.8531, 559.0624
381.3352, 563.2957
381.8174, 566.8367
382.2995, 569.9943
382.7816, 573.9247
383.2637, 579.7508
383.7458, 587.0930
384.2279, 593.2618
384.7101, 597.9520
385.1922, 601.8078
385.6743, 605.3317
386.1564, 608.1756
386.6385, 609.8287
387.1206, 609.9871
387.6028, 609.3314
388.0849, 609.0027
388.5670, 609.1836
389.0491, 608.8082
389.5312, 606.8536
390.0133, 604.8017
390.4955, 603.4930
390.9776, 603.0230
391.4597, 603.2512
391.9418, 603.8409
392.4239, 604.9465
392.9060, 607.6008
393.3882, 612.3889
393.8703, 617.8700
394.3524, 623.1887
394.8345, 628.4485
395.3166, 633.8859
395.7987, 639.4393
396.2809, 645.3109
396.7630, 651.8469
397.2451, 659.1425
397.7272, 666.3969
398.2093, 673.0140
398.6914, 679.6093
399.1736, 687.1166
399.6557, 695.8148
400.1378, 704.8323
400.6199, 713.4634
401.1020, 722.0242
401.5841, 731.4769
402.0662, 742.1688
402.5483, 753.3661
403.0305, 764.0748
403.5126, 774.3395
403.9947, 785.0635
404.4768, 796.4844
404.9589, 808.3857
405.4410, 820.6261
405.9232, 833.1179
406.4053, 845.7838
406.8874, 858.7924
407.3695, 871.8008
407.8516, 883.5810
408.3337, 893.9896
408.8159, 903.4934
409.2980, 913.6751
409.7801, 922.7498
410.2622, 928.0923
410.7443, 928.8564
411.2264, 925.2902
411.7086, 917.8470
412.1907, 906.3630
412.6728, 890.3336
413.1549, 868.3615
413.6370, 843.1344
414.1191, 815.6615
414.6013, 786.4679
415.0834, 756.0808
415.5655, 724.6183
416.0476, 692.2081
416.5297, 663.2281
417.0118, 639.7122
417.4940, 617.6109
417.9761, 596.4252
418.4582, 576.1887
418.9403, 557.0157
419.4224, 538.8702
419.9045, 522.4456
420.3867, 509.0087
420.8688, 499.5977
421.3509, 490.6649
421.8330, 482.0810
422.3151, 473.9511
422.7972, 466.1791
423.2794, 458.9242
423.7615, 452.6162
424.2436, 447.7712
424.7257, 444.2025
425.2078, 440.6070
425.6899, 436.9876
426.1721, 433.3404
426.6542, 429.1944
427.1363, 425.1837
427.6184, 422.2065
428.1005, 420.6677
428.5826, 419.5755
429.0648, 417.6877
429.5469, 414.9800
430.0290, 412.4646
430.5111, 410.3340
430.9932, 408.5302
431.4753, 406.9795
431.9575, 405.6732
432.4396, 404.5332
432.9217, 403.5112
433.4038, 402.6436
433.8859, 401.9167
434.3680, 401.3046
434.8502, 401.1385
435.3323, 401.8951
435.8144, 403.2117
436.2965, 404.0790
436.7786, 404.5594
437.2607, 404.4449
437.7429, 402.9056
438.2250, 400.7188
438.7071, 399.9807
439.1892, 401.5334
439.6713, 403.6227
440.1534, 403.6674
440.6356, 401.0659
441.1177, 399.0984
441.5998, 397.5685
442.0819, 397.0153
442.5640, 398.4329
443.0461, 401.3741
443.5282, 404.1472
444.0103, 405.6052
444.4925, 405.9520
444.9746, 406.2918
445.4567, 406.0901
445.9388, 406.5582
446.4209, 408.4216
446.9030, 410.7020
447.3852, 412.3660
447.8673, 413.1719
448.3494, 413.7162
448.8315, 414.7151
449.3136, 416.1822
449.7957, 418.0309
450.2779, 420.7039
450.7600, 423.3380
451.2421, 425.5661
451.7242, 427.5460
452.2063, 429.5925
452.6884, 431.8427
453.1706, 434.3079
453.6527, 436.7682
454.1348, 438.7565
454.6169, 442.1881
455.0990, 449.3702
455.5811, 456.9852
456.0633, 462.2695
456.5454, 465.1280
457.0275, 468.5563
457.5096, 474.9395
457.9917, 483.6817
458.4738, 492.9565
458.9560, 502.9575
459.4381, 512.6833
459.9202, 520.9949
460.4023, 528.6204
460.8844, 537.0108
461.3665, 546.7917
461.8487, 556.7981
462.3308, 566.2762
462.8129, 575.2729
463.2950, 584.0641
463.7771, 592.9398
464.2592, 601.2098
464.7414, 607.5896
465.2235, 611.7302
465.7056, 616.6921
466.1877, 622.5268
466.6698, 629.5807
467.1519, 638.2386
467.6341, 648.4260
468.1162, 659.6805
468.5983, 671.7418
469.0804, 684.5923
469.5625, 697.6807
470.0446, 710.0106
470.5268, 723.9169
471.0089, 739.5101
471.4910, 756.7771
471.9731, 776.1028
472.4552, 797.3000
472.9373, 819.1364
473.4195, 840.3228
473.9016, 860.7862
474.3837, 881.1747
474.8658, 904.8290
475.3479, 924.3052
475.8300, 938.7970
476.3122, 947.4498
476.7943, 949.8202
477.2764, 945.8107
477.7585, 934.2928
478.2406, 912.6224
478.7227, 880.2813
479.2049, 842.9053
479.6870, 797.3469
480.1691, 751.0284
480.6512, 708.4650
481.1333, 669.8168
481.6154, 634.7571
482.0976, 602.5295
482.5797, 574.0999
483.0618, 551.2305
483.5439, 533.9878
484.0260, 520.3685
484.5081, 509.8609
484.9902, 502.1904
485.4724, 496.5016
485.9545, 493.2162
486.4366, 490.4733
486.9187, 487.1753
487.4008, 484.2393
487.8829, 482.9522
488.3651, 483.4818
488.8472, 485.1630
489.3293, 487.5219
489.8114, 490.5653
490.2935, 493.6302
490.7756, 496.3989
491.2578, 499.5399
491.7399, 503.3446
492.2220, 507.5792
492.7041, 511.9228
493.1862, 516.2601
493.6683, 520.7408
494.1505, 525.7158
494.6326, 531.5163
495.1147, 536.4470
495.5968, 540.3284
496.0789, 543.4450
496.5610, 545.4687
497.0432, 546.8358
497.5253, 548.6763
498.0074, 551.9672
498.4895, 554.7986
498.9716, 552.8554
499.4537, 545.2178
499.9359, 538.6146
500.4180, 535.0919
500.9001, 532.7054
501.3822, 530.2029
501.8643, 527.4659
502.3464, 524.0099
502.8286, 518.8015
503.3107, 513.0748
503.7928, 508.6649
504.2749, 505.6430
504.7570, 503.1939
505.2391, 500.9920
505.7213, 499.0168
506.2034, 497.1752
506.6855, 495.1540
507.1676, 493.9293
507.6497, 494.6272
508.1318, 495.7891
508.6140, 495.2661
509.0961, 493.0273
509.5782, 491.4273
510.0603, 492.6928
510.5424, 496.6339
511.0245, 499.3854
511.5067, 499.2266
511.9888, 499.9538
512.4709, 502.2199
512.9530, 505.6772
513.4351, 510.1277
513.9172, 515.4396
514.3994, 521.1521
514.8815, 526.5595
515.3636, 531.5828
515.8457, 537.7535
516.3278, 546.1595
516.8099, 554.3220
517.2921, 560.7243
517.7742, 566.3735
518.2563, 572.9390
518.7384, 581.2265
519.2205, 589.8090
519.7026, 596.8881
520.1848, 602.7042
520.6669, 609.1182
521.1490, 616.4922
521.6311, 624.5972
522.1132, 633.4909
522.5953, 643.0062
523.0775, 652.0897
523.5596, 659.5991
524.0417, 667.4296
524.5238, 677.3295
525.0059, 688.6075
525.4880, 699.1389
525.9702, 707.8922
526.4523, 716.3762
526.9344, 727.4798
527.4165, 742.7624
527.8986, 756.4578
528.3807, 767.6055
528.8629, 778.2675
529.3450, 789.6204
529.8271, 801.3832
530.3092, 813.1746
530.7913, 825.0042
531.2734, 835.4433
531.7556, 840.8698
532.2377, 840.3256
532.7198, 837.3992
533.2019, 832.7449
533.6840, 825.5640
534.1661, 815.2470
534.6483, 801.8088
535.1304, 785.5948
535.6125, 766.2227
536.0946, 744.4952
536.5767, 721.0814
537.0588, 695.8687
537.5410, 671.1751
538.0231, 647.6797
538.5052, 625.5622
538.9873, 605.1898
539.4694, 586.4521
539.9515, 569.1200
540.4337, 553.2621
540.9158, 538.5938
541.3979, 524.6179
541.8800, 511.4708
542.3621, 499.8454
542.8442, 490.2830
543.3264, 482.4747
543.8085, 475.3616
544.2906, 469.0744
544.7726, 463.4440
545.2548, 458.6883
545.7369, 454.4193
546.2190, 450.3061
546.7011, 446.4026
547.1832, 443.0164
547.6653, 440.4108
548.1475, 438.5285
548.6296, 437.3358
549.1117, 437.2449
549.5938, 436.7603
550.0759, 434.6382
550.5580, 432.4944
551.0402, 431.9074
551.5223, 432.8839
552.0044, 433.3976
552.4865, 431.4611
552.9686, 428.5956
553.4507, 427.7456
553.9329, 429.0389
554.4150, 430.3284
554.8971, 430.3670
555.3792, 429.7628
555.8613, 430.1146
556.3434, 431.7124
556.8256, 433.3190
557.3077, 434.5085
557.7898, 435.7442
558.2719, 437.7056
558.7540, 440.2153
559.2361, 442.2381
559.7183, 442.9852
560.2004, 442.8398
560.6825, 443.5350
561.1646, 446.2013
561.6467, 447.7316
562.1288, 446.8682
562.6110, 445.6779
563.0931, 445.9440
563.5752, 447.4538
564.0573, 448.4012
564.5394, 447.1053
565.0215, 444.5823
565.5037, 443.7325
565.9858, 444.9064
566.4679, 445.5015
566.9500, 444.9083
567.4321, 442.8921
567.9142, 438.9825
568.3964, 433.0363
568.8785, 427.3520
569.3606, 423.1192
569.8427, 419.2257
570.3248, 414.6088
570.8069, 409.2626
571.2891, 403.1908
571.7712, 396.2619
572.2533, 389.1964
572.7354, 383.9253
573.2175, 381.9619
573.6996, 379.1364
574.1818, 375.3348
574.6639, 370.8187
575.1460, 365.1274
575.6281, 358.8436
576.1102, 353.2912
576.5923, 349.2390
577.0745, 346.3731
577.5566, 344.3193
578.0387, 343.3896
578.5208, 341.5440
579.0029, 337.7471
579.4850, 333.5992
579.9672, 330.1518
580.4493, 327.3759
580.9314, 325.0942
581.4135, 323.5605
581.8956, 322.2309
582.3777, 320.2880
582.8599, 318.0298
583.3420, 316.7508
583.8241, 317.0358
584.3062, 317.7575
584.7883, 317.3534
585.2704, 315.5047
585.7526, 314.0486
586.2347, 313.1778
586.7168, 312.4577
587.1989, 311.6959
587.6810, 310.9612
588.1631, 310.5590
588.6453, 310.5645
589.1274, 310.3509
