##NAMES=Bahianite
##RRUFFID=R060433
##IDEAL CHEMISTRY=Al_5_Sb^5+^_3_O_14_(OH)_2_
##LOCALITY=Paramirim Region, Bahia, Brazil
##OWNER=RRUFF
##SOURCE=Michael Scott
##DESCRIPTION=Tan colored water-worn polycrystalline pebble
##STATUS=The identification of this mineral is confirmed by single-crystal X-ray diffraction and chemical analysis.
##URL=rruff.info/R060433
##MEASURED CHEMISTRY=lighter phase: (Al_4.89_Fe^3+^_0.10_[box]_0.01_)_Σ=5_(Sb^5+^_2.97_W_0.03_)_Σ=3_O_14_(OH)_2_ ; darker phase: (Al_4.91_Fe^3+^_0.09_)_Σ=5_Sb^5+^_3.00_O_14_(OH)_2_
140.2111, 8.113354
140.6932, 8.935992
141.1753, 10.03017
141.6575, 11.11985
142.1396, 12.23488
142.6217, 13.28988
143.1038, 14.23712
143.5859, 15.07557
144.0681, 15.99538
144.5502, 17.00427
145.0323, 18.09423
145.5144, 19.28578
145.9965, 20.63216
146.4786, 21.98810
146.9608, 23.29100
147.4429, 24.54773
147.9250, 25.80999
148.4071, 27.13984
148.8892, 28.45566
149.3713, 29.60726
149.8535, 30.45396
150.3356, 31.28928
150.8177, 32.17696
151.2998, 33.07698
151.7819, 34.11543
152.2640, 35.33208
152.7462, 36.68744
153.2283, 38.08799
153.7104, 39.15409
154.1925, 40.56924
154.6746, 42.64529
155.1567, 45.91819
155.6389, 48.90137
156.1210, 51.29410
156.6031, 53.27372
157.0852, 55.30593
157.5673, 57.48011
158.0495, 59.72217
158.5316, 62.00490
159.0137, 64.17880
159.4958, 66.58048
159.9779, 69.38400
160.4600, 72.51447
160.9422, 75.72733
161.4243, 78.93575
161.9064, 82.20171
162.3885, 85.53405
162.8706, 88.71562
163.3527, 92.27691
163.8349, 96.68262
164.3170, 101.7775
164.7991, 106.8193
165.2812, 112.2587
165.7633, 117.1435
166.2454, 120.6237
166.7276, 122.5885
167.2097, 122.9342
167.6918, 121.4650
168.1739, 118.2484
168.6560, 113.7629
169.1381, 107.2242
169.6203, 99.84084
170.1024, 92.50214
170.5845, 86.07088
171.0666, 80.68445
171.5487, 76.24909
172.0309, 72.74413
172.5130, 70.02589
172.9951, 68.38148
173.4772, 67.38799
173.9593, 66.38631
174.4414, 65.06383
174.9236, 63.64214
175.4057, 62.20619
175.8878, 60.73268
176.3699, 59.73553
176.8520, 59.91766
177.3341, 60.88290
177.8163, 61.77921
178.2984, 62.22221
178.7805, 62.38476
179.2626, 62.42443
179.7447, 62.32054
180.2268, 62.34050
180.7090, 62.81419
181.1911, 63.64352
181.6732, 64.53053
182.1553, 65.35253
182.6374, 66.13491
183.1195, 66.80750
183.6017, 67.32097
184.0838, 68.04402
184.5659, 69.63631
185.0480, 71.92288
185.5301, 74.10226
186.0123, 75.71062
186.4944, 76.90178
186.9765, 78.06391
187.4586, 79.20393
187.9407, 80.38187
188.4228, 81.72144
188.9050, 83.20131
189.3871, 84.67891
189.8692, 85.97754
190.3513, 87.16199
190.8334, 88.65372
191.3155, 90.52381
191.7977, 92.54504
192.2798, 94.23244
192.7619, 95.58690
193.2440, 97.23913
193.7261, 99.45118
194.2082, 102.2200
194.6904, 105.7230
195.1725, 110.0935
195.6546, 114.9569
196.1367, 119.3186
196.6188, 123.1293
197.1009, 127.3397
197.5831, 132.6857
198.0652, 139.2068
198.5473, 145.4580
199.0294, 151.6479
199.5115, 157.1430
199.9937, 160.7052
200.4758, 162.2751
200.9579, 162.1702
201.4400, 160.0443
201.9221, 155.7243
202.4042, 152.0211
202.8864, 149.5623
203.3685, 147.3347
203.8506, 142.6009
204.3327, 134.8775
204.8148, 126.8178
205.2969, 119.5037
205.7791, 112.7849
206.2612, 107.9242
206.7433, 105.2229
207.2254, 104.2290
207.7075, 103.9389
208.1896, 104.4811
208.6718, 105.3483
209.1539, 106.1777
209.6360, 106.8080
210.1181, 108.2035
210.6002, 110.5613
211.0823, 113.6311
211.5645, 116.7154
212.0466, 119.7729
212.5287, 122.9827
213.0108, 126.3638
213.4929, 129.8264
213.9750, 133.8990
214.4572, 138.7344
214.9393, 144.1372
215.4214, 149.7058
215.9035, 155.4819
216.3856, 161.3923
216.8678, 167.3103
217.3499, 173.3653
217.8320, 179.3012
218.3141, 185.2720
218.7962, 191.0268
219.2783, 195.7221
219.7605, 199.2590
220.2426, 201.8347
220.7247, 203.5690
221.2068, 204.6172
221.6889, 204.3986
222.1710, 202.9133
222.6532, 200.1396
223.1353, 196.1491
223.6174, 191.1764
224.0995, 184.5348
224.5816, 175.6128
225.0637, 163.1511
225.5459, 151.3340
226.0280, 140.1822
226.5101, 129.7400
226.9922, 120.4419
227.4743, 111.9515
227.9564, 104.9867
228.4386, 99.98106
228.9207, 97.84153
229.4028, 95.65322
229.8849, 93.18993
230.3670, 90.68214
230.8492, 88.71386
231.3313, 87.41454
231.8134, 86.48348
232.2955, 85.81686
232.7776, 85.57465
233.2597, 85.24397
233.7419, 84.74966
234.2240, 84.18540
234.7061, 83.80623
235.1882, 83.64626
235.6703, 83.62051
236.1524, 83.65395
236.6346, 83.55592
237.1167, 83.98263
237.5988, 85.09165
238.0809, 86.66237
238.5630, 88.21778
239.0451, 89.73278
239.5273, 91.25007
240.0094, 92.71095
240.4915, 93.84594
240.9736, 95.65218
241.4557, 98.28297
241.9378, 101.5206
242.4200, 104.9703
242.9021, 108.9614
243.3842, 112.7071
243.8663, 115.8789
244.3484, 118.2793
244.8306, 120.6951
245.3127, 123.0890
245.7948, 125.4961
246.2769, 127.9570
246.7590, 130.3785
247.2411, 132.9663
247.7233, 135.8174
248.2054, 139.0127
248.6875, 142.1449
249.1696, 144.9491
249.6517, 147.8358
250.1338, 151.4758
250.6160, 156.0879
251.0981, 161.0660
251.5802, 166.0050
252.0623, 170.6451
252.5444, 176.7281
253.0265, 184.3571
253.5087, 193.3041
253.9908, 203.0431
254.4729, 213.4209
254.9550, 225.0407
255.4371, 238.4397
255.9192, 253.7843
256.4014, 268.6223
256.8835, 283.1397
257.3656, 296.9682
257.8477, 310.6539
258.3298, 326.1113
258.8120, 337.3239
259.2941, 343.8209
259.7762, 345.8422
260.2583, 337.9570
260.7404, 317.2696
261.2225, 290.1724
261.7047, 261.8385
262.1868, 230.2283
262.6689, 202.5713
263.1510, 180.4324
263.6331, 163.8981
264.1152, 149.5559
264.5974, 137.5799
265.0795, 127.6858
265.5616, 120.1304
266.0437, 115.2766
266.5258, 111.2021
267.0079, 107.7163
267.4901, 104.7412
267.9722, 101.8483
268.4543, 98.96078
268.9364, 96.25259
269.4185, 93.83703
269.9006, 91.70657
270.3828, 89.91160
270.8649, 88.45854
271.3470, 87.33621
271.8291, 86.47569
272.3112, 85.88577
272.7933, 85.50491
273.2755, 85.34642
273.7576, 85.45009
274.2397, 85.47083
274.7218, 85.33120
275.2039, 85.10198
275.6860, 84.97488
276.1682, 84.93279
276.6503, 85.05256
277.1324, 85.42333
277.6145, 86.06051
278.0966, 86.73024
278.5787, 87.45196
279.0609, 88.15617
279.5430, 88.55624
280.0251, 88.54955
280.5072, 88.88224
280.9893, 90.25920
281.4715, 92.66169
281.9536, 94.26637
282.4357, 94.83379
282.9178, 94.89930
283.3999, 95.35250
283.8820, 96.20945
284.3642, 97.13527
284.8463, 97.90615
285.3284, 98.55883
285.8105, 99.52774
286.2926, 100.8661
286.7747, 102.3608
287.2569, 103.5981
287.7390, 104.5994
288.2211, 105.9842
288.7032, 108.2599
289.1853, 111.1632
289.6674, 113.4153
290.1496, 114.9259
290.6317, 116.4518
291.1138, 119.0801
291.5959, 122.6396
292.0780, 125.8374
292.5602, 128.2345
293.0423, 130.0196
293.5244, 131.6643
294.0065, 133.1655
294.4886, 134.4276
294.9707, 135.6350
295.4529, 136.6044
295.9350, 136.7214
296.4171, 136.0523
296.8992, 134.2321
297.3813, 130.1005
297.8634, 123.8444
298.3456, 117.2978
298.8277, 111.6384
299.3098, 106.7769
299.7919, 102.5739
300.2740, 99.05490
300.7561, 96.14928
301.2383, 93.99957
301.7204, 92.50235
302.2025, 91.34068
302.6846, 90.39185
303.1667, 89.61621
303.6488, 88.91566
304.1310, 88.25407
304.6131, 87.75608
305.0952, 87.68889
305.5773, 87.91267
306.0594, 88.04923
306.5415, 87.46919
307.0237, 86.91257
307.5058, 87.33620
307.9879, 88.95793
308.4700, 90.64896
308.9521, 91.46941
309.4343, 91.78031
309.9164, 92.23946
310.3985, 93.28419
310.8806, 94.48538
311.3627, 95.51625
311.8448, 96.36917
312.3270, 97.19744
312.8091, 98.05101
313.2912, 98.94701
313.7733, 99.90569
314.2554, 100.6745
314.7375, 101.7319
315.2197, 103.4268
315.7018, 105.7144
316.1839, 108.0874
316.6660, 110.6047
317.1481, 112.9742
317.6302, 114.9146
318.1124, 116.0425
318.5945, 117.1484
319.0766, 118.4942
319.5587, 120.0339
320.0408, 121.6263
320.5229, 123.7008
321.0051, 125.4838
321.4872, 126.5738
321.9693, 126.9317
322.4514, 126.5267
322.9335, 125.1571
323.4156, 123.0350
323.8978, 120.5686
324.3799, 117.5894
324.8620, 114.4858
325.3441, 111.3183
325.8262, 108.0071
326.3083, 105.0005
326.7905, 102.4455
327.2726, 100.1671
327.7547, 97.98234
328.2368, 95.58671
328.7189, 93.57430
329.2010, 92.13520
329.6832, 91.33015
330.1653, 90.54603
330.6474, 89.63334
331.1295, 88.85033
331.6116, 88.40311
332.0938, 88.41457
332.5759, 88.58123
333.0580, 88.99248
333.5401, 89.58068
334.0222, 89.76877
334.5043, 89.25129
334.9865, 88.75634
335.4686, 88.76910
335.9507, 89.56351
336.4328, 90.08654
336.9149, 90.11214
337.3970, 89.92021
337.8792, 90.30434
338.3613, 91.45643
338.8434, 92.65486
339.3255, 93.54674
339.8076, 94.07281
340.2898, 94.81979
340.7719, 95.88911
341.2540, 97.01902
341.7361, 97.82069
342.2182, 98.25276
342.7003, 98.60863
343.1825, 98.80312
343.6646, 98.95512
344.1467, 100.0197
344.6288, 102.1559
345.1109, 104.4451
345.5930, 105.8325
346.0752, 106.4109
346.5573, 107.3319
347.0394, 108.9986
347.5215, 111.0726
348.0036, 112.7280
348.4857, 113.9736
348.9679, 115.4556
349.4500, 117.8093
349.9321, 120.8083
350.4142, 123.8088
350.8963, 126.7590
351.3784, 129.5938
351.8606, 132.2935
352.3427, 134.7900
352.8248, 136.8845
353.3069, 138.5380
353.7890, 139.6635
354.2711, 140.2115
354.7533, 140.1950
355.2354, 139.4689
355.7175, 137.9709
356.1996, 135.6711
356.6817, 132.5165
357.1638, 127.5935
357.6460, 122.4580
358.1281, 118.2193
358.6102, 114.8684
359.0923, 111.8543
359.5744, 108.7531
360.0565, 105.9256
360.5387, 103.7415
361.0208, 102.6316
361.5029, 101.7671
361.9850, 100.6899
362.4671, 99.55274
362.9492, 98.84571
363.4314, 98.99400
363.9135, 99.43259
364.3956, 99.86253
364.8777, 100.2231
365.3598, 100.6254
365.8419, 101.0507
366.3241, 101.5408
366.8062, 102.1565
367.2883, 102.6566
367.7704, 103.5228
368.2526, 105.0120
368.7347, 107.2777
369.2168, 109.3191
369.6989, 111.0553
370.1810, 112.6110
370.6631, 114.0794
371.1453, 115.1151
371.6274, 116.5844
372.1095, 118.6571
372.5916, 121.2859
373.0737, 124.1311
373.5558, 127.5179
374.0380, 130.6738
374.5201, 133.1361
375.0022, 134.6249
375.4843, 136.3027
375.9664, 138.3450
376.4485, 140.4708
376.9307, 142.1863
377.4128, 143.4561
377.8949, 144.4096
378.3770, 145.1592
378.8591, 145.6843
379.3412, 145.3674
379.8234, 144.0032
380.3055, 142.5300
380.7876, 142.0171
381.2697, 142.4257
381.7518, 143.1420
382.2339, 144.0224
382.7161, 145.0897
383.1982, 146.5716
383.6803, 148.4379
384.1624, 150.1686
384.6445, 151.0302
385.1266, 151.4548
385.6088, 152.6301
386.0909, 154.8999
386.5730, 157.4143
387.0551, 159.1168
387.5372, 160.2179
388.0193, 161.3517
388.5015, 163.3963
388.9836, 165.3332
389.4657, 165.9009
389.9478, 165.0015
390.4299, 163.7826
390.9120, 162.8791
391.3942, 162.1534
391.8763, 161.4413
392.3584, 160.0122
392.8405, 159.2265
393.3226, 160.0301
393.8047, 162.1696
394.2869, 164.4855
394.7690, 166.4486
395.2511, 168.5012
395.7332, 170.8821
396.2154, 173.5337
396.6975, 176.7029
397.1796, 180.7631
397.6617, 185.3607
398.1438, 189.8499
398.6259, 193.6277
399.1081, 197.8300
399.5902, 202.8414
400.0723, 208.7633
400.5544, 214.8130
401.0365, 221.0076
401.5186, 227.3379
402.0008, 233.7125
402.4829, 240.0887
402.9650, 246.6607
403.4471, 253.4940
403.9292, 260.5636
404.4113, 267.5490
404.8935, 274.3516
405.3756, 281.3835
405.8577, 288.9594
406.3398, 297.0943
406.8219, 305.0985
407.3040, 312.8806
407.7862, 320.7299
408.2683, 329.5170
408.7504, 339.2963
409.2325, 348.3577
409.7146, 356.1168
410.1967, 363.4962
410.6789, 369.0946
411.1610, 375.4035
411.6431, 380.6457
412.1252, 384.3920
412.6073, 386.4234
413.0894, 386.0880
413.5716, 383.3976
414.0537, 378.0259
414.5358, 369.0727
415.0179, 357.0085
415.5000, 343.0505
415.9821, 327.6125
416.4643, 310.9105
416.9464, 292.4411
417.4285, 272.0827
417.9106, 252.7682
418.3927, 236.1282
418.8748, 221.6453
419.3570, 209.0025
419.8391, 198.8204
420.3212, 189.5912
420.8033, 180.4742
421.2854, 171.6647
421.7675, 163.8763
422.2497, 157.5538
422.7318, 152.1334
423.2139, 147.4509
423.6960, 143.7654
424.1781, 140.2209
424.6602, 136.6794
425.1424, 133.2606
425.6245, 130.1759
426.1066, 127.5040
426.5887, 125.1079
427.0709, 122.9435
427.5530, 121.0100
428.0351, 119.5480
428.5172, 118.6905
428.9993, 118.0989
429.4814, 117.5408
429.9636, 117.0046
430.4457, 116.5622
430.9278, 116.2731
431.4099, 116.0265
431.8920, 115.5045
432.3741, 114.6459
432.8563, 113.9555
433.3384, 113.8202
433.8205, 114.1118
434.3026, 113.8393
434.7847, 112.9276
435.2668, 112.0414
435.7490, 112.0558
436.2311, 112.7037
436.7132, 113.0078
437.1953, 112.5866
437.6774, 111.8822
438.1595, 111.4445
438.6417, 111.2337
439.1238, 111.0839
439.6059, 110.8229
440.0880, 110.6095
440.5701, 110.6518
441.0522, 111.0042
441.5344, 111.3913
442.0165, 111.5737
442.4986, 111.7122
442.9807, 112.0031
443.4628, 112.7031
443.9449, 113.3796
444.4271, 113.7751
444.9092, 113.9592
445.3913, 114.3404
445.8734, 115.3918
446.3555, 116.3692
446.8376, 116.8567
447.3198, 116.4420
447.8019, 116.2984
448.2840, 116.6081
448.7661, 117.1342
449.2482, 117.5341
449.7303, 117.6224
450.2125, 117.9089
450.6946, 118.6189
451.1767, 119.7032
451.6588, 120.3363
452.1409, 120.3696
452.6230, 120.3103
453.1052, 120.6056
453.5873, 121.3129
454.0694, 121.5261
454.5515, 120.9807
455.0337, 120.3169
455.5158, 120.6783
455.9979, 122.0137
456.4800, 123.5259
456.9621, 124.9718
457.4442, 126.3426
457.9264, 127.6493
458.4085, 128.8858
458.8906, 130.0087
459.3727, 130.7303
459.8548, 131.3679
460.3369, 132.4055
460.8191, 133.9725
461.3012, 135.9329
461.7833, 138.3442
462.2654, 141.0675
462.7475, 143.8014
463.2296, 146.1496
463.7118, 148.7264
464.1939, 152.0154
464.6760, 156.0812
465.1581, 160.0199
465.6402, 163.3879
466.1223, 166.5915
466.6045, 169.8699
467.0866, 173.1817
467.5687, 176.6427
468.0508, 180.4921
468.5329, 184.4881
469.0150, 188.0573
469.4972, 190.3045
469.9793, 193.4089
470.4614, 198.1047
470.9435, 204.4524
471.4256, 211.2528
471.9077, 218.6459
472.3899, 226.2165
472.8720, 233.3796
473.3541, 240.1279
473.8362, 247.7341
474.3183, 256.5137
474.8004, 266.1159
475.2826, 276.0964
475.7647, 286.4159
476.2468, 296.5192
476.7289, 306.6495
477.2110, 316.2946
477.6931, 324.5718
478.1753, 331.5087
478.6574, 336.0167
479.1395, 337.9213
479.6216, 336.6268
480.1037, 331.2088
480.5858, 321.1534
481.0680, 307.3527
481.5501, 288.3482
482.0322, 266.1228
482.5143, 244.9616
482.9964, 225.3142
483.4786, 208.1720
483.9607, 194.1994
484.4428, 183.6543
484.9249, 174.7747
485.4070, 167.6182
485.8892, 161.8689
486.3713, 157.3613
486.8534, 154.3014
487.3355, 152.1807
487.8176, 151.2926
488.2997, 151.2385
488.7819, 151.1144
489.2640, 150.6835
489.7461, 150.7319
490.2282, 151.6007
490.7103, 153.2497
491.1924, 154.8336
491.6746, 156.3098
492.1567, 157.9292
492.6388, 159.8547
493.1209, 162.1109
493.6030, 164.7345
494.0851, 167.8616
494.5673, 171.0875
495.0494, 173.7909
495.5315, 176.0766
496.0136, 178.2226
496.4957, 180.2498
496.9778, 182.2891
497.4600, 184.7777
497.9421, 187.6199
498.4242, 189.9886
498.9063, 191.3842
499.3884, 192.1131
499.8705, 192.4521
500.3527, 192.4558
500.8348, 192.0530
501.3169, 191.1977
501.7990, 189.9351
502.2811, 188.3138
502.7632, 186.2919
503.2454, 183.9854
503.7275, 181.0488
504.2096, 177.6230
504.6917, 175.1926
505.1738, 174.4972
505.6559, 173.8326
506.1381, 172.1617
506.6202, 169.0058
507.1023, 166.9074
507.5844, 166.1909
508.0665, 165.9534
508.5486, 164.8086
509.0308, 162.7178
509.5129, 161.2504
509.9950, 160.8856
510.4771, 161.2962
510.9592, 161.9578
511.4413, 162.8342
511.9235, 163.6294
512.4056, 164.0271
512.8877, 164.2688
513.3698, 164.7770
513.8519, 165.6015
514.3340, 166.3777
514.8162, 166.6275
515.2983, 166.7535
515.7804, 167.2316
516.2625, 168.1618
516.7446, 169.5311
517.2267, 171.4873
517.7089, 173.8804
518.1910, 176.3242
518.6731, 178.6469
519.1552, 181.1072
519.6373, 183.6835
520.1194, 186.3382
520.6016, 189.6002
521.0837, 193.6662
521.5658, 198.0713
522.0479, 202.5350
522.5300, 207.0624
523.0121, 211.4473
523.4943, 215.6087
523.9764, 219.7066
524.4585, 223.8921
524.9406, 228.0809
525.4227, 232.9733
525.9048, 239.0593
526.3870, 245.8796
526.8691, 252.3772
527.3513, 258.6156
527.8334, 265.0719
528.3155, 272.1840
528.7976, 279.7814
529.2797, 287.7014
529.7618, 296.0083
530.2440, 304.3902
530.7261, 312.5693
531.2082, 320.6654
531.6903, 328.6779
532.1724, 337.3370
532.6545, 345.2363
533.1367, 352.5627
533.6188, 358.9424
534.1009, 363.3373
534.5830, 365.6697
535.0651, 365.8036
535.5472, 363.7463
536.0294, 359.4826
536.5115, 352.9026
536.9936, 343.6689
537.4757, 332.5996
537.9578, 319.9968
538.4399, 305.3902
538.9221, 291.5892
539.4042, 278.8272
539.8863, 266.7986
540.3684, 254.7918
540.8505, 242.8529
541.3326, 231.5168
541.8148, 220.6632
542.2969, 210.7846
542.7790, 202.7419
543.2611, 196.4862
543.7432, 191.3070
544.2253, 187.4766
544.7075, 184.0782
545.1896, 179.9522
545.6717, 174.7057
546.1538, 170.0851
546.6359, 167.3063
547.1180, 165.4382
547.6002, 163.5301
548.0823, 160.8912
548.5644, 158.7325
549.0465, 157.5617
549.5286, 157.0312
550.0107, 156.0822
550.4929, 154.0499
550.9750, 152.6107
551.4571, 152.4695
551.9392, 153.6352
552.4213, 154.4155
552.9034, 154.7504
553.3856, 154.9026
553.8677, 154.9127
554.3498, 154.8291
554.8319, 155.3288
555.3140, 156.5727
555.7961, 158.0648
556.2783, 159.1122
556.7604, 159.8703
557.2425, 160.7505
557.7246, 161.7677
558.2067, 163.1243
558.6888, 165.1503
559.1710, 167.7072
559.6531, 170.3098
560.1352, 172.7016
560.6173, 175.0658
561.0994, 177.4803
561.5815, 179.9713
562.0637, 182.4580
562.5458, 184.9299
563.0279, 187.3837
563.5100, 189.8532
563.9921, 192.4532
564.4742, 194.8817
564.9564, 197.1392
565.4385, 199.2068
565.9206, 201.1013
566.4027, 202.8689
566.8848, 204.1332
567.3669, 204.7372
567.8491, 204.7727
568.3312, 204.6701
568.8133, 204.4099
569.2954, 203.3378
569.7775, 200.7744
570.2596, 197.1882
570.7418, 193.5376
571.2239, 189.8611
571.7060, 185.6995
572.1881, 180.1606
572.6702, 174.1989
573.1523, 168.8066
573.6345, 164.4291
574.1166, 160.3925
574.5987, 156.5804
575.0808, 152.9715
575.5629, 149.4610
576.0450, 146.0861
576.5272, 142.8354
577.0093, 139.6131
577.4914, 136.5018
577.9735, 133.9828
578.4556, 132.1883
578.9377, 130.7621
579.4199, 129.6740
579.9020, 128.9524
580.3841, 127.6439
580.8662, 125.6629
581.3483, 123.5900
581.8304, 121.9236
582.3126, 120.6535
582.7947, 119.8177
583.2768, 119.5326
583.7589, 119.3456
584.2410, 118.7175
584.7231, 117.8362
585.2053, 117.0747
585.6874, 116.3986
586.1696, 116.0582
586.6517, 116.4545
587.1338, 117.3842
587.6159, 117.9569
588.0980, 117.5770
588.5801, 117.1118
589.0623, 117.0119
589.5444, 117.4011
590.0265, 117.3623
590.5086, 116.8478
590.9907, 115.9690
591.4728, 114.6697
591.9550, 112.8302
592.4371, 111.5009
592.9192, 110.9067
593.4013, 110.5273
593.8834, 109.5239
594.3655, 108.0073
594.8477, 106.6655
595.3298, 105.7783
595.8119, 105.1225
596.2940, 104.5924
596.7761, 104.0861
597.2582, 103.2454
597.7404, 101.5220
598.2225, 99.67150
598.7046, 98.15582
599.1867, 97.01186
599.6688, 96.15037
600.1509, 95.76407
600.6331, 95.47755
601.1152, 95.05358
601.5973, 94.37337
602.0794, 93.80181
602.5615, 93.35078
603.0436, 93.00191
603.5258, 92.82932
604.0079, 92.94016
604.4900, 92.59362
604.9721, 91.50291
605.4542, 90.15441
605.9363, 89.56020
606.4185, 89.66336
606.9006, 89.91720
607.3827, 90.27245
607.8648, 90.51131
608.3469, 90.13375
608.8290, 89.25570
609.3112, 88.54902
609.7933, 88.51347
610.2754, 88.72329
610.7575, 88.89381
611.2396, 88.99442
611.7217, 89.00789
612.2039, 88.85638
612.6860, 88.65810
613.1681, 88.49975
613.6502, 88.38592
614.1323, 88.30659
614.6144, 88.26308
615.0966, 88.25224
615.5787, 88.30922
616.0608, 88.46960
616.5429, 88.46365
617.0250, 88.21244
617.5071, 87.77998
617.9893, 87.14108
618.4714, 86.36187
618.9535, 85.96611
619.4356, 86.42866
619.9177, 87.31135
620.3998, 88.16830
620.8820, 88.97398
621.3641, 89.58278
621.8462, 89.87598
622.3283, 89.97459
622.8104, 89.96048
623.2925, 89.84530
623.7747, 89.61431
624.2568, 89.08372
624.7389, 88.54849
625.2210, 88.25584
625.7031, 88.33810
626.1852, 88.35896
626.6674, 88.24677
627.1495, 88.11851
627.6316, 88.21810
628.1137, 88.55910
628.5958, 88.76244
629.0779, 88.59602
629.5601, 88.37155
630.0422, 88.95791
630.5243, 90.13805
631.0064, 90.90697
631.4885, 90.32356
631.9706, 89.33041
632.4528, 88.74990
632.9349, 88.59904
633.4170, 88.63468
