##NAMES=Bairdite
##RRUFFID=R190040
##IDEAL CHEMISTRY=Pb^2+^_2_Cu^2+^_4_Te^6+^_2_O_10_(OH)_2_(S^6+^O_4_)&#183;H_2_O
##LOCALITY=Tombstone, Cochise County, Arizona, USA
##OWNER=RRUFF
##SOURCE=Mike Shannon
##DESCRIPTION=Bright lime green platy crystals
##STATUS=The identification of this mineral has been confirmed only by single crystal X-ray diffraction.
##URL=rruff.info/R190040
8.758203e+001, 7.222815e+002
8.806415e+001, 7.130107e+002
8.854626e+001, 7.114018e+002
8.902838e+001, 7.198633e+002
8.951050e+001, 7.315674e+002
8.999261e+001, 7.445964e+002
9.047473e+001, 7.586219e+002
9.095685e+001, 7.732058e+002
9.143896e+001, 7.882541e+002
9.192108e+001, 8.037590e+002
9.240320e+001, 8.182047e+002
9.288531e+001, 8.212305e+002
9.336743e+001, 8.084385e+002
9.384955e+001, 7.848981e+002
9.433167e+001, 7.627707e+002
9.481378e+001, 7.402985e+002
9.529590e+001, 7.214090e+002
9.577802e+001, 7.057189e+002
9.626013e+001, 6.922994e+002
9.674225e+001, 6.806769e+002
9.722437e+001, 6.705384e+002
9.770648e+001, 6.612617e+002
9.818860e+001, 6.529673e+002
9.867072e+001, 6.450095e+002
9.915283e+001, 6.367608e+002
9.963495e+001, 6.281762e+002
1.001171e+002, 6.199971e+002
1.005992e+002, 6.133701e+002
1.010813e+002, 6.087692e+002
1.015634e+002, 6.042272e+002
1.020455e+002, 5.988912e+002
1.025277e+002, 5.935422e+002
1.030098e+002, 5.886502e+002
1.034919e+002, 5.843802e+002
1.039740e+002, 5.807540e+002
1.044561e+002, 5.780109e+002
1.049382e+002, 5.768202e+002
1.054204e+002, 5.756540e+002
1.059025e+002, 5.748110e+002
1.063846e+002, 5.738207e+002
1.068667e+002, 5.718063e+002
1.073488e+002, 5.680550e+002
1.078309e+002, 5.628207e+002
1.083131e+002, 5.584847e+002
1.087952e+002, 5.554613e+002
1.092773e+002, 5.527712e+002
1.097594e+002, 5.499893e+002
1.102415e+002, 5.470826e+002
1.107236e+002, 5.440525e+002
1.112058e+002, 5.408449e+002
1.116879e+002, 5.374968e+002
1.121700e+002, 5.341431e+002
1.126521e+002, 5.307809e+002
1.131342e+002, 5.274446e+002
1.136163e+002, 5.242504e+002
1.140985e+002, 5.213485e+002
1.145806e+002, 5.183113e+002
1.150627e+002, 5.145126e+002
1.155448e+002, 5.103267e+002
1.160269e+002, 5.066311e+002
1.165090e+002, 5.043594e+002
1.169912e+002, 5.034761e+002
1.174733e+002, 5.019570e+002
1.179554e+002, 4.990913e+002
1.184375e+002, 4.960746e+002
1.189196e+002, 4.932728e+002
1.194017e+002, 4.907369e+002
1.198839e+002, 4.884098e+002
1.203660e+002, 4.861280e+002
1.208481e+002, 4.835721e+002
1.213302e+002, 4.819418e+002
1.218123e+002, 4.821440e+002
1.222944e+002, 4.824368e+002
1.227766e+002, 4.815093e+002
1.232587e+002, 4.790605e+002
1.237408e+002, 4.759023e+002
1.242229e+002, 4.735884e+002
1.247050e+002, 4.729689e+002
1.251871e+002, 4.721325e+002
1.256693e+002, 4.709176e+002
1.261514e+002, 4.695029e+002
1.266335e+002, 4.680644e+002
1.271156e+002, 4.666373e+002
1.275977e+002, 4.653253e+002
1.280798e+002, 4.644964e+002
1.285620e+002, 4.644813e+002
1.290441e+002, 4.643168e+002
1.295262e+002, 4.635738e+002
1.300083e+002, 4.623451e+002
1.304904e+002, 4.609785e+002
1.309725e+002, 4.594754e+002
1.314547e+002, 4.580681e+002
1.319368e+002, 4.572329e+002
1.324189e+002, 4.574728e+002
1.329010e+002, 4.577222e+002
1.333831e+002, 4.568126e+002
1.338652e+002, 4.545674e+002
1.343474e+002, 4.521361e+002
1.348295e+002, 4.498173e+002
1.353116e+002, 4.477340e+002
1.357937e+002, 4.460523e+002
1.362758e+002, 4.448372e+002
1.367579e+002, 4.440618e+002
1.372401e+002, 4.437375e+002
1.377222e+002, 4.442977e+002
1.382043e+002, 4.446354e+002
1.386864e+002, 4.442988e+002
1.391685e+002, 4.435467e+002
1.396507e+002, 4.427323e+002
1.401328e+002, 4.420460e+002
1.406149e+002, 4.414911e+002
1.410970e+002, 4.412993e+002
1.415791e+002, 4.423048e+002
1.420612e+002, 4.428987e+002
1.425434e+002, 4.425155e+002
1.430255e+002, 4.413123e+002
1.435076e+002, 4.397586e+002
1.439897e+002, 4.382285e+002
1.444718e+002, 4.366555e+002
1.449539e+002, 4.355679e+002
1.454361e+002, 4.350480e+002
1.459182e+002, 4.348186e+002
1.464003e+002, 4.348007e+002
1.468824e+002, 4.349541e+002
1.473645e+002, 4.352024e+002
1.478466e+002, 4.354976e+002
1.483288e+002, 4.359131e+002
1.488109e+002, 4.360070e+002
1.492930e+002, 4.354150e+002
1.497751e+002, 4.346545e+002
1.502572e+002, 4.343601e+002
1.507393e+002, 4.347214e+002
1.512215e+002, 4.352203e+002
1.517036e+002, 4.349680e+002
1.521857e+002, 4.339857e+002
1.526678e+002, 4.332742e+002
1.531499e+002, 4.333640e+002
1.536320e+002, 4.339697e+002
1.541142e+002, 4.343806e+002
1.545963e+002, 4.343695e+002
1.550784e+002, 4.341934e+002
1.555605e+002, 4.341068e+002
1.560426e+002, 4.341087e+002
1.565247e+002, 4.342033e+002
1.570069e+002, 4.344943e+002
1.574890e+002, 4.349752e+002
1.579711e+002, 4.352310e+002
1.584532e+002, 4.348448e+002
1.589353e+002, 4.344509e+002
1.594174e+002, 4.345197e+002
1.598996e+002, 4.351051e+002
1.603817e+002, 4.358327e+002
1.608638e+002, 4.362954e+002
1.613459e+002, 4.364749e+002
1.618280e+002, 4.364246e+002
1.623102e+002, 4.360571e+002
1.627923e+002, 4.355419e+002
1.632744e+002, 4.349217e+002
1.637565e+002, 4.342202e+002
1.642386e+002, 4.335416e+002
1.647207e+002, 4.330843e+002
1.652029e+002, 4.330112e+002
1.656850e+002, 4.329183e+002
1.661671e+002, 4.326061e+002
1.666492e+002, 4.323393e+002
1.671313e+002, 4.324102e+002
1.676134e+002, 4.329431e+002
1.680956e+002, 4.337626e+002
1.685777e+002, 4.343588e+002
1.690598e+002, 4.346335e+002
1.695419e+002, 4.347766e+002
1.700240e+002, 4.347868e+002
1.705061e+002, 4.346775e+002
1.709883e+002, 4.344410e+002
1.714704e+002, 4.340615e+002
1.719525e+002, 4.335866e+002
1.724346e+002, 4.332200e+002
1.729167e+002, 4.328265e+002
1.733988e+002, 4.326523e+002
1.738810e+002, 4.329494e+002
1.743631e+002, 4.335521e+002
1.748452e+002, 4.339960e+002
1.753273e+002, 4.339569e+002
1.758094e+002, 4.336210e+002
1.762915e+002, 4.336577e+002
1.767737e+002, 4.342521e+002
1.772558e+002, 4.349774e+002
1.777379e+002, 4.356160e+002
1.782200e+002, 4.361689e+002
1.787021e+002, 4.366619e+002
1.791842e+002, 4.370208e+002
1.796664e+002, 4.373631e+002
1.801485e+002, 4.379288e+002
1.806306e+002, 4.389198e+002
1.811127e+002, 4.399473e+002
1.815948e+002, 4.405610e+002
1.820769e+002, 4.407080e+002
1.825591e+002, 4.407243e+002
1.830412e+002, 4.406315e+002
1.835233e+002, 4.405448e+002
1.840054e+002, 4.405959e+002
1.844875e+002, 4.408247e+002
1.849696e+002, 4.412120e+002
1.854518e+002, 4.417551e+002
1.859339e+002, 4.425332e+002
1.864160e+002, 4.432853e+002
1.868981e+002, 4.439505e+002
1.873802e+002, 4.445307e+002
1.878623e+002, 4.450601e+002
1.883445e+002, 4.456024e+002
1.888266e+002, 4.460473e+002
1.893087e+002, 4.459315e+002
1.897908e+002, 4.444698e+002
1.902729e+002, 4.435824e+002
1.907550e+002, 4.439434e+002
1.912372e+002, 4.450541e+002
1.917193e+002, 4.463024e+002
1.922014e+002, 4.473599e+002
1.926835e+002, 4.482198e+002
1.931656e+002, 4.488050e+002
1.936477e+002, 4.489659e+002
1.941299e+002, 4.489656e+002
1.946120e+002, 4.484847e+002
1.950941e+002, 4.479036e+002
1.955762e+002, 4.479258e+002
1.960583e+002, 4.491161e+002
1.965404e+002, 4.513545e+002
1.970226e+002, 4.524473e+002
1.975047e+002, 4.506705e+002
1.979868e+002, 4.496176e+002
1.984689e+002, 4.508152e+002
1.989510e+002, 4.535845e+002
1.994331e+002, 4.562672e+002
1.999153e+002, 4.576960e+002
2.003974e+002, 4.578977e+002
2.008795e+002, 4.582573e+002
2.013616e+002, 4.587576e+002
2.018437e+002, 4.593843e+002
2.023258e+002, 4.602525e+002
2.028080e+002, 4.612797e+002
2.032901e+002, 4.621607e+002
2.037722e+002, 4.626117e+002
2.042543e+002, 4.626936e+002
2.047364e+002, 4.632203e+002
2.052185e+002, 4.644128e+002
2.057007e+002, 4.658230e+002
2.061828e+002, 4.673127e+002
2.066649e+002, 4.688414e+002
2.071470e+002, 4.701475e+002
2.076291e+002, 4.709806e+002
2.081112e+002, 4.714107e+002
2.085934e+002, 4.719078e+002
2.090755e+002, 4.725054e+002
2.095576e+002, 4.731710e+002
2.100397e+002, 4.737725e+002
2.105218e+002, 4.742972e+002
2.110039e+002, 4.751395e+002
2.114861e+002, 4.768064e+002
2.119682e+002, 4.789612e+002
2.124503e+002, 4.809374e+002
2.129324e+002, 4.825719e+002
2.134145e+002, 4.839934e+002
2.138967e+002, 4.853494e+002
2.143788e+002, 4.866490e+002
2.148609e+002, 4.878329e+002
2.153430e+002, 4.886879e+002
2.158251e+002, 4.894450e+002
2.163072e+002, 4.903905e+002
2.167894e+002, 4.916000e+002
2.172715e+002, 4.930608e+002
2.177536e+002, 4.948629e+002
2.182357e+002, 4.972031e+002
2.187178e+002, 4.993168e+002
2.191999e+002, 5.007249e+002
2.196821e+002, 5.018002e+002
2.201642e+002, 5.028658e+002
2.206463e+002, 5.039330e+002
2.211284e+002, 5.052431e+002
2.216105e+002, 5.076463e+002
2.220926e+002, 5.123080e+002
2.225748e+002, 5.156443e+002
2.230569e+002, 5.157972e+002
2.235390e+002, 5.145410e+002
2.240211e+002, 5.137401e+002
2.245032e+002, 5.142230e+002
2.249853e+002, 5.157463e+002
2.254675e+002, 5.177440e+002
2.259496e+002, 5.206973e+002
2.264317e+002, 5.233376e+002
2.269138e+002, 5.252888e+002
2.273959e+002, 5.268665e+002
2.278780e+002, 5.283825e+002
2.283602e+002, 5.299844e+002
2.288423e+002, 5.316474e+002
2.293244e+002, 5.333419e+002
2.298065e+002, 5.355009e+002
2.302886e+002, 5.370102e+002
2.307707e+002, 5.371698e+002
2.312529e+002, 5.368506e+002
2.317350e+002, 5.369329e+002
2.322171e+002, 5.378312e+002
2.326992e+002, 5.395017e+002
2.331813e+002, 5.418318e+002
2.336634e+002, 5.460504e+002
2.341456e+002, 5.494661e+002
2.346277e+002, 5.517659e+002
2.351098e+002, 5.532211e+002
2.355919e+002, 5.538526e+002
2.360740e+002, 5.536572e+002
2.365561e+002, 5.532039e+002
2.370383e+002, 5.541865e+002
2.375204e+002, 5.592131e+002
2.380025e+002, 5.626574e+002
2.384846e+002, 5.627712e+002
2.389667e+002, 5.616127e+002
2.394488e+002, 5.617960e+002
2.399310e+002, 5.644465e+002
2.404131e+002, 5.685778e+002
2.408952e+002, 5.716884e+002
2.413773e+002, 5.726365e+002
2.418594e+002, 5.741696e+002
2.423415e+002, 5.774153e+002
2.428237e+002, 5.811105e+002
2.433058e+002, 5.833752e+002
2.437879e+002, 5.834344e+002
2.442700e+002, 5.824923e+002
2.447521e+002, 5.831814e+002
2.452342e+002, 5.861797e+002
2.457164e+002, 5.892911e+002
2.461985e+002, 5.929479e+002
2.466806e+002, 5.963157e+002
2.471627e+002, 5.978957e+002
2.476448e+002, 5.970281e+002
2.481269e+002, 5.952313e+002
2.486091e+002, 5.952137e+002
2.490912e+002, 5.972577e+002
2.495733e+002, 5.996339e+002
2.500554e+002, 6.025850e+002
2.505375e+002, 6.055319e+002
2.510196e+002, 6.074330e+002
2.515018e+002, 6.078889e+002
2.519839e+002, 6.078506e+002
2.524660e+002, 6.087114e+002
2.529481e+002, 6.104815e+002
2.534302e+002, 6.123604e+002
2.539123e+002, 6.142369e+002
2.543945e+002, 6.160861e+002
2.548766e+002, 6.178519e+002
2.553587e+002, 6.195055e+002
2.558408e+002, 6.211630e+002
2.563229e+002, 6.228715e+002
2.568051e+002, 6.246290e+002
2.572872e+002, 6.267578e+002
2.577693e+002, 6.298093e+002
2.582514e+002, 6.331649e+002
2.587335e+002, 6.358407e+002
2.592156e+002, 6.376459e+002
2.596978e+002, 6.389206e+002
2.601799e+002, 6.394784e+002
2.606620e+002, 6.396020e+002
2.611441e+002, 6.404092e+002
2.616262e+002, 6.426526e+002
2.621083e+002, 6.456503e+002
2.625905e+002, 6.484785e+002
2.630726e+002, 6.511541e+002
2.635547e+002, 6.533174e+002
2.640368e+002, 6.543253e+002
2.645189e+002, 6.545963e+002
2.650010e+002, 6.548712e+002
2.654832e+002, 6.554314e+002
2.659653e+002, 6.561216e+002
2.664474e+002, 6.565291e+002
2.669295e+002, 6.564436e+002
2.674116e+002, 6.568847e+002
2.678937e+002, 6.591810e+002
2.683759e+002, 6.622887e+002
2.688580e+002, 6.647800e+002
2.693401e+002, 6.660604e+002
2.698222e+002, 6.666629e+002
2.703043e+002, 6.672454e+002
2.707864e+002, 6.677513e+002
2.712686e+002, 6.684891e+002
2.717507e+002, 6.698698e+002
2.722328e+002, 6.714844e+002
2.727149e+002, 6.729232e+002
2.731970e+002, 6.740806e+002
2.736791e+002, 6.750265e+002
2.741613e+002, 6.756279e+002
2.746434e+002, 6.756945e+002
2.751255e+002, 6.764121e+002
2.756076e+002, 6.794344e+002
2.760897e+002, 6.827231e+002
2.765718e+002, 6.844261e+002
2.770540e+002, 6.839614e+002
2.775361e+002, 6.829583e+002
2.780182e+002, 6.834743e+002
2.785003e+002, 6.857718e+002
2.789824e+002, 6.877720e+002
2.794645e+002, 6.885998e+002
2.799467e+002, 6.891650e+002
2.804288e+002, 6.900620e+002
2.809109e+002, 6.913811e+002
2.813930e+002, 6.928011e+002
2.818751e+002, 6.940563e+002
2.823572e+002, 6.951523e+002
2.828394e+002, 6.959886e+002
2.833215e+002, 6.958438e+002
2.838036e+002, 6.960222e+002
2.842857e+002, 6.976191e+002
2.847678e+002, 7.004794e+002
2.852499e+002, 7.032773e+002
2.857321e+002, 7.046453e+002
2.862142e+002, 7.045326e+002
2.866963e+002, 7.047896e+002
2.871784e+002, 7.058625e+002
2.876605e+002, 7.069586e+002
2.881426e+002, 7.077377e+002
2.886248e+002, 7.082126e+002
2.891069e+002, 7.084858e+002
2.895890e+002, 7.084025e+002
2.900711e+002, 7.080435e+002
2.905532e+002, 7.086076e+002
2.910353e+002, 7.113181e+002
2.915175e+002, 7.134228e+002
2.919996e+002, 7.131789e+002
2.924817e+002, 7.116417e+002
2.929638e+002, 7.109069e+002
2.934459e+002, 7.125814e+002
2.939280e+002, 7.159459e+002
2.944102e+002, 7.176432e+002
2.948923e+002, 7.167014e+002
2.953744e+002, 7.155469e+002
2.958565e+002, 7.145832e+002
2.963386e+002, 7.139967e+002
2.968207e+002, 7.141163e+002
2.973029e+002, 7.151904e+002
2.977850e+002, 7.168256e+002
2.982671e+002, 7.180379e+002
2.987492e+002, 7.186775e+002
2.992313e+002, 7.191930e+002
2.997134e+002, 7.195041e+002
3.001956e+002, 7.198576e+002
3.006777e+002, 7.205336e+002
3.011598e+002, 7.216334e+002
3.016419e+002, 7.229036e+002
3.021240e+002, 7.238857e+002
3.026061e+002, 7.244418e+002
3.030883e+002, 7.250817e+002
3.035704e+002, 7.260923e+002
3.040525e+002, 7.270570e+002
3.045346e+002, 7.277120e+002
3.050167e+002, 7.279960e+002
3.054988e+002, 7.279806e+002
3.059810e+002, 7.274887e+002
3.064631e+002, 7.261766e+002
3.069452e+002, 7.259608e+002
3.074273e+002, 7.283099e+002
3.079094e+002, 7.307043e+002
3.083915e+002, 7.317824e+002
3.088737e+002, 7.316795e+002
3.093558e+002, 7.315338e+002
3.098379e+002, 7.325317e+002
3.103200e+002, 7.347596e+002
3.108021e+002, 7.363883e+002
3.112842e+002, 7.372152e+002
3.117664e+002, 7.375710e+002
3.122485e+002, 7.371675e+002
3.127306e+002, 7.363815e+002
3.132127e+002, 7.360031e+002
3.136948e+002, 7.367312e+002
3.141769e+002, 7.383041e+002
3.146591e+002, 7.390613e+002
3.151412e+002, 7.382491e+002
3.156233e+002, 7.376449e+002
3.161054e+002, 7.379080e+002
3.165875e+002, 7.386276e+002
3.170696e+002, 7.392899e+002
3.175518e+002, 7.396736e+002
3.180339e+002, 7.397950e+002
3.185160e+002, 7.396536e+002
3.189981e+002, 7.391292e+002
3.194802e+002, 7.385989e+002
3.199623e+002, 7.381788e+002
3.204445e+002, 7.377809e+002
3.209266e+002, 7.371588e+002
3.214087e+002, 7.362473e+002
3.218908e+002, 7.356055e+002
3.223729e+002, 7.363632e+002
3.228550e+002, 7.391851e+002
3.233372e+002, 7.410469e+002
3.238193e+002, 7.409119e+002
3.243014e+002, 7.401760e+002
3.247835e+002, 7.393707e+002
3.252656e+002, 7.386602e+002
3.257477e+002, 7.382321e+002
3.262299e+002, 7.384094e+002
3.267120e+002, 7.392659e+002
3.271941e+002, 7.398553e+002
3.276762e+002, 7.398566e+002
3.281583e+002, 7.398330e+002
3.286404e+002, 7.400268e+002
3.291226e+002, 7.403936e+002
3.296047e+002, 7.407939e+002
3.300868e+002, 7.412431e+002
3.305689e+002, 7.416630e+002
3.310510e+002, 7.414163e+002
3.315331e+002, 7.396348e+002
3.320153e+002, 7.385248e+002
3.324974e+002, 7.392610e+002
3.329795e+002, 7.410001e+002
3.334616e+002, 7.426858e+002
3.339437e+002, 7.440464e+002
3.344258e+002, 7.446927e+002
3.349080e+002, 7.433142e+002
3.353901e+002, 7.387150e+002
3.358722e+002, 7.352564e+002
3.363543e+002, 7.350761e+002
3.368365e+002, 7.360824e+002
3.373186e+002, 7.364571e+002
3.378007e+002, 7.356768e+002
3.382828e+002, 7.347307e+002
3.387649e+002, 7.350300e+002
3.392470e+002, 7.367985e+002
3.397292e+002, 7.381063e+002
3.402113e+002, 7.382181e+002
3.406934e+002, 7.379957e+002
3.411755e+002, 7.379858e+002
3.416576e+002, 7.381920e+002
3.421397e+002, 7.382645e+002
3.426219e+002, 7.377772e+002
3.431040e+002, 7.367932e+002
3.435861e+002, 7.360432e+002
3.440682e+002, 7.353907e+002
3.445503e+002, 7.352567e+002
3.450324e+002, 7.364609e+002
3.455146e+002, 7.383364e+002
3.459967e+002, 7.391835e+002
3.464788e+002, 7.374946e+002
3.469609e+002, 7.343684e+002
3.474430e+002, 7.324772e+002
3.479251e+002, 7.320673e+002
3.484073e+002, 7.322374e+002
3.488894e+002, 7.333613e+002
3.493715e+002, 7.345434e+002
3.498536e+002, 7.345430e+002
3.503357e+002, 7.327153e+002
3.508178e+002, 7.302505e+002
3.513000e+002, 7.282562e+002
3.517821e+002, 7.267098e+002
3.522642e+002, 7.262879e+002
3.527463e+002, 7.282239e+002
3.532284e+002, 7.306827e+002
3.537105e+002, 7.316924e+002
3.541927e+002, 7.310368e+002
3.546748e+002, 7.300300e+002
3.551569e+002, 7.296998e+002
3.556390e+002, 7.298177e+002
3.561211e+002, 7.292322e+002
3.566032e+002, 7.273500e+002
3.570854e+002, 7.253920e+002
3.575675e+002, 7.247858e+002
3.580496e+002, 7.252155e+002
3.585317e+002, 7.251198e+002
3.590138e+002, 7.233073e+002
3.594959e+002, 7.208063e+002
3.599781e+002, 7.192346e+002
3.604602e+002, 7.187404e+002
3.609423e+002, 7.187923e+002
3.614244e+002, 7.192029e+002
3.619065e+002, 7.198948e+002
3.623886e+002, 7.207098e+002
3.628708e+002, 7.221115e+002
3.633529e+002, 7.231273e+002
3.638350e+002, 7.225117e+002
3.643171e+002, 7.205412e+002
3.647992e+002, 7.191560e+002
3.652813e+002, 7.193865e+002
3.657635e+002, 7.205276e+002
3.662456e+002, 7.211688e+002
3.667277e+002, 7.212286e+002
3.672098e+002, 7.210880e+002
3.676919e+002, 7.210815e+002
3.681740e+002, 7.209456e+002
3.686562e+002, 7.199890e+002
3.691383e+002, 7.179081e+002
3.696204e+002, 7.156604e+002
3.701025e+002, 7.145087e+002
3.705846e+002, 7.145257e+002
3.710667e+002, 7.144258e+002
3.715489e+002, 7.143737e+002
3.720310e+002, 7.139374e+002
3.725131e+002, 7.121759e+002
3.729952e+002, 7.092503e+002
3.734773e+002, 7.071102e+002
3.739594e+002, 7.073885e+002
3.744416e+002, 7.098561e+002
3.749237e+002, 7.115323e+002
3.754058e+002, 7.123151e+002
3.758879e+002, 7.125295e+002
3.763700e+002, 7.120584e+002
3.768521e+002, 7.111279e+002
3.773343e+002, 7.102237e+002
3.778164e+002, 7.095818e+002
3.782985e+002, 7.089838e+002
3.787806e+002, 7.078617e+002
3.792627e+002, 7.052178e+002
3.797448e+002, 7.037484e+002
3.802270e+002, 7.045612e+002
3.807091e+002, 7.061133e+002
3.811912e+002, 7.070566e+002
3.816733e+002, 7.070944e+002
3.821554e+002, 7.065534e+002
3.826375e+002, 7.057291e+002
3.831197e+002, 7.045009e+002
3.836018e+002, 7.036179e+002
3.840839e+002, 7.033884e+002
3.845660e+002, 7.031400e+002
3.850481e+002, 7.025887e+002
3.855302e+002, 7.017644e+002
3.860124e+002, 7.007623e+002
3.864945e+002, 6.996093e+002
3.869766e+002, 6.983967e+002
3.874587e+002, 6.976018e+002
3.879408e+002, 6.974056e+002
3.884229e+002, 6.974687e+002
3.889051e+002, 6.981835e+002
3.893872e+002, 6.989398e+002
3.898693e+002, 6.990624e+002
3.903514e+002, 6.983484e+002
3.908335e+002, 6.971954e+002
3.913156e+002, 6.961384e+002
3.917978e+002, 6.949678e+002
3.922799e+002, 6.944937e+002
3.927620e+002, 6.958580e+002
3.932441e+002, 6.969000e+002
3.937262e+002, 6.963381e+002
3.942083e+002, 6.943637e+002
3.946905e+002, 6.920266e+002
3.951726e+002, 6.900408e+002
3.956547e+002, 6.884134e+002
3.961368e+002, 6.872490e+002
3.966189e+002, 6.868122e+002
3.971010e+002, 6.864961e+002
3.975832e+002, 6.861765e+002
3.980653e+002, 6.858241e+002
3.985474e+002, 6.853907e+002
3.990295e+002, 6.848417e+002
3.995116e+002, 6.842677e+002
3.999937e+002, 6.838154e+002
4.004759e+002, 6.835015e+002
4.009580e+002, 6.832345e+002
4.014401e+002, 6.831724e+002
4.019222e+002, 6.830148e+002
4.024043e+002, 6.825544e+002
4.028864e+002, 6.817797e+002
4.033686e+002, 6.808035e+002
4.038507e+002, 6.796627e+002
4.043328e+002, 6.783781e+002
4.048149e+002, 6.768802e+002
4.052970e+002, 6.747709e+002
4.057791e+002, 6.733192e+002
4.062613e+002, 6.741232e+002
4.067434e+002, 6.761537e+002
4.072255e+002, 6.773184e+002
4.077076e+002, 6.766325e+002
4.081897e+002, 6.751454e+002
4.086718e+002, 6.739361e+002
4.091540e+002, 6.729913e+002
4.096361e+002, 6.720385e+002
4.101182e+002, 6.708004e+002
4.106003e+002, 6.696483e+002
4.110824e+002, 6.692537e+002
4.115645e+002, 6.698046e+002
4.120467e+002, 6.703120e+002
4.125288e+002, 6.705491e+002
4.130109e+002, 6.704119e+002
