##NAMES=Bakerite
##RRUFFID=R050423
##IDEAL CHEMISTRY=Ca_4_B_5_(SiO_4_)_3_(O_3_(OH)_5_)
##LOCALITY=Corkscrew Canyon, Death Valley, California, USA
##OWNER=RRUFF
##SOURCE=Marcus Origlieri
##DESCRIPTION=White fine-grained aggregate
##STATUS=The identification of this mineral has been confirmed by X-ray diffraction and chemical analysis
##URL=rruff.info/R050423
##MEASURED CHEMISTRY=Ca_4.00_(B_4.99_S_0.01_)_Σ=5_(Si_2.97_Al_0.03_)_Σ=3_O_15_(OH)_5_
93.30109, 0.0000000E+00
93.78320, 135.3685
94.26532, 138.1989
94.74744, 138.5352
95.22955, 136.0111
95.71167, 132.6053
96.19379, 130.7948
96.67590, 131.4412
97.15802, 131.6324
97.64014, 131.5505
98.12225, 130.7266
98.60437, 128.1720
99.08649, 123.3243
99.56860, 117.0509
100.0507, 110.5485
100.5328, 103.2960
101.0150, 96.83865
101.4971, 92.66633
101.9792, 90.81218
102.4613, 89.10619
102.9434, 85.87253
103.4255, 82.82032
103.9077, 81.63597
104.3898, 83.16872
104.8719, 85.73965
105.3540, 85.79072
105.8361, 81.60242
106.3182, 77.73341
106.8004, 75.17924
107.2825, 73.46950
107.7646, 72.05905
108.2467, 70.63425
108.7288, 69.19491
109.2109, 67.77778
109.6931, 66.45876
110.1752, 65.07006
110.6573, 63.56514
111.1394, 61.94761
111.6215, 60.21129
112.1036, 58.32035
112.5858, 56.21151
113.0679, 54.51806
113.5500, 53.34007
114.0321, 52.46012
114.5142, 51.76302
114.9964, 51.22920
115.4785, 50.82691
115.9606, 50.59288
116.4427, 50.51662
116.9248, 50.35305
117.4069, 49.83579
117.8891, 49.20593
118.3712, 49.00584
118.8533, 49.50672
119.3354, 50.22024
119.8175, 50.66395
120.2996, 50.86192
120.7818, 51.03172
121.2639, 51.25887
121.7460, 51.53619
122.2281, 52.06889
122.7102, 53.49634
123.1923, 54.78384
123.6745, 55.34105
124.1566, 55.07548
124.6387, 54.32869
125.1208, 53.55902
125.6029, 52.76170
126.0850, 51.94799
126.5672, 51.01217
127.0493, 50.11632
127.5314, 49.44114
128.0135, 49.04834
128.4956, 48.81456
128.9777, 48.38064
129.4599, 47.42654
129.9420, 46.62318
130.4241, 46.04058
130.9062, 45.63335
131.3883, 45.37459
131.8704, 45.28200
132.3526, 45.28236
132.8347, 44.95585
133.3168, 44.11366
133.7989, 43.21729
134.2810, 42.44422
134.7632, 41.78001
135.2453, 41.11549
135.7274, 40.28699
136.2095, 39.43193
136.6916, 38.95649
137.1737, 39.12465
137.6559, 39.53251
138.1380, 39.83618
138.6201, 40.05823
139.1022, 40.06273
139.5843, 39.53965
140.0664, 38.76906
140.5486, 38.15965
141.0307, 37.98223
141.5128, 38.06860
141.9949, 37.90384
142.4770, 37.29873
142.9591, 36.71282
143.4413, 36.27998
143.9234, 36.00489
144.4055, 35.90263
144.8876, 36.05107
145.3697, 36.45312
145.8518, 36.62299
146.3340, 36.45481
146.8161, 36.12353
147.2982, 35.47020
147.7803, 34.64492
148.2624, 34.01782
148.7445, 34.00891
149.2267, 34.86217
149.7088, 35.31261
150.1909, 35.15429
150.6730, 34.85752
151.1551, 34.63406
151.6372, 34.53359
152.1194, 34.53228
152.6015, 34.60046
153.0836, 34.74442
153.5657, 34.98053
154.0478, 35.49647
154.5299, 36.01650
155.0121, 36.24928
155.4942, 36.11475
155.9763, 35.76823
156.4584, 35.38144
156.9405, 34.93940
157.4226, 34.57359
157.9048, 34.27471
158.3869, 34.07842
158.8690, 34.08468
159.3511, 34.37972
159.8332, 34.80074
160.3153, 35.18283
160.7975, 35.53395
161.2796, 35.77240
161.7617, 35.79687
162.2438, 35.62420
162.7259, 35.47837
163.2081, 35.46143
163.6902, 35.44535
164.1723, 35.31757
164.6544, 35.06756
165.1365, 34.80238
165.6186, 34.66169
166.1008, 34.69389
166.5829, 34.63321
167.0650, 34.18440
167.5471, 33.79159
168.0292, 33.81476
168.5113, 34.32504
168.9935, 35.01741
169.4756, 35.38030
169.9577, 35.24608
170.4398, 35.07662
170.9219, 34.83288
171.4040, 34.61580
171.8862, 34.53744
172.3683, 34.63367
172.8504, 34.81631
173.3325, 34.87689
173.8146, 34.75170
174.2967, 34.55806
174.7789, 34.20448
175.2610, 33.81468
175.7431, 33.54869
176.2252, 33.48065
176.7073, 33.54478
177.1894, 33.52468
177.6716, 33.35105
178.1537, 33.18879
178.6358, 33.06190
179.1179, 32.96720
179.6000, 32.90705
180.0821, 32.89633
180.5643, 32.90304
181.0464, 32.82351
181.5285, 32.57978
182.0106, 32.37620
182.4927, 32.37747
182.9748, 32.52900
183.4570, 32.57212
183.9391, 32.32846
184.4212, 31.92576
184.9033, 31.65875
185.3854, 31.58405
185.8675, 31.55837
186.3497, 31.45906
186.8318, 31.28336
187.3139, 31.13223
187.7960, 31.09534
188.2781, 31.08656
188.7602, 30.99161
189.2424, 30.74877
189.7245, 30.50326
190.2066, 30.48093
190.6887, 30.75983
191.1708, 30.97707
191.6530, 30.95394
192.1351, 30.83667
192.6172, 30.74350
193.0993, 30.71832
193.5814, 30.72681
194.0635, 30.69581
194.5457, 30.59152
195.0278, 30.51624
195.5099, 30.50214
195.9920, 30.51750
196.4741, 30.53463
196.9562, 30.54161
197.4384, 30.53971
197.9205, 30.53567
198.4026, 30.56793
198.8847, 30.53819
199.3668, 30.36606
199.8489, 30.15309
200.3311, 30.01868
200.8132, 30.02466
201.2953, 30.13501
201.7774, 30.20696
202.2595, 30.20826
202.7416, 30.20391
203.2238, 30.22206
203.7059, 30.23378
204.1880, 30.17337
204.6701, 29.99628
205.1522, 29.75714
205.6343, 29.71049
206.1165, 30.07460
206.5986, 30.35932
207.0807, 30.46057
207.5628, 30.41084
208.0449, 30.24725
208.5270, 29.96382
209.0092, 29.61657
209.4913, 29.44646
209.9734, 29.58753
210.4555, 29.70436
210.9376, 29.64881
211.4197, 29.47207
211.9019, 29.28898
212.3840, 29.10600
212.8661, 29.01338
213.3482, 29.25372
213.8303, 30.10395
214.3124, 30.82400
214.7946, 30.89577
215.2767, 30.42451
215.7588, 29.97498
216.2409, 29.78646
216.7230, 29.77910
217.2052, 29.76008
217.6873, 29.70681
218.1694, 29.68750
218.6515, 29.78058
219.1336, 29.98142
219.6157, 30.15955
220.0979, 30.29357
220.5800, 30.35620
221.0621, 30.30893
221.5442, 30.12979
222.0263, 29.91200
222.5084, 29.74335
222.9906, 29.62704
223.4727, 29.51551
223.9548, 29.35417
224.4369, 29.21958
224.9190, 29.18311
225.4011, 29.26082
225.8833, 29.38243
226.3654, 29.49789
226.8475, 29.63242
227.3296, 29.63338
227.8117, 29.31054
228.2938, 28.94352
228.7760, 28.68329
229.2581, 28.56453
229.7402, 28.56619
230.2223, 28.68806
230.7044, 28.98561
231.1865, 29.22705
231.6687, 29.38891
232.1508, 29.49227
232.6329, 29.55421
233.1150, 29.57533
233.5971, 29.53450
234.0792, 29.39223
234.5614, 29.10541
235.0435, 28.81953
235.5256, 28.35238
236.0077, 28.01595
236.4898, 28.11250
236.9719, 28.63948
237.4541, 29.26729
237.9362, 29.52941
238.4183, 29.21265
238.9004, 29.03566
239.3825, 29.08631
239.8646, 29.18413
240.3468, 29.25620
240.8289, 29.27154
241.3110, 29.19238
241.7931, 28.95371
242.2752, 28.46015
242.7573, 28.08756
243.2395, 27.70610
243.7216, 27.51772
244.2037, 27.79745
244.6858, 28.50296
245.1679, 29.22541
245.6501, 29.50007
246.1322, 29.19060
246.6143, 28.92159
247.0964, 28.69916
247.5785, 28.50648
248.0606, 28.32693
248.5428, 28.16228
249.0249, 28.02846
249.5070, 27.93658
249.9891, 27.88942
250.4712, 27.92237
250.9533, 28.19011
251.4355, 28.41494
251.9176, 28.33907
252.3997, 27.98324
252.8818, 27.65634
253.3639, 27.65465
253.8460, 27.98129
254.3282, 28.07589
254.8103, 27.72174
255.2924, 27.31315
255.7745, 27.13685
256.2566, 27.18568
256.7387, 27.26334
257.2209, 27.23290
257.7030, 27.10862
258.1851, 27.02070
258.6672, 26.95557
259.1493, 26.93753
259.6314, 27.02606
260.1136, 27.20526
260.5957, 27.33668
261.0778, 27.34630
261.5599, 27.23419
262.0420, 27.04267
262.5241, 26.62642
263.0063, 26.30261
263.4884, 26.37927
263.9705, 26.80857
264.4526, 27.17512
264.9347, 27.29042
265.4168, 27.20802
265.8990, 27.05879
266.3811, 26.80084
266.8632, 26.56875
267.3453, 26.45988
267.8274, 26.46538
268.3095, 26.51834
268.7917, 26.60899
269.2738, 26.72888
269.7559, 26.85755
270.2380, 26.99249
270.7201, 27.14905
271.2022, 27.38887
271.6844, 27.68585
272.1665, 27.85641
272.6486, 27.81380
273.1307, 27.65984
273.6128, 27.49996
274.0949, 27.33390
274.5771, 27.16772
275.0592, 26.96139
275.5413, 26.73916
276.0234, 26.66135
276.5055, 26.84368
276.9876, 27.05721
277.4698, 27.11243
277.9519, 27.03523
278.4340, 26.95810
278.9161, 26.95566
279.3982, 27.01794
279.8803, 27.10537
280.3625, 27.23293
280.8446, 27.35851
281.3267, 27.51769
281.8088, 27.66168
282.2909, 27.66520
282.7730, 27.34501
283.2552, 26.83710
283.7373, 26.61710
284.2194, 26.82049
284.7015, 27.06765
285.1836, 27.21210
285.6658, 27.27463
286.1479, 27.27341
286.6300, 27.19015
287.1121, 27.07396
287.5942, 27.03584
288.0764, 27.08909
288.5585, 27.19412
289.0406, 27.43207
289.5227, 27.67176
290.0048, 27.75614
290.4869, 27.61430
290.9691, 27.35547
291.4512, 27.15187
291.9333, 27.00259
292.4154, 26.91556
292.8975, 26.93140
293.3796, 26.98616
293.8618, 27.05087
294.3439, 27.11784
294.8260, 27.15281
295.3081, 27.09440
295.7902, 26.91719
296.2723, 26.76823
296.7545, 26.75047
297.2366, 26.71072
297.7187, 26.49970
298.2008, 26.13134
298.6829, 25.81138
299.1650, 25.79740
299.6472, 26.12978
300.1293, 26.38334
300.6114, 26.51781
301.0935, 26.57520
301.5756, 26.52252
302.0577, 26.39552
302.5399, 26.29574
303.0220, 26.32494
303.5041, 26.47497
303.9862, 26.56119
304.4683, 26.56586
304.9504, 26.51831
305.4326, 26.38634
305.9147, 26.21689
306.3968, 26.09017
306.8789, 26.05464
307.3610, 26.09931
307.8431, 26.19164
308.3253, 26.42113
308.8074, 26.55013
309.2895, 26.52454
309.7716, 26.37511
310.2537, 26.09308
310.7358, 25.65001
311.2180, 25.18630
311.7001, 25.04839
312.1822, 25.41571
312.6643, 25.71420
313.1464, 25.81062
313.6285, 25.81683
314.1107, 25.79493
314.5928, 25.76632
315.0749, 25.76826
315.5570, 25.87458
316.0391, 26.13051
316.5212, 26.32422
317.0034, 26.41919
317.4855, 26.45916
317.9676, 26.43316
318.4497, 26.35751
318.9318, 26.29729
319.4139, 26.33910
319.8961, 26.50021
320.3782, 26.59322
320.8603, 26.59332
321.3424, 26.53980
321.8245, 26.40250
322.3066, 26.22013
322.7888, 26.07766
323.2709, 26.04682
323.7530, 26.11175
324.2351, 26.15499
324.7172, 26.15717
325.1993, 26.16424
325.6815, 26.15949
326.1636, 26.17542
326.6457, 26.27643
327.1278, 26.51403
327.6099, 26.80091
328.0920, 26.91413
328.5742, 26.77466
329.0563, 26.62591
329.5384, 26.47651
330.0205, 26.36942
330.5026, 26.38360
330.9847, 26.53995
331.4669, 26.69580
331.9490, 26.61963
332.4311, 26.24128
332.9132, 25.94000
333.3953, 25.82163
333.8774, 25.75964
334.3596, 25.67852
334.8417, 25.58047
335.3238, 25.53377
335.8059, 25.66923
336.2880, 25.99281
336.7701, 26.09545
337.2523, 25.73716
337.7344, 25.41114
338.2165, 25.35457
338.6986, 25.50307
339.1807, 25.69350
339.6628, 25.84932
340.1450, 25.96503
340.6271, 26.01161
341.1092, 25.94821
341.5913, 25.89333
342.0735, 25.88476
342.5556, 25.91156
343.0377, 25.97489
343.5198, 26.08915
344.0019, 26.19768
344.4840, 26.19430
344.9662, 26.05083
345.4483, 25.91986
345.9304, 25.85183
346.4125, 25.81135
346.8946, 25.78387
347.3767, 25.76632
347.8589, 25.74372
348.3410, 25.69005
348.8231, 25.60666
349.3052, 25.56072
349.7873, 25.59489
350.2694, 25.63083
350.7516, 25.57084
351.2337, 25.45014
351.7158, 25.41825
352.1979, 25.64417
352.6800, 26.03361
353.1621, 26.26193
353.6443, 26.27128
354.1264, 26.23835
354.6085, 26.25614
355.0906, 26.30391
355.5727, 26.35336
356.0548, 26.40318
356.5370, 26.44137
357.0191, 26.44067
357.5012, 26.39605
357.9833, 26.37090
358.4654, 26.41337
358.9475, 26.47631
359.4297, 26.50606
359.9118, 26.49692
360.3939, 26.46068
360.8760, 26.37689
361.3581, 26.26299
361.8402, 26.21364
362.3224, 26.27444
362.8045, 26.36974
363.2866, 26.41061
363.7687, 26.40393
364.2508, 26.42337
364.7329, 26.51986
365.2151, 26.65396
365.6972, 26.76059
366.1793, 26.83285
366.6614, 26.88938
367.1435, 26.94618
367.6256, 26.99778
368.1078, 27.02762
368.5899, 27.06330
369.0720, 27.05186
369.5541, 26.88676
370.0362, 26.60146
370.5183, 26.43334
371.0005, 26.53142
371.4826, 26.78320
371.9647, 26.92976
372.4468, 26.94542
372.9289, 26.93610
373.4110, 26.92728
373.8932, 26.92358
374.3753, 26.95314
374.8574, 27.03318
375.3395, 27.08313
375.8216, 26.96936
376.3037, 26.66383
376.7859, 26.45332
377.2680, 26.34879
377.7501, 26.36084
378.2322, 26.53856
378.7143, 26.86571
379.1964, 27.23549
379.6786, 27.60260
380.1607, 27.94593
380.6428, 28.08011
381.1249, 27.84653
381.6070, 27.61170
382.0891, 27.49839
382.5713, 27.47529
383.0534, 27.49181
383.5355, 27.53109
384.0176, 27.56254
384.4997, 27.51492
384.9818, 27.26559
385.4640, 27.14190
385.9461, 27.22403
386.4282, 27.38953
386.9103, 27.55927
387.3924, 27.70871
387.8745, 27.82345
388.3567, 27.88492
388.8388, 27.88873
389.3209, 27.86795
389.8030, 27.72540
390.2851, 27.65994
390.7672, 27.78123
391.2494, 28.03573
391.7315, 28.31688
392.2136, 28.56409
392.6957, 28.78228
393.1778, 28.99453
393.6599, 29.33858
394.1421, 29.46150
394.6242, 29.17379
395.1063, 28.75855
395.5884, 28.44669
396.0706, 28.30358
396.5527, 28.28283
397.0348, 28.35361
397.5169, 28.56431
397.9990, 28.67079
398.4811, 28.56805
398.9633, 28.45262
399.4454, 28.42772
399.9275, 28.45706
400.4096, 28.43806
400.8917, 28.30375
401.3738, 28.06510
401.8560, 27.75290
402.3381, 27.29874
402.8202, 26.90429
403.3023, 26.59555
403.7844, 26.38309
404.2665, 26.30566
404.7487, 26.38202
405.2308, 26.50515
405.7129, 26.56094
406.1950, 26.54998
406.6771, 26.46151
407.1592, 26.19069
407.6414, 25.95010
408.1235, 25.97496
408.6056, 26.20307
409.0877, 26.29066
409.5698, 25.90439
410.0519, 25.25833
410.5341, 24.86624
411.0162, 24.78356
411.4983, 24.79395
411.9804, 24.84330
412.4625, 24.88226
412.9446, 24.80631
413.4268, 24.51446
413.9089, 24.24740
414.3910, 24.24468
414.8731, 24.45176
415.3552, 24.60580
415.8373, 24.61915
416.3195, 24.55105
416.8016, 24.48975
417.2837, 24.44175
417.7658, 24.34293
418.2479, 24.11526
418.7300, 23.86032
419.2122, 23.69432
419.6943, 23.62860
420.1764, 23.60570
420.6585, 23.57049
421.1406, 23.53676
421.6227, 23.62104
422.1049, 24.05326
422.5870, 24.34311
423.0691, 24.17969
423.5512, 23.75989
424.0333, 23.42887
424.5154, 23.32398
424.9976, 23.38384
425.4797, 23.50690
425.9618, 23.78132
426.4439, 23.93411
426.9260, 23.92723
427.4081, 23.83470
427.8903, 23.64929
428.3724, 23.41138
428.8545, 23.24182
429.3366, 23.24998
429.8187, 23.42612
430.3008, 23.54713
430.7830, 23.56793
431.2651, 23.58007
431.7472, 23.60751
432.2293, 23.62989
432.7114, 23.60186
433.1935, 23.50957
433.6757, 23.42058
434.1578, 23.47106
434.6399, 23.72819
435.1220, 23.88495
435.6041, 23.81319
436.0862, 23.72294
436.5684, 23.74381
437.0505, 23.84103
437.5326, 23.87815
438.0147, 23.74525
438.4968, 23.48540
438.9789, 23.23020
439.4611, 22.94023
439.9432, 22.75705
440.4253, 22.83490
440.9074, 23.00542
441.3895, 23.08643
441.8716, 23.02667
442.3538, 22.95699
442.8359, 23.02533
443.3180, 23.20076
443.8001, 23.28119
444.2822, 23.18814
444.7643, 23.06610
445.2465, 23.09139
445.7286, 23.22442
446.2107, 23.27718
446.6928, 23.12264
447.1749, 22.91577
447.6570, 22.80317
448.1392, 22.78483
448.6213, 22.83147
449.1034, 22.95930
449.5855, 23.11423
450.0677, 23.13481
450.5498, 22.96502
451.0319, 22.80781
451.5140, 22.75359
451.9961, 22.72157
452.4782, 22.56686
452.9604, 22.27660
453.4425, 22.04611
453.9246, 22.10418
454.4067, 22.49749
454.8888, 22.67906
455.3709, 22.48557
455.8531, 22.29728
456.3352, 22.24340
456.8173, 22.29031
457.2994, 22.38564
457.7815, 22.50590
458.2636, 22.61411
458.7458, 22.62147
459.2279, 22.44587
459.7100, 22.34162
460.1921, 22.34798
460.6742, 22.39067
461.1563, 22.41543
461.6385, 22.43293
462.1206, 22.50833
462.6027, 22.73621
463.0848, 23.05476
463.5669, 23.11711
464.0490, 22.79070
464.5312, 22.47373
465.0133, 22.32043
465.4954, 22.23317
465.9775, 22.11491
466.4596, 21.94127
466.9417, 21.75867
467.4239, 21.56827
467.9060, 21.38898
468.3881, 21.36495
468.8702, 21.57595
469.3523, 21.83078
469.8344, 22.01830
470.3166, 22.12992
470.7987, 22.10592
471.2808, 21.75836
471.7629, 21.40446
472.2450, 21.40606
472.7271, 21.68678
473.2093, 21.83410
473.6914, 21.63929
474.1735, 21.28901
474.6556, 21.16220
475.1377, 21.33474
475.6198, 21.43443
476.1020, 21.32134
476.5841, 21.17027
477.0662, 21.14764
477.5483, 21.25348
478.0304, 21.37824
478.5125, 21.44253
478.9947, 21.44973
479.4768, 21.42821
479.9589, 21.29132
480.4410, 21.23216
480.9231, 21.35678
481.4052, 21.52874
481.8874, 21.60190
482.3695, 21.54445
482.8516, 21.43445
483.3337, 21.36859
483.8158, 21.35626
484.2979, 21.30818
484.7801, 21.20873
485.2622, 21.08818
485.7443, 20.85926
486.2264, 20.63999
486.7085, 20.65545
487.1906, 21.04822
487.6728, 21.53325
488.1549, 21.66780
488.6370, 21.42801
489.1191, 21.21849
489.6012, 21.12890
490.0833, 21.09762
490.5655, 21.07483
491.0476, 21.05899
491.5297, 21.03946
492.0118, 21.00478
492.4939, 20.96823
492.9760, 20.94642
493.4582, 20.93946
493.9403, 20.94803
494.4224, 20.98982
494.9045, 21.03164
495.3866, 20.98140
495.8687, 20.81113
496.3509, 20.63893
496.8330, 20.42794
497.3151, 20.26439
497.7972, 20.28896
498.2793, 20.49048
498.7614, 20.68877
499.2436, 20.73035
499.7257, 20.62207
500.2078, 20.48997
500.6899, 20.20196
501.1720, 20.05121
501.6541, 20.25272
502.1363, 20.53200
502.6184, 20.52046
503.1005, 20.15439
503.5826, 19.77914
504.0647, 19.90441
504.5468, 20.61416
505.0290, 20.96875
505.5111, 20.70043
505.9932, 20.39634
506.4753, 20.28784
506.9575, 20.29757
507.4396, 20.28978
507.9217, 20.20477
508.4038, 20.12133
508.8859, 20.18198
509.3680, 20.37276
509.8502, 20.42846
510.3323, 20.24297
510.8144, 19.98378
511.2965, 19.79137
511.7786, 19.66174
512.2607, 19.59037
512.7429, 19.57716
513.2250, 19.62091
513.7071, 19.74880
514.1892, 19.94061
514.6713, 20.12675
515.1534, 20.28704
515.6356, 20.39567
516.1177, 20.38848
516.5998, 20.15716
517.0819, 20.05770
517.5640, 20.29811
518.0461, 20.51046
518.5283, 20.37499
519.0104, 19.96963
519.4925, 19.60697
519.9746, 19.49677
520.4567, 19.57218
520.9388, 19.58315
521.4210, 19.48014
521.9031, 19.40458
522.3852, 19.35399
522.8673, 19.34632
523.3494, 19.42619
523.8315, 19.57480
524.3137, 19.69755
524.7958, 19.70084
525.2779, 19.62309
525.7600, 19.62152
526.2421, 19.73764
526.7242, 19.76847
527.2064, 19.48975
527.6885, 19.15143
528.1706, 19.10939
528.6527, 19.44875
529.1348, 19.74476
529.6169, 19.72471
530.0991, 19.54255
530.5812, 19.45083
531.0633, 19.47992
531.5454, 19.53024
532.0275, 19.51972
532.5096, 19.46753
532.9918, 19.50882
533.4739, 19.79300
533.9560, 19.96468
534.4381, 19.83681
534.9202, 19.62131
535.4023, 19.57892
535.8845, 19.73907
536.3666, 19.90245
536.8487, 19.84553
537.3308, 19.56924
537.8129, 19.48090
538.2950, 19.80857
538.7772, 20.02659
539.2593, 19.95264
539.7414, 19.74776
540.2235, 19.56395
540.7056, 19.44391
541.1877, 19.38232
541.6699, 19.36141
542.1520, 19.38850
542.6341, 19.54994
543.1162, 19.92916
543.5983, 20.25174
544.0804, 20.25803
544.5626, 20.09945
545.0447, 20.05824
545.5268, 20.21084
546.0089, 20.40888
546.4910, 20.62830
546.9731, 20.82035
547.4553, 20.84974
547.9374, 20.68664
548.4195, 20.52336
548.9016, 20.56238
549.3837, 20.81074
549.8658, 20.92773
550.3480, 20.78691
550.8301, 20.69039
551.3122, 20.74134
551.7943, 20.87344
552.2764, 21.04833
552.7585, 21.23545
553.2407, 21.32972
553.7228, 21.15959
554.2049, 20.70181
554.6870, 20.40639
555.1691, 20.30986
555.6512, 20.33678
556.1334, 20.59112
556.6155, 20.88463
557.0976, 20.94290
557.5797, 20.66845
558.0618, 20.34847
558.5439, 20.25539
559.0261, 20.33394
559.5082, 20.39137
559.9903, 20.41181
560.4724, 20.36233
560.9545, 20.17381
561.4366, 19.88693
561.9188, 19.70887
562.4009, 19.76673
562.8830, 19.77703
563.3651, 19.51189
563.8472, 19.18621
564.3293, 19.13645
564.8115, 19.41514
565.2936, 19.78409
565.7757, 20.02236
566.2578, 20.13073
566.7399, 20.09721
567.2220, 19.76040
567.7042, 19.47098
568.1863, 19.26165
568.6684, 19.14178
569.1505, 19.14472
569.6326, 19.26687
570.1147, 19.42409
570.5969, 19.57512
571.0790, 19.70327
571.5611, 19.66656
572.0432, 19.38964
572.5253, 19.16220
573.0074, 19.18901
573.4896, 19.33179
573.9717, 19.37400
574.4538, 19.26558
574.9359, 19.17993
575.4180, 19.21335
575.9001, 19.31180
576.3823, 19.40914
576.8644, 19.49574
577.3465, 19.57256
577.8286, 19.64212
578.3107, 19.70132
578.7928, 19.73439
579.2750, 19.71868
579.7571, 19.70562
580.2392, 19.69133
580.7213, 19.68517
581.2034, 19.68337
581.6855, 19.69410
582.1677, 19.75632
582.6498, 19.93255
583.1319, 20.14770
583.6140, 20.07790
584.0961, 19.57852
584.5782, 19.29406
585.0604, 19.57100
585.5425, 20.00423
586.0246, 20.30253
586.5067, 20.45199
586.9889, 20.44956
587.4710, 20.12294
587.9531, 19.75651
588.4352, 19.72508
