##NAMES=Bakhchisaraitsevite
##RRUFFID=R060607
##IDEAL CHEMISTRY=Na_2_Mg_5_(PO_4_)_4_&#183;7H_2_O
##LOCALITY=Kovdor Massif,  Kola Peninsula,  Murmanskaja Oblast', Northern Region, Russia
##OWNER=RRUFF
##SOURCE=Michael Scott
##DESCRIPTION=Colorless to brown radial aggregate of bladed crystals
##STATUS=The identification of this mineral is confirmed by single-crystal X-ray diffraction and chemical analysis.
##URL=rruff.info/R060607
##MEASURED CHEMISTRY=(Na_1.94_Ca_0.03_[box]_0.03_)_Σ=2_(Mg_4.65_Fe_0.20_Mn_0.15_)_Σ=5_(P_1.00_O_4_)_4_·7H_2_O; H_2_O estimated by difference
133.575, 3587.414
134.057, 3643.230
134.539, 3688.363
135.021, 3720.831
135.503, 3750.132
135.985, 3785.413
136.467, 3827.027
136.949, 3873.912
137.432, 3927.089
137.914, 3986.826
138.396, 4046.932
138.878, 4110.812
139.360, 4169.622
139.842, 4207.171
140.324, 4219.494
140.806, 4221.230
141.288, 4214.293
141.771, 4191.320
142.253, 4186.390
142.735, 4204.334
143.217, 4239.423
143.699, 4271.238
144.181, 4285.579
144.663, 4317.222
145.145, 4323.801
145.628, 4348.556
146.110, 4368.898
146.592, 4385.067
147.074, 4384.560
147.556, 4405.586
148.038, 4419.971
148.520, 4411.939
149.002, 4402.387
149.484, 4378.451
149.967, 4367.865
150.449, 4382.139
150.931, 4425.739
151.413, 4449.465
151.895, 4421.344
152.377, 4387.104
152.859, 4389.646
153.342, 4368.925
153.824, 4362.182
154.306, 4352.044
154.788, 4338.697
155.270, 4312.525
155.752, 4302.911
156.234, 4286.662
156.716, 4270.143
157.198, 4262.862
157.680, 4238.555
158.163, 4231.128
158.645, 4216.960
159.127, 4205.879
159.609, 4188.120
160.091, 4172.248
160.573, 4184.215
161.055, 4172.132
161.538, 4154.889
162.020, 4143.912
162.502, 4146.092
162.984, 4147.361
163.466, 4137.353
163.948, 4119.998
164.430, 4110.130
164.912, 4098.553
165.394, 4109.039
165.876, 4114.169
166.359, 4114.232
166.841, 4094.049
167.323, 4100.008
167.805, 4095.492
168.287, 4090.545
168.769, 4100.185
169.251, 4082.946
169.733, 4092.355
170.216, 4091.126
170.698, 4094.765
171.180, 4087.864
171.662, 4084.217
172.144, 4082.194
172.626, 4082.841
173.108, 4097.417
173.590, 4112.793
174.072, 4124.514
174.555, 4133.588
175.037, 4140.065
175.519, 4143.444
176.001, 4148.161
176.483, 4159.125
176.965, 4174.865
177.447, 4191.181
177.929, 4208.835
178.412, 4224.947
178.894, 4232.928
179.376, 4230.162
179.858, 4226.476
180.340, 4235.804
180.822, 4255.458
181.304, 4273.290
181.786, 4274.167
182.268, 4267.777
182.751, 4278.021
183.233, 4311.135
183.715, 4355.204
184.197, 4395.796
184.679, 4432.871
185.161, 4461.955
185.643, 4476.889
186.125, 4480.501
186.607, 4485.562
187.090, 4496.598
187.572, 4507.244
188.054, 4502.379
188.536, 4481.771
189.018, 4458.965
189.500, 4443.713
189.982, 4435.778
190.464, 4433.259
190.947, 4439.020
191.429, 4448.400
191.911, 4446.115
192.393, 4431.088
192.875, 4413.107
193.357, 4399.423
193.839, 4390.144
194.321, 4386.761
194.803, 4392.421
195.286, 4404.364
195.768, 4409.149
196.250, 4406.206
196.732, 4398.687
197.214, 4385.067
197.696, 4364.224
198.178, 4356.960
198.661, 4374.600
199.143, 4414.015
199.625, 4442.848
200.107, 4459.891
200.589, 4470.131
201.071, 4477.194
201.553, 4479.550
202.035, 4489.345
202.517, 4515.858
202.999, 4559.379
203.482, 4582.697
203.964, 4577.841
204.446, 4565.413
204.928, 4579.887
205.410, 4627.488
205.892, 4675.612
206.374, 4710.144
206.857, 4729.409
207.339, 4751.625
207.821, 4779.730
208.303, 4807.371
208.785, 4821.980
209.267, 4820.860
209.749, 4814.823
210.231, 4806.493
210.713, 4794.065
211.195, 4789.476
211.678, 4794.364
212.160, 4806.444
212.642, 4820.662
213.124, 4837.685
213.606, 4855.988
214.088, 4875.848
214.570, 4898.818
215.052, 4917.186
215.535, 4928.723
216.017, 4936.518
216.499, 4948.119
216.981, 4961.735
217.463, 4982.383
217.945, 5016.219
218.427, 5072.563
218.909, 5111.181
219.391, 5118.929
219.874, 5109.025
220.356, 5133.536
220.838, 5211.158
221.320, 5291.454
221.802, 5342.964
222.284, 5354.727
222.766, 5366.743
223.248, 5380.701
223.731, 5397.289
224.213, 5419.933
224.695, 5454.646
225.177, 5487.346
225.659, 5508.717
226.141, 5513.098
226.623, 5519.472
227.105, 5532.076
227.587, 5548.738
228.070, 5555.844
228.552, 5549.842
229.034, 5538.658
229.516, 5526.375
229.998, 5508.777
230.480, 5499.178
230.962, 5502.010
231.444, 5515.275
231.926, 5523.347
232.409, 5524.156
232.891, 5487.220
233.373, 5471.807
233.855, 5455.977
234.337, 5439.958
234.819, 5411.674
235.301, 5408.034
235.783, 5399.905
236.266, 5395.277
236.748, 5406.100
237.230, 5399.380
237.712, 5417.707
238.194, 5431.417
238.676, 5452.843
239.158, 5469.724
239.640, 5493.041
240.122, 5528.592
240.605, 5563.342
241.087, 5594.643
241.569, 5639.378
242.051, 5674.691
242.533, 5719.531
243.015, 5799.014
243.497, 5856.466
243.980, 5880.191
244.462, 5894.407
244.944, 5919.749
245.426, 5961.885
245.908, 6003.838
246.390, 6043.706
246.872, 6081.437
247.354, 6114.861
247.836, 6144.388
248.318, 6168.555
248.801, 6185.808
249.283, 6195.085
249.765, 6199.174
250.247, 6197.899
250.729, 6191.323
251.211, 6182.572
251.693, 6171.232
252.176, 6158.772
252.658, 6147.092
253.140, 6138.679
253.622, 6126.206
254.104, 6106.405
254.586, 6079.717
255.068, 6061.983
255.550, 6060.549
256.032, 6059.102
256.514, 6032.545
256.997, 5942.501
257.479, 5923.676
257.961, 5898.388
258.443, 5900.338
258.925, 5895.677
259.407, 5884.761
259.889, 5848.851
260.371, 5844.775
260.854, 5810.679
261.336, 5778.589
261.818, 5725.856
262.300, 5654.996
262.782, 5602.859
263.264, 5579.905
263.746, 5560.492
264.228, 5519.889
264.711, 5448.825
265.193, 5384.261
265.675, 5333.526
266.157, 5295.711
266.639, 5256.654
267.121, 5216.125
267.603, 5175.389
268.085, 5135.025
268.567, 5096.188
269.050, 5054.821
269.532, 5009.776
270.014, 4961.965
270.496, 4916.836
270.978, 4876.979
271.460, 4834.896
271.942, 4785.432
272.424, 4752.732
272.906, 4715.967
273.389, 4675.350
273.871, 4619.355
274.353, 4583.218
274.835, 4539.116
275.317, 4494.694
275.799, 4461.354
276.281, 4407.594
276.763, 4374.079
277.246, 4332.480
277.728, 4289.004
278.210, 4251.141
278.692, 4218.321
279.174, 4193.555
279.656, 4183.182
280.138, 4187.837
280.620, 4186.521
281.103, 4172.849
281.585, 4152.936
282.067, 4149.039
282.549, 4163.984
283.031, 4176.027
283.513, 4163.674
283.995, 4128.359
284.477, 4104.256
284.959, 4098.878
285.441, 4104.775
285.924, 4102.322
286.406, 4090.740
286.888, 4083.847
287.370, 4095.807
287.852, 4123.647
288.334, 4143.760
288.816, 4150.682
289.298, 4152.172
289.781, 4166.854
290.263, 4194.314
290.745, 4215.744
291.227, 4214.429
291.709, 4195.431
292.191, 4179.723
292.673, 4168.937
293.155, 4163.440
293.638, 4168.046
294.120, 4181.217
294.602, 4190.003
295.084, 4184.012
295.566, 4167.500
296.048, 4150.993
296.530, 4133.913
297.012, 4121.835
297.494, 4106.255
297.977, 4084.685
298.459, 4086.920
298.941, 4083.378
299.423, 4074.368
299.905, 4043.516
300.387, 4040.869
300.869, 4026.916
301.351, 4012.502
301.833, 4013.825
302.316, 3986.149
302.798, 3987.222
303.280, 3976.820
303.762, 3971.667
304.244, 3955.143
304.726, 3941.833
305.208, 3952.951
305.690, 3966.584
306.172, 3974.514
306.655, 3968.976
307.137, 3957.918
307.619, 3947.894
308.101, 3939.098
308.583, 3933.423
309.065, 3937.244
309.547, 3944.294
310.030, 3945.373
310.512, 3925.544
310.994, 3906.907
311.476, 3908.413
311.958, 3929.512
312.440, 3951.247
312.922, 3965.093
313.404, 3973.484
313.886, 3979.193
314.369, 3987.941
314.851, 3990.064
315.333, 3973.143
315.815, 3940.642
316.297, 3919.581
316.779, 3934.389
317.261, 3958.543
317.743, 3971.275
318.225, 3962.648
318.708, 3946.525
319.190, 3920.080
319.672, 3887.395
320.154, 3865.977
320.636, 3844.139
321.118, 3846.125
321.600, 3821.941
322.082, 3840.151
322.565, 3848.070
323.047, 3846.251
323.529, 3805.530
324.011, 3815.044
324.493, 3804.425
324.975, 3792.982
325.457, 3798.481
325.939, 3776.170
326.422, 3758.884
326.904, 3741.529
327.386, 3724.489
327.868, 3708.994
328.350, 3682.653
328.832, 3669.623
329.314, 3683.120
329.796, 3744.851
330.278, 3772.314
330.760, 3743.689
331.243, 3690.466
331.725, 3657.930
332.207, 3658.525
332.689, 3661.850
333.171, 3658.117
333.653, 3644.616
334.135, 3647.723
334.617, 3682.106
335.100, 3718.235
335.582, 3718.483
336.064, 3664.302
336.546, 3623.196
337.028, 3614.006
337.510, 3634.414
337.992, 3645.207
338.474, 3644.626
338.957, 3637.757
339.439, 3627.970
339.921, 3614.895
340.403, 3602.027
340.885, 3590.826
341.367, 3579.932
341.849, 3560.810
342.331, 3529.991
342.813, 3508.103
343.296, 3519.344
343.778, 3561.960
344.260, 3583.098
344.742, 3572.407
345.224, 3543.034
345.706, 3517.449
346.188, 3495.576
346.670, 3481.412
347.152, 3483.391
347.635, 3496.290
348.117, 3498.990
348.599, 3488.648
349.081, 3471.983
349.563, 3453.130
350.045, 3434.031
350.527, 3423.123
351.009, 3431.872
351.491, 3449.752
351.974, 3459.141
352.456, 3459.308
352.938, 3452.356
353.420, 3436.461
353.902, 3415.074
354.384, 3394.861
354.866, 3381.583
355.349, 3369.181
355.831, 3349.786
356.313, 3323.961
356.795, 3301.716
357.277, 3292.151
357.759, 3289.029
358.241, 3285.344
358.723, 3278.981
359.205, 3271.546
359.688, 3264.656
360.170, 3257.814
360.652, 3248.428
361.134, 3234.311
361.616, 3217.824
362.098, 3200.354
362.580, 3180.687
363.062, 3162.467
363.544, 3144.458
364.027, 3128.648
364.509, 3119.273
364.991, 3120.189
365.473, 3125.398
365.955, 3133.925
366.437, 3149.816
366.919, 3157.975
367.401, 3142.925
367.884, 3122.921
368.366, 3123.719
368.848, 3117.017
369.330, 3140.094
369.812, 3155.943
370.294, 3164.951
370.776, 3146.632
371.258, 3163.602
371.741, 3166.429
372.223, 3168.676
372.705, 3190.612
373.187, 3189.392
373.669, 3194.733
374.151, 3201.880
374.633, 3210.963
375.115, 3221.738
375.597, 3234.899
376.079, 3252.698
376.562, 3277.537
377.044, 3292.797
377.526, 3293.348
378.008, 3286.535
378.490, 3290.234
378.972, 3305.360
379.454, 3324.748
379.936, 3345.969
380.419, 3368.558
380.901, 3391.486
381.383, 3414.870
381.865, 3437.772
382.347, 3456.917
382.829, 3473.352
383.311, 3492.804
383.793, 3521.854
384.276, 3554.671
384.758, 3579.370
385.240, 3595.681
385.722, 3608.124
386.204, 3619.441
386.686, 3629.906
387.168, 3639.618
387.650, 3644.290
388.132, 3652.827
388.615, 3680.382
389.097, 3722.860
389.579, 3758.733
390.061, 3768.652
390.543, 3768.236
391.025, 3774.661
391.507, 3798.063
391.989, 3813.448
392.471, 3802.566
392.954, 3774.176
393.436, 3746.324
393.918, 3719.542
394.400, 3700.407
394.882, 3695.700
395.364, 3709.988
395.846, 3718.618
396.328, 3713.995
396.810, 3701.502
397.293, 3687.055
397.775, 3663.407
398.257, 3646.305
398.739, 3643.792
399.221, 3656.219
399.703, 3657.301
400.185, 3636.840
400.668, 3613.040
401.150, 3598.395
401.632, 3606.826
402.114, 3598.056
402.596, 3557.922
403.078, 3500.723
403.560, 3473.855
404.042, 3488.741
404.524, 3510.714
405.007, 3527.731
405.489, 3541.613
405.971, 3536.736
406.453, 3507.681
406.935, 3469.320
407.417, 3442.443
407.899, 3427.675
408.381, 3418.126
408.863, 3414.618
409.346, 3414.276
409.828, 3400.706
410.310, 3372.295
410.792, 3349.469
411.274, 3356.984
411.756, 3387.131
412.238, 3411.876
412.720, 3423.731
413.203, 3429.690
413.685, 3441.173
414.167, 3456.389
414.649, 3466.321
415.131, 3457.697
415.613, 3443.803
416.095, 3442.450
416.577, 3457.603
417.060, 3476.528
417.542, 3487.379
418.024, 3496.303
418.506, 3513.664
418.988, 3554.457
419.470, 3595.885
419.952, 3621.346
420.434, 3630.926
420.916, 3646.714
421.398, 3682.662
421.881, 3724.394
422.363, 3761.325
422.845, 3782.779
423.327, 3808.893
423.809, 3843.075
424.291, 3884.130
424.773, 3929.309
425.255, 3982.960
425.738, 4035.997
426.220, 4084.731
426.702, 4124.919
427.184, 4171.900
427.666, 4229.229
428.148, 4291.215
428.630, 4351.474
429.112, 4409.891
429.595, 4466.348
430.077, 4520.549
430.559, 4572.378
431.041, 4620.463
431.523, 4664.774
432.005, 4707.085
432.487, 4752.318
432.969, 4799.956
433.451, 4836.728
433.934, 4860.025
434.416, 4872.319
434.898, 4873.907
435.380, 4866.035
435.862, 4860.456
436.344, 4865.901
436.826, 4878.081
437.308, 4893.630
437.790, 4914.267
438.273, 4921.210
438.755, 4887.399
439.237, 4828.506
439.719, 4773.772
440.201, 4736.833
440.683, 4705.788
441.165, 4672.597
441.647, 4637.697
442.129, 4604.023
442.612, 4586.686
443.094, 4563.139
443.576, 4513.894
444.058, 4417.639
444.540, 4329.171
445.022, 4270.349
445.504, 4227.776
445.987, 4176.433
446.469, 4090.742
446.951, 4016.569
447.433, 3970.458
447.915, 3957.541
448.397, 3941.710
448.879, 3921.771
449.361, 3899.974
449.843, 3877.338
450.326, 3849.688
450.808, 3831.671
451.290, 3828.826
451.772, 3836.055
452.254, 3833.396
452.736, 3817.937
453.218, 3804.285
453.700, 3800.271
454.182, 3805.708
454.665, 3817.112
455.147, 3835.553
455.629, 3855.388
456.111, 3865.568
456.593, 3868.773
457.075, 3880.201
457.557, 3911.908
458.039, 3951.156
458.522, 3975.410
459.004, 3985.957
459.486, 3993.042
459.968, 4003.556
460.450, 4015.331
460.932, 4024.715
461.414, 4029.050
461.896, 4036.030
462.379, 4054.766
462.861, 4079.462
463.343, 4098.650
463.825, 4111.772
464.307, 4115.089
464.789, 4103.554
465.271, 4075.756
465.753, 4050.025
466.235, 4024.814
466.717, 4006.159
467.200, 3998.732
467.682, 4020.102
468.164, 4030.415
468.646, 4026.384
469.128, 4009.817
469.610, 3984.566
470.092, 3940.886
470.574, 3905.830
471.057, 3894.817
471.539, 3912.463
472.021, 3908.121
472.503, 3870.355
472.985, 3835.457
473.467, 3800.585
473.949, 3782.111
474.431, 3759.660
474.914, 3733.442
475.396, 3692.183
475.878, 3670.348
476.360, 3642.517
476.842, 3621.134
477.324, 3606.553
477.806, 3595.366
478.288, 3580.218
478.770, 3559.208
479.253, 3540.728
479.735, 3535.969
480.217, 3538.268
480.699, 3536.734
481.181, 3524.031
481.663, 3508.841
482.145, 3491.952
482.627, 3474.679
483.109, 3466.794
483.592, 3482.278
484.074, 3500.838
484.556, 3510.056
485.038, 3505.386
485.520, 3496.500
486.002, 3475.545
486.484, 3453.042
486.966, 3445.603
487.448, 3465.483
487.931, 3481.313
488.413, 3485.667
488.895, 3478.965
489.377, 3467.446
489.859, 3448.477
490.341, 3431.505
490.823, 3425.819
491.306, 3432.188
491.788, 3433.979
492.270, 3428.476
492.752, 3420.302
493.234, 3420.104
493.716, 3426.198
494.198, 3425.178
494.680, 3402.843
495.162, 3371.850
495.645, 3355.785
496.127, 3354.073
496.609, 3354.867
497.091, 3351.183
497.573, 3344.003
498.055, 3334.709
498.537, 3324.746
499.019, 3310.632
499.501, 3281.464
499.984, 3247.462
500.466, 3228.770
500.948, 3249.243
501.430, 3270.666
501.912, 3280.797
502.394, 3278.772
502.876, 3265.069
503.358, 3221.981
503.841, 3180.366
504.323, 3162.777
504.805, 3190.137
505.287, 3198.271
505.769, 3173.698
506.251, 3132.854
506.733, 3116.162
507.215, 3129.628
507.698, 3142.630
508.180, 3141.876
508.662, 3129.421
509.144, 3119.937
509.626, 3113.309
510.108, 3110.928
510.590, 3119.707
511.072, 3134.618
511.554, 3137.659
512.036, 3121.277
512.519, 3100.858
513.001, 3094.806
513.483, 3098.834
513.965, 3101.522
514.447, 3095.071
514.929, 3086.724
515.411, 3083.247
515.893, 3084.921
516.375, 3081.856
516.858, 3062.242
517.340, 3040.815
517.822, 3028.802
518.304, 3033.390
518.786, 3040.409
519.268, 3051.941
519.750, 3064.374
520.232, 3070.302
520.715, 3063.971
521.197, 3060.557
521.679, 3067.448
522.161, 3084.573
522.643, 3085.247
523.125, 3064.741
523.607, 3041.234
524.089, 3030.185
524.571, 3031.255
525.054, 3033.091
525.536, 3034.925
526.018, 3035.553
526.500, 3031.165
526.982, 3023.290
527.464, 3018.208
527.946, 3020.030
528.429, 3025.583
528.911, 3008.583
529.393, 2990.006
529.875, 3021.870
530.357, 3041.490
530.839, 3049.524
531.321, 3011.268
531.803, 3032.785
532.286, 3030.349
532.768, 3026.929
533.250, 3056.859
533.732, 3047.568
534.214, 3079.653
534.696, 3103.251
535.178, 3097.881
535.660, 3067.967
536.142, 3063.610
536.625, 3098.231
537.107, 3135.889
537.589, 3154.158
538.071, 3148.515
538.553, 3156.299
539.035, 3180.870
539.517, 3212.772
539.999, 3243.784
540.481, 3273.035
540.964, 3288.914
541.446, 3278.488
541.928, 3262.693
542.410, 3283.171
542.892, 3332.869
543.374, 3376.396
543.856, 3380.897
544.338, 3375.311
544.820, 3389.270
545.303, 3427.646
545.785, 3470.084
546.267, 3510.578
546.749, 3548.693
547.231, 3584.701
547.713, 3619.389
548.195, 3651.106
548.677, 3676.035
549.159, 3697.647
549.642, 3725.375
550.124, 3756.948
550.606, 3798.212
551.088, 3853.741
551.570, 3923.837
552.052, 3995.129
552.534, 4070.913
553.016, 4138.934
553.499, 4188.670
553.981, 4220.180
554.463, 4237.317
554.945, 4236.522
555.427, 4231.905
555.909, 4242.512
556.391, 4266.043
556.873, 4294.870
557.356, 4324.745
557.838, 4358.959
558.320, 4403.688
558.802, 4457.127
559.284, 4508.007
559.766, 4548.915
560.248, 4586.279
560.730, 4626.350
561.213, 4675.061
561.695, 4711.624
562.177, 4722.315
562.659, 4722.722
563.141, 4732.343
563.623, 4764.765
564.105, 4784.312
564.587, 4784.118
565.069, 4767.545
565.552, 4744.778
566.034, 4713.453
566.516, 4684.979
566.998, 4664.171
567.480, 4650.913
567.962, 4644.560
568.444, 4645.830
568.926, 4647.617
569.408, 4642.660
569.891, 4633.158
570.373, 4622.813
570.855, 4609.871
571.337, 4602.423
571.819, 4612.796
572.301, 4633.148
572.783, 4648.430
573.265, 4647.763
573.747, 4644.818
574.230, 4640.505
574.712, 4636.024
575.194, 4647.783
575.676, 4703.314
576.158, 4754.877
576.640, 4777.515
577.122, 4757.754
577.604, 4749.791
578.086, 4760.125
578.569, 4774.298
579.051, 4774.037
579.533, 4757.660
580.015, 4742.746
580.497, 4732.544
580.979, 4726.230
581.461, 4728.420
581.943, 4736.677
582.426, 4731.467
582.908, 4683.332
583.390, 4624.256
583.872, 4606.338
584.354, 4629.037
584.836, 4645.075
585.318, 4617.411
585.800, 4573.607
586.282, 4536.833
586.765, 4514.137
587.247, 4494.022
587.729, 4471.868
588.211, 4451.064
588.693, 4437.239
589.175, 4442.953
589.657, 4437.132
590.140, 4410.211
590.622, 4367.828
591.104, 4336.628
591.586, 4319.446
592.068, 4303.749
592.550, 4280.782
593.032, 4252.018
593.514, 4234.285
593.996, 4228.247
594.479, 4226.526
594.961, 4223.961
595.443, 4220.505
595.925, 4215.618
596.407, 4208.271
596.889, 4201.875
597.371, 4203.041
597.853, 4206.402
598.335, 4202.813
598.818, 4175.897
599.300, 4154.531
599.782, 4152.207
600.264, 4166.961
600.746, 4178.306
601.228, 4180.724
601.710, 4183.924
602.192, 4191.709
602.674, 4204.580
603.157, 4220.316
603.639, 4241.645
604.121, 4259.567
604.603, 4259.947
605.085, 4244.003
605.567, 4242.722
606.049, 4265.308
606.531, 4292.919
607.013, 4293.154
607.496, 4275.023
607.978, 4265.157
608.460, 4288.899
608.942, 4315.898
609.424, 4317.895
609.906, 4299.692
610.388, 4284.398
610.870, 4284.815
611.353, 4288.219
611.835, 4288.387
612.317, 4284.587
612.799, 4278.243
613.281, 4272.610
613.763, 4261.969
614.245, 4240.594
614.727, 4204.706
615.209, 4171.504
615.692, 4142.509
616.174, 4117.232
616.656, 4099.111
617.138, 4087.339
617.620, 4062.736
618.102, 4012.395
618.584, 3950.529
619.067, 3898.690
619.549, 3856.788
620.031, 3824.419
620.513, 3811.567
620.995, 3801.123
621.477, 3775.476
621.959, 3731.610
622.441, 3695.967
622.923, 3688.126
623.406, 3685.362
623.888, 3669.908
624.370, 3618.687
624.852, 3590.927
625.334, 3594.582
625.816, 3570.242
626.298, 3584.537
626.780, 3589.454
627.263, 3585.494
627.745, 3546.083
628.227, 3552.454
628.709, 3540.474
629.191, 3527.746
629.673, 3540.559
630.155, 3506.304
630.637, 3518.712
631.119, 3509.083
631.602, 3509.110
632.084, 3509.453
632.566, 3506.658
633.048, 3502.092
633.530, 3496.561
634.012, 3489.686
634.494, 3483.378
634.976, 3475.750
635.458, 3470.116
635.941, 3470.664
636.423, 3484.397
636.905, 3489.185
637.387, 3480.231
637.869, 3462.997
638.351, 3450.365
638.833, 3442.794
639.315, 3431.885
639.797, 3409.292
640.280, 3383.840
640.762, 3380.533
641.244, 3396.202
641.726, 3407.147
642.208, 3390.997
642.690, 3367.009
643.172, 3354.638
643.654, 3356.787
644.137, 3358.786
644.619, 3358.073
645.101, 3352.756
645.583, 3340.944
646.065, 3311.980
646.547, 3292.753
647.029, 3285.861
647.511, 3287.025
647.994, 3291.528
648.476, 3300.471
648.958, 3306.514
649.440, 3307.254
649.922, 3304.655
650.404, 3303.459
650.886, 3303.355
651.368, 3302.399
651.851, 3299.313
652.333, 3294.861
652.815, 3290.386
653.297, 3285.703
