##NAMES=Bannisterite
##RRUFFID=R060817
##IDEAL CHEMISTRY=(Ca,K,Na)(Mn^2+^,Fe^2+^)_10_(Si,Al)_16_O_38_(OH)_8_&#183;nH_2_O
##LOCALITY=Broken Hill, New South Wales, Australia
##OWNER=RRUFF
##SOURCE=Bob Jenkins
##DESCRIPTION=Dark brown fragment with prominent cleavage
##STATUS=The identification of this mineral has been confirmed by X-ray diffraction and chemical analysis
##URL=rruff.info/R060817
##MEASURED CHEMISTRY=(K_0.65_Ca_0.32_Na_0.03_)_Σ=1_(Mn^2+^_5.37_Fe^2+^_4.48_Mg_0.15_)_Σ=10_(Si_14.68_Al_1.32_)_Σ=16_O_38_(OH)_8_·8.77H_2_O
169.7394, 1704.025
170.2215, 1697.889
170.7036, 1674.161
171.1857, 1656.076
171.6679, 1651.720
172.1500, 1644.937
172.6321, 1620.960
173.1142, 1584.982
173.5963, 1560.788
174.0784, 1566.691
174.5606, 1593.608
175.0427, 1602.804
175.5248, 1582.180
176.0069, 1556.701
176.4890, 1538.415
176.9711, 1526.781
177.4533, 1519.351
177.9354, 1515.812
178.4175, 1515.355
178.8996, 1514.415
179.3817, 1512.384
179.8638, 1510.486
180.3460, 1510.870
180.8281, 1512.841
181.3102, 1510.851
181.7923, 1497.857
182.2744, 1480.942
182.7565, 1478.762
183.2387, 1502.845
183.7208, 1527.756
184.2029, 1533.756
184.6850, 1523.199
185.1671, 1514.411
185.6492, 1519.051
186.1314, 1529.809
186.6135, 1529.582
187.0956, 1511.983
187.5777, 1492.477
188.0598, 1480.064
188.5419, 1474.673
189.0241, 1477.364
189.5062, 1495.238
189.9883, 1517.438
190.4704, 1523.883
190.9525, 1508.131
191.4346, 1487.128
191.9168, 1470.178
192.3989, 1457.397
192.8810, 1450.869
193.3631, 1455.108
193.8452, 1463.921
194.3273, 1466.682
194.8095, 1461.592
195.2916, 1454.292
195.7737, 1443.395
196.2558, 1430.736
196.7379, 1433.614
197.2200, 1470.192
197.7022, 1516.114
198.1843, 1535.481
198.6664, 1522.269
199.1485, 1500.091
199.6306, 1481.594
200.1127, 1466.840
200.5949, 1456.526
201.0770, 1450.466
201.5591, 1450.123
202.0412, 1457.114
202.5233, 1472.989
203.0054, 1488.705
203.4876, 1441.880
203.9697, 1472.154
204.4518, 1487.962
204.9339, 1490.080
205.4160, 1437.510
205.8981, 1455.559
206.3803, 1445.306
206.8624, 1433.893
207.3445, 1461.881
207.8266, 1417.265
208.3087, 1444.628
208.7908, 1443.259
209.2730, 1444.737
209.7551, 1447.544
210.2372, 1447.445
210.7193, 1445.299
211.2014, 1440.375
211.6835, 1433.602
212.1657, 1428.382
212.6478, 1426.870
213.1299, 1424.466
213.6120, 1414.194
214.0941, 1397.052
214.5762, 1384.539
215.0584, 1386.361
215.5405, 1396.734
216.0226, 1399.555
216.5047, 1389.228
216.9868, 1378.493
217.4689, 1382.083
217.9511, 1396.783
218.4332, 1406.992
218.9153, 1400.619
219.3974, 1386.830
219.8795, 1385.484
220.3616, 1402.280
220.8438, 1420.156
221.3259, 1424.163
221.8080, 1417.639
222.2901, 1408.185
222.7722, 1391.330
223.2543, 1375.329
223.7365, 1376.853
224.2186, 1400.735
224.7007, 1422.941
225.1828, 1419.924
225.6649, 1400.857
226.1470, 1388.039
226.6292, 1392.095
227.1113, 1401.921
227.5934, 1403.335
228.0755, 1395.333
228.5576, 1388.404
229.0397, 1391.479
229.5219, 1400.375
230.0040, 1404.637
230.4861, 1397.010
230.9682, 1389.026
231.4503, 1393.058
231.9324, 1408.803
232.4146, 1424.235
232.8967, 1433.556
233.3788, 1437.625
233.8609, 1439.814
234.3430, 1440.361
234.8251, 1438.877
235.3073, 1433.124
235.7894, 1424.118
236.2715, 1418.717
236.7536, 1422.622
237.2357, 1429.889
237.7178, 1427.363
238.2000, 1410.219
238.6821, 1393.977
239.1642, 1385.029
239.6463, 1383.145
240.1284, 1389.046
240.6105, 1405.815
241.0927, 1426.115
241.5748, 1436.848
242.0569, 1437.452
242.5390, 1433.789
243.0211, 1424.746
243.5033, 1413.326
243.9854, 1405.451
244.4675, 1403.050
244.9496, 1403.410
245.4317, 1402.159
245.9138, 1398.487
246.3960, 1398.321
246.8781, 1405.485
247.3602, 1415.812
247.8423, 1425.773
248.3244, 1434.912
248.8065, 1439.125
249.2887, 1432.234
249.7708, 1412.452
250.2529, 1394.852
250.7350, 1376.476
251.2171, 1363.157
251.6992, 1362.131
252.1814, 1373.310
252.6635, 1388.216
253.1456, 1400.535
253.6277, 1409.925
254.1098, 1414.794
254.5919, 1413.602
255.0741, 1409.513
255.5562, 1403.865
256.0383, 1396.862
256.5204, 1388.092
257.0025, 1376.388
257.4846, 1362.584
257.9668, 1356.215
258.4489, 1357.856
258.9310, 1364.645
259.4131, 1381.389
259.8952, 1402.349
260.3773, 1415.934
260.8595, 1415.744
261.3416, 1404.798
261.8237, 1394.310
262.3058, 1383.061
262.7879, 1373.692
263.2701, 1362.676
263.7522, 1354.978
264.2343, 1359.820
264.7164, 1380.561
265.1985, 1407.692
265.6806, 1421.974
266.1628, 1416.106
266.6449, 1406.671
267.1270, 1386.008
267.6091, 1366.512
268.0912, 1360.629
268.5733, 1369.969
269.0555, 1384.687
269.5376, 1391.408
270.0197, 1385.933
270.5018, 1384.651
270.9839, 1394.673
271.4660, 1402.155
271.9482, 1395.002
272.4303, 1376.200
272.9124, 1360.397
273.3945, 1363.024
273.8766, 1386.438
274.3587, 1398.244
274.8409, 1386.137
275.3230, 1374.213
275.8051, 1368.399
276.2872, 1368.257
276.7693, 1372.145
277.2514, 1379.785
277.7336, 1389.953
278.2157, 1395.714
278.6978, 1394.857
279.1799, 1392.212
279.6620, 1387.859
280.1441, 1382.887
280.6263, 1377.620
281.1084, 1371.798
281.5905, 1368.041
282.0726, 1373.837
282.5547, 1395.894
283.0368, 1409.821
283.5190, 1402.968
284.0011, 1391.106
284.4832, 1385.520
284.9653, 1388.865
285.4474, 1397.111
285.9295, 1410.817
286.4117, 1431.819
286.8938, 1434.443
287.3759, 1391.701
287.8580, 1349.937
288.3401, 1343.345
288.8222, 1369.448
289.3044, 1396.190
289.7865, 1398.271
290.2686, 1381.219
290.7507, 1371.438
291.2328, 1372.363
291.7149, 1377.900
292.1971, 1384.922
292.6792, 1393.073
293.1613, 1401.430
293.6434, 1412.674
294.1255, 1422.774
294.6076, 1422.572
295.0898, 1410.057
295.5719, 1400.831
296.0540, 1407.140
296.5361, 1422.696
297.0182, 1434.966
297.5003, 1444.029
297.9825, 1447.425
298.4646, 1439.110
298.9467, 1421.439
299.4288, 1408.168
299.9109, 1406.002
300.3930, 1410.557
300.8752, 1412.484
301.3573, 1410.150
301.8394, 1409.694
302.3215, 1415.221
302.8036, 1423.681
303.2857, 1430.700
303.7679, 1435.430
304.2500, 1436.383
304.7321, 1430.162
305.2142, 1413.943
305.6963, 1402.874
306.1784, 1397.792
306.6606, 1398.344
307.1427, 1407.689
307.6248, 1424.478
308.1069, 1439.907
308.5890, 1447.232
309.0711, 1446.378
309.5533, 1435.438
310.0354, 1400.891
310.5175, 1372.107
310.9996, 1362.784
311.4817, 1367.863
311.9638, 1376.818
312.4460, 1384.190
312.9281, 1389.201
313.4102, 1388.693
313.8923, 1375.141
314.3744, 1365.198
314.8565, 1364.086
315.3387, 1365.253
315.8208, 1359.679
316.3029, 1345.237
316.7850, 1330.936
317.2671, 1332.364
317.7492, 1357.132
318.2314, 1377.545
318.7135, 1399.271
319.1956, 1411.661
319.6777, 1401.621
320.1598, 1373.609
320.6419, 1348.225
321.1241, 1346.194
321.6062, 1366.161
322.0883, 1375.781
322.5704, 1366.873
323.0525, 1357.824
323.5346, 1356.411
324.0168, 1359.959
324.4989, 1363.689
324.9810, 1365.498
325.4631, 1366.056
325.9452, 1364.864
326.4273, 1359.991
326.9095, 1362.190
327.3916, 1388.690
327.8737, 1417.975
328.3558, 1423.364
328.8379, 1394.757
329.3200, 1367.794
329.8022, 1377.506
330.2843, 1415.841
330.7664, 1440.309
331.2485, 1436.687
331.7306, 1422.571
332.2127, 1418.608
332.6949, 1424.250
333.1770, 1429.167
333.6591, 1428.112
334.1412, 1425.624
334.6233, 1428.822
335.1054, 1438.409
335.5876, 1446.960
336.0697, 1448.271
336.5518, 1442.489
337.0339, 1437.650
337.5160, 1434.828
337.9981, 1431.880
338.4803, 1423.901
338.9624, 1414.862
339.4445, 1415.541
339.9266, 1432.184
340.4087, 1458.651
340.8908, 1477.881
341.3730, 1483.535
341.8551, 1489.660
342.3372, 1503.097
342.8193, 1513.664
343.3014, 1507.549
343.7835, 1483.754
344.2657, 1457.899
344.7478, 1449.906
345.2299, 1464.029
345.7120, 1478.086
346.1941, 1498.106
346.6762, 1512.478
347.1584, 1511.166
347.6405, 1500.068
348.1226, 1493.415
348.6047, 1501.596
349.0868, 1520.807
349.5689, 1534.609
350.0511, 1540.867
350.5332, 1545.390
351.0153, 1546.954
351.4974, 1549.168
351.9795, 1557.734
352.4616, 1575.134
352.9438, 1591.498
353.4259, 1590.494
353.9080, 1571.800
354.3901, 1567.153
354.8722, 1593.249
355.3543, 1624.016
355.8365, 1633.124
356.3186, 1622.980
356.8007, 1619.287
357.2828, 1644.306
357.7649, 1680.497
358.2470, 1694.577
358.7292, 1682.283
359.2113, 1665.645
359.6934, 1659.309
360.1755, 1661.578
360.6576, 1662.736
361.1397, 1660.276
361.6219, 1658.823
362.1040, 1663.061
362.5861, 1670.384
363.0682, 1672.800
363.5503, 1666.021
364.0324, 1656.460
364.5146, 1657.563
364.9967, 1677.834
365.4788, 1692.772
365.9609, 1699.101
366.4430, 1701.055
366.9251, 1701.825
367.4073, 1701.934
367.8894, 1700.272
368.3715, 1695.099
368.8536, 1685.925
369.3357, 1681.731
369.8178, 1690.174
370.3000, 1695.406
370.7821, 1688.488
371.2642, 1676.726
371.7463, 1672.633
372.2284, 1682.833
372.7105, 1699.841
373.1927, 1706.091
373.6748, 1695.920
374.1569, 1691.874
374.6390, 1707.439
375.1211, 1724.119
375.6032, 1729.000
376.0854, 1721.195
376.5675, 1710.349
377.0496, 1703.674
377.5317, 1700.209
378.0138, 1694.495
378.4959, 1683.566
378.9781, 1676.439
379.4602, 1686.551
379.9423, 1705.272
380.4244, 1713.317
380.9065, 1696.267
381.3886, 1676.180
381.8708, 1676.689
382.3529, 1692.787
382.8350, 1696.957
383.3171, 1672.448
383.7992, 1637.783
384.2813, 1636.443
384.7635, 1685.258
385.2456, 1717.363
385.7277, 1711.454
386.2098, 1689.530
386.6919, 1670.090
387.1740, 1657.110
387.6562, 1650.839
388.1383, 1652.734
388.6204, 1663.634
389.1025, 1667.690
389.5846, 1659.466
390.0667, 1650.915
390.5489, 1644.397
391.0310, 1639.918
391.5131, 1637.121
391.9952, 1635.829
392.4773, 1636.039
392.9594, 1637.985
393.4416, 1642.300
393.9237, 1646.496
394.4058, 1650.470
394.8879, 1654.082
395.3700, 1658.013
395.8521, 1661.848
396.3343, 1663.451
396.8164, 1658.834
397.2985, 1650.553
397.7806, 1648.143
398.2627, 1652.943
398.7448, 1659.810
399.2270, 1669.438
399.7091, 1678.248
400.1912, 1678.602
400.6733, 1662.597
401.1554, 1648.988
401.6375, 1657.585
402.1197, 1679.448
402.6018, 1685.115
403.0839, 1662.701
403.5660, 1633.026
404.0481, 1627.192
404.5302, 1654.568
405.0124, 1667.182
405.4945, 1647.414
405.9766, 1624.812
406.4587, 1621.937
406.9408, 1635.731
407.4229, 1649.535
407.9051, 1652.285
408.3872, 1645.562
408.8693, 1637.245
409.3514, 1621.653
409.8335, 1612.429
410.3156, 1614.098
410.7978, 1620.647
411.2799, 1627.216
411.7620, 1632.522
412.2441, 1637.243
412.7262, 1642.774
413.2083, 1649.203
413.6905, 1653.068
414.1726, 1657.479
414.6547, 1654.167
415.1368, 1632.109
415.6189, 1600.703
416.1010, 1579.899
416.5832, 1580.277
417.0653, 1589.971
417.5474, 1597.015
418.0295, 1601.360
418.5116, 1602.805
418.9937, 1601.875
419.4759, 1597.156
419.9580, 1584.328
420.4401, 1561.629
420.9222, 1543.021
421.4043, 1530.952
421.8864, 1524.987
422.3686, 1528.178
422.8507, 1538.944
423.3328, 1546.737
423.8149, 1542.672
424.2970, 1528.518
424.7791, 1522.475
425.2613, 1539.233
425.7434, 1546.133
426.2255, 1531.936
426.7076, 1508.513
427.1897, 1487.733
427.6718, 1473.176
428.1540, 1462.244
428.6361, 1450.552
429.1182, 1437.018
429.6003, 1431.664
430.0824, 1442.807
430.5645, 1452.838
431.0467, 1452.853
431.5288, 1446.023
432.0109, 1438.929
432.4930, 1433.166
432.9751, 1429.869
433.4572, 1432.589
433.9394, 1440.987
434.4215, 1445.574
434.9036, 1442.408
435.3857, 1434.943
435.8678, 1427.573
436.3499, 1420.076
436.8321, 1414.017
437.3142, 1410.337
437.7963, 1407.891
438.2784, 1404.945
438.7605, 1401.804
439.2426, 1401.852
439.7248, 1408.869
440.2069, 1420.059
440.6890, 1418.879
441.1711, 1384.586
441.6532, 1363.471
442.1353, 1367.559
442.6175, 1382.259
443.0996, 1396.393
443.5817, 1406.452
444.0638, 1411.721
444.5459, 1410.038
445.0280, 1401.237
445.5102, 1394.751
445.9923, 1392.179
446.4744, 1389.556
446.9565, 1384.448
447.4386, 1378.360
447.9207, 1373.231
448.4029, 1368.901
448.8850, 1367.492
449.3671, 1376.402
449.8492, 1392.002
450.3313, 1391.964
450.8134, 1365.290
451.2956, 1335.275
451.7777, 1331.503
452.2598, 1354.996
452.7419, 1375.416
453.2240, 1394.405
453.7061, 1405.576
454.1883, 1399.454
454.6704, 1381.718
455.1525, 1366.955
455.6346, 1362.537
456.1167, 1365.616
456.5988, 1370.040
457.0810, 1381.994
457.5631, 1383.459
458.0452, 1363.163
458.5273, 1342.755
459.0095, 1334.199
459.4916, 1338.007
459.9737, 1350.281
460.4558, 1373.763
460.9379, 1400.782
461.4200, 1404.652
461.9022, 1379.146
462.3843, 1353.323
462.8664, 1334.844
463.3485, 1324.250
463.8306, 1323.846
464.3127, 1335.596
464.7949, 1346.504
465.2770, 1347.949
465.7591, 1345.364
466.2412, 1346.773
466.7233, 1353.179
467.2054, 1363.015
467.6876, 1376.306
468.1697, 1392.215
468.6518, 1402.159
469.1339, 1405.657
469.6160, 1404.765
470.0981, 1394.964
470.5803, 1383.449
471.0624, 1377.901
471.5445, 1380.059
472.0266, 1387.101
472.5087, 1397.696
472.9908, 1412.263
473.4730, 1418.907
473.9551, 1412.748
474.4372, 1405.231
474.9193, 1399.296
475.4014, 1395.443
475.8835, 1394.432
476.3657, 1396.581
476.8478, 1401.214
477.3299, 1411.052
477.8120, 1423.543
478.2941, 1426.210
478.7762, 1414.016
479.2584, 1401.220
479.7405, 1402.807
480.2226, 1419.163
480.7047, 1430.033
481.1868, 1429.818
481.6689, 1429.528
482.1511, 1435.019
482.6332, 1443.964
483.1153, 1453.443
483.5974, 1462.245
484.0795, 1466.795
484.5616, 1459.516
485.0438, 1434.053
485.5259, 1419.075
486.0080, 1421.867
486.4901, 1428.561
486.9722, 1435.195
487.4543, 1441.936
487.9365, 1450.307
488.4186, 1461.921
488.9007, 1473.091
489.3828, 1476.116
489.8649, 1471.788
490.3470, 1475.539
490.8292, 1495.142
491.3113, 1517.305
491.7934, 1525.394
492.2755, 1520.500
492.7576, 1518.266
493.2397, 1527.180
493.7219, 1533.925
494.2040, 1524.175
494.6861, 1505.178
495.1682, 1496.911
495.6503, 1508.712
496.1324, 1529.070
496.6146, 1534.875
497.0967, 1515.039
497.5788, 1507.855
498.0609, 1520.566
498.5430, 1538.221
499.0251, 1557.604
499.5073, 1576.270
499.9894, 1591.362
500.4715, 1603.100
500.9536, 1607.325
501.4357, 1589.134
501.9178, 1548.311
502.4000, 1530.399
502.8821, 1557.971
503.3642, 1597.494
503.8463, 1606.923
504.3284, 1588.703
504.8105, 1577.970
505.2927, 1588.250
505.7748, 1602.150
506.2569, 1607.583
506.7390, 1606.272
507.2211, 1603.258
507.7032, 1600.534
508.1854, 1600.442
508.6675, 1608.818
509.1496, 1633.471
509.6317, 1647.159
510.1138, 1639.526
510.5959, 1631.549
511.0781, 1636.470
511.5602, 1648.138
512.0423, 1650.283
512.5244, 1631.168
513.0065, 1607.846
513.4886, 1608.356
513.9708, 1631.803
514.4529, 1650.774
514.9350, 1657.961
515.4171, 1660.035
515.8992, 1664.681
516.3813, 1671.591
516.8635, 1673.707
517.3456, 1660.535
517.8277, 1651.528
518.3098, 1662.095
518.7919, 1685.180
519.2740, 1706.836
519.7562, 1721.476
520.2383, 1729.430
520.7204, 1729.826
521.2025, 1718.932
521.6846, 1714.519
522.1667, 1722.214
522.6489, 1730.988
523.1310, 1737.199
523.6131, 1741.838
524.0952, 1747.612
524.5773, 1756.578
525.0594, 1763.375
525.5416, 1760.457
526.0237, 1749.693
526.5058, 1738.585
526.9879, 1726.752
527.4700, 1722.159
527.9521, 1737.273
528.4343, 1770.869
528.9164, 1785.057
529.3985, 1756.809
529.8806, 1735.704
530.3627, 1749.991
530.8448, 1778.255
531.3270, 1793.013
531.8091, 1786.395
532.2912, 1764.349
532.7733, 1727.479
533.2554, 1674.971
533.7375, 1655.075
534.2197, 1694.045
534.7018, 1723.528
535.1839, 1706.015
535.6660, 1671.141
536.1481, 1654.753
536.6302, 1665.454
537.1124, 1682.560
537.5945, 1698.458
538.0766, 1709.342
538.5587, 1703.659
539.0408, 1680.740
539.5229, 1659.843
540.0051, 1654.724
540.4872, 1662.637
540.9693, 1670.273
541.4514, 1683.581
541.9335, 1688.633
542.4156, 1680.703
542.8978, 1666.868
543.3799, 1650.280
543.8620, 1632.897
544.3441, 1618.992
544.8262, 1613.932
545.3083, 1612.802
545.7905, 1596.505
546.2726, 1559.739
546.7547, 1540.145
547.2368, 1564.048
547.7189, 1596.712
548.2010, 1592.285
548.6832, 1550.007
549.1653, 1518.702
549.6474, 1521.433
550.1295, 1531.807
550.6116, 1529.245
551.0938, 1515.954
551.5759, 1501.457
552.0580, 1489.848
552.5401, 1479.048
553.0222, 1463.705
553.5043, 1438.387
553.9865, 1425.459
554.4686, 1435.999
554.9507, 1448.460
555.4328, 1456.994
555.9149, 1461.592
556.3970, 1463.297
556.8792, 1462.789
557.3613, 1458.447
557.8434, 1443.177
558.3255, 1422.184
558.8076, 1417.387
559.2897, 1434.748
559.7719, 1450.705
560.2540, 1442.903
560.7361, 1413.936
561.2182, 1399.830
561.7003, 1412.699
562.1824, 1422.566
562.6646, 1417.375
563.1467, 1410.035
563.6288, 1416.178
564.1109, 1435.844
564.5930, 1454.794
565.0751, 1461.800
565.5573, 1457.872
566.0394, 1444.149
566.5215, 1416.247
567.0036, 1397.712
567.4857, 1402.753
567.9678, 1416.260
568.4500, 1417.464
568.9321, 1405.265
569.4142, 1398.999
569.8963, 1405.281
570.3784, 1418.615
570.8605, 1439.096
571.3427, 1462.909
571.8248, 1479.994
572.3069, 1485.876
572.7890, 1486.298
573.2711, 1491.359
573.7532, 1502.752
574.2354, 1512.400
574.7175, 1516.296
575.1996, 1523.159
575.6817, 1541.003
576.1638, 1562.759
576.6459, 1575.025
577.1281, 1571.083
577.6102, 1567.987
578.0923, 1586.735
578.5744, 1615.049
579.0565, 1620.586
579.5386, 1598.949
580.0208, 1578.655
580.5029, 1581.234
580.9850, 1602.734
581.4671, 1621.339
581.9492, 1642.029
582.4313, 1652.583
582.9135, 1637.310
583.3956, 1623.307
583.8777, 1638.195
584.3598, 1675.280
584.8419, 1701.890
585.3240, 1692.655
585.8062, 1666.474
586.2883, 1657.286
586.7704, 1664.781
587.2525, 1672.287
587.7346, 1663.033
588.2167, 1655.198
588.6989, 1696.305
589.1810, 1723.778
589.6631, 1738.351
590.1452, 1701.395
590.6273, 1730.981
591.1094, 1733.898
591.5916, 1735.726
592.0737, 1774.677
592.5558, 1745.214
593.0379, 1783.577
593.5200, 1787.261
594.0021, 1819.808
594.4843, 1839.809
594.9664, 1844.619
595.4485, 1844.549
595.9306, 1838.245
596.4127, 1832.762
596.8948, 1809.961
597.3770, 1854.186
597.8591, 1885.074
598.3412, 1903.350
598.8233, 1871.228
599.3054, 1904.183
599.7875, 1911.057
600.2697, 1916.867
600.7518, 1958.980
601.2339, 1934.188
601.7160, 1975.727
602.1981, 2005.087
602.6802, 2026.486
603.1624, 2024.451
603.6445, 2022.916
604.1266, 2028.667
604.6087, 2043.121
605.0908, 2072.072
605.5729, 2122.625
606.0551, 2165.737
606.5372, 2179.997
607.0193, 2179.823
607.5014, 2181.861
607.9835, 2188.920
608.4656, 2204.308
608.9478, 2231.111
609.4299, 2264.338
609.9120, 2289.369
610.3941, 2300.928
610.8762, 2316.006
611.3583, 2336.489
611.8405, 2359.697
612.3226, 2384.028
612.8047, 2410.125
613.2868, 2439.698
613.7689, 2473.063
614.2510, 2510.489
614.7332, 2558.458
615.2153, 2609.518
615.6974, 2645.109
616.1795, 2662.258
616.6616, 2674.798
617.1437, 2692.125
617.6259, 2715.076
618.1080, 2749.148
618.5901, 2806.677
619.0722, 2856.443
619.5543, 2893.513
620.0364, 2924.751
620.5186, 2951.980
621.0007, 2977.181
621.4828, 3004.735
621.9649, 3036.021
622.4470, 3071.997
622.9291, 3115.913
623.4113, 3165.981
623.8934, 3215.479
624.3755, 3263.161
624.8576, 3306.451
625.3397, 3341.274
625.8218, 3368.444
626.3040, 3402.084
626.7861, 3447.667
627.2682, 3493.003
627.7503, 3533.951
628.2324, 3576.463
628.7145, 3626.363
629.1967, 3683.117
629.6788, 3740.355
630.1609, 3796.883
630.6430, 3849.627
631.1251, 3890.224
631.6072, 3921.090
632.0894, 3959.352
632.5715, 4011.898
633.0536, 4061.066
633.5357, 4083.568
634.0178, 4077.435
634.4999, 4100.747
634.9821, 4179.773
635.4642, 4253.436
635.9463, 4314.121
636.4284, 4362.205
636.9105, 4394.647
637.3926, 4413.602
637.8748, 4431.344
638.3569, 4457.205
638.8390, 4486.350
639.3211, 4509.702
639.8032, 4528.062
640.2853, 4549.853
640.7675, 4579.098
641.2496, 4606.685
641.7317, 4620.872
642.2138, 4620.386
642.6959, 4623.553
643.1780, 4638.061
643.6602, 4646.399
644.1423, 4643.763
644.6244, 4633.768
645.1065, 4618.092
645.5886, 4598.194
646.0707, 4578.669
646.5529, 4564.864
647.0350, 4552.473
647.5171, 4535.759
647.9992, 4514.367
648.4813, 4485.266
648.9634, 4447.698
649.4456, 4400.671
649.9277, 4339.589
650.4098, 4262.263
650.8919, 4203.337
651.3740, 4185.456
651.8561, 4157.043
652.3383, 4100.466
652.8204, 4033.283
653.3025, 3974.397
653.7846, 3924.681
654.2667, 3866.748
654.7488, 3781.061
655.2310, 3685.641
655.7131, 3611.297
656.1952, 3553.262
656.6773, 3484.195
657.1594, 3393.812
657.6415, 3305.008
658.1237, 3248.295
658.6058, 3226.013
659.0879, 3171.932
659.5700, 3048.140
660.0521, 2941.292
660.5342, 2874.900
661.0164, 2824.148
661.4985, 2770.996
661.9806, 2712.306
662.4627, 2646.933
662.9448, 2566.847
