##NAMES=Baotite
##RRUFFID=R060414
##IDEAL CHEMISTRY=Ba_4_(Ti^4+^,Nb^5+^,W^6+^)_8_O_16_(SiO_3_)_4_Cl
##LOCALITY=Zagi Mountain, near Hammedabad, Khaffor Dehri, North-West Frontier Province, Pakistan
##OWNER=RRUFF
##SOURCE=Herb Obodda
##DESCRIPTION=Dark brown vitreous fragment
##STATUS=The identification of this mineral has been confirmed by X-ray diffraction and chemical analysis
##URL=rruff.info/R060414
##MEASURED CHEMISTRY=Ba_4.00_(Ti_6.54_Nb^5+^_1.23_Fe^3+^_0.23_)_Î£=8_O_16_(Si_1.00_O_3_)_4_Cl_1.00_
156.6031, 523.3593
157.0852, 526.3770
157.5673, 525.5809
158.0495, 525.0684
158.5316, 526.9495
159.0137, 532.9690
159.4958, 539.4330
159.9779, 545.2216
160.4600, 550.6805
160.9422, 556.9383
161.4243, 563.7214
161.9064, 571.8047
162.3885, 581.6657
162.8706, 593.7093
163.3527, 607.3782
163.8349, 623.3177
164.3170, 641.1105
164.7991, 658.7633
165.2812, 673.7228
165.7633, 688.8164
166.2454, 706.6520
166.7276, 730.3898
167.2097, 754.9310
167.6918, 777.4845
168.1739, 798.0941
168.6560, 818.8273
169.1381, 841.5244
169.6203, 864.4929
170.1024, 880.1740
170.5845, 890.0732
171.0666, 899.4229
171.5487, 910.8564
172.0309, 924.0988
172.5130, 935.4474
172.9951, 941.0187
173.4772, 943.2700
173.9593, 946.0197
174.4414, 951.1870
174.9236, 957.3068
175.4057, 962.6578
175.8878, 967.2637
176.3699, 971.8548
176.8520, 976.8147
177.3341, 982.2246
177.8163, 988.3177
178.2984, 998.2965
178.7805, 1007.917
179.2626, 1010.772
179.7447, 1006.646
180.2268, 997.4479
180.7090, 984.9719
181.1911, 969.0637
181.6732, 949.1291
182.1553, 924.2891
182.6374, 895.4153
183.1195, 864.3408
183.6017, 830.3978
184.0838, 796.1996
184.5659, 762.4665
185.0480, 729.8632
185.5301, 700.2200
186.0123, 675.3864
186.4944, 654.3137
186.9765, 634.9131
187.4586, 617.0583
187.9407, 600.2131
188.4228, 583.4250
188.9050, 566.8187
189.3871, 551.0002
189.8692, 537.7675
190.3513, 526.2391
190.8334, 510.8356
191.3155, 490.5497
191.7977, 468.5742
192.2798, 449.5811
192.7619, 433.5503
193.2440, 419.4028
193.7261, 406.0240
194.2082, 393.6418
194.6904, 384.6876
195.1725, 379.8919
195.6546, 377.3370
196.1367, 373.6958
196.6188, 368.8580
197.1009, 364.1924
197.5831, 360.2787
198.0652, 357.0771
198.5473, 354.8163
199.0294, 353.5488
199.5115, 353.1424
199.9937, 353.4519
200.4758, 354.5225
200.9579, 355.9274
201.4400, 357.6009
201.9221, 359.5932
202.4042, 360.9537
202.8864, 361.2570
203.3685, 361.2646
203.8506, 363.0770
204.3327, 367.1242
204.8148, 371.1409
205.2969, 373.8255
205.7791, 375.0071
206.2612, 376.0776
206.7433, 377.0322
207.2254, 377.9836
207.7075, 379.1974
208.1896, 380.6675
208.6718, 382.4283
209.1539, 384.7096
209.6360, 387.7265
210.1181, 390.1205
210.6002, 391.8922
211.0823, 392.9756
211.5645, 392.9244
212.0466, 391.1948
212.5287, 389.6402
213.0108, 389.4684
213.4929, 391.2184
213.9750, 392.1377
214.4572, 391.5961
214.9393, 390.3264
215.4214, 390.7306
215.9035, 393.6844
216.3856, 396.5310
216.8678, 397.5564
217.3499, 395.9230
217.8320, 395.2354
218.3141, 395.7433
218.7962, 397.2589
219.2783, 399.1733
219.7605, 401.2235
220.2426, 404.0933
220.7247, 408.3846
221.2068, 414.9103
221.6889, 420.2681
222.1710, 423.1832
222.6532, 425.0916
223.1353, 430.5017
223.6174, 440.5748
224.0995, 452.3175
224.5816, 464.4463
225.0637, 477.5953
225.5459, 489.6526
226.0280, 499.4501
226.5101, 508.4000
226.9922, 520.6495
227.4743, 537.7684
227.9564, 555.8624
228.4386, 573.4323
228.9207, 590.1212
229.4028, 606.3466
229.8849, 622.0607
230.3670, 637.3552
230.8492, 652.9142
231.3313, 668.3060
231.8134, 684.3674
232.2955, 701.5558
232.7776, 719.0137
233.2597, 739.0634
233.7419, 762.4327
234.2240, 788.2792
234.7061, 813.6516
235.1882, 837.5631
235.6703, 862.4214
236.1524, 889.4720
236.6346, 918.8410
237.1167, 949.9814
237.5988, 983.1002
238.0809, 1017.940
238.5630, 1054.701
239.0451, 1093.980
239.5273, 1133.904
240.0094, 1173.765
240.4915, 1213.714
240.9736, 1253.882
241.4557, 1297.135
241.9378, 1339.577
242.4200, 1373.378
242.9021, 1399.348
243.3842, 1415.926
243.8663, 1422.596
244.3484, 1419.254
244.8306, 1406.148
245.3127, 1382.684
245.7948, 1349.980
246.2769, 1309.121
246.7590, 1256.705
247.2411, 1202.723
247.7233, 1150.259
248.2054, 1099.196
248.6875, 1049.663
249.1696, 1000.684
249.6517, 954.3573
250.1338, 914.6445
250.6160, 883.0673
251.0981, 855.2268
251.5802, 829.9494
252.0623, 806.7819
252.5444, 787.7613
253.0265, 773.7577
253.5087, 763.3213
253.9908, 754.7432
254.4729, 748.0031
254.9550, 743.0431
255.4371, 740.0547
255.9192, 739.2389
256.4014, 738.8353
256.8835, 738.3348
257.3656, 738.7554
257.8477, 741.4678
258.3298, 747.1464
258.8120, 753.6469
259.2941, 760.5878
259.7762, 768.0114
260.2583, 775.5685
260.7404, 783.1987
261.2225, 791.1021
261.7047, 799.5419
262.1868, 808.2009
262.6689, 818.2751
263.1510, 830.2740
263.6331, 844.0504
264.1152, 858.5095
264.5974, 873.5251
265.0795, 889.2834
265.5616, 905.5183
266.0437, 922.4576
266.5258, 940.0528
267.0079, 958.6915
267.4901, 978.2581
267.9722, 996.2932
268.4543, 1013.298
268.9364, 1028.214
269.4185, 1040.458
269.9006, 1050.232
270.3828, 1056.644
270.8649, 1059.936
271.3470, 1059.763
271.8291, 1054.282
272.3112, 1042.657
272.7933, 1027.627
273.2755, 1010.667
273.7576, 991.4174
274.2397, 972.2928
274.7218, 953.2441
275.2039, 934.8116
275.6860, 919.0939
276.1682, 906.4915
276.6503, 894.5471
277.1324, 881.3445
277.6145, 866.8127
278.0966, 853.8687
278.5787, 843.1276
279.0609, 833.7359
279.5430, 823.7281
280.0251, 813.1315
280.5072, 802.1906
280.9893, 791.1926
281.4715, 780.2332
281.9536, 768.1046
282.4357, 754.5851
282.9178, 740.1982
283.3999, 725.4237
283.8820, 710.1766
284.3642, 695.7563
284.8463, 683.3535
285.3284, 672.6410
285.8105, 660.3311
286.2926, 645.8824
286.7747, 631.2299
287.2569, 619.3055
287.7390, 610.0109
288.2211, 600.8680
288.7032, 590.5082
289.1853, 579.4359
289.6674, 569.5081
290.1496, 560.6182
290.6317, 553.2259
291.1138, 548.4132
291.5959, 545.8631
292.0780, 543.4477
292.5602, 540.1058
293.0423, 536.5400
293.5244, 534.6213
294.0065, 534.4011
294.4886, 535.0241
294.9707, 536.0204
295.4529, 537.2882
295.9350, 538.4948
296.4171, 539.8051
296.8992, 540.7833
297.3813, 541.0212
297.8634, 540.4572
298.3456, 538.2616
298.8277, 533.5001
299.3098, 526.6760
299.7919, 518.8041
300.2740, 510.0258
300.7561, 500.4901
301.2383, 490.2595
301.7204, 479.4223
302.2025, 469.0650
302.6846, 459.5412
303.1667, 450.9439
303.6488, 443.2928
304.1310, 436.7639
304.6131, 430.8773
305.0952, 425.1915
305.5773, 419.8310
306.0594, 415.1525
306.5415, 411.7157
307.0237, 408.8359
307.5058, 405.4337
307.9879, 401.2344
308.4700, 397.8964
308.9521, 397.1018
309.4343, 397.9840
309.9164, 398.9785
310.3985, 399.2269
310.8806, 399.4630
311.3627, 400.0292
311.8448, 400.9414
312.3270, 402.7440
312.8091, 406.6528
313.2912, 411.3539
313.7733, 415.2960
314.2554, 417.2457
314.7375, 418.8902
315.2197, 420.6509
315.7018, 422.6585
316.1839, 425.7858
316.6660, 431.9573
317.1481, 438.6454
317.6302, 443.6741
318.1124, 445.2812
318.5945, 446.7595
319.0766, 449.0700
319.5587, 452.1110
320.0408, 455.5522
320.5229, 459.5560
321.0051, 463.7433
321.4872, 467.8903
321.9693, 471.7157
322.4514, 475.8776
322.9335, 480.6365
323.4156, 485.8084
323.8978, 491.0390
324.3799, 495.8703
324.8620, 501.0965
325.3441, 506.9234
325.8262, 513.1550
326.3083, 520.4759
326.7905, 530.5326
327.2726, 541.2279
327.7547, 549.8503
328.2368, 553.7648
328.7189, 558.3361
329.2010, 564.8734
329.6832, 573.5477
330.1653, 581.6564
330.6474, 589.4512
331.1295, 596.4918
331.6116, 602.4430
332.0938, 606.5972
332.5759, 610.8352
333.0580, 615.6788
333.5401, 620.9334
334.0222, 624.9117
334.5043, 627.9150
334.9865, 629.2804
335.4686, 628.5632
335.9507, 625.4217
336.4328, 620.9598
336.9149, 614.7098
337.3970, 607.3531
337.8792, 601.3216
338.3613, 597.4534
338.8434, 592.3339
339.3255, 584.2811
339.8076, 572.9988
340.2898, 560.5353
340.7719, 546.3264
341.2540, 531.7414
341.7361, 518.4604
342.2182, 506.7896
342.7003, 495.6982
343.1825, 485.1988
343.6646, 475.0830
344.1467, 464.3551
344.6288, 452.6933
345.1109, 441.5674
345.5930, 432.4746
346.0752, 425.3661
346.5573, 418.6263
347.0394, 411.9464
347.5215, 405.2681
348.0036, 398.1280
348.4857, 390.5688
348.9679, 383.2277
349.4500, 376.2274
349.9321, 369.7276
350.4142, 364.3131
350.8963, 360.2145
351.3784, 356.7729
351.8606, 353.1391
352.3427, 349.4795
352.8248, 346.3302
353.3069, 343.9006
353.7890, 342.2443
354.2711, 341.4418
354.7533, 341.5211
355.2354, 342.2589
355.7175, 343.6945
356.1996, 345.6349
356.6817, 347.7426
357.1638, 349.2465
357.6460, 351.3177
358.1281, 355.1213
358.6102, 360.5401
359.0923, 366.2823
359.5744, 371.6901
360.0565, 376.9820
360.5387, 382.3640
361.0208, 387.8484
361.5029, 393.5143
361.9850, 399.1203
362.4671, 404.8608
362.9492, 411.2716
363.4314, 418.6326
363.9135, 426.6463
364.3956, 435.2315
364.8777, 444.6516
365.3598, 454.0738
365.8419, 462.8392
366.3241, 471.6061
366.8062, 481.3109
367.2883, 492.4707
367.7704, 504.2064
368.2526, 516.0652
368.7347, 527.8452
369.2168, 541.1653
369.6989, 557.4611
370.1810, 574.4688
370.6631, 590.4801
371.1453, 604.5724
371.6274, 619.1022
372.1095, 634.8334
372.5916, 651.5121
373.0737, 667.0495
373.5558, 682.0742
374.0380, 695.2227
374.5201, 706.0961
375.0022, 714.9276
375.4843, 720.5183
375.9664, 723.1730
376.4485, 722.2578
376.9307, 715.9493
377.4128, 703.5368
377.8949, 688.9321
378.3770, 673.2379
378.8591, 656.5945
379.3412, 640.1433
379.8234, 623.8082
380.3055, 608.4182
380.7876, 595.1354
381.2697, 583.8236
381.7518, 574.0659
382.2339, 565.7443
382.7161, 558.9203
383.1982, 553.7315
383.6803, 550.2071
384.1624, 547.9175
384.6445, 546.8751
385.1266, 546.8522
385.6088, 547.2282
386.0909, 547.8199
386.5730, 549.0659
387.0551, 551.4333
387.5372, 554.8437
388.0193, 559.1433
388.5015, 565.6002
388.9836, 572.1455
389.4657, 576.3507
389.9478, 578.0379
390.4299, 579.0037
390.9120, 579.9919
391.3942, 581.1216
391.8763, 582.5389
392.3584, 585.2778
392.8405, 587.3761
393.3226, 587.9819
393.8047, 587.1422
394.2869, 585.0648
394.7690, 580.7115
395.2511, 575.9124
395.7332, 572.0237
396.2154, 570.4840
396.6975, 567.3073
397.1796, 560.3157
397.6617, 551.3266
398.1438, 543.5233
398.6259, 539.9475
399.1081, 534.9773
399.5902, 526.4714
400.0723, 513.7381
400.5544, 502.1674
401.0365, 492.3401
401.5186, 483.1925
402.0008, 473.9343
402.4829, 464.0865
402.9650, 454.9550
403.4471, 447.0231
403.9292, 439.8779
404.4113, 431.8941
404.8935, 422.6492
405.3756, 413.4364
405.8577, 404.6873
406.3398, 396.3702
406.8219, 389.6446
407.3040, 385.0734
407.7862, 381.0363
408.2683, 374.5691
408.7504, 365.5705
409.2325, 357.7169
409.7146, 352.6673
410.1967, 349.6581
410.6789, 345.6585
411.1610, 340.6246
411.6431, 335.8098
412.1252, 332.3904
412.6073, 330.0807
413.0894, 328.1749
413.5716, 326.6863
414.0537, 325.3133
414.5358, 323.2482
415.0179, 320.9008
415.5000, 319.5468
415.9821, 320.5404
416.4643, 322.5313
416.9464, 324.1855
417.4285, 325.3736
417.9106, 326.4698
418.3927, 327.5615
418.8748, 328.7459
419.3570, 330.1194
419.8391, 331.5013
420.3212, 333.2946
420.8033, 335.8621
421.2854, 339.0638
421.7675, 342.2788
422.2497, 345.1197
422.7318, 348.0827
423.2139, 351.4330
423.6960, 355.3592
424.1781, 359.3243
424.6602, 363.8619
425.1424, 368.2402
425.6245, 371.3335
426.1066, 372.6861
426.5887, 373.2961
427.0709, 373.3077
427.5530, 372.7191
428.0351, 371.5520
428.5172, 369.5897
428.9993, 367.3156
429.4814, 365.0186
429.9636, 362.6512
430.4457, 360.3285
430.9278, 357.7772
431.4099, 355.5518
431.8920, 355.1368
432.3741, 356.7436
432.8563, 358.4931
433.3384, 359.5739
433.8205, 360.0665
434.3026, 360.5966
434.7847, 361.2243
435.2668, 361.4490
435.7490, 360.4316
436.2311, 358.5120
436.7132, 356.9569
437.1953, 356.2191
437.6774, 355.8229
438.1595, 355.5094
438.6417, 355.0978
439.1238, 353.8358
439.6059, 350.3481
440.0880, 346.2534
440.5701, 343.3214
441.0522, 341.8388
441.5344, 340.7947
442.0165, 339.9796
442.4986, 339.0952
442.9807, 337.7770
443.4628, 335.3405
443.9449, 332.9996
444.4271, 331.3600
444.9092, 330.2892
445.3913, 328.9953
445.8734, 326.9233
446.3555, 324.8838
446.8376, 323.2978
447.3198, 322.3972
447.8019, 321.5596
448.2840, 321.1386
448.7661, 320.6253
449.2482, 319.2109
449.7303, 316.0287
450.2125, 313.4696
450.6946, 312.2720
451.1767, 312.3028
451.6588, 311.6036
452.1409, 309.9657
452.6230, 308.0766
453.1052, 306.4006
453.5873, 304.9316
454.0694, 303.5312
454.5515, 302.1298
455.0337, 300.9151
455.5158, 300.3999
455.9979, 300.5248
456.4800, 300.5015
456.9621, 300.0958
457.4442, 299.2759
457.9264, 297.6863
458.4085, 295.3705
458.8906, 293.2988
459.3727, 292.3153
459.8548, 292.1020
460.3369, 292.2614
460.8191, 292.8986
461.3012, 293.4423
461.7833, 293.4637
462.2654, 293.0559
462.7475, 292.4120
463.2296, 291.2963
463.7118, 290.2224
464.1939, 289.5464
464.6760, 289.2871
465.1581, 288.9346
465.6402, 287.7518
466.1223, 286.7610
466.6045, 286.7013
467.0866, 289.3057
467.5687, 290.8047
468.0508, 290.3589
468.5329, 288.7395
469.0150, 287.6536
469.4972, 287.4642
469.9793, 287.2843
470.4614, 286.9111
470.9435, 286.3542
471.4256, 285.3520
471.9077, 283.6864
472.3899, 282.0203
472.8720, 281.0649
473.3541, 280.8939
473.8362, 280.4099
474.3183, 279.3790
474.8004, 278.0870
475.2826, 277.0967
475.7647, 276.3890
476.2468, 275.7007
476.7289, 274.8028
477.2110, 273.8416
477.6931, 273.3520
478.1753, 273.3297
478.6574, 272.9770
479.1395, 271.0557
479.6216, 268.5448
480.1037, 266.9896
480.5858, 267.2689
481.0680, 267.6756
481.5501, 266.8016
482.0322, 265.2047
482.5143, 264.0530
482.9964, 264.3707
483.4786, 264.7541
483.9607, 264.6854
484.4428, 264.1413
484.9249, 262.8939
485.4070, 260.0410
485.8892, 257.0187
486.3713, 254.8348
486.8534, 253.4034
487.3355, 253.0282
487.8176, 254.4581
488.2997, 256.6992
488.7819, 257.5612
489.2640, 256.4326
489.7461, 255.2931
490.2282, 254.7720
490.7103, 254.8310
491.1924, 254.9353
491.6746, 255.0898
492.1567, 255.2604
492.6388, 255.5960
493.1209, 256.0179
493.6030, 255.6298
494.0851, 254.0240
494.5673, 252.3631
495.0494, 252.7694
495.5315, 254.6823
496.0136, 256.0650
496.4957, 255.7054
496.9778, 254.4853
497.4600, 252.9489
497.9421, 251.2177
498.4242, 250.2808
498.9063, 251.9153
499.3884, 253.9237
499.8705, 254.1542
500.3527, 251.1983
500.8348, 248.9239
501.3169, 249.0384
501.7990, 250.5867
502.2811, 252.2392
502.7632, 254.4436
503.2454, 255.9871
503.7275, 256.3960
504.2096, 255.7788
504.6917, 255.3000
505.1738, 255.1680
505.6559, 254.9061
506.1381, 254.0630
506.6202, 252.1841
507.1023, 251.7309
507.5844, 253.0965
508.0665, 255.1812
508.5486, 256.6602
509.0308, 257.5356
509.5129, 257.7142
509.9950, 256.8754
510.4771, 255.6234
510.9592, 255.2436
511.4413, 255.6870
511.9235, 256.4810
512.4056, 257.5814
512.8877, 258.7411
513.3698, 259.5326
513.8519, 259.8965
514.3340, 260.2928
514.8162, 261.3617
515.2983, 262.5455
515.7804, 263.1465
516.2625, 262.3450
516.7446, 261.7139
517.2267, 262.1795
517.7089, 263.2999
518.1910, 263.9804
518.6731, 263.6147
519.1552, 263.1310
519.6373, 262.8668
520.1194, 262.8574
520.6016, 262.6821
521.0837, 261.9247
521.5658, 261.4614
522.0479, 262.1158
522.5300, 264.3957
523.0121, 265.8733
523.4943, 266.2392
523.9764, 265.9281
524.4585, 265.3620
524.9406, 264.5218
525.4227, 264.6895
525.9048, 266.8552
526.3870, 270.0861
526.8691, 271.9261
527.3513, 272.4718
527.8334, 273.0526
528.3155, 274.4826
528.7976, 276.6136
529.2797, 279.5056
529.7618, 283.3715
530.2440, 286.7874
530.7261, 287.9709
531.2082, 288.3298
531.6903, 289.6425
532.1724, 293.5649
532.6545, 297.3991
533.1367, 300.1878
533.6188, 302.1866
534.1009, 304.4322
534.5830, 307.1126
535.0651, 310.0050
535.5472, 312.8760
536.0294, 315.6251
536.5115, 319.3663
536.9936, 324.5602
537.4757, 330.1058
537.9578, 334.9432
538.4399, 338.9026
538.9221, 343.6432
539.4042, 349.7060
539.8863, 356.0688
540.3684, 360.5326
540.8505, 363.2992
541.3326, 366.8210
541.8148, 372.6206
542.2969, 379.4510
542.7790, 385.2123
543.2611, 389.9728
543.7432, 394.4821
544.2253, 398.9283
544.7075, 403.5519
545.1896, 408.5609
545.6717, 413.9619
546.1538, 419.8769
546.6359, 426.4779
547.1180, 433.5923
547.6002, 440.9535
548.0823, 449.1022
548.5644, 456.8119
549.0465, 463.7661
549.5286, 470.1556
550.0107, 476.4647
550.4929, 482.3072
550.9750, 488.6824
551.4571, 496.2842
551.9392, 505.1517
552.4213, 512.0799
552.9034, 516.5217
553.3856, 520.8497
553.8677, 527.4421
554.3498, 536.0272
554.8319, 543.3277
555.3140, 548.9747
555.7961, 553.4677
556.2783, 557.2224
556.7604, 560.3008
557.2425, 562.7953
557.7246, 564.4658
558.2067, 565.8725
558.6888, 567.6229
559.1710, 569.5829
559.6531, 571.2654
560.1352, 572.2516
560.6173, 573.0264
561.0994, 573.7548
561.5815, 574.4162
562.0637, 575.4217
562.5458, 577.5033
563.0279, 579.5250
563.5100, 580.6771
563.9921, 580.4923
564.4742, 580.1895
564.9564, 579.5538
565.4385, 578.9857
565.9206, 579.3403
566.4027, 580.8528
566.8848, 582.0189
567.3669, 582.2324
567.8491, 581.8740
568.3312, 582.2502
568.8133, 583.3303
569.2954, 584.3865
569.7775, 584.3816
570.2596, 584.1935
570.7418, 585.7529
571.2239, 589.2396
571.7060, 592.7200
572.1881, 594.5930
572.6702, 595.7206
573.1523, 597.0802
573.6345, 599.0184
574.1166, 601.0036
574.5987, 602.9681
575.0808, 604.8068
575.5629, 606.3776
576.0450, 607.0593
576.5272, 608.1213
577.0093, 610.1339
577.4914, 612.8367
577.9735, 614.3992
578.4556, 614.1470
578.9377, 614.1388
579.4199, 615.7579
579.9020, 619.0413
580.3841, 620.9122
580.8662, 621.2703
581.3483, 620.7972
581.8304, 619.6055
582.3126, 618.0662
582.7947, 617.6888
583.2768, 619.1158
583.7589, 620.6540
584.2410, 620.4222
584.7231, 618.9760
585.2053, 617.4177
585.6874, 616.1661
586.1696, 614.9486
586.6517, 613.7534
587.1338, 612.4939
587.6159, 610.8363
588.0980, 608.2651
588.5801, 605.6360
589.0623, 603.3572
589.5444, 601.5164
590.0265, 599.4244
590.5086, 596.9160
590.9907, 594.3781
591.4728, 592.2203
591.9550, 590.6155
592.4371, 588.3499
592.9192, 585.1614
593.4013, 581.8046
593.8834, 579.5674
594.3655, 578.2719
594.8477, 576.7231
595.3298, 574.4481
595.8119, 571.8895
596.2940, 569.6752
596.7761, 567.7089
597.2582, 565.5974
597.7404, 563.0872
598.2225, 560.3832
598.7046, 557.3117
599.1867, 553.8958
599.6688, 551.3345
600.1509, 551.2023
600.6331, 551.1068
601.1152, 549.4347
601.5973, 545.1100
602.0794, 541.6370
602.5615, 539.4343
603.0436, 537.7108
603.5258, 535.5102
604.0079, 532.6463
604.4900, 530.4606
604.9721, 529.4212
605.4542, 528.8512
605.9363, 527.3278
606.4185, 524.9644
606.9006, 522.5652
607.3827, 520.2668
607.8648, 518.3400
608.3469, 517.4852
608.8290, 517.5273
609.3112, 517.5227
609.7933, 517.0461
610.2754, 516.2043
610.7575, 514.7013
611.2396, 512.3122
611.7217, 511.0770
612.2039, 512.9318
612.6860, 515.2982
613.1681, 516.1674
613.6502, 514.1647
614.1323, 512.9478
614.6144, 512.7199
615.0966, 513.1406
615.5787, 513.7746
616.0608, 514.6370
616.5429, 515.7001
617.0250, 517.1974
617.5071, 518.6299
617.9893, 518.4333
618.4714, 516.8425
618.9535, 515.6651
619.4356, 515.9692
619.9177, 517.1456
620.3998, 518.7291
620.8820, 520.6241
621.3641, 522.0965
621.8462, 521.8818
622.3283, 521.6937
622.8104, 522.9742
623.2925, 526.3651
623.7747, 529.3237
624.2568, 530.9601
624.7389, 532.2396
625.2210, 533.9493
625.7031, 536.3746
626.1852, 538.5627
626.6674, 540.3070
627.1495, 541.9376
627.6316, 543.9914
628.1137, 546.4792
628.5958, 549.1881
629.0779, 552.2720
629.5601, 555.3034
630.0422, 557.0511
630.5243, 557.8289
631.0064, 559.1721
631.4885, 562.5757
631.9706, 566.5106
632.4528, 569.5215
632.9349, 571.6115
633.4170, 573.6540
633.8991, 575.4315
634.3812, 577.7327
634.8633, 581.3001
635.3455, 586.8758
635.8276, 591.3901
636.3097, 593.7591
636.7918, 595.9691
637.2739, 599.8507
637.7560, 605.8894
638.2382, 611.4215
638.7203, 616.0237
639.2024, 620.3434
639.6845, 625.6489
640.1666, 631.7838
640.6487, 637.2645
641.1309, 641.3805
641.6130, 645.0927
642.0951, 649.7442
642.5772, 655.0428
643.0594, 659.9827
643.5415, 663.8904
644.0236, 667.5021
644.5057, 671.0206
644.9879, 674.5622
645.4700, 678.7906
645.9521, 684.6464
646.4342, 690.6035
646.9163, 696.2130
647.3984, 701.6586
647.8806, 705.8026
648.3627, 708.2157
648.8448, 710.2480
649.3269, 713.0289
649.8090, 716.5703
650.2911, 720.0568
650.7733, 723.4261
