##NAMES=Baotite
##RRUFFID=R060414
##IDEAL CHEMISTRY=Ba_4_(Ti^4+^,Nb^5+^,W^6+^)_8_O_16_(SiO_3_)_4_Cl
##LOCALITY=Zagi Mountain, near Hammedabad, Khaffor Dehri, North-West Frontier Province, Pakistan
##OWNER=RRUFF
##SOURCE=Herb Obodda
##DESCRIPTION=Dark brown vitreous fragment
##STATUS=The identification of this mineral has been confirmed by X-ray diffraction and chemical analysis
##URL=rruff.info/R060414
##MEASURED CHEMISTRY=Ba_4.00_(Ti_6.54_Nb^5+^_1.23_Fe^3+^_0.23_)_Î£=8_O_16_(Si_1.00_O_3_)_4_Cl_1.00_
160.9945, 5753.378
161.4766, 5756.602
161.9587, 5768.614
162.4408, 5781.147
162.9229, 5795.411
163.4050, 5809.500
163.8871, 5820.989
164.3693, 5829.065
164.8514, 5835.593
165.3335, 5845.199
165.8156, 5861.625
166.2977, 5875.878
166.7798, 5885.155
167.2620, 5892.094
167.7441, 5900.792
168.2262, 5913.217
168.7083, 5928.027
169.1904, 5941.457
169.6725, 5953.889
170.1547, 5964.818
170.6368, 5972.486
171.1189, 5978.041
171.6010, 5985.802
172.0831, 5999.138
172.5652, 6014.663
173.0474, 6025.238
173.5295, 6027.994
174.0116, 6031.230
174.4937, 6042.208
174.9758, 6060.929
175.4579, 6079.515
175.9401, 6094.955
176.4222, 6108.291
176.9043, 6120.976
177.3864, 6134.039
177.8685, 6144.789
178.3506, 6150.102
178.8328, 6149.811
179.3149, 6144.315
179.7970, 6132.254
180.2791, 6116.048
180.7612, 6097.000
181.2433, 6075.209
181.7255, 6051.774
182.2076, 6028.658
182.6897, 6004.883
183.1718, 5983.451
183.6539, 5964.540
184.1360, 5947.870
184.6181, 5933.521
185.1003, 5921.570
185.5824, 5911.509
186.0645, 5901.752
186.5466, 5893.496
187.0287, 5883.910
187.5108, 5872.076
187.9930, 5858.979
188.4751, 5845.684
188.9572, 5832.812
189.4393, 5820.443
189.9214, 5809.163
190.4035, 5799.314
190.8857, 5790.259
191.3678, 5782.188
191.8499, 5774.894
192.3320, 5767.923
192.8141, 5760.945
193.2962, 5754.121
193.7784, 5748.689
194.2605, 5743.121
194.7426, 5740.044
195.2247, 5741.869
195.7068, 5747.176
196.1889, 5751.895
196.6711, 5753.304
197.1532, 5752.173
197.6353, 5752.823
198.1174, 5756.725
198.5995, 5760.806
199.0816, 5762.692
199.5638, 5762.825
200.0459, 5764.300
200.5280, 5769.570
201.0101, 5777.455
201.4922, 5783.954
201.9743, 5788.338
202.4565, 5791.972
202.9386, 5795.532
203.4207, 5799.007
203.9028, 5803.609
204.3849, 5810.185
204.8670, 5818.385
205.3492, 5828.083
205.8313, 5840.767
206.3134, 5853.021
206.7955, 5860.133
207.2776, 5861.272
207.7597, 5861.116
208.2419, 5859.463
208.7240, 5858.455
209.2061, 5861.015
209.6882, 5869.060
210.1703, 5878.986
210.6524, 5884.266
211.1346, 5883.075
211.6167, 5881.676
212.0988, 5881.042
212.5809, 5881.560
213.0630, 5883.960
213.5451, 5888.690
214.0273, 5894.744
214.5094, 5899.789
214.9915, 5903.086
215.4736, 5906.699
215.9557, 5911.007
216.4378, 5915.809
216.9200, 5920.998
217.4021, 5926.513
217.8842, 5932.305
218.3663, 5938.179
218.8484, 5944.527
219.3305, 5950.378
219.8127, 5954.473
220.2948, 5958.541
220.7769, 5964.649
221.2590, 5973.743
221.7411, 5984.791
222.2232, 5994.712
222.7054, 6001.164
223.1875, 6009.330
223.6696, 6020.255
224.1517, 6032.776
224.6338, 6045.925
225.1159, 6059.338
225.5980, 6072.400
226.0802, 6083.307
226.5623, 6088.806
227.0444, 6095.949
227.5265, 6105.568
228.0086, 6117.024
228.4907, 6129.743
228.9729, 6143.553
229.4550, 6157.849
229.9371, 6170.819
230.4192, 6181.400
230.9013, 6192.421
231.3834, 6202.817
231.8656, 6214.208
232.3477, 6229.611
232.8298, 6250.556
233.3119, 6274.438
233.7940, 6295.169
234.2761, 6309.717
234.7583, 6328.767
235.2404, 6356.735
235.7225, 6390.617
236.2046, 6425.485
236.6867, 6459.950
237.1688, 6494.750
237.6510, 6532.521
238.1331, 6573.769
238.6152, 6613.367
239.0973, 6649.256
239.5794, 6682.339
240.0615, 6714.300
240.5437, 6745.840
241.0258, 6776.158
241.5079, 6807.486
241.9900, 6840.827
242.4721, 6862.534
242.9542, 6863.832
243.4364, 6849.117
243.9185, 6828.885
244.4006, 6804.061
244.8827, 6775.907
245.3648, 6745.212
245.8469, 6712.335
246.3290, 6679.482
246.8112, 6647.026
247.2933, 6615.482
247.7754, 6585.487
248.2575, 6556.700
248.7396, 6530.605
249.2217, 6507.796
249.7039, 6488.081
250.1860, 6471.480
250.6681, 6458.633
251.1502, 6449.037
251.6323, 6440.749
252.1144, 6434.006
252.5966, 6428.237
253.0787, 6421.938
253.5608, 6416.106
254.0429, 6413.088
254.5250, 6415.456
255.0071, 6421.765
255.4893, 6425.968
255.9714, 6425.424
256.4535, 6427.235
256.9356, 6435.760
257.4177, 6448.161
257.8998, 6459.805
258.3820, 6467.750
258.8641, 6473.265
259.3462, 6480.798
259.8283, 6490.937
260.3104, 6502.342
260.7925, 6515.398
261.2747, 6529.050
261.7568, 6541.651
262.2389, 6552.165
262.7210, 6561.655
263.2031, 6573.330
263.6852, 6587.527
264.1674, 6603.673
264.6495, 6622.224
265.1316, 6642.013
265.6137, 6662.017
266.0958, 6681.852
266.5779, 6701.104
267.0601, 6718.596
267.5422, 6733.383
268.0243, 6747.931
268.5064, 6765.255
268.9885, 6781.272
269.4706, 6792.918
269.9528, 6799.038
270.4349, 6799.368
270.9170, 6792.547
271.3991, 6773.994
271.8812, 6757.140
272.3633, 6743.592
272.8455, 6731.406
273.3276, 6718.545
273.8097, 6704.734
274.2918, 6692.080
274.7739, 6683.983
275.2560, 6682.355
275.7382, 6681.523
276.2202, 6683.327
276.7024, 6684.373
277.1845, 6681.399
277.6666, 6674.590
278.1487, 6667.656
278.6308, 6665.511
279.1129, 6670.534
279.5951, 6671.961
280.0772, 6667.747
280.5593, 6662.370
281.0414, 6658.667
281.5235, 6656.298
282.0056, 6652.625
282.4878, 6644.765
282.9699, 6631.705
283.4520, 6621.562
283.9341, 6615.958
284.4162, 6611.227
284.8983, 6605.651
285.3805, 6599.690
285.8626, 6595.119
286.3447, 6593.605
286.8268, 6595.088
287.3089, 6593.826
287.7910, 6585.367
288.2732, 6579.192
288.7553, 6578.953
289.2374, 6582.968
289.7195, 6588.128
290.2016, 6592.708
290.6837, 6596.556
291.1659, 6598.867
291.6480, 6597.189
292.1301, 6596.748
292.6122, 6597.865
293.0943, 6600.825
293.5764, 6606.525
294.0586, 6615.493
294.5407, 6626.224
295.0228, 6634.692
295.5049, 6640.765
295.9870, 6644.492
296.4691, 6644.657
296.9513, 6643.021
297.4334, 6641.668
297.9155, 6641.253
298.3976, 6640.562
298.8797, 6637.498
299.3618, 6630.589
299.8440, 6623.808
300.3261, 6616.521
300.8082, 6609.793
301.2903, 6604.396
301.7724, 6600.499
302.2545, 6597.772
302.7367, 6595.914
303.2188, 6595.189
303.7009, 6594.275
304.1830, 6591.644
304.6651, 6589.984
305.1472, 6591.479
305.6294, 6595.826
306.1115, 6600.872
306.5936, 6604.821
307.0757, 6607.610
307.5578, 6610.437
308.0399, 6613.530
308.5221, 6616.444
309.0042, 6619.213
309.4863, 6621.682
309.9684, 6623.376
310.4505, 6623.905
310.9326, 6623.484
311.4148, 6623.546
311.8969, 6622.041
312.3790, 6623.279
312.8611, 6630.217
313.3432, 6640.261
313.8253, 6649.228
314.3075, 6655.143
314.7896, 6659.264
315.2717, 6664.854
315.7538, 6674.307
316.2359, 6681.850
316.7180, 6685.204
317.2001, 6687.251
317.6823, 6690.847
318.1644, 6696.872
318.6465, 6704.939
319.1286, 6714.719
319.6107, 6727.499
320.0928, 6738.632
320.5750, 6747.788
321.0571, 6755.554
321.5392, 6761.440
322.0213, 6765.803
322.5034, 6770.996
322.9855, 6779.745
323.4677, 6793.035
323.9498, 6802.256
324.4319, 6803.813
324.9140, 6805.250
325.3961, 6809.911
325.8782, 6817.685
326.3604, 6827.737
326.8425, 6840.075
327.3246, 6854.138
327.8067, 6863.366
328.2888, 6862.732
328.7709, 6863.829
329.2531, 6870.856
329.7352, 6881.404
330.2173, 6891.585
330.6994, 6899.609
331.1815, 6905.982
331.6636, 6912.055
332.1458, 6918.107
332.6279, 6923.518
333.1100, 6927.301
333.5921, 6930.887
334.0742, 6935.568
334.5563, 6941.702
335.0385, 6949.243
335.5206, 6958.611
336.0027, 6973.031
336.4848, 6980.148
336.9669, 6976.801
337.4490, 6969.532
337.9312, 6960.912
338.4133, 6952.040
338.8954, 6944.826
339.3775, 6941.622
339.8596, 6943.155
340.3417, 6939.120
340.8239, 6922.196
341.3060, 6908.018
341.7881, 6904.007
342.2702, 6906.887
342.7523, 6909.708
343.2344, 6908.250
343.7166, 6903.118
344.1987, 6897.290
344.6808, 6887.549
345.1629, 6880.903
345.6450, 6880.922
346.1271, 6883.225
346.6093, 6882.776
347.0914, 6877.794
347.5735, 6870.411
348.0556, 6864.763
348.5377, 6862.291
349.0198, 6859.045
349.5020, 6853.288
349.9841, 6848.190
350.4662, 6846.399
350.9483, 6847.917
351.4304, 6850.536
351.9125, 6851.705
352.3947, 6850.913
352.8768, 6852.181
353.3589, 6858.197
353.8410, 6863.565
354.3231, 6864.749
354.8052, 6863.789
355.2874, 6865.382
355.7695, 6873.087
356.2516, 6885.524
356.7337, 6895.053
357.2158, 6899.951
357.6979, 6903.957
358.1800, 6906.514
358.6621, 6909.139
359.1443, 6913.627
359.6264, 6920.689
360.1085, 6929.132
360.5906, 6936.867
361.0727, 6943.558
361.5548, 6950.485
362.0370, 6958.720
362.5191, 6966.532
363.0012, 6972.396
363.4833, 6976.467
363.9654, 6980.374
364.4475, 6985.482
364.9297, 6991.760
365.4118, 6999.509
365.8939, 7007.754
366.3760, 7018.799
366.8581, 7033.476
367.3402, 7051.432
367.8224, 7072.498
368.3045, 7097.995
368.7866, 7125.179
369.2687, 7145.385
369.7508, 7155.692
370.2329, 7165.231
370.7151, 7177.058
371.1972, 7189.794
371.6793, 7202.743
372.1614, 7215.808
372.6435, 7227.669
373.1256, 7236.979
373.6078, 7243.796
374.0899, 7247.215
374.5720, 7244.085
375.0541, 7240.005
375.5362, 7241.205
376.0183, 7246.788
376.5005, 7247.952
376.9826, 7234.673
377.4647, 7211.679
377.9468, 7197.362
378.4289, 7196.045
378.9110, 7196.148
379.3932, 7189.759
379.8753, 7179.190
380.3574, 7168.392
380.8395, 7157.339
381.3216, 7147.700
381.8037, 7141.573
382.2859, 7138.965
382.7680, 7139.013
383.2501, 7142.871
383.7322, 7148.328
384.2143, 7151.474
384.6964, 7151.378
385.1786, 7152.122
385.6607, 7156.847
386.1428, 7164.244
386.6249, 7171.033
387.1070, 7176.656
387.5891, 7181.005
388.0713, 7183.750
388.5534, 7185.061
389.0355, 7185.357
389.5176, 7183.029
389.9997, 7180.792
390.4818, 7181.970
390.9640, 7186.521
391.4461, 7190.861
391.9282, 7191.898
392.4103, 7190.799
392.8924, 7193.684
393.3745, 7204.017
393.8567, 7214.092
394.3388, 7221.310
394.8209, 7226.038
395.3030, 7228.813
395.7851, 7229.784
396.2672, 7229.118
396.7494, 7226.986
397.2315, 7222.701
397.7136, 7218.349
398.1957, 7212.541
398.6778, 7207.591
399.1599, 7206.697
399.6420, 7209.388
400.1241, 7211.189
400.6063, 7207.939
401.0884, 7199.461
401.5705, 7191.995
402.0526, 7184.986
402.5347, 7179.517
403.0168, 7176.950
403.4990, 7176.009
403.9811, 7174.753
404.4632, 7172.280
404.9453, 7169.040
405.4274, 7166.038
405.9095, 7163.362
406.3917, 7160.975
406.8738, 7159.037
407.3559, 7157.278
407.8380, 7155.154
408.3201, 7152.803
408.8022, 7151.151
409.2844, 7151.265
409.7665, 7153.241
410.2486, 7154.823
410.7307, 7154.624
411.2128, 7155.460
411.6949, 7158.280
412.1771, 7162.579
412.6592, 7167.949
413.1413, 7174.537
413.6234, 7180.850
414.1055, 7182.988
414.5876, 7178.990
415.0698, 7176.840
415.5519, 7180.580
416.0340, 7185.429
416.5161, 7187.544
416.9982, 7186.714
417.4803, 7186.734
417.9625, 7191.273
418.4446, 7199.743
418.9267, 7208.208
419.4088, 7216.454
419.8909, 7224.551
420.3730, 7232.627
420.8552, 7240.552
421.3373, 7248.016
421.8194, 7255.456
422.3015, 7261.812
422.7836, 7264.798
423.2657, 7264.463
423.7479, 7265.944
424.2300, 7273.065
424.7121, 7281.423
425.1942, 7283.760
425.6763, 7278.888
426.1584, 7274.420
426.6406, 7274.069
427.1227, 7276.141
427.6048, 7277.870
428.0869, 7278.815
428.5690, 7279.373
429.0511, 7278.613
429.5333, 7277.029
430.0154, 7282.146
430.4975, 7303.815
430.9796, 7322.945
431.4617, 7326.347
431.9438, 7318.439
432.4260, 7310.798
432.9081, 7308.666
433.3902, 7310.747
433.8723, 7314.302
434.3544, 7322.140
434.8365, 7326.544
435.3187, 7323.586
435.8008, 7319.482
436.2829, 7320.042
436.7650, 7325.403
437.2471, 7331.319
437.7292, 7333.952
438.2114, 7333.260
438.6935, 7331.111
439.1756, 7325.083
439.6577, 7320.339
440.1398, 7316.909
440.6219, 7315.909
441.1040, 7320.028
441.5862, 7330.356
442.0683, 7342.533
442.5504, 7348.238
443.0325, 7345.609
443.5146, 7342.392
443.9967, 7336.025
444.4789, 7332.002
444.9610, 7334.627
445.4431, 7342.695
445.9252, 7351.313
446.4073, 7357.644
446.8894, 7361.604
447.3716, 7362.093
447.8537, 7357.076
448.3358, 7353.595
448.8179, 7355.393
449.3000, 7360.000
449.7821, 7365.263
450.2643, 7370.893
450.7464, 7376.298
451.2285, 7380.981
451.7106, 7384.983
452.1927, 7388.610
452.6748, 7392.239
453.1570, 7394.786
453.6391, 7393.867
454.1212, 7390.388
454.6033, 7388.804
455.0854, 7391.311
455.5675, 7395.293
456.0497, 7398.860
456.5318, 7401.911
457.0139, 7404.148
457.4960, 7405.075
457.9781, 7405.561
458.4602, 7408.242
458.9424, 7414.679
459.4245, 7419.745
459.9066, 7422.080
460.3887, 7422.883
460.8708, 7422.867
461.3529, 7422.375
461.8351, 7422.414
462.3172, 7424.196
462.7993, 7427.833
463.2814, 7429.229
463.7635, 7424.971
464.2456, 7422.521
464.7278, 7425.161
465.2099, 7430.236
465.6920, 7433.962
466.1741, 7434.891
466.6562, 7434.462
467.1383, 7434.922
467.6205, 7436.173
468.1026, 7438.648
468.5847, 7445.735
469.0668, 7451.016
469.5489, 7449.443
470.0310, 7443.411
470.5132, 7439.547
470.9953, 7442.171
471.4774, 7449.464
471.9595, 7457.638
472.4416, 7467.730
472.9237, 7474.937
473.4059, 7476.222
473.8880, 7474.493
474.3701, 7471.893
474.8522, 7468.640
475.3343, 7465.157
475.8164, 7460.993
476.2986, 7456.882
476.7807, 7454.639
477.2628, 7454.536
477.7449, 7455.850
478.2270, 7458.128
478.7091, 7461.455
479.1913, 7465.905
479.6734, 7472.375
480.1555, 7478.919
480.6376, 7485.412
481.1197, 7491.129
481.6018, 7494.010
482.0839, 7493.219
482.5660, 7491.413
483.0482, 7492.743
483.5303, 7499.250
484.0124, 7500.896
484.4945, 7492.503
484.9766, 7484.398
485.4587, 7482.515
485.9409, 7485.441
486.4230, 7488.874
486.9051, 7490.423
487.3872, 7490.749
487.8693, 7491.894
488.3514, 7495.361
488.8336, 7496.761
489.3157, 7492.854
489.7978, 7489.441
490.2799, 7491.603
490.7620, 7498.579
491.2441, 7504.899
491.7263, 7504.906
492.2084, 7500.720
492.6905, 7503.622
493.1726, 7517.494
493.6547, 7529.161
494.1368, 7530.600
494.6190, 7528.338
495.1011, 7529.347
495.5832, 7535.327
496.0653, 7540.601
496.5474, 7538.891
497.0295, 7532.955
497.5117, 7532.360
497.9938, 7539.878
498.4759, 7546.666
498.9580, 7543.548
499.4401, 7532.857
499.9222, 7527.651
500.4044, 7530.670
500.8865, 7537.221
501.3686, 7547.024
501.8507, 7558.341
502.3328, 7568.048
502.8149, 7575.088
503.2971, 7579.690
503.7792, 7582.153
504.2613, 7582.399
504.7434, 7580.498
505.2255, 7572.138
505.7076, 7566.176
506.1898, 7568.811
506.6719, 7576.916
507.1540, 7583.776
507.6361, 7585.850
508.1182, 7585.072
508.6003, 7585.866
509.0825, 7588.866
509.5646, 7591.757
510.0467, 7594.341
510.5288, 7596.709
511.0109, 7598.586
511.4930, 7600.215
511.9752, 7602.321
512.4573, 7605.094
512.9394, 7608.804
513.4215, 7615.042
513.9036, 7624.632
514.3857, 7631.530
514.8679, 7632.289
515.3500, 7629.887
515.8321, 7628.234
516.3142, 7627.483
516.7963, 7626.701
517.2784, 7624.372
517.7606, 7622.288
518.2427, 7623.221
518.7248, 7627.327
519.2069, 7632.614
519.6890, 7637.907
520.1711, 7643.281
520.6533, 7648.963
521.1354, 7658.107
521.6175, 7663.428
522.0996, 7661.739
522.5817, 7656.800
523.0638, 7650.845
523.5460, 7645.111
524.0281, 7642.100
524.5102, 7644.459
524.9923, 7652.042
525.4744, 7660.702
525.9565, 7674.359
526.4387, 7683.624
526.9208, 7684.008
527.4029, 7680.720
527.8850, 7678.492
528.3671, 7678.683
528.8492, 7681.231
529.3314, 7686.888
529.8135, 7695.306
530.2956, 7703.238
530.7777, 7710.898
531.2598, 7717.252
531.7419, 7721.000
532.2241, 7723.163
532.7062, 7724.935
533.1883, 7725.284
533.6704, 7727.813
534.1525, 7737.703
534.6346, 7751.341
535.1168, 7759.267
535.5989, 7758.891
536.0810, 7757.464
536.5631, 7762.781
537.0452, 7775.250
537.5273, 7783.754
538.0095, 7784.808
538.4916, 7786.167
538.9737, 7791.325
539.4558, 7798.401
539.9379, 7804.672
540.4200, 7809.201
540.9022, 7812.531
541.3843, 7815.412
541.8664, 7817.978
542.3485, 7819.416
542.8306, 7815.088
543.3127, 7814.926
543.7948, 7824.614
544.2769, 7839.737
544.7590, 7853.939
545.2411, 7865.063
545.7233, 7873.774
546.2054, 7880.308
546.6875, 7884.774
547.1696, 7888.131
547.6517, 7888.960
548.1339, 7891.561
548.6160, 7902.085
549.0981, 7917.513
549.5802, 7929.390
550.0623, 7932.396
550.5444, 7935.324
551.0266, 7945.058
551.5087, 7958.891
551.9908, 7970.518
552.4729, 7978.000
552.9550, 7983.895
553.4371, 7991.607
553.9193, 8002.007
554.4014, 8009.041
554.8835, 8010.295
555.3656, 8011.454
555.8477, 8015.013
556.3298, 8019.711
556.8120, 8022.763
557.2941, 8023.321
557.7762, 8024.492
558.2583, 8032.124
558.7404, 8047.553
559.2225, 8057.728
559.7047, 8059.739
560.1868, 8059.415
560.6689, 8058.862
561.1510, 8058.214
561.6331, 8057.699
562.1152, 8057.394
562.5974, 8057.115
563.0795, 8055.330
563.5616, 8053.217
564.0437, 8056.407
564.5258, 8067.256
565.0079, 8077.643
565.4901, 8079.009
565.9722, 8071.929
566.4543, 8070.014
566.9364, 8077.334
567.4185, 8085.187
567.9006, 8089.708
568.3828, 8093.015
568.8649, 8099.102
569.3470, 8108.613
569.8291, 8117.568
570.3112, 8120.732
570.7933, 8117.617
571.2755, 8117.904
571.7576, 8123.706
572.2397, 8130.433
572.7218, 8137.909
573.2039, 8145.205
573.6860, 8150.750
574.1682, 8154.235
574.6503, 8158.296
575.1324, 8166.350
575.6145, 8177.248
576.0966, 8186.280
576.5787, 8193.335
577.0609, 8197.558
577.5430, 8196.693
578.0251, 8193.021
578.5072, 8191.753
578.9893, 8192.362
579.4714, 8196.811
579.9536, 8210.483
580.4357, 8226.011
580.9178, 8234.509
581.3999, 8235.027
581.8820, 8230.820
582.3641, 8223.538
582.8463, 8214.349
583.3284, 8209.933
583.8105, 8214.307
584.2926, 8217.913
584.7747, 8220.252
585.2568, 8221.513
585.7390, 8221.842
586.2211, 8221.275
586.7032, 8219.641
587.1853, 8216.119
587.6674, 8211.953
588.1495, 8210.618
588.6317, 8212.355
589.1138, 8215.571
589.5959, 8220.517
590.0780, 8226.045
590.5601, 8230.699
591.0422, 8234.488
591.5244, 8238.386
592.0065, 8244.305
592.4886, 8249.135
592.9707, 8247.994
593.4528, 8242.919
593.9349, 8241.392
594.4171, 8246.905
594.8992, 8255.842
595.3813, 8261.714
595.8634, 8262.350
596.3455, 8266.345
596.8276, 8280.746
597.3098, 8290.618
597.7919, 8286.566
598.2740, 8274.479
598.7561, 8263.586
599.2382, 8257.482
599.7203, 8256.550
600.2025, 8263.599
600.6846, 8278.354
601.1667, 8288.914
601.6488, 8293.913
602.1309, 8295.027
602.6130, 8290.323
603.0952, 8282.965
603.5773, 8279.601
604.0594, 8282.396
604.5415, 8286.857
605.0236, 8293.466
605.5057, 8299.263
605.9879, 8297.378
606.4700, 8287.667
606.9521, 8279.856
607.4342, 8282.448
607.9163, 8293.870
608.3984, 8302.358
608.8806, 8303.418
609.3627, 8307.580
609.8448, 8320.620
610.3269, 8333.222
610.8090, 8337.256
611.2911, 8333.208
611.7733, 8327.465
612.2554, 8323.718
612.7375, 8321.899
613.2196, 8322.335
613.7017, 8325.281
614.1838, 8327.764
614.6660, 8328.079
615.1481, 8328.647
615.6302, 8333.866
616.1123, 8343.334
616.5944, 8348.620
617.0765, 8343.665
617.5587, 8338.168
618.0408, 8338.828
618.5229, 8343.949
619.0050, 8349.785
619.4871, 8354.969
619.9692, 8359.261
620.4514, 8361.987
620.9335, 8362.618
621.4156, 8365.679
621.8977, 8373.934
622.3798, 8381.370
622.8619, 8386.716
623.3441, 8390.295
623.8262, 8391.963
624.3083, 8391.765
624.7904, 8391.684
625.2725, 8392.961
625.7546, 8395.700
626.2367, 8400.686
626.7188, 8408.196
627.2009, 8415.298
627.6830, 8419.736
628.1652, 8423.448
628.6473, 8432.368
629.1294, 8450.409
629.6115, 8460.479
630.0936, 8451.047
630.5757, 8440.573
631.0579, 8444.979
631.5400, 8459.802
632.0221, 8470.191
632.5042, 8468.443
632.9863, 8461.649
633.4684, 8464.149
633.9506, 8478.895
634.4327, 8488.072
634.9148, 8486.782
635.3969, 8484.736
635.8790, 8486.194
636.3611, 8490.306
636.8433, 8495.829
637.3254, 8502.816
637.8075, 8509.887
638.2896, 8516.721
638.7717, 8522.688
639.2538, 8526.146
639.7360, 8526.936
640.2181, 8527.254
640.7002, 8528.293
641.1823, 8530.389
641.6644, 8534.983
642.1465, 8547.677
642.6287, 8555.036
643.1108, 8551.220
643.5929, 8547.003
644.0750, 8550.111
644.5571, 8559.268
645.0392, 8569.022
645.5214, 8576.509
646.0035, 8582.541
646.4856, 8588.432
646.9677, 8594.187
647.4498, 8598.723
647.9319, 8600.593
648.4141, 8603.771
648.8962, 8613.475
649.3783, 8627.411
649.8604, 8636.571
650.3425, 8636.381
650.8246, 8636.463
651.3068, 8641.471
651.7889, 8648.262
652.2710, 8652.984
652.7531, 8655.162
653.2352, 8656.371
653.7173, 8657.678
654.1995, 8659.247
654.6816, 8661.971
655.1637, 8666.378
