##NAMES=Baotite
##RRUFFID=R060251
##IDEAL CHEMISTRY=Ba_4_(Ti^4+^,Nb^5+^,W^6+^)_8_O_16_(SiO_3_)_4_Cl
##LOCALITY=Baiyun-Obo mine, Inner Mongolia, China
##OWNER=RRUFF
##SOURCE=William W. Pinch
##DESCRIPTION=Brownish-purple colored cleavage fragments associated with clear brewsterite and blue richterite
##STATUS=The identification of this mineral has been confirmed by single-crystal X-ray diffraction.
##URL=rruff.info/R060251
89.60352, 30.42453
90.08563, 30.45234
90.56775, 30.45534
91.04987, 30.40009
91.53198, 30.35094
92.01410, 30.45375
92.49622, 30.69714
92.97833, 30.85767
93.46045, 30.68283
93.94257, 30.24601
94.42468, 29.79516
94.90680, 29.36331
95.38892, 28.98578
95.87103, 28.76921
96.35315, 28.72637
96.83527, 28.80093
97.31738, 29.01039
97.79950, 29.36389
98.28162, 29.55391
98.76373, 29.30156
99.24585, 28.58514
99.72797, 28.23074
100.2101, 28.29921
100.6922, 28.69870
101.1743, 29.33925
101.6564, 30.41762
102.1385, 31.21774
102.6207, 31.17543
103.1028, 29.86920
103.5849, 29.06688
104.0670, 29.11366
104.5491, 29.87095
105.0313, 30.27768
105.5134, 30.21905
105.9955, 29.93342
106.4776, 29.57061
106.9597, 28.88141
107.4418, 28.47709
107.9240, 28.55083
108.4061, 29.18475
108.8882, 29.65712
109.3703, 29.84710
109.8524, 29.92132
110.3345, 30.05317
110.8167, 30.31561
111.2988, 30.57177
111.7809, 30.79133
112.2630, 30.97302
112.7451, 31.11659
113.2272, 31.04156
113.7094, 30.94762
114.1915, 31.16648
114.6736, 32.01553
115.1557, 33.02541
115.6378, 33.93886
116.1199, 34.54231
116.6021, 35.36742
117.0842, 36.66891
117.5663, 38.35672
118.0484, 40.16022
118.5305, 41.69820
119.0126, 43.43341
119.4948, 45.73001
119.9769, 48.83679
120.4590, 52.40046
120.9411, 56.16690
121.4232, 60.16463
121.9053, 64.50223
122.3875, 68.92940
122.8696, 73.80039
123.3517, 79.60704
123.8338, 86.42986
124.3159, 94.36797
124.7980, 103.4629
125.2802, 113.7524
125.7623, 125.0690
126.2444, 137.3591
126.7265, 150.5736
127.2086, 164.5811
127.6907, 179.5690
128.1729, 195.2744
128.6550, 211.2903
129.1371, 227.7407
129.6192, 244.1365
130.1013, 260.5105
130.5834, 276.6261
131.0656, 291.7808
131.5477, 305.2722
132.0298, 317.3314
132.5119, 328.9702
132.9940, 340.1579
133.4761, 351.2104
133.9583, 363.0959
134.4404, 375.8060
134.9225, 389.5060
135.4046, 404.0325
135.8867, 419.4325
136.3688, 436.1436
136.8510, 454.2779
137.3331, 473.6515
137.8152, 495.1710
138.2973, 519.3179
138.7794, 544.4659
139.2615, 569.8333
139.7437, 595.2896
140.2258, 620.4910
140.7079, 645.4709
141.1900, 670.1213
141.6721, 694.5050
142.1542, 718.6533
142.6364, 742.3664
143.1185, 765.4762
143.6006, 787.9548
144.0827, 809.4709
144.5648, 829.5814
145.0469, 848.3455
145.5291, 866.7863
146.0112, 885.6332
146.4933, 903.9711
146.9754, 920.7699
147.4575, 934.4022
147.9396, 948.2297
148.4218, 963.3842
148.9039, 980.3035
149.3860, 997.2585
149.8681, 1014.593
150.3502, 1031.709
150.8323, 1047.493
151.3145, 1059.229
151.7966, 1071.727
152.2787, 1086.815
152.7608, 1106.487
153.2429, 1125.581
153.7250, 1143.606
154.2072, 1160.801
154.6893, 1174.226
155.1714, 1185.296
155.6535, 1196.338
156.1356, 1201.818
156.6177, 1207.497
157.0999, 1213.952
157.5820, 1221.651
158.0641, 1230.332
158.5462, 1238.873
159.0283, 1246.461
159.5104, 1254.140
159.9926, 1262.590
160.4747, 1273.586
160.9568, 1283.788
161.4389, 1291.500
161.9210, 1296.995
162.4031, 1303.232
162.8853, 1312.327
163.3674, 1322.185
163.8495, 1330.887
164.3316, 1336.806
164.8137, 1342.254
165.2958, 1348.623
165.7780, 1355.913
166.2601, 1362.516
166.7422, 1367.725
167.2243, 1371.792
167.7064, 1374.977
168.1885, 1377.685
168.6707, 1379.405
169.1528, 1379.616
169.6349, 1378.261
170.1170, 1376.188
170.5991, 1374.013
171.0812, 1371.515
171.5634, 1368.341
172.0455, 1363.814
172.5276, 1358.798
173.0097, 1354.427
173.4918, 1350.939
173.9739, 1346.866
174.4561, 1340.606
174.9382, 1332.700
175.4203, 1324.403
175.9024, 1315.838
176.3845, 1307.504
176.8666, 1300.271
177.3488, 1294.347
177.8309, 1288.926
178.3130, 1283.304
178.7951, 1277.441
179.2772, 1271.416
179.7593, 1264.258
180.2415, 1257.068
180.7236, 1252.139
181.2057, 1250.210
181.6878, 1249.407
182.1699, 1247.306
182.6520, 1244.063
183.1342, 1240.468
183.6163, 1236.912
184.0984, 1233.393
184.5805, 1230.164
185.0626, 1227.474
185.5447, 1224.655
186.0269, 1220.407
186.5090, 1214.773
186.9911, 1208.559
187.4732, 1201.887
187.9553, 1194.928
188.4374, 1188.896
188.9196, 1184.074
189.4017, 1180.099
189.8838, 1176.332
190.3659, 1172.745
190.8480, 1169.019
191.3301, 1164.580
191.8123, 1159.519
192.2944, 1155.187
192.7765, 1152.059
193.2586, 1149.696
193.7407, 1146.779
194.2228, 1143.220
194.7050, 1139.791
195.1871, 1137.048
195.6692, 1134.991
196.1513, 1133.684
196.6334, 1133.365
197.1155, 1133.744
197.5977, 1133.661
198.0798, 1133.034
198.5619, 1132.240
199.0440, 1131.328
199.5261, 1130.201
200.0082, 1130.248
200.4904, 1132.268
200.9725, 1135.801
201.4546, 1137.703
201.9367, 1137.515
202.4188, 1136.960
202.9009, 1137.715
203.3831, 1139.873
203.8652, 1142.666
204.3473, 1146.203
204.8294, 1150.349
205.3115, 1153.416
205.7936, 1154.980
206.2758, 1156.367
206.7579, 1159.269
207.2400, 1164.135
207.7221, 1168.381
208.2042, 1171.042
208.6863, 1172.194
209.1685, 1174.470
209.6506, 1177.977
210.1327, 1182.459
210.6148, 1187.964
211.0969, 1194.958
211.5790, 1201.223
212.0612, 1205.843
212.5433, 1208.720
213.0254, 1212.989
213.5075, 1219.175
213.9896, 1226.044
214.4717, 1231.906
214.9538, 1236.316
215.4360, 1241.057
215.9181, 1246.781
216.4002, 1253.518
216.8823, 1259.885
217.3644, 1266.014
217.8465, 1271.607
218.3287, 1276.147
218.8108, 1278.929
219.2929, 1282.340
219.7750, 1287.233
220.2571, 1293.841
220.7392, 1300.024
221.2214, 1305.669
221.7035, 1311.070
222.1856, 1316.818
222.6677, 1323.306
223.1498, 1329.235
223.6319, 1333.963
224.1141, 1337.332
224.5962, 1341.178
225.0783, 1345.721
225.5604, 1350.492
226.0425, 1354.956
226.5246, 1359.027
227.0068, 1362.889
227.4889, 1366.514
227.9710, 1369.955
228.4531, 1373.125
228.9352, 1376.006
229.4173, 1378.626
229.8995, 1380.890
230.3816, 1382.439
230.8637, 1384.312
231.3458, 1386.645
231.8279, 1389.382
232.3100, 1393.269
232.7922, 1399.090
233.2743, 1405.407
233.7564, 1410.331
234.2385, 1412.964
234.7206, 1415.754
235.2027, 1419.460
235.6849, 1424.306
236.1670, 1428.677
236.6491, 1432.567
237.1312, 1436.002
237.6133, 1439.088
238.0954, 1442.323
238.5776, 1444.417
239.0597, 1445.187
239.5418, 1444.727
240.0239, 1442.252
240.5060, 1437.440
240.9881, 1430.890
241.4703, 1423.311
241.9524, 1414.723
242.4345, 1405.070
242.9166, 1393.913
243.3987, 1380.780
243.8808, 1369.669
244.3630, 1361.925
244.8451, 1354.958
245.3272, 1345.351
245.8093, 1330.742
246.2914, 1317.804
246.7735, 1308.307
247.2557, 1302.569
247.7378, 1296.659
248.2199, 1290.046
248.7020, 1283.698
249.1841, 1278.826
249.6662, 1276.295
250.1484, 1273.481
250.6305, 1269.593
251.1126, 1264.551
251.5947, 1260.204
252.0768, 1256.682
252.5589, 1253.735
253.0411, 1251.197
253.5232, 1249.355
254.0053, 1247.336
254.4874, 1244.951
254.9695, 1242.186
255.4516, 1239.335
255.9338, 1236.276
256.4159, 1233.318
256.8980, 1230.834
257.3801, 1228.950
257.8622, 1227.276
258.3444, 1225.902
258.8265, 1224.814
259.3086, 1223.213
259.7907, 1220.735
260.2728, 1218.358
260.7549, 1216.914
261.2371, 1216.407
261.7192, 1216.874
262.2013, 1218.691
262.6834, 1221.668
263.1655, 1223.561
263.6476, 1223.834
264.1298, 1223.924
264.6119, 1225.035
265.0940, 1227.429
265.5761, 1229.914
266.0582, 1232.444
266.5403, 1234.906
267.0225, 1236.791
267.5046, 1238.093
267.9867, 1238.760
268.4688, 1238.677
268.9509, 1237.718
269.4330, 1236.491
269.9152, 1235.024
270.3973, 1233.346
270.8794, 1231.613
271.3615, 1229.801
271.8436, 1228.008
272.3257, 1226.267
272.8079, 1224.515
273.2900, 1223.240
273.7721, 1222.614
274.2542, 1222.426
274.7363, 1222.029
275.2184, 1221.395
275.7006, 1220.740
276.1827, 1219.945
276.6648, 1218.912
277.1469, 1219.136
277.6290, 1220.931
278.1111, 1223.812
278.5933, 1226.716
279.0754, 1229.625
279.5575, 1232.795
280.0396, 1236.627
280.5217, 1241.086
281.0038, 1244.760
281.4860, 1247.375
281.9681, 1249.513
282.4502, 1252.106
282.9323, 1255.141
283.4144, 1258.599
283.8965, 1262.657
284.3787, 1267.218
284.8608, 1271.622
285.3429, 1275.879
285.8250, 1279.921
286.3071, 1283.583
286.7892, 1286.880
287.2714, 1290.096
287.7535, 1293.155
288.2356, 1296.214
288.7177, 1300.186
289.1998, 1305.307
289.6819, 1310.354
290.1641, 1313.925
290.6462, 1316.107
291.1283, 1317.494
291.6104, 1317.650
292.0925, 1317.266
292.5746, 1318.842
293.0568, 1322.559
293.5389, 1326.084
294.0210, 1326.578
294.5031, 1324.697
294.9852, 1323.028
295.4673, 1322.775
295.9495, 1323.031
296.4316, 1321.799
296.9137, 1319.123
297.3958, 1316.384
297.8779, 1315.315
298.3600, 1315.106
298.8422, 1313.613
299.3243, 1309.701
299.8064, 1304.864
300.2885, 1301.247
300.7706, 1298.712
301.2527, 1296.203
301.7349, 1292.570
302.2170, 1288.551
302.6991, 1285.649
303.1812, 1284.662
303.6633, 1283.896
304.1454, 1281.109
304.6276, 1276.868
305.1097, 1273.137
305.5918, 1271.556
306.0739, 1271.006
306.5560, 1270.354
307.0381, 1269.592
307.5203, 1268.148
308.0024, 1264.767
308.4845, 1260.279
308.9666, 1256.626
309.4487, 1255.289
309.9308, 1254.922
310.4130, 1254.473
310.8951, 1253.827
311.3772, 1253.148
311.8593, 1252.146
312.3414, 1251.254
312.8235, 1251.135
313.3057, 1252.685
313.7878, 1254.615
314.2699, 1256.214
314.7520, 1257.422
315.2341, 1258.397
315.7162, 1258.968
316.1984, 1259.411
316.6805, 1260.025
317.1626, 1260.742
317.6447, 1261.793
318.1268, 1263.411
318.6089, 1265.571
319.0911, 1267.679
319.5732, 1269.009
320.0553, 1270.509
320.5374, 1272.890
321.0195, 1277.079
321.5016, 1281.370
321.9838, 1285.399
322.4659, 1289.227
322.9480, 1293.137
323.4301, 1296.642
323.9122, 1300.648
324.3943, 1305.600
324.8765, 1311.862
325.3586, 1318.630
325.8407, 1326.382
326.3228, 1334.607
326.8049, 1342.052
327.2870, 1347.711
327.7692, 1353.274
328.2513, 1359.245
328.7334, 1365.359
329.2155, 1372.384
329.6976, 1381.940
330.1797, 1391.895
330.6619, 1398.683
331.1440, 1399.768
331.6261, 1401.174
332.1082, 1404.948
332.5903, 1411.668
333.0724, 1416.118
333.5546, 1417.117
334.0367, 1416.943
334.5188, 1418.180
335.0009, 1421.846
335.4830, 1424.633
335.9651, 1425.794
336.4473, 1425.435
336.9294, 1424.623
337.4115, 1423.082
337.8936, 1421.647
338.3757, 1421.464
338.8578, 1423.180
339.3399, 1422.838
339.8221, 1419.494
340.3042, 1413.991
340.7863, 1408.994
341.2684, 1404.428
341.7505, 1400.448
342.2326, 1397.595
342.7148, 1395.877
343.1969, 1392.726
343.6790, 1387.773
344.1611, 1381.730
344.6432, 1375.938
345.1253, 1370.369
345.6075, 1364.344
346.0896, 1357.262
346.5717, 1349.317
347.0538, 1341.780
347.5359, 1334.628
348.0180, 1327.527
348.5002, 1319.849
348.9823, 1311.785
349.4644, 1304.173
349.9465, 1297.688
350.4286, 1291.699
350.9107, 1284.652
351.3929, 1276.654
351.8750, 1269.305
352.3571, 1263.939
352.8392, 1260.172
353.3213, 1257.421
353.8034, 1256.119
354.2856, 1255.009
354.7677, 1252.739
355.2498, 1249.528
355.7319, 1246.195
356.2140, 1242.380
356.6961, 1239.090
357.1783, 1237.509
357.6604, 1238.286
358.1425, 1239.356
358.6246, 1239.472
359.1067, 1238.923
359.5888, 1238.297
360.0710, 1237.472
360.5531, 1236.891
361.0352, 1236.652
361.5173, 1236.699
361.9994, 1237.621
362.4815, 1240.845
362.9637, 1244.606
363.4458, 1247.014
363.9279, 1245.865
364.4100, 1245.020
364.8921, 1246.125
365.3742, 1249.011
365.8564, 1250.924
366.3385, 1250.940
366.8206, 1250.169
367.3027, 1249.281
367.7848, 1248.675
368.2669, 1247.548
368.7491, 1245.495
369.2312, 1242.890
369.7133, 1240.826
370.1954, 1239.302
370.6775, 1238.355
371.1596, 1238.162
371.6418, 1239.240
372.1239, 1239.606
372.6060, 1238.910
373.0881, 1237.779
373.5702, 1237.173
374.0523, 1237.481
374.5345, 1237.384
375.0166, 1236.254
375.4987, 1234.102
375.9808, 1233.006
376.4629, 1233.111
376.9450, 1233.852
377.4272, 1234.775
377.9093, 1235.869
378.3914, 1237.075
378.8735, 1238.424
379.3556, 1239.823
379.8377, 1241.033
380.3199, 1242.022
380.8020, 1243.061
381.2841, 1244.362
381.7662, 1245.898
382.2483, 1247.226
382.7304, 1248.122
383.2126, 1249.525
383.6947, 1253.031
384.1768, 1258.373
384.6589, 1264.039
385.1410, 1269.494
385.6231, 1274.861
386.1053, 1280.349
386.5874, 1285.939
387.0695, 1291.940
387.5516, 1299.494
388.0337, 1307.576
388.5158, 1314.284
388.9980, 1318.000
389.4801, 1321.322
389.9622, 1327.166
390.4443, 1334.705
390.9264, 1340.645
391.4085, 1342.206
391.8907, 1341.883
392.3728, 1341.813
392.8549, 1342.900
393.3370, 1342.889
393.8191, 1340.417
394.3012, 1336.258
394.7834, 1331.717
395.2655, 1327.469
395.7476, 1322.642
396.2297, 1316.425
396.7118, 1308.467
397.1939, 1301.717
397.6761, 1297.485
398.1582, 1294.199
398.6403, 1290.548
399.1224, 1286.795
399.6045, 1282.243
400.0866, 1276.116
400.5688, 1268.856
401.0509, 1263.292
401.5330, 1260.406
402.0151, 1257.999
402.4972, 1254.997
402.9793, 1250.994
403.4615, 1247.482
403.9436, 1244.551
404.4257, 1242.078
404.9078, 1239.926
405.3899, 1238.094
405.8720, 1236.534
406.3542, 1235.337
406.8363, 1234.440
407.3184, 1233.065
407.8005, 1231.040
408.2826, 1229.130
408.7647, 1228.260
409.2469, 1228.332
409.7290, 1228.056
410.2111, 1226.925
410.6932, 1225.635
411.1753, 1225.846
411.6574, 1227.411
412.1396, 1228.835
412.6217, 1228.666
413.1038, 1227.815
413.5859, 1228.215
414.0680, 1230.230
414.5501, 1232.428
415.0323, 1233.012
415.5144, 1232.826
415.9965, 1233.536
416.4786, 1236.800
416.9607, 1240.507
417.4428, 1242.917
417.9250, 1244.118
418.4071, 1245.385
418.8892, 1247.076
419.3713, 1249.263
419.8534, 1251.993
420.3355, 1255.408
420.8177, 1259.191
421.2998, 1263.723
421.7819, 1268.573
422.2640, 1272.919
422.7461, 1275.771
423.2282, 1278.791
423.7104, 1282.760
424.1925, 1288.039
424.6746, 1292.962
425.1567, 1298.060
425.6388, 1302.447
426.1209, 1305.313
426.6031, 1305.768
427.0852, 1306.072
427.5673, 1306.503
428.0494, 1306.983
428.5315, 1307.068
429.0136, 1306.483
429.4958, 1305.990
429.9779, 1306.190
430.4600, 1307.282
430.9421, 1307.289
431.4242, 1305.655
431.9063, 1303.860
432.3885, 1304.574
432.8706, 1307.825
433.3527, 1310.868
433.8348, 1312.592
434.3169, 1313.467
434.7990, 1315.055
435.2812, 1317.370
435.7633, 1319.469
436.2454, 1320.299
436.7275, 1320.314
437.2096, 1320.559
437.6917, 1321.263
438.1739, 1322.211
438.6560, 1323.148
439.1381, 1324.146
439.6202, 1325.387
440.1023, 1327.245
440.5844, 1329.203
441.0666, 1331.018
441.5487, 1332.672
442.0308, 1333.746
442.5129, 1333.142
442.9950, 1332.254
443.4771, 1332.416
443.9593, 1334.616
444.4414, 1337.221
444.9235, 1339.715
445.4056, 1342.242
445.8877, 1345.417
446.3698, 1350.737
446.8520, 1355.466
447.3341, 1358.144
447.8162, 1357.443
448.2983, 1358.694
448.7804, 1363.528
449.2625, 1369.135
449.7447, 1372.118
450.2268, 1371.454
450.7089, 1370.568
451.1910, 1370.125
451.6731, 1369.989
452.1552, 1369.517
452.6374, 1368.798
453.1195, 1367.533
453.6016, 1365.284
454.0837, 1362.125
454.5658, 1359.408
455.0479, 1357.316
455.5301, 1355.514
456.0122, 1353.620
456.4943, 1351.627
456.9764, 1349.609
457.4585, 1347.253
457.9406, 1345.045
458.4228, 1344.316
458.9049, 1344.858
459.3870, 1344.602
459.8691, 1340.956
460.3512, 1336.055
460.8333, 1332.750
461.3155, 1332.082
461.7976, 1331.546
462.2797, 1329.263
462.7618, 1326.021
463.2439, 1323.246
463.7260, 1322.115
464.2082, 1320.971
464.6903, 1318.932
465.1724, 1315.977
465.6545, 1313.414
466.1366, 1311.982
466.6187, 1310.756
467.1009, 1309.144
467.5830, 1306.875
468.0651, 1304.500
468.5472, 1301.802
469.0293, 1299.095
469.5114, 1297.104
469.9936, 1296.401
470.4757, 1295.317
470.9578, 1293.198
471.4399, 1290.053
471.9220, 1287.143
472.4041, 1284.427
472.8863, 1282.140
473.3684, 1280.728
473.8505, 1280.161
474.3326, 1279.455
474.8147, 1278.579
475.2968, 1277.269
475.7790, 1274.449
476.2611, 1270.434
476.7432, 1267.404
477.2253, 1267.176
477.7074, 1268.332
478.1895, 1268.918
478.6717, 1268.886
479.1538, 1267.977
479.6359, 1265.256
480.1180, 1261.815
480.6001, 1259.023
481.0822, 1257.492
481.5644, 1256.236
482.0465, 1255.023
482.5286, 1253.721
483.0107, 1252.029
483.4928, 1249.174
483.9749, 1246.508
484.4571, 1244.796
484.9392, 1244.252
485.4213, 1243.125
485.9034, 1240.092
486.3855, 1237.174
486.8676, 1235.826
487.3498, 1237.594
487.8319, 1237.993
488.3140, 1236.105
488.7961, 1232.961
489.2782, 1231.331
489.7603, 1231.941
490.2425, 1231.615
490.7246, 1228.759
491.2067, 1223.650
491.6888, 1219.293
492.1709, 1215.725
492.6530, 1212.932
493.1352, 1211.491
493.6173, 1210.979
494.0994, 1209.481
494.5815, 1206.447
495.0636, 1202.879
495.5457, 1200.147
496.0279, 1198.012
496.5100, 1195.742
496.9921, 1192.473
497.4742, 1189.210
497.9563, 1186.925
498.4384, 1185.591
498.9206, 1184.464
499.4027, 1183.510
499.8848, 1182.366
500.3669, 1180.593
500.8490, 1177.116
501.3311, 1174.653
501.8133, 1174.553
502.2954, 1175.724
502.7775, 1176.102
503.2596, 1174.925
503.7417, 1173.604
504.2238, 1172.540
504.7060, 1171.717
505.1881, 1170.168
505.6702, 1167.410
506.1523, 1164.732
506.6344, 1163.054
507.1165, 1162.496
507.5987, 1162.169
508.0808, 1162.192
508.5629, 1162.105
509.0450, 1160.887
509.5271, 1158.659
510.0092, 1157.005
510.4914, 1156.895
510.9735, 1157.467
511.4556, 1156.880
511.9377, 1155.255
512.4199, 1153.525
512.9020, 1152.027
513.3841, 1150.925
513.8662, 1150.634
514.3483, 1151.420
514.8304, 1151.924
515.3126, 1150.628
515.7947, 1148.755
516.2768, 1147.842
516.7589, 1149.641
517.2410, 1151.096
517.7231, 1151.017
518.2053, 1149.700
518.6874, 1148.674
519.1695, 1148.050
519.6516, 1147.835
520.1337, 1148.257
520.6158, 1149.711
521.0980, 1149.995
521.5801, 1148.581
522.0622, 1146.706
522.5443, 1145.643
523.0264, 1145.555
523.5085, 1145.376
523.9907, 1144.958
524.4728, 1144.357
524.9549, 1143.276
525.4370, 1141.777
525.9191, 1141.358
526.4012, 1144.180
526.8834, 1148.311
527.3655, 1148.938
527.8476, 1146.111
528.3297, 1143.203
528.8118, 1142.703
529.2939, 1143.730
529.7761, 1145.372
530.2582, 1147.781
530.7403, 1149.863
531.2224, 1150.689
531.7045, 1150.815
532.1866, 1151.154
532.6688, 1152.389
533.1509, 1153.418
533.6330, 1153.748
534.1151, 1153.397
534.5972, 1153.351
535.0793, 1153.864
535.5615, 1154.426
536.0436, 1154.756
536.5257, 1154.709
537.0078, 1155.023
537.4899, 1155.838
537.9720, 1156.827
538.4542, 1157.743
538.9363, 1158.649
539.4184, 1158.723
539.9005, 1157.457
540.3826, 1155.680
540.8647, 1155.345
541.3469, 1156.291
541.8290, 1157.229
542.3111, 1157.388
542.7932, 1157.112
543.2753, 1156.820
543.7574, 1156.526
544.2396, 1156.355
544.7217, 1156.545
545.2038, 1156.806
545.6859, 1156.812
546.1680, 1156.250
546.6501, 1155.830
547.1323, 1155.727
547.6144, 1155.924
548.0965, 1156.388
548.5786, 1157.995
549.0607, 1158.865
549.5428, 1158.228
550.0250, 1156.297
550.5071, 1155.361
550.9892, 1155.826
551.4713, 1156.578
551.9534, 1157.208
552.4355, 1157.786
552.9177, 1157.385
553.3998, 1155.745
553.8819, 1153.961
554.3640, 1153.709
554.8461, 1154.629
555.3282, 1154.521
555.8104, 1152.291
556.2925, 1149.760
556.7746, 1149.966
557.2567, 1152.042
557.7388, 1153.285
558.2209, 1151.822
558.7031, 1149.284
559.1852, 1146.601
559.6673, 1143.853
560.1494, 1141.681
560.6315, 1140.542
561.1136, 1139.968
561.5958, 1139.797
562.0779, 1140.951
562.5600, 1140.660
563.0421, 1137.821
563.5242, 1134.029
564.0063, 1131.185
564.4885, 1129.359
564.9706, 1128.404
565.4527, 1128.530
565.9348, 1129.396
566.4169, 1130.069
566.8990, 1130.590
567.3812, 1130.380
567.8633, 1128.482
568.3454, 1125.552
568.8275, 1124.139
569.3096, 1124.295
569.7917, 1124.784
570.2739, 1124.544
570.7560, 1123.958
571.2381, 1123.638
571.7202, 1123.798
572.2023, 1124.000
572.6844, 1123.991
573.1666, 1123.855
573.6487, 1123.714
574.1308, 1123.075
574.6129, 1123.014
575.0950, 1124.451
575.5771, 1127.003
576.0593, 1128.245
576.5414, 1127.078
577.0235, 1125.883
577.5056, 1125.477
577.9877, 1125.885
578.4698, 1126.961
578.9520, 1129.040
579.4341, 1130.922
579.9162, 1131.193
580.3983, 1129.983
580.8804, 1129.516
581.3625, 1130.264
581.8447, 1131.316
582.3268, 1131.437
582.8089, 1130.839
583.2910, 1130.116
583.7731, 1129.380
584.2552, 1128.755
584.7373, 1128.238
585.2194, 1127.900
585.7015, 1127.996
