##NAMES=Baotite
##RRUFFID=R060251
##IDEAL CHEMISTRY=Ba_4_(Ti^4+^,Nb^5+^,W^6+^)_8_O_16_(SiO_3_)_4_Cl
##LOCALITY=Baiyun-Obo mine, Inner Mongolia, China
##OWNER=RRUFF
##SOURCE=William W. Pinch
##DESCRIPTION=Brownish-purple colored cleavage fragments associated with clear brewsterite and blue richterite
##STATUS=The identification of this mineral has been confirmed by single-crystal X-ray diffraction.
##URL=rruff.info/R060251
91.18097, 0.0000000E+00
91.66309, 3954.815
92.14520, 3923.551
92.62732, 3936.868
93.10944, 3984.720
93.59155, 4039.125
94.07367, 4075.993
94.55579, 4100.477
95.03790, 4116.700
95.52002, 4126.319
96.00214, 4129.201
96.48425, 4126.878
96.96637, 4122.080
97.44849, 4116.170
97.93060, 4109.860
98.41272, 4098.443
98.89484, 4079.629
99.37695, 4062.281
99.85907, 4046.271
100.3412, 4033.489
100.8233, 4022.340
101.3054, 4013.435
101.7875, 4007.792
102.2697, 4005.907
102.7518, 4007.598
103.2339, 4012.793
103.7160, 4023.692
104.1981, 4034.225
104.6802, 4041.110
105.1624, 4044.581
105.6445, 4047.461
106.1266, 4051.433
106.6087, 4056.294
107.0908, 4060.866
107.5729, 4064.160
108.0551, 4067.292
108.5372, 4071.516
109.0193, 4076.894
109.5014, 4083.281
109.9835, 4090.679
110.4656, 4098.876
110.9478, 4107.307
111.4299, 4115.987
111.9120, 4124.794
112.3941, 4132.782
112.8762, 4138.644
113.3583, 4144.728
113.8405, 4152.783
114.3226, 4162.683
114.8047, 4172.760
115.2868, 4181.078
115.7689, 4187.367
116.2510, 4192.696
116.7332, 4196.215
117.2153, 4199.525
117.6974, 4203.393
118.1795, 4208.128
118.6616, 4213.878
119.1437, 4220.983
119.6259, 4230.191
120.1080, 4239.960
120.5901, 4251.052
121.0722, 4262.430
121.5543, 4272.798
122.0364, 4281.461
122.5186, 4288.605
123.0007, 4295.069
123.4828, 4301.142
123.9649, 4306.437
124.4470, 4310.361
124.9291, 4313.205
125.4113, 4315.960
125.8934, 4318.960
126.3755, 4322.561
126.8576, 4327.534
127.3397, 4335.258
127.8218, 4343.588
128.3040, 4350.415
128.7861, 4355.463
129.2682, 4360.356
129.7503, 4366.132
130.2324, 4372.581
130.7145, 4379.498
131.1967, 4387.995
131.6788, 4396.960
132.1609, 4402.605
132.6430, 4402.588
133.1251, 4402.444
133.6072, 4404.489
134.0894, 4408.428
134.5715, 4413.511
135.0536, 4419.328
135.5357, 4425.940
136.0178, 4432.744
136.4999, 4440.108
136.9821, 4447.319
137.4642, 4454.043
137.9463, 4460.346
138.4284, 4466.438
138.9105, 4472.604
139.3926, 4478.833
139.8748, 4485.236
140.3569, 4492.242
140.8390, 4499.144
141.3211, 4505.800
141.8032, 4512.052
142.2853, 4517.404
142.7675, 4520.766
143.2496, 4519.818
143.7317, 4521.309
144.2138, 4527.642
144.6959, 4535.981
145.1780, 4543.038
145.6602, 4547.764
146.1423, 4550.294
146.6244, 4550.269
147.1065, 4546.900
147.5886, 4544.036
148.0707, 4543.425
148.5529, 4544.593
149.0350, 4545.933
149.5171, 4547.015
149.9992, 4547.757
150.4813, 4548.177
150.9634, 4548.260
151.4456, 4548.047
151.9277, 4547.437
152.4098, 4546.372
152.8919, 4545.444
153.3740, 4545.038
153.8561, 4544.805
154.3383, 4544.569
154.8204, 4544.354
155.3025, 4543.886
155.7846, 4542.445
156.2667, 4539.164
156.7488, 4536.858
157.2310, 4536.146
157.7131, 4536.606
158.1952, 4537.855
158.6773, 4539.709
159.1594, 4542.219
159.6415, 4545.688
160.1237, 4552.591
160.6058, 4557.432
161.0879, 4556.491
161.5700, 4553.426
162.0521, 4553.579
162.5342, 4560.578
163.0164, 4573.905
163.4985, 4585.069
163.9806, 4594.173
164.4627, 4601.289
164.9448, 4606.306
165.4269, 4609.297
165.9091, 4610.197
166.3912, 4608.799
166.8733, 4605.006
167.3554, 4601.012
167.8375, 4596.314
168.3196, 4591.873
168.8018, 4587.899
169.2839, 4584.524
169.7660, 4582.423
170.2481, 4582.422
170.7302, 4584.604
171.2123, 4586.981
171.6945, 4590.620
172.1766, 4593.843
172.6587, 4594.804
173.1408, 4593.208
173.6229, 4590.521
174.1050, 4586.868
174.5872, 4582.869
175.0693, 4580.705
175.5514, 4581.908
176.0335, 4585.219
176.5156, 4588.528
176.9977, 4592.478
177.4799, 4594.712
177.9620, 4592.738
178.4441, 4587.864
178.9262, 4583.256
179.4083, 4580.553
179.8904, 4579.592
180.3726, 4579.533
180.8547, 4580.727
181.3368, 4582.524
181.8189, 4584.698
182.3010, 4587.188
182.7831, 4589.870
183.2653, 4592.908
183.7474, 4596.407
184.2295, 4598.851
184.7116, 4598.374
185.1937, 4598.384
185.6758, 4600.479
186.1580, 4604.312
186.6401, 4608.411
187.1222, 4611.497
187.6043, 4613.748
188.0864, 4613.914
188.5685, 4610.158
189.0507, 4606.098
189.5328, 4603.348
190.0149, 4602.067
190.4970, 4601.641
190.9791, 4601.494
191.4612, 4602.118
191.9434, 4601.244
192.4255, 4596.833
192.9076, 4592.573
193.3897, 4591.653
193.8718, 4594.338
194.3539, 4597.671
194.8361, 4597.788
195.3182, 4592.743
195.8003, 4589.747
196.2824, 4588.854
196.7645, 4590.035
197.2466, 4594.664
197.7288, 4603.135
198.2109, 4611.249
198.6930, 4612.188
199.1751, 4604.650
199.6572, 4599.937
200.1393, 4601.675
200.6215, 4606.728
201.1036, 4610.537
201.5857, 4611.796
202.0678, 4612.786
202.5499, 4617.093
203.0320, 4624.376
203.5142, 4630.883
203.9963, 4634.830
204.4784, 4637.032
204.9605, 4639.181
205.4426, 4641.130
205.9247, 4643.930
206.4069, 4649.163
206.8890, 4656.479
207.3711, 4663.095
207.8532, 4667.598
208.3353, 4670.142
208.8174, 4671.122
209.2996, 4668.892
209.7817, 4667.189
210.2638, 4669.122
210.7459, 4674.170
211.2280, 4679.310
211.7101, 4681.889
212.1923, 4682.001
212.6744, 4683.279
213.1565, 4686.871
213.6386, 4690.968
214.1207, 4695.107
214.6028, 4699.052
215.0850, 4702.328
215.5671, 4703.760
216.0492, 4702.868
216.5313, 4704.276
217.0134, 4711.212
217.4955, 4718.062
217.9777, 4722.538
218.4598, 4724.789
218.9419, 4726.395
219.4240, 4728.578
219.9061, 4731.039
220.3882, 4735.821
220.8704, 4744.288
221.3525, 4753.822
221.8346, 4764.499
222.3167, 4775.562
222.7988, 4785.034
223.2809, 4790.179
223.7631, 4788.783
224.2452, 4792.754
224.7273, 4805.883
225.2094, 4819.999
225.6915, 4831.690
226.1736, 4840.468
226.6558, 4847.203
227.1379, 4852.649
227.6200, 4856.412
228.1021, 4860.342
228.5842, 4865.233
229.0663, 4869.599
229.5485, 4871.897
230.0306, 4872.417
230.5127, 4873.076
230.9948, 4875.645
231.4769, 4880.338
231.9590, 4887.007
232.4412, 4898.261
232.9233, 4909.281
233.4054, 4917.428
233.8875, 4922.368
234.3696, 4924.515
234.8517, 4923.273
235.3339, 4918.108
235.8160, 4917.605
236.2981, 4924.948
236.7802, 4934.474
237.2623, 4943.268
237.7444, 4950.791
238.2266, 4955.683
238.7087, 4956.779
239.1908, 4953.653
239.6729, 4947.540
240.1550, 4936.805
240.6371, 4924.190
241.1193, 4910.760
241.6014, 4896.618
242.0835, 4885.056
242.5656, 4879.699
243.0477, 4879.295
243.5298, 4877.749
244.0120, 4873.292
244.4941, 4868.284
244.9762, 4865.030
245.4583, 4863.631
245.9404, 4862.663
246.4225, 4860.978
246.9047, 4859.170
247.3868, 4858.552
247.8689, 4860.187
248.3510, 4862.343
248.8331, 4863.642
249.3152, 4864.170
249.7974, 4862.697
250.2795, 4855.842
250.7616, 4847.360
251.2437, 4842.896
251.7258, 4844.949
252.2079, 4849.177
252.6901, 4850.632
253.1722, 4848.980
253.6543, 4846.827
254.1364, 4844.090
254.6185, 4842.002
255.1006, 4842.227
255.5828, 4845.670
256.0649, 4849.983
256.5470, 4852.010
257.0291, 4851.288
257.5112, 4851.331
257.9933, 4852.981
258.4755, 4856.219
258.9576, 4861.804
259.4397, 4870.077
259.9218, 4878.863
260.4039, 4885.025
260.8860, 4887.829
261.3682, 4892.258
261.8503, 4903.086
262.3324, 4913.709
262.8145, 4919.928
263.2966, 4921.018
263.7787, 4919.269
264.2609, 4916.477
264.7430, 4912.140
265.2251, 4909.501
265.7072, 4909.743
266.1893, 4911.376
266.6714, 4914.426
267.1536, 4918.591
267.6357, 4922.507
268.1178, 4924.754
268.5999, 4925.157
269.0820, 4924.961
269.5641, 4924.631
270.0463, 4923.357
270.5284, 4920.022
271.0105, 4915.089
271.4926, 4910.403
271.9747, 4907.898
272.4568, 4907.866
272.9390, 4907.362
273.4211, 4905.067
273.9032, 4903.451
274.3853, 4903.593
274.8674, 4905.201
275.3495, 4907.295
275.8317, 4909.057
276.3138, 4910.458
276.7959, 4912.401
277.2780, 4915.195
277.7601, 4918.256
278.2422, 4922.455
278.7244, 4926.769
279.2065, 4929.070
279.6886, 4927.508
280.1707, 4922.636
280.6528, 4920.327
281.1349, 4922.599
281.6171, 4925.597
282.0992, 4930.254
282.5813, 4934.861
283.0634, 4936.887
283.5455, 4934.710
284.0276, 4929.259
284.5098, 4924.694
284.9919, 4921.208
285.4740, 4918.552
285.9561, 4916.221
286.4382, 4914.846
286.9203, 4915.415
287.4025, 4918.384
287.8846, 4922.932
288.3667, 4926.849
288.8488, 4929.287
289.3309, 4932.282
289.8130, 4937.563
290.2952, 4942.588
290.7773, 4944.797
291.2594, 4943.401
291.7415, 4939.812
292.2236, 4936.608
292.7057, 4934.883
293.1879, 4931.593
293.6700, 4924.405
294.1521, 4917.370
294.6342, 4913.688
295.1163, 4913.886
295.5984, 4916.239
296.0806, 4918.747
296.5627, 4922.175
297.0448, 4923.362
297.5269, 4919.708
298.0090, 4916.336
298.4911, 4916.819
298.9733, 4920.921
299.4554, 4925.804
299.9375, 4928.767
300.4196, 4929.706
300.9017, 4929.205
301.3839, 4924.203
301.8660, 4920.882
302.3481, 4923.139
302.8302, 4929.492
303.3123, 4935.614
303.7944, 4938.295
304.2766, 4937.591
304.7587, 4936.257
305.2408, 4932.597
305.7229, 4930.140
306.2050, 4930.143
306.6871, 4931.977
307.1693, 4934.771
307.6514, 4938.145
308.1335, 4941.704
308.6156, 4943.528
309.0977, 4940.886
309.5798, 4939.708
310.0620, 4941.807
310.5441, 4945.295
311.0262, 4947.827
311.5083, 4948.466
311.9904, 4947.926
312.4725, 4947.703
312.9547, 4946.300
313.4368, 4947.531
313.9189, 4953.040
314.4010, 4960.093
314.8831, 4966.253
315.3652, 4970.952
315.8474, 4975.587
316.3295, 4982.484
316.8116, 4994.421
317.2937, 5000.868
317.7758, 4998.204
318.2579, 4993.723
318.7401, 4991.417
319.2222, 4991.776
319.7043, 4993.522
320.1864, 4995.491
320.6685, 4997.678
321.1506, 5000.103
321.6328, 5003.496
322.1149, 5006.380
322.5970, 5007.936
323.0791, 5008.495
323.5612, 5008.935
324.0433, 5009.886
324.5255, 5010.230
325.0076, 5012.169
325.4897, 5011.468
325.9718, 5011.569
326.4539, 5012.721
326.9360, 5015.018
327.4182, 5019.401
327.9003, 5026.458
328.3824, 5034.051
328.8645, 5036.042
329.3466, 5025.677
329.8287, 5018.541
330.3109, 5017.256
330.7930, 5018.262
331.2751, 5018.303
331.7572, 5016.461
332.2393, 5014.029
332.7214, 5012.938
333.2036, 5013.354
333.6857, 5014.912
334.1678, 5019.023
334.6499, 5022.952
335.1320, 5023.356
335.6141, 5021.149
336.0963, 5021.411
336.5784, 5030.353
337.0605, 5050.019
337.5426, 5060.698
338.0247, 5055.185
338.5068, 5048.333
338.9890, 5044.169
339.4711, 5042.594
339.9532, 5042.802
340.4353, 5044.674
340.9174, 5047.398
341.3995, 5045.515
341.8817, 5031.251
342.3638, 5021.817
342.8459, 5022.882
343.3280, 5028.892
343.8101, 5033.475
344.2922, 5033.917
344.7744, 5031.602
345.2565, 5029.466
345.7386, 5027.890
346.2207, 5025.720
346.7028, 5021.273
347.1849, 5017.375
347.6671, 5017.093
348.1492, 5020.458
348.6313, 5023.986
349.1134, 5023.142
349.5955, 5016.781
350.0776, 5011.104
350.5598, 5004.802
351.0419, 5000.375
351.5240, 4999.889
352.0061, 5002.393
352.4882, 5005.143
352.9703, 5005.841
353.4525, 5004.825
353.9346, 5005.589
354.4167, 5009.824
354.8988, 5013.667
355.3809, 5014.930
355.8630, 5015.464
356.3452, 5018.259
356.8273, 5025.116
357.3094, 5033.504
357.7915, 5037.492
358.2736, 5035.186
358.7557, 5033.338
359.2379, 5032.877
359.7200, 5033.796
360.2021, 5036.648
360.6842, 5041.466
361.1663, 5046.635
361.6484, 5050.009
362.1306, 5051.292
362.6127, 5054.251
363.0948, 5063.216
363.5769, 5069.962
364.0590, 5068.085
364.5411, 5059.382
365.0233, 5051.430
365.5054, 5049.865
365.9875, 5053.335
366.4696, 5055.798
366.9517, 5056.128
367.4338, 5057.704
367.9160, 5062.075
368.3981, 5068.694
368.8802, 5077.399
369.3623, 5089.665
369.8444, 5101.858
370.3265, 5108.569
370.8087, 5109.469
371.2908, 5108.099
371.7729, 5104.799
372.2550, 5100.351
372.7371, 5095.216
373.2192, 5089.258
373.7014, 5084.097
374.1835, 5081.898
374.6656, 5081.843
375.1477, 5079.635
375.6298, 5073.033
376.1119, 5066.556
376.5941, 5065.569
377.0762, 5069.044
377.5583, 5071.261
378.0404, 5068.898
378.5225, 5064.562
379.0046, 5061.737
379.4868, 5060.609
379.9689, 5061.161
380.4510, 5064.164
380.9331, 5068.843
381.4152, 5072.767
381.8973, 5076.284
382.3795, 5078.385
382.8616, 5076.933
383.3437, 5073.057
383.8258, 5071.427
384.3079, 5074.212
384.7900, 5079.784
385.2722, 5084.969
385.7543, 5089.368
386.2364, 5094.712
386.7185, 5102.774
387.2006, 5111.482
387.6827, 5118.499
388.1649, 5123.352
388.6470, 5125.995
389.1291, 5126.389
389.6112, 5124.275
390.0933, 5119.995
390.5754, 5110.525
391.0576, 5101.584
391.5397, 5096.524
392.0218, 5095.049
392.5039, 5095.430
392.9860, 5096.732
393.4681, 5098.935
393.9503, 5101.962
394.4324, 5107.821
394.9145, 5111.964
395.3966, 5113.544
395.8787, 5113.141
396.3608, 5111.269
396.8430, 5108.117
397.3251, 5103.867
397.8072, 5098.516
398.2893, 5090.576
398.7714, 5085.725
399.2535, 5084.779
399.7357, 5085.674
400.2178, 5087.788
400.6999, 5090.751
401.1820, 5094.358
401.6641, 5098.870
402.1462, 5103.921
402.6284, 5104.954
403.1105, 5096.849
403.5926, 5090.694
404.0747, 5088.909
404.5568, 5089.912
405.0389, 5092.162
405.5211, 5095.046
406.0032, 5097.990
406.4853, 5099.905
406.9674, 5100.510
407.4495, 5101.009
407.9316, 5102.906
408.4138, 5103.609
408.8959, 5099.877
409.3780, 5092.788
409.8601, 5087.700
410.3422, 5090.053
410.8243, 5098.747
411.3065, 5104.913
411.7886, 5107.654
412.2707, 5109.204
412.7528, 5110.662
413.2349, 5111.638
413.7170, 5111.218
414.1992, 5108.417
414.6813, 5105.597
415.1634, 5106.576
415.6455, 5111.603
416.1276, 5115.675
416.6097, 5117.627
417.0919, 5117.646
417.5740, 5115.352
418.0561, 5110.720
418.5382, 5107.309
419.0203, 5107.550
419.5024, 5110.326
419.9846, 5113.452
420.4667, 5116.820
420.9488, 5120.056
421.4309, 5122.981
421.9130, 5125.519
422.3951, 5127.407
422.8773, 5128.764
423.3594, 5129.311
423.8415, 5128.022
424.3236, 5125.530
424.8057, 5124.324
425.2878, 5125.581
425.7700, 5128.417
426.2521, 5131.248
426.7342, 5134.550
427.2163, 5136.551
427.6984, 5136.603
428.1805, 5135.412
428.6627, 5133.156
429.1448, 5130.080
429.6269, 5127.471
430.1090, 5126.474
430.5911, 5127.133
431.0732, 5128.844
431.5554, 5133.115
432.0375, 5136.616
432.5196, 5137.786
433.0017, 5137.528
433.4838, 5137.523
433.9659, 5138.557
434.4481, 5139.875
434.9302, 5139.596
435.4123, 5135.375
435.8944, 5133.917
436.3765, 5137.771
436.8586, 5142.099
437.3408, 5144.148
437.8229, 5143.573
438.3050, 5141.009
438.7871, 5136.235
439.2692, 5129.576
439.7513, 5126.758
440.2335, 5130.795
440.7156, 5134.522
441.1977, 5135.295
441.6798, 5134.799
442.1619, 5135.331
442.6440, 5137.819
443.1262, 5140.739
443.6083, 5141.918
444.0904, 5141.215
444.5725, 5140.458
445.0546, 5139.604
445.5367, 5139.202
446.0189, 5139.974
446.5010, 5141.668
446.9831, 5142.920
447.4652, 5143.096
447.9473, 5142.337
448.4294, 5140.104
448.9116, 5135.982
449.3937, 5133.931
449.8758, 5137.494
450.3579, 5144.288
450.8400, 5148.611
451.3221, 5148.591
451.8043, 5149.536
452.2864, 5156.752
452.7685, 5166.666
453.2506, 5171.242
453.7327, 5168.202
454.2148, 5161.395
454.6970, 5154.758
455.1791, 5148.225
455.6612, 5142.546
456.1433, 5137.086
456.6254, 5133.022
457.1075, 5131.030
457.5897, 5131.015
458.0718, 5132.665
458.5539, 5135.901
459.0360, 5140.415
459.5181, 5145.287
460.0002, 5153.170
460.4824, 5157.734
460.9645, 5156.056
461.4466, 5153.050
461.9287, 5152.837
462.4108, 5155.758
462.8929, 5159.456
463.3751, 5161.971
463.8572, 5163.319
464.3393, 5162.084
464.8214, 5156.799
465.3035, 5150.478
465.7856, 5141.538
466.2678, 5132.903
466.7499, 5128.575
467.2320, 5130.184
467.7141, 5134.633
468.1962, 5137.500
468.6783, 5138.540
469.1605, 5140.616
469.6426, 5145.790
470.1247, 5150.231
470.6068, 5150.325
471.0889, 5147.119
471.5710, 5145.079
472.0532, 5147.159
472.5353, 5151.297
473.0174, 5154.292
473.4995, 5156.113
473.9816, 5158.047
474.4637, 5161.678
474.9459, 5165.067
475.4280, 5164.665
475.9101, 5159.985
476.3922, 5153.406
476.8743, 5143.195
477.3564, 5132.666
477.8386, 5127.175
478.3207, 5127.507
478.8028, 5129.934
479.2849, 5131.294
479.7670, 5131.590
480.2491, 5131.994
480.7313, 5132.406
481.2134, 5133.056
481.6955, 5134.071
482.1776, 5135.373
482.6597, 5137.076
483.1418, 5139.176
483.6240, 5141.005
484.1061, 5141.472
484.5882, 5140.518
485.0703, 5138.218
485.5524, 5133.182
486.0345, 5128.180
486.5167, 5124.209
486.9988, 5121.298
487.4809, 5119.164
487.9630, 5117.562
488.4451, 5116.758
488.9272, 5117.738
489.4094, 5121.186
489.8915, 5124.222
490.3736, 5126.322
490.8557, 5127.542
491.3378, 5127.542
491.8199, 5126.406
492.3021, 5125.299
492.7842, 5124.462
493.2663, 5124.298
493.7484, 5126.249
494.2305, 5130.819
494.7126, 5135.141
495.1948, 5137.413
495.6769, 5138.203
496.1590, 5139.256
496.6411, 5141.607
497.1232, 5142.389
497.6053, 5139.720
498.0875, 5134.702
498.5696, 5128.843
499.0517, 5122.519
499.5338, 5116.319
500.0159, 5110.741
500.4980, 5105.751
500.9802, 5102.545
501.4623, 5100.563
501.9444, 5100.678
502.4265, 5103.762
502.9086, 5109.037
503.3907, 5116.288
503.8729, 5125.338
504.3550, 5133.543
504.8371, 5135.864
505.3192, 5130.139
505.8013, 5124.513
506.2834, 5117.796
506.7656, 5112.353
507.2477, 5108.866
507.7298, 5107.557
508.2119, 5108.961
508.6940, 5113.999
509.1761, 5120.768
509.6583, 5125.993
510.1404, 5129.930
510.6225, 5130.512
511.1046, 5124.599
511.5867, 5117.208
512.0688, 5112.716
512.5510, 5111.175
513.0331, 5110.601
513.5152, 5109.796
513.9973, 5109.527
514.4794, 5111.703
514.9615, 5116.311
515.4437, 5119.689
515.9258, 5119.577
516.4079, 5116.964
516.8900, 5114.807
517.3721, 5113.483
517.8542, 5111.756
518.3364, 5108.120
518.8185, 5104.676
519.3006, 5103.758
519.7827, 5105.507
520.2648, 5108.442
520.7469, 5111.346
521.2291, 5114.255
521.7112, 5117.666
522.1933, 5123.810
522.6754, 5127.636
523.1575, 5127.696
523.6396, 5125.579
524.1218, 5122.455
524.6039, 5118.758
525.0860, 5115.041
525.5681, 5110.761
526.0502, 5106.052
526.5323, 5107.034
527.0145, 5118.343
527.4966, 5127.261
527.9787, 5125.713
528.4608, 5118.986
528.9429, 5114.055
529.4250, 5112.514
529.9072, 5113.159
530.3893, 5116.670
530.8714, 5121.721
531.3535, 5123.464
531.8356, 5120.443
532.3177, 5116.362
532.7999, 5114.353
533.2820, 5114.460
533.7641, 5115.323
534.2462, 5116.705
534.7283, 5119.072
535.2104, 5124.003
535.6926, 5129.742
536.1747, 5132.971
536.6568, 5132.631
537.1389, 5130.883
537.6210, 5130.769
538.1031, 5132.843
538.5853, 5134.125
539.0674, 5133.852
539.5495, 5133.661
540.0316, 5134.950
540.5137, 5136.468
540.9958, 5135.954
541.4780, 5132.379
541.9601, 5127.665
542.4422, 5124.573
542.9243, 5123.168
543.4064, 5122.237
543.8885, 5120.220
544.3707, 5120.667
544.8528, 5128.285
545.3349, 5140.050
545.8170, 5147.920
546.2991, 5148.322
546.7813, 5145.001
547.2634, 5139.987
547.7455, 5133.949
548.2276, 5129.691
548.7097, 5128.310
549.1918, 5128.164
549.6740, 5126.854
550.1561, 5123.803
550.6382, 5123.522
551.1203, 5128.665
551.6024, 5133.999
552.0845, 5135.846
552.5667, 5135.985
553.0488, 5138.508
553.5309, 5145.157
554.0130, 5153.455
554.4951, 5159.068
554.9772, 5161.644
555.4594, 5162.514
555.9415, 5160.460
556.4236, 5157.801
556.9057, 5154.891
557.3878, 5152.109
557.8699, 5149.952
558.3521, 5148.608
558.8342, 5148.102
559.3163, 5148.638
559.7984, 5150.194
560.2805, 5152.134
560.7626, 5154.970
561.2448, 5157.073
561.7269, 5156.546
562.2090, 5153.831
562.6911, 5150.521
563.1732, 5145.718
563.6553, 5141.530
564.1375, 5139.081
564.6196, 5138.298
565.1017, 5139.330
565.5838, 5142.276
566.0659, 5145.654
566.5480, 5147.116
567.0302, 5145.596
567.5123, 5146.894
567.9944, 5153.567
568.4765, 5159.845
568.9586, 5164.191
569.4407, 5166.566
569.9229, 5166.771
570.4050, 5164.760
570.8871, 5161.751
571.3692, 5159.629
571.8513, 5158.504
572.3334, 5156.126
572.8156, 5150.697
573.2977, 5146.637
573.7798, 5147.297
574.2619, 5150.933
574.7440, 5154.428
575.2261, 5157.126
575.7083, 5159.409
576.1904, 5160.690
576.6725, 5161.859
577.1546, 5166.314
577.6367, 5175.125
578.1188, 5182.249
578.6010, 5181.399
579.0831, 5172.581
579.5652, 5165.702
580.0473, 5159.959
580.5294, 5156.731
581.0115, 5157.484
581.4937, 5160.361
581.9758, 5164.205
582.4579, 5168.255
582.9400, 5170.454
583.4221, 5167.736
583.9042, 5160.446
584.3864, 5157.494
584.8685, 5161.393
585.3506, 5165.168
585.8327, 5166.718
586.3148, 5166.820
586.7969, 5166.049
