##NAMES=Barbosalite
##RRUFFID=R070358
##IDEAL CHEMISTRY=Fe^2+^Fe^3+^_2_(PO_4_)_2_(OH)_2_
##LOCALITY=Bull Moose mine, Custer, Custer District, Custer County, South Dakota, USA
##OWNER=RRUFF
##SOURCE=Michael Scott
##DESCRIPTION=Dark blue to black massive and with tabular crystals in vugs, associated with pyrite
##STATUS=The identification of this mineral is confirmed by single-crystal X-ray diffraction and chemical analysis.
##URL=rruff.info/R070358
##MEASURED CHEMISTRY=(Fe^2+^_0.97_Mn_0.03_)_Σ=1_Fe^3+^_2.00_(P_1.00_O_4_)_2_((OH)_1.89_F_0.11_)_Σ=2_ ; OH estimated by charge balance
153.8033, 1484.637
154.2855, 1489.204
154.7676, 1494.089
155.2497, 1499.759
155.7318, 1508.126
156.2139, 1522.365
156.6960, 1538.050
157.1782, 1548.824
157.6603, 1553.445
158.1424, 1559.426
158.6245, 1572.505
159.1066, 1591.402
159.5887, 1614.201
160.0709, 1642.548
160.5530, 1673.714
161.0351, 1704.167
161.5172, 1734.044
161.9993, 1761.854
162.4814, 1784.108
162.9636, 1803.434
163.4457, 1825.231
163.9278, 1856.595
164.4099, 1889.989
164.8920, 1910.596
165.3741, 1915.586
165.8563, 1915.379
166.3384, 1915.539
166.8205, 1915.282
167.3026, 1912.906
167.7847, 1905.694
168.2668, 1896.553
168.7490, 1892.815
169.2311, 1897.589
169.7132, 1900.611
170.1953, 1893.519
170.6774, 1881.648
171.1595, 1873.246
171.6417, 1871.864
172.1238, 1876.451
172.6059, 1885.379
173.0880, 1901.439
173.5701, 1916.243
174.0522, 1924.381
174.5344, 1929.442
175.0165, 1936.515
175.4986, 1948.606
175.9807, 1964.024
176.4628, 1979.292
176.9449, 1997.770
177.4271, 2009.206
177.9092, 2002.177
178.3913, 1988.582
178.8734, 1985.464
179.3555, 2003.636
179.8376, 2035.341
180.3197, 2057.595
180.8019, 2065.892
181.2840, 2072.078
181.7661, 2081.115
182.2482, 2090.382
182.7303, 2096.181
183.2124, 2096.137
183.6946, 2092.453
184.1767, 2091.495
184.6588, 2094.719
185.1409, 2098.302
185.6230, 2099.629
186.1051, 2101.172
186.5873, 2106.398
187.0694, 2117.470
187.5515, 2131.578
188.0336, 2141.282
188.5157, 2143.926
188.9978, 2146.349
189.4800, 2153.787
189.9621, 2160.356
190.4442, 2157.301
190.9263, 2139.695
191.4084, 2117.027
191.8905, 2114.418
192.3727, 2149.226
192.8548, 2173.319
193.3369, 2174.385
193.8190, 2164.819
194.3011, 2154.295
194.7832, 2146.504
195.2654, 2143.523
195.7475, 2151.707
196.2296, 2182.702
196.7117, 2202.751
197.1938, 2204.107
197.6759, 2196.625
198.1581, 2186.940
198.6402, 2177.543
199.1223, 2170.013
199.6044, 2167.754
200.0865, 2173.846
200.5686, 2179.309
201.0508, 2184.660
201.5329, 2188.444
202.0150, 2191.113
202.4971, 2192.317
202.9792, 2188.537
203.4613, 2171.776
203.9435, 2130.807
204.4256, 2102.612
204.9077, 2095.230
205.3898, 2094.510
205.8719, 2091.866
206.3540, 2085.212
206.8362, 2076.897
207.3183, 2070.471
207.8004, 2068.068
208.2825, 2062.046
208.7646, 2045.600
209.2467, 2031.095
209.7289, 2028.396
210.2110, 2037.103
210.6931, 2047.342
211.1752, 2046.168
211.6573, 2028.024
212.1395, 2019.121
212.6216, 2030.240
213.1037, 2040.794
213.5858, 2037.124
214.0679, 2021.642
214.5500, 2008.228
215.0322, 2011.804
215.5143, 2035.613
215.9964, 2054.941
216.4785, 2068.015
216.9606, 2078.429
217.4427, 2088.244
217.9249, 2096.682
218.4070, 2100.785
218.8891, 2096.519
219.3712, 2083.391
219.8533, 2079.898
220.3354, 2099.659
220.8176, 2116.226
221.2997, 2119.629
221.7818, 2114.295
222.2639, 2109.943
222.7460, 2113.435
223.2281, 2124.087
223.7103, 2134.244
224.1924, 2145.934
224.6745, 2154.676
225.1566, 2156.190
225.6387, 2154.851
226.1208, 2157.376
226.6030, 2167.952
227.0851, 2184.524
227.5672, 2198.462
228.0493, 2208.184
228.5314, 2217.216
229.0135, 2223.985
229.4957, 2231.185
229.9778, 2243.460
230.4599, 2263.198
230.9420, 2285.142
231.4241, 2294.966
231.9062, 2279.824
232.3884, 2274.823
232.8705, 2286.030
233.3526, 2306.662
233.8347, 2332.543
234.3168, 2361.968
234.7989, 2392.931
235.2811, 2422.548
235.7632, 2452.939
236.2453, 2476.656
236.7274, 2488.802
237.2095, 2498.152
237.6916, 2509.083
238.1738, 2523.035
238.6559, 2540.984
239.1380, 2566.629
239.6201, 2604.610
240.1022, 2632.972
240.5843, 2644.224
241.0665, 2651.208
241.5486, 2656.280
242.0307, 2661.683
242.5128, 2672.555
242.9949, 2698.426
243.4770, 2741.995
243.9592, 2767.959
244.4413, 2755.378
244.9234, 2744.294
245.4055, 2745.963
245.8876, 2761.097
246.3697, 2788.998
246.8519, 2835.064
247.3340, 2895.654
247.8161, 2933.998
248.2982, 2930.699
248.7803, 2930.383
249.2624, 2953.026
249.7446, 2988.054
250.2267, 3017.848
250.7088, 3032.589
251.1909, 3036.654
251.6730, 3043.078
252.1551, 3054.697
252.6373, 3062.758
253.1194, 3061.116
253.6015, 3056.249
254.0836, 3056.482
254.5657, 3066.118
255.0478, 3076.876
255.5300, 3073.593
256.0121, 3051.797
256.4942, 3032.958
256.9763, 3027.143
257.4584, 3024.393
257.9406, 3017.459
258.4227, 3004.775
258.9048, 2989.976
259.3869, 2975.990
259.8690, 2962.743
260.3511, 2951.526
260.8333, 2942.285
261.3154, 2935.616
261.7975, 2933.570
262.2796, 2935.669
262.7617, 2935.719
263.2438, 2925.479
263.7260, 2907.790
264.2081, 2900.405
264.6902, 2910.269
265.1723, 2922.983
265.6544, 2927.774
266.1365, 2926.531
266.6187, 2925.260
267.1008, 2925.646
267.5829, 2928.123
268.0650, 2935.336
268.5471, 2949.713
269.0292, 2961.044
269.5114, 2957.897
269.9935, 2947.149
270.4756, 2940.367
270.9577, 2943.098
271.4398, 2948.899
271.9219, 2950.094
272.4041, 2946.529
272.8862, 2943.611
273.3683, 2943.292
273.8504, 2945.864
274.3325, 2951.348
274.8146, 2960.581
275.2968, 2971.271
275.7789, 2985.226
276.2610, 3000.346
276.7431, 3006.391
277.2252, 2995.680
277.7073, 2979.788
278.1895, 2977.927
278.6716, 2990.964
279.1537, 3008.996
279.6358, 3034.809
280.1179, 3061.917
280.6000, 3076.279
281.0822, 3073.225
281.5643, 3067.352
282.0464, 3076.783
282.5285, 3102.674
283.0106, 3128.385
283.4927, 3154.008
283.9749, 3177.456
284.4570, 3194.772
284.9391, 3206.394
285.4212, 3220.252
285.9033, 3244.036
286.3854, 3277.363
286.8676, 3303.013
287.3497, 3318.006
287.8318, 3329.053
288.3139, 3332.388
288.7960, 3333.735
289.2781, 3350.112
289.7603, 3393.784
290.2424, 3454.906
290.7245, 3490.698
291.2066, 3467.551
291.6887, 3462.348
292.1708, 3497.614
292.6530, 3553.155
293.1351, 3605.399
293.6172, 3645.925
294.0993, 3678.683
294.5814, 3710.065
295.0635, 3738.469
295.5457, 3768.764
296.0278, 3799.721
296.5099, 3833.067
296.9920, 3871.300
297.4741, 3913.935
297.9562, 3955.925
298.4384, 3990.007
298.9205, 4012.130
299.4026, 4056.037
299.8847, 4147.000
300.3668, 4233.786
300.8489, 4299.520
301.3311, 4347.443
301.8131, 4386.459
302.2953, 4421.279
302.7774, 4453.305
303.2595, 4489.672
303.7416, 4531.181
304.2237, 4576.443
304.7058, 4636.223
305.1880, 4694.441
305.6701, 4729.625
306.1522, 4733.110
306.6343, 4725.733
307.1164, 4747.019
307.5985, 4810.246
308.0807, 4852.151
308.5628, 4846.633
309.0449, 4826.090
309.5270, 4807.241
310.0091, 4791.997
310.4912, 4774.343
310.9734, 4750.050
311.4555, 4719.100
311.9376, 4680.690
312.4197, 4630.508
312.9018, 4578.931
313.3839, 4533.683
313.8661, 4492.261
314.3482, 4448.557
314.8303, 4397.835
315.3124, 4343.979
315.7945, 4296.179
316.2766, 4256.696
316.7588, 4209.995
317.2409, 4140.108
317.7230, 4060.543
318.2051, 3995.055
318.6872, 3954.193
319.1693, 3914.711
319.6515, 3855.739
320.1336, 3782.430
320.6157, 3717.638
321.0978, 3671.538
321.5799, 3634.101
322.0620, 3585.933
322.5442, 3523.571
323.0263, 3473.270
323.5084, 3452.831
323.9905, 3443.995
324.4726, 3420.167
324.9547, 3376.879
325.4369, 3333.592
325.9190, 3308.355
326.4011, 3303.253
326.8832, 3303.774
327.3653, 3314.272
327.8474, 3326.154
328.3296, 3336.386
328.8117, 3344.178
329.2938, 3346.630
329.7759, 3340.675
330.2580, 3330.476
330.7401, 3335.183
331.2223, 3369.904
331.7044, 3400.962
332.1865, 3419.849
332.6686, 3435.780
333.1507, 3459.196
333.6328, 3493.061
334.1150, 3532.379
334.5971, 3570.093
335.0792, 3605.096
335.5613, 3641.089
336.0434, 3681.043
336.5255, 3719.208
337.0077, 3748.008
337.4898, 3771.251
337.9719, 3801.463
338.4540, 3850.554
338.9361, 3915.687
339.4182, 3971.415
339.9004, 4014.563
340.3825, 4051.577
340.8646, 4085.451
341.3467, 4114.984
341.8288, 4137.137
342.3109, 4149.826
342.7931, 4159.815
343.2752, 4180.911
343.7573, 4216.598
344.2394, 4238.462
344.7215, 4233.840
345.2036, 4216.739
345.6858, 4201.191
346.1679, 4187.350
346.6500, 4160.468
347.1321, 4103.713
347.6142, 4027.012
348.0963, 3958.312
348.5785, 3902.574
349.0606, 3847.430
349.5427, 3781.743
350.0248, 3708.562
350.5069, 3636.908
350.9890, 3567.275
351.4712, 3500.234
351.9533, 3432.130
352.4354, 3365.072
352.9175, 3310.810
353.3996, 3276.671
353.8817, 3256.691
354.3639, 3235.473
354.8460, 3209.183
355.3281, 3189.640
355.8102, 3189.476
356.2923, 3192.977
356.7744, 3179.047
357.2566, 3143.905
357.7387, 3102.800
358.2208, 3072.482
358.7029, 3054.671
359.1850, 3038.710
359.6671, 3028.063
360.1493, 3015.650
360.6314, 2995.005
361.1135, 2970.220
361.5956, 2950.867
362.0777, 2943.008
362.5598, 2942.937
363.0420, 2937.208
363.5241, 2924.899
364.0062, 2907.711
364.4883, 2877.621
364.9704, 2848.411
365.4525, 2833.481
365.9347, 2834.898
366.4168, 2841.537
366.8989, 2841.588
367.3810, 2834.724
367.8631, 2826.454
368.3452, 2815.288
368.8274, 2804.725
369.3095, 2796.949
369.7916, 2791.051
370.2737, 2784.771
370.7558, 2776.344
371.2379, 2767.502
371.7201, 2760.262
372.2022, 2754.295
372.6843, 2753.503
373.1664, 2763.215
373.6485, 2776.980
374.1306, 2784.452
374.6128, 2783.563
375.0949, 2782.742
375.5770, 2789.512
376.0591, 2798.889
376.5412, 2798.706
377.0233, 2785.360
377.5055, 2771.335
377.9876, 2770.459
378.4697, 2784.495
378.9518, 2793.330
379.4339, 2797.757
379.9160, 2795.991
380.3982, 2784.290
380.8803, 2765.209
381.3624, 2745.770
381.8445, 2729.897
382.3266, 2715.841
382.8087, 2697.931
383.2909, 2673.895
383.7730, 2648.741
384.2551, 2623.279
384.7372, 2596.389
385.2193, 2563.978
385.7014, 2527.257
386.1836, 2494.855
386.6657, 2477.890
387.1478, 2477.667
387.6299, 2468.632
388.1120, 2438.695
388.5941, 2413.822
389.0763, 2406.043
389.5584, 2407.839
390.0405, 2407.382
390.5226, 2399.464
391.0047, 2387.538
391.4868, 2377.231
391.9690, 2368.993
392.4511, 2358.094
392.9332, 2339.500
393.4153, 2321.365
393.8974, 2314.068
394.3795, 2317.426
394.8617, 2315.622
395.3438, 2297.615
395.8259, 2270.676
396.3080, 2244.175
396.7901, 2218.562
397.2722, 2200.773
397.7544, 2197.726
398.2365, 2207.135
398.7186, 2214.031
399.2007, 2220.854
399.6828, 2222.521
400.1649, 2216.444
400.6471, 2204.054
401.1292, 2184.996
401.6113, 2158.983
402.0934, 2134.341
402.5755, 2124.381
403.0576, 2137.685
403.5398, 2139.485
404.0219, 2118.762
404.5040, 2098.427
404.9861, 2093.868
405.4682, 2099.729
405.9503, 2099.317
406.4325, 2080.414
406.9146, 2051.180
407.3967, 2043.623
407.8788, 2075.372
408.3609, 2092.317
408.8430, 2070.995
409.3252, 2040.686
409.8073, 2023.876
410.2894, 2023.988
410.7715, 2029.969
411.2536, 2034.563
411.7357, 2037.523
412.2179, 2036.688
412.7000, 2030.297
413.1821, 2024.010
413.6642, 2021.715
414.1463, 2022.329
414.6284, 2024.050
415.1106, 2025.125
415.5927, 2028.965
416.0748, 2042.414
416.5569, 2061.214
417.0390, 2070.421
417.5211, 2063.403
418.0033, 2050.708
418.4854, 2048.881
418.9675, 2063.267
419.4496, 2070.174
419.9317, 2062.127
420.4138, 2051.825
420.8960, 2046.927
421.3781, 2047.406
421.8602, 2050.536
422.3423, 2054.757
422.8244, 2059.865
423.3065, 2064.877
423.7887, 2068.727
424.2708, 2074.288
424.7529, 2085.159
425.2350, 2095.511
425.7171, 2099.469
426.1992, 2096.835
426.6814, 2093.288
427.1635, 2094.716
427.6456, 2100.601
428.1277, 2104.973
428.6098, 2108.832
429.0919, 2109.143
429.5741, 2096.741
430.0562, 2081.848
430.5383, 2081.797
431.0204, 2106.262
431.5025, 2134.169
431.9846, 2149.279
432.4668, 2153.541
432.9489, 2151.937
433.4310, 2143.692
433.9131, 2136.985
434.3952, 2143.070
434.8773, 2163.562
435.3595, 2179.895
435.8416, 2191.872
436.3237, 2198.679
436.8058, 2195.446
437.2879, 2186.591
437.7701, 2182.706
438.2522, 2189.313
438.7343, 2203.544
439.2164, 2218.309
439.6985, 2234.413
440.1806, 2249.522
440.6628, 2266.143
441.1449, 2279.978
441.6270, 2286.046
442.1091, 2286.146
442.5912, 2287.449
443.0733, 2295.308
443.5555, 2308.563
444.0376, 2323.117
444.5197, 2339.551
445.0018, 2355.655
445.4839, 2367.470
445.9660, 2380.398
446.4482, 2402.072
446.9303, 2434.800
447.4124, 2464.558
447.8945, 2482.006
448.3766, 2490.548
448.8587, 2495.352
449.3409, 2496.697
449.8230, 2499.844
450.3051, 2507.925
450.7872, 2521.546
451.2693, 2542.777
451.7514, 2581.017
452.2336, 2615.323
452.7157, 2636.125
453.1978, 2649.770
453.6799, 2665.828
454.1620, 2686.815
454.6441, 2706.824
455.1263, 2717.393
455.6084, 2716.120
456.0905, 2718.972
456.5726, 2732.039
457.0547, 2743.052
457.5368, 2745.082
458.0190, 2743.360
458.5011, 2747.834
458.9832, 2763.971
459.4653, 2781.541
459.9474, 2785.656
460.4295, 2776.154
460.9117, 2761.818
461.3938, 2737.111
461.8759, 2718.060
462.3580, 2724.674
462.8401, 2751.523
463.3222, 2769.912
463.8044, 2770.485
464.2865, 2760.674
464.7686, 2743.871
465.2507, 2721.714
465.7328, 2698.681
466.2149, 2675.943
466.6971, 2656.111
467.1792, 2644.722
467.6613, 2645.298
468.1434, 2647.734
468.6255, 2654.852
469.1076, 2661.362
469.5898, 2664.257
470.0719, 2663.608
470.5540, 2660.987
471.0361, 2657.664
471.5182, 2652.294
472.0003, 2639.504
472.4825, 2615.332
472.9646, 2594.788
473.4467, 2582.300
473.9288, 2573.802
474.4109, 2568.588
474.8930, 2565.918
475.3752, 2561.740
475.8573, 2555.105
476.3394, 2544.976
476.8215, 2526.804
477.3036, 2500.456
477.7857, 2478.167
478.2679, 2466.605
478.7500, 2462.543
479.2321, 2458.220
479.7142, 2452.646
480.1963, 2449.250
480.6784, 2452.403
481.1606, 2455.522
481.6427, 2451.332
482.1248, 2440.408
482.6069, 2428.835
483.0890, 2420.634
483.5711, 2416.092
484.0533, 2417.407
484.5354, 2432.469
485.0175, 2440.187
485.4996, 2428.154
485.9817, 2415.104
486.4638, 2419.903
486.9460, 2442.325
487.4281, 2461.987
487.9102, 2457.019
488.3923, 2437.328
488.8744, 2435.000
489.3565, 2453.074
489.8387, 2472.221
490.3208, 2482.149
490.8029, 2487.389
491.2850, 2498.425
491.7671, 2519.014
492.2492, 2534.574
492.7314, 2534.994
493.2135, 2530.610
493.6956, 2532.712
494.1777, 2542.400
494.6598, 2556.680
495.1419, 2575.001
495.6241, 2594.771
496.1062, 2598.915
496.5883, 2567.715
497.0704, 2548.481
497.5525, 2552.985
498.0346, 2565.714
498.5168, 2575.386
498.9989, 2579.956
499.4810, 2582.041
499.9631, 2585.593
500.4452, 2588.324
500.9273, 2580.268
501.4095, 2559.298
501.8916, 2536.210
502.3737, 2513.923
502.8558, 2493.171
503.3379, 2474.962
503.8200, 2459.539
504.3022, 2446.019
504.7843, 2438.666
505.2664, 2430.460
505.7485, 2413.184
506.2306, 2386.534
506.7127, 2354.131
507.1949, 2317.135
507.6770, 2277.759
508.1591, 2246.296
508.6412, 2232.133
509.1233, 2211.995
509.6054, 2175.459
510.0876, 2139.839
510.5697, 2121.484
511.0518, 2117.979
511.5339, 2111.976
512.0161, 2088.505
512.4982, 2055.231
512.9803, 2033.616
513.4624, 2025.470
513.9445, 2019.214
514.4266, 2013.043
514.9088, 2004.914
515.3909, 1990.543
515.8730, 1969.008
516.3551, 1952.810
516.8372, 1953.562
517.3193, 1955.492
517.8015, 1939.296
518.2836, 1909.476
518.7657, 1887.524
519.2478, 1885.609
519.7299, 1895.239
520.2120, 1896.215
520.6942, 1884.122
521.1763, 1871.487
521.6584, 1856.425
522.1405, 1842.671
522.6226, 1831.040
523.1047, 1822.369
523.5869, 1819.222
524.0690, 1824.870
524.5511, 1832.312
525.0332, 1828.644
525.5153, 1813.948
525.9974, 1801.172
526.4796, 1793.131
526.9617, 1788.307
527.4438, 1785.822
527.9259, 1785.439
528.4080, 1785.950
528.8901, 1789.087
529.3723, 1791.199
529.8544, 1789.887
530.3365, 1786.038
530.8186, 1780.631
531.3007, 1774.101
531.7828, 1768.750
532.2650, 1768.409
532.7471, 1774.498
533.2292, 1776.689
533.7113, 1771.005
534.1934, 1765.877
534.6755, 1761.919
535.1577, 1760.766
535.6398, 1766.904
536.1219, 1782.787
536.6040, 1794.960
537.0861, 1785.745
537.5682, 1762.568
538.0504, 1750.395
538.5325, 1753.103
539.0146, 1759.514
539.4967, 1761.865
539.9788, 1761.475
540.4609, 1764.910
540.9431, 1781.155
541.4252, 1788.619
541.9073, 1771.070
542.3894, 1750.467
542.8715, 1752.018
543.3536, 1774.639
543.8358, 1795.687
544.3179, 1796.503
544.8000, 1781.822
545.2821, 1771.359
545.7642, 1763.929
546.2463, 1764.132
546.7285, 1783.178
547.2106, 1802.854
547.6927, 1808.931
548.1748, 1801.559
548.6569, 1790.165
549.1390, 1774.202
549.6211, 1759.541
550.1032, 1754.261
550.5853, 1756.565
551.0674, 1757.318
551.5496, 1752.151
552.0317, 1747.830
552.5138, 1756.804
552.9959, 1787.455
553.4780, 1802.777
553.9601, 1791.344
554.4423, 1779.189
554.9244, 1773.153
555.4065, 1774.403
555.8886, 1786.452
556.3707, 1811.044
556.8528, 1834.786
557.3350, 1838.091
557.8171, 1824.014
558.2992, 1819.080
558.7813, 1829.032
559.2634, 1837.360
559.7455, 1830.483
560.2277, 1813.942
560.7098, 1805.646
561.1919, 1806.520
561.6740, 1814.184
562.1561, 1833.399
562.6382, 1855.697
563.1204, 1872.479
563.6025, 1882.955
564.0846, 1891.451
564.5667, 1901.999
565.0488, 1911.637
565.5309, 1905.961
566.0131, 1872.881
566.4952, 1855.116
566.9773, 1875.671
567.4594, 1901.384
567.9415, 1910.815
568.4236, 1906.282
568.9058, 1903.211
569.3879, 1907.359
569.8700, 1916.469
570.3521, 1931.326
570.8342, 1949.595
571.3163, 1963.607
571.7985, 1971.045
572.2806, 1973.008
572.7627, 1969.521
573.2448, 1959.224
573.7269, 1956.404
574.2090, 1966.719
574.6912, 1977.332
575.1733, 1983.293
575.6554, 1988.811
576.1375, 2001.336
576.6196, 2021.465
577.1017, 2037.891
577.5839, 2035.863
578.0660, 2021.992
578.5481, 2018.269
579.0302, 2025.405
579.5123, 2039.776
579.9944, 2062.919
580.4766, 2089.573
580.9587, 2109.264
581.4408, 2121.305
581.9229, 2131.446
582.4050, 2140.345
582.8871, 2147.552
583.3693, 2151.256
583.8514, 2153.183
584.3335, 2157.772
584.8156, 2167.065
585.2977, 2176.783
585.7798, 2179.645
586.2620, 2175.036
586.7441, 2170.076
587.2262, 2162.560
587.7083, 2158.897
588.1904, 2170.463
588.6725, 2186.231
589.1547, 2185.325
589.6368, 2156.354
590.1189, 2133.632
590.6010, 2140.922
591.0831, 2159.802
591.5652, 2167.071
592.0474, 2161.438
592.5295, 2152.970
593.0116, 2148.202
593.4937, 2145.650
593.9758, 2140.909
594.4579, 2134.586
594.9401, 2124.677
595.4222, 2101.521
595.9043, 2083.572
596.3864, 2085.908
596.8685, 2100.826
597.3506, 2107.541
597.8328, 2093.999
598.3149, 2078.497
598.7970, 2080.278
599.2791, 2092.759
599.7612, 2098.152
600.2433, 2093.029
600.7255, 2086.863
601.2076, 2089.121
601.6897, 2097.419
602.1718, 2092.005
602.6539, 2050.600
603.1360, 2026.142
603.6182, 2036.604
604.1003, 2054.068
604.5824, 2056.723
605.0645, 2046.005
605.5466, 2037.776
606.0287, 2043.741
606.5109, 2053.553
606.9930, 2051.090
607.4751, 2037.570
607.9572, 2022.156
608.4393, 2006.358
608.9214, 1991.765
609.4036, 1979.592
609.8857, 1969.858
610.3678, 1964.138
610.8499, 1969.653
611.3320, 1969.702
611.8141, 1954.611
612.2963, 1935.848
612.7784, 1927.863
613.2605, 1930.048
613.7426, 1927.081
614.2247, 1902.614
614.7068, 1868.756
615.1890, 1859.583
615.6711, 1876.540
616.1532, 1884.657
616.6353, 1870.711
617.1174, 1850.123
617.5995, 1840.503
618.0817, 1842.105
618.5638, 1840.365
619.0459, 1833.053
619.5280, 1824.269
620.0101, 1812.649
620.4922, 1801.903
620.9744, 1798.491
621.4565, 1802.356
621.9386, 1804.678
622.4207, 1795.314
622.9028, 1778.999
623.3849, 1777.244
623.8671, 1793.785
624.3492, 1802.673
624.8313, 1793.248
625.3134, 1776.104
625.7955, 1759.702
626.2776, 1744.061
626.7598, 1741.917
627.2419, 1770.340
627.7240, 1796.133
628.2061, 1801.920
628.6882, 1794.646
629.1703, 1782.164
629.6525, 1767.841
630.1346, 1756.585
630.6167, 1754.589
631.0988, 1759.603
631.5809, 1757.980
632.0630, 1747.265
632.5452, 1739.544
633.0273, 1739.547
633.5094, 1743.068
633.9915, 1745.112
634.4736, 1745.822
634.9557, 1748.795
635.4379, 1763.828
635.9200, 1771.720
636.4021, 1751.477
636.8842, 1720.786
637.3663, 1709.217
637.8484, 1722.583
638.3306, 1743.122
638.8127, 1755.498
639.2948, 1759.237
639.7769, 1747.583
640.2590, 1713.036
640.7411, 1690.064
641.2233, 1694.661
641.7054, 1709.176
642.1875, 1716.429
642.6696, 1716.854
643.1517, 1714.991
643.6339, 1707.300
644.1160, 1702.330
644.5981, 1709.435
645.0802, 1720.456
645.5623, 1721.604
