##NAMES=Barbosalite
##RRUFFID=R070358
##IDEAL CHEMISTRY=Fe^2+^Fe^3+^_2_(PO_4_)_2_(OH)_2_
##LOCALITY=Bull Moose mine, Custer, Custer District, Custer County, South Dakota, USA
##OWNER=RRUFF
##SOURCE=Michael Scott
##DESCRIPTION=Dark blue to black massive and with tabular crystals in vugs, associated with pyrite
##STATUS=The identification of this mineral is confirmed by single-crystal X-ray diffraction and chemical analysis.
##URL=rruff.info/R070358
##MEASURED CHEMISTRY=(Fe^2+^_0.97_Mn_0.03_)_Σ=1_Fe^3+^_2.00_(P_1.00_O_4_)_2_((OH)_1.89_F_0.11_)_Σ=2_ ; OH estimated by charge balance
155.9293, 2113.443
156.4115, 2147.814
156.8936, 2186.613
157.3757, 2226.021
157.8578, 2253.587
158.3399, 2254.270
158.8221, 2248.494
159.3042, 2249.580
159.7863, 2262.907
160.2684, 2281.385
160.7505, 2306.064
161.2326, 2335.986
161.7148, 2361.978
162.1969, 2380.026
162.6790, 2392.443
163.1611, 2401.285
163.6432, 2407.758
164.1253, 2410.570
164.6075, 2410.691
165.0896, 2408.211
165.5717, 2397.361
166.0538, 2370.188
166.5359, 2333.369
167.0180, 2296.488
167.5002, 2259.777
167.9823, 2226.502
168.4644, 2199.303
168.9465, 2178.585
169.4286, 2162.469
169.9107, 2149.760
170.3929, 2140.716
170.8750, 2135.559
171.3571, 2134.700
171.8392, 2137.733
172.3213, 2145.197
172.8034, 2158.159
173.2856, 2172.002
173.7677, 2182.547
174.2498, 2190.418
174.7319, 2197.570
175.2140, 2202.133
175.6961, 2207.415
176.1783, 2220.013
176.6604, 2244.595
177.1425, 2270.305
177.6246, 2285.071
178.1067, 2289.245
178.5888, 2286.004
179.0710, 2272.374
179.5531, 2253.021
180.0352, 2238.635
180.5173, 2232.976
180.9994, 2232.391
181.4815, 2232.359
181.9637, 2232.827
182.4458, 2232.087
182.9279, 2228.785
183.4100, 2223.076
183.8921, 2215.314
184.3742, 2204.094
184.8564, 2191.526
185.3385, 2182.618
185.8206, 2177.358
186.3027, 2174.986
186.7848, 2175.974
187.2669, 2179.841
187.7491, 2182.897
188.2312, 2183.028
188.7133, 2181.307
189.1954, 2182.251
189.6775, 2186.353
190.1596, 2190.886
190.6418, 2191.777
191.1239, 2189.139
191.6060, 2187.739
192.0881, 2189.881
192.5702, 2195.206
193.0524, 2201.237
193.5345, 2208.595
194.0166, 2215.023
194.4987, 2216.081
194.9808, 2211.428
195.4629, 2206.512
195.9451, 2204.979
196.4272, 2206.682
196.9093, 2204.163
197.3914, 2196.349
197.8735, 2185.633
198.3556, 2175.967
198.8378, 2167.301
199.3199, 2160.158
199.8020, 2156.141
200.2841, 2155.727
200.7662, 2151.844
201.2483, 2143.943
201.7305, 2132.485
202.2126, 2116.584
202.6947, 2094.053
203.1768, 2075.258
203.6589, 2068.593
204.1410, 2076.380
204.6232, 2080.440
205.1053, 2079.383
205.5874, 2073.494
206.0695, 2062.664
206.5516, 2045.219
207.0337, 2027.228
207.5159, 2011.460
207.9980, 1997.169
208.4801, 1990.573
208.9622, 1994.979
209.4443, 2007.627
209.9264, 2015.181
210.4086, 2017.102
210.8907, 2014.987
211.3728, 2009.680
211.8549, 2000.538
212.3370, 1989.876
212.8191, 1976.302
213.3013, 1960.901
213.7834, 1952.153
214.2655, 1951.399
214.7476, 1955.161
215.2297, 1960.992
215.7118, 1969.866
216.1940, 1978.397
216.6761, 1986.572
217.1582, 1994.308
217.6403, 1997.709
218.1224, 1993.182
218.6045, 1989.059
219.0867, 1994.666
219.5688, 2015.461
220.0509, 2032.793
220.5330, 2040.883
221.0151, 2039.526
221.4972, 2044.454
221.9794, 2059.288
222.4615, 2076.403
222.9436, 2087.427
223.4257, 2089.239
223.9078, 2091.477
224.3899, 2096.677
224.8721, 2105.279
225.3542, 2111.673
225.8363, 2114.367
226.3184, 2116.316
226.8005, 2120.323
227.2827, 2123.829
227.7648, 2134.595
228.2469, 2157.273
228.7290, 2194.390
229.2111, 2222.528
229.6932, 2236.812
230.1754, 2245.739
230.6575, 2261.106
231.1396, 2287.379
231.6217, 2311.861
232.1038, 2329.203
232.5859, 2336.259
233.0681, 2353.887
233.5502, 2387.578
234.0323, 2427.770
234.5144, 2461.005
234.9965, 2483.970
235.4786, 2505.143
235.9608, 2527.194
236.4429, 2550.427
236.9250, 2571.667
237.4071, 2589.449
237.8892, 2605.998
238.3713, 2625.788
238.8535, 2654.309
239.3356, 2676.813
239.8177, 2687.323
240.2998, 2682.084
240.7819, 2679.449
241.2640, 2681.197
241.7462, 2684.471
242.2283, 2683.733
242.7104, 2674.896
243.1925, 2668.821
243.6746, 2670.029
244.1567, 2681.729
244.6389, 2689.606
245.1210, 2691.886
245.6031, 2691.396
246.0852, 2691.277
246.5673, 2684.126
247.0494, 2690.205
247.5316, 2721.161
248.0137, 2789.907
248.4958, 2839.578
248.9779, 2864.915
249.4600, 2873.812
249.9421, 2879.340
250.4243, 2879.343
250.9064, 2879.879
251.3885, 2882.774
251.8706, 2887.645
252.3527, 2897.552
252.8348, 2918.298
253.3170, 2940.497
253.7991, 2944.641
254.2812, 2922.683
254.7633, 2898.015
255.2454, 2878.951
255.7275, 2866.832
256.2097, 2856.916
256.6918, 2853.070
257.1739, 2848.900
257.6560, 2830.547
258.1381, 2790.375
258.6202, 2751.667
259.1024, 2723.639
259.5845, 2709.612
260.0666, 2693.712
260.5487, 2675.772
261.0308, 2656.107
261.5129, 2632.493
261.9951, 2600.291
262.4772, 2575.828
262.9593, 2569.244
263.4414, 2586.893
263.9235, 2590.268
264.4056, 2572.917
264.8878, 2547.322
265.3699, 2535.852
265.8520, 2542.453
266.3341, 2551.689
266.8162, 2558.668
267.2983, 2563.593
267.7805, 2564.062
268.2626, 2558.587
268.7447, 2550.290
269.2268, 2544.968
269.7089, 2543.763
270.1910, 2541.402
270.6732, 2534.253
271.1553, 2521.221
271.6374, 2515.378
272.1195, 2518.700
272.6016, 2526.311
273.0837, 2529.934
273.5659, 2528.678
274.0480, 2528.105
274.5301, 2531.148
275.0122, 2538.012
275.4943, 2541.878
275.9764, 2542.033
276.4586, 2540.533
276.9407, 2538.729
277.4228, 2535.907
277.9049, 2538.940
278.3870, 2552.615
278.8691, 2576.364
279.3513, 2598.101
279.8334, 2618.709
280.3155, 2635.037
280.7976, 2639.638
281.2798, 2631.810
281.7619, 2627.735
282.2440, 2634.349
282.7261, 2650.438
283.2082, 2667.195
283.6903, 2684.729
284.1725, 2702.529
284.6546, 2721.353
285.1367, 2740.873
285.6188, 2756.421
286.1009, 2763.909
286.5830, 2765.830
287.0652, 2772.804
287.5473, 2784.989
288.0294, 2800.875
288.5115, 2819.149
288.9936, 2839.869
289.4757, 2862.692
289.9579, 2888.600
290.4400, 2916.350
290.9221, 2944.137
291.4042, 2972.149
291.8863, 2997.843
292.3684, 3014.851
292.8506, 3026.038
293.3327, 3044.124
293.8148, 3075.264
294.2969, 3114.617
294.7790, 3154.006
295.2611, 3193.600
295.7433, 3233.859
296.2254, 3275.325
296.7075, 3318.506
297.1896, 3363.328
297.6717, 3412.041
298.1538, 3461.591
298.6360, 3504.309
299.1181, 3541.345
299.6002, 3581.624
300.0823, 3632.345
300.5644, 3691.573
301.0465, 3757.214
301.5287, 3833.983
302.0108, 3910.247
302.4929, 3968.361
302.9750, 4011.592
303.4571, 4055.372
303.9392, 4118.563
304.4214, 4186.452
304.9035, 4238.980
305.3856, 4263.079
305.8677, 4282.061
306.3498, 4318.252
306.8319, 4366.676
307.3141, 4410.583
307.7962, 4447.781
308.2783, 4471.497
308.7604, 4473.450
309.2425, 4446.301
309.7246, 4409.363
310.2068, 4371.694
310.6889, 4333.329
311.1710, 4293.951
311.6531, 4252.077
312.1352, 4209.882
312.6173, 4172.089
313.0995, 4145.492
313.5816, 4106.806
314.0637, 4034.862
314.5458, 3943.591
315.0279, 3858.720
315.5100, 3792.070
315.9922, 3732.930
316.4743, 3675.914
316.9564, 3620.145
317.4385, 3567.531
317.9206, 3521.317
318.4027, 3478.042
318.8849, 3432.867
319.3670, 3383.707
319.8491, 3333.122
320.3312, 3279.919
320.8133, 3222.144
321.2954, 3172.384
321.7776, 3136.082
322.2597, 3107.416
322.7418, 3080.180
323.2239, 3054.366
323.7060, 3029.027
324.1881, 3001.955
324.6703, 2972.367
325.1524, 2950.682
325.6345, 2943.962
326.1166, 2942.326
326.5987, 2937.782
327.0808, 2928.552
327.5630, 2918.383
328.0451, 2905.281
328.5272, 2889.714
329.0093, 2882.016
329.4914, 2885.988
329.9735, 2894.497
330.4557, 2903.305
330.9378, 2913.781
331.4199, 2922.044
331.9020, 2926.599
332.3841, 2928.542
332.8662, 2932.884
333.3484, 2938.479
333.8305, 2948.150
334.3126, 2964.426
334.7947, 2989.698
335.2768, 3013.549
335.7589, 3034.735
336.2411, 3054.577
336.7232, 3076.932
337.2053, 3101.851
337.6874, 3128.698
338.1695, 3159.728
338.6516, 3196.177
339.1338, 3222.022
339.6159, 3233.091
340.0980, 3239.333
340.5801, 3257.911
341.0622, 3290.219
341.5443, 3324.427
342.0265, 3358.374
342.5086, 3391.214
342.9907, 3418.456
343.4728, 3440.214
343.9549, 3454.988
344.4370, 3458.259
344.9192, 3451.003
345.4013, 3442.385
345.8834, 3435.714
346.3655, 3430.024
346.8476, 3423.130
347.3297, 3415.056
347.8119, 3406.034
348.2940, 3399.448
348.7761, 3392.525
349.2582, 3376.384
349.7403, 3342.797
350.2225, 3304.318
350.7046, 3277.980
351.1867, 3262.860
351.6688, 3253.706
352.1509, 3250.385
352.6331, 3249.619
353.1152, 3245.864
353.5973, 3235.772
354.0794, 3226.408
354.5615, 3228.092
355.0436, 3236.553
355.5258, 3238.796
356.0079, 3219.951
356.4900, 3196.046
356.9721, 3183.010
357.4542, 3187.482
357.9363, 3188.596
358.4185, 3170.652
358.9006, 3141.852
359.3827, 3116.388
359.8648, 3103.796
360.3469, 3092.790
360.8290, 3076.502
361.3112, 3053.189
361.7933, 3032.738
362.2754, 3023.788
362.7575, 3017.106
363.2396, 3002.592
363.7217, 2970.150
364.2039, 2937.668
364.6860, 2907.763
365.1681, 2880.466
365.6502, 2860.712
366.1323, 2855.060
366.6144, 2853.293
367.0966, 2848.416
367.5787, 2843.438
368.0608, 2831.292
368.5429, 2807.393
369.0250, 2774.548
369.5071, 2747.826
369.9893, 2730.300
370.4714, 2715.396
370.9535, 2699.248
371.4356, 2677.622
371.9177, 2665.969
372.3998, 2671.374
372.8820, 2683.327
373.3641, 2676.006
373.8462, 2640.963
374.3283, 2608.663
374.8104, 2592.266
375.2925, 2592.992
375.7747, 2593.868
376.2568, 2594.667
376.7389, 2596.078
377.2210, 2599.668
377.7031, 2605.678
378.1852, 2610.594
378.6674, 2614.559
379.1495, 2616.534
379.6316, 2611.063
380.1137, 2597.671
380.5958, 2581.557
381.0779, 2565.030
381.5601, 2549.032
382.0422, 2540.219
382.5243, 2542.857
383.0064, 2549.455
383.4885, 2547.926
383.9706, 2538.843
384.4528, 2526.566
384.9349, 2510.925
385.4170, 2494.744
385.8991, 2482.103
386.3812, 2473.372
386.8633, 2468.622
387.3455, 2471.694
387.8276, 2478.952
388.3097, 2482.090
388.7918, 2475.934
389.2739, 2464.539
389.7560, 2449.101
390.2382, 2429.112
390.7203, 2412.435
391.2024, 2404.313
391.6845, 2401.521
392.1666, 2400.269
392.6487, 2402.340
393.1309, 2402.936
393.6130, 2400.736
394.0951, 2395.652
394.5772, 2387.100
395.0593, 2366.961
395.5414, 2348.334
396.0236, 2339.644
396.5057, 2357.033
396.9878, 2366.602
397.4699, 2359.678
397.9520, 2341.912
398.4341, 2331.340
398.9163, 2337.610
399.3984, 2341.025
399.8805, 2332.656
400.3626, 2304.647
400.8447, 2288.727
401.3268, 2290.169
401.8090, 2299.827
402.2911, 2305.322
402.7732, 2306.136
403.2553, 2303.777
403.7374, 2297.120
404.2195, 2286.637
404.7017, 2282.720
405.1838, 2288.406
405.6659, 2292.367
406.1480, 2280.110
406.6301, 2251.186
407.1122, 2233.153
407.5944, 2233.356
408.0765, 2244.814
408.5586, 2252.001
409.0407, 2255.005
409.5228, 2256.133
410.0049, 2256.593
410.4871, 2256.337
410.9692, 2254.675
411.4513, 2251.022
411.9334, 2248.042
412.4155, 2250.365
412.8976, 2256.082
413.3798, 2259.615
413.8619, 2253.611
414.3440, 2246.979
414.8261, 2250.627
415.3082, 2264.752
415.7903, 2279.034
416.2725, 2290.039
416.7546, 2296.322
417.2367, 2296.037
417.7188, 2278.859
418.2009, 2265.710
418.6830, 2270.901
419.1652, 2289.367
419.6473, 2302.328
420.1294, 2295.985
420.6115, 2288.121
421.0937, 2289.942
421.5758, 2311.898
422.0579, 2323.984
422.5400, 2311.166
423.0221, 2288.497
423.5042, 2280.535
423.9864, 2299.859
424.4685, 2320.720
424.9506, 2337.812
425.4327, 2350.546
425.9148, 2364.664
426.3969, 2383.023
426.8791, 2399.512
427.3612, 2407.113
427.8433, 2401.175
428.3254, 2401.341
428.8075, 2412.339
429.2896, 2430.522
429.7718, 2442.678
430.2539, 2447.730
430.7360, 2452.638
431.2181, 2461.162
431.7002, 2473.174
432.1823, 2488.309
432.6645, 2508.064
433.1466, 2525.938
433.6287, 2528.998
434.1108, 2520.494
434.5929, 2516.828
435.0750, 2529.181
435.5572, 2548.704
436.0393, 2558.504
436.5214, 2559.060
437.0035, 2560.552
437.4856, 2573.810
437.9677, 2592.073
438.4499, 2605.828
438.9320, 2611.741
439.4141, 2614.159
439.8962, 2612.683
440.3783, 2609.780
440.8604, 2611.767
441.3426, 2627.924
441.8247, 2644.828
442.3068, 2653.971
442.7889, 2652.604
443.2710, 2652.302
443.7531, 2652.629
444.2353, 2656.964
444.7174, 2669.055
445.1995, 2702.334
445.6816, 2729.136
446.1637, 2742.010
446.6458, 2742.362
447.1280, 2746.086
447.6101, 2753.526
448.0922, 2764.013
448.5743, 2777.429
449.0564, 2795.168
449.5385, 2812.142
450.0207, 2826.781
450.5028, 2841.828
450.9849, 2864.765
451.4670, 2898.084
451.9491, 2925.552
452.4312, 2939.759
452.9134, 2942.099
453.3955, 2941.671
453.8776, 2937.413
454.3597, 2937.783
454.8418, 2956.906
455.3239, 2989.419
455.8061, 3011.959
456.2882, 3017.852
456.7703, 3014.057
457.2524, 3006.854
457.7345, 2997.528
458.2166, 2991.194
458.6988, 2991.654
459.1809, 2996.405
459.6630, 3006.557
460.1451, 3024.423
460.6272, 3031.715
461.1093, 3003.214
461.5915, 2961.595
462.0736, 2935.633
462.5557, 2953.615
463.0378, 2970.414
463.5199, 2967.612
464.0020, 2947.466
464.4842, 2928.590
464.9663, 2917.931
465.4484, 2907.337
465.9305, 2892.100
466.4126, 2866.507
466.8947, 2845.883
467.3769, 2833.976
467.8590, 2825.463
468.3411, 2810.677
468.8232, 2784.694
469.3053, 2762.455
469.7874, 2748.553
470.2696, 2742.519
470.7517, 2735.857
471.2338, 2728.543
471.7159, 2720.738
472.1980, 2712.411
472.6801, 2703.552
473.1623, 2695.527
473.6444, 2689.005
474.1265, 2682.343
474.6086, 2671.972
475.0907, 2658.457
475.5728, 2645.455
476.0550, 2635.247
476.5371, 2626.620
477.0192, 2618.085
477.5013, 2609.562
477.9834, 2600.470
478.4655, 2587.639
478.9477, 2574.782
479.4298, 2567.387
479.9119, 2573.808
480.3940, 2577.421
480.8761, 2565.607
481.3582, 2543.601
481.8404, 2526.583
482.3225, 2524.198
482.8046, 2524.057
483.2867, 2519.134
483.7688, 2505.213
484.2509, 2499.140
484.7331, 2508.186
485.2152, 2522.728
485.6973, 2534.404
486.1794, 2544.038
486.6615, 2549.108
487.1436, 2547.404
487.6258, 2540.807
488.1079, 2538.805
488.5900, 2543.148
489.0721, 2547.284
489.5542, 2546.543
490.0363, 2540.854
490.5185, 2538.653
491.0006, 2540.224
491.4827, 2545.123
491.9648, 2554.556
492.4470, 2567.554
492.9291, 2578.758
493.4112, 2586.602
493.8933, 2591.203
494.3754, 2591.452
494.8575, 2587.857
495.3397, 2583.605
495.8218, 2576.328
496.3039, 2571.619
496.7860, 2577.608
497.2681, 2598.777
497.7502, 2617.720
498.2324, 2623.803
498.7145, 2622.580
499.1966, 2621.719
499.6787, 2628.967
500.1608, 2631.319
500.6429, 2621.235
501.1251, 2599.781
501.6072, 2584.855
502.0893, 2583.081
502.5714, 2583.136
503.0535, 2580.265
503.5356, 2575.558
504.0178, 2564.863
504.4999, 2545.483
504.9820, 2522.644
505.4641, 2503.375
505.9462, 2487.705
506.4283, 2476.211
506.9105, 2471.738
507.3926, 2471.072
507.8747, 2460.047
508.3568, 2438.130
508.8389, 2414.624
509.3210, 2393.689
509.8032, 2376.211
510.2853, 2365.207
510.7674, 2361.953
511.2495, 2361.309
511.7316, 2359.861
512.2137, 2357.017
512.6959, 2351.639
513.1780, 2339.344
513.6601, 2327.569
514.1422, 2321.623
514.6243, 2320.902
515.1064, 2320.922
515.5886, 2324.809
516.0707, 2325.460
516.5528, 2317.661
517.0349, 2295.007
517.5170, 2275.828
517.9991, 2262.920
518.4813, 2254.118
518.9634, 2246.604
519.4455, 2237.575
519.9276, 2234.985
520.4097, 2242.892
520.8918, 2259.101
521.3740, 2270.503
521.8561, 2277.099
522.3382, 2278.885
522.8203, 2272.964
523.3024, 2260.139
523.7845, 2255.253
524.2667, 2261.039
524.7488, 2267.318
525.2309, 2258.977
525.7130, 2240.051
526.1951, 2224.562
526.6772, 2216.104
527.1594, 2214.472
527.6415, 2224.510
528.1236, 2243.021
528.6057, 2256.147
529.0878, 2254.472
529.5699, 2245.225
530.0521, 2230.944
530.5342, 2208.749
531.0163, 2195.788
531.4984, 2205.231
531.9805, 2223.266
532.4626, 2235.221
532.9448, 2235.138
533.4269, 2233.634
533.9090, 2231.836
534.3911, 2229.471
534.8732, 2224.789
535.3553, 2214.319
535.8375, 2207.997
536.3196, 2210.989
536.8017, 2223.764
537.2838, 2238.361
537.7659, 2256.938
538.2480, 2270.626
538.7302, 2264.203
539.2123, 2241.440
539.6944, 2230.390
540.1765, 2241.583
540.6586, 2258.904
541.1407, 2256.899
541.6229, 2240.878
542.1050, 2229.903
542.5871, 2242.063
543.0692, 2258.707
543.5513, 2260.410
544.0334, 2246.310
544.5156, 2236.142
544.9977, 2247.931
545.4798, 2262.397
545.9619, 2263.243
546.4440, 2228.491
546.9261, 2208.218
547.4083, 2220.589
547.8904, 2249.545
548.3725, 2266.011
548.8546, 2264.781
549.3367, 2259.339
549.8188, 2249.510
550.3010, 2236.662
550.7831, 2239.566
551.2652, 2262.823
551.7473, 2286.546
552.2294, 2295.550
552.7115, 2291.239
553.1937, 2285.448
553.6758, 2277.927
554.1579, 2273.873
554.6400, 2281.820
555.1221, 2298.732
555.6042, 2315.918
556.0864, 2332.499
556.5685, 2346.010
557.0506, 2353.190
557.5327, 2354.987
558.0148, 2354.732
558.4969, 2350.684
558.9791, 2347.622
559.4612, 2348.767
559.9433, 2355.061
560.4254, 2362.293
560.9075, 2371.330
561.3896, 2380.042
561.8718, 2386.302
562.3539, 2384.722
562.8360, 2390.509
563.3181, 2408.839
563.8002, 2433.193
564.2823, 2447.323
564.7645, 2449.082
565.2466, 2449.722
565.7287, 2453.670
566.2108, 2460.107
566.6929, 2464.567
567.1750, 2466.914
567.6572, 2469.604
568.1393, 2471.773
568.6214, 2476.196
569.1035, 2491.159
569.5856, 2521.440
570.0677, 2548.440
570.5499, 2552.483
571.0320, 2544.178
571.5141, 2540.378
571.9962, 2554.526
572.4783, 2567.112
572.9604, 2568.556
573.4426, 2560.940
573.9247, 2555.528
574.4068, 2553.517
574.8889, 2554.736
575.3710, 2560.015
575.8531, 2570.576
576.3353, 2578.854
576.8174, 2585.905
577.2995, 2588.985
577.7816, 2583.284
578.2637, 2567.557
578.7458, 2556.159
579.2280, 2550.378
579.7101, 2551.246
580.1922, 2564.139
580.6743, 2586.956
581.1564, 2607.839
581.6385, 2619.611
582.1207, 2627.281
582.6028, 2636.017
583.0849, 2645.901
583.5670, 2658.132
584.0491, 2682.644
584.5313, 2703.866
585.0134, 2705.835
585.4955, 2676.741
585.9776, 2659.472
586.4597, 2672.770
586.9418, 2700.353
587.4240, 2723.927
587.9061, 2743.291
588.3882, 2758.081
588.8703, 2767.592
589.3524, 2772.682
589.8345, 2774.579
590.3167, 2771.568
590.7988, 2772.246
591.2809, 2783.460
591.7630, 2801.881
592.2451, 2806.922
592.7272, 2797.979
593.2094, 2790.379
593.6915, 2795.634
594.1736, 2811.550
594.6557, 2837.217
595.1378, 2875.294
595.6199, 2908.860
596.1021, 2917.965
596.5842, 2916.300
597.0663, 2923.421
597.5485, 2957.776
598.0306, 2989.242
598.5127, 3006.756
598.9948, 3012.999
599.4769, 3020.454
599.9590, 3034.430
600.4412, 3044.351
600.9233, 3044.123
601.4054, 3032.396
601.8875, 3033.805
602.3696, 3053.339
602.8517, 3073.755
603.3339, 3077.114
603.8160, 3065.194
604.2981, 3062.570
604.7802, 3074.174
605.2623, 3087.800
605.7444, 3084.298
606.2266, 3069.846
606.7087, 3061.667
607.1908, 3076.863
607.6729, 3089.419
608.1550, 3074.066
608.6371, 3038.179
609.1193, 3005.211
609.6014, 2990.289
610.0835, 2975.715
610.5656, 2951.714
611.0477, 2915.680
611.5298, 2886.212
612.0120, 2868.406
612.4941, 2853.049
612.9762, 2834.513
613.4583, 2812.409
613.9404, 2787.458
614.4225, 2756.821
614.9047, 2728.655
615.3868, 2718.245
615.8689, 2723.861
616.3510, 2722.904
616.8331, 2704.696
617.3152, 2681.913
617.7974, 2675.024
618.2795, 2680.945
618.7616, 2687.201
619.2437, 2693.427
619.7258, 2692.565
620.2079, 2674.754
620.6901, 2639.872
621.1722, 2610.376
621.6543, 2596.240
622.1364, 2588.437
622.6185, 2581.682
623.1006, 2576.213
623.5828, 2570.000
624.0649, 2561.136
624.5470, 2553.279
625.0291, 2553.066
625.5112, 2563.541
625.9933, 2564.436
626.4755, 2549.716
626.9576, 2526.751
627.4397, 2506.910
627.9218, 2491.027
628.4039, 2485.479
628.8860, 2507.535
629.3682, 2534.348
629.8503, 2529.398
630.3324, 2496.722
630.8145, 2467.252
631.2966, 2459.967
631.7787, 2461.968
632.2609, 2465.187
632.7430, 2469.101
633.2251, 2472.111
633.7072, 2472.907
634.1893, 2473.253
634.6714, 2475.012
635.1536, 2480.893
635.6357, 2481.752
636.1178, 2475.135
636.5999, 2465.096
637.0820, 2458.516
637.5641, 2455.467
638.0463, 2455.595
638.5284, 2461.115
639.0105, 2467.702
639.4926, 2465.216
639.9747, 2455.083
640.4568, 2445.699
640.9390, 2442.160
641.4211, 2441.616
641.9032, 2441.144
642.3853, 2440.535
642.8674, 2442.318
643.3495, 2451.503
643.8317, 2460.750
644.3138, 2465.149
644.7959, 2463.274
645.2780, 2457.326
645.7601, 2442.637
646.2422, 2427.988
646.7244, 2425.824
647.2065, 2439.850
647.6886, 2446.197
