##NAMES=Bario-olgite
##RRUFFID=R060614
##IDEAL CHEMISTRY=Na(Na,Sr,Ce)_2_Ba(PO_4_)_2_
##LOCALITY=Palitra pegmatite, Kedykverpakhk Mountain, Lovozero massif, Kola Peninsula, Russia
##OWNER=RRUFF
##SOURCE=Michael Scott
##DESCRIPTION=Grayish-green grains associated with brown manaksite R060693, and purple ussingite
##STATUS=The identification of this mineral has been confirmed by single-crystal X-ray diffraction.
##URL=rruff.info/R060614
114.8533, 7949.542
115.3354, 7979.771
115.8175, 8005.342
116.2996, 8026.310
116.7817, 8045.557
117.2639, 8063.853
117.7460, 8081.336
118.2281, 8098.168
118.7102, 8114.825
119.1923, 8130.508
119.6744, 8144.829
120.1566, 8157.903
120.6387, 8168.416
121.1208, 8172.012
121.6029, 8172.049
122.0850, 8175.437
122.5671, 8188.143
123.0493, 8204.501
123.5314, 8218.314
124.0135, 8227.361
124.4956, 8236.064
124.9777, 8250.304
125.4598, 8268.210
125.9420, 8283.004
126.4241, 8287.371
126.9062, 8285.737
127.3883, 8286.390
127.8704, 8291.512
128.3525, 8298.836
128.8347, 8304.397
129.3168, 8308.374
129.7989, 8313.906
130.2810, 8325.149
130.7631, 8340.573
131.2452, 8354.503
131.7274, 8366.027
132.2095, 8374.987
132.6916, 8379.927
133.1737, 8380.488
133.6558, 8380.339
134.1379, 8383.792
134.6201, 8390.841
135.1022, 8396.492
135.5843, 8397.431
136.0664, 8395.049
136.5485, 8400.911
137.0306, 8417.104
137.5128, 8436.748
137.9949, 8451.567
138.4770, 8460.528
138.9591, 8469.742
139.4412, 8481.104
139.9233, 8494.499
140.4055, 8509.472
140.8876, 8527.325
141.3697, 8545.152
141.8518, 8557.937
142.3339, 8563.713
142.8160, 8568.478
143.2982, 8574.003
143.7803, 8579.805
144.2624, 8588.096
144.7445, 8601.074
145.2266, 8615.885
145.7087, 8625.102
146.1909, 8624.776
146.6730, 8624.265
147.1551, 8627.389
147.6372, 8636.534
148.1193, 8645.512
148.6014, 8654.234
149.0836, 8662.885
149.5657, 8672.358
150.0478, 8683.856
150.5299, 8695.038
151.0120, 8704.933
151.4941, 8708.907
151.9763, 8716.741
152.4584, 8732.438
152.9405, 8753.571
153.4226, 8768.471
153.9047, 8768.604
154.3868, 8767.144
154.8690, 8771.249
155.3511, 8790.116
155.8332, 8805.583
156.3153, 8812.795
156.7974, 8812.826
157.2795, 8814.515
157.7617, 8820.411
158.2438, 8828.443
158.7259, 8837.132
159.2080, 8844.389
159.6901, 8854.165
160.1722, 8870.134
160.6544, 8891.880
161.1365, 8909.917
161.6186, 8916.357
162.1007, 8919.342
162.5828, 8926.525
163.0649, 8943.543
163.5471, 8962.397
164.0292, 8980.256
164.5113, 8996.927
164.9934, 9011.284
165.4755, 9021.281
165.9576, 9028.910
166.4398, 9036.529
166.9219, 9045.004
167.4040, 9053.771
167.8861, 9062.354
168.3682, 9070.751
168.8503, 9079.210
169.3325, 9087.474
169.8146, 9096.058
170.2967, 9105.650
170.7788, 9118.436
171.2609, 9131.593
171.7430, 9141.550
172.2252, 9147.735
172.7073, 9154.943
173.1894, 9168.171
173.6715, 9185.526
174.1536, 9202.243
174.6357, 9216.267
175.1179, 9228.609
175.6000, 9241.006
176.0821, 9253.828
176.5642, 9264.741
177.0463, 9269.290
177.5284, 9269.501
178.0106, 9271.534
178.4927, 9281.029
178.9748, 9294.013
179.4569, 9302.957
179.9390, 9306.484
180.4211, 9309.146
180.9033, 9316.127
181.3854, 9327.066
181.8675, 9339.781
182.3496, 9354.483
182.8317, 9370.011
183.3138, 9383.794
183.7960, 9394.783
184.2781, 9405.739
184.7602, 9421.547
185.2423, 9441.647
185.7244, 9460.400
186.2065, 9472.722
186.6887, 9480.537
187.1708, 9491.768
187.6529, 9507.734
188.1350, 9526.089
188.6171, 9543.225
189.0992, 9559.239
189.5814, 9573.568
190.0635, 9584.525
190.5456, 9592.987
191.0277, 9604.483
191.5098, 9621.033
191.9919, 9638.929
192.4741, 9648.877
192.9562, 9650.497
193.4383, 9652.052
193.9204, 9659.565
194.4025, 9672.670
194.8846, 9685.056
195.3668, 9695.525
195.8489, 9705.342
196.3310, 9718.066
196.8131, 9734.049
197.2952, 9750.000
197.7773, 9764.594
198.2595, 9777.797
198.7416, 9787.078
199.2237, 9790.378
199.7058, 9790.970
200.1879, 9798.404
200.6700, 9813.901
201.1522, 9831.472
201.6343, 9847.752
202.1164, 9862.856
202.5985, 9876.116
203.0806, 9887.238
203.5627, 9896.478
204.0449, 9903.894
204.5270, 9908.737
205.0091, 9913.995
205.4912, 9922.215
205.9733, 9934.053
206.4554, 9944.432
206.9376, 9952.171
207.4197, 9958.169
207.9018, 9966.050
208.3839, 9975.994
208.8660, 9987.573
209.3481, 10001.03
209.8303, 10017.31
210.3124, 10031.66
210.7945, 10042.20
211.2766, 10050.76
211.7587, 10066.50
212.2408, 10093.43
212.7230, 10119.28
213.2051, 10134.51
213.6872, 10134.47
214.1693, 10139.63
214.6514, 10153.01
215.1335, 10172.99
215.6157, 10192.06
216.0978, 10210.17
216.5799, 10227.16
217.0620, 10243.17
217.5441, 10258.43
218.0262, 10271.46
218.5084, 10281.14
218.9905, 10288.51
219.4726, 10298.47
219.9547, 10312.48
220.4368, 10327.09
220.9189, 10339.89
221.4011, 10350.20
221.8832, 10361.50
222.3653, 10375.44
222.8474, 10390.84
223.3295, 10401.98
223.8116, 10405.44
224.2938, 10409.79
224.7759, 10420.76
225.2580, 10441.64
225.7401, 10460.83
226.2222, 10477.67
226.7043, 10492.10
227.1865, 10504.17
227.6686, 10511.02
228.1507, 10519.22
228.6328, 10533.42
229.1149, 10558.60
229.5970, 10577.83
230.0792, 10588.40
230.5613, 10592.36
231.0434, 10596.46
231.5255, 10598.63
232.0076, 10604.25
232.4897, 10617.27
232.9719, 10643.21
233.4540, 10664.21
233.9361, 10677.13
234.4182, 10685.06
234.9003, 10699.29
235.3824, 10724.13
235.8646, 10749.11
236.3467, 10768.25
236.8288, 10776.29
237.3109, 10790.22
237.7930, 10813.16
238.2751, 10841.66
238.7573, 10864.47
239.2394, 10878.02
239.7215, 10890.54
240.2036, 10905.88
240.6857, 10925.56
241.1678, 10944.05
241.6500, 10960.86
242.1321, 10976.38
242.6142, 10992.08
243.0963, 11008.07
243.5784, 11023.97
244.0605, 11039.63
244.5427, 11055.70
245.0248, 11070.41
245.5069, 11084.54
245.9890, 11097.20
246.4711, 11105.66
246.9532, 11107.17
247.4354, 11109.47
247.9175, 11115.68
248.3996, 11127.05
248.8817, 11138.80
249.3638, 11150.40
249.8459, 11162.94
250.3281, 11179.00
250.8102, 11202.24
251.2923, 11223.00
251.7744, 11237.65
252.2565, 11244.43
252.7386, 11252.16
253.2208, 11260.00
253.7029, 11269.45
254.1850, 11283.58
254.6671, 11305.08
255.1492, 11325.72
255.6313, 11341.75
256.1135, 11351.52
256.5956, 11366.31
257.0777, 11387.38
257.5598, 11411.60
258.0419, 11435.39
258.5240, 11459.58
259.0062, 11480.42
259.4883, 11496.64
259.9704, 11507.78
260.4525, 11515.99
260.9346, 11518.35
261.4167, 11521.36
261.8989, 11534.28
262.3810, 11562.61
262.8631, 11586.10
263.3452, 11597.96
263.8273, 11598.61
264.3094, 11607.05
264.7916, 11627.05
265.2737, 11649.55
265.7558, 11665.00
266.2379, 11670.13
266.7200, 11679.34
267.2021, 11697.03
267.6843, 11722.00
268.1664, 11743.01
268.6485, 11759.08
269.1306, 11772.88
269.6127, 11784.78
270.0948, 11792.68
270.5770, 11807.53
271.0591, 11833.21
271.5412, 11866.64
272.0233, 11894.07
272.5054, 11913.58
272.9875, 11930.53
273.4697, 11948.91
273.9518, 11969.47
274.4339, 11986.97
274.9160, 11999.87
275.3981, 12009.88
275.8802, 12022.81
276.3624, 12039.29
276.8445, 12055.94
277.3266, 12071.12
277.8087, 12084.98
278.2908, 12095.66
278.7729, 12101.32
279.2551, 12105.92
279.7372, 12120.51
280.2193, 12147.10
280.7014, 12171.30
281.1835, 12182.84
281.6656, 12182.03
282.1478, 12188.24
282.6299, 12203.44
283.1120, 12223.53
283.5941, 12242.28
284.0762, 12259.74
284.5583, 12276.33
285.0405, 12292.24
285.5226, 12307.50
286.0047, 12322.27
286.4868, 12336.33
286.9689, 12350.53
287.4510, 12365.57
287.9332, 12381.46
288.4153, 12399.26
288.8974, 12420.88
289.3795, 12444.59
289.8616, 12462.31
290.3438, 12473.36
290.8259, 12482.96
291.3080, 12497.07
291.7901, 12514.89
292.2722, 12532.63
292.7543, 12549.33
293.2365, 12564.82
293.7186, 12578.00
294.2007, 12588.71
294.6828, 12599.37
295.1649, 12612.08
295.6470, 12626.40
296.1292, 12641.33
296.6113, 12656.54
297.0934, 12672.14
297.5755, 12689.95
298.0576, 12709.65
298.5397, 12726.68
299.0219, 12734.39
299.5040, 12737.53
299.9861, 12747.21
300.4682, 12768.10
300.9503, 12791.23
301.4324, 12804.80
301.9146, 12810.85
302.3967, 12818.19
302.8788, 12832.32
303.3609, 12851.13
303.8430, 12871.88
304.3251, 12894.65
304.8073, 12917.50
305.2894, 12937.75
305.7715, 12956.51
306.2536, 12977.14
306.7357, 13004.23
307.2178, 13032.07
307.7000, 13053.70
308.1821, 13067.94
308.6642, 13080.45
309.1463, 13094.99
309.6284, 13110.36
310.1105, 13125.03
310.5927, 13134.23
311.0748, 13145.12
311.5569, 13164.98
312.0390, 13193.84
312.5211, 13221.28
313.0032, 13240.30
313.4854, 13255.75
313.9675, 13272.53
314.4496, 13296.13
314.9317, 13318.29
315.4138, 13335.04
315.8959, 13347.00
316.3781, 13357.89
316.8602, 13366.72
317.3423, 13376.72
317.8244, 13390.74
318.3065, 13415.13
318.7886, 13435.53
319.2708, 13441.11
319.7529, 13438.11
320.2350, 13444.11
320.7171, 13471.33
321.1992, 13503.27
321.6813, 13532.14
322.1635, 13556.75
322.6456, 13578.18
323.1277, 13593.95
323.6098, 13606.86
324.0919, 13621.78
324.5740, 13639.19
325.0562, 13658.59
325.5383, 13679.89
326.0204, 13703.19
326.5025, 13728.04
326.9846, 13758.80
327.4667, 13789.44
327.9489, 13814.01
328.4310, 13829.98
328.9131, 13843.15
329.3952, 13854.67
329.8773, 13864.70
330.3594, 13871.56
330.8416, 13869.13
331.3237, 13868.75
331.8058, 13878.81
332.2879, 13905.86
332.7700, 13932.21
333.2521, 13955.86
333.7343, 13977.62
334.2164, 14002.43
334.6985, 14032.79
335.1806, 14061.58
335.6627, 14084.49
336.1448, 14098.90
336.6270, 14114.42
337.1091, 14131.27
337.5912, 14149.17
338.0733, 14168.04
338.5554, 14188.01
339.0375, 14208.16
339.5197, 14228.27
340.0018, 14248.21
340.4839, 14268.48
340.9660, 14288.98
341.4481, 14309.22
341.9302, 14327.51
342.4124, 14343.75
342.8945, 14361.19
343.3766, 14382.43
343.8587, 14405.55
344.3408, 14420.77
344.8229, 14426.70
345.3051, 14433.48
345.7872, 14453.29
346.2693, 14483.67
346.7514, 14508.46
347.2335, 14522.78
347.7156, 14531.70
348.1978, 14544.86
348.6799, 14562.00
349.1620, 14578.50
349.6441, 14589.29
350.1262, 14597.45
350.6083, 14610.35
351.0905, 14629.56
351.5726, 14651.89
352.0547, 14674.34
352.5368, 14696.97
353.0189, 14720.00
353.5010, 14743.87
353.9832, 14767.92
354.4653, 14792.80
354.9474, 14818.87
355.4295, 14840.29
355.9116, 14844.06
356.3937, 14841.97
356.8759, 14851.70
357.3580, 14891.42
357.8401, 14935.38
358.3222, 14965.59
358.8043, 14984.06
359.2864, 15001.11
359.7686, 15021.14
360.2507, 15042.83
360.7328, 15064.88
361.2149, 15087.27
361.6970, 15109.72
362.1791, 15133.13
362.6613, 15156.34
363.1434, 15176.80
363.6255, 15187.37
364.1076, 15199.75
364.5897, 15221.47
365.0718, 15257.32
365.5540, 15286.78
366.0361, 15300.24
366.5182, 15307.44
367.0003, 15320.13
367.4824, 15350.08
367.9645, 15375.18
368.4467, 15388.12
368.9288, 15388.09
369.4109, 15394.42
369.8930, 15409.99
370.3751, 15430.21
370.8572, 15452.67
371.3394, 15481.34
371.8215, 15505.33
372.3036, 15521.26
372.7857, 15532.01
373.2678, 15548.75
373.7499, 15575.75
374.2321, 15601.00
374.7142, 15615.97
375.1963, 15614.84
375.6784, 15629.81
376.1605, 15666.60
376.6426, 15711.81
377.1248, 15742.35
377.6069, 15755.87
378.0890, 15770.53
378.5711, 15792.69
379.0532, 15821.34
379.5353, 15848.19
380.0175, 15873.66
380.4996, 15896.73
380.9817, 15913.97
381.4638, 15926.50
381.9459, 15945.38
382.4280, 15975.04
382.9102, 16008.87
383.3923, 16031.85
383.8744, 16045.13
384.3565, 16059.51
384.8386, 16081.97
385.3207, 16110.28
385.8029, 16140.64
386.2850, 16173.71
386.7671, 16204.45
387.2492, 16227.23
387.7313, 16243.95
388.2134, 16258.47
388.6956, 16270.90
389.1777, 16283.01
389.6598, 16296.75
390.1419, 16312.15
390.6240, 16328.00
391.1061, 16343.88
391.5883, 16360.19
392.0704, 16377.37
392.5525, 16395.07
393.0346, 16414.68
393.5167, 16438.17
393.9988, 16464.54
394.4810, 16491.12
394.9631, 16515.73
395.4452, 16541.30
395.9273, 16569.29
396.4094, 16600.16
396.8915, 16632.46
397.3737, 16665.82
397.8558, 16700.28
398.3379, 16735.85
398.8200, 16772.50
399.3021, 16809.78
399.7842, 16847.33
400.2664, 16884.97
400.7485, 16923.65
401.2306, 16964.99
401.7127, 17004.88
402.1948, 17040.11
402.6769, 17067.07
403.1591, 17096.92
403.6412, 17131.75
404.1233, 17168.97
404.6054, 17202.17
405.0875, 17228.72
405.5696, 17258.44
406.0518, 17298.63
406.5339, 17350.11
407.0160, 17387.54
407.4981, 17407.91
407.9802, 17422.69
408.4623, 17444.25
408.9445, 17472.83
409.4266, 17504.41
409.9087, 17538.75
410.3908, 17575.18
410.8729, 17610.00
411.3550, 17643.76
411.8372, 17682.05
412.3193, 17735.03
412.8014, 17795.47
413.2835, 17844.53
413.7656, 17877.46
414.2477, 17909.00
414.7299, 17956.09
415.2120, 18013.88
415.6941, 18069.58
416.1762, 18118.60
416.6583, 18162.02
417.1404, 18197.90
417.6226, 18226.70
418.1047, 18257.65
418.5868, 18299.77
419.0689, 18344.72
419.5510, 18385.26
420.0331, 18418.25
420.5153, 18447.51
420.9974, 18470.94
421.4795, 18491.39
421.9616, 18515.04
422.4437, 18554.22
422.9258, 18588.68
423.4080, 18606.76
423.8901, 18600.59
424.3722, 18606.44
424.8543, 18639.86
425.3364, 18681.08
425.8185, 18710.72
426.3007, 18723.99
426.7828, 18733.14
427.2649, 18737.48
427.7470, 18738.29
428.2291, 18745.68
428.7112, 18764.74
429.1934, 18780.93
429.6755, 18783.73
430.1576, 18768.39
430.6397, 18763.51
431.1218, 18771.88
431.6039, 18787.15
432.0861, 18800.90
432.5682, 18813.19
433.0503, 18822.05
433.5324, 18824.95
434.0145, 18824.49
434.4966, 18831.23
434.9788, 18845.60
435.4609, 18859.32
435.9430, 18864.06
436.4251, 18862.87
436.9072, 18863.99
437.3893, 18869.17
437.8715, 18876.75
438.3536, 18884.12
438.8357, 18892.19
439.3178, 18903.46
439.7999, 18919.55
440.2820, 18938.98
440.7642, 18963.23
441.2463, 18992.34
441.7284, 19013.96
442.2105, 19012.91
442.6926, 19004.76
443.1747, 19004.69
443.6569, 19025.21
444.1390, 19043.75
444.6211, 19050.40
445.1032, 19049.29
445.5853, 19052.23
446.0674, 19068.63
446.5496, 19083.54
447.0317, 19089.92
447.5138, 19082.93
447.9959, 19084.65
448.4780, 19101.24
448.9601, 19123.12
449.4423, 19141.12
449.9244, 19153.29
450.4065, 19166.27
450.8886, 19181.19
451.3707, 19197.70
451.8528, 19214.56
452.3350, 19231.36
452.8171, 19249.39
453.2992, 19269.47
453.7813, 19291.40
454.2634, 19313.86
454.7455, 19336.10
455.2277, 19360.19
455.7098, 19392.22
456.1919, 19430.09
456.6740, 19462.43
457.1561, 19482.49
457.6382, 19496.65
458.1204, 19515.83
458.6025, 19539.49
459.0846, 19561.77
459.5667, 19577.35
460.0488, 19590.34
460.5309, 19605.26
461.0131, 19622.21
461.4952, 19644.41
461.9773, 19678.03
462.4594, 19717.26
462.9415, 19753.99
463.4236, 19788.24
463.9058, 19815.89
464.3879, 19830.46
464.8700, 19833.72
465.3521, 19844.24
465.8342, 19872.57
466.3163, 19904.89
466.7985, 19933.52
467.2806, 19954.40
467.7627, 19977.62
468.2448, 20005.39
468.7269, 20034.38
469.2090, 20060.23
469.6912, 20082.54
470.1733, 20102.62
470.6554, 20119.46
471.1375, 20133.73
471.6196, 20153.49
472.1017, 20181.52
472.5839, 20207.03
473.0660, 20220.37
473.5481, 20221.32
474.0302, 20230.35
474.5123, 20250.84
474.9944, 20275.45
475.4766, 20292.66
475.9587, 20303.90
476.4408, 20317.24
476.9229, 20336.27
477.4050, 20359.43
477.8871, 20386.35
478.3693, 20416.51
478.8514, 20443.42
479.3335, 20456.36
479.8156, 20466.25
480.2977, 20487.46
480.7798, 20525.54
481.2620, 20563.66
481.7441, 20589.00
482.2262, 20608.40
482.7083, 20632.01
483.1904, 20663.00
483.6725, 20698.45
484.1547, 20742.21
484.6368, 20792.37
485.1189, 20830.01
485.6010, 20836.94
486.0831, 20842.59
486.5652, 20861.88
487.0474, 20902.06
487.5295, 20940.88
488.0116, 20980.14
488.4937, 21016.22
488.9758, 21042.88
489.4579, 21056.25
489.9401, 21072.53
490.4222, 21097.19
490.9043, 21127.63
491.3864, 21153.11
491.8685, 21173.63
492.3506, 21189.86
492.8328, 21200.33
493.3149, 21206.50
493.7970, 21214.63
494.2791, 21225.08
494.7612, 21239.02
495.2433, 21259.23
495.7255, 21284.40
496.2076, 21311.47
496.6897, 21343.40
497.1718, 21373.17
497.6539, 21391.23
498.1360, 21400.28
498.6182, 21410.76
499.1003, 21426.91
499.5824, 21447.31
500.0645, 21471.30
500.5466, 21499.89
501.0287, 21528.01
501.5109, 21553.02
501.9930, 21577.16
502.4751, 21602.36
502.9572, 21631.01
503.4393, 21657.68
503.9214, 21678.94
504.4036, 21697.25
504.8857, 21723.17
505.3678, 21764.43
505.8499, 21800.24
506.3320, 21819.35
506.8141, 21820.04
507.2963, 21832.17
507.7784, 21858.05
508.2605, 21890.06
508.7426, 21921.88
509.2247, 21953.47
509.7068, 21984.51
510.1890, 22014.42
510.6711, 22044.35
511.1532, 22075.09
511.6353, 22106.86
512.1174, 22140.46
512.5995, 22182.77
513.0817, 22223.80
513.5638, 22248.78
514.0459, 22258.10
514.5280, 22266.96
515.0101, 22287.94
515.4922, 22311.69
515.9744, 22327.70
516.4565, 22325.21
516.9386, 22332.70
517.4207, 22367.49
517.9028, 22416.86
518.3849, 22459.77
518.8671, 22492.29
519.3492, 22518.45
519.8313, 22535.14
520.3134, 22543.42
520.7955, 22563.63
521.2776, 22603.56
521.7598, 22643.55
522.2419, 22670.79
522.7240, 22681.88
523.2061, 22697.71
523.6882, 22718.55
524.1703, 22744.16
524.6525, 22777.22
525.1346, 22817.20
525.6167, 22851.78
526.0988, 22875.44
526.5809, 22894.38
527.0630, 22923.42
527.5452, 22959.82
528.0273, 22987.80
528.5094, 22984.53
528.9915, 22975.18
529.4736, 22992.63
529.9557, 23040.21
530.4379, 23086.29
530.9200, 23107.98
531.4021, 23120.79
531.8842, 23140.02
532.3663, 23170.69
532.8484, 23205.45
533.3306, 23250.53
533.8127, 23297.56
534.2948, 23327.57
534.7769, 23317.53
535.2590, 23315.93
535.7411, 23337.59
536.2233, 23381.62
536.7054, 23415.16
537.1875, 23434.09
537.6696, 23450.91
538.1517, 23473.75
538.6339, 23502.96
539.1160, 23535.64
539.5981, 23573.14
540.0802, 23610.09
540.5623, 23638.96
541.0444, 23660.99
541.5266, 23683.71
542.0087, 23708.96
542.4908, 23736.38
542.9729, 23765.28
543.4550, 23795.32
543.9371, 23826.46
544.4193, 23856.35
544.9014, 23888.88
545.3835, 23930.12
545.8656, 23981.10
546.3477, 24026.50
546.8298, 24054.19
547.3120, 24077.27
547.7941, 24106.40
548.2762, 24151.07
548.7583, 24191.20
549.2404, 24225.96
549.7225, 24254.99
550.2047, 24276.55
550.6868, 24284.52
551.1689, 24297.03
551.6510, 24319.69
552.1331, 24350.96
552.6152, 24380.49
553.0974, 24408.63
553.5795, 24434.84
554.0616, 24456.74
554.5437, 24476.14
555.0258, 24503.27
555.5079, 24539.94
555.9901, 24578.75
556.4722, 24611.25
556.9543, 24640.77
557.4364, 24674.36
557.9185, 24716.56
558.4006, 24759.32
558.8828, 24793.76
559.3649, 24823.55
559.8470, 24858.30
560.3291, 24905.35
560.8112, 24953.84
561.2933, 24999.65
561.7755, 25042.14
562.2576, 25081.65
562.7397, 25115.45
563.2218, 25147.29
563.7039, 25178.89
564.1860, 25209.55
564.6682, 25243.01
565.1503, 25282.90
565.6324, 25322.23
566.1145, 25348.54
566.5966, 25360.21
567.0787, 25381.53
567.5609, 25420.14
568.0430, 25469.46
568.5251, 25518.30
569.0072, 25566.32
569.4893, 25605.31
569.9714, 25624.92
570.4536, 25636.10
570.9357, 25653.29
571.4178, 25676.60
571.8999, 25704.66
572.3820, 25739.74
572.8641, 25776.79
573.3463, 25810.89
573.8284, 25840.99
574.3105, 25868.72
574.7926, 25894.60
575.2747, 25918.03
575.7568, 25938.14
576.2390, 25954.03
576.7211, 25967.33
577.2032, 25975.09
577.6853, 25980.67
578.1674, 25997.07
578.6495, 26029.28
579.1317, 26057.85
579.6138, 26071.76
580.0959, 26073.84
580.5780, 26087.99
581.0601, 26115.15
581.5422, 26147.02
582.0244, 26183.35
582.5065, 26218.88
582.9886, 26234.64
583.4707, 26224.04
583.9528, 26218.37
584.4349, 26251.63
584.9171, 26306.42
585.3992, 26356.97
585.8813, 26398.59
586.3634, 26429.32
586.8455, 26439.11
587.3276, 26436.23
587.8098, 26443.32
588.2919, 26473.02
588.7740, 26504.29
589.2561, 26528.86
589.7382, 26546.32
590.2203, 26575.06
590.7025, 26620.81
591.1846, 26666.80
591.6667, 26702.79
592.1488, 26728.69
592.6309, 26746.82
593.1130, 26755.99
593.5952, 26763.47
594.0773, 26777.37
594.5594, 26797.29
595.0415, 26821.03
595.5236, 26849.42
596.0057, 26879.88
596.4879, 26908.69
596.9700, 26937.15
597.4521, 26967.92
597.9342, 27009.58
598.4163, 27047.44
598.8984, 27067.42
599.3806, 27072.36
599.8627, 27089.04
600.3448, 27136.31
600.8269, 27185.49
601.3090, 27222.29
601.7911, 27241.92
602.2733, 27267.82
602.7554, 27302.67
603.2375, 27339.81
603.7196, 27373.47
604.2017, 27404.13
604.6838, 27427.75
605.1660, 27440.80
605.6481, 27454.50
606.1302, 27490.47
606.6123, 27544.31
607.0944, 27594.92
607.5765, 27632.01
608.0587, 27664.81
608.5408, 27706.79
609.0229, 27754.41
609.5050, 27796.81
609.9871, 27819.88
610.4692, 27841.96
