##NAMES=Baricite
##RRUFFID=R061045
##IDEAL CHEMISTRY=Mg_3_(PO_4_)_2_&#183;8H_2_O
##LOCALITY=Rapid Creek, Yukon, Canada
##OWNER=RRUFF
##SOURCE=Michael Scott
##DESCRIPTION=Bluish-gray translucent fragment
##STATUS=The identification of this mineral is confirmed by single-crystal X-ray diffraction and chemical analysis.
##URL=rruff.info/R061045
##MEASURED CHEMISTRY=(Mg_1.66_Fe_1.33_Mn_0.01_)_Σ=3_(P_1.00_O_4_)_2_·8H_2_O; H_2_O estimated by difference
124.4148, 476.6191
124.8969, 492.6800
125.3791, 513.1146
125.8612, 547.0226
126.3433, 589.0704
126.8254, 629.6262
127.3075, 666.0247
127.7896, 700.2534
128.2718, 734.2058
128.7539, 768.0457
129.2360, 803.8083
129.7181, 844.5046
130.2002, 889.1572
130.6823, 935.0671
131.1645, 978.6746
131.6466, 1022.484
132.1287, 1076.679
132.6108, 1141.837
133.0929, 1213.260
133.5750, 1287.157
134.0572, 1364.341
134.5393, 1435.923
135.0214, 1505.837
135.5035, 1573.668
135.9856, 1611.115
136.4677, 1614.384
136.9499, 1588.442
137.4320, 1539.517
137.9141, 1462.791
138.3962, 1381.259
138.8783, 1308.451
139.3604, 1246.059
139.8426, 1186.967
140.3247, 1128.258
140.8068, 1071.690
141.2889, 1028.369
141.7710, 1002.153
142.2531, 984.2994
142.7353, 966.4797
143.2174, 947.5569
143.6995, 931.3790
144.1816, 919.4047
144.6637, 912.1614
145.1458, 904.2924
145.6280, 891.1509
146.1101, 879.6714
146.5922, 881.2928
147.0743, 909.2307
147.5564, 934.1639
148.0385, 946.0281
148.5207, 935.8847
149.0028, 929.9594
149.4849, 927.3576
149.9670, 928.9408
150.4491, 937.1841
150.9312, 950.8671
151.4134, 972.1671
151.8955, 1001.939
152.3776, 1061.889
152.8597, 1106.032
153.3418, 1122.639
153.8239, 1115.467
154.3060, 1116.494
154.7882, 1134.448
155.2703, 1159.094
155.7524, 1183.296
156.2345, 1194.602
156.7166, 1216.282
157.1987, 1257.294
157.6809, 1319.114
158.1630, 1381.700
158.6451, 1439.383
159.1272, 1494.634
159.6093, 1550.652
160.0914, 1608.389
160.5736, 1666.271
161.0557, 1722.221
161.5378, 1774.204
162.0199, 1831.177
162.5020, 1900.346
162.9841, 1976.373
163.4663, 2050.824
163.9484, 2112.990
164.4305, 2176.789
164.9126, 2252.204
165.3947, 2345.051
165.8768, 2441.922
166.3590, 2537.996
166.8411, 2632.365
167.3232, 2725.038
167.8053, 2811.452
168.2874, 2897.962
168.7695, 2991.190
169.2517, 3097.956
169.7338, 3206.960
170.2159, 3317.041
170.6980, 3424.718
171.1801, 3516.915
171.6622, 3594.327
172.1444, 3648.696
172.6265, 3668.018
173.1086, 3640.185
173.5907, 3579.122
174.0728, 3495.050
174.5549, 3387.183
175.0371, 3263.635
175.5192, 3121.849
176.0013, 2968.740
176.4834, 2820.311
176.9655, 2684.445
177.4476, 2558.728
177.9298, 2440.261
178.4119, 2327.614
178.8940, 2224.900
179.3761, 2131.833
179.8582, 2049.708
180.3403, 1980.029
180.8224, 1927.109
181.3046, 1887.476
181.7867, 1852.723
182.2688, 1822.714
182.7509, 1796.372
183.2330, 1769.936
183.7151, 1744.576
184.1973, 1727.098
184.6794, 1723.547
185.1615, 1732.207
185.6436, 1746.874
186.1257, 1765.904
186.6078, 1791.137
187.0900, 1828.510
187.5721, 1878.169
188.0542, 1931.426
188.5363, 1978.753
189.0184, 2021.780
189.5005, 2074.977
189.9827, 2142.228
190.4648, 2221.382
190.9469, 2308.263
191.4290, 2401.729
191.9111, 2502.150
192.3932, 2608.246
192.8754, 2719.909
193.3575, 2847.020
193.8396, 2995.147
194.3217, 3163.029
194.8038, 3331.645
195.2859, 3499.121
195.7681, 3674.125
196.2502, 3877.881
196.7323, 4111.536
197.2144, 4345.914
197.6965, 4567.203
198.1786, 4774.965
198.6608, 4992.377
199.1429, 5218.938
199.6250, 5454.643
200.1071, 5713.827
200.5892, 6003.845
201.0714, 6273.359
201.5535, 6495.043
202.0356, 6665.922
202.5177, 6825.951
202.9998, 6981.763
203.4819, 7122.221
203.9641, 7216.264
204.4462, 7262.482
204.9283, 7268.917
205.4104, 7237.661
205.8925, 7166.472
206.3746, 7066.857
206.8568, 6934.928
207.3389, 6776.118
207.8210, 6611.591
208.3031, 6440.805
208.7852, 6264.286
209.2673, 6079.595
209.7494, 5882.752
210.2316, 5694.871
210.7137, 5516.735
211.1958, 5349.776
211.6779, 5198.706
212.1600, 5065.032
212.6421, 4942.369
213.1243, 4826.799
213.6064, 4722.076
214.0885, 4615.019
214.5706, 4499.625
215.0527, 4376.435
215.5348, 4270.932
216.0170, 4187.416
216.4991, 4115.417
216.9812, 4045.631
217.4633, 3978.997
217.9454, 3913.369
218.4275, 3846.255
218.9097, 3777.696
219.3918, 3720.861
219.8739, 3681.722
220.3560, 3648.761
220.8381, 3608.045
221.3202, 3557.778
221.8024, 3504.634
222.2845, 3450.352
222.7666, 3394.384
223.2487, 3340.031
223.7308, 3289.474
224.2129, 3239.297
224.6951, 3184.052
225.1772, 3119.311
225.6593, 3056.709
226.1414, 2998.332
226.6235, 2943.682
227.1056, 2897.031
227.5878, 2860.489
228.0699, 2830.373
228.5520, 2798.484
229.0341, 2762.205
229.5162, 2728.915
229.9983, 2700.929
230.4805, 2679.238
230.9626, 2661.173
231.4447, 2649.807
231.9268, 2640.989
232.4089, 2625.095
232.8910, 2596.378
233.3732, 2569.003
233.8553, 2548.238
234.3374, 2533.316
234.8195, 2527.160
235.3016, 2534.937
235.7837, 2550.534
236.2658, 2555.423
236.7480, 2539.671
237.2301, 2527.281
237.7122, 2529.802
238.1943, 2552.062
238.6764, 2579.324
239.1585, 2614.336
239.6407, 2654.406
240.1228, 2688.413
240.6049, 2710.491
241.0870, 2734.766
241.5691, 2770.245
242.0512, 2826.558
242.5334, 2873.773
243.0155, 2908.385
243.4976, 2932.278
243.9797, 2953.605
244.4618, 2967.358
244.9439, 2984.497
245.4261, 3016.197
245.9082, 3086.889
246.3903, 3119.397
246.8724, 3096.854
247.3545, 3027.903
247.8366, 2963.996
248.3188, 2903.774
248.8009, 2851.407
249.2830, 2810.637
249.7651, 2786.408
250.2472, 2764.087
250.7293, 2741.241
251.2115, 2718.765
251.6936, 2705.077
252.1757, 2709.657
252.6578, 2711.190
253.1399, 2691.469
253.6220, 2634.771
254.1042, 2592.657
254.5863, 2576.011
255.0684, 2582.006
255.5505, 2580.886
256.0326, 2566.502
256.5147, 2552.865
256.9969, 2550.321
257.4790, 2560.150
257.9611, 2579.135
258.4432, 2613.471
258.9253, 2660.744
259.4074, 2681.836
259.8896, 2662.804
260.3717, 2637.042
260.8538, 2633.710
261.3359, 2662.219
261.8180, 2689.076
262.3001, 2711.664
262.7823, 2729.086
263.2644, 2729.593
263.7465, 2705.468
264.2286, 2676.173
264.7107, 2660.664
265.1928, 2663.552
265.6750, 2665.816
266.1571, 2667.263
266.6392, 2666.894
267.1213, 2647.764
267.6034, 2603.636
268.0855, 2551.799
268.5677, 2508.647
269.0498, 2476.611
269.5319, 2444.247
270.0140, 2408.721
270.4961, 2370.557
270.9782, 2334.576
271.4604, 2301.878
271.9425, 2268.377
272.4246, 2227.251
272.9067, 2175.042
273.3888, 2132.911
273.8709, 2108.845
274.3531, 2100.019
274.8352, 2081.621
275.3173, 2050.739
275.7994, 2017.524
276.2815, 1992.725
276.7636, 1977.825
277.2457, 1961.425
277.7278, 1939.986
278.2100, 1914.753
278.6921, 1893.883
279.1742, 1877.923
279.6563, 1864.464
280.1384, 1851.752
280.6205, 1840.026
281.1027, 1827.895
281.5848, 1817.245
282.0669, 1805.944
282.5490, 1781.318
283.0311, 1741.032
283.5132, 1698.120
283.9954, 1666.499
284.4775, 1645.994
284.9596, 1623.188
285.4417, 1595.389
285.9238, 1562.659
286.4059, 1523.237
286.8881, 1476.671
287.3702, 1429.615
287.8523, 1388.773
288.3344, 1353.469
288.8165, 1318.629
289.2986, 1282.928
289.7808, 1246.568
290.2629, 1208.766
290.7450, 1169.603
291.2271, 1133.011
291.7092, 1104.615
292.1913, 1082.793
292.6735, 1058.676
293.1556, 1029.157
293.6377, 997.3503
294.1198, 970.2315
294.6019, 947.7097
295.0840, 927.1038
295.5662, 907.0484
296.0483, 886.9908
296.5304, 864.7641
297.0125, 837.0226
297.4946, 809.7250
297.9767, 794.3500
298.4589, 790.1584
298.9410, 789.3612
299.4231, 787.9129
299.9052, 785.2757
300.3873, 779.9478
300.8694, 770.0482
301.3516, 759.2065
301.8337, 751.7864
302.3158, 747.4928
302.7979, 744.5974
303.2800, 741.5148
303.7621, 739.0465
304.2443, 738.5065
304.7264, 740.5728
305.2085, 744.0974
305.6906, 748.6563
306.1727, 753.9542
306.6548, 758.9273
307.1370, 760.4395
307.6191, 762.1438
308.1012, 769.4653
308.5833, 787.1816
309.0654, 803.7291
309.5475, 806.3680
310.0297, 799.5798
310.5118, 797.0007
310.9939, 808.7157
311.4760, 826.5621
311.9581, 843.9576
312.4402, 859.9238
312.9224, 874.4715
313.4045, 888.2089
313.8866, 900.7712
314.3687, 910.9502
314.8508, 919.4748
315.3329, 924.6443
315.8151, 924.9186
316.2972, 918.9723
316.7793, 911.1195
317.2614, 901.7397
317.7435, 891.7661
318.2256, 882.9406
318.7078, 876.9103
319.1899, 871.3688
319.6720, 865.9347
320.1541, 861.8142
320.6362, 853.6988
321.1183, 835.4940
321.6005, 813.2950
322.0826, 796.4714
322.5647, 790.9063
323.0468, 787.7271
323.5289, 783.4911
324.0110, 776.9984
324.4932, 773.1410
324.9753, 774.9355
325.4574, 779.0439
325.9395, 781.4503
326.4216, 782.7952
326.9037, 781.4316
327.3859, 775.7964
327.8680, 764.4778
328.3501, 756.0861
328.8322, 752.5502
329.3143, 751.0958
329.7964, 748.9063
330.2786, 743.3032
330.7607, 740.5502
331.2428, 743.6232
331.7249, 753.0292
332.2070, 756.2418
332.6891, 749.0948
333.1712, 739.5477
333.6534, 733.9728
334.1355, 731.9307
334.6176, 735.0538
335.0997, 746.4058
335.5818, 764.5109
336.0639, 774.6537
336.5461, 774.8644
337.0282, 770.2078
337.5103, 762.4553
337.9924, 748.9761
338.4745, 743.5787
338.9566, 750.7050
339.4388, 766.4042
339.9209, 776.0634
340.4030, 778.6462
340.8851, 778.4344
341.3672, 778.8267
341.8493, 780.0777
342.3315, 776.6174
342.8136, 766.2542
343.2957, 752.8881
343.7778, 745.3799
344.2599, 744.1384
344.7420, 743.9091
345.2242, 744.3149
345.7063, 744.2079
346.1884, 733.8470
346.6705, 710.1628
347.1526, 682.6453
347.6347, 667.2756
348.1169, 662.6225
348.5990, 657.2820
349.0811, 644.3026
349.5632, 626.5348
350.0453, 609.7169
350.5274, 593.9295
351.0096, 580.8133
351.4917, 573.3792
351.9738, 570.2085
352.4559, 566.9938
352.9380, 562.0480
353.4201, 555.9149
353.9023, 549.0775
354.3844, 541.5464
354.8665, 534.1335
355.3486, 527.1768
355.8307, 520.8565
356.3128, 515.3256
356.7950, 510.6432
357.2771, 506.9206
357.7592, 503.9678
358.2413, 501.8726
358.7234, 501.5062
359.2055, 507.9041
359.6877, 514.2559
360.1698, 513.6809
360.6519, 494.9227
361.1340, 479.3758
361.6161, 479.3517
362.0982, 491.1560
362.5804, 499.8316
363.0625, 497.0101
363.5446, 491.4975
364.0267, 488.5035
364.5088, 489.2109
364.9909, 492.0110
365.4731, 499.8788
365.9552, 509.7466
366.4373, 514.1917
366.9194, 505.6981
367.4015, 497.0168
367.8836, 492.8521
368.3658, 494.7635
368.8479, 498.2697
369.3300, 505.3809
369.8121, 513.3808
370.2942, 518.0097
370.7763, 516.4086
371.2585, 515.1537
371.7406, 515.7885
372.2227, 518.4180
372.7048, 522.0508
373.1869, 526.5648
373.6690, 532.1297
374.1512, 539.1434
374.6333, 548.1447
375.1154, 557.2667
375.5975, 566.4930
376.0796, 575.7184
376.5617, 583.8378
377.0439, 591.2347
377.5260, 596.4997
378.0081, 595.9836
378.4902, 588.7575
378.9723, 589.2261
379.4544, 601.3369
379.9366, 620.9326
380.4187, 638.5560
380.9008, 654.1274
381.3829, 667.9047
381.8650, 679.0212
382.3471, 688.2428
382.8293, 699.0367
383.3114, 712.4056
383.7935, 725.9112
384.2756, 735.5991
384.7577, 742.1641
385.2398, 749.2924
385.7219, 759.7191
386.2040, 771.8021
386.6862, 783.3503
387.1683, 794.4507
387.6504, 803.7955
388.1325, 809.3557
388.6146, 812.4449
389.0967, 815.3640
389.5789, 817.4233
390.0610, 820.9020
390.5431, 830.6738
391.0252, 846.0591
391.5073, 855.5958
391.9894, 847.0522
392.4716, 832.1065
392.9537, 822.5697
393.4358, 829.3537
393.9179, 833.5610
394.4000, 826.1970
394.8821, 809.7509
395.3643, 794.3877
395.8464, 782.6339
396.3285, 773.1002
396.8106, 765.4276
397.2927, 761.4175
397.7748, 755.7869
398.2570, 746.7712
398.7391, 735.8057
399.2212, 725.7872
399.7033, 715.8728
400.1854, 707.8113
400.6675, 701.1949
401.1497, 694.7469
401.6318, 696.5137
402.1139, 713.6740
402.5960, 733.3160
403.0781, 739.3741
403.5602, 724.4089
404.0424, 712.9889
404.5245, 710.6978
405.0066, 716.8250
405.4887, 724.0438
405.9708, 732.7179
406.4529, 741.6104
406.9351, 748.6353
407.4172, 753.3895
407.8993, 763.6263
408.3814, 782.6237
408.8635, 805.3561
409.3456, 820.1859
409.8278, 827.1890
410.3099, 831.5883
410.7920, 835.0331
411.2741, 838.2524
411.7562, 844.0229
412.2383, 853.0045
412.7205, 862.8913
413.2026, 873.0583
413.6847, 882.4778
414.1668, 887.8666
414.6489, 881.6792
415.1310, 873.8554
415.6132, 879.0330
416.0953, 897.4112
416.5774, 913.1295
417.0595, 913.6384
417.5416, 905.9628
418.0237, 898.4716
418.5059, 891.2624
418.9880, 887.7235
419.4701, 892.6689
419.9522, 903.8266
420.4343, 911.8740
420.9164, 911.3492
421.3986, 908.0174
421.8807, 904.7107
422.3628, 899.7501
422.8449, 899.0913
423.3270, 906.4859
423.8091, 918.5056
424.2913, 929.1868
424.7734, 940.1203
425.2555, 947.2495
425.7376, 947.7513
426.2197, 939.6719
426.7018, 937.3587
427.1840, 944.3807
427.6661, 953.9815
428.1482, 959.0010
428.6303, 955.8193
429.1124, 957.2307
429.5945, 966.6908
430.0767, 982.2548
430.5588, 995.6520
431.0409, 1007.419
431.5230, 1014.904
432.0051, 1012.373
432.4872, 999.9091
432.9694, 1000.267
433.4515, 1018.919
433.9336, 1043.302
434.4157, 1050.697
434.8978, 1042.747
435.3799, 1035.672
435.8621, 1040.282
436.3442, 1050.941
436.8263, 1053.022
437.3084, 1045.835
437.7905, 1040.625
438.2726, 1047.758
438.7548, 1063.836
439.2369, 1083.164
439.7190, 1107.685
440.2011, 1130.834
440.6832, 1145.106
441.1653, 1152.437
441.6474, 1161.096
442.1295, 1171.546
442.6117, 1187.251
443.0938, 1211.510
443.5759, 1247.823
444.0580, 1286.327
444.5401, 1322.892
445.0222, 1359.300
445.5044, 1397.977
445.9865, 1438.184
446.4686, 1482.079
446.9507, 1530.118
447.4328, 1582.863
447.9149, 1638.329
448.3971, 1700.143
448.8792, 1761.800
449.3613, 1818.227
449.8434, 1861.944
450.3255, 1916.579
450.8076, 1987.154
451.2898, 2069.922
451.7719, 2150.122
452.2540, 2227.045
452.7361, 2301.751
453.2182, 2373.064
453.7003, 2440.170
454.1825, 2518.672
454.6646, 2611.316
455.1467, 2707.405
455.6288, 2789.414
456.1109, 2859.064
456.5930, 2927.771
457.0752, 3000.396
457.5573, 3073.782
458.0394, 3140.403
458.5215, 3200.813
459.0036, 3254.077
459.4857, 3302.893
459.9679, 3343.708
460.4500, 3369.103
460.9321, 3375.471
461.4142, 3371.339
461.8963, 3362.876
462.3784, 3348.665
462.8606, 3325.423
463.3427, 3288.751
463.8248, 3244.463
464.3069, 3197.094
464.7890, 3147.311
465.2711, 3088.660
465.7533, 3013.748
466.2354, 2931.601
466.7175, 2851.802
467.1996, 2779.590
467.6817, 2705.273
468.1638, 2628.983
468.6460, 2550.426
469.1281, 2460.700
469.6102, 2349.986
470.0923, 2242.149
470.5744, 2149.253
471.0565, 2076.658
471.5387, 2001.367
472.0208, 1921.393
472.5029, 1841.169
472.9850, 1767.051
473.4671, 1699.546
473.9492, 1631.542
474.4314, 1557.624
474.9135, 1481.947
475.3956, 1420.718
475.8777, 1373.747
476.3598, 1332.063
476.8419, 1286.859
477.3241, 1241.366
477.8062, 1205.058
478.2883, 1183.794
478.7704, 1163.644
479.2525, 1125.215
479.7346, 1076.046
480.2168, 1036.358
480.6989, 1023.189
481.1810, 1017.508
481.6631, 1006.940
482.1452, 990.3882
482.6273, 970.3242
483.1095, 939.2768
483.5916, 909.2862
484.0737, 891.7359
484.5558, 902.6854
485.0379, 910.2973
485.5201, 907.9404
486.0022, 897.6370
486.4843, 888.2787
486.9664, 880.1133
487.4485, 872.6835
487.9306, 865.7260
488.4128, 859.2174
488.8949, 853.6063
489.3770, 848.8048
489.8591, 845.0103
490.3412, 842.3666
490.8233, 840.7850
491.3055, 840.7531
491.7876, 841.6168
492.2697, 844.5241
492.7518, 857.4016
493.2339, 880.2573
493.7160, 895.9403
494.1982, 884.2383
494.6803, 856.5757
495.1624, 842.3140
495.6445, 845.7903
496.1266, 856.4714
496.6087, 868.7352
497.0908, 880.3455
497.5729, 887.2429
498.0551, 878.9114
498.5372, 872.2672
499.0193, 881.4684
499.5014, 904.7092
499.9835, 925.8992
500.4656, 938.1652
500.9478, 946.3817
501.4299, 953.5068
501.9120, 958.6317
502.3941, 964.9329
502.8762, 970.2720
503.3583, 977.6148
503.8405, 992.0969
504.3226, 1019.305
504.8047, 1045.711
505.2868, 1069.724
505.7689, 1091.071
506.2510, 1102.312
506.7332, 1098.735
507.2153, 1095.082
507.6974, 1103.206
508.1795, 1123.274
508.6616, 1145.527
509.1437, 1169.197
509.6259, 1193.892
510.1080, 1219.706
510.5901, 1246.360
511.0722, 1271.906
511.5543, 1295.953
512.0364, 1317.917
512.5186, 1333.563
513.0007, 1343.547
513.4828, 1358.691
513.9649, 1390.905
514.4470, 1430.984
514.9291, 1469.155
515.4113, 1505.237
515.8934, 1534.935
516.3755, 1548.007
516.8576, 1554.184
517.3397, 1572.576
517.8218, 1620.652
518.3040, 1669.769
518.7861, 1709.888
519.2682, 1739.474
519.7503, 1771.331
520.2324, 1808.940
520.7145, 1845.998
521.1967, 1875.853
521.6788, 1891.027
522.1609, 1921.538
522.6430, 1974.222
523.1251, 2039.115
523.6072, 2092.910
524.0894, 2133.943
524.5715, 2179.048
525.0536, 2240.792
525.5357, 2311.593
526.0178, 2361.029
526.4999, 2388.594
526.9821, 2415.545
527.4642, 2463.385
527.9463, 2523.184
528.4284, 2575.708
528.9105, 2613.865
529.3926, 2653.018
529.8748, 2712.711
530.3569, 2782.374
530.8390, 2839.613
531.3211, 2852.636
531.8032, 2870.910
532.2853, 2925.022
532.7675, 3016.591
533.2496, 3096.707
533.7317, 3152.419
534.2138, 3196.034
534.6959, 3235.515
535.1780, 3262.301
535.6602, 3299.563
536.1423, 3354.480
536.6244, 3416.023
537.1065, 3464.450
537.5886, 3494.683
538.0707, 3527.619
538.5529, 3571.200
539.0350, 3622.943
539.5171, 3668.562
539.9992, 3707.309
540.4813, 3747.197
540.9634, 3800.385
541.4456, 3860.184
541.9277, 3903.304
542.4098, 3924.531
542.8919, 3937.392
543.3740, 3956.241
543.8561, 3976.708
544.3383, 3990.104
544.8204, 3988.726
545.3025, 3982.640
545.7846, 3979.767
546.2667, 3978.698
546.7488, 3970.074
547.2310, 3949.041
547.7131, 3921.127
548.1952, 3888.177
548.6773, 3847.228
549.1594, 3809.076
549.6415, 3777.516
550.1237, 3746.759
550.6058, 3711.112
551.0879, 3673.759
551.5700, 3623.194
552.0521, 3551.755
552.5342, 3467.562
553.0164, 3404.914
553.4985, 3367.375
553.9806, 3322.004
554.4627, 3238.899
554.9448, 3129.938
555.4269, 3048.682
555.9091, 2998.387
556.3912, 2954.516
556.8733, 2892.850
557.3554, 2821.456
557.8375, 2754.729
558.3196, 2696.887
558.8018, 2644.762
559.2839, 2603.185
559.7660, 2565.649
560.2481, 2515.256
560.7302, 2423.369
561.2123, 2337.314
561.6945, 2281.149
562.1766, 2261.052
562.6587, 2234.885
563.1408, 2193.209
563.6229, 2150.639
564.1050, 2116.383
564.5872, 2092.617
565.0693, 2072.026
565.5514, 2055.648
566.0335, 2040.525
566.5156, 2017.953
566.9977, 1986.796
567.4799, 1966.739
567.9620, 1967.617
568.4441, 1983.516
568.9262, 2000.611
569.4083, 2018.898
569.8904, 2035.833
570.3726, 2044.046
570.8547, 2052.095
571.3368, 2075.617
571.8189, 2119.995
572.3010, 2160.546
572.7831, 2173.454
573.2653, 2175.906
573.7474, 2188.848
574.2295, 2239.192
574.7116, 2278.243
575.1937, 2285.831
575.6758, 2270.173
576.1580, 2266.437
576.6401, 2295.516
577.1222, 2311.676
577.6042, 2295.945
578.0864, 2244.206
578.5685, 2200.073
579.0506, 2166.983
579.5327, 2132.607
580.0148, 2085.562
580.4969, 2026.217
580.9791, 1957.503
581.4612, 1876.697
581.9433, 1794.663
582.4254, 1733.094
582.9075, 1686.363
583.3896, 1637.296
583.8718, 1570.855
584.3539, 1503.797
584.8360, 1451.663
585.3181, 1413.274
585.8002, 1377.329
586.2823, 1338.223
586.7645, 1300.338
587.2466, 1267.608
587.7287, 1244.205
588.2108, 1215.703
588.6929, 1169.954
589.1750, 1124.069
589.6572, 1096.057
590.1393, 1096.559
590.6214, 1091.952
591.1035, 1077.043
591.5856, 1054.758
592.0677, 1031.666
592.5499, 1007.296
593.0320, 986.5827
593.5141, 972.4810
593.9962, 963.8233
594.4783, 957.6755
594.9604, 953.9742
595.4426, 950.6169
595.9247, 948.3137
596.4068, 944.4064
596.8889, 933.3533
597.3710, 910.1951
597.8531, 891.7797
598.3353, 893.0614
598.8174, 902.9418
599.2995, 906.2363
599.7816, 889.3951
600.2637, 875.9728
600.7458, 874.6929
601.2280, 882.3593
601.7101, 882.9490
602.1922, 871.4396
602.6743, 860.9520
603.1564, 856.9307
603.6385, 859.5300
604.1207, 864.2951
604.6028, 871.7231
605.0849, 879.4692
605.5670, 885.9067
606.0491, 890.8318
606.5313, 893.3328
607.0134, 893.3050
607.4955, 890.7454
607.9776, 880.9630
608.4597, 868.8746
608.9418, 864.6497
609.4240, 881.1044
609.9061, 899.2244
610.3882, 907.4519
610.8703, 907.5381
611.3524, 908.2370
611.8345, 910.6566
612.3167, 915.3848
612.7988, 923.5524
613.2809, 936.5483
613.7630, 946.9403
614.2451, 956.1649
614.7272, 961.0674
615.2094, 956.3660
615.6915, 940.1177
616.1736, 930.4605
616.6557, 929.5510
617.1378, 935.8504
617.6199, 950.4047
618.1021, 971.3110
618.5842, 988.3959
619.0663, 992.8923
619.5484, 995.5105
