##NAMES=Bariopharmacosiderite
##RRUFFID=R060571
##IDEAL CHEMISTRY=Ba_0.5_Fe^3+^_4_(As^5+^O_4_)_3_(OH)_4_&#183;5H_2_O
##LOCALITY=Barrus mine, Pyramid District, Washoe County, Nevada, USA
##OWNER=RRUFF
##SOURCE=Michael Scott
##DESCRIPTION=Colorless transparent distorted cubes.
##STATUS=The identification of this mineral has been confirmed only by single crystal X-ray diffraction.
##URL=rruff.info/R060571
153.347, 1794.813
153.829, 1568.402
154.311, 1481.654
154.793, 1509.020
155.276, 1531.218
155.758, 1550.439
156.240, 1560.404
156.722, 1555.835
157.204, 1542.274
157.686, 1527.886
158.168, 1517.929
158.650, 1511.501
159.133, 1501.523
159.615, 1476.750
160.097, 1460.753
160.579, 1464.432
161.061, 1480.025
161.543, 1493.318
162.025, 1493.508
162.507, 1482.050
162.989, 1482.786
163.472, 1511.468
163.954, 1537.548
164.436, 1558.394
164.918, 1571.380
165.400, 1570.003
165.882, 1545.314
166.364, 1498.535
166.846, 1492.138
167.329, 1579.845
167.811, 1653.931
168.293, 1677.538
168.775, 1663.986
169.257, 1647.062
169.739, 1652.599
170.221, 1680.940
170.703, 1696.130
171.185, 1683.992
171.667, 1674.008
172.150, 1675.728
172.632, 1687.280
173.114, 1702.943
173.596, 1719.499
174.078, 1737.240
174.560, 1744.323
175.042, 1732.978
175.525, 1720.296
176.007, 1710.738
176.489, 1704.722
176.971, 1700.821
177.453, 1697.059
177.935, 1692.973
178.417, 1703.974
178.899, 1755.231
179.381, 1794.372
179.863, 1792.912
180.346, 1760.608
180.828, 1727.038
181.310, 1714.390
181.792, 1723.156
182.274, 1736.362
182.756, 1762.961
183.238, 1784.454
183.721, 1791.917
184.203, 1787.439
184.685, 1777.494
185.167, 1765.625
185.649, 1751.692
186.131, 1748.395
186.613, 1754.835
187.095, 1769.890
187.577, 1798.906
188.059, 1837.322
188.542, 1873.338
189.024, 1899.335
189.506, 1915.079
189.988, 1922.400
190.470, 1913.211
190.952, 1905.425
191.434, 1913.595
191.917, 1930.753
192.399, 1933.399
192.881, 1900.417
193.363, 1835.182
193.845, 1814.248
194.327, 1876.866
194.809, 1934.444
195.291, 1947.279
195.773, 1925.660
196.255, 1901.039
196.738, 1893.179
197.220, 1901.003
197.702, 1909.351
198.184, 1918.872
198.666, 1928.176
199.148, 1936.866
199.630, 1944.958
200.112, 1953.419
200.595, 1963.727
201.077, 1974.609
201.559, 1974.286
202.041, 1950.164
202.523, 1930.949
203.005, 1929.967
203.487, 1941.095
203.969, 1951.320
204.452, 1953.963
204.934, 1949.275
205.416, 1937.615
205.898, 1911.724
206.380, 1888.363
206.862, 1870.260
207.344, 1857.977
207.826, 1853.679
208.308, 1859.380
208.791, 1872.139
209.273, 1879.940
209.755, 1885.947
210.237, 1884.349
210.719, 1864.936
211.201, 1838.318
211.683, 1823.581
212.165, 1830.672
212.648, 1851.076
213.130, 1858.991
213.612, 1845.751
214.094, 1831.816
214.576, 1816.691
215.058, 1803.447
215.540, 1797.484
216.022, 1801.248
216.504, 1811.005
216.986, 1818.044
217.469, 1820.679
217.951, 1823.057
218.433, 1823.374
218.915, 1799.080
219.397, 1834.370
219.879, 1855.196
220.361, 1862.337
220.844, 1814.799
221.326, 1837.867
221.808, 1832.639
222.290, 1826.251
222.772, 1859.255
223.254, 1819.671
223.736, 1852.051
224.218, 1855.704
224.700, 1872.505
225.182, 1860.835
225.665, 1857.960
226.147, 1883.563
226.629, 1893.397
227.111, 1878.450
227.593, 1896.087
228.075, 1855.507
228.557, 1870.745
229.040, 1845.194
229.522, 1882.240
230.004, 1904.090
230.486, 1911.563
230.968, 1861.592
231.450, 1885.798
231.932, 1880.277
232.414, 1873.537
232.896, 1908.182
233.378, 1866.566
233.861, 1900.555
234.343, 1904.365
234.825, 1921.987
235.307, 1909.698
235.789, 1906.648
236.271, 1933.517
236.753, 1943.820
237.236, 1928.089
237.718, 1946.589
238.200, 1903.928
238.682, 1914.937
239.164, 1949.101
239.646, 1924.589
240.128, 1918.322
240.610, 1918.810
241.092, 1917.528
241.574, 1906.620
242.057, 1902.392
242.539, 1915.925
243.021, 1937.776
243.503, 1951.758
243.985, 1947.850
244.467, 1930.077
244.949, 1917.746
245.432, 1912.846
245.914, 1911.839
246.396, 1913.600
246.878, 1919.132
247.360, 1931.391
247.842, 1951.857
248.324, 1976.065
248.806, 1992.146
249.288, 2000.059
249.770, 1998.551
250.253, 1971.722
250.735, 1944.948
251.217, 1946.654
251.699, 1984.963
252.181, 2035.113
252.663, 2052.283
253.145, 2015.036
253.627, 1996.084
254.110, 2018.571
254.592, 2046.839
255.074, 2056.782
255.556, 2044.783
256.038, 2024.817
256.520, 2011.021
257.002, 2002.647
257.484, 2004.315
257.966, 2030.931
258.449, 2056.197
258.931, 2064.624
259.413, 2058.417
259.895, 2052.965
260.377, 2066.135
260.859, 2098.240
261.341, 2115.127
261.823, 2104.637
262.306, 2091.741
262.788, 2085.713
263.270, 2086.187
263.752, 2090.938
264.234, 2099.655
264.716, 2111.596
265.198, 2124.607
265.680, 2142.741
266.163, 2154.134
266.645, 2144.992
267.127, 2127.780
267.609, 2123.160
268.091, 2145.028
268.573, 2179.203
269.055, 2199.734
269.537, 2204.424
270.019, 2204.468
270.501, 2204.225
270.984, 2202.197
271.466, 2195.196
271.948, 2179.775
272.430, 2165.201
272.912, 2165.742
273.394, 2181.488
273.876, 2186.706
274.358, 2161.914
274.841, 2130.110
275.323, 2121.814
275.805, 2142.624
276.287, 2166.985
276.769, 2179.883
277.251, 2183.086
277.733, 2182.757
278.215, 2179.647
278.698, 2174.611
279.180, 2169.495
279.662, 2164.624
280.144, 2150.999
280.626, 2157.803
281.108, 2159.648
281.590, 2156.801
282.072, 2135.205
282.555, 2137.818
283.037, 2130.730
283.519, 2123.244
284.001, 2098.280
284.483, 2121.904
284.965, 2133.734
285.447, 2134.403
285.929, 2090.483
286.411, 2104.141
286.893, 2094.724
287.376, 2084.361
287.858, 2106.122
288.340, 2068.688
288.822, 2086.789
289.304, 2085.014
289.786, 2098.163
290.268, 2102.857
290.750, 2085.115
291.233, 2053.310
291.715, 2039.581
292.197, 2057.575
292.679, 2075.363
293.161, 2084.991
293.643, 2093.367
294.125, 2109.735
294.607, 2137.268
295.090, 2171.100
295.572, 2203.022
296.054, 2234.794
296.536, 2260.430
297.018, 2274.799
297.500, 2286.964
297.982, 2304.779
298.464, 2328.413
298.946, 2350.512
299.429, 2361.153
299.911, 2355.464
300.393, 2364.868
300.875, 2402.278
301.357, 2441.820
301.839, 2470.560
302.321, 2493.251
302.803, 2525.116
303.285, 2580.719
303.768, 2654.298
304.250, 2703.623
304.732, 2709.284
305.214, 2717.013
305.696, 2739.176
306.178, 2770.280
306.660, 2804.376
307.142, 2839.671
307.625, 2873.805
308.107, 2901.846
308.589, 2921.667
309.071, 2942.519
309.553, 2970.906
310.035, 2999.009
310.517, 3022.519
310.999, 3040.906
311.482, 3050.319
311.964, 3047.434
312.446, 3032.381
312.928, 3004.705
313.410, 2952.313
313.892, 2902.865
314.374, 2885.533
314.856, 2895.693
315.338, 2898.437
315.820, 2876.876
316.303, 2837.478
316.785, 2787.396
317.267, 2724.052
317.749, 2667.233
318.231, 2639.274
318.713, 2631.851
319.195, 2613.126
319.677, 2572.666
320.160, 2524.824
320.642, 2479.130
321.124, 2435.532
321.606, 2390.854
322.088, 2341.698
322.570, 2292.125
323.052, 2256.614
323.534, 2247.921
324.017, 2231.950
324.499, 2190.046
324.981, 2137.535
325.463, 2097.856
325.945, 2078.392
326.427, 2069.809
326.909, 2057.993
327.391, 2041.516
327.874, 2024.627
328.356, 2000.336
328.838, 1980.731
329.320, 1978.191
329.802, 1990.761
330.284, 2004.035
330.766, 2004.426
331.248, 1991.037
331.730, 1984.131
332.212, 1989.804
332.695, 1995.556
333.177, 2000.613
333.659, 2003.099
334.141, 1999.967
334.623, 1989.287
335.105, 1973.431
335.587, 1959.709
336.069, 1951.892
336.552, 1938.274
337.034, 1908.882
337.516, 1878.236
337.998, 1857.729
338.480, 1850.023
338.962, 1850.839
339.444, 1858.493
339.926, 1873.273
340.409, 1883.582
340.891, 1886.683
341.373, 1886.169
341.855, 1885.870
342.337, 1884.907
342.819, 1879.234
343.301, 1860.553
343.783, 1837.145
344.265, 1828.833
344.748, 1839.363
345.230, 1847.884
345.712, 1838.132
346.194, 1817.195
346.676, 1802.140
347.158, 1798.986
347.640, 1797.421
348.122, 1785.561
348.604, 1768.265
349.087, 1766.199
349.569, 1792.085
350.051, 1828.445
350.533, 1837.252
351.015, 1806.472
351.497, 1785.070
351.979, 1786.653
352.461, 1798.539
352.944, 1810.782
353.426, 1820.506
353.908, 1823.279
354.390, 1812.547
354.872, 1784.503
355.354, 1770.806
355.836, 1782.181
356.318, 1794.035
356.801, 1793.369
357.283, 1785.857
357.765, 1785.721
358.247, 1802.205
358.729, 1828.316
359.211, 1838.439
359.693, 1816.649
360.175, 1805.550
360.657, 1823.761
361.140, 1845.988
361.622, 1847.184
362.104, 1822.771
362.586, 1793.593
363.068, 1784.649
363.550, 1797.319
364.032, 1806.227
364.514, 1807.637
364.996, 1806.883
365.479, 1805.285
365.961, 1803.942
366.443, 1806.101
366.925, 1816.896
367.407, 1830.795
367.889, 1837.644
368.371, 1836.848
368.853, 1833.021
369.336, 1824.839
369.818, 1816.722
370.300, 1818.294
370.782, 1837.338
371.264, 1852.546
371.746, 1846.502
372.228, 1828.321
372.710, 1819.926
373.193, 1828.447
373.675, 1844.150
374.157, 1853.410
374.639, 1853.211
375.121, 1857.804
375.603, 1876.109
376.085, 1848.899
376.567, 1879.190
377.049, 1895.523
377.531, 1898.648
378.014, 1849.007
378.496, 1867.503
378.978, 1858.692
379.460, 1848.762
379.942, 1876.848
380.424, 1834.882
380.906, 1862.364
381.388, 1862.124
381.871, 1874.572
382.353, 1859.545
382.835, 1853.005
383.317, 1873.948
383.799, 1879.672
384.281, 1861.483
384.763, 1874.737
385.245, 1831.812
385.728, 1838.185
386.210, 1865.828
386.692, 1849.020
387.174, 1837.985
387.656, 1840.127
388.138, 1863.324
388.620, 1879.410
389.102, 1868.047
389.584, 1842.308
390.067, 1823.095
390.549, 1811.518
391.031, 1808.412
391.513, 1819.425
391.995, 1839.381
392.477, 1855.081
392.959, 1862.933
393.441, 1865.421
393.923, 1864.073
394.406, 1856.778
394.888, 1856.548
395.370, 1876.071
395.852, 1892.873
396.334, 1883.772
396.816, 1856.281
397.298, 1841.132
397.780, 1861.161
398.263, 1906.448
398.745, 1924.394
399.227, 1878.289
399.709, 1851.806
400.191, 1866.518
400.673, 1896.548
401.155, 1920.032
401.637, 1930.847
402.120, 1933.010
402.602, 1929.817
403.084, 1920.793
403.566, 1911.519
404.048, 1898.548
404.530, 1890.110
405.012, 1888.988
405.494, 1895.079
405.976, 1908.741
406.459, 1935.458
406.941, 1964.540
407.423, 1980.611
407.905, 1983.677
408.387, 1981.200
408.869, 1973.736
409.351, 1964.288
409.833, 1956.921
410.315, 1950.402
410.798, 1950.035
411.280, 1960.092
411.762, 1976.222
412.244, 1996.400
412.726, 2019.378
413.208, 2035.023
413.690, 2031.961
414.172, 2009.580
414.655, 1999.593
415.137, 2008.545
415.619, 2020.206
416.101, 2032.908
416.583, 2044.208
417.065, 2050.347
417.547, 2049.822
418.029, 2046.359
418.512, 2047.352
418.994, 2056.123
419.476, 2059.100
419.958, 2045.568
420.440, 2034.608
420.922, 2038.668
421.404, 2054.388
421.886, 2068.166
422.368, 2069.525
422.850, 2064.048
423.333, 2065.403
423.815, 2074.917
424.297, 2084.725
424.779, 2092.225
425.261, 2097.512
425.743, 2101.714
426.225, 2106.287
426.707, 2105.328
427.190, 2091.021
427.672, 2070.635
428.154, 2055.148
428.636, 2046.616
429.118, 2046.538
429.600, 2058.921
430.082, 2085.285
430.564, 2098.716
431.047, 2084.234
431.529, 2074.543
432.011, 2085.555
432.493, 2109.201
432.975, 2134.157
433.457, 2155.531
433.939, 2169.199
434.421, 2164.495
434.903, 2131.724
435.386, 2107.397
435.868, 2092.971
436.350, 2087.742
436.832, 2098.089
437.314, 2118.893
437.796, 2133.970
438.278, 2129.551
438.760, 2114.876
439.242, 2111.888
439.725, 2122.383
440.207, 2134.261
440.689, 2145.923
441.171, 2153.715
441.653, 2149.547
442.135, 2126.959
442.617, 2115.256
443.099, 2137.480
443.582, 2174.302
444.064, 2197.483
444.546, 2202.850
445.028, 2201.132
445.510, 2200.507
445.992, 2200.979
446.474, 2205.024
446.956, 2219.179
447.439, 2228.787
447.921, 2226.312
448.403, 2218.338
448.885, 2212.490
449.367, 2211.568
449.849, 2215.105
450.331, 2222.895
450.813, 2235.416
451.295, 2249.970
451.778, 2273.777
452.260, 2291.370
452.742, 2290.043
453.224, 2277.554
453.706, 2271.919
454.188, 2282.916
454.670, 2301.791
455.152, 2320.181
455.634, 2337.694
456.117, 2344.987
456.599, 2333.563
457.081, 2317.851
457.563, 2322.050
458.045, 2347.954
458.527, 2370.688
459.009, 2382.550
459.491, 2391.417
459.974, 2402.225
460.456, 2415.955
460.938, 2433.545
461.420, 2455.326
461.902, 2481.647
462.384, 2514.801
462.866, 2573.348
463.348, 2610.491
463.831, 2603.288
464.313, 2588.655
464.795, 2595.339
465.277, 2626.034
465.759, 2664.514
466.241, 2699.548
466.723, 2730.849
467.205, 2754.700
467.687, 2766.508
468.169, 2783.350
468.652, 2816.545
469.134, 2858.768
469.616, 2901.565
470.098, 2946.318
470.580, 2985.466
471.062, 3001.690
471.544, 3012.690
472.026, 3060.501
472.509, 3153.218
472.991, 3243.691
473.473, 3283.403
473.955, 3270.483
474.437, 3289.555
474.919, 3306.830
475.401, 3336.806
475.883, 3445.550
476.366, 3535.176
476.848, 3606.705
477.330, 3605.954
477.812, 3698.551
478.294, 3753.734
478.776, 3827.433
479.258, 3867.917
479.740, 3903.806
480.222, 3951.993
480.705, 4033.109
481.187, 4129.231
481.669, 4204.354
482.151, 4237.833
482.633, 4262.122
483.115, 4309.820
483.597, 4376.170
484.079, 4441.943
484.561, 4502.742
485.044, 4557.504
485.526, 4602.685
486.008, 4635.919
486.490, 4675.236
486.972, 4732.218
487.454, 4783.989
487.936, 4812.186
488.418, 4827.138
488.901, 4850.770
489.383, 4893.224
489.865, 4944.111
490.347, 4983.322
490.829, 5006.826
491.311, 5031.856
491.793, 5077.052
492.275, 5106.710
492.758, 5097.178
493.240, 5057.731
493.722, 5013.257
494.204, 4969.753
494.686, 4933.732
495.168, 4923.924
495.650, 4936.336
496.132, 4926.037
496.614, 4871.385
497.097, 4801.035
497.579, 4757.948
498.061, 4748.319
498.543, 4724.704
499.025, 4671.687
499.507, 4613.478
499.989, 4565.740
500.471, 4525.894
500.953, 4485.119
501.436, 4438.750
501.918, 4388.112
502.400, 4335.701
502.882, 4280.732
503.364, 4226.042
503.846, 4164.429
504.328, 4109.141
504.810, 4074.286
505.293, 4052.688
505.775, 4021.765
506.257, 3965.226
506.739, 3898.462
507.221, 3843.858
507.703, 3800.401
508.185, 3756.738
508.667, 3707.695
509.150, 3659.473
509.632, 3623.542
510.114, 3603.510
510.596, 3575.150
511.078, 3521.219
511.560, 3472.065
512.042, 3456.622
512.524, 3461.478
513.006, 3450.464
513.489, 3404.572
513.971, 3342.984
514.453, 3308.272
514.935, 3312.790
515.417, 3305.371
515.899, 3270.986
516.381, 3233.708
516.863, 3202.594
517.346, 3178.206
517.828, 3160.902
518.310, 3156.708
518.792, 3152.717
519.274, 3128.872
519.756, 3089.295
520.238, 3059.250
520.720, 3047.034
521.202, 3045.696
521.685, 3047.312
522.167, 3052.698
522.649, 3057.531
523.131, 3053.578
523.613, 3057.333
524.095, 3059.197
524.577, 3075.323
525.059, 3087.987
525.541, 3097.374
526.024, 3093.675
526.506, 3106.645
526.988, 3142.661
527.470, 3175.789
527.952, 3210.202
528.434, 3232.469
528.916, 3232.047
529.398, 3215.723
529.880, 3197.918
530.363, 3183.729
530.845, 3167.424
531.327, 3145.290
531.809, 3117.746
532.291, 3089.296
532.773, 3061.592
533.255, 3017.886
533.737, 2934.272
534.219, 2806.123
534.702, 2716.861
535.184, 2690.778
535.666, 2671.744
536.148, 2643.625
536.630, 2616.284
537.112, 2604.400
537.594, 2610.970
538.076, 2621.336
538.559, 2618.964
539.041, 2605.765
539.523, 2598.059
540.005, 2599.964
540.487, 2596.005
540.969, 2574.877
541.451, 2542.863
541.933, 2510.353
542.416, 2467.784
542.898, 2439.166
543.380, 2449.289
543.862, 2450.010
544.344, 2441.829
544.826, 2398.102
545.308, 2400.278
545.790, 2384.059
546.273, 2367.084
546.755, 2365.594
547.237, 2344.875
547.719, 2357.911
548.201, 2362.753
548.683, 2359.842
549.165, 2325.957
549.647, 2332.069
550.130, 2322.151
550.612, 2311.577
551.094, 2323.318
551.576, 2293.938
552.058, 2305.325
552.540, 2300.439
553.022, 2291.780
553.504, 2246.031
553.986, 2225.369
554.469, 2241.532
554.951, 2245.922
555.433, 2234.593
555.915, 2215.460
556.397, 2183.693
556.879, 2149.006
557.361, 2129.709
557.843, 2133.929
558.325, 2147.372
558.808, 2147.536
559.290, 2133.775
559.772, 2126.127
560.254, 2131.070
560.736, 2133.968
561.218, 2119.018
561.700, 2095.297
562.182, 2083.672
562.664, 2099.358
563.147, 2107.548
563.629, 2082.212
564.111, 2042.002
564.593, 2012.552
565.075, 1998.700
565.557, 1995.501
566.039, 2000.813
566.521, 2012.537
567.003, 2011.548
567.486, 1991.792
567.968, 1969.051
568.450, 1944.786
568.932, 1919.749
569.414, 1890.014
569.896, 1857.626
570.378, 1837.036
570.860, 1843.928
571.343, 1864.339
571.825, 1881.466
572.307, 1894.299
572.789, 1893.429
573.271, 1871.731
573.753, 1844.065
574.235, 1837.164
574.717, 1866.658
575.200, 1865.451
575.682, 1802.079
576.164, 1742.659
576.646, 1720.529
577.128, 1722.011
577.610, 1722.664
578.092, 1713.165
578.574, 1697.486
579.057, 1676.842
579.539, 1652.603
580.021, 1640.878
580.503, 1648.075
580.985, 1651.744
581.467, 1634.678
581.949, 1602.989
582.431, 1578.479
582.913, 1565.376
583.396, 1551.973
583.878, 1527.976
584.360, 1506.812
584.842, 1507.518
585.324, 1526.585
585.806, 1540.917
586.288, 1533.079
586.770, 1511.646
587.252, 1507.501
587.735, 1530.144
588.217, 1533.535
588.699, 1489.426
589.181, 1442.793
589.663, 1430.717
590.145, 1447.301
590.627, 1462.315
591.109, 1467.897
591.591, 1468.080
592.074, 1465.119
592.556, 1459.020
593.038, 1448.787
593.520, 1434.374
594.002, 1418.957
594.484, 1405.375
594.966, 1393.519
595.448, 1390.561
595.930, 1407.625
596.413, 1416.933
596.895, 1410.736
597.377, 1395.187
597.859, 1371.706
598.341, 1341.621
598.823, 1319.226
599.305, 1318.946
599.787, 1328.193
600.270, 1329.481
600.752, 1323.038
601.234, 1313.325
601.716, 1301.076
602.198, 1291.387
602.680, 1294.771
603.162, 1320.298
603.644, 1329.290
604.127, 1308.335
604.609, 1286.929
605.091, 1276.604
605.573, 1272.644
606.055, 1266.865
606.537, 1256.575
607.019, 1246.061
607.501, 1241.124
607.984, 1239.037
608.466, 1231.435
608.948, 1217.336
609.430, 1202.141
609.912, 1182.217
610.394, 1187.714
610.876, 1187.037
611.358, 1180.525
611.840, 1150.685
612.323, 1150.967
612.805, 1139.177
613.287, 1126.894
613.769, 1131.412
614.251, 1104.966
614.733, 1109.221
615.215, 1101.220
615.697, 1098.828
616.179, 1084.291
616.662, 1073.503
617.144, 1064.587
617.626, 1068.236
618.108, 1086.685
618.590, 1115.098
619.072, 1128.045
619.554, 1114.017
620.036, 1101.481
620.518, 1097.745
621.001, 1095.060
621.483, 1080.551
621.965, 1059.676
622.447, 1055.568
622.929, 1088.059
623.411, 1133.530
623.893, 1144.247
624.375, 1119.912
624.857, 1085.092
625.340, 1034.870
625.822, 997.018
626.304, 1004.750
626.786, 1052.356
627.268, 1077.545
627.750, 1060.132
628.232, 1044.543
628.714, 1049.213
629.197, 1058.570
629.679, 1052.042
630.161, 1030.910
630.643, 1016.319
631.125, 1026.932
631.607, 1051.965
632.089, 1062.525
632.571, 1057.450
633.054, 1048.767
633.536, 1035.842
634.018, 1025.917
634.500, 1031.729
634.982, 1051.030
635.464, 1053.899
635.946, 1015.251
636.428, 986.959
636.911, 996.193
637.393, 1022.558
637.875, 1046.163
638.357, 1060.949
638.839, 1063.551
639.321, 1048.095
639.803, 1020.677
640.285, 1000.854
640.768, 988.992
641.250, 982.894
641.732, 983.872
642.214, 987.810
642.696, 990.537
643.178, 992.112
643.660, 993.906
644.142, 999.695
644.624, 1001.531
645.107, 995.143
645.589, 983.467
646.071, 966.217
646.553, 945.789
647.035, 933.632
647.517, 943.250
647.999, 966.838
648.481, 977.375
648.963, 973.799
649.446, 966.955
649.928, 958.431
650.410, 950.242
650.892, 945.810
651.374, 945.180
651.856, 940.610
652.338, 923.453
652.820, 911.883
653.302, 920.577
653.785, 934.512
654.267, 932.905
654.749, 914.140
655.231, 895.763
655.713, 891.724
656.195, 899.321
656.677, 916.571
657.159, 944.793
657.641, 953.491
658.124, 926.088
658.606, 891.332
659.088, 882.365
659.570, 901.149
660.052, 913.886
660.534, 920.271
661.016, 921.014
661.498, 890.742
661.981, 922.356
662.463, 938.947
662.945, 941.324
663.427, 886.911
663.909, 905.830
664.391, 895.361
664.873, 883.687
665.355, 912.927
665.838, 866.774
666.320, 895.366
666.802, 894.120
667.284, 906.530
667.766, 889.371
668.248, 881.345
668.730, 877.870
669.212, 879.282
669.695, 890.956
670.177, 901.219
670.659, 895.904
671.141, 877.740
671.623, 864.735
672.105, 869.228
672.587, 882.063
673.069, 893.043
673.551, 901.749
674.034, 905.474
674.516, 903.389
674.998, 899.848
675.480, 899.561
675.962, 901.487
676.444, 895.059
676.926, 861.060
677.408, 849.186
677.890, 889.639
678.373, 930.564
678.855, 929.715
679.337, 897.323
679.819, 876.236
