##NAMES=Barlowite
##RRUFFID=R110007
##IDEAL CHEMISTRY=Cu^2+^_4_BrF(OH)_6_
##LOCALITY=Southwest mine, Bisbee, Cochise County, Arizona, USA
##OWNER=RRUFF
##SOURCE=Marcus Origlieri
##DESCRIPTION=Blue platy crystals associated with cuprite and brochantite
##STATUS=The identification of this mineral has been confirmed by single-crystal X-ray diffraction.
##URL=rruff.info/R110007
186.0123, 701.7757
186.4944, 701.9623
186.9765, 700.3588
187.4586, 696.4460
187.9407, 692.5899
188.4228, 693.0387
188.9050, 697.3267
189.3871, 700.6356
189.8692, 699.5705
190.3513, 695.1117
190.8334, 691.9959
191.3155, 690.3912
191.7977, 690.3342
192.2798, 693.2170
192.7619, 699.0424
193.2440, 702.9211
193.7261, 700.2850
194.2082, 692.0284
194.6904, 689.3259
195.1725, 694.1595
195.6546, 701.9671
196.1367, 704.1148
196.6188, 700.3591
197.1009, 694.8495
197.5831, 688.6046
198.0652, 681.5744
198.5473, 678.2532
199.0294, 679.7763
199.5115, 683.8118
199.9937, 685.4189
200.4758, 684.1953
200.9579, 682.9754
201.4400, 683.6736
201.9221, 686.5029
202.4042, 688.0408
202.8864, 687.7493
203.3685, 686.4055
203.8506, 685.7322
204.3327, 685.7516
204.8148, 686.3381
205.2969, 687.9566
205.7791, 691.0148
206.2612, 691.8134
206.7433, 689.1725
207.2254, 684.8879
207.7075, 684.1303
208.1896, 688.2493
208.6718, 691.9655
209.1539, 691.6776
209.6360, 686.0889
210.1181, 683.3348
210.6002, 684.6823
211.0823, 688.6667
211.5645, 691.3604
212.0466, 692.8133
212.5287, 692.9219
213.0108, 691.0972
213.4929, 686.3606
213.9750, 683.6550
214.4572, 683.8925
214.9393, 686.0715
215.4214, 687.1824
215.9035, 686.7808
216.3856, 686.2118
216.8678, 686.3149
217.3499, 687.4933
217.8320, 687.9422
218.3141, 687.3444
218.7962, 686.0064
219.2783, 684.7623
219.7605, 683.2512
220.2426, 682.4647
220.7247, 683.2754
221.2068, 686.7796
221.6889, 688.5746
222.1710, 687.6403
222.6532, 685.0723
223.1353, 684.4855
223.6174, 686.9571
224.0995, 689.6230
224.5816, 690.8193
225.0637, 689.3747
225.5459, 689.8103
226.0280, 693.9924
226.5101, 699.7809
226.9922, 699.8126
227.4743, 690.0073
227.9564, 680.8730
228.4386, 677.8082
228.9207, 683.8582
229.4028, 688.7704
229.8849, 692.5673
230.3670, 695.0852
230.8492, 695.9670
231.3313, 695.1834
231.8134, 692.8089
232.2955, 688.1506
232.7776, 678.2890
233.2597, 673.4235
233.7419, 675.8699
234.2240, 682.7277
234.7061, 686.2169
235.1882, 684.5267
235.6703, 682.2698
236.1524, 681.5356
236.6346, 683.6013
237.1167, 684.1643
237.5988, 682.3012
238.0809, 679.2761
238.5630, 678.1361
239.0451, 679.9823
239.5273, 682.0576
240.0094, 683.2074
240.4915, 682.9664
240.9736, 682.9574
241.4557, 683.1619
241.9378, 683.5823
242.4200, 684.3254
242.9021, 685.9041
243.3842, 686.9973
243.8663, 687.0170
244.3484, 685.5458
244.8306, 684.0825
245.3127, 681.8025
245.7948, 679.9689
246.2769, 681.4163
246.7590, 688.7613
247.2411, 694.9016
247.7233, 696.9042
248.2054, 693.1459
248.6875, 691.5165
249.1696, 693.3903
249.6517, 696.4954
250.1338, 696.8845
250.6160, 692.7640
251.0981, 689.1507
251.5802, 687.6497
252.0623, 688.5471
252.5444, 690.0592
253.0265, 692.3170
253.5087, 695.0792
253.9908, 698.1693
254.4729, 702.3661
254.9550, 705.3272
255.4371, 705.8516
255.9192, 703.3969
256.4014, 703.1620
256.8835, 706.6457
257.3656, 710.8625
257.8477, 711.9550
258.3298, 708.2948
258.8120, 705.1884
259.2941, 704.2678
259.7762, 705.7357
260.2583, 705.8033
260.7404, 704.2501
261.2225, 701.5518
261.7047, 697.9064
262.1868, 692.6630
262.6689, 688.0720
263.1510, 684.3497
263.6331, 681.5384
264.1152, 680.6682
264.5974, 682.5121
265.0795, 685.1140
265.5616, 686.7607
266.0437, 687.5895
266.5258, 686.9482
267.0079, 683.8375
267.4901, 678.8188
267.9722, 677.5679
268.4543, 681.5372
268.9364, 686.3821
269.4185, 688.3574
269.9006, 686.7142
270.3828, 685.5986
270.8649, 686.0092
271.3470, 687.3837
271.8291, 686.8046
272.3112, 683.6042
272.7933, 680.1296
273.2755, 678.1542
273.7576, 677.8597
274.2397, 677.6514
274.7218, 677.3964
275.2039, 677.0647
275.6860, 676.5339
276.1682, 675.7364
276.6503, 674.9762
277.1324, 674.4653
277.6145, 674.2347
278.0966, 674.0613
278.5787, 673.9851
279.0609, 673.9368
279.5430, 673.6030
280.0251, 672.8987
280.5072, 672.5767
280.9893, 673.3642
281.4715, 675.2538
281.9536, 676.4272
282.4357, 676.7800
282.9178, 676.4474
283.3999, 675.3743
283.8820, 673.4923
284.3642, 671.8719
284.8463, 670.9070
285.3284, 670.5827
285.8105, 671.0344
286.2926, 672.3950
286.7747, 674.0317
287.2569, 675.1695
287.7390, 675.8049
288.2211, 676.0497
288.7032, 675.2452
289.1853, 673.9755
289.6674, 675.6990
290.1496, 680.9509
290.6317, 685.8051
291.1138, 684.3323
291.5959, 677.6233
292.0780, 673.3777
292.5602, 675.3768
293.0423, 681.0634
293.5244, 684.0177
294.0065, 684.1631
294.4886, 683.0712
294.9707, 681.4774
295.4529, 679.6726
295.9350, 678.8907
296.4171, 680.1786
296.8992, 681.9543
297.3813, 681.0640
297.8634, 677.7086
298.3456, 674.0533
298.8277, 670.9950
299.3098, 668.9012
299.7919, 669.0095
300.2740, 672.4796
300.7561, 676.6351
301.2383, 677.7213
301.7204, 676.2539
302.2025, 674.4828
302.6846, 673.9573
303.1667, 673.9875
303.6488, 673.4233
304.1310, 671.9227
304.6131, 670.3572
305.0952, 669.6902
305.5773, 669.6774
306.0594, 669.6596
306.5415, 668.8410
307.0237, 668.0564
307.5058, 668.2879
307.9879, 669.7194
308.4700, 671.5156
308.9521, 674.0203
309.4343, 676.3578
309.9164, 677.0679
310.3985, 673.7935
310.8806, 669.8245
311.3627, 667.6719
311.8448, 667.4427
312.3270, 667.8606
312.8091, 668.8510
313.2912, 669.8370
313.7733, 670.1379
314.2554, 668.0358
314.7375, 666.4650
315.2197, 667.6217
315.7018, 671.1508
316.1839, 673.9254
316.6660, 673.5115
317.1481, 672.2845
317.6302, 672.2484
318.1124, 675.4042
318.5945, 677.9196
319.0766, 678.1147
319.5587, 676.5471
320.0408, 675.1678
320.5229, 675.0009
321.0051, 674.8988
321.4872, 674.1482
321.9693, 672.1151
322.4514, 670.4358
322.9335, 669.6572
323.4156, 669.4374
323.8978, 669.1178
324.3799, 667.6624
324.8620, 666.8923
325.3441, 667.6631
325.8262, 670.6284
326.3083, 673.2377
326.7905, 675.8397
327.2726, 677.8171
327.7547, 678.3844
328.2368, 676.3969
328.7189, 674.1685
329.2010, 671.5788
329.6832, 668.4239
330.1653, 667.4188
330.6474, 669.9092
331.1295, 673.5810
331.6116, 676.7198
332.0938, 680.1116
332.5759, 681.6523
333.0580, 680.3773
333.5401, 676.7301
334.0222, 674.0985
334.5043, 672.5966
334.9865, 671.9123
335.4686, 671.8217
335.9507, 672.2084
336.4328, 673.7122
336.9149, 677.2213
337.3970, 681.4796
337.8792, 682.7006
338.3613, 679.8516
338.8434, 676.9525
339.3255, 675.9672
339.8076, 677.2261
340.2898, 677.8525
340.7719, 677.7102
341.2540, 677.2028
341.7361, 676.7181
342.2182, 676.1973
342.7003, 676.4043
343.1825, 677.9578
343.6646, 680.5771
344.1467, 682.2850
344.6288, 683.0371
345.1109, 683.1670
345.5930, 682.5851
346.0752, 681.4301
346.5573, 681.1068
347.0394, 682.1591
347.5215, 684.0536
348.0036, 685.9137
348.4857, 687.7114
348.9679, 688.9323
349.4500, 688.5794
349.9321, 687.3118
350.4142, 687.2905
350.8963, 689.2799
351.3784, 691.4935
351.8606, 691.8596
352.3427, 690.5217
352.8248, 687.9711
353.3069, 682.3617
353.7890, 676.5501
354.2711, 675.1403
354.7533, 678.9193
355.2354, 683.1104
355.7175, 682.7298
356.1996, 680.0362
356.6817, 678.9674
357.1638, 683.8118
357.6460, 688.9890
358.1281, 689.6002
358.6102, 685.9539
359.0923, 682.5463
359.5744, 682.0795
360.0565, 683.0379
360.5387, 684.0056
361.0208, 685.0876
361.5029, 685.4896
361.9850, 684.2347
362.4671, 681.9013
362.9492, 680.2821
363.4314, 680.7062
363.9135, 681.5016
364.3956, 681.6805
364.8777, 680.7069
365.3598, 680.0892
365.8419, 680.3701
366.3241, 681.1506
366.8062, 681.8324
367.2883, 682.1096
367.7704, 682.4925
368.2526, 683.2944
368.7347, 684.7097
369.2168, 685.3911
369.6989, 684.1862
370.1810, 682.9424
370.6631, 683.2393
371.1453, 686.6078
371.6274, 689.2482
372.1095, 690.6636
372.5916, 690.9749
373.0737, 690.9944
373.5558, 690.8907
374.0380, 690.2439
374.5201, 688.5057
375.0022, 684.9075
375.4843, 682.8641
375.9664, 682.7443
376.4485, 684.0057
376.9307, 685.9691
377.4128, 689.0015
377.8949, 691.0616
378.3770, 690.6588
378.8591, 688.0009
379.3412, 687.7537
379.8234, 690.4518
380.3055, 693.6805
380.7876, 694.3227
381.2697, 692.5597
381.7518, 691.5425
382.2339, 692.3917
382.7161, 694.2902
383.1982, 695.4637
383.6803, 695.9150
384.1624, 695.9264
384.6445, 695.4493
385.1266, 694.6945
385.6088, 694.4316
386.0909, 695.1058
386.5730, 695.2682
387.0551, 692.2084
387.5372, 687.0897
388.0193, 683.1932
388.5015, 682.2766
388.9836, 683.4706
389.4657, 687.0992
389.9478, 693.3057
390.4299, 697.4566
390.9120, 694.3609
391.3942, 688.0053
391.8763, 683.3458
392.3584, 683.1401
392.8405, 684.0369
393.3226, 684.3845
393.8047, 684.3836
394.2869, 684.9454
394.7690, 687.8380
395.2511, 690.4445
395.7332, 690.9996
396.2154, 688.2333
396.6975, 685.5148
397.1796, 683.0200
397.6617, 681.0790
398.1438, 680.2551
398.6259, 681.6149
399.1081, 683.1088
399.5902, 684.2800
400.0723, 685.1356
400.5544, 685.5379
401.0365, 685.3044
401.5186, 684.7336
402.0008, 683.9881
402.4829, 682.5436
402.9650, 681.9485
403.4471, 682.8455
403.9292, 684.7116
404.4113, 685.1500
404.8935, 683.4749
405.3756, 681.9560
405.8577, 682.0103
406.3398, 683.9534
406.8219, 685.2330
407.3040, 685.9401
407.7862, 685.7844
408.2683, 683.6369
408.7504, 679.4052
409.2325, 676.5753
409.7146, 676.8630
410.1967, 679.3469
410.6789, 681.4442
411.1610, 683.2031
411.6431, 683.5912
412.1252, 680.3285
412.6073, 674.8864
413.0894, 671.6907
413.5716, 672.1805
414.0537, 674.0397
414.5358, 674.7070
415.0179, 674.4258
415.5000, 674.0244
415.9821, 673.3002
416.4643, 673.0180
416.9464, 674.4225
417.4285, 677.7148
417.9106, 680.6219
418.3927, 680.9581
418.8748, 680.3029
419.3570, 680.5271
419.8391, 682.9483
420.3212, 685.7043
420.8033, 688.4819
421.2854, 691.1019
421.7675, 692.8015
422.2497, 692.4813
422.7318, 691.8455
423.2139, 691.8846
423.6960, 693.3039
424.1781, 694.1254
424.6602, 692.9490
425.1424, 691.3887
425.6245, 691.8600
426.1066, 696.1914
426.5887, 700.2148
427.0709, 702.7792
427.5530, 703.8820
428.0351, 706.0657
428.5172, 710.0820
428.9993, 714.1684
429.4814, 716.9346
429.9636, 717.9311
430.4457, 719.3353
430.9278, 721.4202
431.4099, 723.9047
431.8920, 726.1267
432.3741, 728.0500
432.8563, 730.1276
433.3384, 732.4659
433.8205, 735.1155
434.3026, 738.4964
434.7847, 742.7092
435.2668, 746.9706
435.7490, 750.4984
436.2311, 753.4274
436.7132, 756.1180
437.1953, 758.6897
437.6774, 761.0410
438.1595, 762.8779
438.6417, 764.3412
439.1238, 766.0100
439.6059, 767.6238
440.0880, 769.9366
440.5701, 774.6440
441.0522, 782.5294
441.5344, 788.6161
442.0165, 788.5678
442.4986, 785.3373
442.9807, 782.5285
443.4628, 781.9949
443.9449, 781.4534
444.4271, 779.7746
444.9092, 777.1957
445.3913, 775.1209
445.8734, 775.2216
446.3555, 774.9330
446.8376, 772.7505
447.3198, 766.7460
447.8019, 762.4901
448.2840, 761.5369
448.7661, 761.8066
449.2482, 760.3386
449.7303, 755.8962
450.2125, 751.8671
450.6946, 749.1573
451.1767, 747.6286
451.6588, 745.2334
452.1409, 741.5469
452.6230, 737.9467
453.1052, 735.5019
453.5873, 734.2673
454.0694, 733.1922
454.5515, 732.1896
455.0337, 731.3224
455.5158, 731.0676
455.9979, 731.3293
456.4800, 730.7279
456.9621, 727.7713
457.4442, 723.7991
457.9264, 722.3770
458.4085, 723.4182
458.8906, 724.4524
459.3727, 723.6858
459.8548, 721.5443
460.3369, 718.4397
460.8191, 713.8053
461.3012, 709.7405
461.7833, 708.1182
462.2654, 708.3024
462.7475, 708.9634
463.2296, 710.2986
463.7118, 711.3212
464.1939, 711.1503
464.6760, 709.7116
465.1581, 708.8459
465.6402, 708.6990
466.1223, 709.5756
466.6045, 711.7072
467.0866, 718.9442
467.5687, 722.6466
468.0508, 719.1748
468.5329, 712.1840
469.0150, 710.0576
469.4972, 716.6453
469.9793, 722.2572
470.4614, 723.3625
470.9435, 719.6479
471.4256, 718.0319
471.9077, 719.2785
472.3899, 721.1230
472.8720, 721.4188
473.3541, 720.0104
473.8362, 719.0134
474.3183, 718.7499
474.8004, 718.9841
475.2826, 718.9442
475.7647, 718.7180
476.2468, 719.5930
476.7289, 723.4350
477.2110, 728.6108
477.6931, 731.2371
478.1753, 731.3008
478.6574, 730.6359
479.1395, 731.0411
479.6216, 731.6014
480.1037, 730.7911
480.5858, 727.4442
481.0680, 724.0991
481.5501, 722.2330
482.0322, 721.6516
482.5143, 721.9776
482.9964, 725.3622
483.4786, 727.6534
483.9607, 725.8284
484.4428, 719.3317
484.9249, 715.0440
485.4070, 716.1541
485.8892, 718.8019
486.3713, 720.2717
486.8534, 719.3614
487.3355, 718.9063
487.8176, 718.8029
488.2997, 719.2442
488.7819, 720.9902
489.2640, 725.2507
489.7461, 728.0154
490.2282, 727.5991
490.7103, 724.2012
491.1924, 721.3109
491.6746, 718.8674
492.1567, 717.0685
492.6388, 716.5529
493.1209, 717.0945
493.6030, 716.3816
494.0851, 713.4835
494.5673, 710.9237
495.0494, 713.6632
495.5315, 720.2247
496.0136, 725.1817
496.4957, 725.4919
496.9778, 723.2175
497.4600, 719.4471
497.9421, 714.5388
498.4242, 711.5090
498.9063, 713.4081
499.3884, 717.2461
499.8705, 720.6451
500.3527, 723.3688
500.8348, 724.9981
501.3169, 724.1892
501.7990, 722.4832
502.2811, 722.0536
502.7632, 724.0941
503.2454, 726.5938
503.7275, 729.3859
504.2096, 732.4032
504.6917, 735.0071
505.1738, 736.7839
505.6559, 738.6835
506.1381, 741.2164
506.6202, 744.5420
507.1023, 747.7772
507.5844, 750.6376
508.0665, 753.9236
508.5486, 759.1691
509.0308, 766.4619
509.5129, 772.6856
509.9950, 776.7485
510.4771, 779.5649
510.9592, 782.9812
511.4413, 786.9571
511.9235, 791.3324
512.4056, 796.0973
512.8877, 801.1331
513.3698, 806.3564
513.8519, 811.7536
514.3340, 817.3121
514.8162, 823.6395
515.2983, 829.8979
515.7804, 835.0666
516.2625, 838.3762
516.7446, 841.1746
517.2267, 843.3423
517.7089, 845.3773
518.1910, 848.4774
518.6731, 853.8367
519.1552, 859.4638
519.6373, 865.2960
520.1194, 871.6976
520.6016, 874.8932
521.0837, 872.8890
521.5658, 869.8578
522.0479, 868.8471
522.5300, 870.4777
523.0121, 872.0623
523.4943, 873.8749
523.9764, 874.9454
524.4585, 872.9191
524.9406, 867.7545
525.4227, 863.0425
525.9048, 860.7585
526.3870, 859.4928
526.8691, 855.1423
527.3513, 847.8828
527.8334, 840.6758
528.3155, 835.5813
528.7976, 831.8236
529.2797, 828.6022
529.7618, 826.0121
530.2440, 822.5862
530.7261, 815.8555
531.2082, 808.1314
531.6903, 802.4951
532.1724, 801.7648
532.6545, 801.2667
533.1367, 799.6056
533.6188, 796.9731
534.1009, 794.0300
534.5830, 790.1297
535.0651, 786.6874
535.5472, 784.4465
536.0294, 783.6846
536.5115, 781.9260
536.9936, 778.6956
537.4757, 775.1416
537.9578, 772.0474
538.4399, 769.2965
538.9221, 767.6894
539.4042, 767.5064
539.8863, 768.1212
540.3684, 768.8183
540.8505, 769.5183
541.3326, 769.2460
541.8148, 767.2014
542.2969, 764.1914
542.7790, 761.4139
543.2611, 758.8934
543.7432, 756.7130
544.2253, 755.2909
544.7075, 754.0469
545.1896, 752.3895
545.6717, 750.2148
546.1538, 747.7666
546.6359, 743.9769
547.1180, 740.4679
547.6002, 739.0187
548.0823, 743.4430
548.5644, 746.0383
549.0465, 743.8853
549.5286, 738.8369
550.0107, 736.3564
550.4929, 738.1014
550.9750, 739.9490
551.4571, 740.8434
551.9392, 740.7784
552.4213, 739.0137
552.9034, 734.9631
553.3856, 731.0056
553.8677, 729.8448
554.3498, 731.0967
554.8319, 729.7006
555.3140, 724.6827
555.7961, 718.6821
556.2783, 715.1387
556.7604, 713.4393
557.2425, 711.9047
557.7246, 709.7903
558.2067, 707.7097
558.6888, 706.5941
559.1710, 706.1101
559.6531, 705.1190
560.1352, 702.1247
560.6173, 699.2215
561.0994, 697.6667
561.5815, 697.6370
562.0637, 698.2223
562.5458, 700.2651
563.0279, 702.1903
563.5100, 702.8968
563.9921, 702.0662
564.4742, 700.4207
564.9564, 697.3515
565.4385, 693.9526
565.9206, 692.3411
566.4027, 692.9531
566.8848, 693.0925
567.3669, 691.5739
567.8491, 689.2504
568.3312, 689.6504
568.8133, 692.6349
569.2954, 694.5463
569.7775, 691.7714
570.2596, 686.6682
570.7418, 683.9802
571.2239, 684.0448
571.7060, 683.8203
572.1881, 679.8531
572.6702, 674.8512
573.1523, 671.9365
573.6345, 673.1990
574.1166, 674.3044
574.5987, 672.9000
575.0808, 670.4506
575.5629, 669.3723
576.0450, 671.4708
576.5272, 673.4459
577.0093, 675.1070
577.4914, 676.2756
577.9735, 675.5234
578.4556, 671.9990
578.9377, 668.3322
579.4199, 665.7000
579.9020, 664.1521
580.3841, 663.0938
580.8662, 662.5349
581.3483, 662.4565
581.8304, 663.9047
582.3126, 665.9777
582.7947, 664.8913
583.2768, 658.9276
583.7589, 652.7621
584.2410, 651.3797
584.7231, 653.4460
585.2053, 656.3232
585.6874, 660.6631
586.1696, 663.8574
586.6517, 663.8687
587.1338, 661.3098
587.6159, 658.9830
588.0980, 657.4010
588.5801, 656.3660
589.0623, 655.8170
589.5444, 655.7372
590.0265, 656.2252
590.5086, 658.0674
590.9907, 659.4819
591.4728, 658.6141
591.9550, 654.8653
592.4371, 653.0907
592.9192, 654.1673
593.4013, 656.1379
593.8834, 655.7022
594.3655, 653.3488
594.8477, 652.2498
595.3298, 654.2211
595.8119, 656.9604
596.2940, 656.8470
596.7761, 654.7279
597.2582, 653.4423
597.7404, 655.2111
598.2225, 657.7790
598.7046, 659.9208
599.1867, 661.5176
599.6688, 662.0969
600.1509, 661.0964
600.6331, 659.3279
601.1152, 657.0549
601.5973, 653.1806
602.0794, 651.5349
602.5615, 653.3381
603.0436, 656.2147
603.5258, 657.5253
604.0079, 657.0930
604.4900, 656.0358
604.9721, 654.4208
605.4542, 652.4742
605.9363, 649.8323
606.4185, 646.8151
606.9006, 646.1078
607.3827, 650.9487
607.8648, 657.5720
608.3469, 660.2863
608.8290, 659.5996
609.3112, 658.2092
609.7933, 657.6964
610.2754, 657.1082
610.7575, 655.0594
611.2396, 650.9960
611.7217, 649.1127
612.2039, 653.2232
612.6860, 658.2968
613.1681, 660.4279
613.6502, 657.0655
614.1323, 655.0381
614.6144, 654.9425
615.0966, 655.7398
615.5787, 656.1140
616.0608, 656.1289
616.5429, 655.0441
617.0250, 651.9784
617.5071, 648.5403
617.9893, 649.2311
618.4714, 653.5279
618.9535, 657.2483
619.4356, 658.0741
619.9177, 657.2285
620.3998, 656.0222
620.8820, 654.5107
621.3641, 652.9161
621.8462, 650.0771
622.3283, 648.0626
622.8104, 648.8152
623.2925, 653.4313
623.7747, 657.2531
624.2568, 660.0573
624.7389, 661.2932
625.2210, 660.3218
625.7031, 655.6227
626.1852, 652.1366
626.6674, 650.6794
627.1495, 649.9420
627.6316, 647.1285
628.1137, 642.0693
628.5958, 639.2430
629.0779, 640.5180
629.5601, 644.1091
630.0422, 647.4031
630.5243, 650.1549
631.0064, 651.3185
631.4885, 648.4879
631.9706, 645.0441
632.4528, 644.5941
632.9349, 646.9745
633.4170, 648.9960
633.8991, 648.7463
634.3812, 648.1051
634.8633, 648.3428
635.3455, 650.1376
635.8276, 650.9969
636.3097, 650.4545
636.7918, 649.3345
637.2739, 648.0574
637.7560, 646.2133
638.2382, 646.1165
638.7203, 648.4810
639.2024, 651.6005
639.6845, 652.3952
640.1666, 651.2511
640.6487, 651.6148
641.1309, 655.7247
641.6130, 660.1275
642.0951, 659.4500
642.5772, 655.0114
643.0594, 650.5563
643.5415, 647.1251
644.0236, 644.8840
644.5057, 644.0696
644.9879, 644.6152
645.4700, 645.8587
645.9521, 649.0583
646.4342, 651.6592
646.9163, 652.5891
647.3984, 651.7100
647.8806, 650.1451
648.3627, 647.5823
648.8448, 644.9402
649.3269, 642.5782
649.8090, 640.5178
650.2911, 640.5870
650.7733, 643.3468
651.2554, 646.3513
651.7375, 646.2141
652.2196, 644.0770
652.7017, 642.7664
653.1838, 643.2851
653.6660, 644.4037
654.1481, 645.5524
654.6302, 646.5641
655.1123, 647.1646
655.5944, 646.1483
656.0765, 645.8522
656.5587, 647.7302
657.0408, 651.1137
657.5229, 652.8759
658.0050, 652.1425
658.4871, 651.2001
658.9692, 650.9364
659.4514, 651.2283
659.9335, 650.6081
660.4156, 648.9893
660.8977, 647.2031
661.3798, 645.4706
661.8619, 644.0856
662.3441, 644.1448
662.8262, 645.7556
663.3083, 647.2407
663.7904, 647.2635
664.2725, 646.4518
664.7546, 645.2748
665.2368, 643.2941
665.7189, 642.4653
666.2010, 644.9765
666.6831, 648.3041
667.1652, 649.4763
667.6473, 646.9240
668.1295, 644.6902
668.6116, 643.0739
669.0937, 641.8975
669.5758, 640.7961
670.0579, 639.7296
670.5400, 638.9960
671.0222, 638.4804
671.5043, 638.5585
671.9864, 640.7347
672.4685, 644.4963
672.9506, 647.3435
673.4327, 647.7023
673.9149, 646.6080
674.3970, 644.0703
674.8791, 640.4753
675.3612, 638.4248
675.8433, 640.1257
676.3254, 642.6204
676.8076, 644.5125
677.2897, 645.6816
677.7718, 646.4808
678.2539, 647.0486
678.7360, 647.0746
679.2181, 646.1373
679.7003, 644.1110
680.1824, 642.5876
680.6645, 641.6071
681.1466, 641.2147
681.6287, 641.7252
682.1108, 642.8612
682.5930, 643.9886
683.0751, 645.1835
