##NAMES=Barrerite
##RRUFFID=R050135
##IDEAL CHEMISTRY=Na_2_(Al_2_Si_7_)O_18_&#183;6H_2_O
##LOCALITY=Kuiu Island, Alaska, USA
##OWNER=RRUFF
##SOURCE=Ben Norton
##DESCRIPTION=Colorless laminar crystals
##STATUS=The identification of this mineral has been confirmed by X-ray diffraction and chemical analysis
##URL=rruff.info/R050135
##MEASURED CHEMISTRY=(Na_4.49_K_1.30_Ca_1.23_[box]_0.98_)_Σ=8_(Si_27.75_Al_8.25_)O_72_·19H_2_O
93.40265, 0.0000000E+00
93.88477, 14.60634
94.36688, 13.89143
94.84900, 14.17405
95.33112, 15.31662
95.81323, 16.66866
96.29535, 17.83592
96.77747, 18.92398
97.25958, 20.35523
97.74170, 22.18465
98.22382, 24.34045
98.70593, 26.67971
99.18805, 29.21405
99.67017, 31.92024
100.1523, 34.71451
100.6344, 37.57412
101.1165, 40.81222
101.5986, 44.54382
102.0807, 48.66577
102.5629, 52.53405
103.0450, 56.09096
103.5271, 59.58812
104.0092, 63.20244
104.4913, 67.02546
104.9734, 70.85705
105.4556, 74.89687
105.9377, 79.16091
106.4198, 82.46920
106.9019, 84.10512
107.3840, 85.28173
107.8661, 87.45399
108.3483, 91.22229
108.8304, 95.27672
109.3125, 99.30820
109.7946, 103.2616
110.2767, 107.4324
110.7588, 111.5297
111.2410, 115.9025
111.7231, 121.1796
112.2052, 128.1707
112.6873, 135.4752
113.1694, 142.6772
113.6515, 150.0070
114.1337, 156.9508
114.6158, 163.2771
115.0979, 169.1125
115.5800, 174.9698
116.0621, 180.8057
116.5442, 186.7711
117.0264, 192.8796
117.5085, 199.8846
117.9906, 206.4016
118.4727, 211.9139
118.9548, 216.4963
119.4369, 220.6312
119.9191, 224.5182
120.4012, 228.1188
120.8833, 231.3667
121.3654, 234.0522
121.8475, 236.5542
122.3296, 239.1083
122.8118, 241.7198
123.2939, 244.2709
123.7760, 246.6807
124.2581, 248.9669
124.7402, 251.2041
125.2223, 252.9662
125.7045, 254.8550
126.1866, 257.5587
126.6687, 261.1612
127.1508, 265.3233
127.6329, 269.9770
128.1150, 274.9603
128.5972, 279.9111
129.0793, 284.5725
129.5614, 289.0252
130.0435, 293.3883
130.5256, 297.6762
131.0077, 301.8743
131.4899, 305.9349
131.9720, 309.8646
132.4541, 313.6350
132.9362, 316.1700
133.4183, 317.1653
133.9004, 318.0307
134.3826, 318.8861
134.8647, 319.4980
135.3468, 318.9813
135.8289, 317.2194
136.3110, 315.5381
136.7931, 315.1662
137.2753, 316.1397
137.7574, 316.9264
138.2395, 317.1886
138.7216, 317.0248
139.2037, 317.0971
139.6858, 317.5717
140.1680, 317.8459
140.6501, 317.1735
141.1322, 315.2500
141.6143, 313.5223
142.0964, 312.2948
142.5785, 311.5661
143.0607, 311.0012
143.5428, 310.5104
144.0249, 310.2644
144.5070, 310.5004
144.9891, 311.3326
145.4712, 312.4297
145.9534, 313.8197
146.4355, 315.7748
146.9176, 316.9770
147.3997, 317.0719
147.8818, 316.5914
148.3639, 316.4586
148.8461, 316.9330
149.3282, 317.4503
149.8103, 317.8471
150.2924, 318.2298
150.7745, 318.2809
151.2566, 317.6248
151.7388, 316.6100
152.2209, 316.1789
152.7030, 317.5372
153.1851, 318.5049
153.6672, 318.2403
154.1493, 315.9395
154.6315, 313.4736
155.1136, 310.8034
155.5957, 308.0036
156.0778, 305.3176
156.5599, 303.3313
157.0420, 301.0731
157.5242, 298.0072
158.0063, 293.2352
158.4884, 288.5925
158.9705, 284.2112
159.4526, 280.1398
159.9347, 276.5575
160.4169, 274.0349
160.8990, 271.7328
161.3811, 269.0460
161.8632, 265.1937
162.3453, 261.5229
162.8274, 258.7728
163.3096, 256.8507
163.7917, 254.4762
164.2738, 250.7382
164.7559, 246.4534
165.2380, 242.4268
165.7201, 238.8312
166.2023, 235.6419
166.6844, 232.9484
167.1665, 230.7507
167.6486, 228.5600
168.1307, 226.0351
168.6128, 223.3787
169.0949, 220.8549
169.5771, 218.6660
170.0592, 216.5813
170.5413, 214.4071
171.0234, 212.1116
171.5055, 209.8790
171.9876, 207.9834
172.4698, 206.2310
172.9519, 204.2769
173.4340, 201.6313
173.9161, 198.8619
174.3982, 196.6128
174.8803, 194.9787
175.3625, 193.4542
175.8446, 191.5361
176.3267, 189.3831
176.8088, 187.4022
177.2909, 185.8624
177.7730, 184.6008
178.2552, 183.4377
178.7373, 182.3849
179.2194, 181.2652
179.7015, 179.7693
180.1836, 177.9857
180.6657, 176.2933
181.1479, 174.9302
181.6300, 173.7868
182.1121, 172.6846
182.5942, 171.6250
183.0763, 170.5409
183.5584, 169.2107
184.0406, 167.6876
184.5227, 166.3744
185.0048, 165.6888
185.4869, 165.4215
185.9690, 164.9585
186.4511, 164.2304
186.9333, 163.2475
187.4154, 161.8570
187.8975, 160.0776
188.3796, 158.4634
188.8617, 157.5439
189.3438, 157.1647
189.8260, 156.5507
190.3081, 155.5459
190.7902, 154.2789
191.2723, 152.8369
191.7544, 151.2045
192.2365, 149.9052
192.7187, 149.6010
193.2008, 150.1677
193.6829, 150.2779
194.1650, 149.5939
194.6471, 148.3973
195.1292, 147.4311
195.6114, 146.6980
196.0935, 146.1330
196.5756, 145.7905
197.0577, 145.6640
197.5398, 145.3367
198.0219, 144.6370
198.5041, 143.7096
198.9862, 143.1395
199.4683, 142.9513
199.9504, 142.9595
200.4325, 143.1914
200.9146, 143.6904
201.3968, 143.6165
201.8789, 142.6403
202.3610, 140.9692
202.8431, 139.5581
203.3252, 138.4026
203.8073, 137.5668
204.2895, 137.2024
204.7716, 137.3771
205.2537, 137.5580
205.7358, 137.6703
206.2179, 137.7101
206.7000, 137.6495
207.1822, 137.5182
207.6643, 137.2286
208.1464, 136.5487
208.6285, 135.2979
209.1106, 134.5508
209.5927, 134.7186
210.0749, 135.6887
210.5570, 136.0860
211.0391, 135.7467
211.5212, 135.1312
212.0033, 134.6443
212.4854, 134.2888
212.9676, 134.0419
213.4497, 133.9030
213.9318, 133.8695
214.4139, 133.9267
214.8960, 134.1044
215.3781, 134.3232
215.8603, 134.5441
216.3424, 134.8321
216.8245, 134.9084
217.3066, 134.6310
217.7887, 134.0047
218.2708, 133.6265
218.7529, 133.5781
219.2351, 133.6651
219.7172, 133.6752
220.1993, 133.5426
220.6814, 133.5189
221.1635, 133.7531
221.6456, 134.2541
222.1278, 134.2976
222.6099, 133.6272
223.0920, 132.8042
223.5741, 132.4262
224.0562, 132.6271
224.5383, 132.9599
225.0205, 133.4189
225.5026, 134.0096
225.9847, 134.2890
226.4668, 134.1376
226.9489, 133.8009
227.4310, 133.5144
227.9132, 133.2310
228.3953, 133.0907
228.8774, 133.1520
229.3595, 133.4229
229.8416, 133.6831
230.3237, 133.9700
230.8059, 134.2132
231.2880, 134.3289
231.7701, 134.2351
232.2522, 134.1846
232.7343, 134.2574
233.2164, 134.4623
233.6986, 134.5361
234.1807, 134.4485
234.6628, 134.2595
235.1449, 133.9689
235.6270, 133.3205
236.1091, 133.0976
236.5913, 133.6410
237.0734, 134.9768
237.5555, 135.7113
238.0376, 135.5760
238.5197, 135.1144
239.0018, 134.8115
239.4840, 134.6455
239.9661, 134.6814
240.4482, 134.9498
240.9303, 135.4497
241.4124, 136.0884
241.8945, 137.0737
242.3767, 137.9784
242.8588, 138.3675
243.3409, 137.9018
243.8230, 137.5710
244.3051, 137.5483
244.7872, 137.8255
245.2694, 138.1394
245.7515, 138.5697
246.2336, 138.9474
246.7157, 139.0967
247.1978, 138.8031
247.6799, 138.7193
248.1621, 139.0054
248.6442, 139.6326
249.1263, 140.1650
249.6084, 140.6213
250.0905, 140.9701
250.5726, 141.1174
251.0548, 140.7558
251.5369, 140.8935
252.0190, 141.9264
252.5011, 143.6968
252.9832, 144.6785
253.4653, 144.5478
253.9475, 144.0830
254.4296, 143.7922
254.9117, 143.6544
255.3938, 143.7605
255.8759, 144.2658
256.3580, 145.0521
256.8401, 145.3467
257.3223, 144.8536
257.8044, 144.3262
258.2865, 144.3054
258.7686, 145.0595
259.2507, 145.6059
259.7328, 145.7991
260.2150, 145.7207
260.6971, 145.7080
261.1792, 145.7489
261.6613, 145.8834
262.1434, 146.1568
262.6255, 146.6214
263.1077, 147.0536
263.5898, 147.3785
264.0719, 147.5842
264.5540, 148.2312
265.0361, 148.7621
265.5182, 149.1830
266.0004, 149.1651
266.4825, 149.7140
266.9646, 150.0356
267.4467, 150.3480
267.9288, 150.9767
268.4109, 151.0225
268.8931, 151.6462
269.3752, 152.0392
269.8573, 152.5378
270.3394, 152.8077
270.8215, 153.1483
271.3036, 153.1213
271.7858, 153.3299
272.2679, 154.2299
272.7500, 156.0969
273.2321, 157.6581
273.7142, 158.1471
274.1964, 157.3815
274.6785, 157.1926
275.1606, 157.7425
275.6427, 158.6544
276.1248, 159.2951
276.6069, 159.6115
277.0891, 159.9400
277.5712, 160.4984
278.0533, 161.2939
278.5354, 161.6894
279.0175, 161.6216
279.4996, 161.2904
279.9818, 160.8174
280.4639, 160.1446
280.9460, 159.9278
281.4281, 160.7131
281.9102, 162.3249
282.3923, 162.7678
282.8745, 161.8058
283.3566, 160.4478
283.8387, 159.8953
284.3208, 160.1671
284.8029, 160.4406
285.2850, 160.5500
285.7672, 160.4682
286.2493, 159.9256
286.7314, 158.8349
287.2135, 157.8086
287.6956, 157.6212
288.1777, 158.2045
288.6599, 158.5367
289.1420, 158.3732
289.6241, 157.7942
290.1062, 156.8391
290.5883, 155.4658
291.0704, 154.2984
291.5526, 153.9531
292.0347, 154.3106
292.5168, 154.7356
292.9989, 155.2045
293.4810, 155.5489
293.9631, 155.3350
294.4453, 154.5842
294.9274, 153.7970
295.4095, 153.4097
295.8916, 153.2868
296.3737, 152.9856
296.8558, 152.3753
297.3380, 151.6921
297.8201, 151.2904
298.3022, 151.1358
298.7843, 151.0210
299.2664, 150.8243
299.7485, 150.5746
300.2307, 150.3378
300.7128, 150.1193
301.1949, 149.9201
301.6770, 149.8187
302.1591, 149.7584
302.6412, 149.5460
303.1234, 148.6817
303.6055, 147.7493
304.0876, 147.7913
304.5697, 148.9967
305.0518, 150.1938
305.5339, 150.0186
306.0161, 149.0311
306.4982, 148.4030
306.9803, 149.0859
307.4624, 150.1373
307.9445, 150.5437
308.4266, 150.2720
308.9088, 149.8903
309.3909, 149.7294
309.8730, 149.7299
310.3551, 149.8048
310.8372, 149.9590
311.3193, 150.1471
311.8015, 150.4080
312.2836, 150.7209
312.7657, 150.8719
313.2478, 150.6194
313.7299, 150.2011
314.2120, 149.8271
314.6942, 149.3622
315.1763, 149.1962
315.6584, 149.8267
316.1405, 151.0257
316.6226, 151.8876
317.1047, 151.9469
317.5869, 151.5740
318.0690, 150.9935
318.5511, 150.1319
319.0332, 149.2858
319.5153, 148.4912
319.9974, 147.7896
320.4796, 147.2881
320.9617, 147.1554
321.4438, 147.1156
321.9259, 147.0813
322.4080, 147.1174
322.8901, 146.9275
323.3723, 146.1040
323.8544, 145.0956
324.3365, 144.5407
324.8186, 145.0163
325.3007, 145.5423
325.7828, 145.9897
326.2650, 146.4589
326.7471, 146.2025
327.2292, 144.2172
327.7113, 141.8939
328.1934, 140.5526
328.6755, 141.3428
329.1577, 141.9785
329.6398, 142.1521
330.1219, 141.8656
330.6040, 141.3393
331.0861, 140.0676
331.5682, 138.9458
332.0504, 138.6022
332.5325, 139.7706
333.0146, 140.5542
333.4967, 140.7792
333.9788, 140.5080
334.4609, 140.0047
334.9431, 139.0827
335.4252, 138.1831
335.9073, 137.5474
336.3894, 137.2615
336.8715, 137.0145
337.3536, 136.8464
337.8358, 136.6897
338.3179, 136.3888
338.8000, 135.9237
339.2821, 135.3847
339.7642, 134.7220
340.2463, 133.8950
340.7284, 133.4762
341.2105, 133.5293
341.6927, 133.8883
342.1748, 134.4560
342.6569, 135.2924
343.1390, 135.8307
343.6211, 135.7428
344.1032, 135.1732
344.5854, 135.1036
345.0675, 135.6037
345.5496, 136.1966
346.0317, 136.4014
346.5138, 136.2496
346.9959, 136.1189
347.4781, 136.1220
347.9602, 136.1614
348.4423, 135.9671
348.9244, 135.5489
349.4065, 135.1672
349.8886, 134.9271
350.3708, 134.8652
350.8529, 135.1469
351.3350, 135.8683
351.8171, 136.7293
352.2992, 137.3979
352.7813, 137.8787
353.2635, 138.2054
353.7456, 138.1814
354.2277, 138.0956
354.7098, 138.3455
355.1919, 138.9562
355.6740, 139.8549
356.1562, 141.2752
356.6383, 142.8959
357.1204, 144.1775
357.6025, 144.3672
358.0846, 144.5009
358.5667, 145.6186
359.0489, 147.6374
359.5310, 149.3956
360.0131, 149.8230
360.4952, 149.8163
360.9773, 150.2953
361.4594, 151.9295
361.9416, 153.5694
362.4237, 154.6107
362.9058, 155.2203
363.3879, 155.9230
363.8700, 156.6797
364.3521, 157.7565
364.8343, 159.3712
365.3164, 161.8387
365.7985, 164.1826
366.2806, 166.0180
366.7627, 167.6316
367.2448, 169.4528
367.7270, 171.7564
368.2091, 174.1003
368.6912, 176.4418
369.1733, 178.8163
369.6554, 180.8510
370.1375, 182.0616
370.6197, 183.1854
371.1018, 184.8648
371.5839, 187.3527
372.0660, 190.0610
372.5481, 192.9861
373.0302, 196.0775
373.5124, 199.0999
373.9945, 202.2023
374.4766, 205.0320
374.9587, 207.3561
375.4408, 208.9712
375.9229, 210.6372
376.4051, 212.2915
376.8872, 214.1026
377.3693, 216.5135
377.8514, 219.6692
378.3335, 222.9600
378.8156, 226.1396
379.2978, 229.2380
379.7799, 232.1774
380.2620, 234.9052
380.7441, 237.7168
381.2262, 241.0456
381.7083, 244.8624
382.1905, 248.7788
382.6726, 252.7527
383.1547, 256.6836
383.6368, 259.9749
384.1189, 262.6414
384.6010, 265.4703
385.0832, 269.2575
385.5653, 273.7049
386.0474, 278.0296
386.5295, 281.9771
387.0116, 285.9078
387.4937, 290.3386
387.9759, 295.1841
388.4580, 300.1948
388.9401, 305.2434
389.4222, 310.3770
389.9043, 315.5219
390.3864, 320.6796
390.8686, 326.2841
391.3507, 332.7252
391.8328, 339.8364
392.3149, 347.3038
392.7970, 355.1170
393.2791, 363.0719
393.7613, 370.9609
394.2434, 378.8784
394.7255, 387.0105
395.2076, 395.6152
395.6897, 404.3708
396.1718, 413.0563
396.6540, 421.6955
397.1361, 430.1544
397.6182, 437.9550
398.1003, 445.5504
398.5824, 453.9709
399.0645, 464.3493
399.5467, 474.7040
400.0288, 484.2222
400.5109, 492.4594
400.9930, 501.3535
401.4751, 511.4150
401.9572, 521.8902
402.4394, 532.0450
402.9215, 541.9277
403.4036, 551.4313
403.8857, 560.6203
404.3678, 569.4962
404.8499, 577.6610
405.3321, 585.2150
405.8142, 592.0320
406.2963, 597.8906
406.7784, 602.7267
407.2605, 607.2766
407.7426, 611.8448
408.2248, 615.8107
408.7069, 617.9938
409.1890, 618.3216
409.6711, 617.2955
410.1532, 614.9746
410.6353, 611.4252
411.1175, 606.9430
411.5996, 601.5290
412.0817, 595.4256
412.5638, 588.8621
413.0459, 581.8926
413.5280, 574.2867
414.0102, 566.0437
414.4923, 557.0804
414.9744, 546.8560
415.4565, 535.5039
415.9386, 524.0373
416.4207, 513.0109
416.9029, 502.1421
417.3850, 490.9513
417.8671, 479.1470
418.3492, 467.6464
418.8313, 457.1750
419.3134, 447.3531
419.7956, 437.3863
420.2777, 426.3223
420.7598, 415.5967
421.2419, 405.8085
421.7240, 396.9833
422.2061, 388.4324
422.6883, 379.9708
423.1704, 371.5992
423.6525, 363.1731
424.1346, 354.1273
424.6167, 345.8117
425.0988, 338.9595
425.5810, 333.0925
426.0631, 326.9763
426.5452, 320.4713
427.0273, 313.8904
427.5094, 307.2044
427.9915, 300.3727
428.4737, 293.8104
428.9558, 287.3821
429.4379, 281.3729
429.9200, 276.1869
430.4021, 272.1746
430.8842, 267.9492
431.3664, 263.1880
431.8485, 258.0925
432.3306, 253.5061
432.8127, 249.5128
433.2948, 245.6325
433.7769, 241.4111
434.2591, 236.9063
434.7412, 233.0733
435.2233, 230.0387
435.7054, 227.4245
436.1875, 224.6332
436.6696, 221.7395
437.1518, 219.2213
437.6339, 217.4965
438.1160, 216.0925
438.5981, 213.9331
439.0802, 211.1221
439.5623, 208.8366
440.0444, 208.8162
440.5266, 209.5470
441.0087, 208.8294
441.4908, 205.6553
441.9729, 202.3776
442.4550, 200.7263
442.9371, 200.1520
443.4193, 199.5725
443.9014, 198.2214
444.3835, 197.0162
444.8656, 196.5807
445.3477, 196.9822
445.8298, 197.2334
446.3120, 196.7445
446.7941, 196.1751
447.2762, 196.0418
447.7583, 196.5664
448.2404, 197.3420
448.7225, 198.6556
449.2047, 200.2165
449.6868, 201.0898
450.1689, 200.6420
450.6510, 200.3650
451.1331, 200.8437
451.6152, 202.2270
452.0974, 203.4719
452.5795, 204.5284
453.0616, 205.5265
453.5437, 206.6867
454.0258, 208.0509
454.5079, 209.2014
454.9901, 209.9935
455.4722, 210.5560
455.9543, 211.3701
456.4364, 212.4468
456.9185, 213.3224
457.4006, 213.7151
457.8828, 213.6777
458.3649, 213.3029
458.8470, 212.5513
459.3291, 211.7790
459.8112, 211.5813
460.2933, 211.6628
460.7755, 211.3508
461.2576, 210.2176
461.7397, 208.7473
462.2218, 207.6005
462.7039, 206.5988
463.1860, 204.9481
463.6682, 201.5122
464.1503, 197.6660
464.6324, 194.6033
465.1145, 192.7389
465.5966, 190.7189
466.0787, 187.8288
466.5609, 184.5855
467.0430, 181.6959
467.5251, 179.7641
468.0072, 177.6999
468.4893, 175.0198
468.9714, 171.7866
469.4536, 169.2281
469.9357, 167.6395
470.4178, 166.4049
470.8999, 165.2473
471.3820, 164.2199
471.8641, 163.0909
472.3463, 161.7079
472.8284, 160.3894
473.3105, 159.6067
473.7926, 159.4135
474.2747, 159.4898
474.7568, 159.7667
475.2390, 160.2329
475.7211, 160.7652
476.2032, 161.3473
476.6853, 162.2926
477.1674, 164.0132
477.6495, 166.3035
478.1317, 168.5587
478.6138, 170.6975
479.0959, 172.7930
479.5780, 174.7468
480.0601, 176.7227
480.5422, 179.0660
481.0244, 181.9075
481.5065, 185.2160
481.9886, 189.1208
482.4707, 193.5781
482.9528, 198.0694
483.4349, 202.0212
483.9171, 206.1796
484.3992, 211.0624
484.8813, 216.9578
485.3634, 223.2322
485.8455, 229.9626
486.3276, 236.8910
486.8098, 243.5905
487.2919, 249.4633
487.7740, 255.7705
488.2561, 262.5450
488.7382, 269.8421
489.2203, 277.8825
489.7025, 286.9684
490.1846, 296.1804
490.6667, 304.8213
491.1488, 312.5405
491.6309, 321.3133
492.1130, 331.7544
492.5952, 342.3671
493.0773, 351.1023
493.5594, 358.0047
494.0415, 364.6685
494.5236, 372.0802
495.0057, 379.4104
495.4879, 385.0991
495.9700, 389.1109
496.4521, 391.3842
496.9342, 391.7578
497.4163, 390.4125
497.8984, 387.7439
498.3806, 383.9006
498.8627, 378.1569
499.3448, 369.1391
499.8269, 357.9940
500.3090, 346.3966
500.7911, 335.0646
501.2733, 323.3560
501.7554, 310.7654
502.2375, 297.4380
502.7196, 283.9949
503.2017, 269.7777
503.6838, 255.9079
504.1660, 243.0794
504.6481, 231.1656
505.1302, 220.1115
505.6123, 210.2815
506.0944, 201.0298
506.5765, 191.6544
507.0587, 181.6489
507.5408, 172.9205
508.0229, 165.9357
508.5050, 160.3553
508.9871, 154.6252
509.4692, 148.6731
509.9514, 143.0786
510.4335, 138.2096
510.9156, 133.9641
511.3977, 130.0395
511.8798, 126.4208
512.3619, 123.0900
512.8441, 120.0611
513.3262, 117.2644
513.8083, 114.5382
514.2904, 111.8205
514.7725, 109.1885
515.2546, 106.6707
515.7368, 104.3023
516.2189, 102.1107
516.7010, 100.0648
517.1831, 98.23772
517.6652, 96.74637
518.1473, 95.60728
518.6295, 94.44228
519.1116, 93.18079
519.5937, 91.82734
520.0758, 90.39884
520.5579, 88.35407
521.0400, 86.97079
521.5222, 86.66753
522.0043, 86.85435
522.4864, 86.39375
522.9685, 84.91537
523.4506, 83.64849
523.9327, 83.06318
524.4149, 83.02409
524.8970, 82.52615
525.3791, 81.48206
525.8612, 80.41865
526.3433, 79.81949
526.8254, 79.57126
527.3076, 78.97758
527.7897, 77.91616
528.2718, 76.78184
528.7539, 76.01232
529.2360, 75.52014
529.7181, 75.08147
530.2003, 74.63955
530.6824, 74.19250
531.1645, 73.74397
531.6466, 73.29140
532.1287, 72.79615
532.6108, 72.06717
533.0930, 71.42591
533.5751, 71.11136
534.0572, 71.22788
534.5393, 71.25349
535.0214, 71.26849
535.5035, 71.04370
535.9857, 70.34875
536.4678, 68.42648
536.9499, 67.24037
537.4320, 67.17696
537.9141, 67.81016
538.3962, 68.12678
538.8784, 68.04617
539.3605, 67.91698
539.8426, 67.91541
540.3247, 67.98518
540.8068, 67.67742
541.2889, 66.96320
541.7711, 66.19720
542.2532, 65.65944
542.7353, 65.30882
543.2174, 65.02200
543.6995, 64.77932
544.1816, 64.61771
544.6638, 64.67377
545.1459, 64.82575
545.6280, 64.84965
546.1101, 64.40222
546.5922, 64.03037
547.0743, 64.28475
547.5565, 64.94262
548.0386, 65.16369
548.5207, 64.17929
549.0028, 63.10840
549.4849, 62.47691
549.9670, 62.42141
550.4492, 62.40354
550.9313, 62.41533
551.4134, 62.45399
551.8955, 62.52632
552.3776, 62.65945
552.8597, 62.74135
553.3419, 62.72791
553.8240, 62.69570
554.3061, 62.88242
554.7882, 63.31759
555.2703, 63.51497
555.7524, 63.18923
556.2346, 62.53810
556.7167, 62.00678
557.1988, 61.59930
557.6809, 61.37498
558.1630, 61.40971
558.6451, 61.64136
559.1273, 62.12477
559.6094, 62.96459
560.0915, 63.40995
560.5736, 62.50270
561.0557, 61.11997
561.5378, 60.27552
562.0200, 60.73317
562.5021, 61.24189
562.9842, 61.54833
563.4663, 61.67219
563.9484, 61.67717
564.4305, 61.46034
564.9127, 61.26054
565.3948, 61.13013
565.8769, 61.06988
566.3590, 61.12105
566.8411, 61.34440
567.3232, 61.54452
567.8054, 61.54889
568.2875, 61.35889
568.7696, 61.28164
569.2517, 61.36460
569.7338, 61.46877
570.2159, 61.33255
570.6981, 61.05637
571.1802, 60.99416
571.6623, 61.45949
572.1444, 61.93469
572.6265, 61.73098
573.1086, 61.05539
573.5908, 60.55986
574.0729, 60.65389
574.5550, 60.94689
575.0371, 61.20267
575.5192, 61.39847
576.0013, 61.70622
576.4835, 62.58254
576.9656, 63.28260
577.4477, 63.28651
577.9298, 61.97337
578.4119, 61.16045
578.8940, 60.98618
579.3762, 61.20404
579.8583, 61.53677
580.3404, 62.02944
580.8225, 62.39811
581.3046, 62.52798
581.7867, 62.54042
582.2689, 62.75827
582.7510, 63.17289
583.2331, 63.61932
583.7152, 64.01646
584.1973, 64.38741
584.6794, 64.78276
585.1616, 65.20004
585.6437, 65.55812
586.1258, 65.73190
586.6079, 65.85667
587.0900, 66.09570
587.5721, 66.58298
588.0542, 66.90719
588.5363, 66.78757
589.0184, 66.48088
