##NAMES=Bartelkeite
##RRUFFID=R070114
##IDEAL CHEMISTRY=Pb^2+^Fe^2+^Ge(Ge_2_O_7_)(OH)_2_&#183;H_2_O
##LOCALITY=Tsumeb mine, Tsumeb, Otavi District, Oshikoto, Namibia
##OWNER=RRUFF
##SOURCE=William W. Pinch
##DESCRIPTION=Pistachio green crystals in vug associated with pale yellow prismatic mimetite crystals.
##STATUS=The identification of this mineral is confirmed by single-crystal X-ray diffraction and chemical analysis.
##URL=rruff.info/R070114
##MEASURED CHEMISTRY=Pb_0.97_(Fe^+2^_0.94_Zn_0.01_)_Σ=0.95_^VI^Ge_1.00_^IV^(Ge_1.81_As_0.16_Si_0.01_S_0.01_)_Σ=1.99_O_7_[(OH)_1.94_Cl_0.04_]_Σ=1.98_·1.02H_2_O
120.7725, 790.6489
121.2546, 836.5873
121.7367, 888.8162
122.2189, 953.9574
122.7010, 1027.432
123.1831, 1104.080
123.6652, 1182.186
124.1473, 1262.709
124.6294, 1348.012
125.1115, 1438.110
125.5937, 1528.506
126.0758, 1613.623
126.5579, 1695.786
127.0400, 1780.092
127.5221, 1871.188
128.0043, 1966.880
128.4864, 2060.412
128.9685, 2151.666
129.4506, 2242.111
129.9327, 2334.403
130.4148, 2428.342
130.8969, 2521.383
131.3791, 2606.958
131.8612, 2687.109
132.3433, 2777.853
132.8254, 2881.305
133.3075, 2996.505
133.7896, 3123.698
134.2718, 3263.000
134.7539, 3406.957
135.2360, 3553.487
135.7181, 3700.969
136.2002, 3838.567
136.6823, 3964.521
137.1645, 4079.083
137.6466, 4181.082
138.1287, 4275.132
138.6108, 4350.438
139.0929, 4387.658
139.5750, 4376.738
140.0572, 4358.045
140.5393, 4344.700
141.0214, 4339.271
141.5035, 4325.662
141.9856, 4295.516
142.4677, 4261.071
142.9499, 4250.391
143.4320, 4273.275
143.9141, 4305.801
144.3962, 4336.451
144.8783, 4360.627
145.3604, 4391.434
145.8425, 4426.793
146.3247, 4467.866
146.8068, 4526.445
147.2889, 4615.110
147.7710, 4710.974
148.2531, 4800.830
148.7352, 4872.875
149.2174, 4951.607
149.6995, 5040.244
150.1816, 5138.923
150.6637, 5241.446
151.1458, 5353.062
151.6279, 5465.078
152.1101, 5571.824
152.5922, 5667.949
153.0743, 5762.316
153.5564, 5858.257
154.0385, 5960.300
154.5206, 6053.133
155.0028, 6129.870
155.4849, 6196.623
155.9670, 6263.717
156.4491, 6336.280
156.9312, 6407.414
157.4133, 6473.680
157.8955, 6531.470
158.3776, 6589.310
158.8597, 6654.638
159.3418, 6723.504
159.8239, 6782.340
160.3060, 6823.603
160.7882, 6855.387
161.2703, 6883.303
161.7524, 6910.757
162.2345, 6932.764
162.7166, 6947.262
163.1987, 6954.421
163.6808, 6955.587
164.1630, 6952.740
164.6451, 6943.890
165.1272, 6926.899
165.6093, 6907.834
166.0914, 6875.465
166.5735, 6820.674
167.0557, 6742.475
167.5378, 6652.546
168.0199, 6550.673
168.5020, 6443.285
168.9841, 6341.864
169.4662, 6257.914
169.9484, 6179.357
170.4305, 6091.940
170.9126, 5991.371
171.3947, 5892.874
171.8768, 5809.401
172.3589, 5738.440
172.8411, 5675.637
173.3232, 5616.120
173.8053, 5563.278
174.2874, 5523.738
174.7695, 5504.512
175.2516, 5488.867
175.7338, 5454.181
176.2159, 5404.056
176.6980, 5359.197
177.1801, 5339.048
177.6622, 5333.912
178.1443, 5324.479
178.6264, 5305.704
179.1086, 5280.144
179.5907, 5247.934
180.0728, 5209.341
180.5549, 5175.453
181.0370, 5158.840
181.5191, 5155.391
182.0013, 5151.668
182.4834, 5147.207
182.9655, 5138.439
183.4476, 5113.515
183.9297, 5070.792
184.4118, 5024.672
184.8940, 4991.570
185.3761, 4969.701
185.8582, 4949.759
186.3403, 4927.654
186.8224, 4904.082
187.3046, 4882.530
187.7867, 4863.897
188.2688, 4844.047
188.7509, 4814.391
189.2330, 4775.301
189.7151, 4738.211
190.1973, 4711.954
190.6794, 4694.670
191.1615, 4669.131
191.6436, 4631.277
192.1257, 4588.405
192.6078, 4556.724
193.0900, 4536.563
193.5721, 4517.543
194.0542, 4492.537
194.5363, 4461.829
195.0184, 4429.614
195.5005, 4392.794
195.9826, 4357.553
196.4648, 4346.849
196.9469, 4365.171
197.4290, 4385.979
197.9111, 4386.312
198.3932, 4364.407
198.8753, 4344.680
199.3575, 4329.654
199.8396, 4320.404
200.3217, 4324.979
200.8038, 4346.469
201.2859, 4372.556
201.7680, 4388.715
202.2502, 4391.995
202.7323, 4404.928
203.2144, 4436.906
203.6965, 4486.504
204.1786, 4524.430
204.6607, 4546.637
205.1429, 4563.953
205.6250, 4587.649
206.1071, 4616.663
206.5892, 4655.497
207.0713, 4707.352
207.5534, 4773.117
208.0356, 4839.702
208.5177, 4908.476
208.9998, 4976.482
209.4819, 5037.745
209.9640, 5086.862
210.4461, 5144.752
210.9282, 5220.271
211.4104, 5317.326
211.8925, 5414.169
212.3746, 5508.942
212.8567, 5605.149
213.3388, 5711.648
213.8209, 5832.813
214.3031, 5955.878
214.7852, 6075.075
215.2673, 6186.808
215.7494, 6301.780
216.2315, 6418.074
216.7136, 6538.631
217.1958, 6674.579
217.6779, 6833.857
218.1600, 6996.381
218.6421, 7151.898
219.1242, 7295.662
219.6063, 7445.899
220.0885, 7605.175
220.5706, 7772.508
221.0527, 7947.352
221.5348, 8137.842
222.0169, 8326.026
222.4990, 8501.657
222.9812, 8655.934
223.4633, 8814.560
223.9454, 8978.629
224.4275, 9149.949
224.9096, 9323.539
225.3917, 9504.908
225.8739, 9685.896
226.3560, 9862.069
226.8381, 10041.75
227.3202, 10202.47
227.8023, 10342.06
228.2844, 10459.60
228.7665, 10562.46
229.2487, 10648.78
229.7308, 10719.83
230.2129, 10778.65
230.6950, 10832.87
231.1771, 10859.42
231.6592, 10853.86
232.1414, 10815.73
232.6235, 10751.64
233.1056, 10658.01
233.5877, 10542.72
234.0698, 10414.31
234.5519, 10267.63
235.0341, 10117.61
235.5162, 9965.695
235.9983, 9812.684
236.4804, 9657.832
236.9625, 9504.761
237.4446, 9347.119
237.9268, 9178.361
238.4089, 9008.890
238.8910, 8806.286
239.3731, 8548.957
239.8552, 8217.874
240.3373, 7934.433
240.8195, 7707.139
241.3016, 7522.237
241.7837, 7360.688
242.2658, 7239.428
242.7479, 7113.081
243.2300, 6964.475
243.7122, 6783.035
244.1943, 6623.513
244.6764, 6493.342
245.1585, 6381.031
245.6406, 6264.168
246.1227, 6132.949
246.6048, 6013.401
247.0870, 5916.481
247.5691, 5850.541
248.0512, 5778.889
248.5333, 5695.438
249.0154, 5609.183
249.4975, 5537.441
249.9797, 5486.354
250.4618, 5438.514
250.9439, 5385.926
251.4260, 5321.971
251.9081, 5272.968
252.3902, 5243.292
252.8724, 5226.193
253.3545, 5207.174
253.8366, 5184.570
254.3187, 5163.114
254.8008, 5145.708
255.2829, 5135.910
255.7651, 5119.377
256.2472, 5090.919
256.7293, 5057.691
257.2114, 5037.455
257.6935, 5032.964
258.1756, 5036.383
258.6577, 5045.921
259.1399, 5065.855
259.6220, 5078.907
260.1041, 5080.818
260.5862, 5077.400
261.0683, 5085.521
261.5504, 5111.005
262.0326, 5136.311
262.5147, 5151.366
262.9968, 5150.408
263.4789, 5157.860
263.9610, 5174.224
264.4431, 5199.662
264.9253, 5236.134
265.4074, 5288.393
265.8895, 5340.770
266.3716, 5384.163
266.8537, 5414.628
267.3358, 5450.779
267.8180, 5494.474
268.3001, 5544.084
268.7822, 5596.753
269.2643, 5652.549
269.7464, 5710.617
270.2285, 5769.051
270.7107, 5824.636
271.1928, 5898.591
271.6749, 5999.793
272.1570, 6115.692
272.6391, 6202.904
273.1212, 6251.277
273.6034, 6304.046
274.0855, 6392.336
274.5676, 6522.399
275.0497, 6636.988
275.5318, 6728.402
276.0139, 6804.532
276.4961, 6884.382
276.9782, 6969.829
277.4603, 7051.279
277.9424, 7121.536
278.4245, 7180.597
278.9066, 7236.306
279.3888, 7290.849
279.8709, 7340.904
280.3530, 7378.979
280.8351, 7405.849
281.3172, 7415.740
281.7993, 7402.732
282.2815, 7367.104
282.7636, 7321.455
283.2457, 7266.679
283.7278, 7202.842
284.2099, 7129.876
284.6920, 7047.724
285.1741, 6956.770
285.6563, 6852.838
286.1384, 6737.116
286.6205, 6632.308
287.1026, 6542.402
287.5847, 6460.018
288.0668, 6365.008
288.5490, 6257.429
289.0311, 6165.227
289.5132, 6120.295
289.9953, 6111.175
290.4774, 6074.095
290.9595, 5995.344
291.4417, 5901.263
291.9238, 5835.137
292.4059, 5795.828
292.8880, 5762.396
293.3701, 5714.712
293.8522, 5662.120
294.3344, 5635.791
294.8165, 5642.755
295.2986, 5666.232
295.7807, 5686.087
296.2628, 5702.553
296.7449, 5716.440
297.2271, 5726.772
297.7092, 5734.888
298.1913, 5743.097
298.6734, 5750.954
299.1555, 5761.011
299.6376, 5786.526
300.1198, 5820.190
300.6019, 5834.319
301.0840, 5800.246
301.5661, 5740.214
302.0482, 5689.610
302.5303, 5653.946
303.0125, 5618.205
303.4946, 5566.249
303.9767, 5502.075
304.4588, 5434.875
304.9409, 5373.978
305.4230, 5311.655
305.9052, 5233.293
306.3873, 5134.521
306.8694, 5039.373
307.3515, 4970.648
307.8336, 4920.783
308.3157, 4873.686
308.7979, 4819.214
309.2800, 4766.241
309.7621, 4724.025
310.2442, 4694.743
310.7263, 4666.406
311.2084, 4624.750
311.6906, 4579.784
312.1727, 4547.255
312.6548, 4544.931
313.1369, 4549.023
313.6190, 4543.394
314.1011, 4525.696
314.5833, 4510.412
315.0654, 4513.148
315.5475, 4519.914
316.0296, 4513.046
316.5117, 4470.894
316.9938, 4426.931
317.4760, 4396.250
317.9580, 4380.590
318.4402, 4368.389
318.9223, 4359.736
319.4044, 4351.196
319.8865, 4339.422
320.3686, 4314.811
320.8507, 4295.205
321.3329, 4287.429
321.8150, 4292.016
322.2971, 4298.132
322.7792, 4301.431
323.2613, 4306.555
323.7434, 4317.301
324.2256, 4346.792
324.7077, 4368.644
325.1898, 4373.007
325.6719, 4360.288
326.1540, 4357.621
326.6361, 4377.380
327.1183, 4400.886
327.6004, 4416.089
328.0825, 4416.249
328.5646, 4416.265
329.0467, 4419.071
329.5288, 4423.652
330.0110, 4421.285
330.4931, 4405.895
330.9752, 4389.342
331.4573, 4379.953
331.9394, 4390.742
332.4215, 4384.115
332.9037, 4350.414
333.3858, 4297.460
333.8679, 4255.525
334.3500, 4229.311
334.8321, 4206.018
335.3142, 4178.256
335.7964, 4143.215
336.2785, 4112.632
336.7606, 4088.918
337.2427, 4068.436
337.7248, 4040.785
338.2069, 4002.607
338.6891, 3967.655
339.1712, 3944.871
339.6533, 3936.615
340.1354, 3918.847
340.6175, 3888.130
341.0996, 3852.645
341.5818, 3827.329
342.0639, 3812.877
342.5460, 3801.443
343.0281, 3790.655
343.5102, 3780.399
343.9923, 3765.927
344.4745, 3745.112
344.9566, 3727.776
345.4387, 3732.072
345.9208, 3755.488
346.4029, 3774.697
346.8850, 3775.732
347.3672, 3765.863
347.8493, 3767.890
348.3314, 3782.648
348.8135, 3798.837
349.2956, 3800.478
349.7777, 3793.259
350.2599, 3794.912
350.7419, 3816.739
351.2241, 3847.554
351.7062, 3870.238
352.1883, 3885.218
352.6704, 3900.734
353.1525, 3921.573
353.6346, 3947.346
354.1168, 3978.057
354.5989, 4015.461
355.0810, 4055.644
355.5631, 4093.112
356.0452, 4129.164
356.5273, 4170.089
357.0095, 4226.545
357.4916, 4286.717
357.9737, 4336.832
358.4558, 4366.376
358.9379, 4399.765
359.4200, 4452.153
359.9022, 4518.792
360.3843, 4587.168
360.8664, 4653.719
361.3485, 4719.621
361.8306, 4783.371
362.3127, 4841.175
362.7949, 4907.301
363.2770, 4988.375
363.7591, 5080.064
364.2412, 5175.093
364.7233, 5272.328
365.2054, 5372.642
365.6876, 5472.424
366.1697, 5567.250
366.6518, 5680.724
367.1339, 5831.752
367.6160, 5995.652
368.0981, 6143.243
368.5803, 6253.257
369.0624, 6370.881
369.5445, 6502.289
370.0266, 6646.850
370.5087, 6805.417
370.9908, 6985.146
371.4730, 7172.449
371.9551, 7356.915
372.4372, 7530.886
372.9193, 7719.106
373.4014, 7926.929
373.8835, 8150.683
374.3657, 8374.808
374.8478, 8594.992
375.3299, 8820.725
375.8120, 9057.146
376.2941, 9307.557
376.7762, 9555.638
377.2584, 9796.335
377.7405, 10036.00
378.2226, 10279.93
378.7047, 10532.07
379.1868, 10781.76
379.6689, 11028.01
380.1511, 11268.41
380.6332, 11502.38
381.1153, 11728.67
381.5974, 11946.78
382.0795, 12148.82
382.5616, 12337.58
383.0438, 12512.44
383.5259, 12679.79
384.0080, 12833.50
384.4901, 12963.29
384.9722, 13070.75
385.4543, 13150.30
385.9364, 13199.22
386.4185, 13218.37
386.9007, 13210.40
387.3828, 13173.93
387.8649, 13112.34
388.3470, 13032.24
388.8291, 12932.79
389.3112, 12801.19
389.7934, 12621.18
390.2755, 12410.43
390.7576, 12187.69
391.2397, 11949.00
391.7218, 11707.68
392.2039, 11480.99
392.6861, 11258.97
393.1682, 11010.73
393.6503, 10685.38
394.1324, 10358.00
394.6145, 10075.82
395.0966, 9869.733
395.5788, 9653.724
396.0609, 9392.510
396.5430, 9112.187
397.0251, 8856.700
397.5072, 8652.950
397.9893, 8455.146
398.4715, 8247.533
398.9536, 8025.594
399.4357, 7813.157
399.9178, 7605.199
400.3999, 7409.944
400.8820, 7236.960
401.3642, 7098.704
401.8463, 6961.068
402.3284, 6818.183
402.8105, 6670.308
403.2926, 6518.475
403.7747, 6356.935
404.2569, 6202.007
404.7390, 6068.463
405.2211, 5959.878
405.7032, 5847.592
406.1853, 5723.840
406.6674, 5597.323
407.1496, 5489.853
407.6317, 5402.135
408.1138, 5323.465
408.5959, 5247.401
409.0780, 5174.485
409.5602, 5109.766
410.0423, 5056.456
410.5244, 5004.605
411.0065, 4937.008
411.4886, 4858.048
411.9707, 4789.291
412.4529, 4748.401
412.9350, 4719.654
413.4171, 4676.232
413.8992, 4617.886
414.3813, 4561.036
414.8634, 4517.227
415.3456, 4482.755
415.8277, 4453.229
416.3098, 4432.054
416.7919, 4409.412
417.2740, 4372.519
417.7561, 4326.489
418.2382, 4289.178
418.7203, 4271.145
419.2025, 4264.104
419.6846, 4264.386
420.1667, 4276.649
420.6488, 4283.921
421.1309, 4278.792
421.6130, 4265.724
422.0952, 4252.500
422.5773, 4237.545
423.0594, 4225.649
423.5415, 4216.479
424.0236, 4208.335
424.5057, 4212.594
424.9879, 4244.558
425.4700, 4279.279
425.9521, 4293.363
426.4342, 4269.955
426.9163, 4255.046
427.3984, 4257.546
427.8806, 4274.826
428.3627, 4286.901
428.8448, 4288.535
429.3269, 4296.021
429.8090, 4324.906
430.2911, 4379.753
430.7733, 4417.155
431.2554, 4429.812
431.7375, 4430.193
432.2196, 4443.468
432.7017, 4469.985
433.1838, 4491.939
433.6660, 4494.914
434.1481, 4485.750
434.6302, 4486.666
435.1123, 4497.436
435.5944, 4522.041
436.0765, 4578.046
436.5587, 4651.820
437.0408, 4707.982
437.5229, 4722.499
438.0050, 4725.040
438.4871, 4747.073
438.9692, 4785.987
439.4514, 4827.345
439.9335, 4866.654
440.4156, 4902.000
440.8977, 4928.939
441.3798, 4937.691
441.8619, 4957.569
442.3441, 5015.227
442.8262, 5092.225
443.3083, 5154.482
443.7904, 5173.492
444.2725, 5190.968
444.7546, 5223.576
445.2368, 5274.352
445.7189, 5327.191
446.2010, 5380.730
446.6831, 5434.978
447.1652, 5489.551
447.6473, 5542.338
448.1295, 5598.893
448.6116, 5661.238
449.0937, 5728.321
449.5758, 5790.597
450.0579, 5844.715
450.5400, 5899.831
451.0221, 5960.208
451.5042, 6024.916
451.9864, 6099.087
452.4685, 6187.337
452.9506, 6278.444
453.4327, 6347.638
453.9148, 6394.147
454.3969, 6456.792
454.8791, 6557.404
455.3612, 6684.853
455.8433, 6804.172
456.3254, 6914.256
456.8075, 7019.317
457.2896, 7114.816
457.7718, 7207.035
458.2539, 7307.262
458.7360, 7423.770
459.2181, 7542.681
459.7002, 7645.165
460.1823, 7738.019
460.6645, 7839.900
461.1466, 7973.245
461.6287, 8111.776
462.1108, 8232.203
462.5929, 8328.356
463.0750, 8429.457
463.5572, 8546.337
464.0393, 8675.538
464.5214, 8811.998
465.0035, 8965.923
465.4856, 9113.387
465.9677, 9244.925
466.4499, 9361.009
466.9320, 9478.378
467.4141, 9602.034
467.8962, 9724.269
468.3783, 9839.863
468.8604, 9939.451
469.3426, 10052.79
469.8247, 10185.23
470.3068, 10330.22
470.7889, 10478.20
471.2710, 10631.71
471.7531, 10778.81
472.2353, 10916.19
472.7174, 11044.19
473.1995, 11156.11
473.6816, 11249.47
474.1637, 11342.95
474.6458, 11457.58
475.1280, 11588.70
475.6101, 11714.44
476.0922, 11830.47
476.5743, 11938.46
477.0564, 12036.11
477.5385, 12126.08
478.0207, 12215.49
478.5028, 12317.03
478.9849, 12416.67
479.4670, 12500.68
479.9491, 12567.54
480.4312, 12619.92
480.9134, 12651.36
481.3955, 12671.43
481.8776, 12691.36
482.3597, 12726.10
482.8418, 12749.39
483.3239, 12752.82
483.8060, 12737.11
484.2881, 12708.52
484.7703, 12660.18
485.2524, 12605.86
485.7345, 12553.14
486.2166, 12510.51
486.6987, 12451.52
487.1808, 12373.57
487.6630, 12280.61
488.1451, 12179.92
488.6272, 12076.44
489.1093, 11951.36
489.5914, 11787.28
490.0735, 11594.16
490.5557, 11440.90
491.0378, 11334.48
491.5199, 11237.30
492.0020, 11118.73
492.4841, 10982.45
492.9662, 10846.22
493.4484, 10710.80
493.9305, 10581.60
494.4126, 10477.31
494.8947, 10389.03
495.3768, 10290.26
495.8589, 10147.32
496.3411, 9997.800
496.8232, 9884.758
497.3053, 9809.129
497.7874, 9736.255
498.2695, 9644.863
498.7516, 9548.140
499.2338, 9457.358
499.7159, 9379.075
500.1980, 9303.035
500.6801, 9225.789
501.1622, 9149.716
501.6443, 9080.302
502.1265, 9023.753
502.6086, 8969.670
503.0907, 8918.375
503.5728, 8872.660
504.0549, 8808.302
504.5370, 8712.438
505.0192, 8612.332
505.5013, 8532.893
505.9834, 8476.671
506.4655, 8431.638
506.9476, 8398.809
507.4297, 8373.809
507.9119, 8344.354
508.3940, 8309.792
508.8761, 8281.080
509.3582, 8261.250
509.8403, 8251.688
510.3224, 8260.514
510.8046, 8289.271
511.2867, 8321.647
511.7688, 8336.100
512.2509, 8344.076
512.7330, 8367.781
513.2151, 8419.677
513.6973, 8482.802
514.1794, 8540.395
514.6615, 8597.925
515.1436, 8673.043
515.6257, 8775.479
516.1078, 8897.091
516.5900, 9033.435
517.0721, 9188.275
517.5542, 9345.578
518.0363, 9493.988
518.5184, 9648.097
519.0005, 9822.446
519.4827, 10023.88
519.9648, 10235.93
520.4469, 10447.01
520.9290, 10665.63
521.4111, 10921.05
521.8932, 11220.84
522.3754, 11537.90
522.8575, 11845.60
523.3396, 12144.97
523.8217, 12506.81
524.3038, 12942.47
524.7859, 13407.21
525.2681, 13848.19
525.7502, 14282.91
526.2323, 14776.06
526.7144, 15364.21
527.1965, 16003.58
527.6786, 16628.64
528.1608, 17246.22
528.6429, 17897.71
529.1250, 18579.07
529.6071, 19315.80
530.0892, 20130.95
530.5714, 21039.69
531.0535, 21963.85
531.5356, 22846.41
532.0176, 23733.33
532.4998, 24666.02
532.9819, 25706.27
533.4640, 26738.51
533.9461, 27747.29
534.4282, 28740.71
534.9103, 29759.13
535.3925, 30824.84
535.8746, 31899.53
536.3567, 32985.21
536.8388, 34085.23
537.3209, 35106.89
537.8030, 36040.80
538.2852, 36900.86
538.7673, 37724.58
539.2494, 38504.11
539.7315, 39180.54
540.2136, 39747.24
540.6957, 40196.48
541.1779, 40535.85
541.6600, 40753.10
542.1421, 40800.21
542.6242, 40633.16
543.1063, 40289.23
543.5884, 39810.17
544.0706, 39198.25
544.5527, 38426.60
545.0348, 37450.68
545.5169, 36323.18
545.9990, 35086.14
546.4811, 33667.25
546.9633, 32254.64
547.4454, 30899.06
547.9275, 29589.70
548.4096, 28263.48
548.8917, 26861.92
549.3738, 25519.35
549.8560, 24276.72
550.3381, 23134.32
550.8202, 22008.92
551.3023, 20877.06
551.7844, 19810.18
552.2665, 18864.63
552.7487, 18040.07
553.2308, 17234.60
553.7129, 16429.18
554.1950, 15663.77
554.6771, 15011.46
555.1592, 14453.36
555.6414, 13921.57
556.1235, 13382.79
556.6056, 12858.51
557.0877, 12375.13
557.5698, 11931.14
558.0519, 11516.89
558.5341, 11130.23
559.0162, 10766.03
559.4983, 10432.31
559.9804, 10134.20
560.4625, 9838.876
560.9446, 9520.041
561.4268, 9206.954
561.9089, 8931.709
562.3910, 8711.477
562.8731, 8506.534
563.3552, 8315.314
563.8373, 8137.461
564.3195, 7968.238
564.8016, 7811.667
565.2837, 7656.523
565.7658, 7496.115
566.2479, 7330.322
566.7300, 7180.111
567.2122, 7047.546
567.6943, 6923.714
568.1764, 6798.683
568.6585, 6674.238
569.1406, 6559.841
569.6227, 6457.556
570.1049, 6364.021
570.5870, 6279.872
571.0691, 6203.331
571.5512, 6126.516
572.0333, 6039.361
572.5154, 5957.319
572.9976, 5893.405
573.4797, 5847.437
573.9618, 5799.374
574.4439, 5745.008
574.9260, 5685.737
575.4081, 5622.396
575.8903, 5546.675
576.3724, 5481.197
576.8545, 5429.617
577.3366, 5385.294
577.8187, 5338.840
578.3008, 5289.273
578.7830, 5243.167
579.2651, 5206.261
579.7472, 5171.728
580.2293, 5113.185
580.7114, 5031.761
581.1935, 4953.176
581.6757, 4894.710
582.1578, 4851.115
582.6399, 4817.258
583.1220, 4794.157
583.6041, 4764.745
584.0862, 4706.102
584.5684, 4638.122
585.0505, 4585.187
585.5326, 4570.538
586.0147, 4549.536
586.4968, 4498.477
586.9789, 4430.744
587.4611, 4376.222
587.9432, 4352.519
588.4253, 4326.992
588.9074, 4289.404
589.3895, 4240.046
589.8716, 4203.957
590.3538, 4187.987
590.8359, 4170.499
591.3180, 4132.992
591.8001, 4075.434
592.2822, 4028.507
592.7643, 3995.788
593.2465, 3967.738
593.7286, 3934.267
594.2107, 3895.282
594.6928, 3851.334
595.1749, 3795.333
595.6570, 3742.094
596.1392, 3709.562
596.6213, 3692.766
597.1034, 3675.837
597.5854, 3655.528
598.0676, 3629.148
598.5497, 3586.053
599.0318, 3520.405
599.5139, 3487.562
599.9960, 3533.977
600.4781, 3588.904
600.9603, 3607.456
601.4424, 3581.915
601.9245, 3533.514
602.4066, 3449.399
602.8887, 3357.647
603.3708, 3309.184
603.8530, 3307.904
604.3351, 3300.278
604.8172, 3265.681
605.2993, 3218.051
605.7814, 3192.042
606.2635, 3185.400
606.7457, 3180.513
607.2278, 3165.673
607.7099, 3146.728
608.1920, 3129.000
608.6741, 3112.525
609.1563, 3102.079
609.6384, 3112.907
610.1205, 3124.114
610.6026, 3116.736
611.0847, 3066.394
611.5668, 3026.255
612.0490, 3007.126
