##NAMES=Barysilite
##RRUFFID=R100057
##IDEAL CHEMISTRY=Pb^2+^_8_Mn^2+^(Si_2_O_7_)_3_
##LOCALITY=Langban, Filipstad, Varmland, Sweden
##OWNER=RRUFF
##SOURCE=William W Pinch
##DESCRIPTION=Aggregate of colorless plates
##STATUS=The identification of this mineral has been confirmed by single-crystal X-ray diffraction.
##URL=rruff.info/R100057
90.97430, 10.07107
91.45642, 10.05085
91.93854, 10.05863
92.42065, 10.10732
92.90277, 10.28530
93.38489, 10.65056
93.86700, 10.91643
94.34912, 10.59665
94.83124, 9.786904
95.31335, 9.044360
95.79547, 8.742092
96.27759, 8.801204
96.75970, 8.887699
97.24182, 8.956174
97.72394, 9.032091
98.20605, 9.197188
98.68817, 9.464933
99.17029, 9.717139
99.65240, 9.865106
100.1345, 9.905309
100.6166, 9.895411
101.0988, 9.847956
101.5809, 9.760515
102.0630, 9.585780
102.5451, 9.264791
103.0272, 8.958464
103.5093, 8.831989
103.9915, 8.894667
104.4736, 9.129132
104.9557, 9.644309
105.4378, 10.58238
105.9199, 10.95567
106.4020, 10.40675
106.8842, 9.470186
107.3663, 9.100316
107.8484, 9.862003
108.3305, 10.54017
108.8126, 10.69835
109.2947, 9.926336
109.7769, 9.315872
110.2590, 8.935506
110.7411, 8.727114
111.2232, 8.520331
111.7053, 8.062989
112.1874, 7.781110
112.6696, 7.870593
113.1517, 8.970866
113.6338, 9.774921
114.1159, 9.956635
114.5980, 9.602268
115.0801, 9.340206
115.5623, 9.359870
116.0444, 9.507377
116.5265, 9.663074
117.0086, 9.834734
117.4907, 9.977201
117.9728, 10.08207
118.4550, 10.14923
118.9371, 10.16187
119.4192, 10.04911
119.9013, 9.891332
120.3834, 9.792837
120.8655, 9.876487
121.3477, 9.983534
121.8298, 9.992112
122.3119, 9.879479
122.7940, 9.742515
123.2761, 9.589528
123.7582, 9.458287
124.2404, 9.432886
124.7225, 9.567807
125.2046, 9.831375
125.6867, 10.21055
126.1688, 10.74968
126.6509, 11.29482
127.1331, 11.61112
127.6152, 11.75077
128.0973, 11.97306
128.5794, 12.52792
129.0615, 13.29934
129.5436, 13.98998
130.0258, 14.46485
130.5079, 14.90757
130.9900, 15.65055
131.4721, 16.68725
131.9542, 17.91616
132.4363, 19.26838
132.9185, 20.74248
133.4006, 22.33046
133.8827, 24.05679
134.3648, 25.87930
134.8469, 27.65131
135.3290, 29.28798
135.8112, 31.25746
136.2933, 34.26656
136.7754, 38.40098
137.2575, 42.42033
137.7396, 45.81944
138.2217, 48.56783
138.7039, 51.80705
139.1860, 55.70039
139.6681, 59.83677
140.1502, 63.69674
140.6323, 67.21888
141.1144, 70.54341
141.5966, 73.69886
142.0787, 76.63128
142.5608, 79.61620
143.0429, 82.85660
143.5250, 86.03160
144.0071, 88.25229
144.4893, 88.86682
144.9714, 89.55470
145.4535, 91.10970
145.9356, 94.13609
146.4177, 96.84592
146.8998, 99.07043
147.3820, 100.9480
147.8641, 103.1556
148.3462, 105.8281
148.8283, 108.6755
149.3104, 111.5780
149.7925, 114.4979
150.2747, 117.5075
150.7568, 120.7821
151.2389, 124.2604
151.7210, 127.1436
152.2031, 128.8837
152.6852, 130.3365
153.1674, 132.0522
153.6495, 134.6096
154.1316, 136.8312
154.6137, 138.2953
155.0958, 138.9788
155.5779, 140.1598
156.0601, 142.0619
156.5422, 144.4925
157.0243, 147.2676
157.5064, 150.3133
157.9885, 153.7403
158.4706, 157.5482
158.9528, 161.7246
159.4349, 166.4035
159.9170, 171.1898
160.3991, 176.6234
160.8812, 183.3286
161.3633, 191.8593
161.8455, 201.4000
162.3276, 211.5969
162.8097, 222.2028
163.2918, 233.8510
163.7739, 246.7737
164.2560, 260.5304
164.7382, 273.1310
165.2203, 285.2813
165.7024, 298.3575
166.1845, 312.8726
166.6666, 329.0276
167.1487, 346.2354
167.6309, 364.9238
168.1130, 384.6451
168.5951, 404.1115
169.0772, 422.5698
169.5593, 440.8180
170.0414, 459.4751
170.5236, 478.6592
171.0057, 498.3594
171.4878, 518.6420
171.9699, 539.6681
172.4520, 561.4808
172.9341, 584.8225
173.4163, 608.9143
173.8984, 632.5475
174.3805, 654.6556
174.8626, 677.7010
175.3447, 704.7375
175.8268, 735.3511
176.3090, 767.8599
176.7911, 800.1923
177.2732, 833.5331
177.7553, 869.5163
178.2374, 908.3972
178.7195, 950.4077
179.2017, 995.8614
179.6838, 1045.082
180.1659, 1097.332
180.6480, 1153.265
181.1301, 1211.994
181.6122, 1273.160
182.0944, 1338.910
182.5765, 1405.241
183.0586, 1468.359
183.5407, 1527.229
184.0228, 1580.722
184.5049, 1630.287
184.9871, 1674.076
185.4692, 1703.342
185.9513, 1715.751
186.4334, 1712.264
186.9155, 1693.988
187.3976, 1660.744
187.8798, 1616.182
188.3619, 1562.010
188.8440, 1498.559
189.3261, 1431.125
189.8082, 1359.221
190.2903, 1284.320
190.7725, 1209.971
191.2546, 1134.732
191.7367, 1062.488
192.2188, 996.3697
192.7009, 935.7033
193.1830, 879.4647
193.6652, 827.5361
194.1473, 779.3907
194.6294, 734.9965
195.1115, 694.4109
195.5936, 657.2469
196.0757, 623.2449
196.5579, 592.4106
197.0400, 564.0021
197.5221, 537.8647
198.0042, 514.0563
198.4863, 492.0339
198.9684, 472.0089
199.4506, 453.5185
199.9327, 436.0645
200.4148, 419.4863
200.8969, 404.5322
201.3790, 391.5898
201.8611, 380.7632
202.3433, 370.6013
202.8254, 361.2535
203.3075, 352.2737
203.7896, 342.8566
204.2717, 332.7241
204.7538, 323.2696
205.2360, 315.2432
205.7181, 308.7940
206.2002, 302.3383
206.6823, 295.8019
207.1644, 289.3462
207.6465, 283.2082
208.1287, 277.4164
208.6108, 272.0494
209.0929, 267.2325
209.5750, 263.0473
210.0571, 258.8850
210.5392, 254.6477
211.0214, 250.4915
211.5035, 246.8077
211.9856, 243.8230
212.4677, 240.7962
212.9498, 237.2868
213.4319, 233.1051
213.9140, 229.3638
214.3962, 226.0474
214.8783, 223.1751
215.3604, 220.9911
215.8425, 219.8534
216.3246, 218.5439
216.8067, 216.3366
217.2889, 212.8091
217.7710, 209.8856
218.2531, 207.6120
218.7352, 205.9450
219.2173, 204.8262
219.6994, 204.5301
220.1816, 204.2444
220.6637, 203.5909
221.1458, 202.4601
221.6279, 201.2287
222.1100, 199.7085
222.5921, 198.1649
223.0743, 197.2537
223.5564, 197.0803
224.0385, 197.3760
224.5206, 198.0654
225.0027, 199.3025
225.4848, 200.6082
225.9670, 202.2525
226.4491, 203.8653
226.9312, 204.3318
227.4133, 202.8690
227.8954, 201.5222
228.3775, 201.2807
228.8597, 202.5316
229.3418, 203.9329
229.8239, 205.5328
230.3060, 207.2546
230.7881, 208.8241
231.2702, 210.1283
231.7524, 211.4697
232.2345, 212.9178
232.7166, 214.3269
233.1987, 216.2735
233.6808, 219.0856
234.1629, 222.3385
234.6451, 224.9180
235.1272, 226.4743
235.6093, 227.8589
236.0914, 229.4769
236.5735, 231.5856
237.0556, 233.3441
237.5378, 234.6203
238.0199, 235.5964
238.5020, 236.6746
238.9841, 237.6902
239.4662, 239.0797
239.9483, 241.2290
240.4305, 245.0214
240.9126, 247.3825
241.3947, 247.7197
241.8768, 246.8088
242.3589, 246.6164
242.8410, 247.7263
243.3232, 248.6470
243.8053, 248.6297
244.2874, 246.9749
244.7695, 246.1056
245.2516, 246.3670
245.7337, 247.2695
246.2159, 247.6565
246.6980, 247.0271
247.1801, 246.6764
247.6622, 247.1855
248.1443, 248.9661
248.6264, 250.4399
249.1086, 251.4123
249.5907, 252.1864
250.0728, 253.3659
250.5549, 254.9688
251.0370, 256.9449
251.5191, 259.2921
252.0013, 262.0011
252.4834, 265.0759
252.9655, 268.7015
253.4476, 272.5457
253.9297, 275.9672
254.4118, 278.7728
254.8940, 281.4526
255.3761, 284.3623
255.8582, 287.9136
256.3403, 290.0136
256.8224, 290.3345
257.3046, 289.4677
257.7867, 288.4028
258.2688, 287.3092
258.7509, 285.6682
259.2330, 283.4018
259.7151, 280.5690
260.1973, 276.7015
260.6794, 271.7570
261.1615, 265.9117
261.6436, 259.4369
262.1257, 252.0299
262.6078, 244.6207
263.0900, 237.7077
263.5721, 231.3596
264.0542, 224.0958
264.5363, 215.3494
265.0184, 206.2771
265.5005, 198.0916
265.9827, 191.0755
266.4648, 184.3066
266.9469, 177.5023
267.4290, 170.6721
267.9111, 164.5391
268.3932, 159.2934
268.8754, 154.5199
269.3575, 149.7432
269.8396, 144.8247
270.3217, 140.2547
270.8038, 136.2054
271.2859, 132.6248
271.7681, 129.1356
272.2502, 125.6786
272.7323, 122.4373
273.2144, 119.7257
273.6965, 117.5979
274.1786, 115.6419
274.6608, 113.7958
275.1429, 112.0469
275.6250, 110.2061
276.1071, 108.2226
276.5892, 106.2993
277.0714, 104.6930
277.5535, 103.4246
278.0356, 102.2098
278.5177, 101.0148
278.9998, 99.82985
279.4819, 98.55347
279.9641, 97.11214
280.4462, 95.83871
280.9283, 95.08696
281.4104, 94.88335
281.8925, 94.57511
282.3746, 94.05602
282.8568, 93.37525
283.3389, 92.60244
283.8210, 91.70828
284.3031, 90.94233
284.7852, 90.57404
285.2673, 90.57632
285.7495, 90.40756
286.2316, 89.96395
286.7137, 89.36851
287.1958, 88.88570
287.6779, 88.51860
288.1600, 88.13332
288.6422, 87.59452
289.1243, 86.93239
289.6064, 86.46790
290.0885, 86.30588
290.5706, 86.13818
291.0527, 85.33260
291.5349, 83.93717
292.0170, 82.64285
292.4991, 81.77422
292.9812, 81.30750
293.4633, 81.31147
293.9454, 81.88496
294.4276, 82.52452
294.9097, 82.47131
295.3918, 81.84417
295.8739, 81.26358
296.3560, 81.24680
296.8381, 81.46989
297.3203, 81.01831
297.8024, 79.80210
298.2845, 78.59371
298.7666, 78.31065
299.2487, 78.72761
299.7308, 79.14729
300.2130, 79.37820
300.6951, 79.40182
301.1772, 79.03516
301.6593, 78.28190
302.1414, 77.67636
302.6235, 77.80940
303.1057, 78.42899
303.5878, 79.03153
304.0699, 79.50706
304.5520, 79.84511
305.0341, 79.94882
305.5162, 79.84924
305.9984, 79.81306
306.4805, 80.04739
306.9626, 80.45982
307.4447, 80.93443
307.9268, 81.53142
308.4089, 82.06363
308.8911, 82.11752
309.3732, 81.87268
309.8553, 82.07106
310.3374, 83.82850
310.8195, 85.93288
311.3016, 87.06953
311.7838, 86.60616
312.2659, 85.90785
312.7480, 85.72531
313.2301, 85.97975
313.7122, 86.46562
314.1943, 86.92258
314.6765, 87.68949
315.1586, 89.18588
315.6407, 91.75735
316.1228, 94.02483
316.6049, 94.98032
317.0870, 95.23476
317.5692, 95.77972
318.0513, 96.99677
318.5334, 98.56956
319.0155, 100.4480
319.4976, 102.7004
319.9797, 104.8170
320.4619, 106.5511
320.9440, 108.0958
321.4261, 109.6452
321.9082, 111.2339
322.3903, 112.8599
322.8724, 114.7407
323.3546, 116.8908
323.8367, 118.3549
324.3188, 118.4880
324.8009, 118.1249
325.2830, 117.9040
325.7651, 118.5414
326.2473, 118.6246
326.7294, 117.6748
327.2115, 115.8399
327.6936, 114.2815
328.1757, 113.2940
328.6578, 112.4487
329.1400, 111.5324
329.6221, 110.5279
330.1042, 109.4914
330.5863, 108.4516
331.0684, 107.3740
331.5505, 106.1766
332.0327, 104.7406
332.5148, 103.3072
332.9969, 101.9001
333.4790, 100.3625
333.9611, 99.37804
334.4432, 99.18004
334.9254, 99.39888
335.4075, 99.44076
335.8896, 99.33653
336.3717, 98.99204
336.8538, 98.34749
337.3359, 97.37268
337.8180, 96.34154
338.3001, 95.19778
338.7823, 94.08760
339.2644, 93.24557
339.7465, 92.75291
340.2286, 92.14490
340.7107, 91.28165
341.1928, 90.19746
341.6750, 89.21021
342.1571, 88.30203
342.6392, 87.50059
343.1213, 86.82578
343.6034, 86.28322
344.0855, 85.80086
344.5677, 85.34776
345.0498, 84.97220
345.5319, 84.88292
346.0140, 85.09200
346.4961, 85.24699
346.9782, 85.05966
347.4604, 84.60338
347.9425, 84.20688
348.4246, 83.86710
348.9067, 83.68671
349.3888, 83.93226
349.8709, 84.52712
350.3531, 85.04164
350.8352, 85.18934
351.3173, 85.12587
351.7994, 85.07333
352.2815, 85.02248
352.7636, 85.19756
353.2458, 85.91263
353.7279, 87.01441
354.2100, 88.17233
354.6921, 89.24508
355.1742, 90.31798
355.6563, 91.62361
356.1385, 93.11272
356.6206, 94.34466
357.1027, 94.76009
357.5848, 94.83987
358.0669, 95.18587
358.5490, 96.17911
359.0312, 97.13770
359.5133, 97.40023
359.9954, 97.23100
360.4775, 97.45336
360.9596, 99.05576
361.4417, 100.7949
361.9239, 101.7948
362.4060, 101.7297
362.8881, 101.4792
363.3702, 101.0651
363.8523, 100.7294
364.3344, 100.8433
364.8166, 102.2514
365.2987, 103.4722
365.7808, 103.7503
366.2629, 102.9118
366.7450, 102.4152
367.2271, 102.6222
367.7093, 103.2041
368.1914, 103.8718
368.6735, 104.7485
369.1556, 105.5522
369.6377, 106.1859
370.1198, 106.6800
370.6020, 107.2448
371.0841, 107.7963
371.5662, 108.5001
372.0483, 109.4774
372.5304, 111.0989
373.0125, 112.2918
373.4947, 112.8409
373.9768, 113.0070
374.4589, 113.4106
374.9410, 114.1358
375.4231, 114.9303
375.9052, 115.7307
376.3874, 116.5536
376.8695, 117.3054
377.3516, 118.0671
377.8337, 118.6351
378.3158, 118.5960
378.7979, 117.8173
379.2801, 117.4797
379.7622, 118.1359
380.2443, 119.4591
380.7264, 119.8914
381.2085, 119.3294
381.6906, 118.5817
382.1728, 118.1783
382.6549, 118.1310
383.1370, 118.6685
383.6191, 120.0901
384.1012, 121.6499
384.5833, 122.0373
385.0655, 121.3575
385.5476, 120.4478
386.0297, 119.8155
386.5118, 119.2720
386.9939, 118.4903
387.4760, 117.4560
387.9582, 116.1297
388.4403, 114.1301
388.9224, 111.8017
389.4045, 109.8726
389.8866, 109.1903
390.3687, 108.6340
390.8509, 107.1575
391.3330, 104.8333
391.8151, 102.4545
392.2972, 100.6115
392.7793, 98.90549
393.2614, 96.90569
393.7436, 94.12025
394.2257, 91.60860
394.7078, 90.02304
395.1899, 89.08997
395.6720, 88.09090
396.1541, 86.72575
396.6363, 85.30215
397.1184, 83.96886
397.6005, 82.77393
398.0826, 81.56861
398.5647, 80.23154
399.0468, 78.90628
399.5290, 77.76679
400.0111, 76.98568
400.4932, 76.21744
400.9753, 75.35229
401.4574, 74.38825
401.9395, 73.66645
402.4217, 73.35598
402.9038, 73.10152
403.3859, 72.62331
403.8680, 71.68002
404.3501, 71.10961
404.8322, 71.10384
405.3144, 71.44376
405.7965, 71.49937
406.2786, 71.14108
406.7607, 70.93136
407.2428, 71.25053
407.7249, 72.12786
408.2071, 72.50951
408.6892, 72.28426
409.1713, 71.89854
409.6534, 71.92568
410.1355, 72.34782
410.6176, 72.78794
411.0998, 73.12258
411.5819, 73.41499
412.0640, 73.80554
412.5461, 74.29060
413.0282, 74.86559
413.5103, 75.54073
413.9925, 76.29361
414.4746, 77.05177
414.9567, 77.75439
415.4388, 78.61343
415.9209, 79.92617
416.4030, 81.57682
416.8852, 83.31694
417.3673, 85.12094
417.8494, 86.87151
418.3315, 88.43552
418.8136, 89.78859
419.2957, 91.21406
419.7779, 92.74418
420.2600, 94.46713
420.7421, 96.44473
421.2242, 98.74109
421.7063, 101.2676
422.1884, 104.3964
422.6706, 107.8420
423.1527, 110.6474
423.6348, 111.8458
424.1169, 112.9194
424.5990, 114.6126
425.0811, 117.3907
425.5633, 119.8150
426.0454, 121.1342
426.5275, 122.3597
427.0096, 124.8776
427.4917, 129.7468
427.9738, 134.2731
428.4560, 137.7669
428.9381, 140.3140
429.4202, 143.1907
429.9023, 146.3659
430.3844, 149.8553
430.8665, 153.7655
431.3487, 158.2302
431.8308, 162.2592
432.3129, 165.6675
432.7950, 168.7233
433.2771, 171.9848
433.7592, 175.4423
434.2414, 178.6186
434.7235, 181.4691
435.2056, 183.8752
435.6877, 185.2572
436.1698, 185.5751
436.6519, 185.3294
437.1341, 185.1356
437.6162, 184.7702
438.0983, 183.6030
438.5804, 181.2723
439.0625, 178.3487
439.5446, 175.4742
440.0268, 172.5693
440.5089, 169.3385
440.9910, 165.4491
441.4731, 161.2611
441.9552, 156.9760
442.4373, 152.6283
442.9195, 148.3807
443.4016, 144.3376
443.8837, 140.3272
444.3658, 136.6268
444.8479, 132.7314
445.3300, 129.0514
445.8122, 125.5843
446.2943, 122.3757
446.7764, 119.5345
447.2585, 117.5086
447.7406, 115.5248
448.2227, 113.1733
448.7049, 110.2617
449.1870, 107.3654
449.6691, 104.2830
450.1512, 101.3290
450.6333, 99.08171
451.1154, 97.71057
451.5976, 96.66912
452.0797, 95.99339
452.5618, 95.62282
453.0439, 94.54028
453.5260, 92.52222
454.0081, 90.55299
454.4903, 89.57148
454.9724, 89.56805
455.4545, 89.21014
455.9366, 88.21378
456.4187, 87.06835
456.9008, 86.76395
457.3830, 87.18626
457.8651, 87.47776
458.3472, 87.02428
458.8293, 86.23668
459.3114, 85.90718
459.7935, 86.04063
460.2757, 86.20075
460.7578, 85.87080
461.2399, 85.40105
461.7220, 85.26950
462.2041, 85.60023
462.6862, 86.29577
463.1684, 87.55544
463.6505, 89.14433
464.1326, 90.48927
464.6147, 91.02460
465.0968, 91.54053
465.5789, 92.42776
466.0611, 93.74786
466.5432, 95.18166
467.0253, 96.74702
467.5074, 98.34570
467.9895, 99.88649
468.4716, 101.1336
468.9538, 102.6555
469.4359, 104.5852
469.9180, 106.7966
470.4001, 108.8880
470.8822, 110.7199
471.3643, 112.6583
471.8465, 114.8477
472.3286, 117.2985
472.8107, 119.8945
473.2928, 122.5708
473.7749, 125.4726
474.2570, 128.7214
474.7392, 132.3175
475.2213, 136.1278
475.7034, 140.0547
476.1855, 144.2646
476.6676, 149.3606
477.1497, 155.2607
477.6319, 160.9430
478.1140, 165.5246
478.5961, 169.6296
479.0782, 174.4881
479.5603, 180.2480
480.0424, 185.7766
480.5246, 190.0845
481.0067, 193.6017
481.4888, 196.9636
481.9709, 200.6824
482.4530, 203.9806
482.9352, 206.2257
483.4173, 207.6833
483.8994, 209.1948
484.3815, 210.7871
484.8636, 212.7141
485.3457, 215.0734
485.8279, 217.8722
486.3100, 221.1387
486.7921, 224.6826
487.2742, 228.8030
487.7563, 233.8165
488.2384, 239.8610
488.7206, 246.6183
489.2027, 254.0464
489.6848, 262.1539
490.1669, 270.8542
490.6490, 279.9645
491.1311, 290.0084
491.6133, 301.1928
492.0954, 313.5518
492.5775, 326.7100
493.0596, 340.7616
493.5417, 354.9453
494.0238, 367.9134
494.5060, 380.1346
494.9881, 393.6830
495.4702, 409.2318
495.9523, 425.8905
496.4344, 442.1425
496.9165, 458.1813
497.3987, 474.6624
497.8808, 492.2572
498.3629, 510.4777
498.8450, 528.7176
499.3271, 547.0577
499.8092, 566.1010
500.2914, 587.9156
500.7735, 609.8430
501.2556, 629.9397
501.7377, 645.6467
502.2198, 661.6200
502.7019, 680.0345
503.1841, 699.5807
503.6662, 716.8244
504.1483, 731.1270
504.6304, 743.8166
505.1125, 755.5763
505.5946, 766.6732
506.0768, 773.9873
506.5589, 777.3173
507.0410, 777.0801
507.5231, 773.3669
508.0052, 766.0184
508.4873, 756.5365
508.9695, 745.3615
509.4516, 731.9678
509.9337, 715.3328
510.4158, 695.4984
510.8979, 673.3133
511.3800, 647.8625
511.8622, 620.5161
512.3443, 594.0504
512.8264, 568.6270
513.3085, 543.1561
513.7906, 516.4186
514.2728, 489.3657
514.7549, 463.0911
515.2370, 437.6068
515.7191, 413.5313
516.2012, 391.1005
516.6833, 370.4408
517.1655, 351.3596
517.6476, 334.2980
518.1297, 318.3426
518.6118, 303.2859
519.0939, 289.1048
519.5760, 275.5969
520.0582, 262.7688
520.5403, 250.7135
521.0224, 239.6312
521.5045, 229.4990
521.9866, 220.2460
522.4688, 212.0315
522.9509, 204.5136
523.4330, 197.1241
523.9151, 189.7854
524.3972, 182.9548
524.8793, 176.7320
525.3615, 171.1611
525.8436, 166.4731
526.3257, 162.6387
526.8078, 158.9305
527.2899, 154.7055
527.7720, 150.2847
528.2542, 146.4365
528.7363, 143.2109
529.2184, 140.4113
529.7005, 138.0299
530.1826, 135.9639
530.6647, 134.0906
531.1469, 132.4306
531.6290, 130.8967
532.1111, 129.3456
532.5932, 127.9050
533.0753, 126.8396
533.5574, 126.6375
534.0396, 126.4138
534.5217, 125.7479
535.0038, 124.5923
535.4859, 123.8198
535.9680, 124.1128
536.4501, 124.1480
536.9323, 123.1443
537.4144, 120.7912
537.8965, 118.2284
538.3786, 115.5060
538.8607, 112.5452
539.3428, 109.1224
539.8250, 105.1477
540.3071, 101.5516
540.7892, 98.70398
541.2713, 96.35294
541.7534, 93.96611
542.2355, 91.56820
542.7177, 89.42706
543.1998, 87.79498
543.6819, 86.47153
544.1640, 85.14259
544.6461, 83.77540
545.1282, 82.53799
545.6104, 81.69308
546.0925, 80.99829
546.5746, 80.16704
547.0567, 78.88016
547.5388, 77.78267
548.0209, 77.14484
548.5031, 76.85665
548.9852, 76.65975
549.4673, 76.72873
549.9494, 76.65803
550.4315, 76.26637
550.9136, 75.55612
551.3958, 75.08581
551.8779, 74.89588
552.3600, 74.87818
552.8421, 75.04155
553.3242, 75.43224
553.8063, 75.57095
554.2885, 75.43674
554.7706, 75.05289
555.2527, 74.39291
555.7348, 73.48545
556.2169, 72.47350
556.6990, 71.28249
557.1812, 70.17658
557.6633, 69.81236
558.1454, 69.94615
558.6275, 69.65859
559.1096, 67.81801
559.5917, 65.75907
560.0739, 64.70107
560.5560, 64.73546
561.0381, 64.74102
561.5202, 64.19027
562.0023, 63.48006
562.4844, 62.89699
562.9666, 62.43920
563.4487, 62.18679
563.9308, 62.38340
564.4129, 62.67826
564.8950, 62.48756
565.3771, 61.52815
565.8593, 60.73010
566.3414, 60.34118
566.8235, 60.26857
567.3056, 60.12931
567.7877, 59.94054
568.2698, 59.55798
568.7520, 58.72557
569.2341, 57.60964
569.7162, 56.78998
570.1983, 56.29124
570.6804, 56.08136
571.1625, 56.42588
571.6447, 56.97162
572.1268, 57.11366
572.6089, 56.55798
573.0910, 55.90112
573.5731, 55.49489
574.0552, 55.25403
574.5374, 55.02022
575.0195, 54.61068
575.5016, 54.33809
575.9837, 54.39173
576.4658, 54.73879
576.9479, 54.94597
577.4301, 54.98493
577.9122, 54.90527
578.3943, 54.72169
578.8764, 54.43001
579.3585, 54.00965
579.8406, 53.35884
580.3228, 52.80508
580.8049, 52.80727
581.2870, 53.32469
581.7691, 53.62020
582.2512, 53.53159
582.7333, 53.25308
583.2155, 53.03285
583.6975, 52.86031
584.1796, 52.69276
584.6617, 52.41570
585.1439, 52.20562
585.6260, 52.38106
586.1081, 52.83093
586.5902, 52.99634
587.0723, 52.14289
587.5544, 51.30120
588.0366, 51.14611
588.5187, 51.96233
589.0008, 52.52977
