##NAMES=Barytocalcite
##RRUFFID=R050288
##IDEAL CHEMISTRY=BaCa(CO_3_)_2_
##LOCALITY=Cumberland, England
##OWNER=RRUFF
##SOURCE=Marcus Origlieri
##DESCRIPTION=Light tan elongated crystals
##STATUS=The identification of this mineral has been confirmed by X-ray diffraction and chemical analysis
##URL=rruff.info/R050288
##MEASURED CHEMISTRY=Ba_1.00_Ca_1.00_(CO_3_)_2_
122.8968, 407.3506
123.3789, 401.3952
123.8610, 395.6995
124.3431, 390.9086
124.8252, 387.9626
125.3074, 387.4186
125.7895, 388.5475
126.2716, 389.8489
126.7537, 391.0712
127.2358, 392.9901
127.7179, 396.6210
128.2001, 400.7978
128.6822, 404.4450
129.1643, 407.3747
129.6464, 409.2555
130.1285, 405.6062
130.6107, 392.4843
131.0928, 377.0457
131.5749, 359.8761
132.0570, 341.6420
132.5391, 322.8077
133.0212, 303.6234
133.5033, 283.5097
133.9855, 267.3385
134.4676, 256.2625
134.9497, 247.2599
135.4318, 238.7654
135.9139, 230.6032
136.3960, 223.3766
136.8782, 217.8479
137.3603, 214.2605
137.8424, 211.8780
138.3245, 211.3421
138.8066, 211.7419
139.2887, 211.9834
139.7709, 211.7600
140.2530, 211.6544
140.7351, 212.2439
141.2172, 213.4151
141.6993, 215.5321
142.1814, 219.1554
142.6636, 223.9389
143.1457, 228.6022
143.6278, 232.5576
144.1099, 236.6876
144.5920, 241.6962
145.0741, 247.5749
145.5563, 253.9735
146.0384, 260.8185
146.5205, 268.2000
147.0026, 275.1458
147.4847, 280.9370
147.9668, 286.6037
148.4490, 292.5681
148.9311, 298.9342
149.4132, 305.8210
149.8953, 313.4400
150.3774, 322.1577
150.8595, 331.0190
151.3417, 340.2367
151.8238, 349.3428
152.3059, 357.9769
152.7880, 365.9461
153.2701, 373.4055
153.7522, 380.6252
154.2344, 388.0681
154.7165, 394.5774
155.1986, 399.5642
155.6807, 403.7549
156.1628, 407.8926
156.6449, 412.2754
157.1271, 417.0529
157.6092, 422.9475
158.0913, 430.1831
158.5734, 438.0445
159.0555, 446.3592
159.5376, 455.1419
160.0198, 464.3669
160.5019, 473.8523
160.9840, 483.9760
161.4661, 495.5110
161.9482, 509.2188
162.4303, 523.4642
162.9125, 537.9423
163.3946, 552.5754
163.8767, 565.3727
164.3588, 576.0009
164.8409, 583.3583
165.3230, 585.7992
165.8052, 582.4703
166.2873, 574.5545
166.7694, 562.9281
167.2515, 546.7547
167.7336, 529.4964
168.2157, 512.2164
168.6979, 495.0203
169.1800, 477.8536
169.6621, 460.5049
170.1442, 443.3063
170.6263, 427.2178
171.1084, 413.0933
171.5906, 398.7969
172.0727, 383.3095
172.5548, 367.2709
173.0369, 351.4438
173.5190, 336.1832
174.0011, 321.5511
174.4833, 308.1111
174.9654, 296.4920
175.4475, 285.5348
175.9296, 275.0206
176.4117, 265.0191
176.8938, 255.5013
177.3760, 246.3551
177.8581, 237.5380
178.3402, 230.8951
178.8223, 227.5137
179.3044, 224.9519
179.7865, 222.5896
180.2687, 220.3593
180.7508, 218.3553
181.2329, 216.6172
181.7150, 215.1375
182.1971, 214.5471
182.6792, 215.5436
183.1614, 216.7103
183.6435, 217.1722
184.1256, 216.9234
184.6077, 216.5849
185.0898, 216.6684
185.5719, 217.2282
186.0541, 217.9778
186.5362, 218.4006
187.0183, 219.3085
187.5004, 221.6652
187.9825, 225.6285
188.4646, 230.0405
188.9468, 233.6381
189.4289, 236.7257
189.9110, 240.7771
190.3931, 247.0006
190.8752, 254.1138
191.3573, 259.8152
191.8395, 263.2560
192.3216, 267.2690
192.8037, 274.3482
193.2858, 283.5892
193.7679, 293.2440
194.2500, 302.3475
194.7322, 311.2221
195.2143, 321.2025
195.6964, 333.0002
196.1785, 344.8155
196.6606, 356.1213
197.1427, 366.7788
197.6249, 376.3309
198.1070, 384.1660
198.5891, 390.4610
199.0712, 397.1766
199.5533, 406.5216
200.0354, 413.6222
200.5176, 417.3651
200.9997, 417.5618
201.4818, 414.0128
201.9639, 406.3421
202.4460, 394.5191
202.9281, 380.5192
203.4103, 362.6761
203.8924, 344.0919
204.3745, 325.1913
204.8566, 306.2015
205.3387, 287.5894
205.8208, 269.5028
206.3030, 251.6079
206.7851, 236.9449
207.2672, 226.5722
207.7493, 217.9757
208.2314, 210.6046
208.7135, 204.2981
209.1957, 199.0349
209.6778, 194.8309
210.1599, 191.7732
210.6420, 189.4054
211.1241, 187.5991
211.6062, 186.4309
212.0884, 185.9026
212.5705, 186.0360
213.0526, 186.9668
213.5347, 189.0018
214.0168, 192.3263
214.4989, 194.7633
214.9811, 195.1685
215.4632, 195.6517
215.9453, 197.5612
216.4274, 200.9766
216.9095, 205.2445
217.3916, 209.9624
217.8737, 215.1756
218.3559, 220.2763
218.8380, 224.8669
219.3201, 229.6396
219.8022, 235.3969
220.2843, 242.1978
220.7664, 249.0938
221.2486, 255.3789
221.7307, 261.1483
222.2128, 266.5948
222.6949, 272.3756
223.1770, 277.5269
223.6591, 280.8943
224.1413, 282.3742
224.6234, 282.6572
225.1055, 282.3771
225.5876, 281.1957
226.0697, 278.1467
226.5518, 272.1940
227.0340, 264.6472
227.5161, 257.0852
227.9982, 249.2325
228.4803, 242.3447
228.9624, 237.6531
229.4445, 234.2692
229.9267, 231.1222
230.4088, 227.8684
230.8909, 224.6513
231.3730, 221.6419
231.8551, 218.5824
232.3372, 216.4601
232.8194, 215.9510
233.3015, 216.4055
233.7836, 217.1071
234.2657, 217.7192
234.7478, 218.4791
235.2299, 219.8474
235.7121, 221.6570
236.1942, 224.5550
236.6763, 228.5105
237.1584, 233.5127
237.6405, 239.4624
238.1227, 246.2710
238.6048, 254.3089
239.0869, 264.7008
239.5690, 279.0568
240.0511, 293.1298
240.5332, 305.4765
241.0154, 317.4359
241.4975, 330.1869
241.9796, 344.2299
242.4617, 359.2480
242.9438, 374.3639
243.4259, 390.2774
243.9081, 405.1863
244.3902, 419.0742
244.8723, 431.8745
245.3544, 443.0597
245.8365, 452.5374
246.3186, 461.3079
246.8008, 471.8050
247.2829, 485.0965
247.7650, 498.7213
248.2471, 512.1465
248.7292, 526.0111
249.2113, 540.8613
249.6935, 556.8915
250.1756, 573.9872
250.6577, 591.9899
251.1398, 611.3124
251.6219, 630.9283
252.1040, 649.5714
252.5862, 668.9963
253.0683, 691.0543
253.5504, 716.1031
254.0325, 742.8907
254.5146, 769.2941
254.9967, 793.8429
255.4789, 820.8338
255.9610, 850.4139
256.4431, 882.1248
256.9252, 916.2471
257.4073, 952.7682
257.8894, 990.4471
258.3716, 1028.238
258.8537, 1067.988
259.3358, 1101.403
259.8179, 1130.380
260.3000, 1152.093
260.7821, 1165.337
261.2643, 1169.639
261.7464, 1162.852
262.2285, 1142.531
262.7106, 1106.238
263.1927, 1058.938
263.6748, 994.8995
264.1570, 923.6079
264.6391, 850.8053
265.1212, 777.6508
265.6033, 707.2714
266.0854, 642.8418
266.5675, 585.2406
267.0497, 533.5638
267.5318, 489.5877
268.0139, 450.5477
268.4960, 414.4047
268.9781, 381.1249
269.4602, 351.4691
269.9424, 326.3372
270.4245, 305.9464
270.9066, 287.8592
271.3887, 272.8014
271.8708, 259.4127
272.3529, 246.7428
272.8351, 234.7839
273.3172, 224.0763
273.7993, 215.1645
274.2814, 207.7934
274.7635, 200.5555
275.2456, 193.0605
275.7278, 186.1502
276.2099, 180.6197
276.6920, 176.3488
277.1741, 172.3001
277.6562, 167.7901
278.1383, 163.4256
278.6205, 160.3578
279.1026, 159.0040
279.5847, 157.9759
280.0668, 156.4201
280.5489, 154.3946
281.0310, 152.1975
281.5132, 149.5983
281.9953, 147.2556
282.4774, 146.0680
282.9595, 146.1737
283.4416, 146.5641
283.9237, 146.6437
284.4059, 146.5051
284.8880, 146.5224
285.3701, 146.7361
285.8522, 147.2255
286.3343, 148.0966
286.8164, 149.3295
287.2986, 150.6152
287.7807, 151.9360
288.2628, 153.2016
288.7449, 154.0842
289.2270, 154.4657
289.7091, 154.5782
290.1913, 154.8436
290.6734, 155.1075
291.1555, 154.7088
291.6376, 153.1299
292.1197, 150.6978
292.6018, 148.1416
293.0840, 145.5370
293.5661, 142.7193
294.0482, 139.5214
294.5303, 136.0659
295.0124, 132.4725
295.4945, 128.5897
295.9767, 124.7328
296.4588, 121.5882
296.9409, 119.3724
297.4230, 117.1203
297.9051, 113.9854
298.3872, 110.6031
298.8694, 107.7065
299.3515, 105.4969
299.8336, 103.8595
300.3157, 102.8636
300.7978, 102.6713
301.2799, 102.0936
301.7621, 100.1315
302.2442, 97.84531
302.7263, 96.12285
303.2084, 95.13393
303.6905, 94.63945
304.1726, 94.52102
304.6548, 94.79698
305.1369, 95.01929
305.6190, 95.09087
306.1011, 95.05583
306.5832, 94.99995
307.0653, 94.92021
307.5475, 94.64702
308.0296, 93.89055
308.5117, 92.71088
308.9938, 91.84583
309.4759, 91.63390
309.9580, 91.47499
310.4402, 91.11974
310.9223, 90.52177
311.4044, 89.52933
311.8865, 87.86632
312.3686, 85.69090
312.8507, 83.67176
313.3329, 81.88624
313.8150, 80.14413
314.2971, 78.28519
314.7792, 76.38262
315.2613, 74.55957
315.7434, 72.85670
316.2256, 71.26765
316.7077, 69.79199
317.1898, 68.44684
317.6719, 67.13250
318.1540, 65.67699
318.6361, 64.27130
319.1183, 63.20029
319.6004, 62.63335
320.0825, 62.17162
320.5646, 61.15499
321.0467, 59.44814
321.5288, 58.05429
322.0110, 57.57434
322.4931, 57.37449
322.9752, 57.00780
323.4573, 56.40727
323.9394, 55.68653
324.4215, 54.84208
324.9037, 53.88582
325.3858, 53.22883
325.8679, 53.18460
326.3500, 53.22808
326.8321, 52.98907
327.3142, 52.48784
327.7964, 51.91785
328.2785, 51.42598
328.7606, 50.97984
329.2427, 50.36921
329.7248, 49.39759
330.2069, 48.59487
330.6891, 48.37554
331.1712, 48.53714
331.6533, 48.65943
332.1354, 48.53510
332.6175, 48.26259
333.0996, 48.06452
333.5818, 47.99343
334.0639, 47.82178
334.5460, 47.30750
335.0281, 46.67232
335.5102, 46.17730
335.9923, 45.92588
336.4745, 45.74031
336.9566, 45.34654
337.4387, 44.72243
337.9208, 44.30730
338.4029, 44.48954
338.8850, 44.76786
339.3671, 44.58436
339.8492, 43.86174
340.3314, 43.15963
340.8135, 43.01883
341.2956, 43.32320
341.7777, 43.30251
342.2598, 42.59138
342.7419, 41.85812
343.2241, 41.73053
343.7062, 42.10453
344.1883, 42.48062
344.6704, 42.61574
345.1525, 42.58913
345.6346, 42.61962
346.1168, 42.79232
346.5989, 42.78372
347.0810, 42.12366
347.5631, 41.13630
348.0452, 40.38863
348.5273, 40.15422
349.0095, 40.10329
349.4916, 39.83384
349.9737, 39.34015
350.4558, 38.94198
350.9379, 38.82826
351.4200, 38.88328
351.9022, 38.90100
352.3843, 38.85089
352.8664, 38.82449
353.3485, 38.92652
353.8306, 39.11434
354.3127, 39.20162
354.7949, 39.09263
355.2770, 38.94032
355.7591, 39.03143
356.2412, 39.36950
356.7233, 39.43951
357.2054, 38.78256
357.6876, 37.82989
358.1697, 37.30135
358.6518, 37.32590
359.1339, 37.50673
359.6160, 37.56152
360.0981, 37.49062
360.5803, 37.30205
361.0624, 36.88124
361.5445, 36.42939
362.0266, 36.05237
362.5087, 35.76667
362.9908, 35.70853
363.4730, 36.06720
363.9551, 36.63882
364.4372, 36.79826
364.9193, 36.33979
365.4014, 35.85339
365.8835, 35.52800
366.3657, 35.35107
366.8478, 35.35381
367.3299, 35.58659
367.8120, 35.83494
368.2941, 35.68176
368.7762, 34.96873
369.2584, 34.57787
369.7405, 34.96813
370.2226, 35.53790
370.7047, 35.64613
371.1868, 35.23245
371.6689, 34.74959
372.1511, 34.62511
372.6332, 34.87930
373.1153, 34.89038
373.5974, 34.32395
374.0795, 33.86633
374.5616, 34.04874
375.0438, 34.61945
375.5259, 34.87584
376.0080, 34.39242
376.4901, 33.42131
376.9722, 32.85883
377.4543, 33.09769
377.9365, 33.23117
378.4186, 33.02181
378.9007, 32.72779
379.3828, 32.65985
379.8649, 32.89556
380.3470, 33.25346
380.8292, 33.48856
381.3113, 33.58475
381.7934, 33.58559
382.2755, 33.46358
382.7576, 33.28447
383.2397, 33.06965
383.7219, 32.82925
384.2040, 32.56405
384.6861, 32.25916
385.1682, 31.92742
385.6503, 31.78794
386.1324, 31.98231
386.6146, 32.22593
387.0967, 32.60795
387.5788, 32.96624
388.0609, 33.06699
388.5430, 32.81184
389.0251, 32.37632
389.5073, 32.11454
389.9894, 32.10826
390.4715, 32.11194
390.9536, 32.37937
391.4357, 32.45055
391.9178, 31.79632
392.4000, 30.52430
392.8821, 29.37035
393.3642, 29.10619
393.8463, 29.76180
394.3284, 30.31517
394.8105, 30.81710
395.2927, 31.14252
395.7748, 31.20642
396.2569, 31.08239
396.7390, 30.86621
397.2211, 30.57364
397.7032, 30.28513
398.1854, 30.19588
398.6675, 30.35774
399.1496, 30.56277
399.6317, 30.78456
400.1138, 31.00948
400.5959, 31.24666
401.0781, 31.49512
401.5602, 31.69023
402.0423, 31.77552
402.5244, 31.75360
403.0065, 31.64979
403.4886, 31.46276
403.9708, 31.19243
404.4529, 30.75115
404.9350, 30.22385
405.4171, 29.85262
405.8992, 29.74319
406.3813, 29.85041
406.8635, 30.21463
407.3456, 30.88637
407.8277, 31.34595
408.3098, 31.25411
408.7919, 30.81839
409.2740, 30.38334
409.7562, 29.92289
410.2383, 29.58030
410.7204, 29.50205
411.2025, 29.61279
411.6846, 29.69891
412.1667, 29.71363
412.6489, 29.67114
413.1310, 29.53715
413.6131, 29.31138
414.0952, 29.22653
414.5773, 29.42747
415.0594, 29.71564
415.5416, 29.93930
416.0237, 30.08359
416.5058, 30.15809
416.9879, 30.18990
417.4700, 30.14817
417.9521, 29.86881
418.4343, 29.07714
418.9164, 28.41805
419.3985, 28.05061
419.8806, 27.92622
420.3627, 28.02655
420.8448, 28.34222
421.3270, 28.74108
421.8091, 29.03556
422.2912, 29.21473
422.7733, 29.29225
423.2554, 29.22948
423.7375, 29.10815
424.2197, 28.95398
424.7018, 28.78174
425.1839, 28.59575
425.6660, 28.38372
426.1481, 28.17510
426.6302, 28.18052
427.1124, 28.78892
427.5945, 29.12890
428.0766, 28.83241
428.5587, 28.35507
429.0408, 28.18107
429.5229, 28.44644
430.0051, 28.89319
430.4872, 29.24684
430.9693, 29.60303
431.4514, 29.46398
431.9335, 28.02448
432.4156, 26.78186
432.8978, 26.47254
433.3799, 26.86343
433.8620, 27.26342
434.3441, 27.20890
434.8262, 26.89685
435.3083, 26.95261
435.7905, 27.56200
436.2726, 28.02248
436.7547, 27.87955
437.2368, 27.58212
437.7189, 27.55311
438.2010, 27.88598
438.6832, 28.25752
439.1653, 28.45345
439.6474, 28.46962
440.1295, 28.21172
440.6116, 27.48413
441.0938, 26.83310
441.5759, 26.92061
442.0580, 27.49983
442.5401, 27.80835
443.0222, 27.47809
443.5043, 26.89090
443.9865, 26.27203
444.4686, 25.66474
444.9507, 25.45984
445.4328, 25.99112
445.9149, 26.88693
446.3970, 27.26024
446.8792, 26.94240
447.3613, 26.69702
447.8434, 26.89413
448.3255, 27.20007
448.8076, 27.13927
449.2897, 26.65014
449.7719, 26.12107
450.2540, 25.92993
450.7361, 26.09793
451.2182, 26.16165
451.7003, 26.11565
452.1824, 25.99027
452.6646, 25.67850
453.1467, 25.31940
453.6288, 25.18635
454.1109, 25.39968
454.5930, 25.74831
455.0751, 25.78064
455.5573, 25.14944
456.0394, 24.89067
456.5215, 25.22806
457.0036, 25.68221
457.4857, 26.08618
457.9678, 26.36127
458.4500, 26.38554
458.9321, 25.99088
459.4142, 25.29280
459.8963, 25.00268
460.3784, 25.40344
460.8605, 25.71403
461.3427, 25.68396
461.8248, 25.50158
462.3069, 25.30590
462.7890, 25.13253
463.2711, 25.05947
463.7532, 25.27766
464.2354, 25.75112
464.7175, 25.91855
465.1996, 25.57256
465.6817, 25.13803
466.1638, 24.94906
466.6459, 24.91181
467.1281, 24.78313
467.6102, 24.37477
468.0923, 23.93912
468.5744, 23.72297
469.0565, 23.72116
469.5386, 23.96388
470.0208, 24.63635
470.5029, 25.33757
470.9850, 25.19975
471.4671, 24.03211
471.9492, 23.26460
472.4313, 23.54286
472.9135, 24.22925
473.3956, 24.72579
473.8777, 24.95062
474.3598, 24.94887
474.8419, 24.71843
475.3240, 24.28802
475.8062, 23.94639
476.2883, 23.70391
476.7704, 23.52224
477.2525, 23.35990
477.7346, 23.27077
478.2167, 23.39277
478.6989, 23.73460
479.1810, 24.05277
479.6631, 23.99695
480.1452, 23.44639
480.6273, 23.14456
481.1094, 23.42945
481.5916, 23.61839
482.0737, 23.26929
482.5558, 22.71090
483.0379, 22.59227
483.5200, 23.27997
484.0021, 24.27137
484.4843, 24.53408
484.9664, 23.87324
485.4485, 23.38850
485.9306, 23.46320
486.4127, 23.63217
486.8948, 23.60786
487.3770, 23.39576
487.8591, 23.12155
488.3412, 22.79424
488.8233, 22.47233
489.3054, 22.25460
489.7875, 22.13899
490.2697, 22.17550
490.7518, 22.47633
491.2339, 22.90359
491.7160, 23.17863
492.1981, 23.26517
492.6802, 23.30267
493.1624, 23.36760
493.6445, 23.41149
494.1266, 23.31555
494.6087, 23.06536
495.0908, 22.86293
495.5729, 22.91539
496.0551, 23.21762
496.5372, 23.34296
497.0193, 23.07015
497.5014, 22.90468
497.9835, 23.16057
498.4656, 23.56171
498.9478, 23.69294
499.4299, 23.42611
499.9120, 22.98633
500.3941, 22.70059
500.8762, 22.61426
501.3583, 22.49407
501.8405, 22.19755
502.3226, 22.01281
502.8047, 22.13049
503.2868, 22.42290
503.7689, 22.66347
504.2510, 22.74638
504.7331, 22.70886
505.2152, 22.60868
505.6974, 22.44033
506.1795, 22.23413
506.6616, 21.88191
507.1437, 21.60982
507.6258, 21.65572
508.1079, 21.95869
508.5901, 22.17706
509.0722, 22.13985
509.5543, 21.92574
510.0364, 21.53147
510.5185, 20.96630
511.0006, 20.67805
511.4828, 20.94444
511.9649, 21.55992
512.4470, 22.14147
512.9291, 22.77776
513.4113, 23.11914
513.8934, 22.85113
514.3755, 22.37694
514.8576, 22.09918
515.3397, 22.05239
515.8218, 22.09320
516.3040, 22.12869
516.7861, 22.15145
517.2682, 22.10795
517.7503, 21.93125
518.2324, 21.77028
518.7145, 21.54555
519.1967, 21.39696
519.6788, 21.51311
520.1609, 21.88883
520.6430, 22.30168
521.1251, 22.55494
521.6072, 22.64878
522.0894, 22.53612
522.5715, 22.02167
523.0536, 21.61210
523.5357, 21.53630
524.0178, 21.61901
524.4999, 21.67354
524.9821, 21.65469
525.4642, 21.58577
525.9463, 21.44534
526.4284, 21.26305
526.9105, 21.16922
527.3926, 21.18491
527.8748, 21.28508
528.3569, 21.51697
528.8390, 21.82405
529.3211, 22.01280
529.8032, 22.04619
530.2853, 21.97720
530.7675, 21.75815
531.2496, 21.46959
531.7317, 21.28120
532.2138, 21.24263
532.6959, 21.25348
533.1780, 21.17021
533.6602, 20.94104
534.1423, 20.95279
534.6244, 21.48407
535.1065, 21.91376
535.5886, 21.96344
536.0707, 21.77215
536.5529, 21.52325
537.0350, 21.29711
537.5171, 21.15940
537.9992, 21.28382
538.4813, 21.77007
538.9634, 22.00008
539.4456, 21.78251
539.9277, 21.47635
540.4098, 21.19291
540.8919, 20.95197
541.3740, 20.77719
541.8561, 20.67613
542.3383, 20.64837
542.8204, 20.70466
543.3025, 20.84072
543.7846, 21.03377
544.2667, 21.31890
544.7488, 21.57935
545.2310, 21.67976
545.7131, 21.63454
546.1952, 21.52460
546.6773, 21.30725
547.1594, 21.07985
547.6415, 20.83688
548.1237, 20.63643
548.6058, 20.66374
549.0879, 21.00438
549.5700, 21.41777
550.0521, 21.47737
550.5342, 20.96680
551.0164, 20.76928
551.4985, 21.24240
551.9806, 21.61605
552.4627, 21.41255
552.9448, 20.88578
553.4269, 20.57093
553.9091, 20.73407
554.3912, 21.09037
554.8733, 21.09167
555.3554, 20.65557
555.8375, 20.44851
556.3196, 20.78218
556.8018, 21.09969
557.2839, 20.87801
557.7660, 20.35030
558.2481, 20.20370
558.7302, 20.97006
559.2123, 21.87371
559.6945, 22.08223
560.1766, 21.72290
560.6587, 21.32356
561.1408, 21.00831
561.6229, 20.83137
562.1050, 20.92417
562.5872, 21.35740
563.0693, 21.50802
563.5514, 21.14802
564.0335, 20.72604
564.5156, 20.42331
564.9977, 20.23202
565.4799, 20.11605
565.9620, 20.06092
566.4441, 20.05973
566.9262, 20.11852
567.4083, 20.27432
567.8904, 20.33837
568.3726, 20.18151
568.8547, 20.06470
569.3368, 20.12590
569.8189, 20.27418
570.3010, 20.35975
570.7831, 20.32713
571.2653, 20.22300
571.7474, 20.08063
572.2295, 19.90693
572.7116, 19.75247
573.1937, 19.62586
573.6758, 19.51776
574.1580, 19.36547
574.6401, 19.21853
575.1222, 19.27813
575.6043, 19.85919
576.0864, 20.31418
576.5685, 20.12627
577.0507, 19.65646
577.5328, 19.57572
578.0149, 20.03116
578.4970, 20.54814
578.9791, 20.59013
579.4612, 20.12905
579.9434, 19.90240
580.4255, 20.14450
580.9076, 20.35136
581.3897, 20.51654
581.8718, 20.55656
582.3539, 20.25160
582.8361, 19.61032
583.3182, 19.11621
583.8003, 19.45515
584.2824, 20.46254
584.7645, 20.87426
585.2466, 20.53950
585.7288, 20.01715
586.2108, 19.34056
586.6929, 18.75355
587.1750, 18.69016
587.6572, 19.31490
588.1393, 19.87146
588.6214, 20.01878
589.1035, 19.89921
589.5856, 19.64886
590.0677, 19.29919
590.5499, 18.89401
591.0320, 18.41120
591.5141, 17.96317
591.9962, 17.98156
592.4783, 19.15249
592.9604, 19.82229
593.4426, 19.55821
593.9247, 19.13784
594.4068, 19.11417
594.8889, 19.43897
595.3710, 19.76727
595.8531, 19.90048
596.3353, 19.84595
596.8174, 19.55857
597.2995, 18.97804
597.7816, 18.51815
598.2637, 18.28439
598.7458, 18.19342
599.2280, 18.20824
599.7101, 18.30525
600.1922, 18.35526
600.6743, 18.17891
601.1564, 18.05892
601.6385, 18.33503
602.1207, 18.86875
602.6028, 19.22329
603.0849, 19.24275
603.5670, 19.16474
604.0491, 19.33139
604.5313, 19.84449
605.0134, 19.95311
605.4955, 19.29679
605.9776, 18.70690
606.4597, 18.47589
606.9418, 18.44906
607.4240, 18.40957
607.9061, 18.29742
608.3882, 18.22141
608.8703, 18.36832
609.3524, 18.70924
609.8345, 18.84283
610.3167, 18.71543
610.7988, 18.49916
611.2809, 18.12860
611.7630, 17.78881
612.2451, 17.77592
612.7272, 18.18537
613.2094, 18.58503
613.6915, 18.83223
614.1736, 18.93227
614.6557, 18.83004
615.1378, 18.55753
615.6199, 18.29208
616.1021, 18.12967
616.5842, 18.07807
617.0663, 18.17398
617.5484, 18.64689
618.0305, 18.87290
618.5126, 18.73788
618.9948, 18.48641
619.4769, 18.12463
619.9590, 17.76897
620.4411, 17.67254
