##NAMES=Baryte
##RRUFFID=R050342
##IDEAL CHEMISTRY=BaS^6+^O_4_
##LOCALITY=Palos Verdes, Los Angeles County, California, USA
##OWNER=RRUFF
##SOURCE=California Institute of Technology
##DESCRIPTION=Light brown fragment
##STATUS=The identification of this mineral has been confirmed by X-ray diffraction and chemical analysis
##URL=rruff.info/R050342
##MEASURED CHEMISTRY=Ba_1.00_S_1.00_O_4_
130.1285, 17188.08
130.6106, 17199.11
131.0928, 17209.80
131.5749, 17218.28
132.0570, 17224.37
132.5391, 17228.36
133.0212, 17230.24
133.5033, 17229.61
133.9855, 17230.44
134.4676, 17232.56
134.9497, 17236.11
135.4318, 17242.40
135.9139, 17251.11
136.3960, 17259.24
136.8782, 17262.87
137.3603, 17260.74
137.8424, 17260.88
138.3245, 17263.77
138.8066, 17269.09
139.2887, 17276.47
139.7709, 17285.76
140.2530, 17297.13
140.7351, 17312.94
141.2172, 17332.68
141.6993, 17348.82
142.1814, 17356.34
142.6636, 17357.09
143.1457, 17357.20
143.6278, 17354.36
144.1099, 17355.85
144.5920, 17368.43
145.0741, 17391.94
145.5563, 17417.96
146.0384, 17440.29
146.5205, 17458.94
147.0026, 17473.74
147.4847, 17476.39
147.9668, 17480.61
148.4490, 17497.46
148.9311, 17528.24
149.4132, 17561.59
149.8953, 17578.61
150.3774, 17567.26
150.8595, 17563.97
151.3417, 17582.03
151.8238, 17602.02
152.3059, 17607.79
152.7880, 17593.43
153.2701, 17565.11
153.7522, 17538.63
154.2344, 17513.77
154.7165, 17491.44
155.1986, 17473.61
155.6807, 17457.70
156.1628, 17439.40
156.6449, 17416.17
157.1271, 17390.70
157.6092, 17374.75
158.0913, 17377.89
158.5734, 17377.93
159.0555, 17365.51
159.5376, 17344.79
160.0198, 17326.91
160.5019, 17318.77
160.9840, 17317.88
161.4661, 17313.67
161.9482, 17303.18
162.4303, 17292.56
162.9125, 17286.11
163.3946, 17283.68
163.8767, 17282.21
164.3588, 17280.28
164.8409, 17278.08
165.3230, 17275.80
165.8052, 17272.79
166.2873, 17270.34
166.7694, 17271.36
167.2515, 17277.65
167.7336, 17281.21
168.2157, 17271.54
168.6979, 17258.79
169.1800, 17256.61
169.6621, 17275.34
170.1442, 17305.11
170.6263, 17316.13
171.1084, 17292.76
171.5906, 17275.32
172.0727, 17283.01
172.5548, 17302.64
173.0369, 17314.78
173.5190, 17305.84
174.0011, 17279.25
174.4833, 17264.21
174.9654, 17272.25
175.4475, 17281.44
175.9296, 17288.99
176.4117, 17294.23
176.8938, 17296.97
177.3760, 17296.88
177.8581, 17293.89
178.3402, 17290.62
178.8223, 17283.23
179.3044, 17279.28
179.7865, 17284.78
180.2687, 17296.95
180.7508, 17307.29
181.2329, 17308.08
181.7150, 17298.18
182.1971, 17292.77
182.6792, 17288.15
183.1614, 17290.16
183.6435, 17306.43
184.1256, 17335.55
184.6077, 17364.63
185.0898, 17381.34
185.5719, 17384.55
186.0540, 17392.29
186.5362, 17411.43
187.0183, 17431.31
187.5004, 17442.29
187.9825, 17443.24
188.4646, 17437.77
188.9467, 17426.87
189.4289, 17411.49
189.9110, 17394.79
190.3931, 17377.12
190.8752, 17358.66
191.3573, 17339.39
191.8394, 17319.08
192.3216, 17298.66
192.8037, 17278.20
193.2858, 17258.20
193.7679, 17239.97
194.2500, 17226.95
194.7321, 17216.58
195.2143, 17198.15
195.6964, 17161.66
196.1785, 17133.45
196.6606, 17130.77
197.1427, 17145.79
197.6248, 17161.47
198.1070, 17166.49
198.5891, 17161.93
199.0712, 17159.41
199.5533, 17163.10
200.0354, 17163.83
200.5175, 17155.66
200.9997, 17141.66
201.4818, 17128.71
201.9639, 17122.33
202.4460, 17122.62
202.9281, 17123.87
203.4102, 17130.62
203.8924, 17134.13
204.3745, 17128.62
204.8566, 17117.08
205.3387, 17107.29
205.8208, 17106.61
206.3029, 17116.52
206.7851, 17122.21
207.2672, 17125.09
207.7493, 17123.25
208.2314, 17112.82
208.7135, 17096.10
209.1956, 17079.59
209.6778, 17069.14
210.1599, 17065.45
210.6420, 17063.20
211.1241, 17062.30
211.6062, 17062.42
212.0883, 17063.53
212.5705, 17065.46
213.0526, 17068.35
213.5347, 17073.39
214.0168, 17081.13
214.4989, 17078.89
214.9810, 17054.43
215.4632, 17030.27
215.9453, 17024.30
216.4274, 17036.31
216.9095, 17049.15
217.3916, 17046.56
217.8737, 17028.44
218.3559, 17019.97
218.8380, 17030.56
219.3201, 17045.26
219.8022, 17051.59
220.2843, 17048.68
220.7664, 17041.86
221.2486, 17033.65
221.7307, 17024.75
222.2128, 17018.08
222.6949, 17014.76
223.1770, 17013.50
223.6591, 17012.58
224.1413, 17011.72
224.6234, 17012.70
225.1055, 17020.60
225.5876, 17030.94
226.0697, 17034.88
226.5518, 17025.86
227.0340, 17011.25
227.5161, 17001.39
227.9982, 16996.68
228.4803, 16995.32
228.9624, 16998.97
229.4445, 17004.63
229.9267, 17008.71
230.4088, 17010.82
230.8909, 17009.88
231.3730, 17002.40
231.8551, 16985.03
232.3372, 16969.91
232.8194, 16961.41
233.3015, 16957.95
233.7836, 16959.53
234.2657, 16968.61
234.7478, 16978.96
235.2299, 16974.26
235.7121, 16944.14
236.1942, 16919.96
236.6763, 16912.00
237.1584, 16913.27
237.6405, 16918.14
238.1227, 16925.07
238.6048, 16931.10
239.0869, 16927.50
239.5690, 16905.74
240.0511, 16889.25
240.5332, 16884.75
241.0154, 16885.78
241.4975, 16886.36
241.9796, 16883.93
242.4617, 16879.60
242.9438, 16876.22
243.4259, 16874.62
243.9081, 16872.66
244.3902, 16869.75
244.8723, 16866.56
245.3544, 16863.03
245.8365, 16859.21
246.3186, 16856.43
246.8007, 16858.07
247.2829, 16870.36
247.7650, 16877.88
248.2471, 16876.70
248.7292, 16872.39
249.2113, 16870.62
249.6934, 16873.16
250.1756, 16876.82
250.6577, 16875.43
251.1398, 16866.42
251.6219, 16855.08
252.1040, 16835.70
252.5861, 16817.07
253.0683, 16808.14
253.5504, 16811.23
254.0325, 16820.71
254.5146, 16827.96
254.9967, 16835.17
255.4788, 16834.72
255.9610, 16820.27
256.4431, 16802.09
256.9252, 16788.09
257.4073, 16780.38
257.8894, 16778.10
258.3716, 16781.12
258.8537, 16794.51
259.3358, 16798.98
259.8179, 16784.48
260.3000, 16767.18
260.7821, 16763.09
261.2643, 16774.49
261.7464, 16788.90
262.2285, 16792.33
262.7106, 16781.56
263.1927, 16773.66
263.6748, 16769.15
264.1570, 16767.27
264.6391, 16768.98
265.1212, 16773.94
265.6033, 16777.52
266.0854, 16774.43
266.5675, 16764.24
267.0497, 16757.66
267.5318, 16757.81
268.0139, 16759.59
268.4960, 16759.74
268.9781, 16757.96
269.4602, 16753.77
269.9424, 16745.95
270.4245, 16735.12
270.9066, 16726.09
271.3887, 16723.03
271.8708, 16718.85
272.3529, 16703.32
272.8351, 16678.02
273.3172, 16662.68
273.7993, 16675.23
274.2814, 16705.76
274.7635, 16720.37
275.2456, 16709.63
275.7278, 16692.77
276.2099, 16681.54
276.6920, 16675.62
277.1741, 16673.04
277.6562, 16675.97
278.1383, 16679.49
278.6204, 16673.94
279.1025, 16655.62
279.5847, 16636.08
280.0668, 16620.34
280.5489, 16608.87
281.0310, 16605.65
281.5131, 16615.19
281.9952, 16630.92
282.4774, 16643.50
282.9595, 16652.80
283.4416, 16659.63
283.9237, 16665.44
284.4058, 16669.43
284.8879, 16667.61
285.3701, 16656.63
285.8522, 16642.54
286.3343, 16632.52
286.8164, 16626.34
287.2985, 16618.57
287.7806, 16604.54
288.2628, 16586.41
288.7449, 16570.86
289.2270, 16558.14
289.7091, 16549.58
290.1912, 16546.90
290.6733, 16549.00
291.1555, 16552.32
291.6376, 16556.75
292.1197, 16561.09
292.6018, 16562.59
293.0839, 16561.04
293.5660, 16556.74
294.0482, 16547.52
294.5303, 16536.05
295.0124, 16527.29
295.4945, 16525.35
295.9766, 16526.21
296.4587, 16521.83
296.9409, 16510.46
297.4230, 16499.97
297.9051, 16495.47
298.3872, 16493.86
298.8693, 16491.93
299.3514, 16489.19
299.8336, 16485.09
300.3157, 16478.31
300.7978, 16468.24
301.2799, 16458.72
301.7620, 16450.84
302.2441, 16444.37
302.7263, 16439.30
303.2084, 16435.69
303.6905, 16432.98
304.1726, 16431.03
304.6547, 16429.91
305.1368, 16428.04
305.6190, 16426.52
306.1011, 16422.67
306.5832, 16413.08
307.0653, 16397.82
307.5474, 16383.20
308.0295, 16374.15
308.5117, 16370.42
308.9938, 16369.06
309.4759, 16371.88
309.9580, 16374.58
310.4401, 16374.57
310.9222, 16372.12
311.4044, 16368.24
311.8865, 16361.44
312.3686, 16353.22
312.8507, 16351.13
313.3328, 16359.40
313.8149, 16366.52
314.2971, 16365.44
314.7792, 16359.03
315.2613, 16352.37
315.7434, 16346.88
316.2255, 16342.99
316.7076, 16342.62
317.1898, 16347.79
317.6719, 16350.63
318.1540, 16346.45
318.6361, 16338.61
319.1182, 16330.19
319.6003, 16321.78
320.0825, 16313.89
320.5646, 16306.65
321.0467, 16299.73
321.5288, 16295.77
322.0109, 16300.48
322.4930, 16305.53
322.9752, 16303.47
323.4573, 16293.06
323.9394, 16280.75
324.4215, 16272.15
324.9036, 16267.27
325.3857, 16263.18
325.8679, 16259.90
326.3500, 16256.89
326.8321, 16253.80
327.3142, 16250.65
327.7963, 16247.68
328.2784, 16246.50
328.7606, 16246.10
329.2427, 16240.35
329.7248, 16224.43
330.2069, 16211.19
330.6890, 16212.74
331.1711, 16222.40
331.6533, 16225.46
332.1354, 16210.09
332.6175, 16186.64
333.0996, 16178.68
333.5817, 16192.11
334.0638, 16201.70
334.5460, 16187.63
335.0281, 16164.97
335.5102, 16150.74
335.9923, 16150.77
336.4744, 16156.66
336.9565, 16159.01
337.4387, 16157.58
337.9208, 16156.19
338.4029, 16155.63
338.8850, 16156.02
339.3671, 16159.31
339.8492, 16166.22
340.3314, 16168.54
340.8135, 16156.07
341.2956, 16131.72
341.7777, 16114.28
342.2598, 16107.86
342.7419, 16108.46
343.2241, 16114.74
343.7062, 16125.33
344.1883, 16133.18
344.6704, 16135.53
345.1525, 16132.70
345.6346, 16124.66
346.1168, 16110.47
346.5989, 16094.21
347.0810, 16073.47
347.5631, 16053.14
348.0452, 16043.59
348.5273, 16053.75
349.0095, 16070.17
349.4916, 16077.95
349.9737, 16076.96
350.4558, 16074.13
350.9379, 16073.37
351.4200, 16071.96
351.9022, 16065.74
352.3843, 16053.67
352.8664, 16039.23
353.3485, 16022.67
353.8306, 16005.17
354.3127, 15991.46
354.7949, 15983.07
355.2770, 15978.56
355.7591, 15976.25
356.2412, 15976.00
356.7233, 15977.13
357.2054, 15982.63
357.6876, 15988.30
358.1697, 15985.28
358.6518, 15971.11
359.1339, 15957.80
359.6160, 15959.44
360.0981, 15972.19
360.5803, 15975.05
361.0624, 15955.12
361.5445, 15932.28
362.0266, 15925.25
362.5087, 15932.23
362.9908, 15936.97
363.4730, 15929.97
363.9551, 15914.65
364.4372, 15901.74
364.9193, 15890.51
365.4014, 15882.59
365.8835, 15879.38
366.3657, 15879.89
366.8478, 15882.87
367.3299, 15888.41
367.8120, 15894.09
368.2941, 15895.76
368.7762, 15892.56
369.2584, 15889.28
369.7405, 15890.67
370.2226, 15889.85
370.7047, 15876.70
371.1868, 15850.93
371.6689, 15826.55
372.1511, 15816.89
372.6332, 15822.86
373.1153, 15823.25
373.5974, 15814.42
374.0795, 15804.36
374.5616, 15796.33
375.0438, 15790.17
375.5259, 15785.18
376.0080, 15781.22
376.4901, 15777.56
376.9722, 15771.59
377.4543, 15759.62
377.9365, 15749.99
378.4186, 15745.53
378.9007, 15742.80
379.3828, 15738.08
379.8649, 15730.31
380.3470, 15720.66
380.8292, 15710.22
381.3113, 15696.37
381.7934, 15690.18
382.2755, 15699.50
382.7576, 15708.67
383.2397, 15708.46
383.7219, 15699.83
384.2040, 15688.77
384.6861, 15679.92
385.1682, 15673.19
385.6503, 15666.35
386.1324, 15659.58
386.6146, 15652.74
387.0967, 15645.96
387.5788, 15639.19
388.0609, 15632.02
388.5430, 15624.31
389.0251, 15616.92
389.5073, 15611.59
389.9894, 15608.97
390.4715, 15606.95
390.9536, 15605.89
391.4357, 15604.71
391.9178, 15601.87
392.4000, 15597.71
392.8821, 15594.58
393.3642, 15595.27
393.8463, 15599.89
394.3284, 15602.88
394.8105, 15604.57
395.2927, 15603.85
395.7748, 15599.68
396.2569, 15593.12
396.7390, 15585.33
397.2211, 15576.25
397.7032, 15567.74
398.1854, 15564.94
398.6675, 15570.41
399.1496, 15574.01
399.6317, 15572.72
400.1138, 15568.67
400.5959, 15563.15
401.0780, 15556.43
401.5602, 15548.28
402.0423, 15536.61
402.5244, 15522.16
403.0065, 15513.72
403.4886, 15517.13
403.9707, 15519.65
404.4529, 15508.60
404.9350, 15489.21
405.4171, 15476.33
405.8992, 15477.80
406.3813, 15488.72
406.8634, 15505.35
407.3456, 15529.25
407.8277, 15544.31
408.3098, 15540.55
408.7919, 15523.25
409.2740, 15500.34
409.7561, 15467.61
410.2383, 15441.58
410.7204, 15435.92
411.2025, 15445.04
411.6846, 15453.35
412.1667, 15457.79
412.6488, 15458.17
413.1310, 15452.13
413.6131, 15439.83
414.0952, 15430.80
414.5773, 15427.94
415.0594, 15428.19
415.5415, 15429.31
416.0237, 15431.04
416.5058, 15433.17
416.9879, 15435.64
417.4700, 15438.37
417.9521, 15441.04
418.4342, 15443.24
418.9164, 15445.78
419.3985, 15446.92
419.8806, 15449.06
420.3627, 15458.43
420.8448, 15476.84
421.3269, 15494.60
421.8091, 15495.75
422.2912, 15468.79
422.7733, 15458.70
423.2554, 15476.58
423.7375, 15500.11
424.2196, 15519.33
424.7018, 15532.58
425.1839, 15539.94
425.6660, 15540.98
426.1481, 15536.72
426.6302, 15533.95
427.1123, 15533.57
427.5945, 15533.93
428.0766, 15531.94
428.5587, 15532.08
429.0408, 15539.08
429.5229, 15554.29
430.0050, 15575.22
430.4872, 15599.30
430.9693, 15627.45
431.4514, 15654.63
431.9335, 15675.59
432.4156, 15700.63
432.8977, 15737.48
433.3799, 15782.16
433.8620, 15823.87
434.3441, 15852.14
434.8262, 15875.50
435.3083, 15921.96
435.7904, 16001.51
436.2726, 16075.94
436.7547, 16122.70
437.2368, 16163.19
437.7189, 16215.51
438.2010, 16283.19
438.6831, 16359.53
439.1653, 16434.97
439.6474, 16512.48
440.1295, 16609.22
440.6116, 16727.15
441.0937, 16866.18
441.5758, 17026.45
442.0580, 17205.96
442.5401, 17405.49
443.0222, 17636.08
443.5043, 17878.43
443.9864, 18122.24
444.4685, 18364.69
444.9507, 18590.26
445.4328, 18790.29
445.9149, 18969.91
446.3970, 19136.82
446.8791, 19283.19
447.3612, 19440.15
447.8434, 19617.13
448.3255, 19808.97
448.8076, 20007.23
449.2897, 20211.90
449.7718, 20433.29
450.2539, 20685.15
450.7361, 20970.70
451.2182, 21236.21
451.7003, 21480.55
452.1824, 21709.74
452.6645, 21929.10
453.1466, 22135.43
453.6288, 22315.13
454.1109, 22462.64
454.5930, 22597.64
455.0751, 22756.17
455.5572, 22911.79
456.0393, 23149.38
456.5215, 23465.69
457.0036, 23851.07
457.4857, 24316.90
457.9678, 24849.49
458.4499, 25426.53
458.9320, 26048.82
459.4142, 26694.25
459.8963, 27256.10
460.3784, 27812.70
460.8605, 28126.85
461.3426, 28207.03
461.8247, 28017.74
462.3069, 27485.29
462.7890, 26592.02
463.2711, 25489.74
463.7532, 24263.46
464.2353, 22922.93
464.7174, 21703.05
465.1996, 20619.00
465.6817, 19685.01
466.1638, 18916.86
466.6459, 18292.24
467.1280, 17769.59
467.6101, 17358.37
468.0923, 17025.03
468.5744, 16746.60
469.0565, 16519.24
469.5386, 16328.87
470.0207, 16175.87
470.5028, 16049.50
470.9850, 15934.23
471.4671, 15829.31
471.9492, 15731.88
472.4313, 15638.17
472.9134, 15552.90
473.3955, 15483.88
473.8777, 15430.55
474.3598, 15381.20
474.8419, 15326.39
475.3240, 15267.76
475.8061, 15222.45
476.2882, 15201.44
476.7704, 15178.35
477.2525, 15143.81
477.7346, 15106.35
478.2167, 15078.13
478.6988, 15061.57
479.1809, 15047.36
479.6631, 15021.67
480.1452, 14980.00
480.6273, 14950.76
481.1094, 14941.75
481.5915, 14937.32
482.0736, 14935.16
482.5558, 14933.57
483.0379, 14931.52
483.5200, 14928.97
484.0021, 14923.01
484.4842, 14906.27
484.9663, 14875.55
485.4485, 14848.23
485.9306, 14828.02
486.4127, 14812.18
486.8948, 14802.19
487.3769, 14796.22
487.8590, 14785.76
488.3412, 14761.20
488.8233, 14730.46
489.3054, 14708.61
489.7875, 14696.20
490.2696, 14689.98
490.7517, 14692.18
491.2339, 14697.69
491.7160, 14696.47
492.1981, 14687.35
492.6802, 14675.01
493.1623, 14661.67
493.6444, 14646.22
494.1266, 14623.47
494.6087, 14592.88
495.0908, 14568.59
495.5729, 14565.54
496.0550, 14583.32
496.5371, 14587.55
497.0193, 14567.44
497.5014, 14548.56
497.9835, 14540.42
498.4656, 14537.59
498.9477, 14532.24
499.4298, 14521.77
499.9120, 14508.58
500.3941, 14496.41
500.8762, 14486.15
501.3583, 14472.87
501.8404, 14449.73
502.3225, 14430.53
502.8047, 14422.30
503.2868, 14421.33
503.7689, 14420.95
504.2510, 14418.04
504.7331, 14413.52
505.2152, 14409.44
505.6974, 14406.32
506.1795, 14400.36
506.6616, 14388.30
507.1437, 14375.52
507.6258, 14365.37
508.1079, 14357.87
508.5901, 14352.80
509.0722, 14354.55
509.5543, 14356.50
510.0364, 14345.54
510.5185, 14321.93
511.0006, 14304.03
511.4828, 14302.04
511.9649, 14309.62
512.4470, 14314.45
512.9291, 14317.85
513.4112, 14315.06
513.8933, 14296.49
514.3754, 14276.08
514.8575, 14271.04
515.3397, 14281.03
515.8218, 14291.54
516.3039, 14292.08
516.7860, 14283.60
517.2681, 14273.15
517.7502, 14258.99
518.2324, 14244.92
518.7145, 14228.71
519.1966, 14214.11
519.6787, 14205.84
520.1608, 14203.88
520.6429, 14202.95
521.1251, 14197.38
521.6072, 14187.34
522.0893, 14180.01
522.5714, 14177.72
523.0535, 14174.39
523.5356, 14170.31
524.0178, 14163.17
524.4999, 14148.67
524.9820, 14125.05
525.4641, 14101.11
525.9462, 14082.98
526.4283, 14070.97
526.9105, 14067.93
527.3926, 14077.20
527.8747, 14086.85
528.3568, 14087.15
528.8389, 14080.17
529.3210, 14072.98
529.8032, 14066.85
530.2853, 14060.08
530.7674, 14052.72
531.2495, 14043.97
531.7316, 14030.83
532.2137, 14012.30
532.6959, 13993.96
533.1780, 13983.16
533.6601, 13981.50
534.1422, 13977.15
534.6243, 13969.60
535.1064, 13960.27
535.5886, 13947.21
536.0707, 13933.42
536.5528, 13923.64
537.0349, 13919.73
537.5170, 13918.93
537.9991, 13918.00
538.4813, 13917.86
538.9634, 13912.74
539.4455, 13896.98
539.9276, 13882.27
540.4097, 13874.06
540.8918, 13870.88
541.3740, 13869.97
541.8561, 13871.57
542.3382, 13872.30
542.8203, 13867.10
543.3024, 13856.59
543.7845, 13846.94
544.2667, 13839.55
544.7488, 13833.68
545.2309, 13830.38
545.7130, 13829.07
546.1951, 13822.38
546.6772, 13801.10
547.1594, 13781.69
547.6415, 13778.08
548.1236, 13784.84
548.6057, 13788.02
549.0878, 13782.01
549.5699, 13770.48
550.0521, 13758.92
550.5342, 13745.96
551.0163, 13737.69
551.4984, 13739.62
551.9805, 13740.00
552.4626, 13730.11
552.9448, 13715.46
553.4269, 13707.61
553.9090, 13712.43
554.3911, 13722.24
554.8732, 13722.93
555.3553, 13712.86
555.8375, 13704.91
556.3196, 13703.59
556.8017, 13701.16
557.2838, 13691.42
557.7659, 13676.65
558.2480, 13663.34
558.7302, 13653.97
559.2123, 13646.90
559.6944, 13640.72
560.1765, 13635.53
560.6586, 13632.74
561.1407, 13633.81
561.6229, 13633.86
562.1050, 13625.48
562.5871, 13606.78
563.0692, 13594.32
563.5513, 13594.06
564.0334, 13594.37
564.5156, 13588.30
564.9977, 13578.81
565.4798, 13572.11
565.9619, 13570.64
566.4440, 13571.15
566.9261, 13568.75
567.4083, 13563.30
567.8904, 13555.28
568.3725, 13536.96
568.8546, 13524.17
569.3367, 13526.96
569.8188, 13537.69
570.3010, 13543.63
570.7831, 13539.75
571.2652, 13531.78
571.7473, 13526.19
572.2294, 13522.63
572.7115, 13518.28
573.1937, 13513.36
573.6758, 13505.95
574.1579, 13492.28
574.6400, 13474.40
575.1221, 13460.41
575.6042, 13453.66
576.0864, 13448.01
576.5685, 13440.84
577.0506, 13432.78
577.5327, 13424.86
578.0148, 13417.35
578.4969, 13409.72
578.9791, 13401.10
579.4612, 13391.34
579.9433, 13384.53
580.4254, 13385.65
580.9075, 13383.89
581.3896, 13374.73
581.8718, 13362.98
582.3539, 13354.25
582.8360, 13349.61
583.3181, 13345.54
583.8002, 13334.87
584.2823, 13320.01
584.7645, 13321.58
585.2466, 13346.18
585.7287, 13368.43
586.2108, 13375.02
586.6929, 13371.92
587.1750, 13366.47
587.6572, 13358.09
588.1393, 13351.81
588.6214, 13352.80
589.1035, 13355.62
589.5856, 13351.40
590.0677, 13340.28
590.5499, 13331.84
591.0320, 13333.17
591.5141, 13340.54
591.9962, 13340.12
592.4783, 13325.74
592.9604, 13311.96
593.4426, 13295.79
593.9247, 13283.01
594.4068, 13279.19
594.8889, 13282.76
595.3710, 13288.32
595.8531, 13293.57
596.3353, 13296.31
596.8174, 13287.15
597.2995, 13261.59
597.7816, 13251.29
598.2637, 13270.98
598.7458, 13300.36
599.2280, 13324.33
599.7101, 13342.90
600.1922, 13356.34
600.6743, 13361.61
601.1564, 13364.37
601.6385, 13366.96
602.1207, 13370.73
602.6028, 13381.27
603.0849, 13400.85
603.5670, 13421.62
604.0491, 13432.60
604.5313, 13430.91
605.0134, 13437.02
605.4955, 13454.43
605.9776, 13474.47
606.4597, 13496.55
606.9418, 13518.82
607.4240, 13536.56
607.9061, 13549.29
608.3882, 13566.09
608.8703, 13599.47
609.3524, 13648.03
609.8345, 13692.96
610.3167, 13731.99
610.7988, 13772.45
611.2809, 13814.41
611.7630, 13861.76
612.2451, 13919.52
612.7272, 13987.61
613.2094, 14067.92
613.6915, 14174.75
614.1736, 14286.99
614.6557, 14382.62
615.1378, 14458.58
615.6199, 14510.10
616.1021, 14533.77
616.5842, 14532.08
617.0663, 14512.63
617.5484, 14483.27
618.0305, 14419.34
618.5126, 14297.59
618.9948, 14166.13
619.4769, 14043.16
619.9590, 13933.61
620.4411, 13842.93
620.9232, 13774.16
621.4053, 13721.93
621.8875, 13678.82
622.3696, 13644.87
622.8517, 13618.77
623.3338, 13601.42
623.8159, 13590.07
624.2980, 13583.08
624.7802, 13580.45
625.2623, 13582.85
625.7444, 13592.78
626.2265, 13604.78
626.7086, 13617.31
627.1907, 13630.09
