##NAMES=Baryte
##RRUFFID=R050335
##IDEAL CHEMISTRY=BaS^6+^O_4_
##LOCALITY=Bullion Mountains, San Bernardino County, California, USA
##OWNER=RRUFF
##SOURCE=California Institute of Technology
##DESCRIPTION=Colorless cleavage fragment
##STATUS=The identification of this mineral has been confirmed by X-ray diffraction and chemical analysis
##URL=rruff.info/R050335
##MEASURED CHEMISTRY=(Ba_0.95_Sr_0.05_)_Î£=1_S_1.00_O_4_
92.52344, 157.6954
93.00555, 154.1918
93.48767, 154.4107
93.96979, 162.1673
94.45190, 172.1169
94.93402, 184.2132
95.41614, 194.5689
95.89825, 202.9561
96.38037, 210.4194
96.86249, 217.0157
97.34460, 223.0406
97.82672, 230.8489
98.30884, 236.0943
98.79095, 238.9831
99.27307, 238.8322
99.75519, 234.4017
100.2373, 225.4350
100.7194, 212.4666
101.2015, 198.7436
101.6837, 183.1047
102.1658, 167.4890
102.6479, 153.0245
103.1300, 139.5999
103.6121, 127.5604
104.0942, 117.6394
104.5764, 109.1578
105.0585, 101.6396
105.5406, 95.03284
106.0227, 89.18497
106.5048, 83.70482
106.9869, 78.37088
107.4691, 73.74037
107.9512, 70.05986
108.4333, 67.16375
108.9154, 64.67583
109.3975, 62.23019
109.8796, 59.73747
110.3618, 57.85463
110.8439, 57.03519
111.3260, 56.42328
111.8081, 55.72084
112.2902, 54.86328
112.7723, 53.91393
113.2544, 52.95568
113.7366, 51.94545
114.2187, 51.01625
114.7008, 50.07220
115.1829, 49.24090
115.6650, 48.70011
116.1471, 48.51406
116.6293, 48.50917
117.1114, 48.26888
117.5935, 47.67929
118.0756, 47.11039
118.5577, 46.63422
119.0398, 46.24009
119.5220, 45.88775
120.0041, 45.53674
120.4862, 45.25313
120.9683, 45.13570
121.4504, 45.20153
121.9325, 45.39331
122.4147, 45.78573
122.8968, 46.41374
123.3789, 46.81185
123.8610, 46.36102
124.3431, 45.67982
124.8252, 45.38337
125.3074, 45.74587
125.7895, 46.49072
126.2716, 47.02084
126.7537, 47.12567
127.2358, 47.39235
127.7179, 48.00944
128.2001, 48.86421
128.6822, 49.82647
129.1643, 50.82240
129.6464, 51.85322
130.1285, 52.87955
130.6107, 54.14434
131.0928, 55.17041
131.5749, 55.69653
132.0570, 55.86325
132.5391, 55.97126
133.0212, 56.25578
133.5034, 56.70524
133.9855, 57.52604
134.4676, 58.96870
134.9497, 60.49797
135.4318, 61.92505
135.9139, 63.18857
136.3960, 64.17175
136.8782, 64.60240
137.3603, 64.28649
137.8424, 64.58418
138.3245, 65.99168
138.8066, 67.88947
139.2887, 69.54709
139.7709, 70.77477
140.2530, 71.85876
140.7351, 73.00793
141.2172, 74.19274
141.6993, 75.82101
142.1814, 78.36410
142.6636, 81.55479
143.1457, 84.42917
143.6278, 86.69299
144.1099, 88.62361
144.5920, 90.28706
145.0741, 91.70836
145.5563, 93.51524
146.0384, 96.40114
146.5205, 100.4848
147.0026, 104.5745
147.4847, 108.0650
147.9668, 111.7860
148.4490, 116.3585
148.9311, 121.8555
149.4132, 127.7591
149.8953, 133.2001
150.3774, 137.6996
150.8595, 142.8148
151.3417, 149.5605
151.8238, 156.3467
152.3059, 162.1452
152.7880, 166.4958
153.2701, 169.3774
153.7522, 170.6551
154.2344, 170.4273
154.7165, 168.0747
155.1986, 162.6588
155.6807, 155.3544
156.1628, 147.4093
156.6449, 139.4046
157.1271, 131.4242
157.6092, 123.8667
158.0913, 116.3591
158.5734, 109.5066
159.0555, 103.4729
159.5376, 98.24108
160.0198, 93.85791
160.5019, 90.55943
160.9840, 88.05880
161.4661, 85.17307
161.9482, 81.35268
162.4303, 77.72215
162.9125, 75.01616
163.3946, 73.21490
163.8767, 71.97532
164.3588, 71.43309
164.8409, 71.26745
165.3230, 70.90392
165.8052, 70.07162
166.2873, 69.16809
166.7694, 68.75264
167.2515, 68.92693
167.7336, 69.24746
168.2157, 69.51750
168.6979, 69.79264
169.1800, 70.14637
169.6621, 70.61661
170.1442, 71.18132
170.6263, 71.80022
171.1084, 72.56960
171.5906, 73.22885
172.0727, 73.63620
172.5548, 73.91250
173.0369, 74.23296
173.5190, 74.71636
174.0011, 75.33558
174.4833, 75.85867
174.9654, 76.02810
175.4475, 76.36561
175.9296, 77.01307
176.4117, 77.90900
176.8938, 78.91457
177.3760, 79.90799
177.8581, 80.87953
178.3402, 82.24487
178.8223, 84.38535
179.3044, 86.49517
179.7865, 88.19685
180.2687, 89.59110
180.7508, 91.02036
181.2329, 92.75456
181.7150, 94.82766
182.1971, 97.07980
182.6792, 99.19460
183.1614, 101.6986
183.6435, 104.9798
184.1256, 109.0147
184.6077, 113.4203
185.0898, 117.8423
185.5719, 122.3020
186.0541, 127.2182
186.5362, 133.0890
187.0183, 139.1332
187.5004, 144.7181
187.9825, 149.8017
188.4646, 154.3296
188.9468, 158.6697
189.4289, 162.5387
189.9110, 164.4467
190.3931, 163.9596
190.8752, 161.3303
191.3573, 156.8305
191.8395, 150.3363
192.3216, 142.2604
192.8037, 131.9802
193.2858, 120.3946
193.7679, 109.4873
194.2500, 100.1639
194.7322, 92.22864
195.2143, 84.90511
195.6964, 78.14455
196.1785, 72.22065
196.6606, 67.29054
197.1427, 63.13444
197.6249, 59.32151
198.1070, 55.49094
198.5891, 51.70262
199.0712, 48.58997
199.5533, 46.56739
200.0354, 44.83973
200.5176, 43.16267
200.9997, 41.53904
201.4818, 40.02291
201.9639, 38.64878
202.4460, 37.41317
202.9281, 36.39945
203.4103, 35.82034
203.8924, 35.29294
204.3745, 34.72995
204.8566, 34.12592
205.3387, 33.51957
205.8208, 32.94836
206.3030, 32.41903
206.7851, 31.83822
207.2672, 31.00837
207.7493, 30.31196
208.2314, 29.96250
208.7135, 29.90869
209.1957, 29.95026
209.6778, 29.91205
210.1599, 29.78277
210.6420, 29.65335
211.1241, 29.56119
211.6062, 29.43795
212.0884, 29.25131
212.5705, 29.00034
213.0526, 28.68611
213.5347, 28.28093
214.0168, 27.76610
214.4989, 27.45014
214.9811, 27.42674
215.4632, 27.50801
215.9453, 27.61661
216.4274, 27.73402
216.9095, 27.79958
217.3916, 27.73751
217.8737, 27.54687
218.3559, 27.44213
218.8380, 27.60470
219.3201, 27.73943
219.8022, 27.48110
220.2843, 26.80359
220.7664, 26.22399
221.2486, 26.28522
221.7307, 26.82429
222.2128, 27.12432
222.6949, 26.90706
223.1770, 26.49599
223.6591, 26.23228
224.1413, 26.13177
224.6234, 26.13407
225.1055, 26.37545
225.5876, 26.67957
226.0697, 26.67655
226.5518, 25.90691
227.0340, 24.96491
227.5161, 24.85921
227.9982, 25.84114
228.4803, 26.78658
228.9624, 26.94814
229.4445, 26.69305
229.9267, 26.47177
230.4088, 26.47975
230.8909, 26.58276
231.3730, 26.47498
231.8551, 26.01071
232.3372, 25.71338
232.8194, 25.95381
233.3015, 26.41810
233.7836, 26.75597
234.2657, 26.82489
234.7478, 26.68396
235.2299, 26.41705
235.7121, 25.86045
236.1942, 25.52094
236.6763, 25.73864
237.1584, 26.13752
237.6405, 26.30430
238.1227, 26.04352
238.6048, 25.52243
239.0869, 25.14026
239.5690, 24.82949
240.0511, 24.81304
240.5332, 25.45532
241.0154, 26.22107
241.4975, 26.53294
241.9796, 26.14067
242.4617, 25.31389
242.9438, 24.71168
243.4259, 24.35227
243.9081, 24.22927
244.3902, 24.48636
244.8723, 24.87993
245.3544, 25.19939
245.8365, 25.36192
246.3186, 25.39961
246.8008, 25.38863
247.2829, 25.36176
247.7650, 25.22117
248.2471, 24.85172
248.7292, 24.43199
249.2113, 24.10217
249.6935, 23.91521
250.1756, 23.86498
250.6577, 23.94600
251.1398, 24.28745
251.6219, 24.58096
252.1040, 24.91848
252.5862, 25.16111
253.0683, 25.12281
253.5504, 24.76632
254.0325, 24.28971
254.5146, 24.01958
254.9967, 24.11544
255.4789, 24.14208
255.9610, 24.16287
256.4431, 24.08178
256.9252, 23.69208
257.4073, 22.97503
257.8894, 22.29878
258.3716, 22.19489
258.8537, 23.01925
259.3358, 23.49939
259.8179, 23.40617
260.3000, 23.10891
260.7821, 22.88665
261.2643, 22.79580
261.7464, 22.81179
262.2285, 22.95021
262.7106, 23.27197
263.1927, 23.33917
263.6748, 22.96622
264.1570, 22.44933
264.6391, 21.90053
265.1212, 21.36163
265.6033, 21.14116
266.0854, 21.68190
266.5675, 23.01789
267.0497, 23.81891
267.5318, 23.74435
268.0139, 23.33866
268.4960, 22.93299
268.9781, 22.56391
269.4602, 22.32197
269.9424, 22.34923
270.4245, 22.58747
270.9066, 22.60919
271.3887, 22.14696
271.8708, 21.66033
272.3529, 21.56227
272.8351, 21.82384
273.3172, 22.03947
273.7993, 21.90920
274.2814, 21.56299
274.7635, 21.44153
275.2456, 21.75190
275.7278, 22.06683
276.2099, 22.00705
276.6920, 21.62568
277.1741, 21.37278
277.6562, 21.52836
278.1383, 21.90636
278.6205, 22.10149
279.1026, 22.06912
279.5847, 21.95505
280.0668, 21.79099
280.5489, 21.60019
281.0310, 21.54972
281.5132, 21.80020
281.9953, 22.11273
282.4774, 22.16133
282.9595, 21.92347
283.4416, 21.57064
283.9237, 20.84305
284.4059, 19.97905
284.8880, 20.21336
285.3701, 22.65828
285.8522, 25.14731
286.3343, 25.11885
286.8164, 22.71088
287.2986, 20.49771
287.7807, 20.10759
288.2628, 21.02127
288.7449, 21.52391
289.2270, 21.23318
289.7091, 20.76987
290.1913, 20.70818
290.6734, 20.93387
291.1555, 21.02720
291.6376, 20.64668
292.1197, 20.00970
292.6018, 19.59944
293.0840, 19.41994
293.5661, 19.52851
294.0482, 20.32025
294.5303, 21.39129
295.0124, 21.95234
295.4945, 21.33061
295.9767, 20.21092
296.4588, 19.91158
296.9409, 20.67295
297.4230, 21.43148
297.9051, 21.65530
298.3872, 21.55349
298.8694, 21.31135
299.3515, 20.93405
299.8336, 20.51795
300.3157, 20.19219
300.7978, 19.96802
301.2799, 19.75282
301.7621, 19.38388
302.2442, 19.08029
302.7263, 19.08652
303.2084, 19.48123
303.6905, 19.98123
304.1726, 20.36064
304.6548, 20.62175
305.1369, 20.66119
305.6190, 20.22484
306.1011, 19.73689
306.5832, 19.54982
307.0653, 19.67932
307.5475, 19.85768
308.0296, 19.91440
308.5117, 19.84893
308.9938, 19.60233
309.4759, 18.84642
309.9580, 18.31060
310.4402, 18.61510
310.9223, 19.57421
311.4044, 20.47156
311.8865, 20.81605
312.3686, 20.71424
312.8507, 20.65108
313.3329, 20.71023
313.8150, 20.66468
314.2971, 20.21658
314.7792, 19.60388
315.2613, 19.29724
315.7434, 19.69318
316.2256, 20.40563
316.7077, 20.54871
317.1898, 19.92496
317.6719, 19.27799
318.1540, 18.80008
318.6361, 18.52384
319.1183, 18.56036
319.6004, 19.01139
320.0825, 19.59145
320.5646, 19.88452
321.0467, 19.83538
321.5288, 19.85332
322.0110, 20.16982
322.4931, 20.54298
322.9752, 20.78331
323.4573, 20.85938
323.9394, 20.86982
324.4215, 20.91374
324.9037, 20.98909
325.3858, 20.99337
325.8679, 20.88488
326.3500, 20.71688
326.8321, 20.42375
327.3142, 20.05721
327.7964, 19.90616
328.2785, 20.39260
328.7606, 21.32589
329.2427, 21.74741
329.7248, 21.41616
330.2069, 20.88379
330.6891, 20.35817
331.1712, 19.89944
331.6533, 19.65017
332.1354, 19.74240
332.6175, 20.04974
333.0996, 20.33220
333.5818, 20.59347
334.0639, 20.82162
334.5460, 20.99878
335.0281, 21.14271
335.5102, 21.27324
335.9923, 21.40538
336.4745, 21.50413
336.9566, 21.53510
337.4387, 21.49823
337.9208, 21.38643
338.4029, 21.10688
338.8850, 20.81603
339.3671, 20.65029
339.8492, 20.62006
340.3314, 20.70943
340.8135, 21.02252
341.2956, 21.49807
341.7777, 21.70377
342.2598, 21.41899
342.7419, 21.05008
343.2241, 20.99253
343.7062, 21.18326
344.1883, 21.30660
344.6704, 21.04554
345.1525, 20.63899
345.6346, 20.68784
346.1168, 21.36379
346.5989, 22.03704
347.0810, 22.20791
347.5631, 22.06261
348.0452, 21.88311
348.5273, 21.66786
349.0095, 21.51369
349.4916, 21.54422
349.9737, 21.76172
350.4558, 22.06978
350.9379, 22.56205
351.4200, 23.02870
351.9022, 23.12388
352.3843, 22.72053
352.8664, 22.25467
353.3485, 22.03290
353.8306, 21.99463
354.3127, 21.86149
354.7949, 21.46009
355.2770, 21.10391
355.7591, 21.24655
356.2412, 21.86959
356.7233, 22.49416
357.2054, 23.01587
357.6876, 23.41218
358.1697, 23.62099
358.6518, 23.61989
359.1339, 23.53347
359.6160, 23.45372
360.0981, 23.37605
360.5803, 23.27903
361.0624, 23.12958
361.5445, 22.98310
362.0266, 22.82403
362.5087, 22.67555
362.9908, 22.72383
363.4730, 23.13398
363.9551, 23.78221
364.4372, 24.27948
364.9193, 24.57148
365.4014, 24.81719
365.8835, 25.17063
366.3657, 25.51382
366.8478, 25.52615
367.3299, 25.04061
367.8120, 24.44517
368.2941, 24.42473
368.7762, 25.15487
369.2584, 25.63765
369.7405, 25.58796
370.2226, 25.31721
370.7047, 25.11833
371.1868, 25.02838
371.6689, 24.92801
372.1511, 24.69165
372.6332, 24.31172
373.1153, 24.06145
373.5974, 23.92774
374.0795, 23.91785
374.5616, 24.08396
375.0438, 24.37886
375.5259, 24.73079
376.0080, 25.12591
376.4901, 25.48621
376.9722, 25.51843
377.4543, 24.57762
377.9365, 24.14156
378.4186, 24.87400
378.9007, 25.95384
379.3828, 26.38513
379.8649, 25.92107
380.3470, 25.17853
380.8292, 25.05197
381.3113, 25.89803
381.7934, 26.28969
382.2755, 25.90301
382.7576, 25.40771
383.2397, 25.16229
383.7219, 25.15853
384.2040, 25.22266
384.6861, 25.21936
385.1682, 25.15549
385.6503, 25.13986
386.1324, 25.13001
386.6146, 25.22330
387.0967, 25.60320
387.5788, 26.04080
388.0609, 26.21066
388.5430, 25.97547
389.0251, 25.54527
389.5073, 25.34314
389.9894, 25.46204
390.4715, 25.62752
390.9536, 25.88332
391.4357, 26.12762
391.9178, 26.30458
392.4000, 26.40455
392.8821, 26.44378
393.3642, 26.43980
393.8463, 26.39305
394.3284, 26.26952
394.8105, 25.92330
395.2927, 25.67129
395.7748, 25.66470
396.2569, 25.81252
396.7390, 25.96457
397.2211, 26.04947
397.7032, 26.08885
398.1854, 26.10575
398.6675, 26.05418
399.1496, 26.12250
399.6317, 26.54600
400.1138, 26.99935
400.5959, 27.19074
401.0781, 27.07600
401.5602, 26.93542
402.0423, 27.05612
402.5244, 27.41024
403.0065, 27.68411
403.4886, 27.79518
403.9708, 27.88675
404.4529, 28.00924
404.9350, 28.18496
405.4171, 28.49408
405.8992, 29.18017
406.3813, 29.91097
406.8635, 30.01162
407.3456, 29.38762
407.8277, 29.02192
408.3098, 29.59401
408.7919, 30.64082
409.2740, 31.35353
409.7562, 31.59673
410.2383, 31.74983
410.7204, 31.96842
411.2025, 32.27538
411.6846, 32.78636
412.1667, 33.59571
412.6489, 34.43494
413.1310, 34.90025
413.6131, 35.00540
414.0952, 35.28379
414.5773, 35.86338
415.0594, 36.63078
415.5416, 37.52182
416.0237, 38.51796
416.5058, 39.57202
416.9879, 40.71112
417.4700, 41.86305
417.9521, 42.63961
418.4343, 42.47425
418.9164, 42.67210
419.3985, 43.74852
419.8806, 45.35769
420.3627, 47.05012
420.8448, 48.68241
421.3270, 50.22517
421.8091, 51.61653
422.2912, 52.73470
422.7733, 54.04531
423.2554, 55.30445
423.7375, 56.93745
424.2197, 59.40654
424.7018, 62.50689
425.1839, 65.55006
425.6660, 67.99973
426.1481, 69.99345
426.6302, 72.56676
427.1124, 75.82160
427.5945, 79.59361
428.0766, 83.73269
428.5587, 88.41518
429.0408, 94.00076
429.5229, 100.5368
430.0051, 107.5666
430.4872, 114.2245
430.9693, 120.0017
431.4514, 127.3961
431.9335, 137.4728
432.4156, 148.4503
432.8978, 159.5575
433.3799, 171.0229
433.8620, 183.7422
434.3441, 198.4464
434.8262, 214.5396
435.3083, 230.2926
435.7905, 245.5773
436.2726, 260.7286
436.7547, 275.6281
437.2368, 290.6739
437.7189, 306.0434
438.2010, 321.7403
438.6832, 338.2349
439.1653, 355.1190
439.6474, 372.8181
440.1295, 393.8133
440.6116, 418.1864
441.0938, 446.5072
441.5759, 479.8557
442.0580, 517.3307
442.5401, 557.2584
443.0222, 600.2538
443.5043, 644.5760
443.9865, 688.9362
444.4686, 733.1931
444.9507, 777.7600
445.4328, 822.7629
445.9149, 868.2783
446.3970, 913.7897
446.8792, 957.7579
447.3613, 1005.421
447.8434, 1057.127
448.3255, 1113.834
448.8076, 1177.807
449.2897, 1249.398
449.7719, 1324.583
450.2540, 1399.968
450.7361, 1475.854
451.2182, 1551.067
451.7003, 1631.640
452.1824, 1705.181
452.6646, 1771.300
453.1467, 1826.885
453.6288, 1865.470
454.1109, 1884.291
454.5930, 1888.846
455.0751, 1888.550
455.5573, 1872.733
456.0394, 1873.854
456.5215, 1888.430
457.0036, 1919.685
457.4857, 1969.458
457.9678, 2037.615
458.4500, 2125.054
458.9321, 2236.008
459.4142, 2365.578
459.8963, 2489.298
460.3784, 2622.872
460.8605, 2719.708
461.3427, 2787.524
461.8248, 2808.766
462.3069, 2763.335
462.7890, 2646.273
463.2711, 2475.451
463.7532, 2253.983
464.2354, 1984.827
464.7175, 1725.172
465.1996, 1472.671
465.6817, 1245.651
466.1638, 1056.281
466.6459, 899.7053
467.1281, 766.9926
467.6102, 659.8483
468.0923, 571.8066
468.5744, 499.5363
469.0565, 441.8587
469.5386, 392.9686
470.0208, 351.5555
470.5029, 316.5592
470.9850, 287.1538
471.4671, 263.3535
471.9492, 242.0494
472.4313, 222.7465
472.9135, 205.2760
473.3956, 189.4473
473.8777, 175.2561
474.3598, 162.6992
474.8419, 151.9331
475.3240, 142.8552
475.8062, 134.7376
476.2883, 127.7614
476.7704, 121.3362
477.2525, 115.4128
477.7346, 109.9670
478.2167, 105.1181
478.6989, 100.8319
479.1810, 96.82347
479.6631, 92.64346
480.1452, 88.22183
480.6273, 84.12270
481.1094, 80.31584
481.5916, 76.88982
482.0737, 73.97771
482.5558, 71.45750
483.0379, 69.14697
483.5200, 66.96171
484.0021, 64.86441
484.4843, 62.74019
484.9664, 60.52062
485.4485, 58.55659
485.9306, 57.14175
486.4127, 55.81853
486.8948, 54.17697
487.3770, 52.29246
487.8591, 50.67457
488.3412, 49.93483
488.8233, 49.56190
489.3054, 48.39079
489.7875, 46.31256
490.2697, 44.52901
490.7518, 43.83095
491.2339, 43.73611
491.7160, 43.22950
492.1981, 42.23949
492.6802, 41.05960
493.1624, 39.48907
493.6445, 37.93022
494.1266, 37.13966
494.6087, 37.22155
495.0908, 37.38743
495.5729, 36.90249
496.0551, 35.77771
496.5372, 34.98283
497.0193, 34.82847
497.5014, 34.59166
497.9835, 33.98697
498.4656, 33.18695
498.9478, 32.34858
499.4299, 31.54788
499.9120, 30.97533
500.3941, 31.00085
500.8762, 31.91516
501.3583, 32.26419
501.8405, 31.63784
502.3226, 30.86053
502.8047, 30.07059
503.2868, 29.36340
503.7689, 28.88091
504.2510, 28.70198
504.7331, 28.72198
505.2152, 28.80855
505.6974, 29.00414
506.1795, 28.99426
506.6616, 28.52315
507.1437, 28.00636
507.6258, 27.80028
508.1079, 27.84892
508.5901, 27.82275
509.0722, 27.46232
509.5543, 26.98446
510.0364, 26.66929
510.5185, 26.51992
511.0006, 26.58225
511.4828, 27.00167
511.9649, 27.53520
512.4470, 27.64467
512.9291, 27.24188
513.4113, 26.81421
513.8934, 26.35957
514.3755, 26.01672
514.8576, 26.07544
515.3397, 26.47684
515.8218, 26.69779
516.3040, 26.29889
516.7861, 25.40405
517.2682, 24.91732
517.7503, 25.22915
518.2324, 25.47338
518.7145, 25.62679
519.1967, 25.64703
519.6788, 25.45220
520.1609, 25.05758
520.6430, 24.61105
521.1251, 24.25970
521.6072, 23.99873
522.0894, 23.71067
522.5715, 23.27544
523.0536, 23.01233
523.5357, 23.18186
524.0178, 23.48986
524.4999, 23.55724
524.9821, 23.26722
525.4642, 22.96185
525.9463, 22.96391
526.4284, 23.22100
526.9105, 23.56163
527.3926, 24.05469
527.8748, 24.34229
528.3569, 23.95931
528.8390, 23.12283
529.3211, 22.58550
529.8032, 22.53936
530.2853, 22.67344
530.7675, 22.97683
531.2496, 23.31540
531.7317, 23.41223
532.2138, 23.18558
532.6959, 22.75707
533.1780, 22.22365
533.6602, 21.50133
534.1423, 21.21966
534.6244, 21.62992
535.1065, 22.12934
535.5886, 22.60912
536.0707, 22.99501
536.5529, 23.17944
537.0350, 23.12283
537.5171, 22.93844
537.9992, 22.80022
538.4813, 22.71930
538.9634, 22.62762
539.4456, 22.50309
539.9277, 22.39019
540.4098, 22.33450
540.8919, 22.30251
541.3740, 22.23175
541.8561, 22.10508
542.3383, 21.91514
542.8204, 21.56241
543.3025, 21.08427
543.7846, 20.89068
544.2667, 21.20058
544.7488, 21.58989
545.2310, 21.52901
545.7131, 21.07507
546.1952, 20.73613
546.6773, 20.63659
547.1594, 20.63006
547.6415, 20.74426
548.1237, 20.87218
548.6058, 20.67319
549.0879, 19.99253
549.5700, 19.24495
550.0521, 19.16934
550.5342, 20.15320
551.0164, 20.61930
551.4985, 20.16950
551.9806, 19.68981
552.4627, 19.53111
552.9448, 19.63511
553.4269, 19.88106
553.9091, 20.22822
554.3912, 20.52002
554.8733, 20.36842
555.3554, 19.65090
555.8375, 19.35525
556.3196, 19.94518
556.8018, 20.60010
557.2839, 20.85135
557.7660, 20.75473
558.2481, 20.45339
558.7302, 19.85172
559.2123, 19.24216
559.6945, 18.94374
560.1766, 18.90576
560.6587, 18.89884
561.1408, 18.84426
561.6229, 18.83606
562.1050, 19.04288
562.5872, 19.52449
563.0693, 19.73682
563.5514, 19.48704
564.0335, 19.15384
564.5156, 18.85151
564.9977, 18.61996
565.4799, 18.52550
565.9620, 18.59243
566.4441, 18.73452
566.9262, 18.83039
567.4083, 18.89702
567.8904, 18.84747
568.3726, 18.57743
568.8547, 18.29320
569.3368, 17.88021
569.8189, 17.54700
570.3010, 17.69312
570.7831, 18.53567
571.2653, 19.53044
571.7474, 20.06482
572.2295, 20.17432
572.7116, 20.14297
573.1937, 19.97975
573.6758, 19.76190
574.1580, 19.31495
574.6401, 18.83360
575.1222, 19.10738
575.6043, 21.34307
576.0864, 23.06155
576.5685, 22.53416
577.0507, 20.82015
577.5328, 19.62396
578.0149, 19.37828
578.4970, 19.60760
578.9791, 19.82895
579.4612, 20.03896
579.9434, 20.32702
580.4255, 20.88906
580.9076, 21.29608
581.3897, 21.39813
581.8718, 21.34541
582.3539, 21.23764
582.8361, 21.12432
583.3182, 21.13825
583.8003, 21.53226
584.2824, 22.22479
584.7645, 22.53088
585.2466, 22.25829
585.7288, 22.15028
586.2108, 22.72709
586.6929, 23.61956
587.1750, 24.26815
587.6572, 24.56558
588.1393, 24.92214
588.6214, 25.72361
