##NAMES=Barysilite
##RRUFFID=R050002
##IDEAL CHEMISTRY=Pb^2+^_8_Mn^2+^(Si_2_O_7_)_3_
##LOCALITY=Franklin, Sussex County, New Jersey, USA
##OWNER=RRUFF
##SOURCE=University of Arizona Mineral Museum
##DESCRIPTION=A lamellar aggregate of platy crystals
##STATUS=The identification of this mineral has been confirmed by X-ray diffraction and chemical analysis
##URL=rruff.info/R050002
##MEASURED CHEMISTRY=Pb_8.00_Mn_1.00_(Si_2.00_O_7_)_3_
134.7162, 2870.460
135.1983, 2976.354
135.6804, 3071.367
136.1626, 3152.912
136.6447, 3225.623
137.1268, 3297.637
137.6089, 3368.817
138.0910, 3437.870
138.5731, 3502.480
139.0553, 3563.023
139.5374, 3621.269
140.0195, 3677.876
140.5016, 3732.055
140.9837, 3776.565
141.4658, 3804.820
141.9480, 3834.452
142.4301, 3879.681
142.9122, 3953.984
143.3943, 4014.659
143.8764, 4053.133
144.3585, 4069.633
144.8407, 4091.787
145.3228, 4124.304
145.8049, 4158.753
146.2870, 4186.811
146.7691, 4202.527
147.2512, 4219.229
147.7334, 4240.046
148.2155, 4266.996
148.6976, 4289.765
149.1797, 4301.611
149.6618, 4311.275
150.1439, 4330.124
150.6261, 4366.636
151.1082, 4404.510
151.5903, 4438.519
152.0724, 4463.662
152.5545, 4495.723
153.0366, 4543.498
153.5188, 4598.529
154.0009, 4644.002
154.4830, 4666.844
154.9651, 4688.044
155.4472, 4716.439
155.9293, 4749.855
156.4115, 4795.274
156.8936, 4864.054
157.3757, 4948.617
157.8578, 5023.712
158.3399, 5065.936
158.8221, 5105.525
159.3042, 5162.582
159.7863, 5247.578
160.2684, 5345.119
160.7505, 5455.276
161.2326, 5577.229
161.7148, 5696.851
162.1969, 5797.095
162.6790, 5897.063
163.1611, 6013.823
163.6432, 6151.586
164.1253, 6309.708
164.6075, 6490.375
165.0896, 6693.757
165.5717, 6910.604
166.0538, 7143.232
166.5359, 7385.019
167.0180, 7626.838
167.5002, 7852.666
167.9823, 8086.766
168.4644, 8347.552
168.9465, 8637.289
169.4286, 8947.327
169.9107, 9281.882
170.3929, 9631.124
170.8750, 9983.258
171.3571, 10310.43
171.8392, 10642.65
172.3213, 11017.18
172.8034, 11442.81
173.2856, 11884.15
173.7677, 12309.19
174.2498, 12723.54
174.7319, 13138.39
175.2140, 13553.81
175.6961, 13976.00
176.1783, 14415.48
176.6604, 14874.28
177.1425, 15341.32
177.6246, 15815.13
178.1067, 16287.70
178.5888, 16739.01
179.0710, 17140.67
179.5531, 17503.67
180.0352, 17847.25
180.5173, 18181.02
180.9994, 18488.47
181.4815, 18740.73
181.9637, 18939.84
182.4458, 19080.96
182.9279, 19167.29
183.4100, 19195.11
183.8921, 19153.27
184.3742, 19038.65
184.8564, 18852.19
185.3385, 18592.39
185.8206, 18255.05
186.3027, 17868.14
186.7848, 17441.73
187.2669, 16980.55
187.7491, 16507.86
188.2312, 16035.42
188.7133, 15560.03
189.1954, 15050.45
189.6775, 14503.05
190.1596, 13951.81
190.6418, 13425.04
191.1239, 12925.12
191.6060, 12450.64
192.0881, 12000.44
192.5702, 11574.85
193.0524, 11177.36
193.5345, 10810.25
194.0166, 10467.67
194.4987, 10151.84
194.9808, 9863.881
195.4629, 9584.776
195.9451, 9301.619
196.4272, 9011.515
196.9093, 8764.595
197.3914, 8570.224
197.8735, 8406.735
198.3556, 8233.726
198.8378, 8049.719
199.3199, 7869.453
199.8020, 7699.489
200.2841, 7540.949
200.7662, 7399.652
201.2483, 7279.877
201.7305, 7173.993
202.2126, 7059.419
202.6947, 6930.435
203.1768, 6814.135
203.6589, 6734.651
204.1410, 6700.454
204.6232, 6645.914
205.1053, 6557.766
205.5874, 6448.876
206.0695, 6364.163
206.5516, 6310.492
207.0337, 6262.968
207.5159, 6202.250
207.9980, 6124.861
208.4801, 6056.195
208.9622, 5999.871
209.4443, 5954.673
209.9264, 5916.229
210.4086, 5887.643
210.8907, 5859.436
211.3728, 5824.191
211.8549, 5779.476
212.3370, 5734.734
212.8191, 5689.813
213.3013, 5645.603
213.7834, 5606.733
214.2655, 5574.876
214.7476, 5545.545
215.2297, 5515.843
215.7118, 5486.288
216.1940, 5453.314
216.6761, 5412.295
217.1582, 5364.130
217.6403, 5335.919
218.1224, 5337.359
218.6045, 5346.208
219.0867, 5340.012
219.5688, 5311.184
220.0509, 5285.354
220.5330, 5268.922
221.0151, 5261.884
221.4972, 5253.735
221.9794, 5243.525
222.4615, 5233.190
222.9436, 5224.521
223.4257, 5217.328
223.9078, 5212.175
224.3899, 5209.437
224.8721, 5209.188
225.3542, 5209.446
225.8363, 5208.271
226.3184, 5209.427
226.8005, 5218.423
227.2827, 5240.302
227.7648, 5260.383
228.2469, 5275.551
228.7290, 5285.779
229.2111, 5289.913
229.6932, 5281.546
230.1754, 5272.218
230.6575, 5279.584
231.1396, 5318.688
231.6217, 5347.242
232.1038, 5347.710
232.5859, 5310.004
233.0681, 5300.863
233.5502, 5337.004
234.0323, 5389.625
234.5144, 5415.546
234.9965, 5397.021
235.4786, 5381.390
235.9608, 5383.423
236.4429, 5406.722
236.9250, 5431.193
237.4071, 5459.861
237.8892, 5487.629
238.3713, 5505.631
238.8535, 5508.272
239.3356, 5510.508
239.8177, 5517.403
240.2998, 5530.748
240.7819, 5542.210
241.2640, 5553.136
241.7462, 5561.582
242.2283, 5562.634
242.7104, 5547.272
243.1925, 5539.563
243.6746, 5551.053
244.1567, 5592.604
244.6389, 5615.263
245.1210, 5610.716
245.6031, 5592.277
246.0852, 5583.015
246.5673, 5585.278
247.0494, 5592.750
247.5316, 5603.529
248.0137, 5617.854
248.4958, 5635.081
248.9779, 5656.608
249.4600, 5680.173
249.9421, 5701.385
250.4243, 5720.901
250.9064, 5737.114
251.3885, 5748.091
251.8706, 5750.381
252.3527, 5760.873
252.8348, 5788.164
253.3170, 5818.348
253.7991, 5821.922
254.2812, 5784.715
254.7633, 5748.056
255.2454, 5729.184
255.7275, 5735.574
256.2097, 5733.083
256.6918, 5722.188
257.1739, 5702.150
257.6560, 5671.289
258.1381, 5629.002
258.6202, 5576.694
259.1024, 5510.236
259.5845, 5422.998
260.0666, 5353.208
260.5487, 5307.880
261.0308, 5274.829
261.5129, 5230.543
261.9951, 5174.673
262.4772, 5109.144
262.9593, 5031.950
263.4414, 4937.355
263.9235, 4855.824
264.4056, 4789.072
264.8878, 4732.895
265.3699, 4680.127
265.8520, 4632.814
266.3341, 4581.612
266.8162, 4516.979
267.2983, 4433.604
267.7805, 4377.762
268.2626, 4360.356
268.7447, 4358.932
269.2268, 4332.509
269.7089, 4273.811
270.1910, 4216.362
270.6732, 4172.933
271.1553, 4145.078
271.6374, 4118.747
272.1195, 4094.373
272.6016, 4070.834
273.0837, 4047.066
273.5659, 4022.802
274.0480, 3999.125
274.5301, 3975.919
275.0122, 3953.244
275.4943, 3932.432
275.9764, 3913.453
276.4586, 3896.393
276.9407, 3883.084
277.4228, 3874.613
277.9049, 3861.935
278.3870, 3837.527
278.8691, 3802.431
279.3513, 3782.751
279.8334, 3781.846
280.3155, 3787.727
280.7976, 3785.428
281.2798, 3774.832
281.7619, 3759.273
282.2440, 3736.002
282.7261, 3707.176
283.2082, 3690.628
283.6903, 3688.107
284.1725, 3691.433
284.6546, 3691.937
285.1367, 3689.631
285.6188, 3684.685
286.1009, 3674.305
286.5830, 3661.056
287.0652, 3659.737
287.5473, 3672.757
288.0294, 3683.426
288.5115, 3665.453
288.9936, 3623.248
289.4757, 3594.700
289.9579, 3603.442
290.4400, 3632.100
290.9221, 3626.690
291.4042, 3584.665
291.8863, 3540.383
292.3684, 3532.405
292.8506, 3553.347
293.3327, 3570.922
293.8148, 3573.896
294.2969, 3567.976
294.7790, 3563.397
295.2611, 3560.148
295.7433, 3557.859
296.2254, 3556.785
296.7075, 3556.441
297.1896, 3555.340
297.6717, 3551.778
298.1538, 3548.309
298.6360, 3549.559
299.1181, 3555.207
299.6002, 3561.281
300.0823, 3565.985
300.5644, 3568.864
301.0465, 3568.611
301.5287, 3562.465
302.0108, 3556.094
302.4929, 3555.225
302.9750, 3559.644
303.4571, 3568.140
303.9392, 3585.021
304.4214, 3603.985
304.9035, 3616.349
305.3856, 3617.279
305.8677, 3615.091
306.3498, 3612.747
306.8319, 3612.065
307.3141, 3619.590
307.7962, 3655.380
308.2783, 3693.620
308.7604, 3704.268
309.2425, 3665.686
309.7246, 3632.681
310.2068, 3648.982
310.6889, 3699.336
311.1710, 3744.148
311.6531, 3761.476
312.1352, 3767.742
312.6173, 3773.202
313.0995, 3777.617
313.5816, 3786.675
314.0637, 3806.877
314.5458, 3833.420
315.0279, 3857.397
315.5100, 3867.504
315.9922, 3880.095
316.4743, 3905.677
316.9564, 3948.793
317.4385, 3991.034
317.9206, 4032.399
318.4027, 4067.885
318.8849, 4090.504
319.3670, 4076.043
319.8491, 4068.033
320.3312, 4087.346
320.8133, 4141.348
321.2954, 4187.213
321.7776, 4214.361
322.2597, 4230.542
322.7418, 4244.016
323.2239, 4256.630
323.7060, 4265.981
324.1881, 4270.549
324.6703, 4269.906
325.1524, 4269.595
325.6345, 4274.117
326.1166, 4276.918
326.5987, 4272.673
327.0808, 4251.182
327.5630, 4234.689
328.0451, 4228.695
328.5272, 4232.471
329.0093, 4229.669
329.4914, 4212.864
329.9735, 4196.288
330.4557, 4190.084
330.9378, 4204.448
331.4199, 4211.244
331.9020, 4206.063
332.3841, 4191.293
332.8662, 4178.601
333.3484, 4169.513
333.8305, 4160.376
334.3126, 4148.531
334.7947, 4132.235
335.2768, 4119.651
335.7589, 4114.022
336.2411, 4110.780
336.7232, 4095.403
337.2053, 4062.045
337.6874, 4033.981
338.1695, 4027.200
338.6516, 4046.177
339.1338, 4046.013
339.6159, 4021.421
340.0980, 3984.719
340.5801, 3956.204
341.0622, 3936.075
341.5443, 3919.436
342.0265, 3905.287
342.5086, 3893.290
342.9907, 3877.612
343.4728, 3857.085
343.9549, 3837.982
344.4370, 3831.925
344.9192, 3837.178
345.4013, 3836.126
345.8834, 3815.983
346.3655, 3786.967
346.8476, 3780.622
347.3297, 3797.651
347.8119, 3816.998
348.2940, 3815.234
348.7761, 3799.353
349.2582, 3790.957
349.7403, 3800.491
350.2225, 3815.682
350.7046, 3816.577
351.1867, 3805.107
351.6688, 3796.115
352.1509, 3803.668
352.6331, 3819.655
353.1152, 3830.774
353.5973, 3830.057
354.0794, 3831.376
354.5615, 3854.176
355.0436, 3890.719
355.5258, 3917.465
356.0079, 3906.457
356.4900, 3888.321
356.9721, 3891.984
357.4542, 3927.568
357.9363, 3965.676
358.4185, 3992.474
358.9006, 4010.372
359.3827, 4023.538
359.8648, 4028.643
360.3469, 4033.363
360.8290, 4043.370
361.3112, 4060.550
361.7933, 4072.704
362.2754, 4068.820
362.7575, 4060.683
363.2396, 4061.103
363.7217, 4078.082
364.2039, 4098.778
364.6860, 4123.907
365.1681, 4153.510
365.6502, 4172.691
366.1323, 4167.856
366.6144, 4159.456
367.0966, 4161.653
367.5787, 4187.406
368.0608, 4208.379
368.5429, 4221.397
369.0250, 4227.839
369.5071, 4234.169
369.9893, 4237.917
370.4714, 4244.358
370.9535, 4256.804
371.4356, 4279.429
371.9177, 4298.254
372.3998, 4312.555
372.8820, 4323.288
373.3641, 4333.005
373.8462, 4343.291
374.3283, 4348.299
374.8104, 4342.574
375.2925, 4324.226
375.7747, 4317.883
376.2568, 4325.900
376.7389, 4341.129
377.2210, 4357.104
377.7031, 4374.503
378.1852, 4381.967
378.6674, 4369.947
379.1495, 4345.546
379.6316, 4341.721
380.1137, 4360.294
380.5958, 4383.223
381.0779, 4395.362
381.5601, 4397.794
382.0422, 4394.562
382.5243, 4384.557
383.0064, 4371.944
383.4885, 4364.375
383.9706, 4361.082
384.4528, 4356.946
384.9349, 4346.279
385.4170, 4333.001
385.8991, 4323.745
386.3812, 4320.167
386.8633, 4318.193
387.3455, 4318.113
387.8276, 4316.952
388.3097, 4307.781
388.7918, 4278.053
389.2739, 4244.748
389.7560, 4221.994
390.2382, 4211.511
390.7203, 4203.845
391.2024, 4197.064
391.6845, 4189.272
392.1666, 4178.166
392.6487, 4160.234
393.1309, 4141.447
393.6130, 4125.817
394.0951, 4112.695
394.5772, 4094.944
395.0593, 4062.798
395.5414, 4030.452
396.0236, 4007.114
396.5057, 4005.718
396.9878, 3999.441
397.4699, 3980.792
397.9520, 3954.862
398.4341, 3937.720
398.9163, 3932.047
399.3984, 3932.519
399.8805, 3939.627
400.3626, 3960.346
400.8447, 3966.430
401.3268, 3952.688
401.8090, 3928.124
402.2911, 3902.416
402.7732, 3870.260
403.2553, 3852.237
403.7374, 3859.440
404.2195, 3889.735
404.7017, 3902.168
405.1838, 3892.119
405.6659, 3876.655
406.1480, 3872.965
406.6301, 3881.287
407.1122, 3882.627
407.5944, 3869.831
408.0765, 3851.964
408.5586, 3853.251
409.0407, 3873.337
409.5228, 3894.774
410.0049, 3903.366
410.4871, 3904.173
410.9692, 3912.567
411.4513, 3931.422
411.9334, 3952.672
412.4155, 3967.989
412.8976, 3978.594
413.3798, 3987.521
413.8619, 3993.037
414.3440, 3999.587
414.8261, 4015.136
415.3082, 4039.761
415.7903, 4059.281
416.2725, 4054.795
416.7546, 4043.837
417.2367, 4046.498
417.7188, 4080.290
418.2009, 4116.559
418.6830, 4139.808
419.1652, 4154.091
419.6473, 4173.357
420.1294, 4209.877
420.6115, 4247.188
421.0937, 4275.679
421.5758, 4286.446
422.0579, 4303.726
422.5400, 4332.398
423.0221, 4369.081
423.5042, 4409.070
423.9864, 4459.942
424.4685, 4504.852
424.9506, 4538.209
425.4327, 4558.237
425.9148, 4583.817
426.3969, 4615.022
426.8791, 4651.657
427.3612, 4695.101
427.8433, 4749.663
428.3254, 4797.014
428.8075, 4833.563
429.2896, 4861.383
429.7718, 4884.487
430.2539, 4901.184
430.7360, 4922.128
431.2181, 4957.482
431.7002, 5005.708
432.1823, 5043.535
432.6645, 5068.649
433.1466, 5087.330
433.6287, 5108.344
434.1108, 5130.548
434.5929, 5148.098
435.0750, 5154.835
435.5572, 5156.844
436.0393, 5169.248
436.5214, 5191.165
437.0035, 5203.964
437.4856, 5185.607
437.9677, 5151.204
438.4499, 5122.258
438.9320, 5107.845
439.4141, 5093.981
439.8962, 5071.362
440.3783, 5041.690
440.8604, 5008.674
441.3426, 4971.263
441.8247, 4933.451
442.3068, 4897.972
442.7889, 4865.817
443.2710, 4832.639
443.7531, 4797.592
444.2353, 4760.896
444.7174, 4722.175
445.1995, 4671.333
445.6816, 4630.076
446.1637, 4607.560
446.6458, 4601.545
447.1280, 4585.249
447.6101, 4548.192
448.0922, 4512.310
448.5743, 4491.448
449.0564, 4494.261
449.5385, 4487.896
450.0207, 4468.360
450.5028, 4442.207
450.9849, 4422.720
451.4670, 4411.867
451.9491, 4398.279
452.4312, 4373.647
452.9134, 4341.031
453.3955, 4326.494
453.8776, 4332.166
454.3597, 4340.891
454.8418, 4335.353
455.3239, 4318.346
455.8061, 4301.149
456.2882, 4284.820
456.7703, 4271.445
457.2524, 4261.981
457.7345, 4257.324
458.2166, 4261.125
458.6988, 4284.144
459.1809, 4312.491
459.6630, 4331.029
460.1451, 4337.864
460.6272, 4338.796
461.1093, 4329.235
461.5915, 4318.439
462.0736, 4318.180
462.5557, 4341.566
463.0378, 4367.082
463.5199, 4387.916
464.0020, 4404.098
464.4842, 4417.775
464.9663, 4424.840
465.4484, 4432.706
465.9305, 4445.547
466.4126, 4467.604
466.8947, 4487.504
467.3769, 4501.672
467.8590, 4515.155
468.3411, 4536.301
468.8232, 4565.687
469.3053, 4602.000
469.7874, 4647.800
470.2696, 4702.222
470.7517, 4747.566
471.2338, 4780.648
471.7159, 4814.065
472.1980, 4858.522
472.6801, 4914.043
473.1623, 4972.274
473.6444, 5033.236
474.1265, 5094.867
474.6086, 5151.069
475.0907, 5203.316
475.5728, 5261.140
476.0550, 5341.221
476.5371, 5426.315
477.0192, 5482.654
477.5013, 5509.071
477.9834, 5533.961
478.4655, 5574.747
478.9477, 5628.775
479.4298, 5692.965
479.9119, 5779.786
480.3940, 5860.641
480.8761, 5921.011
481.3582, 5963.432
481.8404, 5994.188
482.3225, 6002.125
482.8046, 6009.700
483.2867, 6026.978
483.7688, 6056.065
484.2509, 6090.518
484.7331, 6135.718
485.2152, 6182.879
485.6973, 6223.717
486.1794, 6247.044
486.6615, 6283.221
487.1436, 6336.609
487.6258, 6406.219
488.1079, 6489.714
488.5900, 6590.291
489.0721, 6694.702
489.5542, 6790.860
490.0363, 6878.881
490.5185, 6991.140
491.0006, 7130.939
491.4827, 7283.602
491.9648, 7422.704
492.4470, 7553.623
492.9291, 7704.779
493.4112, 7887.385
493.8933, 8090.745
494.3754, 8295.016
494.8575, 8502.544
495.3397, 8715.717
495.8218, 8950.704
496.3039, 9188.893
496.7860, 9401.697
497.2681, 9579.019
497.7502, 9767.515
498.2324, 10012.24
498.7145, 10278.59
499.1966, 10524.27
499.6787, 10705.25
500.1608, 10892.83
500.6429, 11123.06
501.1251, 11391.49
501.6072, 11620.54
502.0893, 11792.95
502.5714, 11938.60
503.0535, 12071.88
503.5356, 12197.64
504.0178, 12298.83
504.4999, 12373.69
504.9820, 12424.48
505.4641, 12457.67
505.9462, 12475.66
506.4283, 12464.25
506.9105, 12420.55
507.3926, 12343.95
507.8747, 12229.69
508.3568, 12076.56
508.8389, 11896.78
509.3210, 11686.13
509.8032, 11453.29
510.2853, 11223.82
510.7674, 11005.05
511.2495, 10771.77
511.7316, 10488.59
512.2137, 10171.03
512.6959, 9855.567
513.1780, 9531.805
513.6601, 9232.978
514.1422, 9002.084
514.6243, 8827.134
515.1064, 8626.354
515.5886, 8329.628
516.0707, 8022.856
516.5528, 7761.450
517.0349, 7564.178
517.5170, 7382.599
517.9991, 7222.559
518.4813, 7073.104
518.9634, 6919.929
519.4455, 6748.339
519.9276, 6598.807
520.4097, 6482.980
520.8918, 6398.048
521.3740, 6314.850
521.8561, 6235.574
522.3382, 6150.776
522.8203, 6044.588
523.3024, 5920.596
523.7845, 5829.043
524.2667, 5776.428
524.7488, 5740.549
525.2309, 5692.804
525.7130, 5637.162
526.1951, 5588.482
526.6772, 5553.141
527.1594, 5525.347
527.6415, 5500.373
528.1236, 5477.958
528.6057, 5456.331
529.0878, 5437.958
529.5699, 5417.929
530.0521, 5390.460
530.5342, 5351.276
531.0163, 5319.759
531.4984, 5303.125
531.9805, 5296.542
532.4626, 5294.741
532.9448, 5315.615
533.4269, 5318.516
533.9090, 5291.418
534.3911, 5242.242
534.8732, 5202.718
535.3553, 5175.006
535.8375, 5152.145
536.3196, 5132.034
536.8017, 5114.500
537.2838, 5098.494
537.7659, 5084.554
538.2480, 5069.854
538.7302, 5053.267
539.2123, 5033.931
539.6944, 5005.459
540.1765, 4962.616
540.6586, 4917.109
541.1407, 4885.008
541.6229, 4863.724
542.1050, 4843.384
542.5871, 4815.212
543.0692, 4787.849
543.5513, 4771.470
544.0334, 4766.616
544.5156, 4760.017
544.9977, 4744.705
545.4798, 4725.528
545.9619, 4705.666
546.4440, 4674.818
546.9261, 4659.524
547.4083, 4677.175
547.8904, 4710.036
548.3725, 4725.116
548.8546, 4708.857
549.3367, 4697.878
549.8188, 4705.971
550.3010, 4729.988
550.7831, 4729.465
551.2652, 4697.723
551.7473, 4663.635
552.2294, 4651.250
552.7115, 4657.723
553.1937, 4653.962
553.6758, 4636.133
554.1579, 4614.441
554.6400, 4600.822
555.1221, 4593.487
555.6042, 4587.607
556.0864, 4582.019
556.5685, 4576.443
557.0506, 4571.344
557.5327, 4566.262
558.0148, 4559.536
558.4969, 4547.613
558.9791, 4535.831
559.4612, 4528.178
559.9433, 4526.160
560.4254, 4522.647
560.9075, 4517.459
561.3896, 4509.542
561.8718, 4497.488
562.3539, 4474.080
562.8360, 4459.417
563.3181, 4459.317
563.8002, 4466.903
564.2823, 4465.118
564.7645, 4452.318
565.2466, 4437.496
565.7287, 4423.496
566.2108, 4410.389
566.6929, 4398.697
567.1750, 4388.506
567.6572, 4379.938
568.1393, 4370.023
568.6214, 4362.468
569.1035, 4368.951
569.5856, 4396.061
570.0677, 4417.769
570.5499, 4403.076
571.0320, 4370.820
571.5141, 4350.745
571.9962, 4372.613
572.4783, 4389.933
572.9604, 4376.401
573.4426, 4339.240
573.9247, 4316.410
574.4068, 4327.973
574.8889, 4342.512
575.3710, 4348.183
575.8531, 4343.183
576.3353, 4337.898
576.8174, 4330.239
577.2995, 4325.475
577.7816, 4330.018
578.2637, 4344.845
578.7458, 4359.105
579.2280, 4372.419
579.7101, 4382.323
580.1922, 4381.109
580.6743, 4370.972
581.1564, 4364.296
581.6385, 4371.145
582.1207, 4382.376
582.6028, 4385.974
583.0849, 4382.566
583.5670, 4377.369
584.0491, 4373.595
584.5313, 4369.163
585.0134, 4362.215
585.4955, 4351.813
585.9776, 4341.149
586.4597, 4323.708
586.9418, 4309.625
587.4240, 4311.411
587.9061, 4346.508
588.3882, 4370.026
588.8703, 4372.641
589.3524, 4361.847
589.8345, 4360.142
590.3167, 4369.698
590.7988, 4380.157
591.2809, 4387.987
591.7630, 4393.082
592.2451, 4395.259
592.7272, 4394.642
593.2094, 4388.088
593.6915, 4363.139
594.1736, 4332.385
594.6557, 4323.642
595.1378, 4346.637
595.6199, 4369.895
596.1021, 4366.017
596.5842, 4348.533
597.0663, 4336.688
597.5485, 4339.313
598.0306, 4346.224
598.5127, 4356.329
598.9948, 4368.651
599.4769, 4379.434
599.9590, 4391.969
600.4412, 4398.801
600.9233, 4394.808
601.4054, 4378.667
601.8875, 4373.771
602.3696, 4383.933
602.8517, 4396.083
603.3339, 4397.660
603.8160, 4389.690
604.2981, 4385.047
604.7802, 4385.085
605.2623, 4389.114
605.7444, 4399.536
606.2266, 4413.526
606.7087, 4423.220
607.1908, 4427.734
607.6729, 4425.048
608.1550, 4404.789
608.6371, 4374.472
609.1193, 4357.826
609.6014, 4374.599
610.0835, 4398.737
610.5656, 4420.504
611.0477, 4440.075
611.5298, 4449.853
612.0120, 4445.756
612.4941, 4435.814
612.9762, 4423.480
613.4583, 4405.351
613.9404, 4397.979
614.4225, 4404.283
614.9047, 4417.666
615.3868, 4429.566
615.8689, 4440.186
616.3510, 4451.225
616.8331, 4464.724
617.3152, 4476.875
617.7974, 4482.787
618.2795, 4482.479
618.7616, 4476.493
619.2437, 4457.312
619.7258, 4438.412
620.2079, 4430.140
620.6901, 4433.083
621.1722, 4439.400
621.6543, 4451.758
622.1364, 4462.858
622.6185, 4467.015
623.1006, 4458.056
623.5828, 4455.995
624.0649, 4466.275
624.5470, 4478.462
625.0291, 4477.897
625.5112, 4460.911
625.9933, 4451.372
626.4755, 4455.237
626.9576, 4466.687
627.4397, 4473.813
627.9218, 4477.262
628.4039, 4481.958
628.8860, 4492.300
629.3682, 4504.285
629.8503, 4514.413
630.3324, 4522.142
