##NAMES=Barysilite
##RRUFFID=R100057
##IDEAL CHEMISTRY=Pb^2+^_8_Mn^2+^(Si_2_O_7_)_3_
##LOCALITY=Langban, Filipstad, Varmland, Sweden
##OWNER=RRUFF
##SOURCE=William W Pinch
##DESCRIPTION=Aggregate of colorless plates
##STATUS=The identification of this mineral has been confirmed by single-crystal X-ray diffraction.
##URL=rruff.info/R100057
91.53320, 603.6803
92.01532, 604.9208
92.49744, 603.8646
92.97955, 608.5570
93.46167, 611.8853
93.94379, 609.2137
94.42590, 603.5740
94.90802, 597.4391
95.39014, 591.6984
95.87225, 585.9371
96.35437, 581.9756
96.83649, 579.7931
97.31860, 580.0149
97.80072, 583.6028
98.28284, 590.2485
98.76495, 599.2401
99.24707, 610.7412
99.72919, 623.3021
100.2113, 640.7095
100.6934, 665.7905
101.1755, 696.3026
101.6577, 728.2440
102.1398, 759.7156
102.6219, 793.2205
103.1040, 812.0934
103.5861, 818.6738
104.0682, 813.8640
104.5504, 796.0213
105.0325, 765.8576
105.5146, 727.3984
105.9967, 685.3038
106.4788, 636.7993
106.9609, 591.5445
107.4431, 548.7922
107.9252, 509.5814
108.4073, 475.7085
108.8894, 447.9333
109.3715, 425.3319
109.8536, 406.4745
110.3358, 391.1186
110.8179, 377.9787
111.3000, 366.7576
111.7821, 357.3601
112.2642, 348.9738
112.7463, 341.7917
113.2285, 335.2708
113.7106, 328.9020
114.1927, 322.6646
114.6748, 316.4697
115.1569, 310.3149
115.6390, 304.2423
116.1212, 297.9294
116.6033, 291.1547
117.0854, 284.1400
117.5675, 277.0605
118.0496, 269.9592
118.5317, 262.8517
119.0139, 255.9016
119.4960, 249.0995
119.9781, 242.5074
120.4602, 235.9660
120.9423, 229.6158
121.4244, 223.7266
121.9066, 218.5102
122.3887, 213.9885
122.8708, 209.7752
123.3529, 205.9515
123.8350, 202.2581
124.3171, 198.3449
124.7993, 194.3083
125.2814, 190.8104
125.7635, 188.6093
126.2456, 188.0660
126.7277, 187.2266
127.2098, 185.8348
127.6920, 184.2369
128.1741, 182.7569
128.6562, 181.4592
129.1383, 180.3055
129.6204, 179.2512
130.1025, 178.2766
130.5847, 177.4631
131.0668, 176.9027
131.5489, 176.5416
132.0310, 176.2367
132.5131, 176.1562
132.9952, 175.8671
133.4774, 175.1141
133.9595, 173.8894
134.4416, 172.2160
134.9237, 170.0772
135.4058, 167.4387
135.8879, 164.5069
136.3701, 160.7838
136.8522, 157.1289
137.3343, 154.1312
137.8164, 151.9054
138.2985, 150.0658
138.7806, 147.9109
139.2628, 145.1678
139.7449, 142.5986
140.2270, 140.1992
140.7091, 137.9995
141.1912, 136.0554
141.6733, 134.4003
142.1555, 132.9572
142.6376, 131.4932
143.1197, 129.9130
143.6018, 128.4168
144.0839, 127.1419
144.5660, 125.9514
145.0482, 124.6196
145.5303, 123.0045
146.0124, 121.1459
146.4945, 119.3120
146.9766, 117.3427
147.4587, 115.5470
147.9409, 114.1020
148.4230, 112.9665
148.9051, 111.9532
149.3872, 110.9612
149.8693, 109.9892
150.3514, 108.9966
150.8336, 107.8310
151.3157, 106.7387
151.7978, 105.8982
152.2799, 105.3038
152.7620, 105.0047
153.2441, 105.1494
153.7263, 105.6131
154.2084, 106.2556
154.6905, 106.8614
155.1726, 107.6349
155.6547, 109.0796
156.1368, 111.3801
156.6190, 114.0706
157.1011, 116.7341
157.5832, 119.5249
158.0653, 122.7897
158.5474, 126.6550
159.0295, 131.1347
159.5117, 136.4138
159.9938, 142.7759
160.4759, 149.8407
160.9580, 157.5830
161.4401, 165.9034
161.9222, 174.5580
162.4044, 183.2338
162.8865, 191.8411
163.3686, 201.3712
163.8507, 212.6986
164.3328, 224.1837
164.8149, 235.2164
165.2971, 245.7597
165.7792, 255.7886
166.2613, 265.3307
166.7434, 274.0724
167.2255, 283.1310
167.7076, 292.7693
168.1898, 302.5381
168.6719, 312.2381
169.1540, 321.8252
169.6361, 331.0263
170.1182, 339.3875
170.6003, 346.3629
171.0825, 353.8758
171.5646, 361.9563
172.0467, 370.6151
172.5288, 379.8725
173.0109, 389.7378
173.4930, 400.1603
173.9752, 411.3219
174.4573, 423.2468
174.9394, 435.2928
175.4215, 447.2448
175.9036, 459.2409
176.3857, 471.4171
176.8679, 483.8090
177.3500, 496.6635
177.8321, 510.3042
178.3142, 524.8229
178.7963, 539.4392
179.2784, 553.4676
179.7606, 567.1335
180.2427, 581.3992
180.7248, 597.2197
181.2069, 613.1345
181.6890, 628.3244
182.1711, 642.8388
182.6533, 655.4182
183.1354, 665.1376
183.6175, 672.0472
184.0996, 675.7010
184.5817, 676.1309
185.0638, 672.8890
185.5460, 665.3163
186.0281, 653.2747
186.5102, 637.0548
186.9923, 616.5146
187.4744, 590.2833
187.9565, 563.1367
188.4387, 534.5860
188.9208, 506.0509
189.4029, 478.6125
189.8850, 452.4773
190.3671, 427.5677
190.8492, 403.1848
191.3314, 378.8675
191.8135, 356.4096
192.2956, 335.7808
192.7777, 316.9305
193.2598, 300.0340
193.7419, 285.1807
194.2241, 271.9249
194.7062, 259.2170
195.1883, 246.8369
195.6704, 235.3275
196.1525, 224.7537
196.6346, 215.0777
197.1168, 206.3582
197.5989, 198.6399
198.0810, 191.7028
198.5631, 184.9540
199.0452, 178.0839
199.5273, 171.7652
200.0095, 166.1909
200.4916, 161.2382
200.9737, 156.7353
201.4558, 152.6390
201.9379, 148.8372
202.4200, 144.8810
202.9022, 140.4809
203.3843, 136.4547
203.8664, 133.1976
204.3485, 130.5477
204.8306, 128.1193
205.3127, 125.8235
205.7949, 123.5740
206.2770, 121.1539
206.7591, 118.3509
207.2412, 115.8051
207.7233, 114.0090
208.2054, 112.8546
208.6876, 111.7410
209.1697, 110.5027
209.6518, 109.1109
210.1339, 107.5044
210.6160, 105.5740
211.0981, 103.7571
211.5803, 102.4410
212.0624, 101.6283
212.5445, 100.9729
213.0266, 100.6303
213.5087, 100.2207
213.9908, 99.29388
214.4730, 97.71076
214.9551, 96.04218
215.4372, 94.94930
215.9193, 94.50354
216.4014, 94.16428
216.8836, 93.94242
217.3657, 93.67950
217.8478, 93.21851
218.3299, 92.52013
218.8120, 91.76253
219.2941, 91.13593
219.7763, 90.57597
220.2584, 90.38152
220.7405, 90.87373
221.2226, 91.55760
221.7047, 92.13625
222.1868, 92.52338
222.6690, 92.76846
223.1511, 92.91298
223.6332, 92.83949
224.1153, 92.94624
224.5974, 93.52222
225.0795, 94.10641
225.5617, 94.24010
226.0438, 93.83530
226.5259, 93.31633
227.0080, 93.48527
227.4901, 94.98686
227.9722, 96.00053
228.4544, 96.16183
228.9365, 96.07217
229.4186, 96.14498
229.9007, 96.51118
230.3828, 97.08810
230.8649, 97.72602
231.3471, 98.36569
231.8292, 99.19587
232.3113, 100.3879
232.7934, 101.6506
233.2755, 102.7630
233.7576, 103.6555
234.2398, 104.4016
234.7219, 105.1078
235.2040, 105.7884
235.6861, 106.3896
236.1682, 106.8587
236.6503, 107.2788
237.1325, 107.7379
237.6146, 108.2543
238.0967, 108.7647
238.5788, 109.1909
239.0609, 109.5936
239.5430, 109.7081
240.0252, 109.1609
240.5073, 108.4975
240.9894, 108.4136
241.4715, 109.0699
241.9536, 109.7870
242.4357, 109.5273
242.9179, 107.9428
243.4000, 106.9566
243.8821, 107.3530
244.3642, 108.1571
244.8463, 108.2535
245.3284, 107.4008
245.8106, 106.2157
246.2927, 105.3334
246.7748, 104.7481
247.2569, 104.4509
247.7390, 104.6743
248.2211, 105.0857
248.7033, 105.2297
249.1854, 105.0050
249.6675, 104.7858
250.1496, 105.0296
250.6317, 105.6621
251.1138, 106.1821
251.5960, 106.4288
252.0781, 106.5335
252.5602, 106.6887
253.0423, 106.9310
253.5244, 107.1063
254.0065, 107.0087
254.4887, 106.7255
254.9708, 106.4860
255.4529, 106.6053
255.9350, 106.6968
256.4171, 106.1191
256.8992, 104.7317
257.3813, 103.2414
257.8635, 102.2599
258.3456, 101.5113
258.8277, 100.5129
259.3098, 99.15331
259.7919, 97.46546
260.2740, 95.41605
260.7562, 92.92630
261.2383, 90.41828
261.7204, 88.17204
262.2025, 86.03393
262.6846, 83.79398
263.1667, 81.37249
263.6489, 78.84895
264.1310, 76.26700
264.6131, 73.58162
265.0952, 71.03252
265.5773, 68.65565
266.0594, 66.51591
266.5416, 64.77503
267.0237, 63.57354
267.5058, 62.52129
267.9879, 60.99450
268.4700, 58.84760
268.9521, 56.92181
269.4343, 55.67268
269.9164, 54.67606
270.3985, 53.61086
270.8806, 52.38549
271.3627, 51.22647
271.8448, 50.50414
272.3270, 50.33461
272.8091, 49.97767
273.2912, 49.06343
273.7733, 48.02238
274.2554, 47.05931
274.7375, 46.21296
275.2197, 45.51352
275.7018, 45.02641
276.1839, 44.78860
276.6660, 44.53288
277.1481, 44.27637
277.6302, 43.95075
278.1124, 43.47107
278.5945, 42.85417
279.0766, 42.24414
279.5587, 41.77744
280.0408, 41.46117
280.5229, 41.21289
281.0051, 41.04496
281.4872, 40.94241
281.9693, 40.97493
282.4514, 41.08928
282.9335, 41.13020
283.4156, 40.96746
283.8978, 40.59899
284.3799, 40.11520
284.8620, 39.12951
285.3441, 38.43560
285.8262, 38.55700
286.3083, 39.18968
286.7905, 39.66066
287.2726, 39.44552
287.7547, 38.62719
288.2368, 38.01170
288.7189, 37.81681
289.2010, 37.57482
289.6832, 36.97274
290.1653, 36.27893
290.6474, 35.94918
291.1295, 36.30622
291.6116, 37.12208
292.0938, 37.43899
292.5759, 36.77304
293.0580, 36.28343
293.5401, 36.26242
294.0222, 36.49599
294.5043, 36.78888
294.9865, 37.06117
295.4686, 37.25464
295.9507, 37.19757
296.4328, 36.66541
296.9149, 36.28274
297.3970, 36.16347
297.8792, 36.18026
298.3613, 36.27090
298.8434, 36.40391
299.3255, 36.50287
299.8076, 36.39558
300.2897, 35.86272
300.7719, 35.63451
301.2540, 35.97475
301.7361, 36.41155
302.2182, 36.69780
302.7003, 36.76823
303.1824, 36.65034
303.6646, 36.27916
304.1467, 35.43569
304.6288, 35.16230
305.1109, 35.93575
305.5930, 36.82424
306.0751, 37.43905
306.5573, 37.76743
307.0394, 37.98850
307.5215, 38.28316
308.0036, 38.67418
308.4857, 38.81476
308.9678, 38.38385
309.4500, 38.00853
309.9321, 37.87379
310.4142, 37.93384
310.8963, 38.04820
311.3784, 38.10712
311.8605, 38.14501
312.3427, 38.44358
312.8248, 39.60556
313.3069, 40.31063
313.7890, 40.00078
314.2711, 39.20142
314.7532, 38.56372
315.2354, 38.40852
315.7175, 38.63696
316.1996, 38.99759
316.6817, 39.71478
317.1638, 40.19853
317.6459, 40.30044
318.1281, 40.21680
318.6102, 40.04636
319.0923, 39.84092
319.5744, 39.72540
320.0565, 39.94462
320.5386, 40.70247
321.0208, 41.32691
321.5029, 41.82080
321.9850, 42.17474
322.4671, 42.34685
322.9492, 42.35337
323.4313, 42.28502
323.9135, 42.26096
324.3956, 42.32553
324.8777, 42.19954
325.3598, 41.60713
325.8419, 41.07865
326.3240, 40.86383
326.8062, 40.89632
327.2883, 40.94276
327.7704, 40.81104
328.2525, 40.51670
328.7346, 40.33550
329.2167, 40.39939
329.6989, 40.43230
330.1810, 40.42498
330.6631, 40.33297
331.1452, 40.06086
331.6273, 39.53283
332.1094, 38.87450
332.5916, 38.49508
333.0737, 38.59317
333.5558, 38.64122
334.0379, 38.56034
334.5200, 38.38972
335.0021, 38.11523
335.4843, 37.73931
335.9664, 37.39418
336.4485, 37.34724
336.9306, 37.76899
337.4127, 37.97540
337.8948, 37.75391
338.3770, 37.42114
338.8591, 37.14740
339.3412, 36.95100
339.8233, 36.76072
340.3055, 36.49673
340.7876, 36.15129
341.2697, 35.81920
341.7518, 35.46533
342.2339, 35.16657
342.7160, 34.93671
343.1982, 34.78405
343.6803, 34.72356
344.1624, 34.78082
344.6445, 34.93591
345.1266, 35.10824
345.6087, 35.40012
346.0909, 35.52829
346.5730, 35.29419
347.0551, 34.90801
347.5372, 34.62999
348.0193, 34.56541
348.5014, 34.64729
348.9836, 34.76247
349.4657, 34.91345
349.9478, 35.08819
350.4299, 35.37658
350.9120, 35.63076
351.3941, 35.70039
351.8763, 35.56256
352.3584, 35.39711
352.8405, 35.37415
353.3226, 35.49523
353.8047, 35.70371
354.2868, 36.04826
354.7690, 36.42713
355.2511, 36.78150
355.7332, 37.11377
356.2153, 37.43864
356.6974, 37.82914
357.1795, 38.23088
357.6617, 38.39823
358.1438, 38.21991
358.6259, 38.02982
359.1080, 38.04507
359.5901, 38.16870
360.0722, 38.24064
360.5544, 38.16180
361.0365, 38.05566
361.5186, 38.07377
362.0007, 38.21374
362.4828, 38.51740
362.9649, 39.25491
363.4471, 40.01827
363.9292, 40.28708
364.4113, 39.91393
364.8934, 39.47443
365.3755, 39.40911
365.8576, 39.66523
366.3398, 39.95537
366.8219, 40.21842
367.3040, 40.49519
367.7861, 40.83045
368.2682, 41.21923
368.7503, 41.62697
369.2325, 42.12752
369.7146, 42.61498
370.1967, 42.88731
370.6788, 42.90898
371.1609, 42.82517
371.6430, 42.59257
372.1252, 42.33623
372.6073, 42.47760
373.0894, 43.63301
373.5715, 44.75768
374.0536, 44.86816
374.5357, 44.12031
375.0179, 43.42744
375.5000, 43.19979
375.9821, 43.34060
376.4642, 43.63328
376.9463, 44.19228
377.4284, 44.62169
377.9106, 44.75544
378.3927, 44.66765
378.8748, 44.41326
379.3569, 43.97983
379.8390, 43.59969
380.3211, 43.63499
380.8033, 44.19715
381.2854, 44.51191
381.7675, 44.35860
382.2496, 44.05719
382.7317, 43.82088
383.2138, 43.67432
383.6960, 43.60158
384.1781, 43.61533
384.6602, 43.69991
385.1423, 43.62601
385.6244, 43.31500
386.1065, 42.96597
386.5887, 42.68482
387.0708, 42.40338
387.5529, 41.98480
388.0350, 41.36421
388.5171, 40.62432
388.9992, 39.94398
389.4814, 39.37425
389.9635, 38.79270
390.4456, 38.22223
390.9277, 37.62529
391.4098, 36.94703
391.8919, 36.19596
392.3741, 35.43867
392.8562, 34.73910
393.3383, 34.08901
393.8204, 33.54683
394.3025, 33.17653
394.7846, 32.83883
395.2668, 32.46449
395.7489, 32.08949
396.2310, 31.79078
396.7131, 31.61655
397.1952, 31.53658
397.6773, 31.46459
398.1595, 31.55189
398.6416, 31.37473
399.1237, 30.66150
399.6058, 29.82829
400.0879, 29.16809
400.5700, 28.77045
401.0522, 28.63827
401.5343, 28.89390
402.0164, 29.65821
402.4985, 30.07536
402.9806, 29.80627
403.4627, 29.46029
403.9449, 29.26489
404.4270, 29.20424
404.9091, 29.19449
405.3912, 29.20475
405.8733, 29.21784
406.3554, 29.13399
406.8376, 28.82792
407.3197, 28.74201
407.8018, 29.26460
408.2839, 29.99418
408.7660, 30.51686
409.2481, 30.71926
409.7303, 30.82221
410.2124, 31.11520
410.6945, 31.57147
411.1766, 31.72863
411.6587, 31.22072
412.1408, 30.73889
412.6230, 30.98230
413.1051, 31.86340
413.5872, 32.76638
414.0693, 33.39714
414.5514, 33.90506
415.0335, 34.55548
415.5157, 35.38134
415.9978, 36.14122
416.4799, 36.62716
416.9620, 36.93346
417.4441, 37.36394
417.9262, 37.97484
418.4084, 38.65190
418.8905, 39.32115
419.3726, 40.00438
419.8547, 40.76397
420.3368, 41.62976
420.8189, 42.55436
421.3011, 43.47621
421.7832, 44.41969
422.2653, 45.25630
422.7474, 45.96291
423.2295, 46.56291
423.7116, 47.05158
424.1938, 47.44310
424.6759, 47.78421
425.1580, 48.07668
425.6401, 48.33890
426.1222, 48.93888
426.6043, 50.24903
427.0865, 51.40864
427.5686, 52.09151
428.0507, 52.53399
428.5328, 53.06321
429.0149, 53.80675
429.4970, 54.68824
429.9792, 55.61149
430.4613, 56.76882
430.9434, 57.53116
431.4255, 57.66975
431.9076, 57.69087
432.3897, 57.88383
432.8719, 58.22822
433.3540, 58.54438
433.8361, 58.69197
434.3182, 58.68794
434.8003, 58.66014
435.2824, 58.67507
435.7646, 58.55275
436.2467, 58.37410
436.7288, 57.99991
437.2109, 57.20910
437.6930, 55.92788
438.1751, 54.49428
438.6573, 53.33284
439.1394, 52.46520
439.6215, 51.57394
440.1036, 50.59058
440.5857, 49.60133
441.0678, 48.68180
441.5500, 47.80683
442.0321, 46.88519
442.5142, 45.90546
442.9963, 44.83355
443.4784, 43.48446
443.9605, 41.78941
444.4427, 40.36780
444.9248, 39.72851
445.4069, 39.46814
445.8890, 38.84494
446.3711, 37.67221
446.8532, 36.56946
447.3354, 35.89147
447.8175, 35.53069
448.2996, 35.31641
448.7817, 35.24258
449.2638, 35.11086
449.7459, 34.68981
450.2281, 33.95672
450.7102, 33.21730
451.1923, 32.36297
451.6744, 31.61085
452.1565, 31.14992
452.6386, 30.91530
453.1208, 30.69169
453.6029, 30.35635
454.0850, 29.99008
454.5671, 29.81917
455.0492, 30.07420
455.5313, 30.21637
456.0135, 30.03121
456.4956, 29.87047
456.9777, 30.14651
457.4598, 30.82450
457.9419, 31.41164
458.4240, 31.38412
458.9062, 30.72820
459.3883, 30.45933
459.8704, 30.92976
460.3525, 31.41523
460.8346, 31.67704
461.3167, 31.89532
461.7989, 32.35131
462.2810, 33.15868
462.7631, 34.06723
463.2452, 34.66146
463.7273, 34.87549
464.2094, 35.16671
464.6916, 35.64521
465.1737, 36.16702
465.6558, 36.61895
466.1379, 37.03179
466.6200, 37.53716
467.1021, 38.30035
467.5843, 39.16107
468.0664, 39.74648
468.5485, 40.01311
469.0306, 40.33775
469.5127, 40.91211
469.9948, 41.63657
470.4770, 42.32371
470.9591, 42.93944
471.4412, 43.62556
471.9233, 44.50330
472.4054, 45.48862
472.8875, 46.38432
473.3697, 47.14611
473.8518, 47.97895
474.3339, 49.08952
474.8160, 50.47924
475.2981, 51.82422
475.7802, 52.87787
476.2624, 54.13884
476.7445, 55.98861
477.2266, 58.18746
477.7087, 60.30244
478.1908, 62.17995
478.6729, 63.83018
479.1551, 65.24124
479.6372, 66.22637
480.1193, 67.42387
480.6014, 68.94398
481.0835, 70.55177
481.5656, 72.24908
482.0478, 73.92410
482.5299, 75.30363
483.0120, 76.14767
483.4941, 76.67464
483.9762, 77.67013
484.4583, 79.20137
484.9405, 81.09164
485.4226, 83.63012
485.9047, 86.27000
486.3868, 88.41007
486.8689, 90.04604
487.3510, 91.90454
487.8332, 94.80151
488.3153, 98.48580
488.7974, 101.7383
489.2795, 104.2734
489.7616, 106.9638
490.2437, 110.4317
490.7259, 114.3870
491.2080, 118.5436
491.6901, 122.9958
492.1722, 127.2943
492.6543, 131.0443
493.1364, 134.3622
493.6186, 137.4811
494.1007, 140.4154
494.5828, 143.5001
495.0649, 147.2342
495.5470, 151.7063
496.0291, 155.8231
496.5113, 159.3413
496.9934, 162.7117
497.4755, 166.2361
497.9576, 169.8287
498.4397, 173.1826
498.9218, 176.1080
499.4040, 178.9168
499.8861, 182.3439
500.3682, 187.3849
500.8503, 191.1167
501.3324, 192.7071
501.8145, 193.8742
502.2967, 195.7813
502.7788, 198.2615
503.2609, 200.4457
503.7430, 201.7451
504.2251, 202.2806
504.7072, 202.5401
505.1894, 202.6638
505.6715, 202.1713
506.1536, 201.1629
506.6357, 199.3637
507.1178, 196.3533
507.5999, 192.1273
508.0821, 187.4044
508.5642, 182.7911
509.0463, 178.0995
509.5284, 172.6363
510.0105, 166.2566
510.4926, 159.6129
510.9748, 153.0396
511.4569, 146.5330
511.9390, 140.0589
512.4211, 133.6871
512.9032, 127.2976
513.3853, 120.5342
513.8674, 113.8096
514.3495, 107.9995
514.8317, 103.2468
515.3138, 98.99091
515.7959, 94.67354
516.2780, 90.26478
516.7601, 86.05656
517.2422, 81.93821
517.7244, 78.08674
518.2065, 74.57200
518.6886, 71.35530
519.1707, 68.40614
519.6528, 65.71190
520.1349, 63.19843
520.6171, 60.73864
521.0992, 58.24888
521.5813, 56.15682
522.0634, 54.77547
522.5455, 53.50553
523.0276, 52.23378
523.5098, 50.90172
523.9919, 49.37756
524.4740, 47.50013
524.9561, 45.68093
525.4382, 44.63853
525.9203, 44.39637
526.4025, 43.90118
526.8846, 42.77835
527.3667, 41.50960
527.8488, 40.55642
528.3309, 39.87725
528.8130, 39.19764
529.2952, 38.34008
529.7773, 37.52362
530.2594, 36.99908
530.7415, 36.71239
531.2236, 36.37222
531.7057, 35.82196
532.1879, 35.23245
532.6700, 34.93931
533.1521, 35.07572
533.6342, 35.22698
534.1163, 35.58468
534.5984, 35.78650
535.0806, 35.48637
535.5627, 34.81264
536.0448, 34.19019
536.5269, 33.90297
537.0090, 33.76662
537.4911, 33.17852
537.9733, 31.80099
538.4554, 30.70567
538.9375, 30.20500
539.4196, 29.85458
539.9017, 29.41819
540.3839, 28.88092
540.8660, 28.31644
541.3481, 27.75418
541.8302, 27.20583
542.3123, 26.67210
542.7944, 26.14055
543.2766, 25.75034
543.7587, 25.64231
544.2408, 25.63799
544.7229, 25.50680
545.2050, 25.25487
545.6871, 24.85316
546.1693, 24.04174
546.6514, 23.23133
547.1335, 22.96008
547.6156, 23.18607
548.0977, 23.39418
548.5798, 23.25688
549.0620, 22.89909
549.5441, 22.74375
550.0262, 23.06601
550.5083, 23.22703
550.9904, 23.07534
551.4725, 22.87418
551.9547, 22.85453
552.4368, 22.98796
552.9189, 23.08217
553.4010, 22.99958
553.8831, 22.76038
554.3652, 22.41102
554.8474, 21.84948
555.3295, 21.44049
555.8116, 21.46963
556.2937, 21.55304
556.7758, 21.41120
557.2579, 21.03374
557.7401, 20.60033
558.2222, 20.14911
558.7043, 19.73660
559.1864, 19.47045
559.6685, 19.35545
560.1506, 19.29449
560.6328, 19.26408
561.1149, 19.23791
561.5970, 19.13651
562.0791, 18.90736
562.5612, 18.78174
563.0433, 18.94888
563.5255, 19.12659
564.0076, 19.05412
564.4897, 18.75607
564.9718, 18.41956
565.4539, 18.16014
565.9360, 17.96198
566.4182, 17.77408
566.9003, 17.58649
567.3824, 17.42733
567.8645, 17.29863
568.3466, 17.19467
568.8287, 17.07775
569.3109, 16.97624
569.7930, 17.00090
570.2751, 17.30192
570.7572, 17.68694
571.2393, 17.68515
571.7214, 17.25681
572.2036, 16.93621
572.6857, 16.95992
573.1678, 17.09050
573.6499, 17.01394
574.1320, 16.73704
574.6141, 16.55894
575.0963, 16.62766
575.5784, 16.77561
576.0605, 16.89585
576.5426, 16.97318
577.0247, 16.98244
577.5068, 16.91012
577.9890, 16.77411
578.4711, 16.59817
578.9532, 16.32685
579.4353, 16.16216
579.9174, 16.09934
580.3995, 16.13224
580.8817, 16.38741
581.3638, 16.71401
581.8459, 16.79886
582.3280, 16.47248
582.8101, 16.02264
583.2922, 15.99267
583.7744, 16.42917
584.2565, 16.57535
584.7386, 16.15082
585.2207, 15.67580
585.7029, 15.49599
586.1850, 15.54889
586.6671, 15.70166
587.1492, 16.03762
587.6313, 16.30971
588.1135, 16.29585
588.5956, 16.08588
589.0777, 15.86789
589.5598, 15.68760
