##NAMES=Baryte
##RRUFFID=R050335
##IDEAL CHEMISTRY=BaS^6+^O_4_
##LOCALITY=Bullion Mountains, San Bernardino County, California, USA
##OWNER=RRUFF
##SOURCE=California Institute of Technology
##DESCRIPTION=Colorless cleavage fragment
##STATUS=The identification of this mineral has been confirmed by X-ray diffraction and chemical analysis
##URL=rruff.info/R050335
##MEASURED CHEMISTRY=(Ba_0.95_Sr_0.05_)_Î£=1_S_1.00_O_4_
91.87140, 0.0000000E+00
92.35352, 1.382074
92.83563, 1.119104
93.31775, 1.007080
93.79987, 1.141047
94.28198, 1.438555
94.76410, 1.656384
95.24622, 1.722997
95.72833, 1.709009
96.21045, 1.763301
96.69257, 1.889596
97.17468, 2.027731
97.65680, 2.136178
98.13892, 2.215300
98.62103, 2.239148
99.10315, 2.160027
99.58527, 2.008276
100.0674, 2.021052
100.5495, 2.241181
101.0316, 2.531627
101.5137, 2.699501
101.9958, 2.690905
102.4780, 2.756351
102.9601, 3.008741
103.4422, 3.494886
103.9243, 3.840778
104.4064, 3.960521
104.8885, 3.996512
105.3707, 4.228816
105.8528, 4.810555
106.3349, 5.370878
106.8170, 5.756675
107.2991, 5.830170
107.7813, 5.993918
108.2634, 6.347413
108.7455, 6.806724
109.2276, 7.078924
109.7097, 6.908019
110.1918, 6.737765
110.6740, 6.751921
111.1561, 7.091176
111.6382, 7.462122
112.1203, 7.877710
112.6024, 8.326502
113.0845, 8.715729
113.5667, 8.928348
114.0488, 9.131809
114.5309, 9.441890
115.0130, 9.981999
115.4951, 10.53631
115.9772, 11.06503
116.4594, 11.57025
116.9415, 12.01569
117.4236, 12.29304
117.9057, 12.53502
118.3878, 12.88211
118.8699, 13.61791
119.3521, 14.30427
119.8342, 14.62125
120.3163, 14.51239
120.7984, 14.44419
121.2805, 14.78950
121.7626, 15.36241
122.2448, 15.84507
122.7269, 15.99966
123.2090, 16.03495
123.6911, 16.16983
124.1732, 16.45091
124.6553, 16.73278
125.1375, 16.77560
125.6196, 16.67869
126.1017, 16.75638
126.5838, 17.41348
127.0659, 18.33729
127.5480, 18.94418
128.0302, 19.09153
128.5123, 19.03228
128.9944, 18.97616
129.4765, 18.94825
129.9586, 19.18254
130.4407, 20.10777
130.9229, 21.51413
131.4050, 22.52477
131.8871, 22.85685
132.3692, 22.77692
132.8513, 22.77133
133.3334, 22.79157
133.8156, 22.93080
134.2977, 23.49234
134.7798, 24.53148
135.2619, 25.36674
135.7440, 25.77852
136.2261, 25.87370
136.7083, 26.22230
137.1904, 26.88936
137.6725, 27.60354
138.1546, 28.03817
138.6367, 28.11893
139.1188, 28.35651
139.6010, 28.93259
140.0831, 29.84496
140.5652, 30.61765
141.0473, 31.19243
141.5294, 31.72291
142.0115, 32.43914
142.4937, 33.49284
142.9758, 34.38250
143.4579, 34.85471
143.9400, 34.70081
144.4221, 35.16047
144.9042, 36.49545
145.3864, 38.28243
145.8685, 39.76134
146.3506, 40.72603
146.8327, 41.68140
147.3148, 42.77499
147.7969, 43.92784
148.2791, 45.38759
148.7612, 47.43352
149.2433, 49.75191
149.7254, 51.64891
150.2075, 52.71920
150.6896, 53.71427
151.1718, 54.92999
151.6539, 57.06030
152.1360, 58.41365
152.6181, 58.72860
153.1002, 58.21928
153.5823, 57.51815
154.0645, 56.97390
154.5466, 56.02788
155.0287, 54.41704
155.5108, 51.46487
155.9929, 48.60017
156.4750, 46.05381
156.9572, 43.77147
157.4393, 41.59811
157.9214, 39.39135
158.4035, 37.32307
158.8856, 35.49321
159.3677, 34.09164
159.8499, 32.75327
160.3320, 31.26638
160.8141, 29.70048
161.2962, 28.48752
161.7783, 28.19709
162.2604, 28.14101
162.7426, 27.75170
163.2247, 26.36669
163.7068, 25.04697
164.1889, 24.30666
164.6710, 24.12341
165.1531, 24.03473
165.6353, 23.81454
166.1174, 23.57078
166.5995, 23.41967
167.0816, 23.55341
167.5637, 23.68107
168.0458, 23.52758
168.5280, 23.09330
169.0101, 22.78890
169.4922, 22.97418
169.9743, 23.43424
170.4564, 23.86920
170.9385, 24.33710
171.4207, 24.62139
171.9028, 24.35258
172.3849, 23.48731
172.8670, 22.77349
173.3491, 22.96563
173.8312, 23.71048
174.3134, 24.33456
174.7955, 24.46503
175.2776, 24.33567
175.7597, 24.17992
176.2418, 23.99915
176.7239, 23.86214
177.2061, 23.91933
177.6882, 24.08333
178.1703, 24.11637
178.6524, 23.60389
179.1345, 22.96025
179.6166, 23.00208
180.0988, 23.87157
180.5809, 24.90731
181.0630, 25.31842
181.5451, 25.23438
182.0272, 25.15628
182.5093, 25.28660
182.9915, 25.61630
183.4736, 26.10768
183.9557, 26.75266
184.4378, 27.59022
184.9199, 28.89931
185.4020, 30.56973
185.8842, 31.99060
186.3663, 32.65957
186.8484, 32.76823
187.3305, 32.97480
187.8126, 33.33695
188.2947, 33.79268
188.7769, 34.41737
189.2590, 35.18702
189.7411, 35.57888
190.2232, 35.16969
190.7053, 34.06348
191.1874, 32.91789
191.6696, 31.77263
192.1517, 30.60860
192.6338, 29.34858
193.1159, 27.98732
193.5980, 26.66855
194.0801, 25.50653
194.5623, 24.49319
195.0444, 23.40275
195.5265, 22.15574
196.0086, 20.91891
196.4907, 20.08167
196.9728, 19.67557
197.4550, 19.39881
197.9371, 19.10140
198.4192, 18.78358
198.9013, 18.41838
199.3834, 17.97789
199.8655, 17.51647
200.3477, 17.17363
200.8298, 16.97088
201.3119, 16.79380
201.7940, 16.55350
202.2761, 16.23758
202.7582, 15.99616
203.2404, 15.83930
203.7225, 15.76685
204.2046, 15.82423
204.6867, 16.06876
205.1688, 16.24773
205.6509, 16.13556
206.1331, 15.65696
206.6152, 15.40003
207.0973, 15.48812
207.5794, 15.79143
208.0615, 15.90665
208.5436, 15.79585
209.0258, 15.59687
209.5079, 15.37797
209.9900, 15.12854
210.4721, 14.90350
210.9542, 14.67889
211.4363, 14.49092
211.9185, 14.50699
212.4006, 14.83992
212.8827, 15.13305
213.3648, 15.12593
213.8469, 14.70863
214.3290, 14.38706
214.8112, 14.16645
215.2933, 14.07579
215.7754, 14.27362
216.2575, 14.94023
216.7396, 15.55607
217.2217, 15.77784
217.7039, 15.46212
218.1860, 15.19098
218.6681, 15.01002
219.1502, 14.90111
219.6323, 14.80693
220.1144, 14.74087
220.5966, 14.66831
221.0787, 14.55471
221.5608, 14.34842
222.0429, 14.24826
222.5250, 14.30308
223.0071, 14.46913
223.4893, 14.58086
223.9714, 14.61223
224.4535, 14.63249
224.9356, 14.67852
225.4177, 14.75557
225.8998, 14.85099
226.3820, 14.99269
226.8641, 15.14952
227.3462, 15.19991
227.8283, 15.08790
228.3104, 14.95492
228.7925, 14.86598
229.2747, 14.80350
229.7568, 14.83667
230.2389, 15.04587
230.7210, 15.34048
231.2031, 15.39673
231.6852, 15.02891
232.1674, 14.69754
232.6495, 14.65541
233.1316, 15.09713
233.6137, 15.38954
234.0958, 15.47427
234.5779, 15.40747
235.0601, 15.33617
235.5422, 15.23406
236.0243, 15.16466
236.5064, 15.16368
236.9885, 15.27799
237.4706, 15.36362
237.9528, 15.45571
238.4349, 15.50833
238.9170, 15.37057
239.3991, 14.84012
239.8812, 14.42191
240.3633, 14.36238
240.8455, 14.86873
241.3276, 15.22478
241.8097, 15.42204
242.2918, 15.46746
242.7739, 15.34482
243.2560, 14.90704
243.7382, 14.52795
244.2203, 14.34392
244.7024, 14.37849
245.1845, 14.56546
245.6666, 15.05238
246.1487, 15.62057
246.6309, 15.82912
247.1130, 15.45969
247.5951, 15.08575
248.0772, 14.90383
248.5593, 14.94245
249.0414, 15.08510
249.5236, 15.45646
250.0057, 15.85269
250.4878, 15.90681
250.9699, 15.39638
251.4520, 14.93885
251.9341, 14.74681
252.4163, 14.87523
252.8984, 15.00157
253.3805, 15.17591
253.8626, 15.30942
254.3447, 15.24239
254.8268, 14.84235
255.3090, 14.51013
255.7911, 14.36908
256.2732, 14.43661
256.7553, 14.54408
257.2374, 14.71498
257.7195, 14.90326
258.2017, 15.07617
258.6838, 15.30241
259.1659, 15.34831
259.6480, 15.06106
260.1301, 14.41803
260.6122, 14.14133
261.0944, 14.37802
261.5765, 14.79975
262.0586, 15.06648
262.5407, 15.14274
263.0228, 15.16133
263.5049, 15.14533
263.9871, 15.09460
264.4692, 15.00018
264.9513, 14.83409
265.4334, 14.66784
265.9155, 14.55782
266.3976, 14.50207
266.8798, 14.52486
267.3619, 14.67611
267.8440, 14.92537
268.3261, 14.97937
268.8082, 14.74505
269.2903, 14.51092
269.7725, 14.53733
270.2546, 14.88722
270.7367, 15.21585
271.2188, 15.51441
271.7009, 15.74714
272.1830, 15.71492
272.6652, 15.32724
273.1473, 14.92289
273.6294, 14.74954
274.1115, 14.85048
274.5936, 14.91730
275.0757, 14.89979
275.5579, 14.84270
276.0400, 14.90349
276.5221, 15.12122
277.0042, 15.29841
277.4863, 15.29262
277.9684, 15.08782
278.4506, 14.90583
278.9327, 14.73522
279.4148, 14.62773
279.8969, 14.76602
280.3790, 15.19932
280.8611, 15.53325
281.3433, 15.50506
281.8254, 15.11763
282.3075, 14.82361
282.7896, 14.64379
283.2717, 14.54039
283.7538, 14.43953
284.2360, 14.33796
284.7181, 14.32285
285.2002, 14.47514
285.6823, 14.77186
286.1644, 15.01843
286.6465, 15.21907
287.1287, 15.34637
287.6108, 15.31526
288.0929, 15.13636
288.5750, 15.01140
289.0571, 15.08303
289.5392, 15.27022
290.0214, 15.21597
290.5035, 14.89897
290.9856, 14.52368
291.4677, 14.25711
291.9498, 14.10238
292.4319, 14.09362
292.9141, 14.30532
293.3962, 14.63329
293.8783, 14.83314
294.3604, 14.90259
294.8425, 14.92668
295.3246, 14.96654
295.8068, 15.01935
296.2889, 15.08058
296.7710, 15.17033
297.2531, 15.24400
297.7352, 15.17472
298.2173, 14.98409
298.6995, 14.85625
299.1816, 15.00750
299.6637, 15.31225
300.1458, 15.49597
300.6279, 15.48764
301.1100, 15.39486
301.5922, 15.36408
302.0743, 15.37046
302.5564, 15.31448
303.0385, 14.99038
303.5206, 14.61458
304.0027, 14.53611
304.4849, 14.85348
304.9670, 15.24889
305.4491, 15.47145
305.9312, 15.53997
306.4133, 15.49959
306.8954, 15.30334
307.3776, 15.04700
307.8597, 14.79075
308.3418, 14.52691
308.8239, 14.38281
309.3060, 14.58871
309.7881, 14.95582
310.2703, 15.17961
310.7524, 14.98072
311.2345, 14.71210
311.7166, 14.64922
312.1987, 14.78933
312.6808, 14.91717
313.1630, 14.88914
313.6451, 14.79395
314.1272, 14.72644
314.6093, 14.71271
315.0914, 14.73855
315.5735, 14.84546
316.0557, 15.00781
316.5378, 15.08989
317.0199, 15.03776
317.5020, 14.88172
317.9841, 14.61024
318.4662, 13.97532
318.9484, 13.60389
319.4305, 13.90312
319.9126, 14.64290
320.3947, 15.21863
320.8768, 15.38957
321.3589, 15.40233
321.8411, 15.36443
322.3232, 15.26824
322.8053, 15.17575
323.2874, 15.07915
323.7695, 14.99682
324.2516, 14.95792
324.7338, 14.98060
325.2159, 15.03454
325.6980, 15.13136
326.1801, 15.29733
326.6622, 15.38801
327.1443, 15.28165
327.6265, 15.14454
328.1086, 15.14541
328.5907, 15.48035
329.0728, 15.73634
329.5549, 15.85097
330.0370, 15.82342
330.5192, 15.71879
331.0013, 15.39812
331.4834, 15.11709
331.9655, 15.06272
332.4476, 15.41204
332.9297, 15.68830
333.4119, 15.86056
333.8940, 15.93010
334.3761, 15.87014
334.8582, 15.56581
335.3403, 15.31559
335.8224, 15.29071
336.3046, 15.58222
336.7867, 15.83216
337.2688, 16.04025
337.7509, 16.19964
338.2330, 16.29650
338.7151, 16.32150
339.1973, 16.31090
339.6794, 16.27678
340.1615, 16.21961
340.6436, 16.13084
341.1257, 15.99815
341.6078, 15.86341
342.0900, 15.76662
342.5721, 15.70682
343.0542, 15.72520
343.5363, 15.86667
344.0184, 16.09366
344.5005, 16.24817
344.9827, 16.32617
345.4648, 16.35316
345.9469, 16.34399
346.4290, 16.29975
346.9111, 16.20948
347.3932, 16.01694
347.8754, 15.84952
348.3575, 16.07791
348.8396, 16.65835
349.3217, 17.10193
349.8038, 16.93504
350.2859, 16.38845
350.7681, 15.99127
351.2502, 15.78902
351.7323, 15.80460
352.2144, 16.22084
352.6965, 16.90991
353.1786, 17.47306
353.6608, 17.76688
354.1429, 17.79958
354.6250, 17.44094
355.1071, 16.67150
355.5892, 16.02309
356.0714, 15.99805
356.5535, 16.33895
357.0356, 16.66628
357.5177, 16.84759
357.9998, 16.96322
358.4819, 17.05962
358.9641, 17.13569
359.4462, 17.18168
359.9283, 17.11866
360.4104, 17.06272
360.8925, 17.13454
361.3746, 17.50297
361.8568, 17.75528
362.3389, 17.55236
362.8210, 17.10592
363.3031, 16.89195
363.7852, 17.24088
364.2673, 17.71051
364.7495, 18.13405
365.2316, 18.52834
365.7137, 18.74782
366.1958, 18.63137
366.6779, 18.36924
367.1600, 18.18398
367.6422, 18.03942
368.1243, 18.03672
368.6064, 18.32100
369.0885, 18.91894
369.5706, 19.17590
370.0527, 18.79711
370.5349, 18.30780
371.0170, 18.05314
371.4991, 18.22863
371.9812, 18.30670
372.4633, 18.19360
372.9454, 17.96084
373.4276, 17.85815
373.9097, 17.90185
374.3918, 18.04716
374.8739, 18.31671
375.3560, 18.78784
375.8381, 19.02492
376.3203, 18.94183
376.8024, 18.73345
377.2845, 18.70103
377.7666, 18.87095
378.2487, 19.07745
378.7308, 19.28294
379.2130, 19.48233
379.6951, 19.62990
380.1772, 19.73073
380.6593, 19.75943
381.1414, 19.66535
381.6235, 19.46179
382.1057, 19.25484
382.5878, 19.04618
383.0699, 18.87520
383.5520, 18.84344
384.0341, 18.93914
384.5162, 19.04496
384.9984, 19.08390
385.4805, 19.08014
385.9626, 19.05674
386.4447, 18.99636
386.9268, 19.02221
387.4089, 19.43019
387.8911, 20.02722
388.3732, 20.36908
388.8553, 20.07528
389.3374, 19.55175
389.8195, 19.13322
390.3016, 18.83124
390.7838, 18.64071
391.2659, 18.56826
391.7480, 18.60636
392.2301, 18.76282
392.7122, 19.18376
393.1943, 19.52487
393.6765, 19.49898
394.1586, 19.24631
394.6407, 19.16474
395.1228, 19.65886
395.6049, 20.14607
396.0870, 20.30727
396.5692, 19.99281
397.0513, 19.71741
397.5334, 19.50064
398.0155, 19.40023
398.4976, 19.48982
398.9797, 20.14626
399.4619, 20.59589
399.9440, 20.56704
400.4261, 20.06300
400.9082, 19.85993
401.3903, 20.20591
401.8724, 20.61663
402.3546, 20.75530
402.8367, 20.38153
403.3188, 20.27251
403.8009, 20.57767
404.2830, 21.12622
404.7651, 21.48261
405.2473, 21.59811
405.7294, 21.64800
406.2115, 21.64203
406.6936, 21.57133
407.1757, 21.81521
407.6578, 22.46673
408.1400, 23.18325
408.6221, 23.53293
409.1042, 23.52474
409.5863, 23.57450
410.0684, 23.83721
410.5505, 24.19151
411.0327, 24.32159
411.5148, 24.23527
411.9969, 24.16077
412.4790, 24.30866
412.9611, 24.58734
413.4432, 24.72610
413.9254, 24.63487
414.4075, 24.62081
414.8896, 25.10605
415.3717, 25.92862
415.8538, 26.70677
416.3359, 27.16994
416.8181, 27.55878
417.3002, 28.13035
417.7823, 28.88717
418.2644, 29.53977
418.7465, 29.80482
419.2286, 29.95359
419.7108, 30.25152
420.1929, 30.89870
420.6750, 31.53267
421.1571, 31.88128
421.6392, 32.10291
422.1213, 32.60100
422.6035, 33.81634
423.0856, 35.04052
423.5677, 35.89939
424.0498, 36.13656
424.5319, 36.81566
425.0140, 38.47785
425.4962, 40.40931
425.9783, 41.88393
426.4604, 42.50287
426.9425, 43.23370
427.4246, 44.07661
427.9067, 45.10273
428.3889, 46.77555
428.8710, 49.23571
429.3531, 52.08177
429.8352, 55.19891
430.3173, 58.60506
430.7994, 61.94598
431.2816, 65.14307
431.7637, 68.37299
432.2458, 71.72473
432.7279, 75.16702
433.2100, 79.23995
433.6921, 84.15226
434.1743, 89.86056
434.6564, 96.10167
435.1385, 102.9546
435.6206, 110.2473
436.1027, 117.9406
436.5848, 125.9770
437.0670, 134.1579
437.5491, 142.4007
438.0312, 150.9467
438.5133, 159.7380
438.9954, 169.0894
439.4775, 179.8767
439.9597, 192.4860
440.4418, 206.7740
440.9239, 222.7759
441.4060, 240.4956
441.8881, 259.4255
442.3702, 278.1365
442.8524, 298.2114
443.3345, 321.3670
443.8166, 349.7225
444.2987, 379.2466
444.7808, 408.6060
445.2629, 438.1797
445.7451, 469.3370
446.2272, 502.5089
446.7093, 536.4141
447.1914, 570.2817
447.6735, 603.6102
448.1556, 638.7906
448.6378, 675.8578
449.1199, 714.3942
449.6020, 754.3649
450.0841, 795.9816
450.5662, 837.0579
451.0483, 878.1097
451.5305, 918.4594
452.0126, 954.2613
452.4947, 985.8549
452.9768, 1012.785
453.4589, 1033.530
453.9410, 1048.054
454.4232, 1063.602
454.9053, 1079.686
455.3874, 1099.617
455.8695, 1126.809
456.3516, 1161.589
456.8337, 1205.252
457.3159, 1260.692
457.7980, 1323.787
458.2801, 1391.885
458.7622, 1463.259
459.2443, 1528.043
459.7264, 1588.605
460.2086, 1634.427
460.6907, 1652.666
461.1728, 1642.890
461.6549, 1599.632
462.1370, 1510.399
462.6191, 1387.344
463.1013, 1249.886
463.5834, 1085.204
464.0655, 926.1508
464.5476, 785.4319
465.0297, 663.9008
465.5118, 559.8574
465.9940, 480.4621
466.4761, 415.3021
466.9582, 359.5475
467.4403, 313.8965
467.9224, 274.8056
468.4045, 243.3153
468.8867, 217.8308
469.3688, 195.8829
469.8509, 178.6338
470.3330, 163.5199
470.8151, 150.1043
471.2972, 138.3806
471.7794, 128.5597
472.2615, 120.9815
472.7436, 114.1209
473.2257, 106.7231
473.7078, 98.73405
474.1899, 91.90890
474.6721, 86.41801
475.1542, 81.87443
475.6363, 77.88921
476.1184, 74.41623
476.6005, 71.16277
477.0826, 67.97070
477.5648, 64.95758
478.0469, 62.21294
478.5290, 59.74732
479.0111, 57.65800
479.4932, 56.42543
479.9753, 55.43067
480.4575, 53.85390
480.9396, 51.35870
481.4217, 48.89620
481.9038, 47.07109
482.3859, 45.67979
482.8680, 44.45173
483.3502, 43.28522
483.8323, 42.27840
484.3144, 41.62781
484.7965, 41.29139
485.2786, 40.60493
485.7607, 39.13411
486.2429, 37.56102
486.7250, 36.20308
487.2071, 35.06633
487.6892, 34.17590
488.1713, 33.64448
488.6534, 33.28222
489.1356, 32.78844
489.6177, 32.08355
490.0998, 31.48185
490.5819, 31.08304
491.0640, 30.83765
491.5461, 30.51369
492.0283, 30.10846
492.5104, 29.63829
492.9925, 29.10057
493.4746, 28.50002
493.9567, 27.86671
494.4388, 27.16797
494.9210, 26.57207
495.4031, 26.32128
495.8852, 26.32064
496.3673, 26.32932
496.8494, 26.30263
497.3315, 26.20343
497.8137, 25.93676
498.2958, 25.54511
498.7779, 25.21552
499.2600, 25.13639
499.7421, 25.08756
500.2242, 24.88796
500.7064, 24.46470
501.1885, 24.11520
501.6706, 23.99444
502.1527, 23.96420
502.6348, 23.88756
503.1169, 23.69800
503.5991, 23.52085
504.0812, 23.36996
504.5633, 23.24280
505.0454, 23.12118
505.5275, 22.97960
506.0096, 22.89499
506.4918, 22.95300
506.9739, 23.18714
507.4560, 23.10526
507.9381, 22.61322
508.4202, 22.05855
508.9023, 21.82037
509.3845, 21.88101
509.8666, 21.92964
510.3487, 21.89469
510.8308, 21.84815
511.3129, 21.97176
511.7950, 22.21579
512.2772, 22.34766
512.7593, 22.18518
513.2414, 21.87475
513.7235, 21.52642
514.2056, 21.15313
514.6877, 20.91375
515.1699, 21.04450
515.6520, 21.28549
516.1341, 21.37557
516.6162, 21.12425
517.0983, 20.98114
517.5804, 21.29047
518.0626, 21.76243
518.5447, 21.92176
519.0268, 21.33648
519.5089, 20.81102
519.9910, 20.57086
520.4731, 20.59097
520.9553, 20.46577
521.4374, 20.01442
521.9195, 19.68906
522.4016, 19.84372
522.8837, 20.64805
523.3658, 20.99371
523.8480, 20.77441
524.3301, 20.30262
524.8122, 19.91246
525.2943, 19.61182
525.7764, 19.54896
526.2585, 19.87035
526.7407, 20.33026
527.2228, 20.50171
527.7049, 20.40874
528.1870, 20.19184
528.6691, 19.78889
529.1512, 19.38261
529.6334, 19.25584
530.1155, 19.43762
530.5976, 19.53209
531.0797, 19.07670
531.5618, 18.52289
532.0439, 18.34540
532.5261, 19.09457
533.0082, 19.60295
533.4903, 19.29002
533.9724, 18.56213
534.4545, 18.28784
534.9366, 19.09055
535.4188, 19.72605
535.9009, 19.86083
536.3830, 19.50817
536.8651, 19.23726
537.3472, 19.06205
537.8293, 18.94207
538.3115, 18.82610
538.7936, 18.70195
539.2757, 18.80016
539.7578, 19.19674
540.2399, 19.63112
540.7220, 19.76754
541.2042, 19.63021
541.6863, 19.34912
542.1684, 18.84935
542.6505, 18.35927
543.1326, 18.29803
543.6147, 18.55902
544.0969, 18.73399
544.5790, 18.38135
545.0611, 17.97540
545.5432, 17.98824
546.0253, 18.48151
546.5074, 18.85818
546.9896, 18.78201
547.4717, 18.52911
547.9538, 18.32189
548.4359, 18.24271
548.9180, 18.14814
549.4001, 17.97059
549.8823, 17.78699
550.3644, 17.73722
550.8465, 17.89462
551.3286, 18.05250
551.8107, 18.18585
552.2928, 18.28274
552.7750, 18.23087
553.2571, 18.00498
553.7392, 17.75520
554.2213, 17.53134
554.7034, 17.35377
555.1855, 17.35799
555.6677, 17.56570
556.1498, 17.84076
556.6319, 18.13014
557.1140, 18.36986
557.5961, 18.39670
558.0782, 18.03679
558.5604, 17.66485
559.0425, 17.66019
559.5246, 17.87521
560.0067, 17.98191
560.4888, 17.71495
560.9709, 17.42827
561.4531, 17.28744
561.9352, 17.29806
562.4173, 17.31914
562.8994, 17.33344
563.3815, 17.35269
563.8636, 17.37824
564.3458, 17.39181
564.8279, 17.47227
565.3100, 17.66558
565.7921, 17.86923
566.2742, 17.90832
566.7563, 17.75303
567.2385, 17.74700
567.7206, 18.01984
568.2027, 18.41268
568.6848, 18.59160
569.1669, 18.57056
569.6490, 18.43075
570.1312, 18.08381
570.6133, 17.70342
571.0954, 17.56584
571.5775, 17.66429
572.0596, 17.82464
572.5417, 18.00553
573.0239, 18.15761
573.5060, 18.22136
573.9881, 18.14398
574.4702, 18.09842
574.9523, 18.18060
575.4344, 18.30676
575.9166, 18.36890
576.3987, 18.25163
576.8808, 18.21942
577.3629, 18.35623
577.8450, 18.59226
578.3271, 18.66021
578.8093, 18.45853
579.2914, 18.39840
579.7735, 18.76293
580.2556, 19.45502
580.7377, 19.65762
581.2198, 19.32337
581.7020, 18.99866
582.1841, 19.20260
582.6662, 19.75220
583.1483, 20.21872
583.6304, 20.53072
584.1125, 20.80268
584.5947, 21.18113
585.0768, 21.57147
585.5589, 21.83151
586.0410, 21.72522
586.5231, 21.69107
587.0052, 21.96228
587.4874, 22.44970
587.9695, 22.90726
