##NAMES=Baryte
##RRUFFID=R050375
##IDEAL CHEMISTRY=BaS^6+^O_4_
##LOCALITY=unknown
##OWNER=RRUFF
##SOURCE=Eugene Schlepp
##DESCRIPTION=Pale green tabular crystals
##STATUS=The identification of this mineral has been confirmed by X-ray diffraction and chemical analysis
##URL=rruff.info/R050375
##MEASURED CHEMISTRY=Ba_1.00_SO_4_
92.52344, 191.0609
93.00555, 186.8081
93.48767, 187.2131
93.96979, 197.6410
94.45190, 209.3271
94.93402, 221.9386
95.41614, 231.4346
95.89825, 238.8225
96.38037, 245.9168
96.86249, 251.4472
97.34460, 250.6881
97.82672, 242.8673
98.30884, 232.1254
98.79095, 218.0914
99.27307, 201.5410
99.75519, 184.1258
100.2373, 166.9377
100.7194, 150.5555
101.2015, 136.6189
101.6837, 125.2082
102.1658, 115.6112
102.6479, 107.3915
103.1300, 100.4751
103.6121, 94.71350
104.0942, 90.50456
104.5764, 87.29665
105.0585, 84.54554
105.5406, 82.02344
106.0227, 79.77117
106.5048, 77.97676
106.9869, 76.75087
107.4691, 75.82619
107.9512, 75.22523
108.4333, 74.80035
108.9154, 74.21209
109.3975, 73.05542
109.8796, 71.17537
110.3618, 69.72401
110.8439, 68.79237
111.3260, 68.18264
111.8081, 67.88777
112.2902, 67.87534
112.7723, 68.06568
113.2544, 68.35673
113.7366, 68.79393
114.2187, 69.26648
114.7008, 69.52560
115.1829, 69.93086
115.6650, 70.91521
116.1471, 72.64245
116.6293, 74.74557
117.1114, 76.34789
117.5935, 77.22770
118.0756, 78.10849
118.5577, 79.04543
119.0398, 80.09531
119.5220, 81.41127
120.0041, 83.06515
120.4862, 85.05779
120.9683, 87.23979
121.4504, 89.56749
121.9325, 92.13303
122.4147, 94.95773
122.8968, 98.03187
123.3789, 101.4749
123.8610, 105.2715
124.3431, 109.5250
124.8252, 114.5355
125.3074, 120.6469
125.7895, 127.2587
126.2716, 133.3172
126.7537, 139.3182
127.2358, 143.5694
127.7179, 146.1890
128.2001, 147.0154
128.6822, 145.8066
129.1643, 142.3152
129.6464, 136.6234
130.1285, 129.9453
130.6107, 120.4073
131.0928, 111.5774
131.5749, 104.3121
132.0570, 98.50114
132.5391, 93.60782
133.0212, 89.20219
133.5034, 85.23171
133.9855, 82.28476
134.4676, 80.66448
134.9497, 79.57898
135.4318, 78.62984
135.9139, 77.76516
136.3960, 77.12632
136.8782, 76.90908
137.3603, 77.19748
137.8424, 77.58846
138.3245, 77.96601
138.8066, 78.47093
139.2887, 79.27748
139.7709, 80.43275
140.2530, 81.84225
140.7351, 83.27938
141.2172, 84.71329
141.6993, 86.69974
142.1814, 89.62251
142.6636, 93.31108
143.1457, 97.19520
143.6278, 101.2152
144.1099, 105.3218
144.5920, 109.5215
145.0741, 113.7947
145.5563, 118.0750
146.0384, 122.7238
146.5205, 127.9630
147.0026, 131.6115
147.4847, 132.7770
147.9668, 132.4894
148.4490, 130.9763
148.9311, 128.3474
149.4132, 124.8855
149.8953, 120.8601
150.3774, 115.6148
150.8595, 111.1478
151.3417, 107.8841
151.8238, 105.1582
152.3059, 102.4180
152.7880, 99.47919
153.2701, 96.54272
153.7522, 94.16195
154.2344, 92.57469
154.7165, 91.39460
155.1986, 90.86241
155.6807, 90.65916
156.1628, 90.44937
156.6449, 90.08578
157.1271, 89.53519
157.6092, 88.62063
158.0913, 87.34460
158.5734, 85.79302
159.0555, 83.79155
159.5376, 81.50196
160.0198, 79.35812
160.5019, 77.64079
160.9840, 76.23524
161.4661, 74.66507
161.9482, 72.53059
162.4303, 70.63891
162.9125, 69.65980
163.3946, 69.56013
163.8767, 69.59144
164.3588, 69.23454
164.8409, 68.76835
165.3230, 68.68951
165.8052, 69.31558
166.2873, 70.14867
166.7694, 70.36872
167.2515, 69.67700
167.7336, 69.41634
168.2157, 70.68053
168.6979, 72.61056
169.1800, 74.23739
169.6621, 75.10654
170.1442, 75.44193
170.6263, 75.87783
171.1084, 76.51186
171.5906, 77.08968
172.0727, 77.47201
172.5548, 77.76781
173.0369, 78.14127
173.5190, 78.71183
174.0011, 79.44495
174.4833, 80.04734
174.9654, 80.36771
175.4475, 80.69872
175.9296, 80.94885
176.4117, 81.25636
176.8938, 81.88222
177.3760, 83.06524
177.8581, 84.82787
178.3402, 86.26849
178.8223, 86.87135
179.3044, 87.68549
179.7865, 89.07800
180.2687, 91.00936
180.7508, 93.24963
181.2329, 95.58909
181.7150, 98.03516
182.1971, 100.8496
182.6792, 103.9206
183.1614, 107.3714
183.6435, 111.3306
184.1256, 115.7754
184.6077, 120.5137
185.0898, 125.2971
185.5719, 130.1676
186.0541, 135.8201
186.5362, 143.0854
187.0183, 150.6648
187.5004, 157.8296
187.9825, 164.5979
188.4646, 169.7654
188.9468, 171.8748
189.4289, 171.3255
189.9110, 169.2599
190.3931, 165.5353
190.8752, 160.5473
191.3573, 154.8306
191.8395, 148.3977
192.3216, 141.2498
192.8037, 132.6771
193.2858, 123.3762
193.7679, 114.9734
194.2500, 108.4005
194.7322, 103.3271
195.2143, 98.60157
195.6964, 94.18697
196.1785, 90.24973
196.6606, 86.78091
197.1427, 83.74609
197.6249, 81.10436
198.1070, 78.75620
198.5891, 76.73520
199.0712, 75.44416
199.5533, 75.70789
200.0354, 75.82212
200.5176, 74.91227
200.9997, 73.32780
201.4818, 71.90874
201.9639, 71.40202
202.4460, 71.83839
202.9281, 71.91204
203.4103, 71.02963
203.8924, 70.30842
204.3745, 70.27596
204.8566, 70.72498
205.3387, 71.05122
205.8208, 70.64658
206.3030, 69.35133
206.7851, 68.84039
207.2672, 69.84428
207.7493, 70.85748
208.2314, 71.27219
208.7135, 71.14056
209.1957, 70.84915
209.6778, 70.73818
210.1599, 70.83387
210.6420, 70.92429
211.1241, 70.91965
211.6062, 70.98479
212.0884, 71.34513
212.5705, 71.91940
213.0526, 72.30315
213.5347, 72.05070
214.0168, 71.05124
214.4989, 70.66405
214.9811, 71.60534
215.4632, 72.55037
215.9453, 72.36925
216.4274, 71.09650
216.9095, 69.96963
217.3916, 70.19063
217.8737, 71.79229
218.3559, 72.74916
218.8380, 72.57983
219.3201, 72.05168
219.8022, 71.72063
220.2843, 71.62930
220.7664, 71.81481
221.2486, 72.56161
221.7307, 73.66486
222.2128, 74.22317
222.6949, 73.53078
223.1770, 72.53242
223.6591, 72.41496
224.1413, 73.32982
224.6234, 74.28184
225.1055, 74.51530
225.5876, 74.27577
226.0697, 73.94824
226.5518, 73.45956
227.0340, 73.02528
227.5161, 73.03590
227.9982, 73.61218
228.4803, 74.21491
228.9624, 74.54482
229.4445, 74.70414
229.9267, 74.79598
230.4088, 74.80054
230.8909, 74.80235
231.3730, 75.00658
231.8551, 75.53300
232.3372, 75.95399
232.8194, 76.05979
233.3015, 75.98490
233.7836, 75.87737
234.2657, 75.80431
234.7478, 75.72382
235.2299, 75.48241
235.7121, 74.84458
236.1942, 74.54427
236.6763, 74.98067
237.1584, 75.73192
237.6405, 76.36321
238.1227, 76.68491
238.6048, 76.80644
239.0869, 77.01073
239.5690, 77.38267
240.0511, 77.68776
240.5332, 77.96328
241.0154, 78.12906
241.4975, 78.03880
241.9796, 77.62539
242.4617, 77.06985
242.9438, 76.83591
243.4259, 77.11199
243.9081, 77.44399
244.3902, 77.83372
244.8723, 78.22182
245.3544, 78.56251
245.8365, 78.83840
246.3186, 79.04649
246.8008, 79.15781
247.2829, 78.82521
247.7650, 78.93701
248.2471, 80.03298
248.7292, 81.30308
249.2113, 81.88845
249.6935, 81.52383
250.1756, 80.74368
250.6577, 80.60402
251.1398, 81.75597
251.6219, 82.64515
252.1040, 83.19995
252.5862, 83.53867
253.0683, 83.68309
253.5504, 83.65979
254.0325, 83.62383
254.5146, 83.82639
254.9967, 84.34551
255.4789, 85.01231
255.9610, 86.17751
256.4431, 87.28782
256.9252, 87.70042
257.4073, 87.30675
257.8894, 86.74693
258.3716, 86.89403
258.8537, 88.09891
259.3358, 89.18808
259.8179, 90.36007
260.3000, 91.30497
260.7821, 91.62968
261.2643, 91.29630
261.7464, 90.78183
262.2285, 90.59106
262.7106, 90.79993
263.1927, 91.07487
263.6748, 91.42539
264.1570, 91.83054
264.6391, 92.31238
265.1212, 92.86333
265.6033, 93.35705
266.0854, 93.60170
266.5675, 93.59377
267.0497, 93.92335
267.5318, 95.15280
268.0139, 96.34106
268.4960, 96.50010
268.9781, 95.63816
269.4602, 94.92769
269.9424, 95.40504
270.4245, 96.88152
270.9066, 97.75288
271.3887, 97.61135
271.8708, 97.13741
272.3529, 96.70613
272.8351, 96.34190
273.3172, 96.22573
273.7993, 96.57344
274.2814, 97.24311
274.7635, 97.74290
275.2456, 98.16789
275.7278, 98.30409
276.2099, 97.82030
276.6920, 96.79738
277.1741, 95.87640
277.6562, 95.27261
278.1383, 95.05422
278.6205, 95.30591
279.1026, 96.33725
279.5847, 97.17530
280.0668, 96.98156
280.5489, 95.92910
281.0310, 95.04420
281.5132, 94.68548
281.9953, 94.68035
282.4774, 94.71838
282.9595, 94.78220
283.4416, 94.97823
283.9237, 95.50771
284.4059, 96.26212
284.8880, 96.79533
285.3701, 97.00011
285.8522, 96.92304
286.3343, 96.45724
286.8164, 95.62975
287.2986, 95.15261
287.7807, 95.77215
288.2628, 97.08823
288.7449, 97.74327
289.2270, 97.35372
289.7091, 96.62444
290.1913, 95.99051
290.6734, 95.47998
291.1555, 95.22755
291.6376, 95.43629
292.1197, 95.93584
292.6018, 96.31815
293.0840, 96.51688
293.5661, 96.71007
294.0482, 97.03687
294.5303, 97.43869
295.0124, 97.82236
295.4945, 98.20988
295.9767, 98.52427
296.4588, 98.59233
296.9409, 98.35241
297.4230, 98.07700
297.9051, 97.75816
298.3872, 97.52904
298.8694, 97.61027
299.3515, 98.16783
299.8336, 98.88022
300.3157, 99.36228
300.7978, 99.61020
301.2799, 99.65876
301.7621, 99.32317
302.2442, 98.88924
302.7263, 98.59262
303.2084, 98.47639
303.6905, 98.49160
304.1726, 98.60897
304.6548, 98.83094
305.1369, 99.09692
305.6190, 99.45823
306.1011, 99.80637
306.5832, 100.0510
307.0653, 100.1884
307.5475, 100.2903
308.0296, 100.4195
308.5117, 100.5709
308.9938, 100.6710
309.4759, 100.6413
309.9580, 100.6440
310.4402, 100.7907
310.9223, 101.0594
311.4044, 101.3623
311.8865, 101.7066
312.3686, 102.0533
312.8507, 102.1715
313.3329, 101.7930
313.8150, 101.6610
314.2971, 102.3064
314.7792, 103.4321
315.2613, 104.5416
315.7434, 105.5959
316.2256, 106.3768
316.7077, 106.1990
317.1898, 104.5659
317.6719, 103.3615
318.1540, 103.8121
318.6361, 104.9668
319.1183, 105.8250
319.6004, 106.0423
320.0825, 106.0195
320.5646, 106.3132
321.0467, 106.9786
321.5288, 107.6082
322.0110, 108.0492
322.4931, 108.4162
322.9752, 108.8737
323.4573, 109.4530
323.9394, 109.8144
324.4215, 109.4009
324.9037, 108.2393
325.3858, 107.6604
325.8679, 108.5421
326.3500, 109.4081
326.8321, 108.9635
327.3142, 107.4080
327.7964, 106.0891
328.2785, 105.9568
328.7606, 106.8361
329.2427, 107.9912
329.7248, 109.7824
330.2069, 111.1349
330.6891, 111.2881
331.1712, 110.5882
331.6533, 109.7265
332.1354, 108.9561
332.6175, 108.2477
333.0996, 107.5040
333.5818, 106.6547
334.0639, 105.9879
334.5460, 105.7504
335.0281, 105.7436
335.5102, 105.7798
335.9923, 105.8217
336.4745, 105.8687
336.9566, 105.9392
337.4387, 106.0375
337.9208, 106.0846
338.4029, 106.1136
338.8850, 106.0239
339.3671, 105.6967
339.8492, 105.1090
340.3314, 104.4539
340.8135, 103.8182
341.2956, 103.2136
341.7777, 102.7687
342.2598, 102.5965
342.7419, 102.4613
343.2241, 102.1604
343.7062, 101.7165
344.1883, 101.2396
344.6704, 100.6006
345.1525, 99.99257
345.6346, 99.95651
346.1168, 100.7092
346.5989, 101.4198
347.0810, 101.4259
347.5631, 100.9771
348.0452, 100.4423
348.5273, 99.83943
349.0095, 99.25778
349.4916, 98.67452
349.9737, 98.08189
350.4558, 97.98047
350.9379, 98.99109
351.4200, 100.4146
351.9022, 101.0803
352.3843, 100.7188
352.8664, 100.1992
353.3485, 100.1649
353.8306, 100.4700
354.3127, 100.5169
354.7949, 100.0795
355.2770, 99.42607
355.7591, 98.74320
356.2412, 98.01175
356.7233, 97.74101
357.2054, 98.37952
357.6876, 99.50725
358.1697, 100.5421
358.6518, 101.4344
359.1339, 102.0640
359.6160, 102.2666
360.0981, 102.0840
360.5803, 101.7539
361.0624, 101.0268
361.5445, 100.3704
362.0266, 100.3057
362.5087, 100.7562
362.9908, 101.0503
363.4730, 100.6827
363.9551, 99.98547
364.4372, 99.97136
364.9193, 100.9366
365.4014, 102.0167
365.8835, 103.0912
366.3657, 104.0054
366.8478, 104.3354
367.3299, 103.8545
367.8120, 103.0958
368.2941, 102.9569
368.7762, 103.6216
369.2584, 104.0426
369.7405, 103.8488
370.2226, 103.4810
370.7047, 103.3738
371.1868, 103.5775
371.6689, 103.8843
372.1511, 104.1470
372.6332, 104.3608
373.1153, 104.3571
373.5974, 103.7935
374.0795, 103.3688
374.5616, 103.5172
375.0438, 104.0820
375.5259, 104.6644
376.0080, 105.0604
376.4901, 105.2814
376.9722, 105.3535
377.4543, 105.1125
377.9365, 104.9364
378.4186, 104.8639
378.9007, 104.8741
379.3828, 105.0244
379.8649, 105.3080
380.3470, 105.5079
380.8292, 105.2877
381.3113, 104.4082
381.7934, 103.8200
382.2755, 103.4474
382.7576, 103.3840
383.2397, 104.0927
383.7219, 105.2475
384.2040, 105.8012
384.6861, 104.7999
385.1682, 102.3996
385.6503, 101.1303
386.1324, 102.1887
386.6146, 103.1141
387.0967, 103.5213
387.5788, 103.5489
388.0609, 103.3464
388.5430, 102.9800
389.0251, 102.5713
389.5073, 102.4108
389.9894, 102.7955
390.4715, 102.7855
390.9536, 100.9709
391.4357, 99.82745
391.9178, 102.0440
392.4000, 107.1237
392.8821, 111.4502
393.3642, 111.0458
393.8463, 105.7227
394.3284, 101.8817
394.8105, 100.2093
395.2927, 99.33784
395.7748, 99.17831
396.2569, 99.39449
396.7390, 99.47876
397.2211, 99.15252
397.7032, 98.60674
398.1854, 98.24562
398.6675, 98.06835
399.1496, 98.08030
399.6317, 98.56457
400.1138, 99.06802
400.5959, 99.15955
401.0781, 98.77651
401.5602, 98.39147
402.0423, 98.52354
402.5244, 99.11364
403.0065, 99.50659
403.4886, 99.59930
403.9708, 99.50905
404.4529, 99.18591
404.9350, 98.74675
405.4171, 98.53466
405.8992, 98.89891
406.3813, 99.47197
406.8635, 99.64404
407.3456, 99.37589
407.8277, 99.04772
408.3098, 98.66895
408.7919, 98.44284
409.2740, 98.76662
409.7562, 99.92722
410.2383, 100.9399
410.7204, 100.9809
411.2025, 100.3902
411.6846, 100.2311
412.1667, 100.8753
412.6489, 101.7125
413.1310, 101.9019
413.6131, 101.4659
414.0952, 101.2818
414.5773, 101.5729
415.0594, 102.1304
415.5416, 102.8339
416.0237, 103.6518
416.5058, 104.4490
416.9879, 105.1020
417.4700, 105.6727
417.9521, 106.5020
418.4343, 108.0355
418.9164, 109.2526
419.3985, 109.4680
419.8806, 109.3199
420.3627, 109.7585
420.8448, 111.0872
421.3270, 112.9352
421.8091, 114.7891
422.2912, 116.6830
422.7733, 118.4427
423.2554, 120.0915
423.7375, 121.5938
424.2197, 122.7059
424.7018, 123.6037
425.1839, 124.7367
425.6660, 126.3975
426.1481, 128.5905
426.6302, 131.4506
427.1124, 135.4572
427.5945, 139.5772
428.0766, 143.5996
428.5587, 147.7018
429.0408, 151.9401
429.5229, 156.3735
430.0051, 161.4078
430.4872, 167.6851
430.9693, 175.3552
431.4514, 183.5050
431.9335, 191.7337
432.4156, 200.9110
432.8978, 211.6592
433.3799, 223.7009
433.8620, 236.4966
434.3441, 249.8177
434.8262, 263.4769
435.3083, 276.7875
435.7905, 289.4426
436.2726, 302.4821
436.7547, 316.2271
437.2368, 330.6467
437.7189, 345.6324
438.2010, 361.1417
438.6832, 377.5977
439.1653, 394.9210
439.6474, 413.3071
440.1295, 433.9269
440.6116, 456.4799
441.0938, 482.2210
441.5759, 512.4349
442.0580, 546.4485
442.5401, 583.3267
443.0222, 623.3350
443.5043, 665.5716
443.9865, 709.6886
444.4686, 755.4588
444.9507, 802.2630
445.4328, 849.1664
445.9149, 897.6711
446.3970, 950.6363
446.8792, 1007.021
447.3613, 1068.850
447.8434, 1138.526
448.3255, 1213.139
448.8076, 1289.118
449.2897, 1366.187
449.7719, 1446.297
450.2540, 1532.906
450.7361, 1627.023
451.2182, 1708.976
451.7003, 1784.232
452.1824, 1843.662
452.6646, 1886.435
453.1467, 1911.012
453.6288, 1912.300
454.1109, 1888.020
454.5930, 1846.400
455.0751, 1801.955
455.5573, 1745.694
456.0394, 1705.147
456.5215, 1675.018
457.0036, 1662.121
457.4857, 1669.933
457.9678, 1698.546
458.4500, 1747.736
458.9321, 1820.181
459.4142, 1912.135
459.8963, 2005.082
460.3784, 2113.434
460.8605, 2195.114
461.3427, 2258.538
461.8248, 2284.588
462.3069, 2252.074
462.7890, 2155.755
463.2711, 2012.910
463.7532, 1827.355
464.2354, 1601.803
464.7175, 1387.808
465.1996, 1184.960
465.6817, 1005.403
466.1638, 857.7618
466.6459, 737.6801
467.1281, 636.9581
467.6102, 557.2007
468.0923, 492.2935
468.5744, 438.2900
469.0565, 394.4044
469.5386, 357.2474
470.0208, 326.1834
470.5029, 300.3042
470.9850, 278.9251
471.4671, 262.1842
471.9492, 246.9193
472.4313, 232.2037
472.9135, 218.5678
473.3956, 206.5966
473.8777, 196.3305
474.3598, 187.3920
474.8419, 179.6637
475.3240, 173.0498
475.8062, 166.7929
476.2883, 160.2893
476.7704, 154.7916
477.2525, 151.1154
477.7346, 148.3506
478.2167, 145.5037
478.6989, 142.2703
479.1810, 138.9216
479.6631, 135.7103
480.1452, 132.5979
480.6273, 129.9321
481.1094, 128.0058
481.5916, 126.2433
482.0737, 124.5118
482.5558, 122.8085
483.0379, 121.1177
483.5200, 119.4018
484.0021, 117.8058
484.4843, 116.7099
484.9664, 116.2813
485.4485, 115.5505
485.9306, 113.9821
486.4127, 112.3505
486.8948, 111.2984
487.3770, 110.7187
487.8591, 109.9252
488.3412, 108.1697
488.8233, 106.0517
489.3054, 104.8611
489.7875, 104.7037
490.2697, 104.5923
490.7518, 104.1478
491.2339, 103.3580
491.7160, 102.1916
492.1981, 100.4380
492.6802, 98.94387
493.1624, 98.08408
493.6445, 97.70853
494.1266, 97.82096
494.6087, 98.39355
495.0908, 98.69124
495.5729, 97.99148
496.0551, 96.30489
496.5372, 94.86531
497.0193, 93.72242
497.5014, 92.72834
497.9835, 91.77386
498.4656, 90.95912
498.9478, 90.48215
499.4299, 90.39117
499.9120, 90.44974
500.3941, 90.27229
500.8762, 89.68626
501.3583, 89.55289
501.8405, 90.49287
502.3226, 91.25419
502.8047, 91.30526
503.2868, 90.86401
503.7689, 90.34710
504.2510, 89.94210
504.7331, 89.61978
505.2152, 89.31510
505.6974, 89.01365
506.1795, 88.82441
506.6616, 88.92247
507.1437, 88.99313
507.6258, 88.77935
508.1079, 88.31779
508.5901, 87.84142
509.0722, 87.39075
509.5543, 87.02636
510.0364, 86.95072
510.5185, 87.15580
511.0006, 87.07052
511.4828, 86.21680
511.9649, 85.10490
512.4470, 84.92763
512.9291, 86.01308
513.4113, 86.74024
513.8934, 86.39989
514.3755, 85.67802
514.8576, 85.22598
515.3397, 85.11827
515.8218, 85.21270
516.3040, 85.43609
516.7861, 85.75293
517.2682, 85.90381
517.7503, 85.70354
518.2324, 85.56463
518.7145, 85.57378
519.1967, 85.62985
519.6788, 85.75573
520.1609, 85.88522
520.6430, 85.71263
521.1251, 84.76971
521.6072, 83.09288
522.0894, 82.19134
522.5715, 82.58825
523.0536, 82.94015
523.5357, 82.70164
524.0178, 82.21242
524.4999, 81.84343
524.9821, 81.68738
525.4642, 81.65958
525.9463, 81.62218
526.4284, 81.63029
526.9105, 82.06551
527.3926, 83.18772
527.8748, 84.10527
528.3569, 83.95506
528.8390, 83.00922
529.3211, 82.21569
529.8032, 81.75936
530.2853, 81.36905
530.7675, 80.82920
531.2496, 80.26503
531.7317, 79.99509
532.2138, 80.11550
532.6959, 80.28160
533.1780, 80.05727
533.6602, 79.36687
534.1423, 78.74344
534.6244, 77.87325
535.1065, 77.38943
535.5886, 77.80614
536.0707, 78.68324
536.5529, 79.42860
537.0350, 79.79383
537.5171, 79.77644
537.9992, 79.22080
538.4813, 77.93204
538.9634, 77.12093
539.4456, 77.13181
539.9277, 77.32809
540.4098, 77.54906
540.8919, 77.72035
541.3740, 77.69553
541.8561, 77.34963
542.3383, 76.93062
542.8204, 76.71970
543.3025, 76.70772
543.7846, 76.84188
544.2667, 77.18706
544.7488, 77.52254
545.2310, 77.65270
545.7131, 77.58431
546.1952, 77.22022
546.6773, 76.33337
547.1594, 75.34604
547.6415, 74.41895
548.1237, 73.61437
548.6058, 73.04082
549.0879, 72.74600
549.5700, 72.68932
550.0521, 72.84388
550.5342, 73.37593
551.0164, 73.59914
551.4985, 73.18450
551.9806, 72.84446
552.4627, 73.02719
552.9448, 73.49033
553.4269, 73.72079
553.9091, 73.46206
554.3912, 73.00131
554.8733, 72.89517
555.3554, 73.22923
555.8375, 73.31414
556.3196, 72.91628
556.8018, 72.40958
557.2839, 71.89177
557.7660, 71.45195
558.2481, 71.36594
558.7302, 71.96935
559.2123, 72.68311
559.6945, 72.99455
560.1766, 72.92195
560.6587, 72.43484
561.1408, 71.40747
561.6229, 70.36440
562.1050, 70.06360
562.5872, 70.68603
563.0693, 70.70627
563.5514, 69.29697
564.0335, 68.09897
564.5156, 68.18544
564.9977, 69.03130
565.4799, 69.62930
565.9620, 69.57836
566.4441, 69.22796
566.9262, 69.19495
567.4083, 69.69404
567.8904, 69.63161
568.3726, 68.22211
568.8547, 67.05299
569.3368, 66.85872
569.8189, 67.21764
570.3010, 67.39918
570.7831, 67.11011
571.2653, 66.70476
571.7474, 66.59380
572.2295, 66.74871
572.7116, 66.96113
573.1937, 67.24622
573.6758, 67.46064
574.1580, 67.41422
574.6401, 67.18416
575.1222, 67.07616
575.6043, 67.31078
576.0864, 67.45522
576.5685, 67.09054
577.0507, 66.55425
577.5328, 66.57329
578.0149, 67.28484
578.4970, 67.88795
578.9791, 67.42924
579.4612, 65.83958
579.9434, 64.93663
580.4255, 65.31219
580.9076, 65.69966
581.3897, 65.97283
581.8718, 66.08971
582.3539, 65.86303
582.8361, 65.31789
583.3182, 64.97917
583.8003, 65.69912
584.2824, 67.23784
584.7645, 67.63988
585.2466, 66.44312
585.7288, 65.41928
586.2108, 65.67633
586.6929, 66.51830
587.1750, 66.91550
587.6572, 66.68394
588.1393, 66.50500
588.6214, 66.77297
589.1035, 67.22845
589.5856, 67.58328
590.0677, 67.79282
590.5499, 67.77937
591.0320, 67.43343
