##NAMES=Barysilite
##RRUFFID=R070651
##IDEAL CHEMISTRY=Pb^2+^_8_Mn^2+^(Si_2_O_7_)_3_
##LOCALITY=Kombat mine, Kombat, Grootfontein District, Otjozondjupa Region, Namibia
##OWNER=RRUFF
##SOURCE=William W. Pinch
##DESCRIPTION=Colorless lamellar aggregate associated with colorless kombatite, R070720, and black jacobsite, R070719
##STATUS=The identification of this mineral has been confirmed by single-crystal X-ray diffraction.
##URL=rruff.info/R070651
111.9313, 7223.289
112.4134, 7559.729
112.8956, 7856.761
113.3777, 8080.545
113.8598, 8264.574
114.3419, 8456.384
114.8240, 8666.908
115.3061, 8886.920
115.7883, 9110.770
116.2704, 9347.336
116.7525, 9577.623
117.2346, 9809.021
117.7167, 10032.86
118.1988, 10219.55
118.6810, 10349.70
119.1631, 10441.61
119.6452, 10511.46
120.1273, 10566.45
120.6094, 10600.53
121.0915, 10607.46
121.5737, 10587.17
122.0558, 10550.07
122.5379, 10502.78
123.0200, 10443.62
123.5021, 10369.55
123.9842, 10251.90
124.4664, 10128.88
124.9485, 10049.76
125.4306, 10027.06
125.9127, 10026.25
126.3948, 10005.60
126.8769, 9971.438
127.3591, 9954.070
127.8412, 9981.315
128.3233, 10040.90
128.8054, 10100.48
129.2875, 10138.50
129.7696, 10172.12
130.2518, 10244.26
130.7339, 10367.69
131.2160, 10511.42
131.6981, 10627.79
132.1802, 10716.88
132.6623, 10785.04
133.1445, 10830.63
133.6266, 10855.67
134.1087, 10875.70
134.5908, 10895.07
135.0729, 10899.37
135.5550, 10868.73
136.0372, 10803.85
136.5193, 10700.69
137.0014, 10538.42
137.4835, 10311.15
137.9656, 10118.85
138.4477, 9980.934
138.9299, 9879.020
139.4120, 9733.432
139.8941, 9517.992
140.3762, 9314.420
140.8583, 9198.206
141.3404, 9214.897
141.8226, 9177.318
142.3047, 9031.503
142.7868, 8774.336
143.2689, 8577.352
143.7510, 8463.638
144.2331, 8391.146
144.7152, 8307.021
145.1974, 8201.278
145.6795, 8098.466
146.1616, 8005.770
146.6437, 7930.897
147.1258, 7848.276
147.6079, 7754.284
148.0901, 7652.100
148.5722, 7554.515
149.0543, 7455.534
149.5364, 7365.024
150.0185, 7288.036
150.5006, 7239.463
150.9828, 7186.507
151.4649, 7120.627
151.9470, 7044.222
152.4291, 6986.123
152.9112, 6945.142
153.3933, 6923.690
153.8755, 6923.104
154.3576, 6962.790
154.8397, 7004.452
155.3218, 7040.100
155.8039, 7068.819
156.2860, 7097.027
156.7682, 7113.355
157.2503, 7132.457
157.7324, 7173.073
158.2145, 7245.773
158.6966, 7335.499
159.1787, 7434.392
159.6609, 7535.315
160.1430, 7659.649
160.6251, 7808.577
161.1072, 7983.663
161.5893, 8191.057
162.0714, 8446.696
162.5536, 8726.119
163.0357, 9011.535
163.5178, 9274.686
163.9999, 9571.383
164.4820, 9917.397
164.9641, 10314.14
165.4463, 10764.62
165.9284, 11284.54
166.4105, 11854.04
166.8926, 12451.67
167.3747, 13072.40
167.8568, 13716.47
168.3390, 14393.02
168.8211, 15091.22
169.3032, 15803.58
169.7853, 16524.09
170.2674, 17252.41
170.7495, 17988.16
171.2317, 18727.42
171.7138, 19478.88
172.1959, 20248.15
172.6780, 21037.08
173.1601, 21830.03
173.6422, 22589.67
174.1244, 23337.63
174.6065, 24125.74
175.0886, 24991.36
175.5707, 25922.18
176.0528, 26906.38
176.5349, 27942.07
177.0171, 29013.90
177.4992, 30116.40
177.9813, 31241.16
178.4634, 32403.91
178.9455, 33593.20
179.4276, 34819.55
179.9098, 36138.83
180.3919, 37609.32
180.8740, 39152.03
181.3561, 40712.13
181.8382, 42276.80
182.3203, 43824.95
182.8025, 45444.18
183.2846, 47055.54
183.7667, 48404.91
184.2488, 49409.06
184.7309, 50071.56
185.2130, 50369.21
185.6951, 50318.80
186.1773, 49884.14
186.6594, 48952.81
187.1415, 47547.46
187.6236, 45883.21
188.1057, 43968.10
188.5878, 41860.05
189.0700, 39723.53
189.5521, 37587.64
190.0342, 35477.85
190.5163, 33403.84
190.9984, 31380.20
191.4805, 29442.21
191.9627, 27623.88
192.4448, 25926.07
192.9269, 24370.03
193.4090, 22968.81
193.8911, 21705.99
194.3732, 20543.07
194.8554, 19471.68
195.3375, 18489.16
195.8196, 17593.55
196.3017, 16785.55
196.7838, 16050.37
197.2659, 15398.72
197.7481, 14821.02
198.2302, 14244.50
198.7123, 13658.41
199.1944, 13104.71
199.6765, 12644.41
200.1586, 12281.90
200.6408, 11945.95
201.1229, 11608.48
201.6050, 11271.70
202.0871, 10966.90
202.5692, 10697.34
203.0513, 10453.91
203.5335, 10218.83
204.0156, 9987.623
204.4977, 9782.165
204.9798, 9622.944
205.4619, 9521.003
205.9440, 9390.450
206.4262, 9216.846
206.9083, 9021.481
207.3904, 8860.946
207.8725, 8744.393
208.3546, 8637.112
208.8367, 8516.187
209.3189, 8373.605
209.8010, 8249.834
210.2831, 8154.511
210.7652, 8078.734
211.2473, 7979.440
211.7294, 7845.715
212.2116, 7710.036
212.6937, 7600.582
213.1758, 7525.098
213.6579, 7447.273
214.1400, 7355.416
214.6221, 7252.046
215.1043, 7181.045
215.5864, 7154.932
216.0685, 7142.449
216.5506, 7111.870
217.0327, 7054.644
217.5148, 7000.270
217.9970, 6951.933
218.4791, 6909.218
218.9612, 6886.144
219.4433, 6892.055
219.9254, 6907.943
220.4075, 6907.150
220.8897, 6878.704
221.3718, 6855.634
221.8539, 6850.600
222.3360, 6869.224
222.8181, 6876.653
223.3002, 6867.081
223.7824, 6849.732
224.2645, 6840.625
224.7466, 6839.051
225.2287, 6847.016
225.7108, 6867.332
226.1929, 6906.584
226.6750, 6940.056
227.1572, 6966.465
227.6393, 6987.362
228.1214, 7005.712
228.6035, 7015.910
229.0856, 7031.796
229.5677, 7062.200
230.0499, 7117.659
230.5320, 7161.009
231.0141, 7180.071
231.4962, 7184.886
231.9783, 7220.415
232.4604, 7304.467
232.9426, 7395.529
233.4247, 7470.125
233.9068, 7520.805
234.3889, 7567.438
234.8710, 7610.126
235.3531, 7649.849
235.8353, 7692.201
236.3174, 7740.613
236.7995, 7788.011
237.2816, 7827.455
237.7637, 7849.149
238.2458, 7882.408
238.7280, 7935.302
239.2101, 8007.459
239.6922, 8073.301
240.1743, 8137.319
240.6564, 8190.576
241.1385, 8222.622
241.6207, 8220.253
242.1028, 8221.202
242.5849, 8238.703
243.0670, 8276.331
243.5491, 8280.910
244.0313, 8227.117
244.5134, 8161.421
244.9955, 8139.637
245.4776, 8184.446
245.9597, 8234.473
246.4418, 8278.663
246.9240, 8319.006
247.4061, 8340.047
247.8882, 8327.969
248.3703, 8306.476
248.8524, 8309.665
249.3345, 8343.869
249.8167, 8392.176
250.2988, 8451.866
250.7809, 8525.978
251.2630, 8599.422
251.7451, 8670.269
252.2272, 8740.727
252.7094, 8816.350
253.1915, 8906.997
253.6736, 8986.063
254.1557, 9042.271
254.6378, 9069.166
255.1199, 9095.119
255.6021, 9123.400
256.0842, 9148.991
256.5663, 9160.984
257.0484, 9159.148
257.5305, 9144.085
258.0126, 9118.842
258.4948, 9090.963
258.9769, 9030.536
259.4590, 8930.721
259.9411, 8800.800
260.4232, 8661.701
260.9053, 8511.068
261.3875, 8355.231
261.8696, 8195.530
262.3517, 8037.066
262.8338, 7866.264
263.3159, 7677.328
263.7980, 7477.081
264.2802, 7298.036
264.7623, 7147.319
265.2444, 7000.135
265.7265, 6837.041
266.2086, 6654.736
266.6907, 6477.545
267.1729, 6304.247
267.6550, 6139.668
268.1371, 6003.032
268.6192, 5905.241
269.1013, 5813.466
269.5834, 5701.078
270.0656, 5560.321
270.5477, 5442.973
271.0298, 5362.681
271.5119, 5310.498
271.9940, 5245.096
272.4761, 5162.535
272.9583, 5078.372
273.4404, 4999.839
273.9225, 4924.920
274.4046, 4870.820
274.8867, 4846.946
275.3688, 4844.770
275.8510, 4822.588
276.3331, 4775.494
276.8152, 4723.621
277.2973, 4685.009
277.7794, 4661.368
278.2615, 4632.706
278.7437, 4587.750
279.2258, 4535.741
279.7079, 4530.525
280.1900, 4585.397
280.6721, 4635.842
281.1542, 4610.486
281.6364, 4505.125
282.1185, 4420.954
282.6006, 4380.834
283.0827, 4377.867
283.5648, 4392.475
284.0469, 4429.166
284.5291, 4460.254
285.0112, 4453.249
285.4933, 4409.393
285.9754, 4369.539
286.4575, 4344.727
286.9396, 4331.398
287.4217, 4319.340
287.9038, 4308.771
288.3860, 4297.193
288.8681, 4279.717
289.3502, 4257.462
289.8323, 4239.987
290.3144, 4231.790
290.7965, 4229.739
291.2787, 4225.736
291.7608, 4219.662
292.2429, 4212.594
292.7250, 4202.856
293.2071, 4191.960
293.6892, 4187.845
294.1714, 4198.612
294.6535, 4215.630
295.1356, 4219.488
295.6177, 4209.939
296.0998, 4194.730
296.5819, 4176.839
297.0641, 4158.300
297.5462, 4146.249
298.0283, 4146.855
298.5104, 4153.395
298.9925, 4153.742
299.4746, 4147.827
299.9568, 4142.375
300.4389, 4143.687
300.9210, 4149.861
301.4031, 4156.358
301.8852, 4155.373
302.3673, 4157.217
302.8495, 4181.903
303.3316, 4228.584
303.8137, 4270.936
304.2958, 4279.638
304.7779, 4269.383
305.2600, 4266.288
305.7422, 4288.848
306.2243, 4317.272
306.7064, 4327.187
307.1885, 4319.893
307.6706, 4319.804
308.1527, 4354.737
308.6349, 4405.378
309.1170, 4444.284
309.5991, 4450.691
310.0812, 4450.070
310.5633, 4460.436
311.0454, 4481.566
311.5276, 4506.898
312.0097, 4536.116
312.4918, 4566.132
312.9739, 4593.866
313.4560, 4614.536
313.9381, 4635.531
314.4203, 4659.778
314.9024, 4687.604
315.3845, 4719.105
315.8666, 4753.975
316.3487, 4792.681
316.8308, 4835.663
317.3130, 4880.459
317.7951, 4932.075
318.2772, 4999.553
318.7593, 5080.573
319.2414, 5146.678
319.7235, 5177.389
320.2057, 5195.065
320.6878, 5217.438
321.1699, 5254.000
321.6520, 5290.353
322.1341, 5324.822
322.6162, 5357.099
323.0984, 5382.435
323.5805, 5398.006
324.0626, 5407.623
324.5447, 5413.865
325.0268, 5423.894
325.5089, 5423.161
325.9911, 5408.218
326.4732, 5379.751
326.9553, 5344.608
327.4374, 5289.808
327.9195, 5237.148
328.4016, 5198.713
328.8838, 5190.352
329.3659, 5175.907
329.8480, 5145.296
330.3301, 5103.490
330.8122, 5082.190
331.2943, 5098.216
331.7765, 5117.740
332.2586, 5121.734
332.7407, 5102.023
333.2228, 5080.558
333.7049, 5051.778
334.1870, 5021.836
334.6692, 5019.649
335.1513, 5065.948
335.6334, 5106.917
336.1155, 5109.724
336.5976, 5060.954
337.0797, 5017.107
337.5619, 4983.382
338.0440, 4955.747
338.5261, 4922.625
339.0082, 4881.680
339.4903, 4842.294
339.9724, 4812.700
340.4546, 4794.746
340.9367, 4766.471
341.4188, 4722.951
341.9009, 4672.719
342.3830, 4632.939
342.8651, 4604.314
343.3473, 4581.184
343.8294, 4559.209
344.3115, 4539.034
344.7936, 4533.739
345.2757, 4548.684
345.7578, 4567.571
346.2400, 4559.697
346.7221, 4526.980
347.2042, 4499.625
347.6863, 4496.200
348.1684, 4510.341
348.6505, 4520.259
349.1327, 4523.850
349.6148, 4528.386
350.0969, 4540.699
350.5790, 4560.777
351.0611, 4588.932
351.5432, 4641.383
352.0254, 4696.483
352.5075, 4714.723
352.9896, 4691.602
353.4717, 4661.276
353.9538, 4649.701
354.4359, 4653.861
354.9181, 4668.366
355.4002, 4704.350
355.8823, 4741.566
356.3644, 4756.959
356.8465, 4750.114
357.3286, 4745.701
357.8108, 4761.959
358.2929, 4789.737
358.7750, 4817.270
359.2571, 4845.271
359.7392, 4867.783
360.2213, 4879.740
360.7035, 4881.680
361.1856, 4881.810
361.6677, 4877.042
362.1498, 4875.170
362.6319, 4882.859
363.1140, 4916.323
363.5962, 4944.808
364.0783, 4953.012
364.5604, 4944.772
365.0425, 4947.524
365.5246, 4979.248
366.0067, 5016.555
366.4889, 5045.003
366.9710, 5060.500
367.4531, 5070.257
367.9352, 5065.917
368.4173, 5053.481
368.8994, 5059.744
369.3815, 5098.869
369.8636, 5144.710
370.3458, 5186.396
370.8279, 5228.117
371.3100, 5258.868
371.7921, 5275.417
372.2742, 5281.864
372.7563, 5286.516
373.2385, 5281.786
373.7206, 5287.712
374.2027, 5316.833
374.6848, 5379.029
375.1669, 5422.609
375.6490, 5444.783
376.1312, 5451.167
376.6133, 5445.722
377.0954, 5422.033
377.5775, 5412.914
378.0596, 5437.651
378.5417, 5494.462
379.0239, 5534.607
379.5060, 5554.886
379.9881, 5567.190
380.4702, 5587.537
380.9523, 5615.582
381.4344, 5636.261
381.9166, 5642.015
382.3987, 5637.227
382.8808, 5635.345
383.3629, 5636.455
383.8450, 5638.216
384.3271, 5642.766
384.8093, 5646.762
385.2914, 5639.097
385.7735, 5611.372
386.2556, 5575.339
386.7377, 5551.651
387.2198, 5537.972
387.7020, 5515.189
388.1841, 5463.791
388.6662, 5397.441
389.1483, 5333.393
389.6304, 5276.462
390.1125, 5222.913
390.5947, 5176.496
391.0768, 5132.094
391.5589, 5074.792
392.0410, 4973.112
392.5231, 4870.916
393.0052, 4801.666
393.4874, 4782.106
393.9695, 4769.499
394.4516, 4751.289
394.9337, 4728.055
395.4158, 4700.892
395.8979, 4669.028
396.3801, 4633.969
396.8622, 4593.253
397.3443, 4541.142
397.8264, 4503.163
398.3085, 4491.687
398.7906, 4493.142
399.2728, 4491.536
399.7549, 4492.387
400.2370, 4483.086
400.7191, 4453.573
401.2012, 4400.828
401.6833, 4375.567
402.1655, 4394.119
402.6476, 4424.402
403.1297, 4438.638
403.6118, 4430.167
404.0939, 4420.759
404.5760, 4407.659
405.0582, 4395.658
405.5403, 4421.606
406.0224, 4502.833
406.5045, 4570.931
406.9866, 4564.673
407.4688, 4478.253
407.9509, 4420.429
408.4330, 4406.489
408.9151, 4420.340
409.3972, 4430.085
409.8793, 4435.659
410.3615, 4445.053
410.8436, 4465.464
411.3257, 4493.791
411.8078, 4520.033
412.2899, 4544.244
412.7720, 4564.087
413.2542, 4571.277
413.7363, 4570.688
414.2184, 4576.922
414.7005, 4594.587
415.1826, 4623.685
415.6647, 4668.524
416.1469, 4729.006
416.6290, 4790.020
417.1111, 4835.312
417.5932, 4875.764
418.0753, 4924.063
418.5574, 4995.320
419.0396, 5066.694
419.5217, 5126.990
420.0038, 5176.836
420.4859, 5224.741
420.9680, 5264.002
421.4501, 5308.342
421.9323, 5366.603
422.4144, 5454.002
422.8965, 5538.104
423.3786, 5621.772
423.8607, 5699.604
424.3428, 5756.817
424.8250, 5755.717
425.3071, 5767.862
425.7892, 5820.292
426.2713, 5932.747
426.7534, 6035.270
427.2355, 6124.076
427.7177, 6205.471
428.1998, 6286.364
428.6819, 6365.167
429.1640, 6446.224
429.6461, 6532.449
430.1282, 6622.470
430.6104, 6710.024
431.0925, 6793.223
431.5746, 6877.363
432.0567, 6974.370
432.5388, 7085.146
433.0209, 7167.942
433.5031, 7206.723
433.9852, 7217.942
434.4673, 7248.555
434.9494, 7297.833
435.4315, 7333.299
435.9136, 7330.387
436.3958, 7295.750
436.8779, 7242.118
437.3600, 7167.126
437.8421, 7087.926
438.3242, 7033.796
438.8063, 6992.754
439.2885, 6931.016
439.7706, 6805.417
440.2527, 6666.377
440.7348, 6566.016
441.2169, 6511.909
441.6990, 6452.936
442.1812, 6351.252
442.6633, 6230.885
443.1454, 6119.104
443.6275, 6028.536
444.1096, 5943.875
444.5917, 5854.928
445.0739, 5762.851
445.5560, 5690.035
446.0381, 5669.295
446.5202, 5650.055
447.0023, 5602.593
447.4844, 5482.576
447.9666, 5389.092
448.4487, 5333.346
448.9308, 5303.570
449.4129, 5268.003
449.8950, 5225.243
450.3771, 5180.414
450.8593, 5133.612
451.3413, 5083.249
451.8235, 5042.974
452.3056, 5013.696
452.7877, 4993.046
453.2698, 4979.856
453.7519, 4975.057
454.2340, 4967.223
454.7162, 4949.957
455.1983, 4927.693
455.6804, 4917.047
456.1625, 4918.464
456.6446, 4922.897
457.1267, 4924.085
457.6089, 4922.275
458.0910, 4917.469
458.5731, 4907.760
459.0552, 4898.655
459.5373, 4899.524
460.0194, 4907.307
460.5016, 4911.808
460.9837, 4894.510
461.4658, 4878.736
461.9479, 4888.511
462.4300, 4930.472
462.9121, 4975.368
463.3943, 5010.082
463.8764, 5038.355
464.3585, 5064.460
464.8406, 5071.943
465.3227, 5094.792
465.8048, 5151.563
466.2870, 5242.281
466.7691, 5324.237
467.2512, 5393.753
467.7333, 5453.019
468.2154, 5502.745
468.6975, 5530.125
469.1797, 5568.668
469.6618, 5619.903
470.1439, 5682.508
470.6260, 5755.858
471.1081, 5847.950
471.5902, 5931.012
472.0724, 5985.477
472.5545, 6008.427
473.0366, 6062.083
473.5187, 6150.183
474.0008, 6256.771
474.4829, 6362.503
474.9651, 6468.171
475.4472, 6583.212
475.9293, 6710.915
476.4114, 6849.617
476.8935, 6999.564
477.3756, 7158.953
477.8578, 7320.002
478.3399, 7484.467
478.8220, 7644.604
479.3041, 7788.968
479.7862, 7915.028
480.2683, 8026.250
480.7505, 8124.014
481.2326, 8208.776
481.7147, 8282.179
482.1968, 8351.017
482.6789, 8404.198
483.1610, 8430.032
483.6432, 8424.104
484.1253, 8422.596
484.6074, 8420.186
485.0895, 8432.793
485.5716, 8474.213
486.0537, 8550.530
486.5359, 8650.740
487.0180, 8780.677
487.5001, 8935.408
487.9822, 9089.490
488.4643, 9223.350
488.9464, 9386.269
489.4286, 9612.143
489.9107, 9912.712
490.3928, 10201.56
490.8749, 10475.32
491.3570, 10743.80
491.8391, 11019.32
492.3213, 11299.81
492.8034, 11613.61
493.2855, 11985.92
493.7676, 12388.84
494.2497, 12753.17
494.7318, 13077.03
495.2140, 13402.75
495.6961, 13751.50
496.1782, 14127.38
496.6603, 14526.72
497.1424, 14963.45
497.6245, 15406.24
498.1067, 15841.03
498.5888, 16266.73
499.0709, 16683.65
499.5530, 17097.55
500.0351, 17500.74
500.5172, 17895.03
500.9994, 18274.17
501.4815, 18642.63
501.9636, 19001.73
502.4457, 19352.57
502.9278, 19696.45
503.4099, 20103.77
503.8921, 20420.49
504.3742, 20621.18
504.8563, 20721.11
505.3384, 20783.95
505.8205, 20822.56
506.3026, 20802.65
506.7848, 20712.96
507.2669, 20555.24
507.7490, 20313.70
508.2311, 19984.84
508.7132, 19579.76
509.1953, 19087.55
509.6775, 18516.31
510.1596, 17930.09
510.6417, 17352.16
511.1238, 16775.08
511.6059, 16178.14
512.0880, 15560.74
512.5701, 14954.01
513.0522, 14373.25
513.5344, 13811.26
514.0165, 13253.50
514.4986, 12686.33
514.9807, 12156.31
515.4628, 11707.19
515.9449, 11311.15
516.4271, 10927.32
516.9092, 10520.52
517.3913, 10139.66
517.8734, 9806.732
518.3555, 9523.780
518.8376, 9258.729
519.3198, 9010.540
519.8019, 8778.343
520.2840, 8559.396
520.7661, 8358.702
521.2482, 8166.229
521.7303, 7983.931
522.2125, 7807.399
522.6946, 7626.054
523.1767, 7433.417
523.6588, 7258.602
524.1409, 7114.016
524.6230, 6999.426
525.1052, 6896.887
525.5873, 6807.040
526.0694, 6723.780
526.5515, 6641.628
527.0336, 6561.881
527.5157, 6488.037
527.9979, 6420.445
528.4800, 6363.004
528.9621, 6323.280
529.4442, 6298.401
529.9263, 6278.603
530.4084, 6257.214
530.8906, 6240.511
531.3727, 6235.421
531.8548, 6243.942
532.3369, 6250.140
532.8190, 6244.208
533.3011, 6235.566
533.7833, 6232.873
534.2654, 6252.284
534.7475, 6259.183
535.2296, 6247.632
535.7117, 6221.073
536.1938, 6194.585
536.6760, 6179.042
537.1581, 6142.405
537.6402, 6063.375
538.1223, 5937.765
538.6044, 5830.478
539.0865, 5743.842
539.5687, 5665.643
540.0508, 5579.746
540.5329, 5487.646
541.0150, 5408.756
541.4971, 5350.186
541.9792, 5304.411
542.4614, 5262.527
542.9435, 5224.508
543.4256, 5190.186
543.9077, 5157.842
544.3898, 5130.054
544.8719, 5112.093
545.3541, 5106.261
545.8362, 5096.332
546.3183, 5068.704
546.8004, 5035.045
547.2825, 5007.850
547.7646, 4985.987
548.2468, 4975.623
548.7289, 4985.970
549.2110, 5010.876
549.6931, 5023.590
550.1752, 5014.217
550.6573, 5006.174
551.1395, 5011.556
551.6216, 5034.942
552.1037, 5044.257
552.5858, 5038.326
553.0679, 5021.318
553.5500, 4994.777
554.0322, 4959.393
554.5143, 4925.029
554.9964, 4891.829
555.4785, 4863.657
555.9606, 4852.195
556.4427, 4854.489
556.9249, 4854.729
557.4070, 4840.590
557.8891, 4820.619
558.3712, 4803.419
558.8533, 4789.765
559.3354, 4779.656
559.8176, 4773.295
560.2997, 4770.149
560.7818, 4769.671
561.2639, 4773.634
561.7460, 4777.941
562.2281, 4785.073
562.7103, 4792.402
563.1924, 4790.344
563.6745, 4772.896
564.1566, 4753.945
564.6387, 4737.758
565.1208, 4724.161
565.6030, 4715.352
566.0851, 4713.026
566.5672, 4712.034
567.0493, 4705.288
567.5314, 4693.472
568.0135, 4689.031
568.4957, 4696.840
568.9778, 4708.737
569.4599, 4708.771
569.9420, 4700.107
570.4241, 4696.112
570.9063, 4711.979
571.3884, 4731.045
571.8705, 4733.978
572.3526, 4720.032
572.8347, 4708.396
573.3168, 4713.816
573.7990, 4723.392
574.2811, 4725.815
574.7632, 4708.672
575.2453, 4698.691
575.7274, 4708.060
576.2095, 4725.913
576.6917, 4729.295
577.1738, 4702.869
577.6559, 4687.624
578.1380, 4699.492
578.6201, 4736.019
579.1022, 4756.828
579.5844, 4759.739
580.0665, 4754.896
580.5486, 4747.029
581.0307, 4737.008
581.5128, 4731.891
581.9949, 4732.944
582.4771, 4737.278
582.9592, 4746.589
583.4413, 4756.655
583.9234, 4757.022
584.4055, 4727.848
584.8876, 4699.653
585.3698, 4702.661
585.8519, 4730.454
586.3340, 4747.712
586.8161, 4728.716
587.2982, 4703.191
587.7803, 4687.383
588.2625, 4685.224
588.7446, 4687.445
589.2267, 4698.290
589.7088, 4710.044
590.1909, 4713.539
590.6730, 4704.500
591.1552, 4698.747
591.6373, 4699.111
592.1194, 4704.231
592.6015, 4711.237
593.0836, 4720.323
593.5657, 4727.832
594.0479, 4732.450
594.5300, 4733.924
595.0121, 4730.438
595.4942, 4721.771
595.9763, 4712.827
596.4584, 4704.660
596.9406, 4699.719
597.4227, 4702.382
597.9048, 4721.169
598.3869, 4734.560
598.8690, 4727.745
599.3511, 4709.173
599.8333, 4695.186
600.3154, 4694.619
600.7975, 4693.491
601.2796, 4685.792
601.7617, 4671.934
602.2438, 4669.106
602.7260, 4685.322
603.2081, 4699.057
603.6902, 4692.441
604.1723, 4662.855
604.6544, 4650.340
605.1365, 4660.590
605.6187, 4676.855
606.1008, 4674.446
606.5829, 4657.935
607.0650, 4646.516
