##NAMES=Barysilite
##RRUFFID=R070651
##IDEAL CHEMISTRY=Pb^2+^_8_Mn^2+^(Si_2_O_7_)_3_
##LOCALITY=Kombat mine, Kombat, Grootfontein District, Otjozondjupa Region, Namibia
##OWNER=RRUFF
##SOURCE=William W. Pinch
##DESCRIPTION=Colorless lamellar aggregate associated with colorless kombatite, R070720, and black jacobsite, R070719
##STATUS=The identification of this mineral has been confirmed by single-crystal X-ray diffraction.
##URL=rruff.info/R070651
113.2559, 19593.84
113.7380, 19403.96
114.2201, 19240.78
114.7023, 19134.31
115.1844, 19069.87
115.6665, 19013.83
116.1486, 18950.71
116.6307, 18876.05
117.1128, 18776.68
117.5950, 18636.27
118.0771, 18484.15
118.5592, 18344.69
119.0413, 18220.13
119.5234, 18093.38
120.0055, 17946.11
120.4877, 17784.81
120.9698, 17626.20
121.4519, 17465.48
121.9340, 17311.48
122.4161, 17190.86
122.8982, 17128.96
123.3804, 17066.52
123.8625, 16952.58
124.3446, 16796.57
124.8267, 16645.03
125.3088, 16536.10
125.7909, 16472.94
126.2731, 16409.03
126.7552, 16317.54
127.2373, 16239.32
127.7194, 16205.60
128.2015, 16218.59
128.6837, 16245.44
129.1658, 16231.55
129.6479, 16135.61
130.1300, 16081.38
130.6121, 16097.04
131.0942, 16141.52
131.5764, 16183.80
132.0585, 16209.95
132.5406, 16222.37
133.0227, 16228.84
133.5048, 16229.33
133.9869, 16223.20
134.4691, 16206.55
134.9512, 16183.39
135.4333, 16162.65
135.9154, 16152.28
136.3975, 16149.93
136.8796, 16116.61
137.3618, 16018.06
137.8439, 15926.19
138.3260, 15889.75
138.8081, 15902.40
139.2902, 15906.79
139.7723, 15846.99
140.2545, 15723.18
140.7366, 15628.73
141.2187, 15580.92
141.7008, 15559.29
142.1829, 15545.21
142.6650, 15538.51
143.1471, 15530.97
143.6293, 15513.65
144.1114, 15488.25
144.5935, 15459.08
145.0756, 15423.80
145.5577, 15385.28
146.0398, 15353.13
146.5220, 15329.96
147.0041, 15312.88
147.4862, 15299.10
147.9683, 15288.43
148.4504, 15279.63
148.9325, 15271.94
149.4147, 15265.32
149.8968, 15259.46
150.3789, 15259.48
150.8610, 15256.91
151.3431, 15245.15
151.8252, 15222.98
152.3074, 15196.86
152.7895, 15177.75
153.2716, 15171.49
153.7537, 15159.42
154.2358, 15133.55
154.7179, 15104.67
155.2001, 15079.78
155.6822, 15061.68
156.1643, 15052.37
156.6464, 15058.18
157.1285, 15101.86
157.6106, 15135.70
158.0928, 15149.92
158.5749, 15152.50
159.0570, 15152.53
159.5391, 15154.52
160.0212, 15159.58
160.5033, 15181.43
160.9855, 15245.89
161.4676, 15298.70
161.9497, 15311.19
162.4318, 15295.16
162.9139, 15285.82
163.3960, 15311.10
163.8782, 15373.02
164.3603, 15426.96
164.8424, 15460.11
165.3245, 15496.01
165.8066, 15547.75
166.2887, 15616.77
166.7709, 15700.25
167.2530, 15801.03
167.7351, 15919.02
168.2172, 16028.27
168.6993, 16113.66
169.1814, 16193.86
169.6636, 16291.11
170.1457, 16408.94
170.6278, 16542.05
171.1099, 16686.39
171.5920, 16840.95
172.0741, 17010.47
172.5563, 17207.73
173.0384, 17422.95
173.5205, 17627.09
174.0026, 17819.85
174.4847, 17995.19
174.9668, 18134.04
175.4490, 18241.18
175.9311, 18375.81
176.4132, 18597.25
176.8953, 18904.00
177.3774, 19188.81
177.8595, 19418.36
178.3417, 19632.96
178.8238, 19852.32
179.3059, 20079.60
179.7880, 20314.86
180.2701, 20549.53
180.7522, 20774.88
181.2344, 21042.37
181.7165, 21406.34
182.1986, 21783.73
182.6807, 22129.00
183.1628, 22428.10
183.6449, 22691.05
184.1271, 22937.75
184.6092, 23186.23
185.0913, 23374.80
185.5734, 23526.35
186.0555, 23614.29
186.5376, 23612.82
187.0198, 23511.39
187.5019, 23324.83
187.9840, 23086.89
188.4661, 22764.41
188.9482, 22425.66
189.4303, 22074.62
189.9125, 21710.55
190.3946, 21330.98
190.8767, 20929.49
191.3588, 20515.44
191.8409, 20120.84
192.3230, 19728.38
192.8052, 19375.59
193.2873, 19091.20
193.7694, 18852.16
194.2515, 18618.14
194.7336, 18362.18
195.2157, 18090.25
195.6979, 17854.05
196.1800, 17663.24
196.6621, 17488.70
197.1442, 17316.21
197.6263, 17150.17
198.1084, 17006.97
198.5906, 16900.43
199.0727, 16829.11
199.5548, 16752.11
200.0369, 16658.49
200.5190, 16569.51
201.0011, 16499.06
201.4833, 16446.38
201.9654, 16399.17
202.4475, 16347.13
202.9296, 16292.42
203.4117, 16248.24
203.8938, 16223.72
204.3760, 16204.50
204.8581, 16177.73
205.3402, 16142.32
205.8223, 16105.62
206.3044, 16072.75
206.7865, 16043.24
207.2687, 16015.89
207.7508, 15984.96
208.2329, 15958.34
208.7150, 15951.47
209.1971, 15970.68
209.6792, 15988.36
210.1614, 15973.49
210.6435, 15938.96
211.1256, 15914.86
211.6077, 15915.43
212.0898, 15933.41
212.5719, 15956.54
213.0541, 15991.10
213.5362, 16016.09
214.0183, 16008.55
214.5004, 15980.04
214.9825, 15959.29
215.4646, 15966.63
215.9468, 15995.49
216.4289, 16020.21
216.9110, 16046.91
217.3931, 16058.14
217.8752, 16029.06
218.3573, 15975.62
218.8395, 15943.35
219.3216, 15981.75
219.8037, 16082.89
220.2858, 16144.00
220.7679, 16132.72
221.2500, 16112.24
221.7322, 16108.85
222.2143, 16121.38
222.6964, 16140.76
223.1785, 16158.38
223.6606, 16173.67
224.1427, 16200.38
224.6249, 16253.18
225.1070, 16305.11
225.5891, 16350.13
226.0712, 16385.93
226.5533, 16409.19
227.0354, 16410.73
227.5176, 16384.46
227.9997, 16378.58
228.4818, 16413.59
228.9639, 16452.15
229.4460, 16479.07
229.9281, 16494.78
230.4103, 16508.87
230.8924, 16531.37
231.3745, 16564.65
231.8566, 16595.98
232.3387, 16619.69
232.8208, 16646.49
233.3030, 16691.11
233.7851, 16748.26
234.2672, 16793.87
234.7493, 16796.46
235.2314, 16735.11
235.7135, 16707.94
236.1957, 16735.90
236.6778, 16774.72
237.1599, 16802.07
237.6420, 16815.96
238.1241, 16826.97
238.6062, 16847.29
239.0884, 16880.28
239.5705, 16912.29
240.0526, 16948.70
240.5347, 16980.16
241.0168, 17000.39
241.4989, 17009.18
241.9811, 17010.50
242.4632, 17008.47
242.9453, 17001.44
243.4274, 16995.79
243.9095, 16984.35
244.3916, 16979.07
244.8738, 16991.28
245.3559, 17020.57
245.8380, 17054.61
246.3201, 17079.76
246.8022, 17094.79
247.2843, 17101.89
247.7665, 17083.51
248.2486, 17070.12
248.7307, 17091.59
249.2128, 17148.14
249.6949, 17207.92
250.1770, 17232.45
250.6592, 17204.60
251.1413, 17201.05
251.6234, 17243.47
252.1055, 17294.04
252.5876, 17321.61
253.0697, 17323.25
253.5519, 17321.22
254.0340, 17339.99
254.5161, 17385.95
254.9982, 17431.22
255.4803, 17483.49
255.9624, 17529.92
256.4445, 17556.55
256.9267, 17562.64
257.4088, 17563.67
257.8909, 17575.13
258.3730, 17599.61
258.8551, 17625.15
259.3372, 17657.59
259.8194, 17687.26
260.3015, 17707.31
260.7836, 17716.76
261.2657, 17716.37
261.7478, 17704.71
262.2299, 17679.47
262.7121, 17659.42
263.1942, 17649.76
263.6763, 17642.24
264.1584, 17624.52
264.6405, 17596.67
265.1227, 17580.27
265.6048, 17602.39
266.0869, 17666.33
266.5690, 17698.27
267.0511, 17670.54
267.5332, 17627.97
268.0154, 17606.97
268.4975, 17609.94
268.9796, 17618.45
269.4617, 17615.71
269.9438, 17602.52
270.4259, 17603.12
270.9081, 17631.80
271.3902, 17664.79
271.8723, 17678.37
272.3544, 17672.85
272.8365, 17674.29
273.3186, 17706.48
273.8008, 17766.67
274.2829, 17812.06
274.7650, 17824.45
275.2471, 17835.07
275.7292, 17872.32
276.2113, 17934.55
276.6935, 17994.42
277.1756, 18035.44
277.6577, 18056.58
278.1398, 18066.65
278.6219, 18037.60
279.1040, 18020.06
279.5862, 18056.32
280.0683, 18141.47
280.5504, 18234.89
281.0325, 18317.02
281.5146, 18385.75
281.9967, 18440.95
282.4789, 18464.70
282.9610, 18491.57
283.4431, 18545.54
283.9252, 18623.11
284.4073, 18702.92
284.8894, 18771.26
285.3716, 18835.94
285.8537, 18921.40
286.3358, 19052.31
286.8179, 19172.04
287.3000, 19237.67
287.7821, 19261.63
288.2643, 19292.64
288.7464, 19353.98
289.2285, 19436.59
289.7106, 19516.19
290.1927, 19593.84
290.6748, 19667.04
291.1570, 19729.89
291.6391, 19786.69
292.1212, 19850.92
292.6033, 19930.03
293.0854, 20016.70
293.5675, 20091.63
294.0497, 20142.72
294.5318, 20215.74
295.0139, 20349.42
295.4960, 20518.45
295.9781, 20662.54
296.4602, 20757.69
296.9424, 20829.83
297.4245, 20924.64
297.9066, 21048.06
298.3887, 21161.34
298.8708, 21243.70
299.3529, 21309.50
299.8351, 21384.53
300.3172, 21476.73
300.7993, 21575.12
301.2814, 21665.77
301.7635, 21748.33
302.2456, 21827.35
302.7278, 21885.04
303.2099, 21945.80
303.6920, 22054.92
304.1741, 22226.10
304.6562, 22399.62
305.1383, 22498.48
305.6205, 22517.03
306.1026, 22563.71
306.5847, 22685.37
307.0668, 22824.32
307.5489, 22915.90
308.0310, 22952.42
308.5132, 22978.12
308.9953, 23034.38
309.4774, 23123.00
309.9595, 23202.35
310.4416, 23265.44
310.9237, 23322.71
311.4059, 23380.13
311.8880, 23438.41
312.3701, 23501.72
312.8522, 23579.23
313.3343, 23666.89
313.8164, 23724.23
314.2986, 23723.65
314.7807, 23718.34
315.2628, 23738.38
315.7449, 23780.71
316.2270, 23828.71
316.7091, 23872.89
317.1913, 23913.93
317.6734, 23956.20
318.1555, 24002.99
318.6376, 24047.44
319.1197, 24095.57
319.6018, 24139.88
320.0840, 24161.64
320.5661, 24149.77
321.0482, 24112.82
321.5303, 24077.54
322.0124, 24026.21
322.4945, 23999.13
322.9767, 24018.66
323.4588, 24064.44
323.9409, 24111.36
324.4230, 24151.41
324.9051, 24177.94
325.3872, 24174.80
325.8694, 24109.35
326.3515, 24072.48
326.8336, 24100.91
327.3157, 24146.71
327.7978, 24158.75
328.2799, 24124.42
328.7621, 24069.09
329.2442, 24026.29
329.7263, 24001.39
330.2084, 23978.33
330.6905, 23951.30
331.1726, 23930.01
331.6548, 23922.64
332.1369, 23929.34
332.6190, 23944.02
333.1011, 23962.17
333.5832, 23986.70
334.0653, 23996.55
334.5475, 24002.64
335.0296, 23987.65
335.5117, 23922.12
335.9938, 23824.08
336.4759, 23745.55
336.9580, 23730.15
337.4402, 23776.57
337.9223, 23799.84
338.4044, 23788.25
338.8865, 23767.22
339.3686, 23738.21
339.8507, 23704.72
340.3329, 23669.28
340.8150, 23632.15
341.2971, 23597.38
341.7792, 23583.02
342.2613, 23624.94
342.7434, 23641.89
343.2256, 23611.37
343.7077, 23557.95
344.1898, 23505.92
344.6719, 23465.02
345.1540, 23432.88
345.6361, 23404.27
346.1183, 23376.97
346.6004, 23358.62
347.0825, 23348.74
347.5646, 23346.85
348.0467, 23355.98
348.5288, 23375.27
349.0110, 23396.39
349.4931, 23409.02
349.9752, 23412.08
350.4573, 23410.93
350.9394, 23395.48
351.4215, 23384.25
351.9037, 23391.75
352.3858, 23413.54
352.8679, 23430.93
353.3500, 23425.46
353.8321, 23397.96
354.3142, 23375.13
354.7964, 23352.47
355.2785, 23341.42
355.7606, 23353.89
356.2427, 23379.83
356.7248, 23399.34
357.2069, 23398.90
357.6891, 23385.72
358.1712, 23382.30
358.6533, 23396.54
359.1354, 23402.23
359.6175, 23374.99
360.0996, 23339.10
360.5818, 23325.51
361.0639, 23349.90
361.5460, 23384.96
362.0281, 23392.61
362.5102, 23369.99
362.9923, 23345.77
363.4745, 23327.49
363.9566, 23312.82
364.4387, 23297.82
364.9208, 23281.05
365.4029, 23272.25
365.8850, 23289.18
366.3672, 23324.64
366.8493, 23334.75
367.3314, 23294.36
367.8135, 23249.88
368.2956, 23257.37
368.7777, 23312.37
369.2599, 23356.02
369.7420, 23361.72
370.2241, 23341.49
370.7062, 23307.93
371.1883, 23258.16
371.6704, 23219.72
372.1526, 23222.18
372.6347, 23259.08
373.1168, 23292.48
373.5989, 23311.50
374.0810, 23329.89
374.5631, 23356.78
375.0453, 23392.70
375.5274, 23442.04
376.0095, 23518.00
376.4916, 23605.24
376.9737, 23641.69
377.4558, 23580.20
377.9380, 23528.22
378.4201, 23534.37
378.9022, 23576.23
379.3843, 23610.02
379.8664, 23617.75
380.3485, 23613.17
380.8307, 23626.52
381.3128, 23686.46
381.7949, 23710.44
382.2770, 23659.47
382.7591, 23588.85
383.2412, 23555.09
383.7234, 23566.97
384.2055, 23591.11
384.6876, 23587.70
385.1697, 23547.38
385.6518, 23519.42
386.1339, 23490.67
386.6161, 23483.54
387.0982, 23532.16
387.5803, 23614.99
388.0624, 23672.92
388.5445, 23659.22
389.0266, 23582.18
389.5088, 23532.71
389.9909, 23537.78
390.4730, 23541.50
390.9551, 23525.02
391.4372, 23505.01
391.9193, 23509.06
392.4015, 23550.05
392.8836, 23602.26
393.3657, 23608.98
393.8478, 23546.64
394.3299, 23495.87
394.8120, 23466.91
395.2942, 23452.59
395.7763, 23455.39
396.2584, 23473.06
396.7405, 23488.38
397.2226, 23470.07
397.7047, 23417.63
398.1869, 23421.11
398.6690, 23553.07
399.1511, 23660.92
399.6332, 23634.90
400.1153, 23514.01
400.5974, 23413.15
401.0796, 23408.51
401.5617, 23460.27
402.0438, 23477.36
402.5259, 23451.34
403.0080, 23424.42
403.4901, 23416.37
403.9723, 23423.14
404.4544, 23442.23
404.9365, 23483.40
405.4186, 23520.05
405.9007, 23518.99
406.3828, 23488.94
406.8650, 23482.26
407.3471, 23528.67
407.8292, 23591.79
408.3113, 23603.20
408.7934, 23548.35
409.2755, 23520.88
409.7577, 23587.88
410.2398, 23684.00
410.7219, 23708.04
411.2040, 23641.83
411.6861, 23562.34
412.1682, 23550.67
412.6504, 23619.04
413.1325, 23649.60
413.6146, 23608.52
414.0967, 23562.36
414.5788, 23552.02
415.0609, 23569.24
415.5431, 23580.88
416.0252, 23564.96
416.5073, 23530.51
416.9894, 23519.61
417.4715, 23567.05
417.9536, 23596.95
418.4358, 23604.12
418.9179, 23589.52
419.4000, 23545.13
419.8821, 23471.50
420.3642, 23393.65
420.8463, 23352.29
421.3285, 23364.41
421.8106, 23367.17
422.2927, 23357.00
422.7748, 23341.11
423.2569, 23322.35
423.7390, 23300.73
424.2212, 23275.01
424.7033, 23244.07
425.1854, 23208.19
425.6675, 23168.22
426.1496, 23123.31
426.6317, 23075.44
427.1139, 23010.27
427.5960, 22947.71
428.0781, 22916.18
428.5602, 22930.88
429.0423, 22964.87
429.5244, 22996.99
430.0066, 23028.11
430.4887, 23017.42
430.9708, 22927.15
431.4529, 22813.70
431.9350, 22742.82
432.4171, 22716.43
432.8993, 22694.79
433.3814, 22659.54
433.8635, 22616.48
434.3456, 22579.91
434.8277, 22553.94
435.3098, 22516.06
435.7920, 22438.58
436.2741, 22325.54
436.7562, 22237.61
437.2383, 22194.65
437.7204, 22160.92
438.2025, 22117.90
438.6847, 22066.93
439.1668, 22013.60
439.6489, 21960.35
440.1310, 21907.15
440.6131, 21854.11
441.0952, 21806.39
441.5774, 21750.83
442.0595, 21685.24
442.5416, 21612.21
443.0237, 21530.55
443.5058, 21441.91
443.9879, 21355.57
444.4701, 21283.05
444.9522, 21227.54
445.4343, 21165.01
445.9164, 21090.23
446.3985, 21013.69
446.8806, 20937.37
447.3628, 20862.20
447.8449, 20788.12
448.3270, 20713.57
448.8091, 20642.95
449.2912, 20586.17
449.7733, 20544.15
450.2555, 20514.05
450.7375, 20524.40
451.2197, 20528.15
451.7018, 20480.41
452.1839, 20374.80
452.6660, 20262.64
453.1481, 20182.96
453.6302, 20131.25
454.1124, 20089.15
454.5945, 20057.88
455.0766, 20028.11
455.5587, 19993.37
456.0408, 19954.24
456.5229, 19911.38
457.0051, 19861.62
457.4872, 19810.37
457.9693, 19760.52
458.4514, 19712.53
458.9335, 19668.83
459.4156, 19629.30
459.8978, 19596.29
460.3799, 19578.92
460.8620, 19588.99
461.3441, 19589.54
461.8262, 19572.23
462.3083, 19543.20
462.7905, 19502.01
463.2726, 19451.40
463.7547, 19410.28
464.2368, 19403.40
464.7189, 19439.60
465.2010, 19431.12
465.6832, 19331.68
466.1653, 19239.77
466.6474, 19178.25
467.1295, 19147.50
467.6116, 19150.09
468.0938, 19190.48
468.5759, 19245.13
469.0580, 19258.21
469.5401, 19214.59
470.0222, 19172.48
470.5043, 19131.36
470.9865, 19102.77
471.4686, 19101.70
471.9507, 19126.14
472.4328, 19149.79
472.9149, 19147.58
473.3970, 19128.16
473.8792, 19128.62
474.3613, 19161.63
474.8434, 19180.95
475.3255, 19135.82
475.8076, 19057.63
476.2897, 19011.81
476.7719, 19021.26
477.2540, 19048.40
477.7361, 19074.64
478.2182, 19098.56
478.7003, 19115.51
479.1824, 19123.58
479.6646, 19125.28
480.1467, 19124.24
480.6288, 19120.94
481.1109, 19113.12
481.5930, 19096.80
482.0751, 19079.00
482.5573, 19065.97
483.0394, 19056.55
483.5215, 19043.87
484.0036, 19021.99
484.4857, 18993.31
484.9678, 18974.23
485.4500, 18975.73
485.9321, 18972.21
486.4142, 18949.22
486.8963, 18925.79
487.3784, 18923.82
487.8605, 18947.52
488.3427, 18977.29
488.8248, 18985.71
489.3069, 18971.05
489.7890, 18979.81
490.2711, 19036.41
490.7532, 19087.13
491.2354, 19084.79
491.7175, 19055.17
492.1996, 19060.97
492.6817, 19149.82
493.1638, 19260.44
493.6459, 19310.35
494.1281, 19305.09
494.6102, 19323.28
495.0923, 19404.18
495.5744, 19512.26
496.0565, 19584.51
496.5386, 19616.83
497.0208, 19644.08
497.5029, 19654.61
497.9850, 19675.63
498.4671, 19747.02
498.9492, 19864.84
499.4313, 19979.08
499.9135, 20047.06
500.3956, 20073.23
500.8777, 20121.86
501.3598, 20229.18
501.8419, 20315.06
502.3240, 20349.27
502.8062, 20363.18
503.2883, 20393.25
503.7704, 20449.90
504.2525, 20515.89
504.7346, 20571.29
505.2167, 20615.57
505.6989, 20652.72
506.1810, 20692.43
506.6631, 20712.43
507.1452, 20699.88
507.6273, 20661.32
508.1094, 20609.68
508.5916, 20541.64
509.0737, 20473.99
509.5558, 20442.88
510.0379, 20446.15
510.5200, 20415.31
511.0021, 20316.69
511.4843, 20184.34
511.9664, 20063.98
512.4485, 19952.94
512.9306, 19863.04
513.4127, 19818.91
513.8948, 19783.81
514.3770, 19717.23
514.8591, 19620.15
515.3412, 19523.93
515.8233, 19451.03
516.3054, 19397.23
516.7875, 19337.42
517.2697, 19257.66
517.7518, 19188.92
518.2339, 19130.98
518.7160, 19086.94
519.1981, 19066.68
519.6802, 19068.52
520.1624, 19070.83
520.6445, 19047.98
521.1266, 18999.27
521.6087, 18954.47
522.0908, 18914.43
522.5729, 18877.70
523.0551, 18838.57
523.5372, 18803.17
524.0193, 18783.00
524.5014, 18785.63
524.9835, 18794.41
525.4656, 18793.25
525.9478, 18783.78
526.4299, 18774.65
526.9120, 18768.48
527.3941, 18762.33
527.8762, 18753.72
528.3583, 18742.86
528.8405, 18725.69
529.3226, 18696.72
529.8047, 18665.79
530.2868, 18636.74
530.7689, 18610.89
531.2510, 18591.77
531.7332, 18581.77
532.2153, 18575.66
532.6974, 18559.39
533.1795, 18518.51
533.6616, 18494.42
534.1437, 18487.75
534.6259, 18495.78
535.1080, 18534.90
535.5901, 18591.04
536.0722, 18620.03
536.5543, 18585.01
537.0364, 18502.93
537.5186, 18415.79
538.0007, 18310.13
538.4828, 18251.50
538.9649, 18307.96
539.4470, 18398.90
539.9291, 18425.75
540.4113, 18373.00
540.8934, 18322.47
541.3755, 18319.72
541.8576, 18342.32
542.3397, 18368.35
542.8218, 18393.31
543.3040, 18378.51
543.7861, 18279.05
544.2682, 18112.60
544.7503, 18033.72
545.2324, 18114.62
545.7145, 18180.20
546.1967, 18183.06
546.6788, 18160.96
547.1609, 18158.50
547.6430, 18183.62
548.1251, 18208.23
548.6072, 18198.86
549.0894, 18154.18
549.5715, 18118.12
550.0536, 18096.41
550.5357, 18075.50
551.0178, 18050.36
551.4999, 18022.93
551.9821, 17994.97
552.4642, 17966.37
552.9463, 17940.03
553.4284, 17913.55
553.9105, 17890.44
554.3926, 17889.75
554.8748, 17920.19
555.3569, 17953.55
555.8390, 17963.32
556.3211, 17949.11
556.8032, 17935.31
557.2853, 17927.56
557.7675, 17914.52
558.2496, 17883.45
558.7317, 17845.14
559.2138, 17819.75
559.6959, 17814.33
560.1780, 17817.74
560.6602, 17812.59
561.1423, 17795.04
561.6244, 17784.71
562.1065, 17794.38
562.5886, 17799.04
563.0707, 17783.91
563.5529, 17758.75
564.0350, 17742.94
564.5171, 17747.46
564.9992, 17756.76
565.4813, 17753.41
565.9634, 17737.30
566.4456, 17702.74
566.9277, 17638.93
567.4098, 17572.49
567.8919, 17531.23
568.3740, 17512.95
568.8561, 17505.79
569.3383, 17527.24
569.8204, 17541.45
570.3025, 17512.39
570.7846, 17457.95
571.2667, 17424.54
571.7488, 17431.79
572.2310, 17458.39
572.7131, 17466.00
573.1952, 17445.38
573.6773, 17430.55
574.1594, 17432.27
574.6415, 17428.87
575.1237, 17406.67
575.6058, 17372.54
576.0879, 17342.87
576.5700, 17327.71
577.0521, 17315.01
577.5342, 17277.89
578.0164, 17216.16
578.4985, 17182.68
578.9806, 17204.51
579.4627, 17236.42
579.9448, 17223.48
580.4269, 17171.87
580.9091, 17136.74
581.3912, 17143.56
581.8733, 17156.52
582.3554, 17148.35
582.8375, 17126.36
583.3196, 17113.77
583.8018, 17120.85
584.2839, 17131.76
584.7660, 17117.58
585.2481, 17067.24
585.7302, 17023.28
586.2123, 16978.84
586.6945, 16946.98
587.1766, 16941.15
587.6587, 16950.87
588.1408, 16957.44
588.6229, 16954.14
589.1050, 16938.34
589.5872, 16901.46
590.0693, 16844.16
590.5514, 16790.70
591.0335, 16745.37
591.5156, 16705.96
591.9977, 16666.17
592.4799, 16627.73
592.9620, 16610.34
593.4441, 16645.03
593.9262, 16673.54
594.4083, 16654.41
594.8904, 16605.42
595.3726, 16561.30
595.8547, 16534.53
596.3368, 16519.74
596.8189, 16510.53
597.3010, 16508.46
597.7831, 16504.25
598.2653, 16496.10
598.7474, 16487.53
599.2295, 16483.50
599.7116, 16478.66
600.1937, 16466.05
600.6758, 16444.08
601.1580, 16410.01
601.6401, 16347.79
602.1222, 16267.23
602.6043, 16220.25
603.0864, 16220.65
603.5685, 16234.75
604.0507, 16240.59
604.5328, 16236.59
605.0149, 16216.71
605.4970, 16151.97
605.9791, 16105.46
606.4612, 16125.12
606.9434, 16163.83
607.4255, 16151.20
607.9076, 16076.83
608.3897, 15997.65
