##NAMES=Baryte
##RRUFFID=R050342
##IDEAL CHEMISTRY=BaS^6+^O_4_
##LOCALITY=Palos Verdes, Los Angeles County, California, USA
##OWNER=RRUFF
##SOURCE=California Institute of Technology
##DESCRIPTION=Light brown fragment
##STATUS=The identification of this mineral has been confirmed by X-ray diffraction and chemical analysis
##URL=rruff.info/R050342
##MEASURED CHEMISTRY=Ba_1.00_S_1.00_O_4_
130.4407, 5904.808
130.9229, 5924.571
131.4050, 5971.391
131.8871, 6060.654
132.3692, 6180.274
132.8513, 6308.969
133.3334, 6437.871
133.8156, 6531.878
134.2977, 6582.495
134.7798, 6613.342
135.2619, 6638.037
135.7440, 6658.528
136.2261, 6675.529
136.7083, 6691.056
137.1904, 6702.643
137.6725, 6720.838
138.1546, 6764.530
138.6367, 6842.213
139.1188, 6899.291
139.6010, 6916.395
140.0831, 6893.523
140.5652, 6886.714
141.0473, 6901.237
141.5294, 6923.864
142.0115, 6934.716
142.4937, 6923.798
142.9758, 6924.740
143.4579, 6954.305
143.9400, 7024.867
144.4221, 7059.496
144.9042, 7038.547
145.3864, 6993.118
145.8685, 6977.137
146.3506, 7004.693
146.8327, 7041.496
147.3148, 7079.143
147.7969, 7125.119
148.2791, 7154.042
148.7612, 7149.478
149.2433, 7129.477
149.7254, 7136.333
150.2075, 7208.993
150.6896, 7274.673
151.1718, 7305.806
151.6539, 7273.483
152.1360, 7249.824
152.6181, 7241.960
153.1002, 7244.612
153.5823, 7241.999
154.0645, 7229.664
154.5466, 7214.206
155.0287, 7198.492
155.5108, 7175.782
155.9929, 7160.758
156.4750, 7161.051
156.9572, 7172.434
157.4393, 7177.956
157.9214, 7165.233
158.4035, 7150.798
158.8856, 7144.913
159.3677, 7161.369
159.8499, 7175.038
160.3320, 7175.818
160.8141, 7166.128
161.2962, 7160.318
161.7783, 7169.086
162.2604, 7181.390
162.7426, 7188.118
163.2247, 7179.885
163.7068, 7171.452
164.1889, 7170.820
164.6710, 7177.409
165.1531, 7182.146
165.6353, 7177.849
166.1174, 7170.238
166.5995, 7165.467
167.0816, 7166.985
167.5637, 7170.970
168.0458, 7173.925
168.5280, 7175.750
169.0101, 7181.416
169.4922, 7198.592
169.9743, 7220.606
170.4564, 7238.050
170.9385, 7241.832
171.4207, 7242.534
171.9028, 7252.393
172.3849, 7272.425
172.8670, 7287.861
173.3491, 7281.555
173.8312, 7262.816
174.3134, 7249.407
174.7955, 7251.612
175.2776, 7262.608
175.7597, 7274.438
176.2418, 7286.652
176.7239, 7301.595
177.2061, 7327.376
177.6882, 7358.978
178.1703, 7382.250
178.6524, 7389.210
179.1345, 7384.081
179.6166, 7372.522
180.0988, 7354.094
180.5809, 7332.787
181.0630, 7306.176
181.5451, 7277.862
182.0272, 7263.484
182.5093, 7278.161
182.9915, 7312.253
183.4736, 7344.206
183.9557, 7373.977
184.4378, 7397.218
184.9199, 7401.042
185.4020, 7388.811
185.8842, 7385.278
186.3663, 7415.161
186.8484, 7467.005
187.3305, 7497.458
187.8126, 7501.679
188.2947, 7489.052
188.7769, 7471.223
189.2590, 7448.412
189.7411, 7424.600
190.2232, 7396.520
190.7053, 7366.962
191.1874, 7355.077
191.6696, 7365.949
192.1517, 7388.080
192.6338, 7401.570
193.1159, 7406.301
193.5980, 7406.465
194.0801, 7402.124
194.5623, 7393.827
195.0444, 7390.150
195.5265, 7393.116
196.0086, 7399.194
196.4907, 7397.674
196.9728, 7386.674
197.4550, 7383.298
197.9371, 7406.067
198.4192, 7455.704
198.9013, 7483.923
199.3834, 7483.386
199.8655, 7462.525
200.3477, 7437.880
200.8298, 7407.514
201.3119, 7382.568
201.7940, 7369.305
202.2761, 7368.049
202.7582, 7377.481
203.2404, 7403.771
203.7225, 7436.184
204.2046, 7440.149
204.6867, 7407.621
205.1688, 7374.432
205.6509, 7363.603
206.1331, 7377.806
206.6152, 7397.345
207.0973, 7424.050
207.5794, 7453.283
208.0615, 7468.916
208.5436, 7466.641
209.0258, 7462.137
209.5079, 7466.303
209.9900, 7482.036
210.4721, 7491.807
210.9542, 7491.336
211.4363, 7484.842
211.9185, 7487.759
212.4006, 7503.785
212.8827, 7521.126
213.3648, 7532.451
213.8469, 7536.954
214.3290, 7538.344
214.8112, 7534.930
215.2933, 7528.941
215.7754, 7527.640
216.2575, 7529.719
216.7396, 7538.869
217.2217, 7560.931
217.7038, 7605.404
218.1860, 7632.669
218.6681, 7635.184
219.1502, 7619.288
219.6323, 7606.766
220.1144, 7596.364
220.5965, 7591.800
221.0787, 7597.503
221.5608, 7620.729
222.0429, 7634.428
222.5250, 7634.725
223.0071, 7624.704
223.4892, 7613.924
223.9714, 7596.996
224.4535, 7587.795
224.9356, 7596.538
225.4177, 7635.639
225.8998, 7662.405
226.3819, 7671.893
226.8641, 7668.052
227.3462, 7663.104
227.8283, 7653.714
228.3104, 7648.154
228.7925, 7651.593
229.2746, 7669.410
229.7568, 7683.876
230.2389, 7693.063
230.7210, 7698.741
231.2031, 7706.089
231.6852, 7714.581
232.1673, 7725.387
232.6495, 7740.158
233.1316, 7764.449
233.6137, 7779.482
234.0958, 7779.190
234.5779, 7770.403
235.0600, 7774.381
235.5422, 7805.271
236.0243, 7828.554
236.5064, 7824.993
236.9885, 7770.131
237.4706, 7744.471
237.9527, 7763.629
238.4349, 7808.154
238.9170, 7827.324
239.3991, 7802.166
239.8812, 7780.061
240.3633, 7785.296
240.8454, 7842.093
241.3276, 7863.543
241.8097, 7828.383
242.2918, 7765.500
242.7739, 7739.633
243.2560, 7768.112
243.7381, 7806.923
244.2203, 7841.000
244.7024, 7870.813
245.1845, 7894.793
245.6666, 7913.538
246.1487, 7926.164
246.6308, 7929.785
247.1130, 7916.600
247.5951, 7907.261
248.0772, 7911.101
248.5593, 7934.420
249.0414, 7947.261
249.5235, 7944.768
250.0057, 7934.759
250.4878, 7930.095
250.9699, 7932.938
251.4520, 7937.065
251.9341, 7939.179
252.4162, 7936.962
252.8984, 7945.495
253.3805, 7972.960
253.8626, 8004.977
254.3447, 8018.052
254.8268, 8001.596
255.3089, 7988.229
255.7911, 7987.422
256.2732, 8000.278
256.7553, 8016.666
257.2374, 8038.963
257.7195, 8062.552
258.2017, 8083.476
258.6838, 8106.431
259.1659, 8115.712
259.6480, 8101.193
260.1301, 8061.348
260.6122, 8044.878
261.0944, 8063.805
261.5765, 8091.269
262.0586, 8098.014
262.5407, 8077.602
263.0228, 8053.912
263.5049, 8028.714
263.9871, 8002.462
264.4692, 7991.679
264.9513, 7998.712
265.4334, 8017.294
265.9155, 8045.047
266.3976, 8086.412
266.8798, 8119.691
267.3619, 8137.809
267.8440, 8143.423
268.3261, 8158.250
268.8082, 8186.436
269.2903, 8214.987
269.7725, 8236.094
270.2546, 8251.935
270.7367, 8246.529
271.2188, 8206.458
271.7009, 8145.344
272.1830, 8124.149
272.6652, 8153.027
273.1473, 8194.420
273.6294, 8225.825
274.1115, 8246.972
274.5936, 8256.924
275.0757, 8251.317
275.5579, 8237.485
276.0400, 8238.650
276.5221, 8258.287
277.0042, 8278.584
277.4863, 8289.267
277.9684, 8289.841
278.4506, 8284.784
278.9327, 8269.690
279.4148, 8255.063
279.8969, 8270.746
280.3790, 8322.479
280.8611, 8364.583
281.3433, 8365.038
281.8254, 8324.320
282.3075, 8304.584
282.7896, 8311.497
283.2717, 8331.161
283.7538, 8342.833
284.2360, 8346.361
284.7181, 8346.963
285.2002, 8344.625
285.6823, 8340.199
286.1644, 8342.491
286.6465, 8352.626
287.1287, 8365.120
287.6108, 8375.653
288.0929, 8383.847
288.5750, 8382.854
289.0571, 8361.020
289.5392, 8327.593
290.0214, 8325.221
290.5035, 8357.012
290.9856, 8393.799
291.4677, 8401.750
291.9498, 8385.568
292.4319, 8374.135
292.9141, 8376.953
293.3962, 8389.742
293.8783, 8408.107
294.3604, 8432.231
294.8425, 8446.361
295.3246, 8426.849
295.8068, 8384.488
296.2889, 8355.379
296.7710, 8348.397
297.2531, 8358.147
297.7352, 8382.479
298.2173, 8419.383
298.6995, 8452.592
299.1816, 8465.190
299.6637, 8465.718
300.1458, 8473.612
300.6279, 8496.336
301.1100, 8518.585
301.5922, 8514.593
302.0743, 8490.795
302.5564, 8473.593
303.0385, 8488.242
303.5206, 8515.675
304.0027, 8525.017
304.4849, 8507.517
304.9670, 8491.000
305.4491, 8512.303
305.9312, 8556.169
306.4133, 8586.034
306.8954, 8567.839
307.3776, 8535.467
307.8597, 8525.558
308.3418, 8542.211
308.8239, 8561.475
309.3060, 8568.626
309.7881, 8566.480
310.2703, 8559.242
310.7524, 8535.584
311.2345, 8517.098
311.7166, 8524.706
312.1987, 8557.668
312.6808, 8588.842
313.1630, 8605.290
313.6451, 8611.160
314.1272, 8610.831
314.6093, 8588.715
315.0914, 8576.494
315.5735, 8606.888
316.0557, 8668.574
316.5378, 8701.743
317.0199, 8643.501
317.5020, 8568.827
317.9841, 8533.435
318.4662, 8574.590
318.9484, 8620.493
319.4305, 8651.309
319.9126, 8669.524
320.3947, 8681.629
320.8768, 8696.308
321.3589, 8700.280
321.8411, 8681.147
322.3232, 8618.351
322.8053, 8579.997
323.2874, 8594.492
323.7695, 8638.454
324.2516, 8674.865
324.7338, 8702.962
325.2159, 8718.129
325.6980, 8714.677
326.1801, 8686.563
326.6622, 8666.199
327.1443, 8657.789
327.6265, 8657.146
328.1086, 8660.134
328.5907, 8665.437
329.0728, 8675.882
329.5549, 8697.542
330.0370, 8730.755
330.5192, 8746.530
331.0013, 8730.252
331.4834, 8709.132
331.9655, 8701.867
332.4476, 8715.533
332.9297, 8731.468
333.4119, 8751.537
333.8940, 8772.989
334.3761, 8782.116
334.8582, 8771.663
335.3403, 8759.951
335.8224, 8756.969
336.3046, 8766.992
336.7867, 8771.966
337.2688, 8768.442
337.7509, 8761.955
338.2330, 8766.755
338.7151, 8789.131
339.1973, 8802.601
339.6794, 8789.842
340.1615, 8748.638
340.6436, 8737.591
341.1257, 8765.269
341.6078, 8805.003
342.0899, 8823.518
342.5721, 8819.601
343.0542, 8808.016
343.5363, 8787.017
344.0184, 8762.408
344.5005, 8765.240
344.9826, 8799.197
345.4648, 8833.855
345.9469, 8829.844
346.4290, 8794.622
346.9111, 8791.759
347.3932, 8845.885
347.8753, 8921.021
348.3575, 8937.639
348.8396, 8900.762
349.3217, 8870.075
349.8038, 8901.321
350.2859, 8967.899
350.7680, 9001.978
351.2502, 8990.612
351.7323, 8965.079
352.2144, 8960.456
352.6965, 8971.210
353.1786, 8980.766
353.6607, 8986.007
354.1429, 8983.239
354.6250, 8958.239
355.1071, 8909.498
355.5892, 8875.653
356.0713, 8902.834
356.5534, 8960.848
357.0356, 9004.990
357.5177, 9013.066
357.9998, 9006.797
358.4819, 8998.128
358.9640, 8987.294
359.4461, 8975.737
359.9283, 8946.861
360.4104, 8926.767
360.8925, 8941.708
361.3746, 9024.785
361.8567, 9096.010
362.3388, 9114.113
362.8210, 9095.948
363.3031, 9080.425
363.7852, 9084.738
364.2673, 9090.280
364.7494, 9087.014
365.2315, 9070.313
365.7137, 9057.917
366.1958, 9053.488
366.6779, 9055.208
367.1600, 9060.907
367.6421, 9074.447
368.1242, 9087.742
368.6064, 9102.014
369.0885, 9117.721
369.5706, 9121.716
370.0527, 9094.344
370.5348, 9070.571
371.0169, 9076.062
371.4991, 9148.984
371.9812, 9184.908
372.4633, 9158.941
372.9454, 9091.775
373.4275, 9056.872
373.9096, 9063.934
374.3918, 9086.023
374.8739, 9114.319
375.3560, 9153.489
375.8381, 9179.142
376.3202, 9189.243
376.8023, 9188.095
377.2845, 9179.198
377.7666, 9160.404
378.2487, 9145.385
378.7308, 9137.558
379.2129, 9137.044
379.6950, 9149.310
380.1772, 9176.937
380.6593, 9204.263
381.1414, 9212.704
381.6235, 9204.853
382.1056, 9207.019
382.5877, 9227.977
383.0699, 9257.001
383.5520, 9277.379
384.0341, 9289.018
384.5162, 9289.000
384.9983, 9265.498
385.4804, 9230.364
385.9626, 9206.214
386.4447, 9193.963
386.9268, 9199.714
387.4089, 9252.840
387.8910, 9329.589
388.3731, 9375.287
388.8553, 9335.340
389.3374, 9272.277
389.8195, 9248.762
390.3016, 9263.616
390.7837, 9279.622
391.2658, 9265.988
391.7480, 9244.857
392.2301, 9240.139
392.7122, 9269.612
393.1943, 9301.282
393.6764, 9324.831
394.1585, 9339.472
394.6407, 9342.506
395.1228, 9316.984
395.6049, 9292.670
396.0870, 9284.862
396.5691, 9299.123
397.0512, 9318.067
397.5334, 9347.117
398.0155, 9376.358
398.4976, 9393.041
398.9797, 9377.873
399.4618, 9369.404
399.9439, 9380.489
400.4261, 9410.869
400.9082, 9424.333
401.3903, 9402.571
401.8724, 9380.995
402.3545, 9385.614
402.8366, 9440.803
403.3188, 9466.275
403.8009, 9442.408
404.2830, 9392.835
404.7651, 9381.455
405.2472, 9421.755
405.7293, 9462.129
406.2115, 9479.868
406.6936, 9474.097
407.1757, 9474.274
407.6578, 9481.828
408.1399, 9491.677
408.6220, 9497.290
409.1042, 9498.835
409.5863, 9502.967
410.0684, 9512.426
410.5505, 9524.810
411.0326, 9536.990
411.5147, 9548.815
411.9969, 9554.680
412.4790, 9544.000
412.9611, 9524.865
413.4432, 9516.733
413.9253, 9522.663
414.4074, 9537.781
414.8896, 9565.871
415.3717, 9599.597
415.8538, 9621.342
416.3359, 9609.685
416.8180, 9590.441
417.3001, 9588.354
417.7823, 9603.409
418.2644, 9619.042
418.7465, 9632.746
419.2286, 9639.216
419.7107, 9631.209
420.1928, 9581.245
420.6750, 9550.944
421.1571, 9584.951
421.6392, 9658.036
422.1213, 9703.984
422.6034, 9670.806
423.0855, 9636.374
423.5677, 9636.035
424.0498, 9684.759
424.5319, 9723.619
425.0140, 9750.968
425.4961, 9765.584
425.9782, 9764.988
426.4604, 9726.246
426.9425, 9706.396
427.4246, 9717.037
427.9067, 9754.754
428.3888, 9796.051
428.8709, 9845.241
429.3531, 9890.346
429.8352, 9921.992
430.3173, 9934.547
430.7994, 9963.475
431.2815, 10017.83
431.7636, 10075.33
432.2458, 10089.94
432.7279, 10058.06
433.2100, 10041.47
433.6921, 10062.72
434.1742, 10115.89
434.6563, 10184.78
435.1385, 10270.79
435.6206, 10354.74
436.1027, 10423.32
436.5848, 10477.35
437.0669, 10514.11
437.5490, 10524.95
438.0312, 10539.57
438.5133, 10591.31
438.9954, 10674.62
439.4775, 10773.89
439.9596, 10888.86
440.4417, 11011.55
440.9239, 11133.55
441.4060, 11254.48
441.8881, 11383.56
442.3702, 11516.74
442.8523, 11663.34
443.3344, 11833.31
443.8166, 12028.65
444.2987, 12248.26
444.7808, 12518.62
445.2629, 12816.41
445.7450, 13075.50
446.2271, 13219.09
446.7093, 13370.35
447.1914, 13578.22
447.6735, 13862.09
448.1556, 14147.25
448.6377, 14439.15
449.1198, 14725.85
449.6020, 14994.87
450.0841, 15232.20
450.5662, 15471.83
451.0483, 15728.85
451.5304, 15992.39
452.0125, 16204.20
452.4947, 16356.66
452.9768, 16486.41
453.4589, 16604.04
453.9410, 16709.66
454.4231, 16842.34
454.9052, 17002.10
455.3874, 17196.72
455.8695, 17436.24
456.3516, 17722.01
456.8337, 18053.65
457.3158, 18438.03
457.7979, 18867.04
458.2801, 19362.99
458.7622, 19910.12
459.2443, 20414.44
459.7264, 20883.00
460.2085, 21238.48
460.6906, 21386.67
461.1728, 21325.08
461.6549, 21010.41
462.1370, 20340.66
462.6191, 19415.59
463.1012, 18393.52
463.5833, 17191.53
464.0655, 16035.79
464.5476, 15005.77
465.0297, 14111.00
465.5118, 13368.13
465.9939, 12869.85
466.4760, 12477.64
466.9582, 12118.79
467.4403, 11758.22
467.9224, 11478.49
468.4045, 11313.09
468.8866, 11215.07
469.3687, 11118.13
469.8509, 11026.21
470.3330, 10930.44
470.8151, 10822.72
471.2972, 10706.63
471.7793, 10622.91
472.2614, 10579.59
472.7436, 10544.87
473.2257, 10490.78
473.7078, 10416.47
474.1899, 10372.67
474.6720, 10369.59
475.1541, 10379.28
475.6363, 10354.86
476.1184, 10302.44
476.6005, 10261.78
477.0826, 10255.97
477.5647, 10267.15
478.0468, 10265.09
478.5290, 10251.14
479.0111, 10237.55
479.4932, 10236.54
479.9753, 10239.25
480.4574, 10234.31
480.9395, 10217.53
481.4217, 10200.17
481.9038, 10183.47
482.3859, 10172.03
482.8680, 10172.95
483.3501, 10201.45
483.8322, 10230.04
484.3144, 10254.14
484.7965, 10272.17
485.2786, 10271.89
485.7607, 10222.34
486.2428, 10176.82
486.7249, 10164.85
487.2071, 10215.75
487.6892, 10236.35
488.1713, 10211.60
488.6534, 10167.23
489.1355, 10140.00
489.6176, 10134.31
490.0998, 10134.24
490.5819, 10139.54
491.0640, 10147.39
491.5461, 10137.00
492.0282, 10104.72
492.5103, 10081.93
492.9925, 10103.13
493.4746, 10156.87
493.9567, 10178.12
494.4388, 10158.43
494.9209, 10127.85
495.4030, 10121.94
495.8852, 10131.93
496.3673, 10135.29
496.8494, 10114.57
497.3315, 10091.89
497.8136, 10091.21
498.2957, 10107.82
498.7779, 10122.72
499.2600, 10119.94
499.7421, 10116.14
500.2242, 10124.29
500.7063, 10148.87
501.1884, 10172.96
501.6706, 10188.49
502.1527, 10202.50
502.6348, 10221.84
503.1169, 10269.25
503.5990, 10295.83
504.0811, 10287.73
504.5633, 10254.35
505.0454, 10230.06
505.5275, 10220.53
506.0096, 10210.86
506.4917, 10191.97
506.9738, 10161.42
507.4560, 10150.90
507.9381, 10164.28
508.4202, 10187.03
508.9023, 10205.65
509.3844, 10220.31
509.8665, 10233.65
510.3487, 10245.78
510.8308, 10257.55
511.3129, 10271.95
511.7950, 10287.92
512.2772, 10300.25
512.7593, 10303.90
513.2414, 10303.68
513.7235, 10310.86
514.2056, 10324.49
514.6877, 10322.80
515.1699, 10259.25
515.6520, 10190.87
516.1341, 10176.70
516.6162, 10267.34
517.0983, 10338.48
517.5804, 10326.40
518.0626, 10273.54
518.5447, 10249.56
519.0268, 10307.02
519.5089, 10349.74
519.9910, 10350.09
520.4731, 10311.28
520.9553, 10282.03
521.4374, 10261.52
521.9195, 10252.26
522.4016, 10257.10
522.8837, 10278.03
523.3658, 10306.95
523.8480, 10350.92
524.3301, 10388.10
524.8122, 10376.81
525.2943, 10321.20
525.7764, 10288.66
526.2585, 10306.69
526.7407, 10347.46
527.2228, 10358.81
527.7049, 10345.27
528.1870, 10333.00
528.6691, 10341.17
529.1512, 10357.42
529.6334, 10367.38
530.1155, 10369.88
530.5976, 10370.24
531.0797, 10364.40
531.5618, 10361.20
532.0439, 10370.27
532.5261, 10407.95
533.0082, 10437.80
533.4903, 10450.53
533.9724, 10449.34
534.4545, 10441.25
534.9366, 10414.58
535.4188, 10395.16
535.9009, 10388.90
536.3830, 10395.76
536.8651, 10412.11
537.3472, 10443.80
537.8293, 10473.82
538.3115, 10491.57
538.7936, 10496.94
539.2757, 10490.31
539.7578, 10467.46
540.2399, 10444.96
540.7220, 10450.00
541.2042, 10477.49
541.6863, 10497.64
542.1684, 10495.78
542.6505, 10488.69
543.1326, 10505.12
543.6147, 10538.69
544.0969, 10565.55
544.5790, 10561.22
545.0611, 10550.64
545.5432, 10562.16
546.0253, 10599.92
546.5074, 10615.82
546.9896, 10560.90
547.4717, 10491.65
547.9538, 10454.16
548.4359, 10486.72
548.9180, 10509.72
549.4001, 10510.19
549.8823, 10499.71
550.3644, 10497.48
550.8465, 10505.69
551.3286, 10518.47
551.8107, 10535.60
552.2928, 10556.51
552.7750, 10580.36
553.2571, 10611.07
553.7392, 10626.62
554.2213, 10595.19
554.7034, 10530.03
555.1855, 10513.80
555.6677, 10555.10
556.1498, 10610.05
556.6319, 10639.47
557.1140, 10647.22
557.5961, 10638.91
558.0782, 10608.09
558.5604, 10575.12
559.0425, 10549.50
559.5246, 10534.35
560.0067, 10537.14
560.4888, 10592.75
560.9709, 10638.15
561.4531, 10633.04
561.9352, 10576.65
562.4173, 10542.39
562.8994, 10566.10
563.3815, 10593.31
563.8636, 10594.73
564.3458, 10554.03
564.8279, 10533.01
565.3100, 10538.82
565.7921, 10555.16
566.2742, 10560.44
566.7563, 10553.35
567.2385, 10548.64
567.7206, 10548.73
568.2027, 10553.99
568.6848, 10564.54
569.1669, 10580.63
569.6490, 10603.19
570.1312, 10641.83
570.6133, 10683.38
571.0954, 10708.82
571.5775, 10718.35
572.0596, 10717.35
572.5417, 10698.72
573.0239, 10677.46
573.5060, 10666.91
573.9881, 10671.10
574.4702, 10681.12
574.9523, 10700.32
575.4344, 10721.91
575.9166, 10737.09
576.3987, 10741.46
576.8808, 10745.17
577.3629, 10752.19
577.8450, 10759.02
578.3271, 10751.44
578.8093, 10722.42
579.2914, 10699.57
579.7735, 10694.44
580.2556, 10705.53
580.7377, 10723.41
581.2198, 10748.20
581.7020, 10776.26
582.1841, 10810.31
582.6662, 10844.59
583.1483, 10866.28
583.6304, 10873.23
584.1125, 10867.76
584.5947, 10844.47
585.0768, 10812.16
585.5589, 10783.45
586.0410, 10753.36
586.5231, 10738.58
587.0052, 10758.23
587.4873, 10799.81
587.9694, 10829.05
588.4515, 10833.33
588.9337, 10831.13
589.4158, 10823.88
589.8979, 10811.51
590.3800, 10814.26
590.8621, 10840.89
591.3442, 10866.96
591.8264, 10873.61
592.3085, 10858.83
592.7906, 10854.54
593.2727, 10862.32
593.7548, 10877.52
594.2369, 10898.58
594.7191, 10923.23
595.2012, 10942.52
595.6833, 10953.08
596.1654, 10959.88
596.6475, 10964.42
597.1296, 10969.43
597.6118, 10981.32
598.0939, 11013.53
598.5760, 11044.34
599.0581, 11057.12
599.5402, 11054.44
600.0223, 11062.41
600.5045, 11101.97
600.9866, 11140.68
601.4687, 11160.96
601.9508, 11154.39
602.4329, 11167.58
602.9150, 11207.38
603.3972, 11257.38
603.8793, 11304.52
604.3614, 11349.13
604.8435, 11389.20
605.3256, 11424.01
605.8077, 11453.99
606.2899, 11470.83
606.7720, 11479.96
607.2541, 11507.28
607.7362, 11567.71
608.2183, 11645.13
608.7004, 11722.89
609.1826, 11801.86
609.6647, 11882.26
610.1468, 11948.44
610.6289, 12030.67
611.1110, 12160.87
611.5931, 12344.30
612.0753, 12495.51
612.5574, 12566.06
613.0395, 12625.95
613.5216, 12718.48
614.0037, 12871.77
614.4858, 12986.96
614.9680, 13056.66
615.4501, 13098.16
615.9322, 13144.24
616.4143, 13198.85
616.8964, 13176.94
617.3785, 13048.40
617.8607, 12862.25
618.3428, 12693.64
618.8249, 12539.58
619.3070, 12387.48
619.7891, 12208.43
620.2712, 12045.04
620.7534, 11947.28
621.2355, 11905.52
621.7176, 11879.09
622.1997, 11855.29
622.6818, 11835.64
623.1639, 11820.99
623.6461, 11811.71
624.1282, 11806.24
624.6103, 11805.45
625.0924, 11807.48
625.5745, 11810.57
626.0566, 11812.17
626.5388, 11824.07
627.0209, 11852.26
627.5030, 11880.31
