##NAMES=Bastnasite-(Ce)
##RRUFFID=R060737
##IDEAL CHEMISTRY=CeCO_3_F
##LOCALITY=Zagi Mountain, near Hammedabad, Khaffor Dehri, NW Frontier Provence, Pakistan
##OWNER=RRUFF
##SOURCE=Herb Obodda
##DESCRIPTION=Reddish-brown fragment
##STATUS=The identification of this mineral has been confirmed by X-ray diffraction and chemical analysis
##URL=rruff.info/R060737
##MEASURED CHEMISTRY=(Ce_0.55_Nd_0.27_La_0.18_)_Î£=1_CO_3_F_1.00_
83.436, 0.000
83.918, 86.616
84.400, 83.741
84.882, 81.902
85.364, 81.000
85.846, 80.948
86.329, 82.735
86.811, 84.605
87.293, 84.601
87.775, 82.560
88.257, 82.424
88.739, 89.831
89.221, 101.087
89.703, 109.166
90.185, 109.041
90.668, 104.244
91.150, 98.655
91.632, 92.183
92.114, 86.354
92.596, 83.020
93.078, 82.003
93.560, 82.071
94.042, 82.793
94.525, 83.989
95.007, 84.965
95.489, 85.356
95.971, 85.518
96.453, 86.356
96.935, 87.868
97.417, 90.067
97.899, 94.088
98.381, 100.177
98.864, 103.498
99.346, 101.313
99.828, 93.470
100.310, 86.662
100.792, 80.111
101.274, 75.374
101.756, 76.253
102.238, 84.494
102.720, 94.213
103.203, 103.277
103.685, 112.629
104.167, 118.003
104.649, 116.241
105.131, 109.104
105.613, 110.222
106.095, 123.092
106.577, 141.176
107.060, 159.372
107.542, 175.185
108.024, 194.242
108.506, 216.312
108.988, 240.309
109.470, 272.321
109.952, 306.528
110.434, 350.393
110.916, 411.927
111.399, 499.180
111.881, 597.806
112.363, 704.899
112.845, 826.760
113.327, 942.979
113.809, 1056.628
114.291, 1163.519
114.773, 1254.782
115.256, 1316.365
115.738, 1368.015
116.220, 1419.960
116.702, 1458.879
117.184, 1514.448
117.666, 1600.003
118.148, 1713.865
118.630, 1843.623
119.112, 1989.200
119.595, 2144.533
120.077, 2302.378
120.559, 2474.676
121.041, 2638.123
121.523, 2783.982
122.005, 2912.414
122.487, 3008.398
122.969, 3061.917
123.451, 3074.192
123.934, 3046.791
124.416, 2965.556
124.898, 2849.962
125.380, 2720.344
125.862, 2573.122
126.344, 2428.032
126.826, 2304.934
127.308, 2204.106
127.790, 2119.935
128.273, 2050.901
128.755, 1996.422
129.237, 1957.010
129.719, 1936.655
130.201, 1928.427
130.683, 1918.693
131.165, 1907.206
131.648, 1897.098
132.130, 1892.732
132.612, 1893.421
133.094, 1892.834
133.576, 1889.091
134.058, 1882.276
134.540, 1872.394
135.022, 1858.346
135.504, 1843.844
135.986, 1833.699
136.469, 1827.873
136.951, 1826.724
137.433, 1832.083
137.915, 1844.778
138.397, 1855.954
138.879, 1866.864
139.361, 1875.191
139.843, 1872.663
140.326, 1853.443
140.808, 1837.334
141.290, 1837.285
141.772, 1859.179
142.254, 1879.295
142.736, 1894.338
143.218, 1905.392
143.700, 1919.623
144.182, 1936.018
144.665, 1956.642
145.147, 1982.589
145.629, 2013.030
146.111, 2050.746
146.593, 2098.931
147.075, 2160.151
147.557, 2213.192
148.039, 2253.559
148.521, 2287.626
149.004, 2323.282
149.486, 2362.619
149.968, 2400.849
150.450, 2437.315
150.932, 2471.699
151.414, 2504.595
151.896, 2525.206
152.378, 2545.479
152.861, 2586.874
153.343, 2652.149
153.825, 2738.065
154.307, 2843.322
154.789, 2971.172
155.271, 3115.447
155.753, 3296.832
156.235, 3498.697
156.717, 3669.032
157.200, 3818.375
157.682, 3922.378
158.164, 3967.051
158.646, 3899.792
159.128, 3821.231
159.610, 3747.129
160.092, 3678.845
160.574, 3630.119
161.057, 3625.270
161.539, 3633.930
162.021, 3628.275
162.503, 3606.342
162.985, 3562.266
163.467, 3493.277
163.949, 3399.723
164.431, 3282.065
164.913, 3117.366
165.396, 2933.376
165.878, 2768.032
166.360, 2646.482
166.842, 2542.958
167.324, 2439.567
167.806, 2332.632
168.288, 2233.913
168.770, 2148.142
169.253, 2075.223
169.735, 2014.667
170.217, 1972.594
170.699, 1940.458
171.181, 1910.050
171.663, 1878.956
172.145, 1851.720
172.627, 1833.697
173.109, 1823.225
173.592, 1813.665
174.074, 1798.878
174.556, 1782.886
175.038, 1771.865
175.520, 1768.188
176.002, 1768.577
176.484, 1770.815
176.966, 1774.556
177.449, 1777.191
177.931, 1773.897
178.413, 1768.028
178.895, 1767.093
179.377, 1778.063
179.859, 1792.527
180.341, 1794.218
180.823, 1782.931
181.305, 1772.661
181.788, 1777.546
182.270, 1794.573
182.752, 1813.687
183.234, 1829.710
183.716, 1845.156
184.198, 1867.508
184.680, 1897.822
185.162, 1928.039
185.645, 1947.164
186.127, 1956.686
186.609, 1967.705
187.091, 1982.697
187.573, 2002.778
188.055, 2034.482
188.537, 2081.481
189.019, 2131.367
189.501, 2167.491
189.984, 2190.345
190.466, 2205.608
190.948, 2221.010
191.430, 2234.272
191.912, 2224.551
192.394, 2186.795
192.876, 2131.046
193.358, 2073.985
193.840, 2015.639
194.323, 1959.183
194.805, 1906.006
195.287, 1856.210
195.769, 1813.332
196.251, 1777.133
196.733, 1748.068
197.215, 1729.362
197.697, 1722.285
198.180, 1717.932
198.662, 1708.850
199.144, 1694.455
199.626, 1683.037
200.108, 1674.970
200.590, 1671.097
201.072, 1676.637
201.554, 1693.408
202.036, 1713.705
202.519, 1730.518
203.001, 1743.209
203.483, 1756.421
203.965, 1770.984
204.447, 1786.893
204.929, 1803.583
205.411, 1820.989
205.893, 1839.341
206.376, 1862.506
206.858, 1894.878
207.340, 1912.425
207.822, 1904.048
208.304, 1869.250
208.786, 1845.485
209.268, 1835.630
209.750, 1833.037
210.232, 1830.104
210.714, 1827.490
211.197, 1822.718
211.679, 1813.373
212.161, 1798.110
212.643, 1789.999
213.125, 1788.872
213.607, 1795.226
214.089, 1810.033
214.572, 1833.745
215.054, 1865.128
215.536, 1906.437
216.018, 1962.680
216.500, 2005.975
216.982, 2029.284
217.464, 2043.850
217.946, 2073.016
218.428, 2122.371
218.911, 2174.119
219.393, 2220.263
219.875, 2256.306
220.357, 2299.044
220.839, 2352.607
221.321, 2411.005
221.803, 2460.398
222.285, 2492.090
222.767, 2529.248
223.250, 2583.910
223.732, 2665.948
224.214, 2741.804
224.696, 2809.339
225.178, 2870.363
225.660, 2934.175
226.142, 2997.595
226.624, 3067.885
227.107, 3149.445
227.589, 3250.172
228.071, 3344.672
228.553, 3424.147
229.035, 3496.217
229.517, 3597.542
229.999, 3748.331
230.481, 3903.544
230.963, 4035.281
231.445, 4132.795
231.928, 4231.984
232.410, 4336.617
232.892, 4446.673
233.374, 4551.833
233.856, 4651.325
234.338, 4747.569
234.820, 4844.580
235.303, 4949.161
235.785, 5039.373
236.267, 5108.823
236.749, 5160.188
237.231, 5214.638
237.713, 5273.126
238.195, 5332.958
238.677, 5391.970
239.159, 5449.411
239.641, 5507.095
240.124, 5563.326
240.606, 5618.522
241.088, 5685.377
241.570, 5762.493
242.052, 5851.916
242.534, 5955.687
243.016, 6077.303
243.498, 6206.317
243.981, 6339.053
244.463, 6475.625
244.945, 6629.089
245.427, 6801.076
245.909, 6987.901
246.391, 7187.238
246.873, 7393.180
247.355, 7622.278
247.837, 7878.369
248.320, 8161.281
248.802, 8463.200
249.284, 8788.784
249.766, 9124.061
250.248, 9457.221
250.730, 9778.325
251.212, 10117.160
251.694, 10478.730
252.176, 10859.960
252.659, 11273.000
253.141, 11732.170
253.623, 12209.220
254.105, 12687.700
254.587, 13173.780
255.069, 13640.120
255.551, 14087.520
256.033, 14513.310
256.516, 14900.430
256.998, 15263.860
257.480, 15573.150
257.962, 15795.080
258.444, 15916.960
258.926, 15984.180
259.408, 16010.290
259.890, 15995.440
260.372, 15904.850
260.855, 15727.750
261.337, 15484.710
261.819, 15194.440
262.301, 14845.260
262.783, 14470.110
263.265, 14064.290
263.747, 13630.550
264.229, 13209.780
264.711, 12805.340
265.194, 12414.490
265.676, 12037.900
266.158, 11679.820
266.640, 11336.820
267.122, 11005.560
267.604, 10683.680
268.086, 10419.260
268.569, 10221.860
269.051, 10062.700
269.533, 9907.460
270.015, 9750.133
270.497, 9620.633
270.979, 9531.275
271.461, 9480.354
271.943, 9435.608
272.425, 9399.724
272.908, 9365.293
273.390, 9331.095
273.872, 9303.543
274.354, 9245.746
274.836, 9146.684
275.318, 9007.570
275.800, 8842.337
276.282, 8650.638
276.764, 8434.048
277.247, 8188.038
277.729, 7910.084
278.211, 7618.485
278.693, 7309.150
279.175, 6986.342
279.657, 6681.704
280.139, 6396.176
280.621, 6125.558
281.103, 5864.515
281.586, 5612.710
282.068, 5377.267
282.550, 5159.949
283.032, 4960.571
283.514, 4779.617
283.996, 4618.280
284.478, 4470.249
284.960, 4331.843
285.443, 4202.447
285.925, 4075.331
286.407, 3946.231
286.889, 3818.903
287.371, 3710.985
287.853, 3624.237
288.335, 3542.814
288.817, 3448.559
289.299, 3343.794
289.782, 3249.217
290.264, 3176.931
290.746, 3115.985
291.228, 3027.891
291.710, 2910.382
292.192, 2831.949
292.674, 2810.011
293.156, 2774.355
293.638, 2725.726
294.121, 2625.248
294.603, 2591.707
295.085, 2531.351
295.567, 2469.894
296.049, 2445.785
296.531, 2377.750
297.013, 2326.808
297.496, 2278.207
297.978, 2224.632
298.460, 2171.939
298.942, 2131.566
299.424, 2102.339
299.906, 2076.135
300.388, 2047.146
300.870, 2016.925
301.352, 1989.311
301.835, 1965.651
302.317, 1943.880
302.799, 1922.620
303.281, 1901.508
303.763, 1877.983
304.245, 1847.184
304.727, 1813.856
305.209, 1785.099
305.691, 1761.690
306.174, 1743.686
306.656, 1735.482
307.138, 1733.606
307.620, 1726.191
308.102, 1698.228
308.584, 1664.899
309.066, 1642.939
309.548, 1637.783
310.030, 1636.925
310.513, 1635.069
310.995, 1630.907
311.477, 1621.293
311.959, 1599.107
312.441, 1574.171
312.923, 1553.975
313.405, 1539.661
313.887, 1529.795
314.370, 1529.271
314.852, 1532.098
315.334, 1527.214
315.816, 1498.488
316.298, 1469.488
316.780, 1454.500
317.262, 1458.149
317.744, 1463.127
318.226, 1461.153
318.709, 1456.810
319.191, 1456.460
319.673, 1468.239
320.155, 1479.053
320.637, 1482.021
321.119, 1474.919
321.601, 1471.264
322.083, 1477.430
322.565, 1487.519
323.048, 1495.166
323.530, 1493.660
324.012, 1494.952
324.494, 1502.155
324.976, 1515.651
325.458, 1532.181
325.940, 1558.508
326.422, 1584.194
326.905, 1600.524
327.387, 1590.584
327.869, 1589.004
328.351, 1604.777
328.833, 1637.543
329.315, 1663.493
329.797, 1678.359
330.279, 1689.556
330.762, 1702.113
331.244, 1716.105
331.726, 1731.344
332.208, 1747.025
332.690, 1763.680
333.172, 1784.926
333.654, 1810.281
334.136, 1840.575
334.618, 1878.262
335.100, 1928.889
335.583, 1971.908
336.065, 2004.485
336.547, 2028.808
337.029, 2050.990
337.511, 2067.039
337.993, 2090.078
338.475, 2128.850
338.957, 2186.001
339.440, 2242.398
339.922, 2297.444
340.404, 2351.198
340.886, 2403.538
341.368, 2452.729
341.850, 2507.854
342.332, 2575.805
342.814, 2657.061
343.297, 2726.177
343.779, 2779.968
344.261, 2830.898
344.743, 2902.672
345.225, 2994.512
345.707, 3079.207
346.189, 3143.920
346.671, 3192.367
347.153, 3243.694
347.635, 3298.143
348.118, 3351.844
348.600, 3407.085
349.082, 3460.157
349.564, 3496.484
350.046, 3507.692
350.528, 3500.793
351.010, 3487.127
351.492, 3466.752
351.975, 3441.042
352.457, 3414.162
352.939, 3382.609
353.421, 3338.999
353.903, 3276.581
354.385, 3207.049
354.867, 3140.899
355.349, 3077.939
355.832, 3016.904
356.314, 2959.702
356.796, 2902.893
357.278, 2842.198
357.760, 2771.764
358.242, 2706.712
358.724, 2659.833
359.206, 2625.813
359.688, 2591.014
360.171, 2550.153
360.653, 2505.669
361.135, 2458.267
361.617, 2406.438
362.099, 2356.410
362.581, 2307.611
363.063, 2262.165
363.545, 2223.359
364.027, 2199.007
364.510, 2175.357
364.992, 2146.425
365.474, 2110.531
365.956, 2076.743
366.438, 2049.741
366.920, 2024.691
367.402, 1996.461
367.884, 1956.091
368.366, 1921.587
368.849, 1900.303
369.331, 1892.443
369.813, 1874.643
370.295, 1838.474
370.777, 1799.333
371.259, 1767.393
371.741, 1742.903
372.224, 1726.100
372.706, 1720.220
373.188, 1722.455
373.670, 1718.841
374.152, 1705.585
374.634, 1693.104
375.116, 1686.995
375.598, 1687.781
376.080, 1692.942
376.562, 1703.657
377.045, 1717.389
377.527, 1727.726
378.009, 1733.603
378.491, 1742.239
378.973, 1758.008
379.455, 1780.794
379.937, 1801.932
380.419, 1821.424
380.902, 1840.038
381.384, 1857.067
381.866, 1873.060
382.348, 1894.799
382.830, 1925.473
383.312, 1963.486
383.794, 2004.507
384.276, 2048.370
384.759, 2094.850
385.241, 2141.586
385.723, 2190.686
386.205, 2245.884
386.687, 2311.408
387.169, 2379.952
387.651, 2438.669
388.133, 2489.996
388.615, 2547.685
389.098, 2623.213
389.580, 2708.344
390.062, 2793.427
390.544, 2879.115
391.026, 2962.118
391.508, 3043.194
391.990, 3119.891
392.472, 3188.536
392.954, 3241.808
393.437, 3290.246
393.919, 3340.645
394.401, 3394.009
394.883, 3443.866
395.365, 3495.596
395.847, 3539.663
396.329, 3565.262
396.811, 3560.678
397.293, 3546.923
397.776, 3526.292
398.258, 3498.999
398.740, 3472.690
399.222, 3467.306
399.704, 3449.730
400.186, 3398.534
400.668, 3279.746
401.151, 3177.687
401.633, 3101.174
402.115, 3044.971
402.597, 2990.691
403.079, 2944.954
403.561, 2890.352
404.043, 2814.840
404.525, 2708.840
405.007, 2620.964
405.490, 2556.256
405.972, 2503.308
406.454, 2443.170
406.936, 2374.302
407.418, 2306.490
407.900, 2242.234
408.382, 2182.087
408.864, 2127.350
409.346, 2078.863
409.828, 2030.774
410.311, 1974.383
410.793, 1912.390
411.275, 1858.504
411.757, 1818.655
412.239, 1786.231
412.721, 1748.703
413.203, 1706.650
413.685, 1666.406
414.168, 1633.401
414.650, 1604.488
415.132, 1575.435
415.614, 1544.967
416.096, 1515.254
416.578, 1486.894
417.060, 1460.248
417.542, 1436.461
418.025, 1422.859
418.507, 1407.362
418.989, 1377.165
419.471, 1330.152
419.953, 1291.773
420.435, 1282.434
420.917, 1283.654
421.399, 1277.099
421.881, 1246.621
422.364, 1219.940
422.846, 1207.914
423.328, 1207.930
423.810, 1201.327
424.292, 1180.641
424.774, 1156.662
425.256, 1134.708
425.738, 1114.356
426.220, 1096.449
426.703, 1081.536
427.185, 1068.712
427.667, 1056.504
428.149, 1044.771
428.631, 1034.003
429.113, 1025.204
429.595, 1018.814
430.077, 1006.486
430.560, 985.274
431.042, 964.127
431.524, 954.909
432.006, 958.653
432.488, 960.375
432.970, 957.683
433.452, 950.200
433.934, 933.188
434.417, 906.602
434.899, 883.344
435.381, 876.070
435.863, 879.628
436.345, 877.915
436.827, 867.513
437.309, 856.460
437.791, 856.199
438.273, 863.180
438.755, 867.849
439.238, 865.597
439.720, 858.770
440.202, 846.874
440.684, 829.933
441.166, 817.431
441.648, 821.544
442.130, 830.534
442.612, 832.277
443.095, 816.754
443.577, 800.347
444.059, 787.466
444.541, 777.999
445.023, 771.523
445.505, 772.235
445.987, 772.534
446.469, 768.293
446.952, 755.341
447.434, 746.536
447.916, 747.364
448.398, 750.364
448.880, 744.710
449.362, 723.063
449.844, 704.625
450.326, 693.624
450.808, 689.819
451.290, 690.118
451.773, 696.396
452.255, 702.772
452.737, 703.746
453.219, 698.631
453.701, 696.196
454.183, 698.993
454.665, 702.914
455.147, 698.587
455.630, 686.286
456.112, 673.714
456.594, 664.140
457.076, 657.491
457.558, 654.651
458.040, 655.899
458.522, 657.962
459.004, 657.535
459.487, 655.724
459.969, 654.697
460.451, 656.012
460.933, 657.592
461.415, 658.359
461.897, 658.090
462.379, 655.777
462.861, 646.030
463.343, 637.159
463.826, 636.303
464.308, 648.281
464.790, 658.375
465.272, 662.969
465.754, 662.761
466.236, 658.904
466.718, 643.823
467.200, 633.065
467.682, 633.837
468.165, 646.353
468.647, 648.669
469.129, 630.784
469.611, 612.945
470.093, 610.171
470.575, 629.960
471.057, 642.882
471.539, 645.045
472.022, 640.396
472.504, 637.899
472.986, 637.984
473.468, 637.571
473.950, 634.737
474.432, 630.021
474.914, 628.074
475.396, 629.509
475.878, 629.011
476.361, 616.409
476.843, 596.828
477.325, 587.424
477.807, 596.862
478.289, 612.056
478.771, 618.931
479.253, 618.555
479.735, 614.862
480.217, 605.329
480.700, 596.315
481.182, 595.025
481.664, 603.848
482.146, 610.562
482.628, 605.842
483.110, 597.106
483.592, 592.863
484.074, 601.373
484.556, 608.160
485.039, 608.222
485.521, 602.366
486.003, 598.729
486.485, 598.937
486.967, 600.110
487.449, 601.302
487.931, 603.653
488.414, 602.811
488.896, 597.068
489.378, 589.856
489.860, 586.227
490.342, 586.739
490.824, 588.557
491.306, 591.928
491.788, 595.883
492.270, 595.339
492.753, 589.991
493.235, 584.197
493.717, 582.121
494.199, 582.454
494.681, 581.204
495.163, 577.644
495.645, 572.992
496.127, 567.640
496.609, 562.191
497.092, 558.370
497.574, 557.128
498.056, 557.627
498.538, 559.993
499.020, 564.070
499.502, 567.466
499.984, 569.845
500.466, 570.693
500.948, 569.309
501.431, 562.137
501.913, 558.165
502.395, 560.268
502.877, 566.444
503.359, 572.944
503.841, 584.440
504.323, 590.118
504.805, 584.864
505.288, 568.294
505.770, 557.779
506.252, 554.173
506.734, 554.951
507.216, 559.784
507.698, 569.533
508.180, 574.553
508.662, 573.013
509.145, 567.557
509.627, 561.668
510.109, 555.566
510.591, 551.753
511.073, 552.844
511.555, 556.661
512.037, 559.842
512.519, 562.333
513.001, 562.216
513.484, 553.814
513.966, 543.505
514.448, 540.099
514.930, 549.528
515.412, 558.840
515.894, 560.902
516.376, 557.768
516.858, 553.600
517.341, 548.820
517.823, 543.990
518.305, 537.982
518.787, 530.151
519.269, 528.094
519.751, 536.565
520.233, 547.308
520.715, 555.301
521.197, 561.888
521.680, 562.122
522.162, 552.433
522.644, 538.762
523.126, 535.281
523.608, 544.004
524.090, 550.248
524.572, 546.984
525.054, 536.638
525.536, 528.688
526.019, 523.070
526.501, 521.143
526.983, 528.099
527.465, 539.253
527.947, 543.087
528.429, 535.090
528.911, 525.990
529.393, 525.946
529.875, 531.990
530.358, 538.352
530.840, 546.267
531.322, 550.524
531.804, 545.499
532.286, 531.641
532.768, 521.824
533.250, 522.354
533.732, 525.765
534.214, 527.606
534.697, 526.825
535.179, 525.581
535.661, 521.926
536.143, 518.881
536.625, 521.946
537.107, 534.004
537.589, 544.621
538.071, 551.861
538.554, 555.555
539.036, 552.262
539.518, 540.839
540.000, 531.666
540.482, 535.993
540.964, 549.338
541.446, 553.912
541.928, 546.570
542.411, 538.330
542.893, 543.236
543.375, 555.778
543.857, 564.730
544.339, 562.945
544.821, 558.673
545.303, 557.078
545.785, 557.667
546.268, 558.390
546.750, 559.579
547.232, 559.782
547.714, 557.199
548.196, 549.473
548.678, 546.817
549.160, 553.106
549.642, 562.994
550.124, 572.395
550.606, 583.815
551.089, 588.986
551.571, 584.499
552.053, 574.282
552.535, 569.765
553.017, 571.444
553.499, 575.400
553.981, 580.904
554.463, 587.356
554.945, 592.015
555.428, 594.902
555.910, 595.768
556.392, 591.200
556.874, 585.065
557.356, 585.459
557.838, 596.667
558.320, 608.657
558.802, 613.457
559.284, 613.369
559.767, 612.909
560.249, 612.439
560.731, 613.242
561.213, 616.482
561.695, 622.068
562.177, 626.988
562.659, 632.750
563.141, 636.113
563.624, 634.336
564.106, 621.942
564.588, 619.649
565.070, 632.460
565.552, 649.554
566.034, 654.502
566.516, 645.386
566.998, 640.308
567.481, 645.050
567.963, 655.362
568.445, 660.006
568.927, 659.624
569.409, 661.766
569.891, 674.345
570.373, 691.107
570.855, 702.213
571.338, 707.056
571.820, 709.641
572.302, 709.966
572.784, 710.827
573.266, 715.479
573.748, 728.930
574.230, 740.065
574.712, 739.880
575.194, 735.503
575.677, 742.313
576.159, 779.859
576.641, 806.514
577.123, 807.253
577.605, 784.076
578.087, 781.112
578.569, 805.059
579.051, 834.157
579.533, 854.877
580.016, 867.241
580.498, 875.397
580.980, 878.028
581.462, 882.436
581.944, 901.389
582.426, 930.392
582.908, 953.342
583.390, 959.444
583.872, 964.205
584.355, 985.680
584.837, 1019.203
585.319, 1051.098
585.801, 1075.431
586.283, 1095.154
586.765, 1110.950
587.247, 1122.429
587.729, 1134.260
588.211, 1144.944
588.694, 1157.999
589.176, 1176.171
589.658, 1205.352
590.140, 1227.984
590.622, 1241.586
591.104, 1250.497
591.586, 1261.625
592.068, 1275.312
592.551, 1288.961
593.033, 1301.449
593.515, 1313.664
593.997, 1328.816
594.479, 1346.598
594.961, 1363.552
595.443, 1376.327
595.925, 1387.562
596.407, 1401.785
596.890, 1419.657
597.372, 1435.812
597.854, 1447.456
598.336, 1455.573
598.818, 1461.068
599.300, 1463.146
599.782, 1464.005
600.265, 1461.215
600.747, 1457.977
601.229, 1460.825
601.711, 1474.799
602.193, 1487.081
602.675, 1493.546
603.157, 1495.484
603.639, 1504.193
604.121, 1522.487
604.604, 1535.500
605.086, 1531.369
605.568, 1512.862
606.050, 1496.647
606.532, 1483.690
607.014, 1470.838
607.496, 1455.573
607.978, 1438.047
608.460, 1418.911
608.943, 1398.207
609.425, 1375.797
609.907, 1352.741
610.389, 1327.587
610.871, 1297.379
611.353, 1254.086
611.835, 1212.960
612.317, 1178.156
612.799, 1150.036
613.282, 1126.132
613.764, 1111.503
614.246, 1094.489
614.728, 1068.050
615.210, 1030.408
615.692, 998.609
616.174, 973.251
616.656, 951.012
617.138, 928.521
617.621, 906.063
618.103, 884.273
