##NAMES=Bastnasite-(Ce)
##RRUFFID=R060550
##IDEAL CHEMISTRY=CeCO_3_F
##LOCALITY=Zagni Mountains, Pakistan
##OWNER=RRUFF
##SOURCE=Gemological Institute of America
##DESCRIPTION=Brown water worn pebble
##STATUS=The identification of this mineral has been confirmed by X-ray diffraction and chemical analysis
##URL=rruff.info/R060550
##MEASURED CHEMISTRY=(Ce_0.56_(La,Pr)_0.26_Nd_0.18_)_Î£=1_CO_3_F_1.00_
98.380, 530.627
98.862, 532.791
99.344, 542.268
99.826, 559.109
100.309, 582.931
100.791, 615.180
101.273, 654.158
101.755, 693.026
102.237, 729.157
102.719, 769.461
103.201, 819.156
103.683, 875.699
104.165, 945.362
104.648, 1026.250
105.130, 1117.784
105.612, 1232.914
106.094, 1363.112
106.576, 1523.041
107.058, 1731.072
107.540, 1975.021
108.022, 2283.050
108.505, 2665.829
108.987, 3106.770
109.469, 3648.259
109.951, 4272.212
110.433, 4988.696
110.915, 5838.015
111.397, 6832.406
111.879, 7941.078
112.362, 9168.727
112.844, 10720.750
113.326, 12161.420
113.808, 13563.320
114.290, 14887.260
114.772, 15737.430
115.254, 15825.240
115.736, 15486.650
116.218, 14998.700
116.701, 14170.230
117.183, 13433.620
117.665, 12957.320
118.147, 12754.510
118.629, 12741.560
119.111, 12927.380
119.593, 13275.290
120.075, 13725.330
120.558, 14327.850
121.040, 14980.950
121.522, 15648.620
122.004, 16374.170
122.486, 16954.211
122.968, 17287.760
123.450, 17362.670
123.932, 17144.619
124.414, 16504.850
124.897, 15586.480
125.379, 14562.900
125.861, 13416.830
126.343, 12272.630
126.825, 11267.100
127.307, 10398.840
127.789, 9647.994
128.271, 9016.309
128.753, 8495.606
129.236, 8074.132
129.718, 7763.441
130.200, 7544.540
130.682, 7380.061
131.164, 7272.917
131.646, 7208.891
132.128, 7175.700
132.610, 7173.493
133.093, 7200.968
133.575, 7269.800
134.057, 7374.225
134.539, 7466.479
135.021, 7540.650
135.503, 7613.719
135.985, 7715.014
136.467, 7847.860
136.949, 7992.390
137.432, 8133.767
137.914, 8269.789
138.396, 8432.248
138.878, 8622.337
139.360, 8839.125
139.842, 9074.712
140.324, 9320.275
140.806, 9602.028
141.288, 9938.924
141.771, 10341.820
142.253, 10774.110
142.735, 11224.590
143.217, 11698.820
143.699, 12212.760
144.181, 12773.880
144.663, 13372.100
145.145, 14014.530
145.628, 14693.390
146.110, 15421.330
146.592, 16210.510
147.074, 17086.680
147.556, 17911.510
148.038, 18734.770
148.520, 19492.900
149.002, 20096.980
149.484, 20578.051
149.967, 20884.949
150.449, 20989.270
150.931, 20813.240
151.413, 20600.650
151.895, 20270.570
152.377, 19906.109
152.859, 19684.939
153.342, 19582.900
153.824, 19648.660
154.306, 19901.500
154.788, 20342.180
155.270, 20969.250
155.752, 21799.141
156.234, 22822.289
156.716, 24015.859
157.198, 25340.881
157.680, 26848.359
158.163, 28554.350
158.645, 30419.641
159.127, 32530.529
159.609, 35006.949
160.091, 37812.328
160.573, 40630.840
161.055, 43676.270
161.538, 46529.820
162.020, 48780.422
162.502, 50700.012
162.984, 51649.340
163.466, 51211.129
163.948, 49350.191
164.430, 46756.930
164.912, 43363.012
165.394, 39542.941
165.876, 35789.129
166.359, 32100.420
166.841, 28680.420
167.323, 25671.369
167.805, 23099.689
168.287, 20845.840
168.769, 18895.600
169.251, 17231.670
169.733, 15798.930
170.216, 14633.570
170.698, 13659.650
171.180, 12817.810
171.662, 12107.690
172.144, 11498.950
172.626, 10968.420
173.108, 10516.420
173.590, 10128.020
174.072, 9809.999
174.555, 9547.852
175.037, 9316.953
175.519, 9110.277
176.001, 8936.946
176.483, 8808.458
176.965, 8722.946
177.447, 8677.470
177.929, 8686.038
178.412, 8731.189
178.894, 8782.874
179.376, 8842.340
179.858, 8895.049
180.340, 8927.225
180.822, 8937.875
181.304, 8912.995
181.786, 8842.536
182.268, 8727.629
182.751, 8568.123
183.233, 8340.260
183.715, 8078.412
184.197, 7857.011
184.679, 7675.067
185.161, 7520.418
185.643, 7387.000
186.125, 7273.141
186.607, 7156.884
187.090, 7031.382
187.572, 6898.674
188.054, 6764.293
188.536, 6630.724
189.018, 6488.776
189.500, 6322.118
189.982, 6135.061
190.464, 5951.042
190.947, 5779.180
191.429, 5618.746
191.911, 5476.973
192.393, 5356.396
192.875, 5248.455
193.357, 5135.721
193.839, 5019.274
194.321, 4915.104
194.803, 4834.218
195.286, 4775.842
195.768, 4716.723
196.250, 4654.128
196.732, 4593.412
197.214, 4542.179
197.696, 4500.202
198.178, 4471.162
198.661, 4460.347
199.143, 4468.245
199.625, 4476.783
200.107, 4486.041
200.589, 4493.985
201.071, 4493.256
201.553, 4481.433
202.035, 4470.967
202.517, 4470.000
202.999, 4479.204
203.482, 4490.607
203.964, 4501.400
204.446, 4514.314
204.928, 4543.641
205.410, 4596.173
205.892, 4645.203
206.374, 4669.206
206.857, 4664.664
207.339, 4653.852
207.821, 4638.244
208.303, 4618.719
208.785, 4598.630
209.267, 4574.271
209.749, 4557.175
210.231, 4559.417
210.713, 4586.325
211.195, 4612.179
211.678, 4632.329
212.160, 4647.506
212.642, 4663.601
213.124, 4679.749
213.606, 4698.961
214.088, 4721.664
214.570, 4743.956
215.052, 4783.313
215.535, 4849.934
216.017, 4943.939
216.499, 5018.443
216.981, 5065.105
217.463, 5103.727
217.945, 5155.765
218.427, 5222.714
218.909, 5296.133
219.391, 5372.555
219.874, 5451.787
220.356, 5542.257
220.838, 5651.310
221.320, 5762.875
221.802, 5853.270
222.284, 5910.259
222.766, 5972.546
223.248, 6050.543
223.731, 6147.136
224.213, 6243.659
224.695, 6337.470
225.177, 6434.517
225.659, 6546.590
226.141, 6681.485
226.623, 6815.604
227.105, 6939.625
227.587, 7048.333
228.070, 7170.924
228.552, 7301.937
229.034, 7449.842
229.516, 7626.295
229.998, 7836.838
230.480, 8065.696
230.962, 8306.389
231.444, 8553.785
231.926, 8829.032
232.409, 9130.969
232.891, 9458.112
233.373, 9813.395
233.855, 10197.000
234.337, 10605.850
234.819, 11038.810
235.301, 11497.480
235.783, 11989.150
236.266, 12512.090
236.748, 13069.010
237.230, 13661.020
237.712, 14287.340
238.194, 14964.030
238.676, 15688.580
239.158, 16458.539
239.640, 17297.221
240.122, 18215.340
240.605, 19198.180
241.087, 20208.850
241.569, 21242.420
242.051, 22335.301
242.533, 23495.061
243.015, 24740.820
243.497, 26020.850
243.980, 27333.811
244.462, 28681.699
244.944, 30072.891
245.426, 31527.789
245.908, 32993.078
246.390, 34450.961
246.872, 35874.500
247.354, 37324.801
247.836, 38804.898
248.318, 40296.852
248.801, 41746.930
249.283, 43152.160
249.765, 44515.949
250.247, 45835.602
250.729, 47066.211
251.211, 48343.180
251.693, 49684.988
252.176, 51058.379
252.658, 52376.512
253.140, 53669.070
253.622, 54866.762
254.104, 55967.969
254.586, 57001.238
255.068, 57862.070
255.550, 58610.359
256.032, 59160.031
256.514, 59298.238
256.997, 59026.230
257.479, 58339.961
257.961, 57211.570
258.443, 55553.820
258.925, 53648.238
259.407, 51416.199
259.889, 48955.191
260.371, 46417.172
260.854, 43729.398
261.336, 41091.930
261.818, 38550.641
262.300, 36106.051
262.782, 33803.672
263.264, 31656.391
263.746, 29640.350
264.228, 27757.330
264.711, 25987.789
265.193, 24360.650
265.675, 22874.449
266.157, 21552.039
266.639, 20330.160
267.121, 19233.131
267.603, 18244.881
268.085, 17327.010
268.567, 16487.789
269.050, 15719.300
269.532, 15034.630
270.014, 14447.760
270.496, 13876.440
270.978, 13319.830
271.460, 12793.170
271.942, 12329.700
272.424, 11943.450
272.906, 11582.130
273.389, 11215.410
273.871, 10840.500
274.353, 10497.610
274.835, 10196.060
275.317, 9920.906
275.799, 9643.626
276.281, 9363.489
276.763, 9091.178
277.246, 8834.882
277.728, 8596.623
278.210, 8347.533
278.692, 8080.566
279.174, 7815.717
279.656, 7584.226
280.138, 7388.757
280.620, 7202.855
281.103, 7011.760
281.585, 6815.958
282.067, 6641.370
282.549, 6490.416
283.031, 6354.260
283.513, 6218.615
283.995, 6083.425
284.477, 5951.289
284.959, 5818.134
285.441, 5686.294
285.924, 5581.214
286.406, 5508.557
286.888, 5444.087
287.370, 5349.468
287.852, 5226.590
288.334, 5116.443
288.816, 5041.354
289.298, 4994.493
289.781, 4941.145
290.263, 4879.484
290.745, 4820.833
291.227, 4786.601
291.709, 4771.915
292.191, 4745.898
292.673, 4681.161
293.155, 4597.998
293.638, 4559.120
294.120, 4568.207
294.602, 4587.405
295.084, 4573.537
295.566, 4535.041
296.048, 4505.084
296.530, 4499.324
297.012, 4508.172
297.494, 4514.671
297.977, 4519.000
298.459, 4520.781
298.941, 4516.595
299.423, 4509.528
299.905, 4506.998
300.387, 4509.892
300.869, 4519.744
301.351, 4542.436
301.833, 4577.319
302.316, 4611.509
302.798, 4630.649
303.280, 4642.324
303.762, 4660.591
304.244, 4694.288
304.726, 4731.129
305.208, 4754.977
305.690, 4767.696
306.173, 4783.080
306.655, 4813.099
307.137, 4850.303
307.619, 4885.369
308.101, 4916.291
308.583, 4943.744
309.065, 4964.445
309.547, 4980.829
310.030, 5001.599
310.512, 5030.676
310.994, 5067.331
311.476, 5111.358
311.958, 5164.727
312.440, 5221.773
312.922, 5277.811
313.404, 5334.924
313.886, 5399.598
314.369, 5479.267
314.851, 5565.349
315.333, 5648.188
315.815, 5720.711
316.297, 5804.441
316.779, 5909.694
317.261, 6031.987
317.743, 6164.427
318.225, 6304.737
318.708, 6453.978
319.190, 6608.730
319.672, 6764.688
320.154, 6942.018
320.636, 7155.122
321.118, 7391.501
321.600, 7632.155
322.082, 7854.559
322.565, 8097.613
323.047, 8377.678
323.529, 8705.281
324.011, 9033.519
324.493, 9349.739
324.975, 9665.208
325.457, 9992.741
325.939, 10319.570
326.422, 10672.300
326.904, 11072.050
327.386, 11528.310
327.868, 11948.970
328.350, 12296.360
328.832, 12630.550
329.314, 13003.600
329.796, 13463.280
330.278, 13901.330
330.760, 14286.170
331.243, 14618.750
331.725, 14987.960
332.207, 15392.130
332.689, 15836.820
333.171, 16322.100
333.653, 16857.939
334.135, 17422.490
334.617, 18007.131
335.100, 18618.730
335.582, 19258.250
336.064, 19905.949
336.546, 20612.551
337.028, 21419.721
337.510, 22341.320
337.992, 23280.740
338.474, 24235.900
338.957, 25203.939
339.439, 26184.391
339.921, 27168.400
340.403, 28184.000
340.885, 29255.801
341.367, 30399.279
341.849, 31459.189
342.331, 32423.750
342.813, 33335.871
343.296, 34303.039
343.778, 35326.512
344.260, 36265.871
344.742, 37038.020
345.224, 37663.379
345.706, 38222.699
346.188, 38723.301
346.670, 39155.879
347.152, 39515.770
347.635, 39802.422
348.117, 40009.738
348.599, 40154.160
349.081, 40211.898
349.563, 40115.020
350.045, 39862.309
350.527, 39503.891
351.009, 39091.160
351.491, 38611.129
351.974, 38037.660
352.456, 37332.410
352.938, 36549.570
353.420, 35746.039
353.902, 34924.109
354.384, 34069.539
354.866, 33150.602
355.349, 32212.891
355.831, 31301.609
356.313, 30432.711
356.795, 29587.721
357.277, 28749.180
357.759, 27919.391
358.241, 27127.561
358.723, 26391.490
359.205, 25697.820
359.688, 25026.141
360.170, 24368.529
360.652, 23748.869
361.134, 23191.520
361.616, 22677.289
362.098, 22173.850
362.580, 21664.660
363.062, 21168.061
363.544, 20698.930
364.027, 20268.039
364.509, 19803.869
364.991, 19264.740
365.473, 18690.730
365.955, 18131.789
366.437, 17619.631
366.919, 17091.051
367.401, 16524.039
367.884, 15914.110
368.366, 15339.300
368.848, 14826.370
369.330, 14334.320
369.812, 13830.330
370.294, 13279.890
370.776, 12763.370
371.258, 12299.590
371.741, 11879.270
372.223, 11481.910
372.705, 11117.060
373.187, 10760.920
373.669, 10393.230
374.151, 9994.741
374.633, 9638.130
375.115, 9328.733
375.597, 9055.369
376.079, 8793.985
376.562, 8542.769
377.044, 8303.508
377.526, 8082.780
378.008, 7879.234
378.490, 7670.494
378.972, 7449.149
379.454, 7236.443
379.936, 7057.131
380.419, 6912.163
380.901, 6767.905
381.383, 6612.962
381.865, 6451.923
382.347, 6300.642
382.829, 6157.590
383.311, 6031.421
383.793, 5938.859
384.276, 5870.526
384.758, 5794.727
385.240, 5699.059
385.722, 5600.840
386.204, 5524.441
386.686, 5466.833
387.168, 5412.059
387.650, 5346.390
388.132, 5277.439
388.615, 5204.440
389.097, 5112.658
389.579, 5064.260
390.061, 5015.274
390.543, 5005.850
391.025, 4986.823
391.507, 4958.701
391.989, 4894.283
392.471, 4876.744
392.954, 4840.417
393.436, 4803.321
393.918, 4792.380
394.400, 4750.671
394.882, 4669.753
395.364, 4599.833
395.846, 4538.546
396.328, 4490.058
396.810, 4453.037
397.293, 4408.577
397.775, 4342.153
398.257, 4275.120
398.739, 4219.390
399.221, 4192.368
399.703, 4156.484
400.185, 4108.570
400.668, 4051.724
401.150, 3993.967
401.632, 3934.641
402.114, 3875.071
402.596, 3813.460
403.078, 3744.966
403.560, 3695.269
404.042, 3672.766
404.524, 3659.387
405.007, 3628.528
405.489, 3575.152
405.971, 3524.595
406.453, 3485.141
406.935, 3454.898
407.417, 3419.467
407.899, 3378.075
408.381, 3335.854
408.863, 3296.937
409.346, 3261.094
409.828, 3227.243
410.310, 3193.716
410.792, 3163.604
411.274, 3145.603
411.756, 3138.589
412.238, 3132.192
412.720, 3120.574
413.203, 3105.057
413.685, 3086.837
414.167, 3065.226
414.649, 3044.864
415.131, 3030.425
415.613, 3020.409
416.095, 3012.096
416.577, 3007.697
417.060, 3001.953
417.542, 2989.047
418.024, 2969.268
418.506, 2949.917
418.988, 2933.869
419.470, 2920.939
419.952, 2911.449
420.434, 2909.327
420.916, 2905.856
421.398, 2897.520
421.881, 2885.557
422.363, 2873.731
422.845, 2864.122
423.327, 2854.090
423.809, 2842.698
424.291, 2830.487
424.773, 2815.668
425.255, 2794.439
425.738, 2772.237
426.220, 2756.386
426.702, 2752.003
427.184, 2746.753
427.666, 2738.838
428.148, 2728.254
428.630, 2711.460
429.112, 2686.872
429.595, 2658.739
430.077, 2629.829
430.559, 2599.368
431.041, 2572.000
431.523, 2548.445
432.005, 2527.527
432.487, 2506.073
432.969, 2484.014
433.451, 2462.380
433.934, 2443.122
434.416, 2425.147
434.898, 2402.525
435.380, 2374.340
435.862, 2345.169
436.344, 2319.510
436.826, 2297.123
437.308, 2277.330
437.790, 2262.594
438.273, 2248.471
438.755, 2227.874
439.237, 2201.708
439.719, 2177.796
440.201, 2165.558
440.683, 2156.337
441.165, 2139.939
441.647, 2108.857
442.129, 2080.267
442.612, 2067.812
443.094, 2064.418
443.576, 2055.145
444.058, 2029.415
444.540, 2001.599
445.022, 1976.982
445.504, 1955.769
445.987, 1938.762
446.469, 1930.761
446.951, 1924.598
447.433, 1913.279
447.915, 1890.146
448.397, 1871.192
448.879, 1859.825
449.361, 1854.571
449.843, 1847.158
450.326, 1837.826
450.808, 1825.805
451.290, 1809.384
451.772, 1786.544
452.254, 1768.750
452.736, 1756.286
453.218, 1748.985
453.700, 1749.995
454.182, 1759.951
454.665, 1763.601
455.147, 1752.869
455.629, 1732.221
456.111, 1715.992
456.593, 1704.413
457.075, 1694.039
457.557, 1683.923
458.039, 1672.740
458.522, 1656.987
459.004, 1633.606
459.486, 1609.940
459.968, 1591.801
460.450, 1579.190
460.932, 1572.634
461.414, 1578.089
461.896, 1585.757
462.379, 1588.106
462.861, 1584.264
463.343, 1578.242
463.825, 1570.774
464.307, 1562.403
464.789, 1553.684
465.271, 1546.544
465.753, 1536.994
466.235, 1521.661
466.717, 1502.308
467.200, 1487.274
467.682, 1479.841
468.164, 1474.330
468.646, 1468.497
469.128, 1461.508
469.610, 1456.582
470.092, 1455.497
470.574, 1454.850
471.057, 1448.700
471.539, 1434.278
472.021, 1425.020
472.503, 1426.896
472.985, 1436.625
473.467, 1435.859
473.949, 1423.536
474.431, 1408.065
474.914, 1393.213
475.396, 1380.018
475.878, 1375.413
476.360, 1382.275
476.842, 1391.420
477.324, 1390.312
477.806, 1381.503
478.288, 1373.121
478.770, 1369.891
479.253, 1368.423
479.735, 1366.215
480.217, 1363.120
480.699, 1357.285
481.181, 1342.715
481.663, 1327.300
482.145, 1318.466
482.627, 1321.415
483.109, 1325.818
483.592, 1330.352
484.074, 1333.893
484.556, 1333.910
485.038, 1323.618
485.520, 1315.558
486.002, 1315.521
486.484, 1325.272
486.966, 1329.710
487.448, 1325.210
487.931, 1318.761
488.413, 1316.684
488.895, 1321.231
489.377, 1320.263
489.859, 1308.328
490.341, 1315.742
490.823, 1318.458
491.306, 1316.731
491.788, 1297.248
492.270, 1300.693
492.752, 1294.949
493.234, 1288.829
493.716, 1295.500
494.198, 1287.127
494.680, 1286.778
495.162, 1289.544
495.645, 1288.323
496.127, 1278.708
496.609, 1267.490
497.091, 1261.930
497.573, 1260.731
498.055, 1259.295
498.537, 1252.789
499.019, 1246.822
499.501, 1246.203
499.984, 1252.501
500.466, 1257.933
500.948, 1259.882
501.430, 1259.594
501.912, 1258.325
502.394, 1255.038
502.876, 1252.286
503.358, 1252.413
503.841, 1253.835
504.323, 1249.033
504.805, 1231.786
505.287, 1217.026
505.769, 1212.796
506.251, 1221.925
506.733, 1223.031
507.215, 1212.638
507.698, 1200.892
508.180, 1202.627
508.662, 1217.997
509.144, 1228.390
509.626, 1228.669
510.108, 1221.918
510.590, 1214.148
511.072, 1205.354
511.554, 1195.618
512.036, 1179.774
512.519, 1164.882
513.001, 1164.217
513.483, 1180.544
513.965, 1197.475
514.447, 1205.335
514.929, 1205.957
515.411, 1201.694
515.893, 1188.676
516.375, 1175.574
516.858, 1165.446
517.340, 1157.870
517.822, 1151.422
518.304, 1144.215
518.786, 1139.302
519.268, 1139.286
519.750, 1147.027
520.232, 1148.862
520.715, 1141.638
521.197, 1131.270
521.679, 1123.610
522.161, 1119.150
522.643, 1116.171
523.125, 1114.899
523.607, 1114.608
524.089, 1113.263
524.571, 1110.877
525.054, 1107.584
525.536, 1102.364
526.018, 1096.212
526.500, 1093.926
526.982, 1096.006
527.464, 1096.334
527.946, 1085.338
528.429, 1069.135
528.911, 1058.922
529.393, 1060.259
529.875, 1065.227
530.357, 1067.877
530.839, 1069.620
531.321, 1073.930
531.803, 1089.348
532.286, 1101.674
532.768, 1101.608
533.250, 1086.366
533.732, 1075.613
534.214, 1076.342
534.696, 1079.639
535.178, 1078.658
535.660, 1067.026
536.142, 1063.309
536.625, 1071.646
537.107, 1086.778
537.589, 1097.487
538.071, 1103.545
538.553, 1106.143
539.035, 1104.787
539.517, 1100.199
539.999, 1095.975
540.481, 1091.981
540.964, 1089.654
541.446, 1091.419
541.928, 1095.698
542.410, 1098.069
542.892, 1096.892
543.374, 1096.672
543.856, 1103.250
544.338, 1113.757
544.820, 1122.636
545.303, 1124.885
545.785, 1127.047
546.267, 1133.792
546.749, 1144.444
547.231, 1152.378
547.713, 1157.170
548.195, 1157.697
548.677, 1151.565
549.159, 1129.344
549.642, 1122.671
550.124, 1141.963
550.606, 1168.673
551.088, 1178.784
551.570, 1165.225
552.052, 1157.221
552.534, 1162.136
553.016, 1175.880
553.499, 1184.395
553.981, 1187.459
554.463, 1190.109
554.945, 1194.340
555.427, 1200.429
555.909, 1210.805
556.391, 1225.928
556.873, 1239.017
557.356, 1240.555
557.838, 1236.992
558.320, 1238.409
558.802, 1251.620
559.284, 1263.847
559.766, 1263.703
560.248, 1257.392
560.730, 1258.429
561.213, 1272.656
561.695, 1293.311
562.177, 1295.736
562.659, 1289.705
563.141, 1314.473
563.623, 1331.764
564.105, 1341.984
564.587, 1323.938
565.069, 1342.388
565.552, 1346.212
566.034, 1349.437
566.516, 1373.023
566.998, 1359.091
567.480, 1382.354
567.962, 1390.769
568.444, 1405.980
568.926, 1403.434
569.408, 1406.058
569.891, 1414.461
570.373, 1427.828
570.855, 1448.285
571.337, 1472.094
571.819, 1496.909
572.301, 1522.844
572.783, 1544.801
573.265, 1555.796
573.747, 1563.567
574.230, 1575.354
574.712, 1594.957
575.194, 1616.295
575.676, 1640.447
576.158, 1665.676
576.640, 1686.348
577.122, 1693.287
577.604, 1711.205
578.086, 1752.486
578.569, 1814.551
579.051, 1855.572
579.533, 1870.254
580.015, 1883.099
580.497, 1911.279
580.979, 1977.284
581.461, 2034.119
581.943, 2082.252
582.426, 2095.686
582.908, 2153.933
583.390, 2194.216
583.872, 2233.767
584.354, 2298.333
584.836, 2316.809
585.318, 2380.967
585.800, 2426.891
586.282, 2481.155
586.765, 2517.354
587.247, 2559.147
587.729, 2618.997
588.211, 2668.845
588.693, 2693.780
589.175, 2739.506
589.657, 2793.643
590.140, 2842.023
590.622, 2882.858
591.104, 2923.266
591.586, 2963.260
592.068, 3003.661
592.550, 3047.911
593.032, 3096.250
593.514, 3135.106
593.996, 3155.301
594.479, 3168.019
594.961, 3193.546
595.443, 3231.086
595.925, 3275.900
596.407, 3335.770
596.889, 3394.446
597.371, 3432.751
597.853, 3447.432
598.335, 3464.764
598.818, 3501.875
599.300, 3544.306
599.782, 3580.323
600.264, 3603.817
600.746, 3625.368
601.228, 3642.628
601.710, 3659.683
602.192, 3686.181
602.674, 3733.333
603.157, 3762.952
603.639, 3761.822
604.121, 3735.755
604.603, 3710.929
605.085, 3688.080
605.567, 3659.632
606.049, 3620.678
606.531, 3572.422
607.013, 3518.723
607.496, 3459.226
607.978, 3395.675
608.460, 3333.637
608.942, 3267.027
609.424, 3185.743
609.906, 3080.225
610.388, 2974.071
610.870, 2880.005
611.353, 2791.799
611.835, 2702.102
612.317, 2604.595
612.799, 2508.739
613.281, 2415.530
613.763, 2324.749
614.245, 2241.040
614.727, 2166.615
615.209, 2094.757
