##NAMES=Bastnasite-(Ce)
##RRUFFID=R060359
##IDEAL CHEMISTRY=CeCO_3_F
##LOCALITY=Zagi Mountain, near Hammedabad, Khaffor Dehri, North-West Frontier Province, Pakistan
##OWNER=RRUFF
##SOURCE=Herb Obodda
##DESCRIPTION=Yellowish-brown pyramidal crystal
##STATUS=The identification of this mineral has been confirmed by X-ray diffraction and chemical analysis
##URL=rruff.info/R060359
##MEASURED CHEMISTRY=(Ce_0.54_(La,Pr)_0.23_Nd_0.22_Y_0.01_)_Î£=1_CO_3_F_1.00_
146.5307, 8094.325
147.0128, 8163.933
147.4949, 8246.793
147.9770, 8329.472
148.4591, 8374.365
148.9412, 8326.516
149.4234, 8285.314
149.9055, 8289.332
150.3876, 8393.374
150.8697, 8479.322
151.3518, 8532.907
151.8339, 8558.855
152.3161, 8587.058
152.7982, 8609.915
153.2803, 8642.238
153.7624, 8694.361
154.2445, 8799.314
154.7266, 8893.275
155.2087, 8956.541
155.6909, 8985.244
156.1730, 9014.655
156.6551, 9060.468
157.1372, 9108.753
157.6193, 9143.872
158.1014, 9146.885
158.5836, 9146.498
159.0657, 9155.718
159.5478, 9178.476
160.0299, 9202.143
160.5120, 9233.791
160.9941, 9263.135
161.4763, 9268.850
161.9584, 9206.537
162.4405, 9138.154
162.9226, 9110.131
163.4047, 9159.194
163.8868, 9210.239
164.3690, 9221.632
164.8511, 9200.325
165.3332, 9175.918
165.8153, 9153.369
166.2974, 9139.924
166.7795, 9143.283
167.2617, 9170.924
167.7438, 9212.611
168.2259, 9268.526
168.7080, 9337.703
169.1901, 9399.942
169.6722, 9435.115
170.1544, 9454.419
170.6365, 9476.475
171.1186, 9512.912
171.6007, 9554.079
172.0828, 9596.102
172.5649, 9641.260
173.0471, 9670.904
173.5292, 9661.113
174.0113, 9620.801
174.4934, 9573.878
174.9755, 9541.418
175.4576, 9508.961
175.9397, 9450.548
176.4219, 9355.020
176.9040, 9250.843
177.3861, 9171.051
177.8682, 9113.166
178.3503, 9058.800
178.8324, 8988.631
179.3146, 8912.614
179.7967, 8853.655
180.2788, 8821.137
180.7609, 8804.808
181.2430, 8793.260
181.7251, 8786.429
182.2073, 8775.651
182.6894, 8741.649
183.1715, 8693.083
183.6536, 8669.079
184.1357, 8692.580
184.6178, 8745.790
185.1000, 8783.012
185.5821, 8803.689
186.0642, 8816.025
186.5463, 8826.221
187.0284, 8834.744
187.5105, 8846.950
187.9927, 8872.340
188.4748, 8905.507
188.9569, 8915.958
189.4390, 8898.352
189.9211, 8871.880
190.4032, 8875.418
190.8854, 8909.969
191.3675, 8921.449
191.8496, 8867.938
192.3317, 8754.896
192.8138, 8658.564
193.2959, 8581.943
193.7781, 8526.617
194.2602, 8503.732
194.7423, 8517.999
195.2244, 8532.078
195.7065, 8513.875
196.1886, 8462.085
196.6708, 8437.021
197.1529, 8458.898
197.6350, 8506.823
198.1171, 8499.765
198.5992, 8423.472
199.0813, 8346.945
199.5634, 8332.662
200.0456, 8388.479
200.5277, 8443.027
201.0098, 8483.477
201.4919, 8511.513
201.9740, 8535.672
202.4561, 8553.841
202.9383, 8572.487
203.4204, 8601.528
203.9025, 8645.254
204.3846, 8679.381
204.8667, 8693.334
205.3488, 8686.950
205.8310, 8690.866
206.3131, 8704.929
206.7952, 8729.191
207.2773, 8765.513
207.7594, 8816.813
208.2415, 8871.328
208.7237, 8927.411
209.2058, 8987.033
209.6879, 9032.646
210.1700, 9059.325
210.6521, 9076.541
211.1342, 9103.080
211.6164, 9141.973
212.0985, 9182.629
212.5806, 9220.565
213.0627, 9254.656
213.5448, 9288.623
214.0269, 9320.458
214.5091, 9353.118
214.9912, 9397.168
215.4733, 9458.622
215.9554, 9519.116
216.4375, 9565.930
216.9196, 9588.677
217.4018, 9624.055
217.8839, 9672.604
218.3660, 9735.286
218.8481, 9824.609
219.3302, 9958.343
219.8123, 10091.10
220.2945, 10186.56
220.7766, 10225.52
221.2587, 10274.46
221.7408, 10346.51
222.2229, 10439.38
222.7050, 10512.15
223.1871, 10551.03
223.6693, 10587.18
224.1514, 10650.78
224.6335, 10760.33
225.1156, 10858.15
225.5977, 10930.95
226.0798, 10977.15
226.5620, 11038.42
227.0441, 11119.63
227.5262, 11210.47
228.0083, 11303.23
228.4904, 11404.64
228.9725, 11493.91
229.4547, 11559.87
229.9368, 11596.23
230.4189, 11658.60
230.9010, 11759.26
231.3831, 11877.56
231.8652, 11985.83
232.3474, 12080.42
232.8295, 12173.13
233.3116, 12265.50
233.7937, 12356.28
234.2758, 12452.44
234.7579, 12556.52
235.2401, 12663.66
235.7222, 12764.88
236.2043, 12855.17
236.6864, 12946.89
237.1685, 13044.39
237.6507, 13149.33
238.1328, 13253.34
238.6149, 13344.94
239.0970, 13439.50
239.5791, 13576.68
240.0612, 13787.03
240.5434, 13995.96
241.0255, 14166.93
241.5076, 14273.27
241.9897, 14405.78
242.4718, 14573.92
242.9539, 14767.26
243.4360, 14954.32
243.9182, 15128.70
244.4003, 15306.31
244.8824, 15498.62
245.3645, 15718.09
245.8466, 15917.96
246.3287, 16079.01
246.8109, 16218.12
247.2930, 16411.98
247.7751, 16688.33
248.2572, 16977.75
248.7393, 17240.98
249.2214, 17469.20
249.7036, 17684.05
250.1857, 17880.75
250.6678, 18062.56
251.1499, 18260.90
251.6320, 18481.29
252.1141, 18711.39
252.5963, 18941.11
253.0784, 19174.08
253.5605, 19401.92
254.0426, 19624.20
254.5247, 19839.84
255.0068, 20060.87
255.4890, 20300.97
255.9711, 20528.07
256.4532, 20722.46
256.9353, 20889.27
257.4174, 21012.24
257.8995, 21087.67
258.3817, 21116.80
258.8638, 21122.95
259.3459, 21112.00
259.8280, 21069.86
260.3101, 20981.04
260.7922, 20838.80
261.2744, 20667.59
261.7565, 20468.54
262.2386, 20240.20
262.7207, 20021.17
263.2028, 19820.34
263.6849, 19611.63
264.1671, 19352.36
264.6492, 19015.65
265.1313, 18718.15
265.6134, 18500.57
266.0955, 18359.73
266.5776, 18205.86
267.0598, 18030.91
267.5419, 17859.03
268.0240, 17717.25
268.5061, 17613.34
268.9882, 17514.33
269.4703, 17408.02
269.9525, 17295.20
270.4346, 17206.79
270.9167, 17141.22
271.3988, 17101.87
271.8809, 17104.36
272.3630, 17160.80
272.8452, 17196.96
273.3273, 17182.54
273.8094, 17119.98
274.2915, 17075.72
274.7736, 17054.68
275.2557, 17041.41
275.7379, 17024.17
276.2200, 17006.50
276.7021, 16957.77
277.1842, 16858.47
277.6663, 16712.88
278.1484, 16572.56
278.6305, 16436.88
279.1126, 16308.55
279.5948, 16192.46
280.0769, 16088.39
280.5590, 15997.67
281.0411, 15928.32
281.5232, 15876.66
282.0053, 15803.36
282.4875, 15702.45
282.9696, 15596.65
283.4517, 15516.45
283.9338, 15461.87
284.4159, 15416.42
284.8980, 15391.08
285.3802, 15375.96
285.8623, 15301.55
286.3444, 15157.76
286.8265, 14993.63
287.3086, 14885.40
287.7907, 14827.12
288.2729, 14741.39
288.7550, 14578.67
289.2371, 14358.99
289.7192, 14163.58
290.2013, 13998.99
290.6834, 13838.56
291.1656, 13649.19
291.6477, 13434.55
292.1298, 13221.01
292.6119, 13004.17
293.0940, 12798.39
293.5761, 12644.54
294.0583, 12550.75
294.5404, 12472.98
295.0225, 12360.38
295.5046, 12219.57
295.9867, 12079.91
296.4688, 11940.34
296.9510, 11811.72
297.4331, 11728.63
297.9152, 11696.03
298.3973, 11668.06
298.8794, 11594.35
299.3615, 11487.54
299.8437, 11380.20
300.3258, 11277.85
300.8079, 11188.11
301.2900, 11123.24
301.7721, 11086.77
302.2542, 11058.47
302.7364, 11027.19
303.2185, 10991.66
303.7006, 10948.60
304.1827, 10887.60
304.6648, 10823.30
305.1469, 10772.47
305.6291, 10736.64
306.1112, 10704.87
306.5933, 10664.50
307.0754, 10623.03
307.5575, 10593.86
308.0396, 10605.15
308.5218, 10616.21
309.0039, 10582.25
309.4860, 10496.81
309.9681, 10433.25
310.4502, 10464.08
310.9323, 10537.61
311.4145, 10582.01
311.8966, 10538.63
312.3787, 10482.40
312.8608, 10462.61
313.3429, 10484.54
313.8250, 10494.40
314.3072, 10448.85
314.7893, 10384.00
315.2714, 10341.84
315.7535, 10345.71
316.2356, 10366.02
316.7177, 10399.18
317.1999, 10446.35
317.6820, 10476.01
318.1641, 10465.05
318.6462, 10437.66
319.1283, 10417.78
319.6104, 10413.64
320.0926, 10415.29
320.5747, 10422.23
321.0568, 10434.85
321.5389, 10445.30
322.0210, 10446.05
322.5031, 10447.37
322.9852, 10458.05
323.4673, 10499.91
323.9495, 10529.70
324.4316, 10531.93
324.9137, 10505.48
325.3958, 10496.30
325.8779, 10527.26
326.3600, 10563.94
326.8422, 10581.35
327.3243, 10552.03
327.8064, 10538.08
328.2885, 10555.46
328.7706, 10601.99
329.2527, 10625.55
329.7349, 10604.17
330.2170, 10579.63
330.6991, 10581.73
331.1812, 10626.90
331.6633, 10668.29
332.1454, 10701.97
332.6276, 10728.09
333.1097, 10748.07
333.5918, 10761.65
334.0739, 10769.16
334.5560, 10767.89
335.0381, 10751.57
335.5203, 10749.07
336.0024, 10769.16
336.4845, 10803.92
336.9666, 10820.83
337.4487, 10813.73
337.9308, 10806.75
338.4130, 10816.97
338.8951, 10846.33
339.3772, 10875.87
339.8593, 10907.72
340.3414, 10935.20
340.8235, 10935.07
341.3057, 10903.05
341.7878, 10879.09
342.2699, 10895.30
342.7520, 10947.10
343.2341, 10985.45
343.7162, 11002.82
344.1984, 11011.63
344.6805, 11033.97
345.1626, 11069.16
345.6447, 11105.34
346.1268, 11143.58
346.6089, 11178.00
347.0911, 11183.09
347.5732, 11150.72
348.0553, 11113.54
348.5374, 11123.82
349.0195, 11168.51
349.5016, 11197.87
349.9838, 11161.99
350.4659, 11102.62
350.9480, 11088.20
351.4301, 11127.50
351.9122, 11176.70
352.3943, 11204.54
352.8765, 11212.78
353.3586, 11204.89
353.8407, 11160.70
354.3228, 11114.24
354.8049, 11103.69
355.2870, 11132.58
355.7692, 11155.91
356.2513, 11127.30
356.7334, 11080.01
357.2155, 11057.81
357.6976, 11105.65
358.1797, 11158.97
358.6619, 11186.66
359.1440, 11187.95
359.6261, 11174.04
360.1082, 11124.81
360.5903, 11073.52
361.0724, 11050.25
361.5546, 11081.48
362.0367, 11122.84
362.5188, 11176.31
363.0009, 11237.61
363.4830, 11266.37
363.9651, 11228.76
364.4473, 11172.33
364.9294, 11126.60
365.4115, 11092.30
365.8936, 11072.51
366.3757, 11069.74
366.8578, 11082.55
367.3399, 11103.79
367.8221, 11150.19
368.3042, 11190.32
368.7863, 11209.46
369.2684, 11193.85
369.7505, 11180.78
370.2326, 11167.85
370.7148, 11158.70
371.1969, 11165.30
371.6790, 11198.68
372.1611, 11228.09
372.6432, 11234.72
373.1253, 11205.75
373.6075, 11209.46
374.0896, 11255.79
374.5717, 11323.27
375.0538, 11376.48
375.5359, 11412.64
376.0180, 11447.18
376.5002, 11482.07
376.9823, 11517.55
377.4644, 11577.23
377.9465, 11668.49
378.4286, 11758.81
378.9107, 11801.46
379.3929, 11799.88
379.8750, 11799.84
380.3571, 11810.45
380.8392, 11835.51
381.3213, 11895.86
381.8034, 11993.27
382.2856, 12089.98
382.7677, 12146.09
383.2498, 12173.69
383.7319, 12204.27
384.2140, 12242.27
384.6961, 12292.07
385.1783, 12372.94
385.6604, 12479.71
386.1425, 12570.18
386.6246, 12599.52
387.1067, 12603.32
387.5888, 12627.66
388.0710, 12691.41
388.5531, 12765.22
389.0352, 12838.52
389.5173, 12906.95
389.9994, 12957.60
390.4815, 12967.97
390.9637, 12968.86
391.4458, 12982.83
391.9279, 13019.72
392.4100, 13052.62
392.8921, 13063.01
393.3742, 13063.58
393.8564, 13076.94
394.3385, 13132.40
394.8206, 13180.34
395.3027, 13202.10
395.7848, 13192.60
396.2669, 13171.37
396.7491, 13123.90
397.2312, 13071.87
397.7133, 13040.47
398.1954, 13049.39
398.6775, 13055.80
399.1596, 13055.66
399.6418, 13049.53
400.1239, 13027.44
400.6060, 12990.21
401.0881, 12936.97
401.5702, 12859.16
402.0523, 12737.39
402.5345, 12650.89
403.0166, 12619.43
403.4987, 12630.37
403.9808, 12630.33
404.4629, 12617.89
404.9450, 12598.10
405.4272, 12572.81
405.9093, 12541.48
406.3914, 12508.80
406.8735, 12476.15
407.3556, 12440.05
407.8377, 12390.14
408.3199, 12326.79
408.8020, 12268.46
409.2841, 12232.10
409.7662, 12208.17
410.2483, 12167.65
410.7304, 12107.43
411.2126, 12042.33
411.6946, 11981.94
412.1768, 11929.38
412.6589, 11890.74
413.1410, 11882.59
413.6231, 11882.67
414.1052, 11871.07
414.5873, 11847.64
415.0695, 11809.86
415.5516, 11733.09
416.0337, 11649.36
416.5158, 11597.09
416.9979, 11627.23
417.4800, 11652.35
417.9622, 11615.33
418.4443, 11531.47
418.9264, 11474.29
419.4085, 11490.74
419.8906, 11527.60
420.3727, 11554.17
420.8549, 11570.19
421.3370, 11568.82
421.8191, 11535.92
422.3012, 11484.34
422.7833, 11446.00
423.2654, 11439.90
423.7476, 11428.11
424.2297, 11394.11
424.7118, 11324.12
425.1939, 11283.39
425.6760, 11286.19
426.1581, 11307.34
426.6403, 11314.55
427.1224, 11300.44
427.6045, 11293.61
428.0866, 11307.03
428.5687, 11337.51
429.0508, 11341.92
429.5330, 11315.89
430.0151, 11278.48
430.4972, 11241.37
430.9793, 11205.02
431.4614, 11179.74
431.9435, 11170.10
432.4257, 11169.51
432.9078, 11160.36
433.3899, 11143.70
433.8720, 11137.96
434.3541, 11171.78
434.8362, 11222.60
435.3184, 11242.40
435.8005, 11222.84
436.2826, 11183.80
436.7647, 11123.26
437.2468, 11057.28
437.7289, 11023.98
438.2111, 11084.80
438.6932, 11155.35
439.1753, 11156.44
439.6574, 11081.66
440.1395, 11021.52
440.6216, 11038.74
441.1038, 11087.37
441.5859, 11119.74
442.0680, 11101.99
442.5501, 11087.87
443.0322, 11104.74
443.5143, 11144.41
443.9965, 11154.73
444.4786, 11083.57
444.9607, 11013.45
445.4428, 10987.82
445.9249, 11049.76
446.4070, 11085.19
446.8892, 11077.00
447.3713, 11047.68
447.8534, 11045.84
448.3355, 11090.91
448.8176, 11126.87
449.2997, 11129.58
449.7819, 11095.59
450.2640, 11084.29
450.7461, 11102.05
451.2282, 11128.62
451.7103, 11141.34
452.1924, 11140.09
452.6746, 11133.10
453.1567, 11118.25
453.6388, 11101.46
454.1209, 11103.18
454.6030, 11123.00
455.0851, 11138.78
455.5673, 11126.32
456.0494, 11097.95
456.5315, 11081.93
457.0136, 11085.25
457.4957, 11096.08
457.9778, 11104.50
458.4599, 11111.28
458.9420, 11118.68
459.4242, 11133.96
459.9063, 11146.32
460.3884, 11144.55
460.8705, 11126.42
461.3526, 11110.65
461.8347, 11106.39
462.3169, 11109.13
462.7990, 11114.29
463.2811, 11118.56
463.7632, 11127.54
464.2453, 11148.93
464.7274, 11180.26
465.2096, 11197.10
465.6917, 11177.30
466.1738, 11159.70
466.6559, 11163.18
467.1380, 11199.34
467.6201, 11235.59
468.1023, 11279.32
468.5844, 11318.68
469.0665, 11325.10
469.5486, 11287.38
470.0307, 11251.25
470.5128, 11232.18
470.9950, 11229.54
471.4771, 11234.35
471.9592, 11247.94
472.4413, 11263.40
472.9234, 11274.54
473.4055, 11281.58
473.8877, 11286.30
474.3698, 11291.69
474.8519, 11292.35
475.3340, 11270.75
475.8161, 11231.39
476.2982, 11203.69
476.7804, 11214.13
477.2625, 11243.61
477.7446, 11272.55
478.2267, 11301.15
478.7088, 11316.64
479.1909, 11291.36
479.6731, 11250.59
480.1552, 11234.69
480.6373, 11286.91
481.1194, 11341.26
481.6015, 11366.97
482.0836, 11362.63
482.5658, 11359.68
483.0479, 11374.58
483.5300, 11386.26
484.0121, 11379.26
484.4942, 11325.66
484.9763, 11293.06
485.4585, 11291.62
485.9406, 11312.09
486.4227, 11331.03
486.9048, 11352.27
487.3869, 11363.89
487.8690, 11357.20
488.3512, 11330.25
488.8333, 11312.24
489.3154, 11302.89
489.7975, 11303.61
490.2796, 11325.89
490.7617, 11367.04
491.2439, 11384.75
491.7260, 11349.92
492.2081, 11298.75
492.6902, 11320.42
493.1723, 11405.67
493.6544, 11471.30
494.1366, 11427.82
494.6187, 11339.62
495.1008, 11299.92
495.5829, 11334.23
496.0650, 11380.49
496.5471, 11401.33
497.0293, 11403.87
497.5114, 11401.21
497.9935, 11391.26
498.4756, 11383.31
498.9577, 11382.23
499.4398, 11388.27
499.9220, 11394.15
500.4041, 11387.91
500.8862, 11387.58
501.3683, 11406.90
501.8504, 11473.53
502.3325, 11516.87
502.8146, 11529.62
503.2968, 11518.17
503.7789, 11494.95
504.2610, 11450.18
504.7431, 11417.28
505.2252, 11419.23
505.7073, 11456.04
506.1895, 11453.65
506.6716, 11402.93
507.1537, 11346.93
507.6358, 11334.83
508.1179, 11361.26
508.6000, 11392.80
509.0822, 11423.20
509.5643, 11451.37
510.0464, 11479.43
510.5285, 11505.47
511.0106, 11521.00
511.4927, 11516.62
511.9749, 11500.63
512.4570, 11475.87
512.9391, 11438.05
513.4212, 11417.09
513.9033, 11438.03
514.3854, 11482.74
514.8676, 11527.33
515.3497, 11585.48
515.8318, 11622.34
516.3139, 11617.64
516.7960, 11574.64
517.2781, 11544.67
517.7603, 11532.55
518.2424, 11530.98
518.7245, 11537.82
519.2066, 11558.57
519.6887, 11573.06
520.1708, 11576.40
520.6530, 11578.26
521.1351, 11599.26
521.6172, 11643.46
522.0993, 11676.35
522.5814, 11684.14
523.0635, 11672.26
523.5457, 11658.87
524.0278, 11643.76
524.5099, 11633.80
524.9920, 11640.93
525.4741, 11656.94
525.9562, 11660.92
526.4384, 11642.49
526.9205, 11629.77
527.4026, 11663.85
527.8847, 11722.68
528.3668, 11759.97
528.8489, 11738.88
529.3311, 11702.58
529.8132, 11669.03
530.2953, 11639.00
530.7774, 11621.41
531.2595, 11635.37
531.7416, 11652.40
532.2238, 11651.67
532.7059, 11593.28
533.1880, 11571.04
533.6701, 11605.87
534.1522, 11671.61
534.6343, 11708.58
535.1165, 11707.96
535.5986, 11700.66
536.0807, 11694.05
536.5628, 11688.70
537.0449, 11696.84
537.5270, 11719.75
538.0092, 11750.80
538.4913, 11791.89
538.9734, 11837.88
539.4555, 11865.26
539.9376, 11864.80
540.4197, 11852.44
540.9019, 11841.28
541.3840, 11833.55
541.8661, 11835.96
542.3482, 11859.78
542.8303, 11889.44
543.3124, 11914.56
543.7946, 11934.25
544.2767, 11948.18
544.7588, 11959.23
545.2409, 11962.64
545.7230, 11954.52
546.2051, 11900.97
546.6873, 11875.71
547.1694, 11911.48
547.6515, 11978.07
548.1336, 11998.43
548.6157, 11942.73
549.0978, 11893.39
549.5800, 11882.66
550.0621, 11911.53
550.5442, 11923.45
551.0263, 11915.27
551.5084, 11901.93
551.9905, 11899.68
552.4727, 11907.01
552.9548, 11907.93
553.4369, 11897.43
553.9190, 11884.61
554.4011, 11883.26
554.8832, 11891.06
555.3654, 11899.46
555.8475, 11891.37
556.3296, 11889.73
556.8117, 11928.07
557.2938, 12007.94
557.7759, 12063.52
558.2581, 12042.35
558.7402, 11995.39
559.2223, 11964.13
559.7044, 11967.20
560.1865, 11971.91
560.6686, 11967.33
561.1508, 11962.43
561.6329, 11977.74
562.1150, 12029.84
562.5971, 12074.96
563.0792, 12098.89
563.5613, 12102.42
564.0435, 12103.40
564.5256, 12100.05
565.0077, 12101.41
565.4898, 12122.49
565.9719, 12159.01
566.4540, 12176.18
566.9362, 12165.12
567.4183, 12143.95
567.9004, 12130.41
568.3824, 12125.86
568.8646, 12134.98
569.3467, 12179.63
569.8288, 12224.34
570.3109, 12233.30
570.7930, 12209.27
571.2751, 12192.96
571.7573, 12218.88
572.2394, 12248.45
572.7215, 12252.89
573.2036, 12199.87
573.6857, 12174.39
574.1678, 12200.90
574.6500, 12251.83
575.1321, 12289.93
575.6142, 12312.60
576.0963, 12327.29
576.5784, 12332.78
577.0605, 12331.44
577.5427, 12337.22
578.0248, 12351.28
578.5069, 12365.45
578.9890, 12373.78
579.4711, 12377.49
579.9532, 12380.57
580.4354, 12382.61
580.9175, 12388.00
581.3996, 12407.32
581.8817, 12432.53
582.3638, 12448.46
582.8459, 12443.58
583.3281, 12434.71
583.8102, 12426.29
584.2923, 12421.52
584.7744, 12431.40
585.2565, 12485.37
585.7386, 12533.10
586.2208, 12545.13
586.7029, 12502.82
587.1850, 12493.95
587.6671, 12541.04
588.1492, 12599.90
588.6313, 12630.15
589.1135, 12623.60
589.5956, 12617.87
590.0777, 12614.50
590.5598, 12617.40
591.0419, 12641.81
591.5240, 12686.45
592.0062, 12722.82
592.4883, 12730.67
592.9704, 12722.44
593.4525, 12721.08
593.9346, 12726.61
594.4167, 12738.24
594.8989, 12761.71
595.3810, 12788.08
595.8631, 12809.13
596.3452, 12826.76
596.8273, 12831.25
597.3094, 12802.89
597.7916, 12762.88
598.2737, 12743.87
598.7558, 12769.18
599.2379, 12795.50
599.7200, 12817.55
600.2021, 12835.11
600.6843, 12845.43
601.1664, 12848.57
601.6485, 12844.47
602.1306, 12826.43
602.6127, 12794.63
603.0948, 12791.53
603.5770, 12823.48
604.0591, 12859.84
604.5412, 12865.96
605.0233, 12848.40
605.5054, 12823.96
605.9875, 12789.72
606.4697, 12761.69
606.9518, 12761.60
607.4339, 12780.08
607.9160, 12792.92
608.3981, 12776.66
608.8802, 12762.20
609.3624, 12770.58
609.8445, 12805.93
610.3266, 12824.62
610.8087, 12810.03
611.2908, 12785.87
611.7729, 12765.37
612.2551, 12748.46
612.7372, 12737.47
613.2193, 12737.35
613.7014, 12737.80
614.1835, 12714.86
614.6656, 12667.81
615.1478, 12641.17
615.6299, 12657.19
616.1120, 12694.98
616.5941, 12713.70
617.0762, 12715.12
617.5583, 12710.67
618.0405, 12704.79
618.5226, 12697.85
619.0047, 12687.41
619.4868, 12671.61
619.9689, 12664.35
620.4510, 12688.01
620.9332, 12714.30
621.4153, 12717.28
621.8974, 12660.55
622.3795, 12621.04
622.8616, 12607.45
623.3438, 12612.72
623.8259, 12625.65
624.3080, 12653.56
624.7901, 12668.06
625.2722, 12654.67
625.7543, 12620.54
626.2365, 12604.58
626.7186, 12607.65
627.2007, 12612.87
627.6828, 12603.33
628.1649, 12587.70
628.6470, 12586.40
629.1292, 12604.28
629.6113, 12619.14
630.0934, 12608.07
630.5755, 12585.92
631.0576, 12571.32
631.5397, 12578.99
632.0219, 12584.94
632.5040, 12582.01
632.9861, 12572.54
633.4682, 12563.32
633.9503, 12551.92
634.4324, 12545.06
634.9146, 12543.13
635.3967, 12546.51
635.8788, 12568.51
636.3609, 12615.23
636.8430, 12656.73
637.3251, 12658.83
637.8073, 12631.67
638.2894, 12631.98
638.7715, 12669.13
639.2536, 12714.67
639.7357, 12744.79
640.2178, 12761.00
640.7000, 12766.48
641.1821, 12752.47
641.6642, 12738.13
