##NAMES=Bastnasite-(Ce)
##RRUFFID=R060629
##IDEAL CHEMISTRY=CeCO_3_F
##LOCALITY=Pakistan
##OWNER=RRUFF
##SOURCE=Gemological Institute of America
##DESCRIPTION=Orange gemmy fragment
##STATUS=The identification of this mineral has been confirmed by X-ray diffraction and chemical analysis
##URL=rruff.info/R060629
##MEASURED CHEMISTRY=(Ce_0.53_Nd_0.25_La_0.22_)_Î£=1_CO_3_F_1.00_
137.8526, 2052.626
138.3347, 2063.997
138.8168, 2080.643
139.2989, 2117.457
139.7810, 2186.493
140.2631, 2255.913
140.7453, 2294.868
141.2274, 2281.765
141.7095, 2284.945
142.1916, 2318.292
142.6737, 2384.872
143.1558, 2459.227
143.6380, 2549.651
144.1201, 2643.524
144.6022, 2723.544
145.0843, 2758.943
145.5664, 2792.079
146.0485, 2869.862
146.5307, 3033.121
147.0128, 3150.745
147.4949, 3196.892
147.9770, 3198.149
148.4591, 3218.793
148.9412, 3304.142
149.4234, 3373.575
149.9055, 3395.642
150.3876, 3301.328
150.8697, 3240.307
151.3518, 3232.200
151.8339, 3270.507
152.3161, 3310.693
152.7982, 3359.052
153.2803, 3402.459
153.7624, 3431.948
154.2445, 3439.323
154.7266, 3440.049
155.2087, 3429.040
155.6909, 3403.156
156.1730, 3401.375
156.6551, 3447.277
157.1372, 3516.941
157.6193, 3583.368
158.1014, 3635.711
158.5836, 3685.148
159.0657, 3734.909
159.5478, 3782.075
160.0299, 3837.588
160.5120, 3915.587
160.9941, 4004.836
161.4763, 4082.023
161.9584, 4141.374
162.4405, 4183.386
162.9226, 4208.585
163.4047, 4218.008
163.8868, 4209.726
164.3690, 4188.918
164.8511, 4152.437
165.3332, 4085.689
165.8153, 3958.672
166.2974, 3805.458
166.7795, 3661.975
167.2617, 3538.112
167.7438, 3429.549
168.2259, 3336.025
168.7080, 3257.926
169.1901, 3181.042
169.6722, 3095.770
170.1544, 3005.251
170.6365, 2914.726
171.1186, 2808.947
171.6007, 2713.075
172.0828, 2656.775
172.5649, 2645.632
173.0471, 2645.753
173.5292, 2625.926
174.0113, 2592.480
174.4934, 2562.819
174.9755, 2554.389
175.4576, 2554.037
175.9397, 2539.090
176.4219, 2502.034
176.9040, 2460.786
177.3861, 2439.509
177.8682, 2435.073
178.3503, 2428.173
178.8324, 2397.965
179.3146, 2355.215
179.7967, 2325.538
180.2788, 2317.000
180.7609, 2322.198
181.2430, 2334.102
181.7251, 2352.456
182.2073, 2367.164
182.6894, 2365.087
183.1715, 2350.233
183.6536, 2339.646
184.1357, 2339.636
184.6178, 2347.126
185.1000, 2352.889
185.5821, 2356.325
186.0642, 2362.915
186.5463, 2384.474
187.0284, 2418.696
187.5105, 2444.455
187.9927, 2452.809
188.4748, 2445.130
188.9569, 2424.792
189.4390, 2388.086
189.9211, 2349.223
190.4032, 2333.872
190.8854, 2342.716
191.3675, 2346.411
191.8496, 2326.982
192.3317, 2286.066
192.8138, 2245.656
193.2959, 2205.544
193.7781, 2168.904
194.2602, 2144.160
194.7423, 2132.976
195.2244, 2122.741
195.7065, 2102.754
196.1886, 2072.575
196.6708, 2052.253
197.1529, 2049.599
197.6350, 2056.015
198.1171, 2036.740
198.5992, 1984.436
199.0813, 1934.334
199.5634, 1917.518
200.0456, 1937.466
200.5277, 1963.039
201.0098, 1992.381
201.4919, 2023.641
201.9740, 2037.145
202.4561, 2026.881
202.9383, 2012.251
203.4204, 2017.867
203.9025, 2050.646
204.3846, 2071.844
204.8667, 2062.660
205.3488, 2022.787
205.8310, 2019.473
206.3131, 2064.441
206.7952, 2128.833
207.2773, 2172.859
207.7594, 2192.408
208.2415, 2204.425
208.7237, 2213.060
209.2058, 2217.391
209.6879, 2224.387
210.1700, 2234.089
210.6521, 2246.468
211.1342, 2261.823
211.6164, 2280.721
212.0985, 2300.935
212.5806, 2320.360
213.0627, 2336.225
213.5448, 2362.133
214.0269, 2404.837
214.5091, 2455.337
214.9912, 2485.366
215.4733, 2483.581
215.9554, 2481.817
216.4375, 2499.842
216.9196, 2546.330
217.4018, 2585.945
217.8839, 2613.148
218.3660, 2631.181
218.8481, 2656.268
219.3302, 2687.498
219.8123, 2726.809
220.2945, 2777.793
220.7766, 2848.979
221.2587, 2910.688
221.7408, 2957.298
222.2229, 2990.137
222.7050, 3018.253
223.1871, 3031.678
223.6693, 3052.571
224.1514, 3104.972
224.6335, 3213.124
225.1156, 3301.783
225.5977, 3352.828
226.0798, 3364.537
226.5620, 3392.061
227.0441, 3439.878
227.5262, 3498.795
228.0083, 3559.515
228.4904, 3618.017
228.9725, 3685.465
229.4547, 3767.810
229.9368, 3868.399
230.4189, 3957.109
230.9010, 4026.858
231.3831, 4090.925
231.8652, 4169.428
232.3474, 4277.860
232.8295, 4376.567
233.3116, 4449.753
233.7937, 4488.269
234.2758, 4540.024
234.7579, 4608.157
235.2401, 4687.477
235.7222, 4769.726
236.2043, 4857.404
236.6864, 4943.746
237.1685, 5022.987
237.6507, 5083.335
238.1328, 5170.021
238.6149, 5289.592
239.0970, 5433.183
239.5791, 5583.788
240.0612, 5754.896
240.5434, 5913.820
241.0255, 6038.856
241.5076, 6094.934
241.9897, 6200.668
242.4718, 6376.992
242.9539, 6599.978
243.4360, 6799.898
243.9182, 6972.034
244.4003, 7128.130
244.8824, 7270.978
245.3645, 7384.666
245.8466, 7519.453
246.3287, 7691.867
246.8109, 7887.906
247.2930, 8045.272
247.7751, 8139.749
248.2572, 8227.052
248.7393, 8341.653
249.2214, 8497.264
249.7036, 8644.741
250.1857, 8769.735
250.6678, 8879.977
251.1499, 9036.774
251.6320, 9279.314
252.1141, 9516.125
252.5963, 9670.877
253.0784, 9690.374
253.5605, 9756.127
254.0426, 9904.998
254.5247, 10124.58
255.0068, 10319.70
255.4890, 10488.48
255.9711, 10635.50
256.4532, 10765.36
256.9353, 10877.25
257.4174, 10976.41
257.8995, 11071.08
258.3817, 11158.31
258.8638, 11206.29
259.3459, 11213.23
259.8280, 11183.41
260.3101, 11118.74
260.7922, 11016.63
261.2744, 10887.53
261.7565, 10738.16
262.2386, 10565.89
262.7207, 10352.25
263.2028, 10082.74
263.6849, 9790.437
264.1671, 9502.787
264.6492, 9224.209
265.1313, 8941.508
265.6134, 8650.820
266.0955, 8353.107
266.5776, 8081.080
267.0598, 7840.663
267.5419, 7620.703
268.0240, 7405.802
268.5061, 7195.044
268.9882, 6998.316
269.4703, 6819.712
269.9525, 6659.113
270.4346, 6504.162
270.9167, 6349.791
271.3988, 6207.638
271.8809, 6092.487
272.3630, 6007.475
272.8452, 5935.246
273.3273, 5874.312
273.8094, 5824.738
274.2915, 5772.569
274.7736, 5718.369
275.2557, 5660.712
275.7379, 5599.718
276.2200, 5535.996
276.7021, 5464.311
277.1842, 5382.307
277.6663, 5290.860
278.1484, 5191.978
278.6305, 5085.681
279.1126, 4972.537
279.5948, 4850.548
280.0769, 4718.462
280.5590, 4595.146
281.0411, 4491.633
281.5232, 4405.194
282.0053, 4309.445
282.4875, 4200.786
282.9696, 4092.133
283.4517, 3999.675
283.9338, 3923.413
284.4159, 3858.233
284.8980, 3809.671
285.3802, 3773.283
285.8623, 3719.589
286.3444, 3643.567
286.8265, 3568.782
287.3086, 3532.965
287.7907, 3532.926
288.2729, 3527.991
288.7550, 3493.426
289.2371, 3438.478
289.7192, 3398.408
290.2013, 3374.394
290.6834, 3362.582
291.1656, 3364.583
291.6477, 3377.764
292.1298, 3386.877
292.6119, 3378.612
293.0940, 3361.275
293.5761, 3358.703
294.0583, 3373.380
294.5404, 3391.734
295.0225, 3403.145
295.5046, 3406.659
295.9867, 3398.670
296.4688, 3353.924
296.9510, 3301.313
297.4331, 3309.008
297.9152, 3386.110
298.3973, 3467.486
298.8794, 3481.941
299.3615, 3447.504
299.8437, 3414.016
300.3258, 3406.948
300.8079, 3413.556
301.2900, 3417.919
301.7721, 3419.440
302.2542, 3417.642
302.7364, 3419.061
303.2185, 3416.934
303.7006, 3397.116
304.1827, 3329.815
304.6648, 3254.031
305.1469, 3214.598
305.6291, 3216.075
306.1112, 3224.031
306.5933, 3217.966
307.0754, 3200.600
307.5575, 3176.559
308.0396, 3143.757
308.5218, 3107.761
309.0039, 3066.792
309.4860, 3019.327
309.9681, 2990.052
310.4502, 3024.407
310.9323, 3079.430
311.4145, 3095.517
311.8966, 3002.559
312.3787, 2900.425
312.8608, 2853.838
313.3429, 2869.577
313.8250, 2880.292
314.3072, 2846.404
314.7893, 2793.980
315.2714, 2753.349
315.7535, 2742.940
316.2356, 2738.642
316.7177, 2729.111
317.1999, 2713.060
317.6820, 2703.887
318.1641, 2713.597
318.6462, 2728.777
319.1283, 2736.126
319.6104, 2720.744
320.0926, 2708.527
320.5747, 2712.489
321.0568, 2734.327
321.5389, 2742.048
322.0210, 2713.184
322.5031, 2675.926
322.9852, 2654.807
323.4673, 2668.992
323.9495, 2681.917
324.4316, 2686.526
324.9137, 2682.482
325.3958, 2680.385
325.8779, 2678.259
326.3600, 2679.629
326.8422, 2686.910
327.3243, 2695.523
327.8064, 2716.078
328.2885, 2760.218
328.7706, 2825.922
329.2527, 2861.047
329.7349, 2834.804
330.2170, 2806.172
330.6991, 2819.147
331.1812, 2908.641
331.6633, 2973.684
332.1454, 2992.093
332.6276, 2973.468
333.1097, 2988.547
333.5918, 3060.978
334.0739, 3130.529
334.5560, 3149.945
335.0381, 3095.795
335.5203, 3070.351
336.0024, 3091.683
336.4845, 3147.177
336.9666, 3188.510
337.4487, 3210.090
337.9308, 3232.978
338.4130, 3274.556
338.8951, 3338.526
339.3772, 3386.432
339.8593, 3410.705
340.3414, 3421.304
340.8235, 3443.975
341.3057, 3479.944
341.7878, 3515.840
342.2699, 3538.311
342.7520, 3549.850
343.2341, 3574.581
343.7162, 3616.904
344.1984, 3669.045
344.6805, 3722.573
345.1626, 3777.242
345.6447, 3822.581
346.1268, 3848.344
346.6089, 3859.883
347.0911, 3868.160
347.5732, 3871.113
348.0553, 3881.981
348.5374, 3934.564
349.0195, 4014.718
349.5016, 4069.674
349.9838, 4050.728
350.4659, 3995.768
350.9480, 3961.303
351.4301, 3951.964
351.9122, 3951.638
352.3943, 3957.234
352.8765, 3960.929
353.3586, 3946.279
353.8407, 3890.263
354.3228, 3822.181
354.8049, 3771.926
355.2870, 3741.895
355.7692, 3706.287
356.2513, 3636.940
356.7334, 3554.934
357.2155, 3488.023
357.6976, 3462.310
358.1797, 3441.361
358.6619, 3403.862
359.1440, 3349.699
359.6261, 3297.943
360.1082, 3253.502
360.5903, 3216.272
361.0724, 3186.151
361.5546, 3169.075
362.0367, 3153.086
362.5188, 3136.912
363.0009, 3119.987
363.4830, 3097.279
363.9651, 3064.971
364.4473, 3028.352
364.9294, 2990.575
365.4115, 2931.414
365.8936, 2895.488
366.3757, 2902.234
366.8578, 2940.768
367.3399, 2957.159
367.8221, 2933.528
368.3042, 2903.915
368.7863, 2883.893
369.2684, 2881.194
369.7505, 2874.675
370.2326, 2862.055
370.7148, 2846.205
371.1969, 2834.151
371.6790, 2825.426
372.1611, 2821.570
372.6432, 2823.226
373.1253, 2830.383
373.6075, 2843.506
374.0896, 2864.026
374.5717, 2888.664
375.0538, 2913.793
375.5359, 2940.708
376.0180, 2961.797
376.5002, 2970.700
376.9823, 2968.214
377.4644, 2975.409
377.9465, 2992.875
378.4286, 3017.995
378.9107, 3053.348
379.3929, 3097.859
379.8750, 3130.677
380.3571, 3138.085
380.8392, 3130.582
381.3213, 3138.418
381.8034, 3162.157
382.2856, 3191.131
382.7677, 3220.355
383.2498, 3247.385
383.7319, 3263.848
384.2140, 3251.843
384.6961, 3243.005
385.1783, 3294.424
385.6604, 3397.594
386.1425, 3483.839
386.6246, 3491.485
387.1067, 3461.927
387.5888, 3447.903
388.0710, 3466.747
388.5531, 3495.450
389.0352, 3523.353
389.5173, 3548.903
389.9994, 3567.491
390.4815, 3568.078
390.9637, 3566.617
391.4458, 3575.427
391.9279, 3601.254
392.4100, 3624.452
392.8921, 3633.019
393.3742, 3634.687
393.8564, 3643.165
394.3385, 3680.804
394.8206, 3709.108
395.3027, 3707.619
395.7848, 3662.689
396.2669, 3636.699
396.7491, 3653.548
397.2312, 3685.314
397.7133, 3699.678
398.1954, 3683.100
398.6775, 3665.943
399.1596, 3655.172
399.6418, 3651.231
400.1239, 3640.140
400.6060, 3624.752
401.0881, 3599.287
401.5702, 3556.975
402.0523, 3492.615
402.5345, 3426.824
403.0166, 3359.226
403.4987, 3292.649
403.9808, 3242.734
404.4629, 3214.822
404.9450, 3186.338
405.4272, 3137.540
405.9093, 3067.521
406.3914, 3012.572
406.8735, 2978.537
407.3556, 2956.739
407.8377, 2934.484
408.3199, 2911.509
408.8020, 2884.706
409.2841, 2853.481
409.7662, 2816.837
410.2483, 2770.123
410.7304, 2711.852
411.2126, 2652.454
411.6946, 2598.146
412.1768, 2551.581
412.6589, 2518.084
413.1410, 2508.640
413.6231, 2509.024
414.1052, 2507.549
414.5873, 2503.923
415.0695, 2493.138
415.5516, 2457.547
416.0337, 2418.002
416.5158, 2399.411
416.9979, 2444.767
417.4800, 2477.757
417.9622, 2450.291
418.4443, 2374.731
418.9264, 2310.243
419.4085, 2271.129
419.8906, 2253.839
420.3727, 2259.753
420.8549, 2320.197
421.3370, 2355.111
421.8191, 2333.136
422.3012, 2277.258
422.7833, 2242.502
423.2654, 2254.009
423.7476, 2263.180
424.2297, 2252.992
424.7118, 2214.798
425.1939, 2189.091
425.6760, 2180.522
426.1581, 2181.019
426.6403, 2181.174
427.1224, 2181.624
427.6045, 2180.265
428.0866, 2177.045
428.5687, 2171.820
429.0508, 2160.941
429.5330, 2141.885
430.0151, 2125.272
430.4972, 2122.879
430.9793, 2134.114
431.4614, 2142.604
431.9435, 2147.701
432.4257, 2145.448
432.9078, 2118.017
433.3899, 2067.694
433.8720, 2029.342
434.3541, 2035.155
434.8362, 2068.066
435.3184, 2097.402
435.8005, 2122.716
436.2826, 2131.660
436.7647, 2090.757
437.2468, 2022.853
437.7289, 1981.795
438.2111, 2022.532
438.6932, 2079.366
439.1753, 2097.898
439.6574, 2074.235
440.1395, 2048.111
440.6216, 2039.949
441.1038, 2039.506
441.5859, 2036.298
442.0680, 2019.796
442.5501, 2007.966
443.0322, 2011.397
443.5143, 2026.591
443.9965, 2031.252
444.4786, 2000.092
444.9607, 1973.767
445.4428, 1974.806
445.9249, 2038.277
446.4070, 2070.846
446.8892, 2056.457
447.3713, 2016.193
447.8534, 1991.887
448.3355, 1985.411
448.8176, 1992.045
449.2997, 2016.982
449.7819, 2063.019
450.2640, 2081.249
450.7461, 2065.096
451.2282, 2036.131
451.7103, 2018.305
452.1924, 2011.716
452.6746, 2007.933
453.1567, 2006.439
453.6388, 2005.202
454.1209, 1995.439
454.6030, 1977.226
455.0851, 1964.342
455.5673, 1967.892
456.0494, 1984.240
456.5315, 2009.140
457.0136, 2047.782
457.4957, 2078.469
457.9778, 2070.701
458.4599, 2037.447
458.9420, 2011.477
459.4242, 2021.205
459.9063, 2037.089
460.3884, 2035.173
460.8705, 2012.197
461.3526, 1987.222
461.8347, 1964.578
462.3169, 1946.705
462.7990, 1936.036
463.2811, 1931.318
463.7632, 1936.050
464.2453, 1960.240
464.7274, 2000.377
465.2096, 2021.863
465.6917, 2000.760
466.1738, 1978.588
466.6559, 1976.080
467.1380, 2010.146
467.6201, 2031.247
468.1023, 2036.115
468.5844, 2029.907
469.0665, 2023.370
469.5486, 2018.974
470.0307, 2005.934
470.5128, 1971.967
470.9950, 1919.830
471.4771, 1906.013
471.9592, 1937.335
472.4413, 1978.267
472.9234, 1988.487
473.4055, 1973.140
473.8877, 1967.106
474.3698, 1985.252
474.8519, 2009.968
475.3340, 2006.422
475.8161, 1979.163
476.2982, 1958.025
476.7804, 1978.606
477.2625, 2009.180
477.7446, 2004.352
478.2267, 1947.468
478.7088, 1896.879
479.1909, 1895.764
479.6731, 1925.172
480.1552, 1954.904
480.6373, 1978.528
481.1194, 1995.950
481.6015, 2006.696
482.0836, 2010.814
482.5658, 2010.226
483.0479, 1999.735
483.5300, 1988.077
484.0121, 1981.713
484.4942, 1995.843
484.9763, 1992.418
485.4585, 1951.887
485.9406, 1895.766
486.4227, 1892.967
486.9048, 1976.691
487.3869, 2043.106
487.8690, 2036.823
488.3512, 1949.410
488.8333, 1911.329
489.3154, 1934.081
489.7975, 1976.326
490.2796, 1989.671
490.7617, 1975.905
491.2439, 1960.454
491.7260, 1947.161
492.2081, 1939.040
492.6902, 1949.099
493.1723, 1974.543
493.6544, 1990.739
494.1366, 1969.191
494.6187, 1931.624
495.1008, 1908.330
495.5829, 1905.721
496.0650, 1911.551
496.5471, 1920.430
497.0293, 1931.443
497.5114, 1943.134
497.9935, 1959.930
498.4756, 1972.964
498.9577, 1976.001
499.4398, 1968.612
499.9220, 1964.634
500.4041, 1969.930
500.8862, 1977.399
501.3683, 1982.030
501.8504, 1983.019
502.3325, 1982.116
502.8146, 1977.681
503.2968, 1971.803
503.7789, 1970.043
504.2610, 1973.451
504.7431, 1978.531
505.2252, 1984.956
505.7073, 1992.773
506.1895, 1995.797
506.6716, 1993.157
507.1537, 1989.118
507.6358, 1991.547
508.1179, 1998.328
508.6000, 1993.547
509.0822, 1963.298
509.5643, 1931.405
510.0464, 1943.077
510.5285, 1989.551
511.0106, 2029.111
511.4927, 2031.360
511.9749, 2015.057
512.4570, 1997.837
512.9391, 1981.242
513.4212, 1968.147
513.9033, 1961.095
514.3854, 1958.169
514.8676, 1956.955
515.3497, 1953.961
515.8318, 1955.454
516.3139, 1968.213
516.7960, 1990.740
517.2781, 2001.232
517.7603, 1991.305
518.2424, 1976.687
518.7245, 1964.557
519.2066, 1955.463
519.6887, 1947.167
520.1708, 1937.298
520.6530, 1930.550
521.1351, 1937.825
521.6172, 1961.678
522.0993, 1980.865
522.5814, 1988.928
523.0635, 1986.890
523.5457, 1975.873
524.0278, 1955.599
524.5099, 1935.920
524.9920, 1924.956
525.4741, 1920.789
525.9562, 1918.605
526.4384, 1915.495
526.9205, 1919.909
527.4026, 1951.200
527.8847, 1995.605
528.3668, 2024.557
528.8489, 2014.518
529.3311, 1993.479
529.8132, 1974.322
530.2953, 1957.683
530.7774, 1943.940
531.2595, 1935.355
531.7416, 1928.452
532.2238, 1920.738
532.7059, 1901.085
533.1880, 1896.014
533.6701, 1911.266
534.1522, 1939.671
534.6343, 1966.521
535.1165, 1995.032
535.5986, 2014.979
536.0807, 2023.759
536.5628, 2021.304
537.0449, 1998.860
537.5270, 1950.717
538.0092, 1909.269
538.4913, 1913.219
538.9734, 1952.650
539.4555, 1985.279
539.9376, 2003.013
540.4197, 2009.630
540.9019, 2008.032
541.3840, 1999.141
541.8661, 1985.924
542.3482, 1956.152
542.8303, 1932.306
543.3124, 1937.080
543.7946, 1973.129
544.2767, 2006.181
544.7588, 2023.713
545.2409, 2031.509
545.7230, 2034.315
546.2051, 2027.759
546.6873, 2022.434
547.1694, 2018.665
547.6515, 2016.781
548.1336, 2018.457
548.6157, 2027.896
549.0978, 2033.635
549.5800, 2032.441
550.0621, 2024.369
550.5442, 2004.538
551.0263, 1967.016
551.5084, 1936.973
551.9905, 1948.907
552.4727, 1996.193
552.9548, 2024.378
553.4369, 2018.723
553.9190, 1999.796
554.4011, 2000.697
554.8832, 2014.788
555.3654, 2018.652
555.8475, 1979.869
556.3296, 1938.342
556.8117, 1934.961
557.2938, 1971.875
557.7759, 2007.594
558.2581, 2025.383
558.7402, 2032.153
559.2223, 2033.231
559.7044, 2019.466
560.1865, 2013.212
560.6686, 2028.647
561.1508, 2051.743
561.6329, 2050.985
562.1150, 2002.642
562.5971, 1970.779
563.0792, 1982.636
563.5613, 2036.822
564.0435, 2058.711
564.5256, 2041.673
565.0077, 2016.488
565.4898, 2010.509
565.9719, 2020.919
566.4540, 2023.758
566.9362, 2012.860
567.4183, 2001.116
567.9004, 2006.927
568.3824, 2026.368
568.8646, 2048.134
569.3467, 2082.471
569.8288, 2105.791
570.3109, 2084.552
570.7930, 2023.819
571.2751, 1984.582
571.7573, 2017.807
572.2394, 2067.444
572.7215, 2095.575
573.2036, 2083.544
573.6857, 2074.278
574.1678, 2068.649
574.6500, 2068.821
575.1321, 2080.126
575.6142, 2113.487
576.0963, 2134.815
576.5784, 2133.027
577.0605, 2112.896
577.5427, 2098.551
578.0248, 2089.320
578.5069, 2089.179
578.9890, 2106.810
579.4711, 2136.889
579.9532, 2156.975
580.4354, 2164.711
580.9175, 2166.500
581.3996, 2168.006
581.8817, 2168.433
582.3638, 2166.089
582.8459, 2154.661
583.3281, 2146.233
583.8102, 2149.758
584.2923, 2162.912
584.7744, 2177.704
585.2565, 2205.357
585.7386, 2222.382
586.2208, 2210.767
586.7029, 2153.849
587.1850, 2132.159
587.6671, 2166.481
588.1492, 2216.188
588.6313, 2246.463
589.1135, 2254.101
589.5956, 2252.483
590.0777, 2238.171
590.5598, 2221.135
591.0419, 2230.580
591.5240, 2265.195
592.0062, 2287.669
592.4883, 2265.757
592.9704, 2223.141
593.4525, 2210.283
593.9346, 2226.158
594.4167, 2246.042
594.8989, 2252.441
595.3810, 2253.161
595.8631, 2257.882
596.3452, 2273.988
596.8273, 2281.683
597.3094, 2262.626
597.7916, 2233.069
598.2737, 2218.085
598.7558, 2233.982
599.2379, 2250.842
599.7200, 2264.575
600.2021, 2275.256
600.6843, 2283.572
601.1664, 2291.248
601.6485, 2292.505
602.1306, 2281.531
602.6127, 2258.389
603.0948, 2238.571
603.5770, 2222.305
604.0591, 2211.615
604.5412, 2215.080
605.0233, 2226.744
605.5054, 2228.352
605.9875, 2209.520
606.4697, 2186.688
606.9518, 2174.948
607.4339, 2171.601
607.9160, 2169.476
608.3981, 2158.209
608.8802, 2153.488
609.3624, 2171.134
609.8445, 2215.607
610.3266, 2236.629
610.8087, 2208.368
611.2908, 2170.451
611.7729, 2146.735
612.2551, 2144.008
612.7372, 2136.908
613.2193, 2121.635
613.7014, 2105.832
614.1835, 2103.959
614.6656, 2116.506
615.1478, 2125.198
615.6299, 2120.026
616.1120, 2111.226
616.5941, 2125.792
617.0762, 2159.494
617.5583, 2184.674
618.0405, 2179.679
618.5226, 2159.977
619.0047, 2138.029
619.4868, 2114.136
619.9689, 2096.600
620.4510, 2096.959
620.9332, 2101.211
621.4153, 2096.659
621.8974, 2057.239
622.3795, 2040.283
622.8616, 2060.074
623.3438, 2100.538
623.8259, 2129.072
624.3080, 2146.534
624.7901, 2148.821
625.2722, 2128.067
625.7543, 2090.885
626.2365, 2074.456
626.7186, 2079.643
627.2007, 2088.057
627.6828, 2086.836
628.1649, 2078.879
628.6470, 2068.440
629.1292, 2055.226
629.6113, 2045.039
630.0934, 2046.773
630.5755, 2052.644
631.0576, 2052.866
631.5397, 2040.144
632.0219, 2026.123
632.5040, 2010.939
632.9861, 1996.673
633.4682, 1989.847
633.9503, 1993.313
634.4324, 2000.438
634.9146, 2009.272
