##NAMES=Baumhauerite
##RRUFFID=R050429
##IDEAL CHEMISTRY=Pb^2+^_12_As^3+^_16_S^2-^_36_
##LOCALITY=Binntal, Valais, Switzerland
##OWNER=RRUFF
##SOURCE=University of Arizona Mineral Museum
##DESCRIPTION=Lead gray metallic with iridescent tarnish and conchoidal fracture
##STATUS=The identification of this mineral has been confirmed only by single crystal X-ray diffraction.
##URL=rruff.info/R050429
91.00781, 2.388509
91.48993, 2.190503
91.97205, 2.111402
92.45416, 2.219858
92.93628, 2.443765
93.41840, 2.635546
93.90051, 2.783624
94.38263, 2.870600
94.86475, 2.836221
95.34686, 2.681689
95.82898, 2.522003
96.31110, 2.381547
96.79321, 2.275485
97.27533, 2.408626
97.75745, 2.923762
98.23956, 3.698965
98.72168, 4.179734
99.20380, 4.306410
99.68591, 4.311199
100.1680, 4.402309
100.6501, 4.564243
101.1323, 4.884686
101.6144, 5.391748
102.0965, 6.089421
102.5786, 6.947559
103.0607, 8.057805
103.5428, 9.254346
104.0250, 10.29016
104.5071, 11.12343
104.9892, 11.85025
105.4713, 12.48793
105.9534, 12.99108
106.4355, 13.49915
106.9177, 13.99168
107.3998, 14.48772
107.8819, 15.05709
108.3640, 15.42935
108.8461, 16.08435
109.3282, 17.26227
109.8104, 19.80653
110.2925, 21.88047
110.7746, 23.24450
111.2567, 23.96755
111.7388, 24.64279
112.2209, 25.08874
112.7031, 25.62649
113.1852, 26.48477
113.6673, 28.02067
114.1494, 29.57659
114.6315, 30.94262
115.1136, 32.11538
115.5958, 33.39039
116.0779, 35.13248
116.5600, 36.94626
117.0421, 38.38248
117.5242, 38.70637
118.0063, 39.05996
118.4885, 40.19485
118.9706, 42.33046
119.4527, 44.39257
119.9348, 45.75602
120.4169, 46.63193
120.8990, 47.42631
121.3812, 48.27553
121.8633, 49.15898
122.3454, 50.09229
122.8275, 51.16103
123.3096, 52.08495
123.7917, 52.50014
124.2739, 52.51976
124.7560, 52.55909
125.2381, 52.78571
125.7202, 53.22527
126.2023, 53.93851
126.6844, 55.02355
127.1666, 56.28401
127.6487, 57.58671
128.1308, 58.91760
128.6129, 59.97361
129.0950, 60.21060
129.5771, 59.89791
130.0593, 60.01477
130.5414, 60.93737
131.0235, 62.43528
131.5056, 63.99053
131.9877, 65.38129
132.4698, 66.32226
132.9520, 66.73902
133.4341, 66.66680
133.9162, 66.68214
134.3983, 67.01833
134.8804, 67.62578
135.3625, 68.18678
135.8447, 68.74350
136.3268, 69.17137
136.8089, 69.20268
137.2910, 68.75075
137.7731, 68.43315
138.2552, 68.65921
138.7374, 69.57286
139.2195, 69.73418
139.7016, 68.86638
140.1837, 67.52152
140.6658, 66.90654
141.1479, 67.26794
141.6301, 67.74856
142.1122, 67.92462
142.5943, 67.60684
143.0764, 67.52895
143.5585, 67.88409
144.0406, 68.47228
144.5228, 68.54913
145.0049, 67.74719
145.4870, 66.89604
145.9691, 66.45389
146.4512, 66.57878
146.9333, 66.85367
147.4155, 67.41096
147.8976, 68.19016
148.3797, 68.54803
148.8618, 68.18435
149.3439, 67.62369
149.8260, 67.20399
150.3082, 66.89890
150.7903, 66.75629
151.2724, 66.82802
151.7545, 67.11890
152.2366, 67.37644
152.7188, 67.51076
153.2009, 67.64556
153.6830, 67.87863
154.1651, 68.74178
154.6472, 69.19463
155.1293, 68.77846
155.6115, 67.34118
156.0936, 66.26739
156.5757, 65.97923
157.0578, 66.10064
157.5399, 66.22652
158.0220, 66.49793
158.5042, 66.56333
158.9863, 66.14258
159.4684, 65.04814
159.9505, 64.30821
160.4326, 64.51233
160.9147, 65.22374
161.3969, 65.79284
161.8790, 66.05016
162.3611, 66.07130
162.8432, 65.85194
163.3253, 65.32330
163.8074, 64.77834
164.2896, 64.13419
164.7717, 63.56387
165.2538, 63.41537
165.7359, 64.37897
166.2180, 65.51509
166.7001, 66.07639
167.1823, 65.74457
167.6644, 65.22612
168.1465, 64.96184
168.6286, 64.86409
169.1107, 64.68723
169.5928, 64.12101
170.0750, 63.48099
170.5571, 63.10165
171.0392, 63.14661
171.5213, 63.32934
172.0034, 63.42371
172.4855, 63.45277
172.9677, 63.51395
173.4498, 63.79562
173.9319, 64.11996
174.4140, 64.22009
174.8961, 63.93694
175.3782, 63.50558
175.8604, 63.05444
176.3425, 62.61028
176.8246, 62.41177
177.3067, 62.87576
177.7888, 63.70319
178.2709, 64.27921
178.7531, 64.40030
179.2352, 64.20442
179.7173, 63.79664
180.1994, 63.18483
180.6815, 62.60976
181.1636, 62.38741
181.6458, 62.39278
182.1279, 62.23972
182.6100, 61.55607
183.0921, 60.73969
183.5742, 60.77583
184.0563, 61.70356
184.5385, 62.67962
185.0206, 62.71162
185.5027, 61.98953
185.9848, 61.43213
186.4669, 61.49604
186.9490, 61.94420
187.4312, 62.03823
187.9133, 61.74209
188.3954, 61.32249
188.8775, 61.05334
189.3596, 60.92820
189.8417, 60.88223
190.3239, 60.88112
190.8060, 60.93671
191.2881, 61.16642
191.7702, 61.61579
192.2523, 62.05502
192.7344, 62.10054
193.2166, 61.75347
193.6987, 61.53245
194.1808, 61.74121
194.6629, 62.32887
195.1450, 62.66274
195.6271, 62.68636
196.1093, 62.60144
196.5914, 62.70219
197.0735, 62.99970
197.5556, 63.33955
198.0377, 63.73870
198.5198, 64.20268
199.0020, 64.31441
199.4841, 63.98203
199.9662, 63.45770
200.4483, 63.10476
200.9304, 62.92093
201.4125, 62.91679
201.8947, 63.20378
202.3768, 63.82759
202.8589, 64.12685
203.3410, 64.01006
203.8231, 63.68480
204.3052, 63.52365
204.7874, 63.54081
205.2695, 63.65563
205.7516, 63.84731
206.2337, 64.12501
206.7158, 64.44682
207.1979, 64.88324
207.6801, 65.29614
208.1622, 65.32481
208.6443, 64.82607
209.1264, 64.38792
209.6085, 64.31451
210.0906, 64.70052
210.5728, 65.02730
211.0549, 65.29916
211.5370, 65.49811
212.0191, 65.55354
212.5012, 65.41041
212.9833, 65.26244
213.4655, 65.23410
213.9476, 65.40596
214.4297, 65.35648
214.9118, 64.89739
215.3939, 64.30647
215.8760, 64.39162
216.3581, 65.57768
216.8403, 66.56286
217.3224, 66.53510
217.8045, 64.88519
218.2866, 64.18057
218.7687, 64.90923
219.2508, 66.44965
219.7330, 67.06467
220.2151, 66.38177
220.6972, 65.45921
221.1793, 64.76246
221.6614, 64.26363
222.1435, 64.06084
222.6257, 64.23098
223.1078, 64.67217
223.5899, 65.14684
224.0720, 65.78880
224.5541, 66.25121
225.0362, 66.35030
225.5184, 65.91761
226.0005, 65.53693
226.4826, 65.21857
226.9647, 64.95961
227.4468, 64.71593
227.9289, 64.37064
228.4111, 64.22686
228.8932, 64.48968
229.3753, 65.47487
229.8574, 66.10973
230.3395, 66.28249
230.8216, 66.11545
231.3038, 65.92857
231.7859, 65.70077
232.2680, 65.48523
232.7501, 65.31913
233.2322, 65.27306
233.7143, 65.09972
234.1965, 64.67606
234.6786, 64.14757
235.1607, 63.93364
235.6428, 64.19634
236.1249, 64.53569
236.6070, 64.78602
237.0892, 64.94009
237.5713, 65.01062
238.0534, 64.94759
238.5355, 64.81313
239.0176, 64.76786
239.4997, 64.83983
239.9819, 64.96078
240.4640, 65.12535
240.9461, 65.43513
241.4282, 65.53505
241.9103, 65.30022
242.3924, 64.89575
242.8746, 64.74313
243.3567, 65.04659
243.8388, 65.29118
244.3209, 65.19698
244.8030, 64.44037
245.2851, 64.25060
245.7673, 64.93103
246.2494, 66.05533
246.7315, 66.69972
247.2136, 66.69810
247.6957, 66.48077
248.1778, 66.18010
248.6600, 65.74874
249.1421, 65.37373
249.6242, 65.00541
250.1063, 64.71589
250.5884, 64.68335
251.0705, 65.10403
251.5527, 65.44563
252.0348, 65.48524
252.5169, 65.11574
252.9990, 64.82766
253.4811, 64.61697
253.9632, 64.48647
254.4454, 64.44485
254.9275, 64.50075
255.4096, 64.62718
255.8917, 64.82635
256.3738, 65.11269
256.8560, 65.41582
257.3381, 65.80219
257.8202, 66.15253
258.3023, 66.26174
258.7844, 66.00959
259.2665, 65.77291
259.7487, 65.63005
260.2308, 65.56052
260.7129, 65.80099
261.1950, 66.57277
261.6771, 67.41287
262.1592, 67.61108
262.6414, 66.86933
263.1235, 66.23402
263.6056, 66.01009
264.0877, 66.21806
264.5698, 66.53952
265.0519, 67.06055
265.5341, 67.57658
266.0162, 67.83284
266.4983, 67.75563
266.9804, 67.63359
267.4625, 67.49969
267.9446, 67.35729
268.4268, 67.40099
268.9089, 67.71388
269.3910, 68.06451
269.8731, 68.21800
270.3552, 68.14561
270.8373, 67.96498
271.3195, 67.59787
271.8016, 67.09834
272.2837, 67.10699
272.7658, 67.81735
273.2479, 68.60097
273.7300, 68.86297
274.2122, 68.53146
274.6943, 68.10938
275.1764, 67.61357
275.6585, 67.10756
276.1406, 66.98740
276.6227, 67.34596
277.1049, 67.78509
277.5870, 67.89201
278.0691, 67.61073
278.5512, 67.69590
279.0333, 68.41785
279.5154, 69.51173
279.9976, 70.04154
280.4797, 69.92657
280.9618, 69.66698
281.4439, 69.58743
281.9260, 69.68962
282.4081, 69.86690
282.8903, 70.14505
283.3724, 70.44672
283.8545, 70.52303
284.3366, 70.34483
284.8187, 70.24962
285.3008, 70.57439
285.7830, 71.26765
286.2651, 71.66352
286.7472, 71.65652
287.2293, 71.42442
287.7114, 71.17540
288.1935, 70.91145
288.6757, 70.90401
289.1578, 71.52965
289.6399, 72.62031
290.1220, 73.26122
290.6041, 73.35463
291.0862, 73.16045
291.5684, 73.01555
292.0505, 72.91018
292.5326, 72.76239
293.0147, 72.49744
293.4968, 72.15797
293.9789, 71.79610
294.4611, 71.38270
294.9432, 71.15446
295.4253, 71.63130
295.9074, 72.62468
296.3895, 73.30825
296.8716, 73.15782
297.3538, 72.50903
297.8359, 71.97736
298.3180, 71.55548
298.8001, 71.30821
299.2822, 71.46056
299.7643, 71.84761
300.2465, 72.02356
300.7286, 71.60032
301.2107, 71.03559
301.6928, 71.05640
302.1749, 71.62541
302.6570, 72.17250
303.1392, 72.21626
303.6213, 71.93306
304.1034, 71.62189
304.5855, 71.36659
305.0676, 71.11692
305.5497, 70.82310
306.0319, 70.48791
306.5140, 70.10988
306.9961, 69.59947
307.4782, 69.08292
307.9603, 68.71138
308.4424, 68.55450
308.9246, 68.48966
309.4067, 68.48054
309.8888, 68.49665
310.3709, 68.45102
310.8530, 68.25938
311.3351, 68.00561
311.8173, 67.82069
312.2994, 67.82822
312.7815, 67.57562
313.2636, 66.36504
313.7457, 64.74473
314.2278, 63.69547
314.7100, 64.24542
315.1921, 65.06508
315.6742, 65.34123
316.1563, 64.92448
316.6384, 64.39406
317.1205, 63.88283
317.6027, 63.43701
318.0848, 63.11871
318.5669, 63.20540
319.0490, 63.19279
319.5311, 62.81085
320.0132, 62.03215
320.4954, 61.31513
320.9775, 60.76862
321.4596, 60.35192
321.9417, 60.04030
322.4238, 60.02540
322.9059, 59.90995
323.3881, 59.53696
323.8702, 58.93478
324.3523, 58.41947
324.8344, 58.13007
325.3165, 57.88017
325.7986, 57.55687
326.2808, 56.94609
326.7629, 56.50471
327.2450, 56.31450
327.7271, 56.32986
328.2092, 56.37135
328.6913, 56.63811
329.1735, 56.75396
329.6556, 56.55927
330.1377, 55.88346
330.6198, 55.20956
331.1019, 54.42107
331.5840, 53.67043
332.0662, 53.25811
332.5483, 53.44456
333.0304, 53.59281
333.5125, 53.47986
333.9946, 53.04005
334.4767, 52.69333
334.9589, 52.52571
335.4410, 52.37124
335.9231, 51.98348
336.4052, 51.23637
336.8873, 50.59684
337.3694, 50.18668
337.8516, 49.99848
338.3336, 49.89118
338.8158, 49.87648
339.2979, 49.91986
339.7800, 50.06214
340.2621, 50.35594
340.7442, 50.34541
341.2263, 49.83784
341.7085, 49.02965
342.1906, 48.61529
342.6727, 48.62955
343.1548, 48.79699
343.6369, 49.00447
344.1190, 49.23917
344.6012, 49.28788
345.0833, 49.07110
345.5654, 48.76648
346.0475, 48.72741
346.5296, 48.93587
347.0117, 49.11232
347.4939, 48.99781
347.9760, 48.72377
348.4581, 48.76199
348.9402, 49.17702
349.4223, 49.66111
349.9044, 49.84278
350.3866, 49.80093
350.8687, 49.80793
351.3508, 49.97631
351.8329, 50.26049
352.3150, 50.65105
352.7971, 51.14409
353.2793, 51.55451
353.7614, 51.68626
354.2435, 51.65630
354.7256, 51.66034
355.2077, 51.79860
355.6898, 51.93546
356.1720, 51.83306
356.6541, 51.58189
357.1362, 51.56436
357.6183, 52.27668
358.1004, 53.17328
358.5826, 53.71956
359.0647, 53.66703
359.5468, 53.64206
360.0289, 54.11813
360.5110, 54.85070
360.9931, 55.37593
361.4753, 55.50331
361.9574, 55.37986
362.4395, 54.97612
362.9216, 54.21890
363.4037, 53.65504
363.8858, 53.71933
364.3680, 53.95301
364.8501, 53.87250
365.3322, 52.86565
365.8143, 52.06065
366.2964, 51.87170
366.7785, 52.28453
367.2607, 52.45551
367.7428, 51.93141
368.2249, 51.39182
368.7070, 51.25916
369.1891, 52.29769
369.6712, 52.72111
370.1534, 52.12871
370.6355, 50.87535
371.1176, 50.07716
371.5997, 49.97536
372.0818, 50.01820
372.5639, 50.00978
373.0461, 49.96293
373.5282, 49.80762
374.0103, 49.50992
374.4924, 49.13090
374.9745, 48.76675
375.4566, 48.42360
375.9388, 48.07450
376.4209, 47.75162
376.9030, 47.43784
377.3851, 46.88780
377.8672, 46.03273
378.3493, 45.14284
378.8315, 44.48175
379.3136, 44.04731
379.7957, 43.70657
380.2778, 43.46984
380.7599, 43.27380
381.2420, 42.96984
381.7242, 42.56315
382.2063, 42.05389
382.6884, 41.35413
383.1705, 40.53944
383.6526, 39.91629
384.1347, 39.53958
384.6169, 39.24998
385.0990, 38.91753
385.5811, 38.52493
386.0632, 38.03041
386.5453, 37.23288
387.0274, 36.40242
387.5096, 36.00551
387.9917, 36.04280
388.4738, 36.03700
388.9559, 35.44843
389.4380, 34.64745
389.9201, 34.13885
390.4023, 34.35702
390.8844, 34.60271
391.3665, 34.31207
391.8486, 33.62754
392.3307, 33.08159
392.8128, 33.11736
393.2950, 33.25550
393.7771, 33.17035
394.2592, 32.76481
394.7413, 32.25826
395.2234, 31.44919
395.7055, 30.63772
396.1877, 30.28811
396.6698, 30.96010
397.1519, 31.67195
397.6340, 32.18362
398.1161, 32.48851
398.5982, 32.54557
399.0804, 32.08843
399.5625, 31.54291
400.0446, 31.21733
400.5267, 31.25132
401.0088, 31.30981
401.4909, 31.42900
401.9731, 31.55908
402.4552, 31.47167
402.9373, 31.04177
403.4194, 30.59854
403.9015, 30.27320
404.3836, 30.04576
404.8658, 30.05505
405.3479, 30.41075
405.8300, 30.85340
406.3121, 31.00478
406.7942, 30.84420
407.2763, 30.50920
407.7585, 29.88833
408.2406, 29.10929
408.7227, 28.99883
409.2048, 29.61767
409.6869, 30.38614
410.1690, 30.85851
410.6512, 31.05049
411.1333, 31.03357
411.6154, 30.76813
412.0975, 30.39664
412.5796, 30.11090
413.0617, 29.90306
413.5439, 29.72700
414.0260, 29.56281
414.5081, 29.41006
414.9902, 29.25457
415.4723, 29.08905
415.9544, 28.98096
416.4366, 29.00598
416.9187, 29.12047
417.4008, 29.25837
417.8829, 29.54719
418.3650, 29.72260
418.8471, 29.54922
419.3293, 29.08588
419.8114, 28.67559
420.2935, 28.48809
420.7756, 28.39110
421.2577, 28.27950
421.7398, 28.00580
422.2220, 27.96416
422.7041, 28.51316
423.1862, 29.30933
423.6683, 29.73748
424.1504, 29.50608
424.6325, 29.11686
425.1147, 28.60811
425.5968, 27.92348
426.0789, 27.58587
426.5610, 27.78463
427.0431, 28.15767
427.5252, 28.42340
428.0074, 28.56874
428.4895, 28.62845
428.9716, 28.56774
429.4537, 28.43521
429.9358, 28.40233
430.4179, 28.50401
430.9001, 28.58145
431.3822, 28.50715
431.8643, 28.27643
432.3464, 28.23541
432.8285, 28.41957
433.3106, 28.68048
433.7928, 28.89245
434.2749, 29.04272
434.7570, 29.00156
435.2391, 28.61391
435.7212, 28.10184
436.2033, 27.88573
436.6855, 27.95476
437.1676, 28.18089
437.6497, 28.77069
438.1318, 29.37262
438.6139, 29.32225
439.0960, 28.33628
439.5782, 27.35070
440.0603, 27.23006
440.5424, 27.64989
441.0245, 28.00299
441.5066, 27.86794
441.9887, 27.72526
442.4709, 28.02672
442.9530, 28.74911
443.4351, 29.06158
443.9172, 28.13694
444.3993, 26.98202
444.8814, 26.34369
445.3636, 26.71531
445.8457, 27.10380
446.3278, 27.39902
446.8099, 27.61646
447.2920, 27.80627
447.7741, 28.09789
448.2563, 28.21573
448.7384, 27.99133
449.2205, 27.33718
449.7026, 27.05258
450.1847, 27.33723
450.6668, 27.74418
451.1490, 27.82594
451.6311, 27.46515
452.1132, 27.23799
452.5953, 27.24336
453.0774, 27.42155
453.5595, 27.66297
454.0417, 27.98590
454.5238, 28.20504
455.0059, 28.19586
455.4880, 27.98954
455.9701, 27.69559
456.4522, 27.29317
456.9344, 26.97280
457.4165, 27.05974
457.8986, 27.40512
458.3807, 27.56977
458.8628, 27.25522
459.3449, 26.87879
459.8271, 27.05783
460.3092, 27.64687
460.7913, 28.02451
461.2734, 27.52337
461.7555, 26.83718
462.2376, 26.61108
462.7198, 27.04304
463.2019, 27.42665
463.6840, 27.27595
464.1661, 26.94345
464.6482, 26.85571
465.1303, 27.50274
465.6125, 28.01028
466.0946, 28.06205
466.5767, 27.70992
467.0588, 27.46477
467.5409, 27.52007
468.0230, 27.55153
468.5052, 27.39569
468.9873, 26.90709
469.4694, 26.59818
469.9515, 26.52160
470.4336, 26.57925
470.9157, 26.65046
471.3979, 26.75224
471.8800, 26.81291
472.3621, 26.83281
472.8442, 26.79603
473.3263, 26.53577
473.8084, 26.00350
474.2906, 25.62324
474.7727, 25.83384
475.2548, 26.50005
475.7369, 26.97000
476.2190, 27.16785
476.7011, 27.20694
477.1833, 27.21103
477.6654, 27.16858
478.1475, 27.04668
478.6296, 26.73522
479.1117, 26.40491
479.5938, 26.26033
480.0760, 26.27448
480.5581, 26.27051
481.0402, 25.98835
481.5223, 25.73976
482.0044, 25.84599
482.4865, 26.56768
482.9687, 27.08775
483.4508, 26.95513
483.9329, 26.50091
484.4150, 26.19947
484.8971, 26.20295
485.3792, 26.29332
485.8614, 26.48877
486.3435, 26.77328
486.8256, 26.90317
487.3077, 26.77561
487.7898, 26.61321
488.2719, 26.55366
488.7541, 26.67796
489.2362, 26.62165
489.7183, 26.29267
490.2004, 25.90197
490.6825, 25.77908
491.1646, 25.94697
491.6468, 26.16059
492.1289, 26.39296
492.6110, 26.59765
493.0931, 26.60649
493.5752, 26.42191
494.0573, 26.24565
494.5395, 26.22607
495.0216, 26.31748
495.5037, 26.45313
495.9858, 26.64038
496.4679, 26.77044
496.9500, 26.74012
497.4322, 26.58416
497.9143, 26.36024
498.3964, 25.92643
498.8785, 25.57878
499.3606, 25.54904
499.8427, 25.77594
500.3249, 25.97373
500.8070, 25.98011
501.2891, 25.98227
501.7712, 26.10725
502.2533, 26.47144
502.7354, 26.66000
503.2176, 26.59673
503.6997, 26.36462
504.1818, 26.01445
504.6639, 25.35103
505.1460, 24.93495
505.6281, 24.87984
506.1103, 25.12501
506.5924, 25.50169
507.0745, 26.09183
507.5566, 26.52303
508.0387, 26.51861
508.5208, 26.10680
509.0030, 25.86799
509.4851, 25.81948
509.9672, 25.84884
510.4493, 25.82612
510.9314, 25.78015
511.4135, 25.82406
511.8957, 26.03585
512.3778, 26.26237
512.8599, 26.38340
513.3420, 26.38128
513.8242, 26.20388
514.3063, 25.50808
514.7884, 24.84739
515.2705, 24.75871
515.7526, 25.28053
516.2347, 25.69518
516.7169, 25.65521
517.1990, 25.43197
517.6811, 25.22376
518.1632, 24.90587
518.6453, 24.81829
519.1274, 25.28295
519.6096, 25.94622
520.0917, 26.12437
520.5738, 25.43789
521.0559, 24.89502
521.5380, 24.77628
522.0201, 25.05805
522.5023, 25.37031
522.9844, 25.77356
523.4665, 26.03628
523.9486, 25.92295
524.4307, 25.45491
524.9128, 25.04170
525.3950, 24.69279
525.8771, 24.49693
526.3592, 24.69175
526.8413, 25.16879
527.3234, 25.53867
527.8055, 25.61309
528.2877, 25.55011
528.7698, 25.47279
529.2519, 25.39972
529.7340, 25.40709
530.2161, 25.60831
530.6982, 25.85896
531.1804, 26.07065
531.6625, 26.23521
532.1446, 26.32075
532.6267, 26.35043
533.1088, 26.27864
533.5909, 26.06310
534.0731, 25.39048
534.5552, 24.95984
535.0373, 24.94647
535.5194, 25.18687
536.0015, 25.26449
536.4836, 25.11849
536.9658, 24.92617
537.4479, 24.70585
537.9300, 24.46656
538.4121, 24.45418
538.8942, 24.71506
539.3763, 25.00846
539.8585, 25.12910
540.3406, 25.10103
540.8227, 25.03475
541.3048, 24.91573
541.7869, 24.86397
542.2690, 25.18290
542.7512, 25.69382
543.2333, 25.94559
543.7154, 25.51855
544.1975, 24.95104
544.6796, 24.61292
545.1617, 24.49256
545.6439, 24.55480
546.1260, 25.15781
546.6081, 25.65137
547.0902, 25.53771
547.5723, 24.54236
548.0544, 23.88927
548.5366, 23.95826
549.0187, 24.32178
549.5008, 24.60659
549.9829, 24.77169
550.4650, 24.93635
550.9471, 25.13260
551.4293, 25.32207
551.9114, 25.40776
552.3935, 25.37202
552.8756, 25.31801
553.3577, 25.28247
553.8398, 25.26057
554.3220, 25.22831
554.8041, 25.18521
555.2862, 25.14256
555.7683, 25.08361
556.2504, 25.03581
556.7325, 25.08746
557.2147, 25.27823
557.6968, 25.41179
558.1789, 25.19270
558.6610, 24.84139
559.1431, 24.68518
559.6252, 25.13045
560.1074, 25.49526
560.5895, 25.41059
561.0716, 25.01158
561.5537, 24.75355
562.0358, 24.92407
562.5179, 25.05453
563.0001, 24.91702
563.4822, 24.46180
563.9643, 24.29287
564.4464, 24.54086
564.9285, 24.89183
565.4106, 25.12056
565.8928, 25.21204
566.3749, 25.28627
566.8570, 25.35819
567.3391, 25.40463
567.8212, 25.40462
568.3033, 25.35414
568.7855, 25.21928
569.2676, 24.95797
569.7497, 24.63616
570.2318, 24.24972
570.7139, 23.85621
571.1960, 23.67572
571.6782, 24.05333
572.1603, 24.55658
572.6424, 24.77234
573.1245, 24.64192
573.6066, 24.65842
574.0887, 25.31471
574.5709, 26.01260
575.0530, 26.28388
575.5351, 25.60542
576.0172, 25.17454
576.4993, 25.17417
576.9814, 25.36522
577.4636, 25.33825
577.9457, 24.96430
578.4278, 24.73045
578.9099, 24.82738
579.3920, 25.12930
579.8741, 25.10932
580.3563, 24.74249
580.8384, 24.38930
581.3205, 24.25168
581.8026, 24.29355
582.2847, 24.51647
582.7668, 24.92731
583.2490, 25.15951
583.7311, 24.68444
584.2132, 23.93190
584.6953, 23.45199
585.1774, 23.41584
585.6595, 23.57455
586.1416, 23.99676
586.6237, 24.48263
587.1058, 24.73674
587.5880, 24.37544
