##NAMES=Bavenite
##RRUFFID=R060065
##IDEAL CHEMISTRY=Ca_4_Be_2+x_Al_2-x_Si_9_O_26-x_(OH)_2+x_ (x = 0 to 1)
##LOCALITY=Tittling, Bavarian Forest, Bavaria, Germany
##OWNER=RRUFF
##SOURCE=University of Arizona Mineral Museum
##DESCRIPTION=White radial aggregate of bladed crystals
##STATUS=The identification of this mineral is confirmed by single-crystal X-ray diffraction and chemical analysis.
##URL=rruff.info/R060065
##MEASURED CHEMISTRY=Ca_4.00_Be_2.00_Al_2.00_Si_9.00_O_26_(OH)_2_ ; Be not measured but assumed by stoichiometry
93.56738, 200.4618
94.04950, 200.4263
94.53162, 201.7831
95.01373, 202.3861
95.49585, 203.2398
95.97797, 203.9252
96.46008, 203.9588
96.94220, 203.8110
97.42432, 202.7821
97.90643, 200.2082
98.38855, 197.3178
98.87067, 194.7311
99.35278, 192.6760
99.83490, 191.1143
100.3170, 189.9191
100.7991, 188.6822
101.2813, 187.8697
101.7634, 187.8413
102.2455, 188.1227
102.7276, 188.0917
103.2097, 187.3768
103.6918, 186.1532
104.1740, 185.5731
104.6561, 186.5028
105.1382, 186.9962
105.6203, 186.3022
106.1024, 184.5014
106.5845, 182.0806
107.0667, 179.2519
107.5488, 175.9879
108.0309, 172.3721
108.5130, 168.0757
108.9951, 163.5656
109.4772, 159.4422
109.9594, 155.8174
110.4415, 152.1865
110.9236, 147.7668
111.4057, 143.0298
111.8878, 138.9771
112.3699, 136.4185
112.8521, 135.1436
113.3342, 133.6530
113.8163, 131.4186
114.2984, 129.5178
114.7805, 128.5688
115.2626, 128.4018
115.7447, 128.4411
116.2269, 128.0840
116.7090, 127.1636
117.1911, 126.4342
117.6732, 125.7216
118.1553, 125.2845
118.6374, 125.3979
119.1196, 126.0606
119.6017, 126.9636
120.0838, 127.5863
120.5659, 127.4308
121.0480, 127.7858
121.5301, 128.8497
122.0123, 130.3344
122.4944, 131.9819
122.9765, 133.7030
123.4586, 135.4610
123.9407, 137.1169
124.4228, 138.5832
124.9050, 140.1346
125.3871, 141.9647
125.8692, 143.9731
126.3513, 145.8790
126.8334, 147.5475
127.3155, 148.9986
127.7977, 150.3556
128.2798, 151.6047
128.7619, 152.7843
129.2440, 153.9754
129.7261, 155.2044
130.2083, 156.2436
130.6904, 156.8169
131.1725, 157.1936
131.6546, 157.5903
132.1367, 158.0417
132.6188, 158.6028
133.1010, 159.4138
133.5831, 160.5498
134.0652, 161.8461
134.5473, 163.3492
135.0294, 164.9408
135.5115, 166.4390
135.9936, 167.6713
136.4758, 168.6821
136.9579, 170.1485
137.4400, 172.8753
137.9221, 175.3079
138.4042, 176.8423
138.8863, 177.7183
139.3685, 178.5847
139.8506, 180.0143
140.3327, 182.1090
140.8148, 184.0727
141.2969, 185.6381
141.7790, 187.3033
142.2612, 189.2969
142.7433, 191.6571
143.2254, 194.3686
143.7075, 197.6038
144.1896, 201.5331
144.6717, 204.5724
145.1539, 206.9796
145.6360, 208.3247
146.1181, 208.0347
146.6002, 205.9480
147.0823, 202.4206
147.5644, 197.3094
148.0466, 190.8587
148.5287, 184.3514
149.0108, 178.3728
149.4929, 172.7623
149.9750, 166.8823
150.4571, 160.1696
150.9393, 153.8441
151.4214, 148.8513
151.9035, 145.1416
152.3856, 141.9676
152.8677, 138.6447
153.3498, 135.1386
153.8320, 132.2170
154.3141, 130.4375
154.7962, 129.0276
155.2783, 127.7449
155.7604, 126.5139
156.2425, 125.2783
156.7247, 123.8912
157.2068, 122.0809
157.6889, 120.7964
158.1710, 120.2749
158.6531, 120.0788
159.1352, 119.9219
159.6174, 119.7152
160.0995, 119.5469
160.5816, 119.6198
161.0637, 120.4966
161.5458, 120.8306
162.0279, 120.2233
162.5101, 119.2386
162.9922, 118.4436
163.4743, 118.0813
163.9564, 118.0309
164.4385, 117.9480
164.9206, 117.7149
165.4028, 117.5988
165.8849, 117.7438
166.3670, 118.0305
166.8491, 118.2321
167.3312, 118.2212
167.8133, 118.0768
168.2955, 118.0504
168.7776, 118.2173
169.2597, 118.3734
169.7418, 118.4230
170.2239, 118.3763
170.7060, 118.2766
171.1882, 118.0921
171.6703, 117.8982
172.1524, 117.8466
172.6345, 118.0437
173.1166, 118.2377
173.5987, 118.1868
174.0809, 117.8723
174.5630, 117.4858
175.0451, 117.0438
175.5272, 116.6063
176.0093, 116.2182
176.4914, 115.8696
176.9736, 115.6186
177.4557, 115.6223
177.9378, 116.0541
178.4199, 116.3032
178.9020, 116.0253
179.3841, 115.5399
179.8663, 115.1734
180.3484, 115.0871
180.8305, 115.1863
181.3126, 115.1883
181.7947, 115.0588
182.2768, 114.8648
182.7590, 114.5727
183.2411, 114.2444
183.7232, 113.9699
184.2053, 113.8098
184.6874, 113.7272
185.1695, 113.4974
185.6517, 112.8335
186.1338, 112.3146
186.6159, 112.0968
187.0980, 112.0801
187.5801, 112.1048
188.0622, 112.0711
188.5444, 111.9817
189.0265, 111.8684
189.5086, 111.5998
189.9907, 111.4434
190.4728, 111.5427
190.9549, 111.8326
191.4371, 112.1619
191.9192, 112.4611
192.4013, 112.7036
192.8834, 112.6706
193.3655, 111.9159
193.8476, 111.3291
194.3298, 111.4773
194.8119, 112.2761
195.2940, 113.1785
195.7761, 113.8709
196.2582, 114.3272
196.7403, 114.6325
197.2225, 114.6436
197.7046, 114.6060
198.1867, 114.7329
198.6688, 115.0302
199.1509, 115.3186
199.6330, 115.4460
200.1152, 115.4803
200.5973, 115.5822
201.0794, 115.9263
201.5615, 116.2540
202.0436, 116.1606
202.5257, 115.5391
203.0079, 114.9719
203.4900, 114.8473
203.9721, 114.9773
204.4542, 115.1683
204.9363, 115.3983
205.4184, 115.6168
205.9006, 115.6487
206.3827, 115.2827
206.8648, 115.2430
207.3469, 116.0786
207.8290, 117.3112
208.3111, 118.3740
208.7933, 119.0119
209.2754, 119.2988
209.7575, 119.4242
210.2396, 119.2525
210.7217, 119.1334
211.2038, 119.1038
211.6860, 119.1926
212.1681, 119.4616
212.6502, 119.9694
213.1323, 120.6472
213.6144, 121.1861
214.0965, 121.6295
214.5787, 121.8471
215.0608, 121.6366
215.5429, 121.2384
216.0250, 120.9794
216.5071, 121.0557
216.9892, 121.4037
217.4713, 121.6599
217.9535, 121.8591
218.4356, 121.9119
218.9177, 121.8090
219.3998, 121.5467
219.8819, 121.0808
220.3640, 120.3654
220.8462, 119.4634
221.3283, 118.8055
221.8104, 118.3700
222.2925, 118.1823
222.7746, 118.3591
223.2567, 118.7820
223.7389, 119.2757
224.2210, 119.7582
224.7031, 120.2093
225.1852, 120.4954
225.6673, 120.5201
226.1494, 120.5279
226.6316, 120.5833
227.1137, 120.6721
227.5958, 120.7480
228.0779, 120.7706
228.5600, 120.7817
229.0421, 120.9422
229.5243, 121.3255
230.0064, 121.7336
230.4885, 122.2273
230.9706, 122.7101
231.4527, 122.8764
231.9348, 122.5002
232.4170, 121.7789
232.8991, 121.2391
233.3812, 120.9310
233.8633, 120.6859
234.3454, 120.4086
234.8275, 120.1187
235.3097, 119.9023
235.7918, 119.8092
236.2739, 119.8015
236.7560, 119.8275
237.2381, 119.9364
237.7202, 119.9372
238.2024, 119.4935
238.6845, 118.7166
239.1666, 118.4412
239.6487, 119.3254
240.1308, 120.4975
240.6129, 120.8694
241.0951, 120.3272
241.5772, 119.6091
242.0593, 119.2117
242.5414, 119.1209
243.0235, 119.1458
243.5056, 119.3587
243.9878, 119.5664
244.4699, 119.6158
244.9520, 119.4996
245.4341, 119.2871
245.9162, 118.9992
246.3983, 118.6368
246.8805, 118.3209
247.3626, 118.1006
247.8447, 117.9104
248.3268, 117.6994
248.8089, 117.4721
249.2910, 117.2779
249.7732, 117.1957
250.2553, 117.2332
250.7374, 117.1836
251.2195, 116.9914
251.7016, 116.7359
252.1837, 116.4706
252.6659, 116.1840
253.1480, 115.8124
253.6301, 115.2182
254.1122, 114.3650
254.5943, 113.8146
255.0764, 113.8991
255.5586, 114.0038
256.0407, 113.9166
256.5228, 113.6580
257.0049, 113.3373
257.4870, 113.0204
257.9691, 112.7049
258.4513, 112.4972
258.9334, 112.4600
259.4155, 112.4844
259.8976, 112.5808
260.3797, 112.7182
260.8618, 112.8419
261.3440, 112.9067
261.8261, 112.9162
262.3082, 112.9612
262.7903, 113.2605
263.2724, 113.3682
263.7545, 113.1130
264.2367, 112.5997
264.7188, 111.9887
265.2009, 111.3705
265.6830, 110.7625
266.1651, 110.3316
266.6472, 110.1792
267.1294, 110.1100
267.6115, 110.1830
268.0936, 110.3040
268.5757, 110.3566
269.0578, 110.2794
269.5399, 110.0738
270.0221, 109.7397
270.5042, 108.9306
270.9863, 108.3922
271.4684, 108.2398
271.9505, 108.3903
272.4326, 108.8388
272.9148, 109.5932
273.3969, 110.4413
273.8790, 110.7895
274.3611, 110.1283
274.8432, 109.5406
275.3253, 108.9420
275.8075, 108.4791
276.2896, 108.3780
276.7717, 108.7146
277.2538, 109.2518
277.7359, 109.5452
278.2180, 109.4732
278.7002, 109.3016
279.1823, 108.9122
279.6644, 108.4852
280.1465, 108.2113
280.6286, 108.1349
281.1107, 108.1261
281.5929, 108.0022
282.0750, 107.6971
282.5571, 107.4268
283.0392, 107.2069
283.5213, 107.0105
284.0034, 106.8456
284.4856, 106.7028
284.9677, 106.5034
285.4498, 106.1367
285.9319, 105.5415
286.4140, 105.1248
286.8961, 105.0659
287.3783, 105.0414
287.8604, 104.7644
288.3425, 104.2563
288.8246, 103.8055
289.3067, 103.6672
289.7888, 103.8574
290.2710, 104.0416
290.7531, 104.3464
291.2352, 104.5365
291.7173, 104.4520
292.1994, 104.1219
292.6815, 103.6902
293.1637, 103.2405
293.6458, 102.7671
294.1279, 102.2466
294.6100, 101.4502
295.0921, 100.8467
295.5742, 100.7529
296.0564, 101.0211
296.5385, 101.2818
297.0206, 101.3868
297.5027, 101.3207
297.9848, 101.0067
298.4669, 100.2668
298.9491, 99.63552
299.4312, 99.25436
299.9133, 99.09688
300.3954, 99.17610
300.8775, 99.55016
301.3596, 99.99671
301.8418, 100.0475
302.3239, 99.61781
302.8060, 99.23218
303.2881, 99.03541
303.7702, 98.94530
304.2523, 98.83396
304.7345, 98.66502
305.2166, 98.52970
305.6987, 98.57182
306.1808, 98.80563
306.6629, 99.00996
307.1451, 99.23109
307.6272, 99.36826
308.1093, 99.25061
308.5914, 98.85905
309.0735, 98.45638
309.5556, 98.27016
310.0378, 98.30489
310.5199, 98.38013
311.0020, 98.58003
311.4841, 98.75060
311.9662, 98.73647
312.4483, 98.55309
312.9305, 98.38425
313.4126, 98.35522
313.8947, 98.43780
314.3768, 98.47311
314.8589, 98.40447
315.3410, 98.34939
315.8232, 98.32140
316.3053, 98.34584
316.7874, 98.55446
317.2695, 99.09078
317.7516, 99.74467
318.2337, 99.98609
318.7159, 99.67284
319.1980, 99.35458
319.6801, 99.19004
320.1622, 99.16476
320.6443, 99.27892
321.1264, 99.55589
321.6086, 99.89253
322.0907, 100.1021
322.5728, 100.1621
323.0549, 100.2969
323.5370, 100.5705
324.0191, 100.9398
324.5013, 101.4061
324.9834, 101.9820
325.4655, 102.4646
325.9476, 102.5771
326.4297, 102.3172
326.9118, 102.2641
327.3940, 102.5978
327.8761, 103.0628
328.3582, 103.4692
328.8403, 103.8054
329.3224, 104.1133
329.8045, 104.4254
330.2867, 104.7318
330.7688, 104.9906
331.2509, 105.1568
331.7330, 105.3209
332.2151, 105.5036
332.6972, 105.7165
333.1794, 106.0262
333.6615, 106.5090
334.1436, 107.0459
334.6257, 107.2829
335.1078, 107.0549
335.5899, 106.9189
336.0721, 107.0513
336.5542, 107.3786
337.0363, 107.8289
337.5184, 108.4059
338.0005, 108.9604
338.4826, 109.2208
338.9648, 109.0734
339.4469, 109.1468
339.9290, 109.7125
340.4111, 110.4178
340.8932, 110.9147
341.3753, 111.1564
341.8574, 111.3034
342.3395, 111.4521
342.8217, 111.6066
343.3038, 112.0707
343.7859, 113.4043
344.2680, 114.5464
344.7501, 114.7430
345.2322, 114.1465
345.7144, 113.4273
346.1965, 112.9839
346.6786, 112.7729
347.1607, 112.5448
347.6428, 112.5531
348.1249, 112.2627
348.6071, 111.2975
349.0892, 109.9783
349.5713, 108.8926
350.0534, 108.2860
350.5355, 107.8662
351.0176, 107.0097
351.4998, 105.3475
351.9819, 103.9549
352.4640, 102.9887
352.9461, 102.2553
353.4282, 101.5914
353.9103, 100.9583
354.3925, 100.3798
354.8746, 99.88550
355.3567, 99.49039
355.8388, 99.11689
356.3209, 98.68807
356.8030, 98.34215
357.2852, 98.19289
357.7673, 98.19933
358.2494, 98.24017
358.7315, 98.24241
359.2136, 98.19703
359.6957, 98.00717
360.1779, 97.34701
360.6600, 96.92818
361.1421, 97.10497
361.6242, 97.54814
362.1063, 97.78035
362.5884, 97.59646
363.0706, 97.18637
363.5527, 96.96841
364.0348, 97.10368
364.5169, 97.20113
364.9990, 97.25883
365.4811, 97.28397
365.9633, 97.28306
366.4454, 97.25693
366.9275, 97.20091
367.4096, 97.10625
367.8917, 96.96638
368.3738, 96.82468
368.8560, 96.54423
369.3381, 96.39473
369.8202, 96.64464
370.3023, 97.11220
370.7844, 97.37772
371.2665, 97.13695
371.7487, 96.49406
372.2308, 96.04372
372.7129, 95.82984
373.1950, 95.77641
373.6771, 96.00980
374.1592, 96.32319
374.6414, 96.47826
375.1235, 96.39381
375.6056, 96.21171
376.0877, 96.18835
376.5698, 96.40659
377.0519, 96.54612
377.5341, 96.47755
378.0162, 96.41129
378.4983, 96.46056
378.9804, 96.63057
379.4625, 96.86606
379.9446, 97.16466
380.4268, 97.52041
380.9089, 97.68867
381.3910, 97.50762
381.8731, 97.33692
382.3552, 97.39865
382.8373, 97.54813
383.3195, 97.49931
383.8016, 97.02147
384.2837, 96.43510
384.7658, 96.49448
385.2479, 97.43233
385.7300, 98.23743
386.2122, 98.42269
386.6943, 98.42690
387.1764, 98.60222
387.6585, 99.01549
388.1406, 99.42686
388.6227, 99.53517
389.1049, 99.37470
389.5870, 99.44511
390.0691, 99.98067
390.5512, 100.5419
391.0333, 100.7789
391.5154, 100.7604
391.9976, 100.7428
392.4797, 100.8831
392.9618, 101.0888
393.4439, 101.1611
393.9260, 101.0660
394.4081, 101.0156
394.8903, 101.1634
395.3724, 101.4273
395.8545, 101.6986
396.3366, 102.0625
396.8187, 102.2507
397.3008, 101.8794
397.7830, 101.1029
398.2651, 100.6450
398.7472, 100.8306
399.2293, 101.2596
399.7114, 101.3205
400.1935, 101.0009
400.6757, 100.7815
401.1578, 101.0175
401.6399, 101.3282
402.1220, 101.1504
402.6041, 100.4218
403.0862, 99.64958
403.5684, 99.24893
404.0505, 99.19678
404.5326, 99.04322
405.0147, 98.76546
405.4968, 98.41482
405.9789, 97.98058
406.4611, 97.49177
406.9432, 97.02106
407.4253, 96.59876
407.9074, 96.20213
408.3895, 95.78136
408.8716, 95.32637
409.3538, 94.86337
409.8359, 94.37702
410.3180, 93.89284
410.8001, 93.29954
411.2822, 92.65191
411.7643, 92.35420
412.2465, 92.92875
412.7286, 94.54171
413.2107, 95.16570
413.6928, 93.93625
414.1749, 92.79528
414.6570, 92.48551
415.1392, 92.70771
415.6213, 92.89832
416.1034, 92.76991
416.5855, 92.41505
417.0676, 92.07003
417.5497, 91.69642
418.0319, 91.40653
418.5140, 91.12278
418.9961, 90.97043
419.4782, 91.04922
419.9603, 91.36510
420.4424, 91.85993
420.9246, 92.56721
421.4067, 93.51527
421.8888, 94.05330
422.3709, 93.87051
422.8530, 93.62230
423.3351, 93.47930
423.8173, 93.43371
424.2994, 93.44166
424.7815, 93.46802
425.2636, 93.57899
425.7457, 93.94731
426.2278, 94.65209
426.7100, 95.27315
427.1921, 95.55801
427.6742, 95.81623
428.1563, 96.25407
428.6384, 96.89217
429.1205, 97.66973
429.6027, 98.64746
430.0848, 99.74095
430.5669, 100.6733
431.0490, 101.4339
431.5311, 102.0047
432.0132, 102.0965
432.4954, 102.0026
432.9775, 102.3513
433.4596, 103.6579
433.9417, 105.0343
434.4238, 105.5421
434.9059, 105.3310
435.3881, 105.3229
435.8702, 105.9141
436.3523, 106.8044
436.8344, 107.4476
437.3165, 107.7814
437.7986, 108.2745
438.2808, 109.2214
438.7629, 110.2994
439.2450, 111.1399
439.7271, 111.7014
440.2092, 112.1175
440.6913, 112.4443
441.1735, 112.7007
441.6556, 113.2350
442.1377, 114.1662
442.6198, 115.1938
443.1019, 116.3940
443.5840, 117.5862
444.0662, 118.4214
444.5483, 118.7756
445.0304, 118.9335
445.5125, 119.4290
445.9946, 120.5927
446.4767, 121.3174
446.9589, 121.7374
447.4410, 121.6797
447.9231, 120.9320
448.4052, 119.5991
448.8873, 118.0015
449.3694, 116.3802
449.8516, 114.6861
450.3337, 112.6418
450.8158, 109.9860
451.2979, 107.3735
451.7800, 104.7404
452.2621, 102.3035
452.7443, 100.3392
453.2264, 98.89670
453.7085, 97.69010
454.1906, 96.38186
454.6727, 94.96455
455.1548, 93.68029
455.6370, 92.51644
456.1191, 91.54240
456.6012, 90.82652
457.0833, 90.30480
457.5654, 89.83394
458.0475, 89.32101
458.5297, 88.86769
459.0118, 88.66560
459.4939, 88.72180
459.9760, 88.77355
460.4581, 88.72350
460.9402, 88.62288
461.4224, 88.57677
461.9045, 88.60564
462.3866, 88.51496
462.8687, 88.06136
463.3508, 87.50217
463.8329, 87.23055
464.3151, 87.29528
464.7972, 87.52975
465.2793, 87.87022
465.7614, 88.28022
466.2435, 88.48525
466.7256, 88.38378
467.2078, 88.20830
467.6899, 87.95275
468.1720, 87.70034
468.6541, 87.59045
469.1362, 87.66970
469.6183, 87.86951
470.1005, 88.10472
470.5826, 88.41023
471.0647, 88.62603
471.5468, 88.71064
472.0289, 88.75919
472.5110, 88.76820
472.9932, 88.78146
473.4753, 88.88267
473.9574, 89.12621
474.4395, 89.47484
474.9216, 89.81007
475.4037, 90.09734
475.8859, 90.44263
476.3680, 90.87835
476.8501, 91.35734
477.3322, 91.84595
477.8143, 92.34208
478.2964, 92.86205
478.7786, 93.40010
479.2607, 93.96900
479.7428, 94.63517
480.2249, 95.44472
480.7070, 96.25625
481.1891, 97.10201
481.6713, 97.87910
482.1534, 98.37827
482.6355, 98.45607
483.1176, 98.59807
483.5997, 99.27199
484.0818, 100.3632
484.5640, 101.4483
485.0461, 102.4527
485.5282, 103.3871
486.0103, 104.2781
486.4924, 105.1179
486.9745, 105.8144
487.4567, 106.0862
487.9388, 106.4433
488.4209, 107.3764
488.9030, 108.7063
489.3851, 109.8727
489.8672, 110.6013
490.3494, 111.0948
490.8315, 111.7746
491.3136, 112.7919
491.7957, 113.7152
492.2778, 114.5224
492.7599, 115.2540
493.2421, 115.9698
493.7242, 116.6463
494.2063, 117.1706
494.6884, 117.4453
495.1705, 117.5294
495.6526, 117.7516
496.1348, 118.3179
496.6169, 118.6883
497.0990, 118.4756
497.5811, 118.2624
498.0632, 118.6873
498.5453, 119.7727
499.0275, 120.8157
499.5096, 121.0995
499.9917, 120.6973
500.4738, 120.3584
500.9559, 120.1060
501.4380, 119.8758
501.9202, 119.6894
502.4023, 119.4868
502.8844, 119.2296
503.3665, 118.9947
503.8486, 118.4515
504.3307, 117.1039
504.8129, 115.1939
505.2950, 113.6201
505.7771, 112.6470
506.2592, 111.7993
506.7413, 110.5510
507.2234, 108.9342
507.7055, 107.5124
508.1877, 106.5405
508.6698, 105.5715
509.1519, 104.2965
509.6340, 102.8275
510.1161, 101.4264
510.5982, 100.1903
511.0804, 99.07914
511.5625, 98.00082
512.0446, 96.89558
512.5267, 95.99805
513.0089, 95.47533
513.4910, 94.97948
513.9731, 94.31739
514.4552, 93.53214
514.9373, 92.73241
515.4194, 91.97311
515.9016, 91.29656
516.3837, 90.84525
516.8658, 90.71368
517.3479, 90.55287
517.8300, 90.27953
518.3121, 89.97883
518.7943, 89.64552
519.2764, 89.31326
519.7585, 89.11349
520.2406, 89.26706
520.7227, 89.56123
521.2048, 89.42956
521.6870, 88.79447
522.1691, 88.38226
522.6512, 88.61636
523.1333, 89.19827
523.6154, 89.63088
524.0975, 89.90384
524.5797, 90.07922
525.0618, 90.12500
525.5439, 90.11646
526.0260, 90.10511
526.5081, 90.11138
526.9902, 90.25626
527.4724, 90.66544
527.9545, 91.27136
528.4366, 91.64957
528.9187, 91.62180
529.4008, 91.61639
529.8829, 91.75703
530.3651, 91.90107
530.8472, 91.80418
531.3293, 91.49763
531.8114, 91.36354
532.2935, 91.84658
532.7756, 92.89884
533.2578, 93.49243
533.7399, 93.31510
534.2220, 93.13769
534.7041, 93.21422
535.1862, 93.36599
535.6683, 93.43422
536.1505, 93.38011
536.6326, 93.19409
537.1147, 92.82788
537.5968, 92.31217
538.0789, 91.78539
538.5610, 91.24032
539.0432, 90.73939
539.5253, 90.41481
540.0074, 90.14287
540.4895, 89.62988
540.9716, 88.76424
541.4537, 87.81214
541.9359, 86.82857
542.4180, 85.87984
542.9001, 85.06169
543.3822, 84.39669
543.8643, 83.92850
544.3464, 83.74647
544.8286, 83.86519
545.3107, 83.73699
545.7928, 83.24387
546.2749, 82.68240
546.7570, 82.02520
547.2391, 81.38439
547.7213, 80.88335
548.2034, 80.55382
548.6855, 80.33833
549.1676, 80.18019
549.6497, 80.08205
550.1318, 79.99800
550.6140, 80.01055
551.0961, 79.91104
551.5782, 79.46732
552.0603, 78.93774
552.5424, 78.73015
553.0245, 79.00830
553.5067, 79.28156
553.9888, 79.06798
554.4709, 78.47289
554.9530, 77.83530
555.4351, 77.15462
555.9172, 76.64833
556.3994, 76.53069
556.8815, 76.75914
557.3636, 77.01208
557.8457, 77.38008
558.3278, 77.65535
558.8099, 77.73833
559.2921, 77.68297
559.7742, 77.57512
560.2563, 77.43213
560.7384, 77.18382
561.2205, 76.71524
561.7026, 76.00295
562.1848, 75.61938
562.6669, 75.83672
563.1490, 76.08214
563.6311, 76.33263
564.1132, 76.51730
564.5953, 76.53857
565.0775, 76.38354
565.5596, 76.17892
566.0417, 76.02354
566.5238, 75.92369
567.0059, 75.98379
567.4880, 76.32090
567.9702, 76.54981
568.4523, 76.22764
568.9344, 75.74979
569.4165, 75.74659
569.8986, 76.47593
570.3807, 77.05978
570.8629, 76.80715
571.3450, 76.14277
571.8271, 75.82430
572.3092, 75.94787
572.7913, 76.09227
573.2734, 75.91627
573.7556, 75.48350
574.2377, 75.24948
574.7198, 75.35899
575.2019, 75.46003
575.6840, 75.64011
576.1661, 75.70735
576.6483, 75.34879
577.1304, 74.63393
577.6125, 74.05168
578.0946, 74.07485
578.5767, 74.55489
579.0588, 74.60786
579.5410, 73.97141
580.0231, 73.50967
580.5052, 73.58046
580.9873, 73.84663
581.4694, 74.14473
581.9515, 74.43551
582.4337, 74.53497
582.9158, 74.19077
583.3979, 73.65685
583.8800, 73.30673
584.3621, 73.15136
584.8442, 73.20380
585.3264, 73.54778
585.8085, 73.99028
586.2906, 74.10957
586.7727, 73.76371
