##NAMES=Bavenite
##RRUFFID=R060128
##IDEAL CHEMISTRY=Ca_4_Be_2+x_Al_2-x_Si_9_O_26-x_(OH)_2+x_ (x = 0 to 1)
##LOCALITY=Foot mine, Kings Mountain, Cleveland County, North Carolina, USA
##OWNER=RRUFF
##SOURCE=University of Arizona Mineral Museum
##DESCRIPTION=White bladed radial aggregate
##STATUS=The identification of this mineral is confirmed by single-crystal X-ray diffraction and chemical analysis.
##URL=rruff.info/R060128
##MEASURED CHEMISTRY=Ca_4.00_Be_2.00_(Al_1.98_Fe^3+^_0.02_)_Î£=2_Si_9.00_O_26_(OH)_2_
92.02539, 280.2223
92.50751, 295.4288
92.98962, 304.6510
93.47174, 298.5809
93.95386, 285.7213
94.43597, 271.5514
94.91809, 258.3436
95.40021, 246.2885
95.88232, 235.0974
96.36444, 224.6657
96.84656, 215.2858
97.32867, 207.3142
97.81078, 200.4157
98.29290, 194.0910
98.77502, 187.8510
99.25713, 181.3955
99.73925, 175.1377
100.2214, 168.3879
100.7035, 162.3354
101.1856, 157.4017
101.6677, 153.6144
102.1498, 150.8731
102.6320, 149.1005
103.1141, 148.5487
103.5962, 148.5729
104.0783, 150.0077
104.5604, 151.6720
105.0425, 152.5567
105.5247, 152.5458
106.0068, 151.0076
106.4889, 146.2884
106.9710, 138.1434
107.4531, 129.7588
107.9352, 122.1743
108.4173, 115.3868
108.8995, 109.3381
109.3816, 104.0203
109.8637, 99.53699
110.3458, 95.95729
110.8279, 93.34528
111.3100, 91.36246
111.7922, 89.63650
112.2743, 88.17820
112.7564, 86.98557
113.2385, 86.12930
113.7206, 85.46925
114.2027, 84.91788
114.6849, 84.44824
115.1670, 84.03252
115.6491, 83.58145
116.1312, 83.01669
116.6133, 82.50229
117.0954, 82.09427
117.5776, 81.74745
118.0597, 81.37927
118.5418, 80.92001
119.0239, 80.36477
119.5060, 79.99428
119.9881, 79.63981
120.4703, 79.56939
120.9524, 80.15656
121.4345, 81.25002
121.9166, 82.19896
122.3987, 82.33699
122.8808, 81.49285
123.3630, 80.96165
123.8451, 80.84582
124.3272, 80.98753
124.8093, 81.28509
125.2914, 81.74242
125.7735, 82.24004
126.2557, 82.62357
126.7378, 82.91814
127.2199, 83.23905
127.7020, 83.72343
128.1841, 84.28291
128.6662, 84.61058
129.1483, 84.55247
129.6305, 84.36393
130.1126, 84.27040
130.5947, 84.26170
131.0768, 84.21935
131.5589, 83.98393
132.0410, 83.51192
132.5232, 83.20690
133.0053, 83.10639
133.4874, 83.20251
133.9695, 83.60926
134.4516, 84.31385
134.9337, 85.08401
135.4159, 85.53357
135.8980, 85.35937
136.3801, 85.44282
136.8622, 86.00515
137.3443, 86.70576
137.8264, 87.20767
138.3086, 87.38989
138.7907, 87.43776
139.2728, 87.85864
139.7549, 88.69050
140.2370, 89.88994
140.7191, 91.44164
141.2013, 93.36453
141.6834, 95.68962
142.1655, 98.41933
142.6476, 101.5765
143.1297, 105.2131
143.6118, 110.2223
144.0939, 114.6954
144.5761, 118.5826
145.0582, 121.5766
145.5403, 122.2409
146.0224, 119.3198
146.5045, 113.2303
146.9866, 106.2677
147.4688, 97.51659
147.9509, 88.75370
148.4330, 81.60064
148.9151, 76.12756
149.3972, 71.79031
149.8793, 68.70851
150.3615, 66.45193
150.8436, 64.64535
151.3257, 63.28864
151.8078, 62.24152
152.2899, 61.19816
152.7720, 60.07772
153.2542, 59.10452
153.7363, 58.33943
154.2184, 57.74896
154.7005, 57.28402
155.1826, 56.93849
155.6647, 56.70052
156.1469, 56.45830
156.6290, 56.27802
157.1111, 56.02146
157.5932, 55.54023
158.0753, 54.94405
158.5574, 54.46913
159.0396, 54.33989
159.5217, 54.61269
160.0038, 54.71216
160.4859, 54.58298
160.9680, 54.35987
161.4501, 54.01094
161.9323, 53.58805
162.4144, 53.24183
162.8965, 53.14410
163.3786, 53.37958
163.8607, 53.51046
164.3428, 53.47469
164.8250, 53.38775
165.3071, 53.32125
165.7892, 53.28863
166.2713, 53.28117
166.7534, 53.30312
167.2355, 53.36512
167.7177, 53.36863
168.1998, 53.22298
168.6819, 53.04099
169.1640, 52.97974
169.6461, 53.08596
170.1282, 53.25925
170.6104, 53.41493
171.0925, 53.55590
171.5746, 53.60774
172.0567, 53.56934
172.5388, 53.42241
173.0209, 53.07064
173.5031, 52.33995
173.9852, 51.62243
174.4673, 51.22121
174.9494, 51.12138
175.4315, 51.19366
175.9136, 51.45983
176.3958, 51.90773
176.8779, 52.13862
177.3600, 51.89880
177.8421, 51.58018
178.3242, 51.38085
178.8063, 51.31658
179.2885, 51.33431
179.7706, 51.43525
180.2527, 51.68696
180.7348, 51.71737
181.2169, 51.23445
181.6990, 50.72633
182.1812, 50.48006
182.6633, 50.52455
183.1454, 50.66929
183.6275, 50.64674
184.1096, 50.38025
184.5917, 50.09458
185.0738, 49.74230
185.5560, 49.40706
186.0381, 49.16321
186.5202, 49.02374
187.0023, 48.93073
187.4844, 48.78236
187.9665, 48.46966
188.4487, 48.28319
188.9308, 48.30323
189.4129, 48.40445
189.8950, 48.46428
190.3771, 48.44269
190.8592, 48.39904
191.3414, 48.45443
191.8235, 48.67678
192.3056, 48.86951
192.7877, 48.98128
193.2698, 49.06008
193.7519, 49.17059
194.2341, 49.33698
194.7162, 49.53912
195.1983, 49.75145
195.6804, 49.99768
196.1625, 50.18718
196.6446, 50.24685
197.1268, 50.22974
197.6089, 50.27494
198.0910, 50.46841
198.5731, 50.67762
199.0552, 50.67057
199.5373, 50.40984
200.0195, 50.17209
200.5016, 50.08887
200.9837, 50.14975
201.4658, 50.33378
201.9479, 50.79958
202.4300, 51.21119
202.9122, 51.14163
203.3943, 50.53343
203.8764, 49.93735
204.3585, 49.82902
204.8406, 50.20478
205.3227, 50.57053
205.8048, 50.75117
206.2870, 50.92886
206.7691, 51.24879
207.2512, 51.72497
207.7333, 52.23902
208.2154, 52.61836
208.6975, 52.80964
209.1797, 53.18574
209.6618, 54.02874
210.1439, 54.93102
210.6260, 55.62453
211.1081, 56.08038
211.5902, 56.51936
212.0724, 57.30219
212.5545, 58.65136
213.0366, 59.64043
213.5187, 60.14453
214.0008, 60.35136
214.4829, 60.33323
214.9651, 60.11830
215.4472, 59.73176
215.9293, 59.21203
216.4114, 58.57632
216.8935, 57.73978
217.3756, 56.56285
217.8578, 55.32189
218.3399, 54.11914
218.8220, 53.01672
219.3041, 52.10425
219.7862, 51.55650
220.2683, 51.69299
220.7505, 51.58278
221.2326, 51.05633
221.7147, 50.41762
222.1968, 49.86056
222.6789, 49.44379
223.1610, 49.16510
223.6432, 49.03716
224.1253, 49.21009
224.6074, 49.21678
225.0895, 48.87103
225.5716, 48.46384
226.0537, 48.25987
226.5358, 48.31966
227.0180, 48.53005
227.5001, 48.75981
227.9822, 49.04736
228.4643, 49.20991
228.9464, 49.08778
229.4285, 48.90326
229.9107, 48.93288
230.3928, 49.24428
230.8749, 49.61221
231.3570, 49.72567
231.8391, 49.55997
232.3212, 49.43554
232.8034, 49.47899
233.2855, 49.56052
233.7676, 49.51694
234.2497, 49.31495
234.7318, 49.01306
235.2139, 48.57448
235.6961, 48.02438
236.1782, 47.68844
236.6603, 47.68748
237.1424, 47.93855
237.6245, 48.36799
238.1066, 49.02152
238.5888, 49.67673
239.0709, 50.19678
239.5530, 50.57845
240.0351, 50.72231
240.5172, 50.45237
240.9993, 49.94918
241.4815, 49.48983
241.9636, 48.99962
242.4457, 48.80117
242.9278, 49.42118
243.4099, 50.50322
243.8920, 51.29803
244.3742, 51.33678
244.8563, 50.89675
245.3384, 50.59599
245.8205, 50.45826
246.3026, 50.41524
246.7847, 50.52985
247.2668, 50.69350
247.7490, 50.72637
248.2311, 50.54387
248.7132, 50.18110
249.1953, 49.69076
249.6774, 48.99639
250.1595, 48.33187
250.6417, 47.69168
251.1238, 47.16063
251.6059, 46.91637
252.0880, 47.15160
252.5701, 47.58203
253.0522, 47.42596
253.5344, 46.30168
254.0165, 45.33649
254.4986, 45.00932
254.9807, 44.94416
255.4628, 44.68535
255.9449, 44.00051
256.4271, 43.15602
256.9092, 42.82059
257.3913, 43.35540
257.8734, 43.72456
258.3555, 43.57372
258.8376, 43.25898
259.3198, 43.13767
259.8019, 43.35168
260.2840, 43.72060
260.7661, 43.84594
261.2482, 43.52441
261.7303, 43.34588
262.2125, 43.45913
262.6946, 43.67035
263.1767, 43.84289
263.6588, 43.92827
264.1409, 43.92714
264.6230, 43.82122
265.1052, 43.49509
265.5873, 43.29397
266.0694, 43.36210
266.5515, 43.45548
267.0336, 43.34620
267.5157, 43.00551
267.9979, 42.62903
268.4800, 42.53030
268.9621, 42.91851
269.4442, 43.13244
269.9263, 43.11419
270.4084, 43.00234
270.8906, 42.83917
271.3727, 42.65547
271.8548, 42.51168
272.3369, 42.48954
272.8190, 42.63739
273.3011, 42.75063
273.7833, 42.81150
274.2654, 42.86025
274.7475, 42.91047
275.2296, 42.96804
275.7117, 43.03241
276.1938, 43.09050
276.6760, 43.11497
277.1581, 43.32120
277.6402, 44.00321
278.1223, 44.55645
278.6044, 44.58867
279.0865, 44.20945
279.5686, 43.84292
280.0508, 43.84658
280.5329, 44.23157
281.0150, 44.43067
281.4971, 44.32072
281.9792, 44.19090
282.4613, 44.25063
282.9435, 44.38342
283.4256, 44.27127
283.9077, 43.67137
284.3898, 42.66343
284.8719, 42.00683
285.3540, 41.91004
285.8362, 41.86443
286.3183, 41.70251
286.8004, 41.50390
287.2825, 41.46560
287.7646, 41.71535
288.2467, 42.11517
288.7289, 42.17006
289.2110, 41.59230
289.6931, 41.05653
290.1752, 40.61885
290.6573, 40.29639
291.1394, 40.15028
291.6216, 40.21178
292.1037, 40.37912
292.5858, 40.44631
293.0679, 40.38935
293.5500, 40.27773
294.0321, 40.05504
294.5143, 39.80793
294.9964, 39.64909
295.4785, 39.60768
295.9606, 39.59895
296.4427, 39.49235
296.9248, 39.22293
297.4070, 39.06093
297.8891, 39.09337
298.3712, 39.19041
298.8533, 39.26035
299.3354, 39.28320
299.8175, 39.24218
300.2997, 39.10081
300.7818, 38.83409
301.2639, 38.65868
301.7460, 38.64709
302.2281, 38.66877
302.7102, 38.63452
303.1924, 38.54393
303.6745, 38.43980
304.1566, 38.33327
304.6387, 38.23778
305.1208, 38.28810
305.6029, 38.65280
306.0851, 38.98615
306.5672, 39.11703
307.0493, 39.07153
307.5314, 38.93521
308.0135, 38.73161
308.4956, 38.49351
308.9778, 38.36894
309.4599, 38.39311
309.9420, 38.46132
310.4241, 38.58459
310.9062, 38.72555
311.3883, 38.80324
311.8705, 38.77841
312.3526, 38.69271
312.8347, 38.64807
313.3168, 38.70783
313.7989, 38.65937
314.2810, 38.27879
314.7632, 37.82934
315.2453, 37.72445
315.7274, 38.09121
316.2095, 38.58747
316.6916, 38.74816
317.1737, 38.50257
317.6559, 38.21126
318.1380, 37.70776
318.6201, 37.28530
319.1022, 37.34312
319.5843, 37.89883
320.0664, 38.42521
320.5485, 38.37207
321.0306, 37.67978
321.5128, 37.35234
321.9949, 37.72702
322.4770, 38.16907
322.9591, 38.22002
323.4412, 37.93737
323.9233, 37.70905
324.4055, 37.80968
324.8876, 38.18555
325.3697, 38.42405
325.8518, 38.49277
326.3339, 38.48605
326.8160, 38.37915
327.2982, 38.22371
327.7803, 38.13476
328.2624, 38.17266
328.7445, 38.29169
329.2266, 38.37092
329.7087, 38.39309
330.1909, 38.41371
330.6730, 38.44385
331.1551, 38.47757
331.6372, 38.50174
332.1193, 38.51218
332.6014, 38.52610
333.0836, 38.55775
333.5657, 38.57890
334.0478, 38.72894
334.5299, 39.13372
335.0120, 39.58881
335.4941, 39.92924
335.9763, 40.13477
336.4584, 40.28837
336.9405, 40.46899
337.4226, 40.68274
337.9047, 40.81763
338.3868, 40.79322
338.8690, 40.77597
339.3511, 40.81324
339.8332, 40.92484
340.3153, 41.16184
340.7974, 41.57399
341.2795, 42.12466
341.7617, 42.57220
342.2438, 42.86493
342.7259, 43.13235
343.2080, 43.37273
343.6901, 43.61339
344.1722, 43.93557
344.6544, 44.37718
345.1365, 44.80790
345.6186, 44.94966
346.1007, 44.52559
346.5828, 44.21517
347.0649, 44.13670
347.5471, 44.10793
348.0292, 44.02110
348.5113, 43.83529
348.9934, 43.47840
349.4755, 42.83943
349.9576, 41.80517
350.4398, 40.94623
350.9219, 40.33786
351.4040, 39.80497
351.8861, 39.24790
352.3682, 38.68724
352.8503, 38.21556
353.3325, 37.91645
353.8146, 37.77633
354.2967, 37.57282
354.7788, 37.11343
355.2609, 36.81016
355.7430, 36.88702
356.2252, 37.13748
356.7073, 37.25803
357.1894, 37.10290
357.6715, 36.78379
358.1536, 36.57886
358.6357, 36.55101
359.1179, 36.55410
359.5999, 36.63977
360.0821, 36.71606
360.5642, 36.67585
361.0463, 36.51472
361.5284, 36.35194
362.0105, 36.35130
362.4926, 36.57826
362.9748, 36.71425
363.4569, 36.66734
363.9390, 36.62170
364.4211, 36.68789
364.9032, 36.82814
365.3853, 36.91981
365.8675, 36.85687
366.3496, 36.66242
366.8317, 36.55490
367.3138, 36.51578
367.7959, 36.60395
368.2780, 36.91093
368.7602, 37.31659
369.2423, 37.69424
369.7244, 37.99031
370.2065, 38.19768
370.6886, 38.30360
371.1707, 38.31050
371.6529, 38.19911
372.1350, 37.84440
372.6171, 37.46659
373.0992, 37.24503
373.5813, 37.18677
374.0634, 37.11180
374.5456, 36.76255
375.0277, 36.11540
375.5098, 35.73087
375.9919, 35.82464
376.4740, 35.97558
376.9561, 35.94916
377.4383, 35.82447
377.9204, 35.81455
378.4025, 36.13836
378.8846, 36.60551
379.3667, 36.60391
379.8488, 35.88515
380.3310, 35.34414
380.8131, 35.56238
381.2952, 36.04047
381.7773, 36.26636
382.2594, 36.08277
382.7415, 35.75928
383.2237, 35.53507
383.7058, 35.40965
384.1879, 35.45973
384.6700, 35.84944
385.1521, 36.27412
385.6342, 36.43298
386.1164, 36.34214
386.5985, 36.26900
387.0806, 36.42389
387.5627, 36.69627
388.0448, 36.80262
388.5269, 36.68215
389.0091, 36.52430
389.4912, 36.47841
389.9733, 36.49916
390.4554, 36.48531
390.9375, 36.35595
391.4196, 36.24038
391.9018, 36.29885
392.3839, 36.50867
392.8660, 36.64544
393.3481, 36.56247
393.8302, 36.39722
394.3123, 36.43022
394.7945, 36.71584
395.2766, 36.99824
395.7587, 37.18933
396.2408, 37.30898
396.7229, 37.34243
397.2050, 37.27059
397.6872, 37.26334
398.1693, 37.07272
398.6514, 37.67360
399.1335, 38.09420
399.6156, 38.34419
400.0977, 37.91262
400.5798, 38.36116
401.0620, 38.45702
401.5441, 38.53838
402.0262, 39.11078
402.5083, 38.77834
402.9904, 39.34293
403.4725, 39.69361
403.9547, 39.98828
404.4368, 40.36385
404.9189, 40.74448
405.4010, 41.05386
405.8831, 41.26369
406.3652, 41.35470
406.8474, 41.30715
407.3295, 41.15877
407.8116, 40.72124
408.2937, 39.67156
408.7758, 38.65529
409.2579, 38.08051
409.7401, 37.87699
410.2222, 37.70694
410.7043, 37.30920
411.1864, 36.72541
411.6685, 36.31321
412.1506, 36.30925
412.6328, 36.19037
413.1149, 35.73784
413.5970, 35.19690
414.0791, 34.84641
414.5612, 34.77929
415.0433, 34.86342
415.5255, 34.91482
416.0076, 34.94719
416.4897, 34.89839
416.9718, 34.61074
417.4539, 34.37276
417.9360, 34.36453
418.4182, 34.54058
418.9003, 34.71250
419.3824, 34.72009
419.8645, 34.61684
420.3466, 34.66822
420.8287, 34.98169
421.3109, 35.22329
421.7930, 35.20543
422.2751, 35.07009
422.7572, 34.96278
423.2393, 34.92068
423.7214, 34.92426
424.2036, 34.92610
424.6857, 34.93127
425.1678, 35.08173
425.6499, 35.48546
426.1320, 35.95128
426.6141, 36.34826
427.0963, 36.67013
427.5784, 36.85169
428.0605, 36.69342
428.5426, 36.44777
429.0247, 36.55489
429.5068, 37.05738
429.9890, 37.57657
430.4711, 37.87236
430.9532, 38.00296
431.4353, 38.18721
431.9174, 38.47794
432.3995, 38.74522
432.8817, 38.93628
433.3638, 39.05495
433.8459, 39.07553
434.3280, 38.97300
434.8101, 38.87492
435.2922, 38.95626
435.7744, 39.24656
436.2565, 39.63553
436.7386, 40.24886
437.2207, 40.85654
437.7028, 41.28044
438.1849, 41.54004
438.6671, 41.75302
439.1492, 41.98712
439.6313, 42.25228
440.1134, 42.60294
440.5955, 43.09055
441.0776, 43.60418
441.5598, 44.05636
442.0418, 44.56642
442.5240, 45.29623
443.0061, 46.26617
443.4882, 47.31584
443.9703, 48.22643
444.4524, 48.96486
444.9345, 49.73216
445.4167, 50.73960
445.8988, 51.56336
446.3809, 52.04215
446.8630, 52.21795
447.3451, 52.23003
447.8272, 52.18855
448.3094, 51.94403
448.7915, 51.05431
449.2736, 49.31376
449.7557, 47.51345
450.2378, 45.63525
450.7199, 43.89855
451.2021, 42.52204
451.6842, 41.51215
452.1663, 40.59733
452.6484, 39.50748
453.1305, 38.31919
453.6126, 37.42853
454.0948, 36.94180
454.5769, 36.56598
455.0590, 36.09865
455.5411, 35.60649
456.0232, 35.21237
456.5053, 34.94546
456.9875, 34.78393
457.4696, 34.80489
457.9517, 34.94613
458.4338, 34.86729
458.9159, 34.35743
459.3980, 33.77461
459.8802, 33.76269
460.3623, 34.38584
460.8444, 34.77398
461.3265, 34.64108
461.8086, 34.29741
462.2907, 33.92135
462.7729, 33.56966
463.2550, 33.41297
463.7371, 33.61267
464.2192, 34.07647
464.7013, 34.27185
465.1834, 33.79443
465.6656, 33.58166
466.1477, 33.52929
466.6298, 33.99097
467.1119, 34.27236
467.5940, 34.38316
468.0761, 33.81239
468.5583, 34.12173
469.0404, 34.07836
469.5225, 34.02052
470.0046, 34.45372
470.4867, 33.98208
470.9688, 34.40749
471.4510, 34.47483
471.9331, 34.70604
472.4152, 34.58237
472.8973, 35.06624
473.3794, 35.23270
473.8615, 34.94715
474.3437, 34.69948
474.8258, 34.46531
475.3079, 34.39801
475.7900, 34.73893
476.2721, 35.39819
476.7542, 35.90715
477.2364, 35.80408
477.7185, 35.38307
478.2006, 35.34288
478.6827, 35.73835
479.1648, 36.20908
479.6469, 36.64360
480.1291, 37.00256
480.6112, 37.19045
481.0933, 37.10388
481.5754, 37.12466
482.0575, 37.52147
482.5396, 38.13980
483.0217, 38.69825
483.5038, 39.14029
483.9860, 39.54708
484.4681, 39.99397
484.9502, 40.48226
485.4323, 40.97395
485.9144, 41.38289
486.3965, 41.88355
486.8787, 42.58076
487.3608, 43.41916
487.8429, 44.36359
488.3250, 45.40197
488.8071, 46.34624
489.2892, 46.81873
489.7714, 46.51213
490.2535, 46.49499
490.7356, 46.86503
491.2177, 47.38094
491.6998, 48.04519
492.1819, 48.75266
492.6641, 49.30340
493.1462, 49.56164
493.6283, 49.59438
494.1104, 49.61562
494.5925, 49.69832
495.0746, 49.57035
495.5568, 49.03048
496.0389, 48.35155
496.5210, 47.60668
497.0031, 46.84589
497.4852, 46.31754
497.9673, 46.37901
498.4495, 46.79728
498.9316, 46.91344
499.4137, 46.66223
499.8958, 46.31050
500.3779, 45.98621
500.8600, 45.66405
501.3422, 45.27167
501.8243, 44.70719
502.3064, 44.28509
502.7885, 44.27960
503.2706, 44.49038
503.7527, 44.57639
504.2349, 44.46447
504.7170, 44.19686
505.1991, 43.77552
505.6812, 43.18356
506.1633, 42.77466
506.6454, 42.78663
507.1276, 42.69779
507.6097, 42.20210
508.0918, 41.51406
508.5739, 41.00463
509.0560, 40.80510
509.5381, 40.70228
510.0203, 40.34616
510.5024, 39.64315
510.9845, 39.00637
511.4666, 38.47615
511.9487, 37.97414
512.4308, 37.42085
512.9130, 36.87769
513.3951, 36.46202
513.8772, 36.23402
514.3593, 36.15916
514.8414, 36.22854
515.3235, 36.47844
515.8057, 36.59439
516.2878, 36.46153
516.7699, 36.20691
517.2520, 35.89790
517.7341, 35.55252
518.2162, 35.28362
518.6984, 35.13718
519.1805, 35.09247
519.6626, 35.16639
520.1447, 35.34651
520.6268, 35.46743
521.1089, 35.41175
521.5911, 35.29535
522.0732, 35.42153
522.5553, 35.91171
523.0374, 36.24813
523.5195, 36.23260
524.0016, 36.10597
524.4838, 36.04527
524.9659, 36.07605
525.4480, 36.18591
525.9301, 36.37705
526.4122, 36.62388
526.8943, 36.79795
527.3765, 36.87531
527.8586, 36.90467
528.3407, 36.76851
528.8228, 36.67281
529.3049, 36.76918
529.7870, 37.08113
530.2692, 37.56892
530.7513, 38.28578
531.2334, 39.15861
531.7155, 39.72448
532.1976, 39.84679
532.6797, 39.97682
533.1619, 40.41673
533.6440, 40.90464
534.1261, 41.18665
534.6082, 41.22125
535.0903, 41.07903
535.5724, 40.76510
536.0546, 40.31590
536.5367, 39.77916
537.0188, 39.15372
537.5009, 38.53098
537.9830, 37.96959
538.4651, 37.47020
538.9473, 37.03161
539.4294, 36.74280
539.9115, 36.39552
540.3936, 35.74619
540.8757, 35.09145
541.3578, 34.90386
541.8400, 35.22205
542.3221, 35.55970
542.8042, 35.39972
543.2863, 34.73225
543.7684, 34.17760
544.2505, 33.63180
544.7326, 33.02868
545.2147, 33.41871
545.6968, 33.62847
546.1790, 33.66762
546.6611, 33.02522
547.1432, 33.26291
547.6253, 33.14789
548.1074, 33.01842
548.5895, 33.37998
549.0717, 32.83670
549.5538, 33.19047
550.0359, 33.18616
550.5180, 33.34573
551.0001, 33.15043
551.4822, 33.06474
551.9644, 33.33403
552.4465, 33.40677
552.9286, 33.17061
553.4107, 33.34060
553.8928, 32.78493
554.3749, 32.86604
554.8571, 33.22189
555.3392, 33.00357
555.8213, 33.18006
556.3034, 33.20618
556.7855, 32.54898
557.2676, 33.08014
557.7498, 33.09737
558.2319, 32.70515
558.7140, 32.68982
559.1961, 32.67794
559.6782, 32.62059
560.1603, 32.51705
560.6425, 32.46359
561.1246, 32.50759
561.6067, 32.53335
562.0888, 32.51247
562.5709, 32.45360
563.0530, 32.36092
563.5352, 32.23486
564.0173, 32.09533
564.4994, 31.87381
564.9815, 31.64866
565.4636, 31.72676
565.9457, 32.18805
566.4279, 32.69695
566.9100, 33.10764
567.3921, 33.36920
567.8742, 33.35245
568.3563, 32.83293
568.8384, 32.41112
569.3206, 32.38976
569.8027, 32.52703
570.2848, 32.51320
570.7669, 32.31383
571.2490, 32.09182
571.7311, 31.97269
572.2133, 31.96305
572.6954, 32.15073
573.1775, 32.88133
573.6596, 33.32774
574.1417, 33.25272
574.6238, 32.95488
575.1060, 32.63186
575.5881, 32.34111
576.0702, 32.12820
576.5523, 32.04206
577.0344, 32.06272
577.5165, 32.13759
577.9987, 32.29018
578.4808, 32.39949
578.9629, 32.46774
579.4450, 32.42006
579.9271, 32.09129
580.4092, 31.41092
580.8914, 30.93859
581.3735, 31.04140
581.8556, 31.36125
582.3377, 31.51838
582.8198, 31.50082
583.3019, 31.44044
583.7841, 31.40654
584.2662, 31.39658
584.7483, 31.40661
585.2304, 31.49973
585.7125, 31.50429
