##NAMES=Bavenite
##RRUFFID=R060065
##IDEAL CHEMISTRY=Ca_4_Be_2+x_Al_2-x_Si_9_O_26-x_(OH)_2+x_ (x = 0 to 1)
##LOCALITY=Tittling, Bavarian Forest, Bavaria, Germany
##OWNER=RRUFF
##SOURCE=University of Arizona Mineral Museum
##DESCRIPTION=White radial aggregate of bladed crystals
##STATUS=The identification of this mineral is confirmed by single-crystal X-ray diffraction and chemical analysis.
##URL=rruff.info/R060065
##MEASURED CHEMISTRY=Ca_4.00_Be_2.00_Al_2.00_Si_9.00_O_26_(OH)_2_ ; Be not measured but assumed by stoichiometry
93.88477, 34.14748
94.36688, 32.74198
94.84900, 32.68687
95.33112, 34.04967
95.81323, 37.14997
96.29535, 43.22484
96.77747, 51.42332
97.25958, 58.57236
97.74170, 64.45799
98.22382, 69.33980
98.70593, 73.15698
99.18805, 75.81751
99.67017, 78.89183
100.1523, 83.43618
100.6344, 89.45875
101.1165, 96.05660
101.5986, 103.0487
102.0807, 110.5273
102.5629, 118.7611
103.0450, 128.1602
103.5271, 137.5810
104.0092, 145.8301
104.4913, 152.6052
104.9734, 159.2959
105.4556, 166.3650
105.9377, 173.7929
106.4198, 180.7459
106.9019, 187.2417
107.3840, 193.2025
107.8661, 198.3786
108.3483, 202.3288
108.8304, 206.1237
109.3125, 209.9795
109.7946, 213.8363
110.2767, 218.0046
110.7588, 222.5272
111.2410, 227.3801
111.7231, 232.5416
112.2052, 238.5988
112.6873, 244.5428
113.1694, 249.9906
113.6515, 254.3452
114.1337, 259.2127
114.6158, 265.2846
115.0979, 272.0918
115.5800, 278.3538
116.0621, 283.4349
116.5442, 288.0465
117.0264, 292.5327
117.5085, 296.8363
117.9906, 301.2814
118.4727, 306.0955
118.9548, 311.2168
119.4369, 316.2138
119.9191, 320.9664
120.4012, 325.5410
120.8833, 329.9670
121.3654, 333.2828
121.8475, 337.2115
122.3296, 343.3495
122.8118, 351.7391
123.2939, 359.9854
123.7760, 365.8827
124.2581, 370.5776
124.7402, 376.0686
125.2223, 383.0141
125.7045, 391.2245
126.1866, 400.6075
126.6687, 411.2282
127.1508, 422.5923
127.6329, 434.3809
128.1150, 446.4865
128.5972, 458.9916
129.0793, 472.3300
129.5614, 485.9550
130.0435, 498.5981
130.5256, 510.0355
131.0077, 520.6692
131.4899, 530.8856
131.9720, 540.7092
132.4541, 550.2755
132.9362, 557.6492
133.4183, 562.3459
133.9004, 566.9607
134.3826, 571.4026
134.8647, 575.9099
135.3468, 581.0745
135.8289, 586.9865
136.3110, 592.9940
136.7931, 598.3168
137.2753, 602.8837
137.7574, 608.3304
138.2395, 615.1202
138.7216, 623.0082
139.2037, 630.9984
139.6858, 638.9408
140.1680, 647.3431
140.6501, 656.4465
141.1322, 665.8781
141.6143, 677.5645
142.0964, 692.0336
142.5785, 709.3405
143.0607, 728.9057
143.5428, 751.0929
144.0249, 775.2257
144.5070, 801.6741
144.9891, 833.0198
145.4712, 861.5244
145.9534, 885.9118
146.4355, 908.7480
146.9176, 918.9479
147.3997, 914.6514
147.8818, 898.9604
148.3639, 876.4261
148.8461, 842.8748
149.3282, 807.4759
149.8103, 773.4295
150.2924, 739.7151
150.7745, 708.8788
151.2566, 681.3837
151.7388, 656.7147
152.2209, 634.3682
152.7030, 614.5536
153.1851, 596.7365
153.6672, 580.8021
154.1493, 566.8844
154.6315, 554.9167
155.1136, 545.2684
155.5957, 537.6191
156.0778, 530.6594
156.5599, 524.1851
157.0420, 518.3036
157.5242, 513.0312
158.0063, 508.3058
158.4884, 504.3399
158.9705, 501.1701
159.4526, 498.7856
159.9347, 497.0289
160.4169, 496.2829
160.8990, 495.9118
161.3811, 495.4558
161.8632, 494.5567
162.3453, 493.7755
162.8274, 493.5317
163.3096, 493.7563
163.7917, 493.5341
164.2738, 491.7255
164.7559, 489.5876
165.2380, 488.3598
165.7201, 489.3958
166.2023, 490.6872
166.6844, 491.1374
167.1665, 490.7157
167.6486, 490.2909
168.1307, 490.2996
168.6128, 490.5945
169.0949, 490.9822
169.5771, 491.3403
170.0592, 491.7971
170.5413, 492.5313
171.0234, 493.5810
171.5055, 494.5497
171.9876, 495.3975
172.4698, 495.9637
172.9519, 495.9601
173.4340, 494.8715
173.9161, 493.3328
174.3982, 491.9244
174.8803, 490.6661
175.3625, 489.6258
175.8446, 488.9664
176.3267, 488.5885
176.8088, 488.2597
177.2909, 487.6897
177.7730, 487.1447
178.2552, 487.0512
178.7373, 487.5139
179.2194, 488.1614
179.7015, 488.6040
180.1836, 488.8944
180.6657, 489.2295
181.1479, 489.8927
181.6300, 490.6633
182.1121, 491.1061
182.5942, 491.1718
183.0763, 490.8911
183.5584, 490.1070
184.0406, 488.8948
184.5227, 487.7916
185.0048, 487.2325
185.4869, 487.0528
185.9690, 486.7853
186.4511, 486.4072
186.9333, 485.8442
187.4154, 484.8647
187.8975, 483.4838
188.3796, 482.1152
188.8617, 480.8083
189.3438, 479.6720
189.8260, 479.2870
190.3081, 479.9344
190.7902, 481.1366
191.2723, 481.9210
191.7544, 482.2831
192.2365, 482.5059
192.7187, 482.6531
193.2008, 482.7693
193.6829, 483.2610
194.1650, 484.1991
194.6471, 485.5747
195.1292, 487.5928
195.6114, 490.3500
196.0935, 492.8736
196.5756, 493.9772
197.0577, 493.6876
197.5398, 494.2013
198.0219, 496.2340
198.5041, 499.2345
198.9862, 500.9768
199.4683, 501.2930
199.9504, 501.1719
200.4325, 501.4002
200.9146, 501.9847
201.3968, 502.6588
201.8789, 503.4503
202.3610, 504.2791
202.8431, 504.7906
203.3252, 505.0064
203.8073, 504.8531
204.2895, 504.0477
204.7716, 502.4436
205.2537, 501.3389
205.7358, 501.0252
206.2179, 501.4504
206.7000, 502.2493
207.1822, 503.4629
207.6643, 504.9599
208.1464, 506.7379
208.6285, 508.9280
209.1106, 510.7569
209.5927, 511.8228
210.0749, 512.2546
210.5570, 513.7256
211.0391, 516.5341
211.5212, 519.7734
212.0033, 522.5250
212.4854, 524.5515
212.9676, 526.9211
213.4497, 529.9786
213.9318, 533.6918
214.4139, 537.1292
214.8960, 540.4885
215.3781, 543.2999
215.8603, 545.0413
216.3424, 545.4111
216.8245, 545.5566
217.3066, 545.7499
217.7887, 545.9869
218.2708, 545.8201
218.7529, 545.2302
219.2351, 544.2639
219.7172, 542.9116
220.1993, 540.9393
220.6814, 539.1492
221.1635, 537.7511
221.6456, 536.7374
222.1278, 535.7640
222.6099, 534.7323
223.0920, 533.8400
223.5741, 533.3154
224.0562, 533.2153
224.5383, 533.3198
225.0205, 533.5422
225.5026, 533.8726
225.9847, 534.7161
226.4668, 536.4509
226.9489, 538.2842
227.4310, 539.2743
227.9132, 538.9334
228.3953, 538.8123
228.8774, 539.1872
229.3595, 540.0684
229.8416, 541.3461
230.3237, 543.1573
230.8059, 545.2505
231.2880, 547.4173
231.7701, 549.7573
232.2522, 552.0455
232.7343, 554.6791
233.2164, 557.7679
233.6986, 558.3046
234.1807, 555.1052
234.6628, 550.5603
235.1449, 546.9354
235.6270, 544.2953
236.1091, 542.5357
236.5913, 541.8729
237.0734, 542.3399
237.5555, 542.3945
238.0376, 541.7246
238.5197, 540.9547
239.0018, 540.7059
239.4840, 541.2580
239.9661, 541.8003
240.4482, 542.1857
240.9303, 542.4166
241.4124, 542.7153
241.8945, 543.0502
242.3767, 543.4919
242.8588, 544.1885
243.3409, 545.6193
243.8230, 546.3479
244.3051, 545.7899
244.7872, 544.0076
245.2694, 543.3851
245.7515, 544.6416
246.2336, 546.2517
246.7157, 546.9279
247.1978, 546.1823
247.6799, 545.4762
248.1621, 545.0071
248.6442, 544.7662
249.1263, 544.7001
249.6084, 545.1031
250.0905, 545.3315
250.5726, 544.7859
251.0548, 542.8915
251.5369, 541.4759
252.0190, 540.9492
252.5011, 541.1866
252.9832, 541.1077
253.4653, 540.5602
253.9475, 539.8978
254.4296, 539.3331
254.9117, 538.7890
255.3938, 538.5067
255.8759, 538.5945
256.3580, 538.9694
256.8401, 539.1422
257.3223, 538.9398
257.8044, 538.7870
258.2865, 539.1023
258.7686, 540.3822
259.2507, 540.7295
259.7328, 539.4583
260.2150, 537.1556
260.6971, 536.2817
261.1792, 537.3906
261.6613, 538.9672
262.1434, 540.2165
262.6255, 541.1851
263.1077, 541.6852
263.5898, 541.6888
264.0719, 541.2282
264.5540, 540.2339
265.0361, 538.2899
265.5182, 536.6810
266.0004, 536.2333
266.4825, 537.3616
266.9646, 538.0538
267.4467, 538.1059
267.9288, 537.7154
268.4109, 537.3434
268.8931, 536.8996
269.3752, 536.6596
269.8573, 536.7782
270.3394, 537.3075
270.8215, 537.9650
271.3036, 538.8686
271.7858, 539.7776
272.2679, 540.0483
272.7500, 539.4768
273.2321, 539.0299
273.7142, 539.1629
274.1964, 539.9323
274.6785, 540.8821
275.1606, 542.1176
275.6427, 543.4003
276.1248, 544.2044
276.6069, 544.3863
277.0891, 544.8540
277.5712, 546.1011
278.0533, 548.1412
278.5354, 549.8793
279.0175, 551.2906
279.4996, 552.4454
279.9818, 553.5517
280.4639, 554.6639
280.9460, 555.0802
281.4281, 554.3258
281.9102, 552.5300
282.3923, 551.0616
282.8745, 549.9512
283.3566, 549.0562
283.8387, 548.4330
284.3208, 548.0978
284.8029, 547.1262
285.2850, 544.8394
285.7672, 541.7072
286.2493, 540.0717
286.7314, 540.1442
287.2135, 540.4811
287.6956, 539.4271
288.1777, 537.0995
288.6599, 535.3280
289.1420, 534.7054
289.6241, 534.8452
290.1062, 534.6099
290.5883, 533.9681
291.0704, 533.4210
291.5526, 533.6658
292.0347, 534.4914
292.5168, 534.5917
292.9989, 533.3833
293.4810, 531.6945
293.9631, 531.2318
294.4453, 531.9408
294.9274, 532.7953
295.4095, 533.1564
295.8916, 533.0679
296.3737, 532.5855
296.8558, 531.5806
297.3380, 530.4641
297.8201, 529.8403
298.3022, 529.6561
298.7843, 529.5876
299.2664, 529.5413
299.7485, 529.4626
300.2307, 529.2298
300.7128, 528.8249
301.1949, 528.3253
301.6770, 527.8038
302.1591, 527.2642
302.6412, 526.7049
303.1234, 526.0120
303.6055, 525.3495
304.0876, 524.8434
304.5697, 524.4794
305.0518, 524.5603
305.5339, 525.8478
306.0161, 527.7936
306.4982, 529.2282
306.9803, 529.2993
307.4624, 528.7830
307.9445, 528.2673
308.4266, 527.7610
308.9088, 527.6512
309.3909, 528.4868
309.8730, 529.8292
310.3551, 531.0490
310.8372, 532.1741
311.3193, 532.9044
311.8015, 532.7379
312.2836, 531.7872
312.7657, 531.0710
313.2478, 531.2343
313.7299, 531.8958
314.2120, 532.7066
314.6942, 533.7499
315.1763, 534.7024
315.6584, 535.3990
316.1405, 535.8715
316.6226, 536.1968
317.1047, 536.0206
317.5869, 535.9540
318.0690, 536.4781
318.5511, 538.0137
319.0332, 539.5339
319.5153, 540.5543
319.9974, 541.2731
320.4796, 542.1282
320.9617, 543.7618
321.4438, 545.1724
321.9259, 545.7667
322.4080, 545.1530
322.8901, 544.7003
323.3723, 544.4601
323.8544, 544.6233
324.3365, 545.4661
324.8186, 548.2263
325.3007, 550.5680
325.7828, 551.5754
326.2650, 550.9193
326.7471, 550.6817
327.2292, 551.3733
327.7113, 552.4401
328.1934, 553.3569
328.6755, 553.2948
329.1577, 553.9493
329.6398, 555.9249
330.1219, 559.2159
330.6040, 561.7956
331.0861, 563.3909
331.5682, 564.4694
332.0504, 565.2808
332.5325, 565.2985
333.0146, 565.8542
333.4967, 567.1910
333.9788, 569.1628
334.4609, 571.0519
334.9431, 572.7029
335.4252, 574.5120
335.9073, 576.7978
336.3894, 580.1133
336.8715, 582.3940
337.3536, 583.1127
337.8358, 583.1371
338.3179, 584.3744
338.8000, 587.1348
339.2821, 590.2672
339.7642, 593.4021
340.2463, 596.5236
340.7285, 599.5400
341.2105, 602.2002
341.6927, 605.1259
342.1748, 609.2580
342.6569, 614.7634
343.1390, 620.2045
343.6211, 625.0641
344.1032, 629.4551
344.5854, 633.8808
345.0675, 638.2937
345.5496, 642.6017
346.0317, 647.0308
346.5138, 651.4816
346.9959, 654.4532
347.4781, 655.5435
347.9602, 655.0668
348.4423, 653.7911
348.9244, 651.7087
349.4065, 648.4592
349.8886, 643.5056
350.3708, 637.1671
350.8529, 630.2445
351.3350, 622.6084
351.8171, 615.2100
352.2992, 609.7461
352.7813, 605.8419
353.2635, 601.8705
353.7456, 596.3482
354.2277, 590.4377
354.7098, 585.7768
355.1919, 582.5152
355.6740, 580.0358
356.1562, 578.1549
356.6383, 576.6808
357.1204, 575.2448
357.6025, 573.4376
358.0846, 571.7772
358.5667, 570.7459
359.0489, 570.2960
359.5310, 569.9897
360.0131, 569.7165
360.4952, 569.3896
360.9773, 568.8972
361.4594, 567.8057
361.9416, 567.0563
362.4237, 567.3868
362.9058, 568.4728
363.3879, 569.2824
363.8700, 569.3000
364.3521, 569.0383
364.8343, 568.7601
365.3164, 568.4396
365.7985, 568.2676
366.2806, 568.4053
366.7627, 568.7048
367.2448, 568.9250
367.7270, 568.8869
368.2091, 568.9105
368.6912, 569.0795
369.1733, 569.4000
369.6554, 569.8676
370.1375, 570.6373
370.6197, 571.4680
371.1018, 572.1799
371.5839, 573.0218
372.0660, 573.3733
372.5481, 572.9594
373.0302, 571.8945
373.5124, 571.0253
373.9945, 570.2158
374.4766, 569.7614
374.9587, 569.9528
375.4408, 571.2119
375.9229, 571.8344
376.4051, 571.4832
376.8872, 570.6608
377.3693, 570.4058
377.8514, 570.7273
378.3335, 571.6173
378.8156, 573.3663
379.2978, 576.0202
379.7799, 577.7901
380.2620, 578.5975
380.7441, 578.8183
381.2262, 578.5462
381.7083, 577.8199
382.1905, 577.9787
382.6726, 579.8801
383.1547, 582.7139
383.6368, 583.8967
384.1189, 583.4093
384.6010, 582.9139
385.0832, 584.0303
385.5653, 586.2019
386.0474, 587.8563
386.5295, 588.5540
387.0116, 588.9359
387.4937, 589.7015
387.9759, 590.8227
388.4580, 592.2014
388.9401, 593.7406
389.4222, 595.5316
389.9043, 597.7791
390.3864, 600.5635
390.8686, 603.3662
391.3507, 605.7524
391.8328, 607.9417
392.3149, 610.2223
392.7970, 613.1225
393.2791, 615.7708
393.7613, 617.5178
394.2434, 618.4782
394.7255, 619.4212
395.2076, 620.8775
395.6897, 622.3207
396.1718, 623.3190
396.6540, 623.2457
397.1361, 623.5618
397.6182, 624.9154
398.1003, 626.8995
398.5824, 628.5920
399.0645, 630.0640
399.5467, 631.0175
400.0288, 631.1512
400.5109, 630.0070
400.9930, 629.5822
401.4751, 630.6630
401.9572, 632.0079
402.4394, 632.3420
402.9215, 631.1692
403.4036, 629.7966
403.8857, 628.3122
404.3678, 626.7581
404.8499, 625.6123
405.3321, 625.1589
405.8142, 624.5905
406.2963, 623.3802
406.7784, 621.4372
407.2605, 619.3442
407.7426, 617.1257
408.2248, 614.7819
408.7069, 612.2499
409.1890, 609.5523
409.6711, 606.8527
410.1532, 604.1161
410.6353, 601.4034
411.1175, 599.0654
411.5996, 597.1154
412.0817, 595.5330
412.5638, 594.4169
413.0459, 593.6952
413.5280, 593.0798
414.0102, 592.6666
414.4923, 592.1133
414.9744, 590.7294
415.4565, 588.6594
415.9386, 586.6959
416.4207, 585.2359
416.9029, 584.2044
417.3850, 583.5178
417.8671, 583.1765
418.3492, 583.1202
418.8313, 583.4951
419.3134, 584.0930
419.7956, 584.5851
420.2777, 584.4425
420.7598, 584.4928
421.2419, 585.3338
421.7240, 586.9255
422.2061, 588.3487
422.6883, 589.0108
423.1704, 589.5531
423.6525, 590.4488
424.1346, 592.2236
424.6167, 593.7383
425.0988, 594.6238
425.5810, 595.1055
426.0631, 595.7607
426.5452, 596.7264
427.0273, 597.7424
427.5094, 598.8322
427.9915, 600.1103
428.4737, 600.8000
428.9558, 600.1857
429.4379, 599.7333
429.9200, 601.1106
430.4021, 605.0098
430.8842, 608.6229
431.3664, 611.3226
431.8485, 613.4120
432.3306, 616.1552
432.8127, 619.6900
433.2948, 623.2451
433.7769, 626.2292
434.2591, 628.6932
434.7412, 631.5135
435.2233, 634.7931
435.7054, 638.1921
436.1875, 641.1223
436.6696, 643.7115
437.1518, 646.7380
437.6339, 650.9104
438.1160, 655.4828
438.5981, 658.8907
439.0802, 661.2588
439.5623, 664.0269
440.0444, 668.3975
440.5266, 673.7570
441.0087, 679.3825
441.4908, 685.1419
441.9729, 691.1228
442.4550, 696.9213
442.9371, 703.0186
443.4193, 710.3834
443.9014, 721.0634
444.3835, 731.6977
444.8656, 740.2787
445.3477, 746.6595
445.8298, 752.8223
446.3120, 759.6036
446.7941, 766.2366
447.2762, 772.0491
447.7583, 778.8241
448.2404, 782.6133
448.7225, 782.7370
449.2047, 779.5970
449.6868, 774.2609
450.1689, 766.4577
450.6510, 756.7199
451.1331, 744.9853
451.6152, 730.7988
452.0974, 717.0125
452.5795, 703.4200
453.0616, 690.4932
453.5437, 678.1616
454.0258, 666.4041
454.5079, 656.1599
454.9901, 647.7658
455.4722, 640.9193
455.9543, 634.5865
456.4364, 628.7921
456.9185, 623.5508
457.4006, 618.5311
457.8828, 614.0289
458.3649, 611.1426
458.8470, 610.1379
459.3291, 609.6022
459.8112, 607.9683
460.2933, 605.6624
460.7755, 603.6629
461.2576, 602.5463
461.7397, 601.6838
462.2218, 600.4332
462.7039, 598.8906
463.1860, 597.5373
463.6682, 596.4887
464.1503, 595.8161
464.6324, 595.6913
465.1145, 596.3605
465.5966, 596.8442
466.0787, 596.6717
466.5609, 596.1658
467.0430, 595.7421
467.5251, 594.8920
468.0072, 594.7414
468.4893, 596.0431
468.9714, 598.6614
469.4536, 600.2219
469.9357, 599.7838
470.4178, 599.2819
470.8999, 599.7858
471.3820, 601.7688
471.8641, 603.5363
472.3463, 605.0762
472.8284, 606.3953
473.3105, 607.5267
473.7926, 608.4484
474.2747, 609.2645
474.7568, 609.9836
475.2390, 610.6221
475.7211, 610.9954
476.2032, 611.0424
476.6853, 611.7747
477.1674, 614.5244
477.6495, 618.6102
478.1317, 621.9260
478.6138, 624.0858
479.0959, 625.8597
479.5780, 627.7578
480.0601, 629.9283
480.5422, 632.6775
481.0244, 637.0193
481.5065, 641.3746
481.9886, 644.0528
482.4707, 645.3121
482.9528, 647.1992
483.4349, 651.1974
483.9171, 655.9374
484.3992, 660.3779
484.8813, 664.2242
485.3634, 668.1151
485.8455, 671.8695
486.3276, 675.8030
486.8098, 680.3677
487.2919, 686.2797
487.7740, 692.1241
488.2561, 697.4637
488.7382, 702.3770
489.2203, 707.5167
489.7025, 712.7234
490.1846, 718.3015
490.6667, 724.6563
491.1488, 732.0292
491.6309, 738.5583
492.1130, 744.0652
492.5952, 748.9409
493.0773, 754.0137
493.5594, 759.3019
494.0415, 764.1172
494.5236, 768.0530
495.0057, 771.5159
495.4879, 775.7098
495.9700, 780.5632
496.4521, 785.2743
496.9342, 789.0564
497.4163, 792.4120
497.8984, 796.0910
498.3806, 800.3159
498.8627, 804.4305
499.3448, 807.9615
499.8269, 811.0999
500.3090, 814.1560
500.7911, 817.4890
501.2733, 820.5089
501.7554, 823.2241
502.2375, 825.5109
502.7196, 826.8115
503.2017, 826.8356
503.6838, 825.9745
504.1660, 824.4448
504.6481, 822.3561
505.1302, 819.2697
505.6123, 815.1892
506.0944, 810.1013
506.5765, 803.9052
507.0587, 796.1282
507.5408, 788.5499
508.0229, 781.5745
508.5050, 774.9360
508.9871, 767.1707
509.4692, 758.1132
509.9514, 749.1199
510.4335, 741.0150
510.9156, 733.6096
511.3977, 726.2079
511.8798, 718.7519
512.3619, 711.4992
512.8441, 704.5028
513.3262, 697.8329
513.8083, 691.6387
514.2904, 685.9344
514.7725, 680.7566
515.2546, 676.3369
515.7368, 672.5012
516.2189, 668.6929
516.7010, 663.8914
517.1831, 659.6461
517.6652, 657.3297
518.1473, 657.1027
518.6295, 656.1400
519.1116, 652.5076
519.5937, 648.5418
520.0758, 645.9423
520.5579, 645.9520
521.0400, 645.8923
521.5222, 645.8467
522.0043, 645.7094
522.4864, 645.1904
522.9685, 643.9244
523.4506, 643.1557
523.9327, 643.3591
524.4149, 644.4034
524.8970, 645.2463
525.3791, 645.8087
525.8612, 646.6302
526.3433, 648.1498
526.8254, 650.2966
527.3076, 652.8099
527.7897, 655.7458
528.2718, 658.5746
528.7539, 660.4676
529.2360, 661.7758
529.7181, 663.4143
530.2003, 666.0531
530.6824, 668.7924
531.1645, 670.7791
531.6466, 672.1699
532.1287, 673.6893
532.6108, 675.7213
533.0930, 677.9428
533.5751, 680.2750
534.0572, 682.7588
534.5393, 684.9952
535.0214, 686.8702
535.5035, 688.4847
535.9857, 689.9103
536.4678, 691.6500
536.9499, 692.4456
537.4320, 691.9453
537.9141, 690.5651
538.3962, 689.3712
538.8784, 688.5447
539.3605, 687.2515
539.8426, 685.1160
540.3247, 682.2266
540.8068, 679.4322
541.2889, 676.7747
541.7711, 673.8619
542.2532, 670.1693
542.7353, 665.9850
543.2174, 662.1865
543.6995, 658.9351
544.1816, 655.8785
544.6638, 652.8745
545.1459, 649.7796
545.6280, 646.3854
546.1101, 641.9203
546.5922, 637.7502
547.0743, 634.8256
547.5565, 632.8995
548.0386, 631.0479
548.5207, 628.7692
549.0028, 626.6473
549.4849, 625.0139
549.9670, 624.0405
550.4492, 622.9156
550.9313, 621.4358
551.4134, 619.9610
551.8955, 618.7627
552.3776, 617.9571
552.8597, 617.1459
553.3419, 616.2958
553.8240, 615.4389
554.3061, 614.6039
554.7882, 613.7880
555.2703, 613.1245
555.7524, 612.7365
556.2346, 612.5240
556.7167, 612.2768
557.1988, 611.9908
557.6809, 611.6024
558.1630, 610.8645
558.6451, 610.0649
559.1273, 609.5886
559.6094, 609.4700
560.0915, 609.6964
560.5736, 610.6573
561.0557, 611.7985
561.5378, 612.4805
562.0200, 612.1093
562.5021, 611.7043
562.9842, 611.5321
563.4663, 611.5195
563.9484, 611.4417
564.4305, 611.1927
564.9127, 610.9904
565.3948, 610.8417
565.8769, 610.7464
566.3590, 611.0932
566.8411, 612.1683
567.3232, 613.0557
567.8054, 612.9843
568.2875, 611.9603
568.7696, 611.1003
569.2517, 610.4612
569.7338, 610.0744
570.2159, 610.0420
570.6981, 610.3028
571.1802, 610.6719
571.6623, 611.2547
572.1444, 611.7151
572.6265, 611.5380
573.1086, 610.9169
573.5908, 610.4594
574.0729, 610.6818
574.5550, 610.9741
575.0371, 610.9013
575.5192, 610.4166
576.0013, 610.0976
576.4835, 610.3592
576.9656, 610.6239
577.4477, 610.4940
577.9298, 609.6014
578.4119, 609.0164
578.8940, 608.8936
579.3762, 608.9411
579.8583, 608.6824
580.3404, 607.9900
580.8225, 607.6820
581.3046, 608.1165
581.7867, 608.8835
582.2689, 608.7897
582.7510, 607.8846
583.2331, 607.0359
583.7152, 606.7803
584.1973, 606.8612
584.6794, 606.8173
585.1616, 606.6517
585.6437, 606.6641
586.1258, 607.6327
586.6079, 608.5720
587.0900, 608.3439
