##NAMES=Bavenite
##RRUFFID=R060128
##IDEAL CHEMISTRY=Ca_4_Be_2+x_Al_2-x_Si_9_O_26-x_(OH)_2+x_ (x = 0 to 1)
##LOCALITY=Foot mine, Kings Mountain, Cleveland County, North Carolina, USA
##OWNER=RRUFF
##SOURCE=University of Arizona Mineral Museum
##DESCRIPTION=White bladed radial aggregate
##STATUS=The identification of this mineral is confirmed by single-crystal X-ray diffraction and chemical analysis.
##URL=rruff.info/R060128
##MEASURED CHEMISTRY=Ca_4.00_Be_2.00_(Al_1.98_Fe^3+^_0.02_)_Î£=2_Si_9.00_O_26_(OH)_2_
90.26367, 15.31025
90.74579, 15.13676
91.22791, 15.18542
91.71002, 15.43675
92.19214, 15.72335
92.67426, 16.03552
93.15637, 16.29397
93.63850, 16.26948
94.12061, 15.72110
94.60273, 14.88315
95.08485, 14.28452
95.56696, 13.94069
96.04908, 13.76814
96.53120, 13.69775
97.01331, 13.72890
97.49543, 13.82616
97.97755, 14.01452
98.45966, 14.28436
98.94178, 14.49020
99.42390, 14.63530
99.90602, 14.70960
100.3881, 14.66285
100.8703, 14.45203
101.3524, 14.27236
101.8345, 14.24746
102.3166, 14.43037
102.7987, 14.55448
103.2808, 14.64476
103.7630, 14.66194
104.2451, 14.38883
104.7272, 13.60622
105.2093, 12.81953
105.6914, 12.35385
106.1735, 12.35528
106.6557, 12.44326
107.1378, 12.66175
107.6199, 13.02422
108.1020, 13.09197
108.5841, 12.42920
109.0662, 11.70116
109.5484, 11.49565
110.0305, 12.28467
110.5126, 13.12426
110.9947, 13.94691
111.4768, 14.84025
111.9590, 15.33155
112.4411, 14.97818
112.9232, 14.29732
113.4053, 13.96453
113.8874, 14.19318
114.3695, 14.70725
114.8517, 15.46674
115.3338, 16.60488
115.8159, 17.62603
116.2980, 18.27444
116.7801, 18.70632
117.2622, 19.25724
117.7444, 20.08022
118.2265, 21.05319
118.7086, 22.09943
119.1907, 23.24424
119.6728, 24.41555
120.1549, 25.38587
120.6371, 26.27835
121.1192, 27.59847
121.6013, 29.87374
122.0834, 32.64137
122.5655, 35.37359
123.0477, 37.78735
123.5298, 40.21046
124.0119, 42.94975
124.4940, 45.99322
124.9761, 49.18512
125.4582, 52.40757
125.9404, 55.66841
126.4225, 58.95756
126.9046, 62.54848
127.3867, 66.08070
127.8688, 68.79788
128.3509, 70.62724
128.8331, 72.35064
129.3152, 74.79116
129.7973, 77.87981
130.2794, 81.19750
130.7615, 84.53627
131.2436, 87.95248
131.7258, 91.56950
132.2079, 95.37390
132.6900, 99.43239
133.1721, 104.0533
133.6542, 109.2257
134.1364, 114.2088
134.6185, 118.5143
135.1006, 122.1909
135.5827, 125.9616
136.0648, 129.7840
136.5469, 133.8682
137.0291, 138.9104
137.5112, 145.0854
137.9933, 151.3616
138.4754, 156.9267
138.9575, 161.4716
139.4396, 166.9275
139.9218, 173.4751
140.4039, 181.0645
140.8860, 189.3361
141.3681, 198.0916
141.8502, 207.8056
142.3323, 218.8537
142.8145, 232.1638
143.2966, 245.0789
143.7787, 258.7134
144.2608, 273.0243
144.7429, 278.8158
145.2251, 273.9775
145.7072, 262.5390
146.1893, 247.7048
146.6714, 225.5508
147.1535, 205.8811
147.6356, 190.7522
148.1178, 180.5654
148.5999, 172.4472
149.0820, 166.9960
149.5641, 163.4037
150.0462, 160.8052
150.5283, 160.0176
151.0105, 159.4410
151.4926, 157.2010
151.9747, 154.2176
152.4568, 152.1776
152.9389, 151.0559
153.4210, 150.6168
153.9032, 149.9833
154.3853, 149.1664
154.8674, 147.6158
155.3495, 147.0126
155.8316, 146.0298
156.3138, 145.0311
156.7959, 144.5613
157.2780, 143.1174
157.7601, 142.6392
158.2422, 142.6642
158.7243, 142.8536
159.2065, 142.6991
159.6886, 141.8304
160.1707, 141.1344
160.6528, 141.0386
161.1349, 141.3254
161.6170, 141.4230
162.0992, 140.9331
162.5813, 140.3040
163.0634, 139.8133
163.5455, 139.4334
164.0276, 139.3141
164.5097, 139.7860
164.9919, 140.6633
165.4740, 141.2200
165.9561, 140.8474
166.4382, 140.1145
166.9203, 139.5210
167.4025, 139.1428
167.8846, 139.0075
168.3667, 139.2292
168.8488, 139.7609
169.3309, 140.3006
169.8130, 140.9265
170.2952, 141.3847
170.7773, 141.3438
171.2594, 140.1891
171.7415, 138.8788
172.2236, 138.2158
172.7057, 138.1699
173.1879, 138.3486
173.6700, 138.6202
174.1521, 138.9007
174.6342, 139.0515
175.1163, 138.8436
175.5984, 138.5639
176.0806, 138.5961
176.5627, 138.9409
177.0448, 139.3209
177.5269, 139.5752
178.0090, 139.6840
178.4911, 139.6043
178.9733, 139.0331
179.4554, 138.3512
179.9375, 138.2796
180.4196, 138.8807
180.9017, 139.5543
181.3839, 139.7309
181.8660, 139.4707
182.3481, 138.9842
182.8302, 137.9923
183.3123, 136.8796
183.7944, 136.7186
184.2766, 137.6750
184.7587, 138.8364
185.2408, 139.0053
185.7229, 138.3246
186.2050, 137.6640
186.6871, 137.4219
187.1693, 137.5376
187.6514, 137.8545
188.1335, 138.4139
188.6156, 139.0188
189.0977, 139.3007
189.5798, 139.2803
190.0620, 139.4106
190.5441, 139.9947
191.0262, 140.9694
191.5083, 141.9052
191.9904, 142.7804
192.4725, 143.6372
192.9547, 144.4832
193.4368, 145.3187
193.9189, 146.3594
194.4010, 147.8327
194.8831, 149.7055
195.3652, 151.4548
195.8474, 153.0589
196.3295, 154.5105
196.8116, 155.9768
197.2937, 157.5321
197.7758, 158.4140
198.2579, 157.9411
198.7401, 156.0833
199.2222, 154.2893
199.7043, 152.6709
200.1864, 151.1871
200.6685, 149.7160
201.1507, 148.2410
201.6328, 146.8868
202.1149, 145.7731
202.5970, 144.9275
203.0791, 143.9705
203.5612, 142.7388
204.0434, 141.4860
204.5255, 141.0271
205.0076, 141.5507
205.4897, 142.2197
205.9718, 142.4892
206.4539, 142.2719
206.9361, 142.1998
207.4182, 142.3754
207.9003, 142.7122
208.3824, 142.9141
208.8645, 142.9214
209.3466, 142.9533
209.8288, 143.0678
210.3109, 143.1757
210.7930, 143.8005
211.2751, 145.1757
211.7572, 147.0497
212.2393, 148.5316
212.7215, 149.4936
213.2036, 150.3122
213.6857, 151.3451
214.1678, 152.8867
214.6499, 153.6191
215.1321, 153.2955
215.6142, 152.0893
216.0963, 150.6962
216.5784, 148.9742
217.0605, 147.3422
217.5426, 146.0900
218.0248, 145.3378
218.5069, 144.6500
218.9890, 144.0116
219.4711, 143.4104
219.9532, 142.7552
220.4353, 141.9573
220.9175, 141.2431
221.3996, 140.7552
221.8817, 140.5580
222.3638, 140.4288
222.8459, 140.3306
223.3280, 140.2841
223.8102, 140.3931
224.2923, 140.6656
224.7744, 141.0797
225.2565, 141.6405
225.7386, 142.4187
226.2208, 143.1517
226.7029, 143.7358
227.1850, 144.2431
227.6671, 145.0824
228.1492, 146.5690
228.6313, 147.9398
229.1135, 148.7041
229.5956, 148.6329
230.0777, 148.4880
230.5598, 148.3494
231.0419, 148.1859
231.5240, 147.8277
232.0062, 147.1988
232.4883, 146.4828
232.9704, 145.7538
233.4525, 144.8847
233.9346, 144.2961
234.4167, 144.1028
234.8989, 144.2267
235.3810, 144.2811
235.8631, 144.1041
236.3452, 144.0693
236.8273, 144.4368
237.3095, 145.4964
237.7916, 146.3036
238.2737, 146.6587
238.7558, 146.7135
239.2379, 147.1400
239.7200, 148.1479
240.2022, 149.2417
240.6843, 150.1608
241.1664, 150.8145
241.6485, 151.4890
242.1306, 152.1788
242.6127, 152.9039
243.0949, 153.7334
243.5770, 154.8016
244.0591, 155.7988
244.5412, 156.5451
245.0233, 156.9320
245.5054, 157.3438
245.9876, 157.8780
246.4697, 158.4360
246.9518, 158.7211
247.4339, 158.7179
247.9160, 158.4657
248.3981, 157.9385
248.8803, 156.9401
249.3624, 156.1278
249.8445, 155.5561
250.3266, 155.1628
250.8087, 154.7660
251.2909, 154.2854
251.7730, 153.9291
252.2551, 153.8160
252.7372, 154.0555
253.2193, 154.2346
253.7014, 154.2654
254.1836, 154.2713
254.6657, 154.5912
255.1478, 155.4892
255.6299, 156.2374
256.1120, 156.4719
256.5941, 155.9348
257.0763, 155.7663
257.5584, 156.2696
258.0405, 156.9519
258.5226, 156.7761
259.0047, 155.4347
259.4868, 153.8699
259.9690, 152.4145
260.4511, 151.0809
260.9332, 149.7890
261.4153, 148.4663
261.8974, 147.2325
262.3795, 146.3625
262.8617, 146.0265
263.3438, 145.6130
263.8259, 144.7586
264.3080, 143.2972
264.7901, 142.7673
265.2722, 143.6659
265.7544, 144.9048
266.2365, 144.7265
266.7186, 142.5922
267.2007, 140.6961
267.6829, 139.7476
268.1650, 139.7835
268.6471, 140.0005
269.1292, 140.4384
269.6113, 141.0012
270.0934, 141.6255
270.5756, 142.3853
271.0577, 142.9259
271.5398, 143.0194
272.0219, 142.6921
272.5040, 142.8779
272.9861, 143.6565
273.4683, 144.7635
273.9504, 145.9872
274.4325, 147.3467
274.9146, 148.6829
275.3967, 149.9619
275.8788, 151.1922
276.3610, 152.3174
276.8431, 153.2723
277.3252, 154.2853
277.8073, 155.7531
278.2894, 157.7671
278.7715, 159.2193
279.2537, 159.9662
279.7358, 159.9768
280.2179, 159.0601
280.7000, 157.1343
281.1821, 154.6314
281.6642, 151.6348
282.1464, 148.1392
282.6285, 145.0174
283.1106, 142.3731
283.5927, 140.2186
284.0748, 138.7184
284.5569, 137.9209
285.0391, 137.2855
285.5212, 136.3064
286.0033, 135.0425
286.4854, 134.2616
286.9675, 134.1631
287.4496, 134.4281
287.9318, 134.4308
288.4139, 134.1663
288.8960, 133.8660
289.3781, 133.6579
289.8602, 133.5288
290.3424, 133.4233
290.8245, 133.3517
291.3066, 133.2679
291.7887, 133.0996
292.2708, 132.8516
292.7530, 132.5632
293.2351, 132.1926
293.7172, 131.7946
294.1993, 131.5685
294.6814, 131.5400
295.1635, 131.5946
295.6457, 131.5958
296.1278, 131.5562
296.6099, 131.5321
297.0920, 131.4963
297.5741, 131.5028
298.0562, 131.7527
298.5384, 132.2715
299.0205, 132.6996
299.5026, 132.5035
299.9847, 131.9130
300.4668, 131.5378
300.9489, 131.8567
301.4311, 132.4102
301.9132, 132.4743
302.3953, 132.0706
302.8774, 131.6944
303.3595, 131.7782
303.8416, 132.1582
304.3238, 132.5684
304.8059, 133.0563
305.2880, 133.4006
305.7701, 133.1497
306.2522, 132.4203
306.7343, 131.9407
307.2165, 132.3819
307.6986, 133.2838
308.1807, 134.0787
308.6628, 134.6347
309.1449, 135.0503
309.6270, 135.3725
310.1092, 135.6167
310.5913, 135.8248
311.0734, 136.0984
311.5555, 136.3033
312.0376, 136.2498
312.5197, 135.7486
313.0019, 135.4086
313.4840, 135.7892
313.9661, 136.5713
314.4482, 137.1062
314.9304, 137.0572
315.4125, 136.7208
315.8946, 136.1600
316.3767, 135.2828
316.8588, 134.6915
317.3409, 134.9116
317.8231, 135.4866
318.3052, 135.8130
318.7873, 135.3498
319.2694, 134.9186
319.7515, 134.8141
320.2336, 135.0574
320.7158, 135.6016
321.1979, 137.0758
321.6800, 138.5473
322.1621, 139.1669
322.6442, 137.8461
323.1263, 136.6043
323.6085, 135.6860
324.0906, 135.1320
324.5727, 135.3740
325.0548, 137.7522
325.5369, 140.1261
326.0190, 141.1966
326.5012, 139.3139
326.9833, 137.9350
327.4654, 137.3561
327.9475, 137.4907
328.4296, 137.9996
328.9117, 139.2758
329.3939, 140.5788
329.8760, 141.5916
330.3581, 141.9720
330.8402, 142.6953
331.3223, 143.8917
331.8044, 145.3939
332.2866, 146.8815
332.7687, 148.3644
333.2508, 149.7958
333.7329, 151.2591
334.2150, 152.8984
334.6971, 153.8166
335.1793, 153.7077
335.6614, 153.1840
336.1435, 153.0086
336.6256, 153.2142
337.1077, 153.6905
337.5899, 154.4229
338.0720, 155.4177
338.5541, 156.5791
339.0362, 157.9218
339.5183, 159.4290
340.0005, 161.0820
340.4826, 162.9069
340.9647, 164.8394
341.4468, 166.9365
341.9289, 169.0934
342.4110, 171.0690
342.8932, 172.8699
343.3753, 174.3301
343.8574, 175.0911
344.3395, 175.2216
344.8216, 175.8611
345.3037, 177.3327
345.7859, 178.9243
346.2680, 179.5543
346.7501, 179.2277
347.2322, 177.9940
347.7143, 175.6218
348.1964, 172.3365
348.6786, 168.7360
349.1607, 164.7406
349.6428, 160.7746
350.1249, 157.0920
350.6070, 153.7572
351.0891, 150.9093
351.5713, 148.8568
352.0534, 147.2446
352.5355, 145.3908
353.0176, 143.3441
353.4997, 141.6850
353.9818, 141.2399
354.4640, 141.4064
354.9461, 141.2182
355.4282, 140.1303
355.9103, 138.9450
356.3924, 138.3495
356.8745, 138.2602
357.3567, 138.3528
357.8388, 138.5965
358.3209, 138.8554
358.8030, 138.9794
359.2851, 138.8594
359.7672, 138.8299
360.2494, 139.1849
360.7315, 139.7480
361.2136, 140.1884
361.6957, 140.2179
362.1779, 140.2309
362.6600, 140.4371
363.1421, 140.8750
363.6242, 141.3299
364.1063, 141.6601
364.5884, 142.0072
365.0706, 142.5130
365.5527, 143.3938
366.0348, 144.2347
366.5169, 144.8233
366.9990, 145.1900
367.4811, 145.8768
367.9633, 147.6319
368.4454, 149.2447
368.9275, 150.0017
369.4096, 149.0662
369.8917, 148.4268
370.3738, 148.2544
370.8560, 148.3936
371.3381, 148.4089
371.8202, 148.1904
372.3023, 147.9990
372.7844, 147.9565
373.2665, 148.1271
373.7487, 148.1908
374.2308, 148.1438
374.7129, 147.9949
375.1950, 147.6575
375.6771, 146.9387
376.1592, 146.6705
376.6414, 147.2109
377.1235, 148.4580
377.6056, 149.3718
378.0877, 149.8979
378.5698, 150.3000
379.0519, 150.8453
379.5341, 151.5318
380.0162, 152.0774
380.4983, 152.4107
380.9804, 152.6007
381.4625, 152.7529
381.9446, 152.8705
382.4268, 153.0279
382.9089, 153.2874
383.3910, 153.6240
383.8731, 154.0202
384.3553, 154.5090
384.8374, 154.8726
385.3195, 154.7735
385.8016, 154.3263
386.2837, 153.8659
386.7658, 153.4180
387.2480, 153.1027
387.7301, 153.2172
388.2122, 153.7370
388.6943, 154.1103
389.1764, 153.5390
389.6585, 152.7070
390.1407, 152.5436
390.6228, 153.7365
391.1049, 155.0415
391.5870, 155.6070
392.0691, 155.6095
392.5512, 155.5813
393.0334, 155.7420
393.5155, 155.9673
393.9976, 156.1598
394.4797, 156.2668
394.9618, 156.4796
395.4439, 156.7662
395.9261, 157.2197
396.4082, 157.9603
396.8903, 159.1756
397.3724, 160.5316
397.8545, 162.0399
398.3366, 163.7104
398.8188, 165.1638
399.3009, 166.1297
399.7830, 167.0329
400.2651, 168.1254
400.7472, 169.2641
401.2293, 170.8344
401.7115, 173.1319
402.1936, 175.8546
402.6757, 178.0980
403.1578, 179.7914
403.6399, 181.1298
404.1220, 182.1816
404.6042, 182.9632
405.0863, 183.4790
405.5684, 183.9096
406.0505, 183.7797
406.5326, 182.3485
407.0147, 179.4902
407.4969, 176.1926
407.9790, 172.5832
408.4611, 168.7502
408.9432, 164.9037
409.4254, 161.0244
409.9075, 157.5576
410.3896, 154.9592
410.8717, 153.0854
411.3538, 151.2027
411.8359, 149.0884
412.3181, 147.2739
412.8002, 146.9135
413.2823, 147.6548
413.7644, 148.0562
414.2465, 147.0795
414.7286, 145.4491
415.2108, 143.9812
415.6929, 142.7204
416.1750, 141.8072
416.6571, 141.6269
417.1392, 141.7880
417.6213, 141.7415
418.1035, 140.9764
418.5856, 140.3099
419.0677, 140.3000
419.5498, 140.8114
420.0319, 141.3383
420.5140, 141.7394
420.9962, 142.0525
421.4783, 142.2656
421.9604, 142.2813
422.4425, 142.4578
422.9246, 143.1364
423.4067, 143.9440
423.8889, 144.3765
424.3710, 143.7604
424.8531, 143.4032
425.3352, 143.7126
425.8173, 144.6906
426.2994, 145.3834
426.7816, 145.4747
427.2637, 145.5957
427.7458, 146.2101
428.2279, 147.6668
428.7100, 148.7467
429.1921, 149.1701
429.6743, 149.2975
430.1564, 150.0245
430.6385, 151.5108
431.1206, 152.9830
431.6028, 154.1574
432.0849, 155.0465
432.5670, 155.6510
433.0491, 155.9209
433.5312, 156.1191
434.0133, 156.5309
434.4955, 157.1319
434.9776, 157.7636
435.4597, 158.4083
435.9418, 159.0379
436.4239, 159.4472
436.9060, 159.7036
437.3882, 160.2603
437.8703, 161.4035
438.3524, 163.0226
438.8345, 165.0284
439.3166, 167.4470
439.7987, 169.9973
440.2809, 172.2079
440.7630, 174.4595
441.2451, 177.3203
441.7272, 182.1632
442.2093, 186.6377
442.6914, 189.0356
443.1736, 189.6846
443.6557, 190.8323
444.1378, 193.7649
444.6199, 197.1512
445.1020, 200.2546
445.5841, 203.4284
446.0663, 205.4186
446.5484, 206.2600
447.0305, 205.7800
447.5126, 203.6408
447.9947, 199.1294
448.4768, 193.8905
448.9590, 188.0152
449.4411, 181.5060
449.9232, 175.3936
450.4053, 169.6170
450.8874, 164.2306
451.3695, 159.2291
451.8517, 154.4331
452.3338, 150.7482
452.8159, 148.5110
453.2980, 147.1751
453.7801, 145.5517
454.2622, 143.6100
454.7444, 142.0295
455.2265, 141.2722
455.7086, 141.1526
456.1907, 140.9420
456.6729, 140.6348
457.1550, 140.2828
457.6371, 139.8954
458.1192, 139.4970
458.6013, 139.1578
459.0834, 138.9678
459.5656, 138.7153
460.0477, 137.9626
460.5298, 136.9183
461.0119, 136.2360
461.4940, 136.5156
461.9761, 137.0956
462.4583, 137.5003
462.9404, 137.6909
463.4225, 137.7426
463.9046, 137.4026
464.3867, 137.0741
464.8688, 137.1459
465.3510, 138.4841
465.8331, 139.3575
466.3152, 139.0148
466.7973, 137.8487
467.2794, 137.2810
467.7615, 137.9548
468.2437, 138.6875
468.7258, 139.0700
469.2079, 138.9947
469.6900, 139.0174
470.1721, 139.0271
470.6542, 139.2563
471.1364, 140.0707
471.6185, 141.7044
472.1006, 142.9643
472.5827, 143.5289
473.0648, 143.6552
473.5469, 144.1040
474.0291, 144.8882
474.5112, 145.8492
474.9933, 146.9115
475.4754, 148.0782
475.9575, 149.3161
476.4396, 150.6030
476.9218, 152.1328
477.4039, 154.3085
477.8860, 156.8714
478.3681, 159.1908
478.8503, 160.9720
479.3324, 162.5430
479.8145, 163.9895
480.2966, 165.4492
480.7787, 167.3482
481.2608, 170.1526
481.7430, 173.3336
482.2251, 176.6938
482.7072, 180.3274
483.1893, 183.4201
483.6714, 185.0626
484.1535, 186.3063
484.6357, 188.2119
485.1178, 191.1414
485.5999, 194.5396
486.0820, 198.2560
486.5641, 202.3470
487.0462, 207.3529
487.5284, 214.9154
488.0105, 221.1914
488.4926, 224.3758
488.9747, 223.8219
489.4568, 224.1689
489.9389, 225.5346
490.4211, 227.5862
490.9032, 230.3108
491.3853, 233.8239
491.8674, 236.2644
492.3495, 237.1161
492.8316, 236.8156
493.3138, 236.2642
493.7959, 235.4422
494.2780, 234.1397
494.7601, 232.0059
495.2422, 229.3663
495.7243, 226.8654
496.2065, 224.5028
496.6886, 222.2126
497.1707, 219.8022
497.6528, 217.4158
498.1349, 215.2299
498.6170, 213.1797
499.0992, 211.4770
499.5813, 210.5563
500.0634, 210.0710
500.5455, 209.1618
501.0276, 207.1153
501.5097, 204.9831
501.9919, 203.1738
502.4740, 201.7662
502.9561, 200.4001
503.4382, 199.1029
503.9203, 197.7842
504.4025, 196.3805
504.8846, 194.9461
505.3667, 193.3703
505.8488, 191.7234
506.3309, 189.8968
506.8130, 187.5350
507.2952, 184.4856
507.7773, 181.6370
508.2594, 179.4865
508.7415, 177.8656
509.2236, 175.5633
509.7057, 172.5235
510.1879, 169.5303
510.6700, 167.2782
511.1521, 165.5768
511.6342, 163.8195
512.1163, 161.9124
512.5984, 160.0000
513.0806, 158.0753
513.5627, 156.2695
514.0448, 154.8564
514.5269, 154.2814
515.0090, 153.8701
515.4911, 153.1231
515.9733, 152.0943
516.4554, 151.2133
516.9375, 150.6029
517.4196, 150.2102
517.9017, 150.0301
518.3839, 150.1508
518.8660, 150.2603
519.3481, 150.2567
519.8302, 150.2585
520.3123, 150.4023
520.7944, 150.8013
521.2766, 151.1401
521.7587, 151.3643
522.2408, 151.4969
522.7229, 151.5746
523.2050, 151.5260
523.6871, 151.6971
524.1693, 152.3972
524.6514, 153.5611
525.1335, 154.4642
525.6156, 155.0872
526.0977, 155.5977
526.5798, 156.1178
527.0620, 156.6671
527.5441, 157.2886
528.0262, 157.9762
528.5083, 158.7668
528.9904, 159.7267
529.4725, 160.8127
529.9547, 161.9182
530.4368, 162.9091
530.9189, 163.9529
531.4010, 165.2015
531.8831, 166.6659
532.3652, 168.0132
532.8474, 169.6331
533.3295, 170.7837
533.8116, 170.9864
534.2937, 169.7392
534.7758, 168.2715
535.2579, 166.5381
535.7401, 164.6436
536.2222, 162.7905
536.7043, 160.9569
537.1865, 159.1470
537.6686, 157.3322
538.1507, 155.5405
538.6328, 154.0571
539.1149, 152.9348
539.5970, 151.7127
540.0792, 149.8332
540.5613, 147.5418
541.0434, 146.2983
541.5255, 146.2438
542.0076, 146.3476
542.4897, 145.4288
542.9719, 143.9412
543.4540, 142.8069
543.9361, 142.4296
544.4182, 142.2293
544.9003, 141.7357
545.3824, 141.0817
545.8646, 140.5642
546.3467, 140.3561
546.8288, 140.2610
547.3109, 140.2537
547.7930, 140.3324
548.2751, 140.2768
548.7573, 139.9400
549.2394, 139.5482
549.7215, 139.2136
550.2036, 138.9125
550.6857, 138.7324
551.1678, 138.7067
551.6500, 138.7716
552.1321, 138.8232
552.6142, 138.8433
553.0963, 138.9991
553.5784, 139.4062
554.0605, 139.9098
554.5427, 140.0323
555.0248, 139.7964
555.5069, 139.6075
555.9890, 139.7862
556.4711, 140.1468
556.9532, 140.3201
557.4354, 140.2922
557.9175, 140.3290
558.3996, 140.6986
558.8817, 141.2063
559.3638, 141.6371
559.8459, 141.8988
560.3281, 142.1543
560.8102, 142.5105
561.2923, 142.8902
561.7744, 143.1695
562.2565, 143.2236
562.7386, 143.2856
563.2208, 143.3136
563.7029, 143.3529
564.1850, 143.7652
564.6671, 144.7403
565.1492, 145.7449
565.6313, 146.4999
566.1135, 146.9734
566.5956, 147.6168
567.0777, 148.5134
567.5598, 149.2693
568.0419, 149.1715
568.5240, 148.4662
569.0062, 148.5606
569.4883, 150.0039
569.9704, 151.6755
570.4525, 152.3137
570.9346, 152.0485
571.4167, 151.2013
571.8989, 149.1704
572.3810, 147.2248
572.8631, 146.5018
573.3452, 146.8038
573.8273, 146.6931
574.3094, 145.1595
574.7916, 143.4426
575.2737, 142.1781
575.7558, 141.4783
576.2379, 141.0962
576.7200, 141.3003
577.2021, 141.5918
577.6843, 141.5165
578.1664, 140.9546
578.6485, 140.3652
579.1306, 139.7519
579.6127, 139.1731
580.0948, 138.7115
580.5770, 138.3675
581.0591, 138.1763
581.5412, 138.1944
582.0233, 138.3538
582.5054, 138.6353
582.9875, 138.9908
583.4697, 139.0735
583.9518, 138.2713
