##NAMES=Bavenite
##RRUFFID=R060790
##IDEAL CHEMISTRY=Ca_4_Be_2+x_Al_2-x_Si_9_O_26-x_(OH)_2+x_ (x = 0 to 1)
##LOCALITY=Londonderry, West Australia, Australia
##OWNER=RRUFF
##SOURCE=Michael Scott
##DESCRIPTION=Colorless platy aggregate with a hexagonal outline associated with quartz
##STATUS=The identification of this mineral is confirmed by single-crystal X-ray diffraction and chemical analysis.
##URL=rruff.info/R060790
##MEASURED CHEMISTRY=Ca_3.96_Be_2.00_(Al_1.10_Be_0.90_)_Î£=2_Si_9.00_O_25.1_(OH)_2.90_
137.9150, 8036.421
138.3971, 8209.869
138.8792, 8369.063
139.3613, 8516.553
139.8434, 8665.124
140.3256, 8812.460
140.8077, 8968.392
141.2898, 9147.286
141.7719, 9357.924
142.2540, 9563.750
142.7361, 9754.109
143.2183, 9929.920
143.7004, 10113.14
144.1825, 10312.52
144.6646, 10511.67
145.1467, 10689.64
145.6288, 10857.38
146.1110, 10989.66
146.5931, 11082.81
147.0752, 11143.24
147.5573, 11144.08
148.0394, 11075.27
148.5215, 10949.42
149.0037, 10785.82
149.4858, 10541.87
149.9679, 10301.50
150.4500, 10089.78
150.9321, 9919.378
151.4142, 9762.298
151.8964, 9613.739
152.3785, 9478.198
152.8606, 9369.215
153.3427, 9300.146
153.8248, 9248.752
154.3069, 9204.492
154.7890, 9170.000
155.2712, 9138.833
155.7533, 9104.891
156.2354, 9070.957
156.7175, 9054.758
157.1996, 9069.878
157.6817, 9098.596
158.1639, 9127.687
158.6460, 9156.380
159.1281, 9182.281
159.6102, 9202.902
160.0923, 9217.711
160.5744, 9232.640
161.0566, 9243.053
161.5387, 9255.819
162.0208, 9278.509
162.5029, 9319.722
162.9850, 9366.034
163.4671, 9412.407
163.9493, 9458.350
164.4314, 9500.573
164.9135, 9533.953
165.3956, 9562.916
165.8777, 9594.657
166.3598, 9645.847
166.8420, 9693.266
167.3241, 9715.082
167.8062, 9699.314
168.2883, 9687.786
168.7704, 9716.870
169.2525, 9772.912
169.7346, 9821.751
170.2168, 9832.516
170.6989, 9831.948
171.1810, 9848.188
171.6631, 9892.436
172.1452, 9945.052
172.6273, 9996.514
173.1095, 10044.44
173.5916, 10080.58
174.0737, 10095.87
174.5558, 10096.51
175.0379, 10091.88
175.5201, 10085.71
176.0022, 10073.68
176.4843, 10043.88
176.9664, 9998.373
177.4485, 9959.272
177.9306, 9940.983
178.4128, 9942.243
178.8949, 9960.410
179.3770, 10002.33
179.8591, 10056.96
180.3412, 10109.65
180.8233, 10161.00
181.3055, 10205.37
181.7876, 10231.80
182.2697, 10245.32
182.7518, 10264.72
183.2339, 10317.59
183.7160, 10380.62
184.1981, 10379.92
184.6803, 10305.32
185.1624, 10225.73
185.6445, 10244.08
186.1266, 10343.92
186.6087, 10416.48
187.0908, 10385.15
187.5730, 10278.36
188.0551, 10212.49
188.5372, 10196.26
189.0193, 10206.62
189.5014, 10209.37
189.9835, 10205.07
190.4657, 10208.88
190.9478, 10239.20
191.4299, 10290.66
191.9120, 10316.19
192.3941, 10306.45
192.8762, 10279.98
193.3584, 10272.22
193.8405, 10284.12
194.3226, 10299.99
194.8047, 10309.12
195.2868, 10311.95
195.7689, 10321.29
196.2511, 10343.19
196.7332, 10368.83
197.2153, 10365.18
197.6974, 10325.41
198.1795, 10297.44
198.6616, 10328.74
199.1437, 10424.71
199.6259, 10493.81
200.1080, 10518.21
200.5901, 10507.13
201.0722, 10491.77
201.5543, 10468.35
202.0364, 10452.92
202.5186, 10462.09
203.0007, 10499.10
203.4828, 10535.50
203.9649, 10565.39
204.4470, 10589.74
204.9291, 10614.82
205.4113, 10639.52
205.8934, 10666.84
206.3755, 10704.47
206.8576, 10758.28
207.3397, 10793.72
207.8218, 10797.14
208.3040, 10770.65
208.7861, 10758.62
209.2682, 10764.42
209.7503, 10779.83
210.2324, 10796.69
210.7145, 10815.25
211.1967, 10835.78
211.6788, 10859.63
212.1609, 10887.39
212.6430, 10912.38
213.1251, 10934.52
213.6072, 10954.38
214.0894, 10972.61
214.5715, 10989.09
215.0536, 11004.04
215.5357, 11014.89
216.0178, 11019.54
216.4999, 11037.44
216.9820, 11075.73
217.4642, 11119.31
217.9463, 11144.01
218.4284, 11138.80
218.9105, 11137.40
219.3926, 11153.37
219.8747, 11192.63
220.3569, 11219.41
220.8390, 11230.05
221.3211, 11230.86
221.8032, 11233.01
222.2853, 11238.15
222.7674, 11242.20
223.2496, 11242.88
223.7317, 11237.64
224.2138, 11239.43
224.6959, 11252.37
225.1780, 11270.66
225.6601, 11281.75
226.1423, 11278.85
226.6244, 11280.31
227.1065, 11295.37
227.5886, 11333.78
228.0707, 11357.89
228.5528, 11354.32
229.0350, 11340.61
229.5171, 11364.06
229.9992, 11454.85
230.4813, 11536.20
230.9634, 11571.81
231.4455, 11534.57
231.9276, 11513.00
232.4098, 11512.17
232.8919, 11526.26
233.3740, 11539.80
233.8561, 11557.93
234.3382, 11568.43
234.8203, 11563.46
235.3025, 11529.90
235.7846, 11510.07
236.2667, 11510.67
236.7488, 11525.37
237.2309, 11531.26
237.7130, 11518.12
238.1952, 11510.57
238.6773, 11523.05
239.1594, 11570.72
239.6415, 11606.44
240.1236, 11627.86
240.6057, 11636.40
241.0879, 11635.22
241.5700, 11611.10
242.0521, 11595.21
242.5342, 11608.55
243.0163, 11679.29
243.4984, 11717.88
243.9806, 11704.93
244.4627, 11655.21
244.9448, 11630.86
245.4269, 11643.40
245.9090, 11665.31
246.3911, 11681.60
246.8732, 11689.04
247.3554, 11696.41
247.8375, 11703.75
248.3196, 11711.01
248.8017, 11719.48
249.2838, 11733.60
249.7659, 11742.77
250.2481, 11739.50
250.7302, 11715.73
251.2123, 11698.91
251.6944, 11692.22
252.1765, 11694.77
252.6586, 11702.85
253.1408, 11725.91
253.6229, 11742.38
254.1050, 11735.82
254.5871, 11689.85
255.0692, 11662.80
255.5513, 11664.76
256.0334, 11689.62
256.5156, 11708.49
256.9977, 11715.58
257.4798, 11725.39
257.9619, 11750.06
258.4440, 11802.29
258.9261, 11834.59
259.4083, 11837.73
259.8904, 11817.10
260.3725, 11797.10
260.8546, 11770.15
261.3367, 11755.48
261.8188, 11767.98
262.3010, 11817.59
262.7831, 11865.00
263.2652, 11909.24
263.7473, 11948.46
264.2294, 11977.89
264.7115, 11998.94
265.1937, 12006.71
265.6758, 11993.59
266.1579, 11951.65
266.6400, 11918.76
267.1221, 11896.90
267.6042, 11887.24
268.0864, 11898.94
268.5685, 11942.13
269.0506, 11984.42
269.5327, 12003.06
270.0148, 11992.29
270.4969, 11985.49
270.9791, 11985.32
271.4612, 11991.54
271.9433, 12003.33
272.4254, 12021.20
272.9075, 12043.57
273.3896, 12071.36
273.8718, 12105.87
274.3539, 12135.63
274.8360, 12159.90
275.3181, 12178.82
275.8002, 12191.46
276.2823, 12195.91
276.7645, 12200.82
277.2466, 12211.52
277.7287, 12228.29
278.2108, 12247.37
278.6929, 12270.49
279.1750, 12293.46
279.6572, 12302.51
280.1393, 12294.36
280.6214, 12290.64
281.1035, 12309.12
281.5856, 12349.84
282.0677, 12377.37
282.5499, 12384.51
283.0320, 12383.21
283.5141, 12403.08
283.9962, 12446.52
284.4783, 12484.10
284.9604, 12494.02
285.4425, 12478.65
285.9247, 12471.13
286.4068, 12474.42
286.8889, 12485.31
287.3710, 12503.34
287.8531, 12528.54
288.3352, 12544.82
288.8174, 12535.48
289.2995, 12506.41
289.7816, 12493.80
290.2637, 12503.18
290.7458, 12520.22
291.2279, 12526.67
291.7101, 12522.58
292.1922, 12509.50
292.6743, 12480.96
293.1564, 12443.26
293.6385, 12418.27
294.1206, 12408.54
294.6028, 12406.83
295.0849, 12405.55
295.5670, 12405.03
296.0491, 12405.99
296.5312, 12416.09
297.0133, 12427.60
297.4955, 12414.78
297.9776, 12372.77
298.4597, 12337.15
298.9418, 12358.47
299.4239, 12421.02
299.9060, 12475.85
300.3882, 12494.70
300.8703, 12493.07
301.3524, 12491.25
301.8345, 12488.83
302.3166, 12492.17
302.7987, 12506.30
303.2809, 12529.89
303.7630, 12560.92
304.2451, 12610.07
304.7272, 12659.41
305.2093, 12684.32
305.6914, 12684.43
306.1736, 12679.88
306.6557, 12687.52
307.1378, 12700.67
307.6199, 12708.85
308.1020, 12700.33
308.5841, 12691.34
309.0663, 12699.53
309.5484, 12723.88
310.0305, 12744.58
310.5126, 12747.29
310.9947, 12740.70
311.4768, 12734.35
311.9590, 12724.38
312.4411, 12722.22
312.9232, 12741.59
313.4053, 12778.72
313.8874, 12809.55
314.3695, 12822.16
314.8516, 12823.83
315.3337, 12821.27
315.8159, 12820.51
316.2980, 12810.75
316.7801, 12772.40
317.2622, 12716.59
317.7443, 12686.10
318.2264, 12715.33
318.7086, 12764.70
319.1907, 12810.94
319.6728, 12860.45
320.1549, 12889.92
320.6370, 12874.25
321.1191, 12831.70
321.6013, 12810.90
322.0834, 12847.21
322.5655, 12890.19
323.0476, 12914.86
323.5297, 12904.68
324.0118, 12902.13
324.4940, 12912.04
324.9761, 12933.29
325.4582, 12963.82
325.9403, 13021.65
326.4224, 13072.41
326.9045, 13105.44
327.3867, 13117.74
327.8688, 13118.38
328.3509, 13089.08
328.8330, 13053.55
329.3151, 13044.81
329.7972, 13085.22
330.2794, 13127.32
330.7615, 13162.04
331.2436, 13189.71
331.7257, 13209.18
332.2078, 13218.67
332.6899, 13221.73
333.1721, 13221.98
333.6542, 13218.85
334.1363, 13213.21
334.6184, 13197.18
335.1005, 13171.34
335.5826, 13188.75
336.0648, 13271.78
336.5469, 13367.26
337.0290, 13429.65
337.5111, 13452.92
337.9932, 13459.45
338.4753, 13442.75
338.9575, 13411.73
339.4396, 13416.69
339.9217, 13466.77
340.4038, 13526.26
340.8859, 13569.57
341.3680, 13594.88
341.8502, 13620.01
342.3323, 13646.04
342.8144, 13673.99
343.2965, 13704.61
343.7786, 13738.24
344.2607, 13777.04
344.7429, 13831.41
345.2250, 13897.77
345.7071, 13942.31
346.1892, 13961.35
346.6713, 13962.06
347.1534, 13948.48
347.6355, 13922.44
348.1176, 13903.07
348.5998, 13910.39
349.0819, 13931.26
349.5640, 13928.11
350.0461, 13896.33
350.5282, 13852.62
351.0103, 13806.52
351.4925, 13761.68
351.9746, 13728.64
352.4567, 13719.85
352.9388, 13722.36
353.4209, 13717.67
353.9030, 13705.65
354.3852, 13695.66
354.8673, 13703.64
355.3494, 13717.54
355.8315, 13718.04
356.3136, 13684.96
356.7957, 13648.25
357.2779, 13631.85
357.7600, 13634.35
358.2421, 13644.57
358.7242, 13652.43
359.2063, 13666.81
359.6884, 13698.34
360.1706, 13770.61
360.6527, 13830.63
361.1348, 13846.37
361.6169, 13828.47
362.0990, 13809.58
362.5811, 13800.99
363.0633, 13794.92
363.5454, 13785.46
364.0275, 13765.73
364.5096, 13755.50
364.9917, 13759.01
365.4738, 13775.01
365.9560, 13801.43
366.4381, 13864.73
366.9202, 13914.11
367.4023, 13930.16
367.8844, 13902.71
368.3665, 13877.79
368.8487, 13847.07
369.3308, 13824.34
369.8129, 13825.73
370.2950, 13875.12
370.7771, 13917.47
371.2592, 13945.73
371.7414, 13959.71
372.2235, 13952.60
372.7056, 13905.35
373.1877, 13857.53
373.6698, 13843.11
374.1519, 13876.31
374.6341, 13903.38
375.1162, 13914.65
375.5983, 13914.99
376.0804, 13926.30
376.5625, 13952.99
377.0446, 13977.40
377.5267, 13987.64
378.0089, 13982.72
378.4910, 13976.82
378.9731, 13970.18
379.4552, 13964.68
379.9373, 13964.66
380.4194, 13970.57
380.9016, 13977.57
381.3837, 13980.99
381.8658, 13983.30
382.3479, 13996.40
382.8300, 14021.17
383.3121, 14053.71
383.7943, 14094.86
384.2764, 14141.03
384.7585, 14178.99
385.2406, 14200.44
385.7227, 14211.62
386.2048, 14218.24
386.6870, 14220.50
387.1691, 14227.51
387.6512, 14246.23
388.1333, 14273.60
388.6154, 14308.08
389.0975, 14360.76
389.5797, 14402.29
390.0618, 14390.56
390.5439, 14342.38
391.0260, 14314.37
391.5081, 14349.65
391.9902, 14409.56
392.4724, 14470.03
392.9545, 14534.49
393.4366, 14577.94
393.9187, 14567.96
394.4008, 14534.04
394.8829, 14523.23
395.3651, 14579.37
395.8472, 14635.77
396.3293, 14659.75
396.8114, 14642.40
397.2935, 14643.82
397.7756, 14696.50
398.2578, 14760.87
398.7399, 14801.57
399.2220, 14781.38
399.7041, 14776.42
400.1862, 14808.79
400.6683, 14871.97
401.1505, 14899.19
401.6326, 14862.73
402.1147, 14820.83
402.5968, 14807.88
403.0789, 14840.88
403.5610, 14862.97
404.0432, 14874.21
404.5253, 14872.37
405.0074, 14846.17
405.4895, 14784.50
405.9716, 14732.52
406.4537, 14710.35
406.9359, 14718.21
407.4180, 14737.15
407.9001, 14771.57
408.3822, 14804.98
408.8643, 14816.23
409.3464, 14805.87
409.8285, 14788.12
410.3106, 14760.31
410.7928, 14731.76
411.2749, 14733.89
411.7570, 14766.75
412.2391, 14795.06
412.7212, 14777.95
413.2033, 14735.18
413.6855, 14714.32
414.1676, 14728.81
414.6497, 14760.44
415.1318, 14796.83
415.6139, 14835.24
416.0960, 14866.04
416.5782, 14886.41
417.0603, 14895.37
417.5424, 14886.05
418.0245, 14853.61
418.5066, 14829.24
418.9887, 14830.32
419.4709, 14849.70
419.9530, 14878.04
420.4351, 14933.94
420.9172, 14978.18
421.3993, 14984.95
421.8814, 14956.47
422.3636, 14943.36
422.8457, 14972.98
423.3278, 15012.40
423.8099, 15040.51
424.2920, 15039.13
424.7741, 15046.87
425.2563, 15074.55
425.7384, 15113.29
426.2205, 15136.82
426.7026, 15136.67
427.1847, 15132.53
427.6668, 15129.14
428.1490, 15123.73
428.6311, 15131.16
429.1132, 15155.02
429.5953, 15187.24
430.0774, 15217.69
430.5595, 15245.88
431.0417, 15273.38
431.5238, 15298.41
432.0059, 15322.90
432.4880, 15357.35
432.9701, 15402.54
433.4522, 15452.25
433.9344, 15507.58
434.4165, 15565.41
434.8986, 15607.39
435.3807, 15624.96
435.8628, 15640.04
436.3449, 15691.15
436.8271, 15771.08
437.3092, 15847.10
437.7913, 15883.76
438.2734, 15912.95
438.7555, 15985.84
439.2376, 16107.47
439.7197, 16226.34
440.2018, 16298.55
440.6840, 16345.06
441.1661, 16394.64
441.6482, 16461.05
442.1303, 16528.87
442.6124, 16585.80
443.0945, 16635.44
443.5767, 16694.58
444.0588, 16782.82
444.5409, 16873.39
445.0230, 16951.23
445.5051, 17013.56
445.9872, 17065.25
446.4694, 17106.98
446.9515, 17138.96
447.4336, 17161.82
447.9157, 17208.89
448.3978, 17208.15
448.8799, 17130.90
449.3621, 16970.32
449.8442, 16827.49
450.3263, 16709.58
450.8084, 16600.25
451.2905, 16486.82
451.7726, 16369.66
452.2548, 16247.68
452.7369, 16112.67
453.2190, 15978.69
453.7011, 15884.62
454.1832, 15834.42
454.6653, 15791.50
455.1475, 15730.01
455.6296, 15656.93
456.1117, 15607.43
456.5938, 15584.42
457.0759, 15577.52
457.5580, 15586.15
458.0402, 15603.22
458.5223, 15606.83
459.0044, 15578.95
459.4865, 15543.47
459.9686, 15519.97
460.4507, 15510.48
460.9329, 15525.02
461.4150, 15601.00
461.8971, 15687.05
462.3792, 15735.90
462.8613, 15730.36
463.3434, 15707.86
463.8256, 15666.33
464.3077, 15622.44
464.7898, 15602.63
465.2719, 15638.14
465.7540, 15676.66
466.2361, 15704.61
466.7183, 15721.74
467.2004, 15724.13
467.6825, 15691.60
468.1646, 15658.46
468.6467, 15645.70
469.1288, 15656.71
469.6109, 15684.50
470.0930, 15743.30
470.5752, 15812.60
471.0573, 15835.52
471.5394, 15795.47
472.0215, 15754.51
472.5036, 15738.31
472.9857, 15746.46
473.4679, 15760.20
473.9500, 15781.96
474.4321, 15799.42
474.9142, 15795.18
475.3963, 15772.83
475.8784, 15754.26
476.3606, 15745.31
476.8427, 15743.52
477.3248, 15747.07
477.8069, 15755.48
478.2890, 15764.45
478.7711, 15768.89
479.2533, 15774.08
479.7354, 15786.68
480.2175, 15808.09
480.6996, 15833.02
481.1817, 15862.33
481.6638, 15891.21
482.1460, 15913.28
482.6281, 15916.70
483.1102, 15920.87
483.5923, 15925.43
484.0744, 15932.59
484.5565, 15960.15
485.0387, 16028.70
485.5208, 16103.98
486.0029, 16169.81
486.4850, 16225.51
486.9671, 16271.98
487.4492, 16305.62
487.9314, 16332.04
488.4135, 16360.89
488.8956, 16399.16
489.3777, 16423.44
489.8598, 16424.16
490.3419, 16405.86
490.8241, 16396.32
491.3062, 16395.02
491.7883, 16407.18
492.2704, 16442.34
492.7525, 16497.47
493.2346, 16551.02
493.7168, 16600.78
494.1989, 16644.12
494.6810, 16668.10
495.1631, 16679.37
495.6452, 16703.27
496.1273, 16764.35
496.6095, 16836.69
497.0916, 16880.44
497.5737, 16899.12
498.0558, 16933.33
498.5379, 17029.95
499.0201, 17142.39
499.5022, 17226.80
499.9843, 17267.98
500.4664, 17294.29
500.9485, 17308.40
501.4306, 17315.62
501.9127, 17324.82
502.3948, 17353.49
502.8770, 17368.59
503.3591, 17348.77
503.8412, 17290.80
504.3233, 17272.14
504.8054, 17325.15
505.2875, 17380.84
505.7697, 17390.46
506.2518, 17340.84
506.7339, 17288.56
507.2160, 17238.51
507.6981, 17186.27
508.1802, 17116.23
508.6624, 17026.46
509.1445, 16953.81
509.6266, 16926.65
510.1087, 16927.29
510.5908, 16892.24
511.0729, 16821.27
511.5551, 16748.47
512.0372, 16706.00
512.5193, 16681.41
513.0014, 16649.22
513.4835, 16596.22
513.9656, 16554.24
514.4478, 16566.37
514.9299, 16607.39
515.4120, 16626.00
515.8941, 16564.41
516.3762, 16505.43
516.8583, 16503.12
517.3405, 16559.72
517.8226, 16591.16
518.3047, 16544.95
518.7868, 16489.39
519.2689, 16470.08
519.7510, 16528.25
520.2332, 16562.64
520.7153, 16558.35
521.1974, 16536.79
521.6795, 16540.89
522.1616, 16584.51
522.6437, 16616.44
523.1259, 16617.10
523.6080, 16591.18
524.0901, 16575.45
524.5722, 16571.26
525.0543, 16569.86
525.5364, 16560.65
526.0186, 16547.17
526.5007, 16546.93
526.9828, 16564.86
527.4649, 16587.32
527.9470, 16594.87
528.4291, 16593.68
528.9113, 16599.46
529.3934, 16631.84
529.8755, 16664.24
530.3576, 16667.52
530.8397, 16646.33
531.3218, 16639.89
531.8040, 16678.13
532.2861, 16729.61
532.7682, 16774.34
533.2503, 16813.56
533.7324, 16839.45
534.2145, 16829.58
534.6967, 16814.34
535.1788, 16835.87
535.6609, 16931.03
536.1430, 17003.73
536.6251, 17030.32
537.1072, 17018.78
537.5894, 17014.39
538.0715, 17021.01
538.5536, 17022.65
539.0357, 17003.40
539.5178, 16965.31
539.9999, 16945.66
540.4821, 16947.87
540.9642, 16959.37
541.4463, 16971.76
541.9284, 16982.12
542.4105, 16981.22
542.8926, 16961.50
543.3748, 16934.41
543.8569, 16907.18
544.3390, 16882.04
544.8211, 16866.32
545.3032, 16872.52
545.7853, 16882.72
546.2675, 16884.68
546.7495, 16876.30
547.2316, 16867.34
547.7137, 16858.03
548.1959, 16851.04
548.6780, 16848.65
549.1601, 16862.57
549.6422, 16865.27
550.1243, 16844.46
550.6064, 16814.83
551.0886, 16816.19
551.5707, 16864.42
552.0528, 16901.91
552.5349, 16902.59
553.0170, 16871.50
553.4991, 16861.60
553.9813, 16876.42
554.4634, 16888.12
554.9455, 16861.80
555.4276, 16810.84
555.9097, 16786.18
556.3918, 16800.14
556.8740, 16825.51
557.3561, 16831.28
557.8382, 16827.09
558.3203, 16832.62
558.8024, 16874.85
559.2845, 16913.97
559.7667, 16918.38
560.2488, 16893.98
560.7309, 16880.22
561.2130, 16889.35
561.6951, 16913.04
562.1772, 16951.57
562.6594, 17021.49
563.1415, 17062.23
563.6236, 17058.42
564.1057, 17035.34
564.5878, 17015.87
565.0699, 16995.56
565.5521, 16993.17
566.0342, 17017.06
566.5163, 17056.69
566.9984, 17085.13
567.4805, 17101.92
567.9626, 17113.09
568.4448, 17119.97
568.9269, 17123.90
569.4090, 17132.19
569.8911, 17144.88
570.3732, 17148.26
570.8553, 17113.74
571.3375, 17068.69
571.8196, 17054.04
572.3017, 17088.94
572.7838, 17129.29
573.2659, 17156.11
573.7480, 17171.46
574.2302, 17179.31
574.7123, 17177.73
575.1944, 17171.66
575.6765, 17156.85
576.1586, 17135.56
576.6407, 17131.97
577.1229, 17168.88
577.6050, 17193.49
578.0871, 17171.62
578.5692, 17087.80
579.0513, 17053.32
579.5334, 17080.83
580.0156, 17127.09
580.4977, 17137.43
580.9798, 17116.74
581.4619, 17114.88
581.9440, 17151.01
582.4261, 17196.01
582.9083, 17197.99
583.3904, 17169.24
583.8725, 17151.44
584.3546, 17174.38
584.8367, 17210.44
585.3188, 17241.23
585.8010, 17265.43
586.2831, 17281.70
586.7652, 17289.54
587.2473, 17288.93
587.7294, 17276.21
588.2115, 17226.25
588.6937, 17215.81
589.1758, 17281.61
589.6579, 17367.92
590.1400, 17402.48
590.6221, 17360.95
591.1042, 17332.97
591.5864, 17341.03
592.0685, 17370.09
592.5506, 17369.37
593.0327, 17337.17
593.5148, 17309.45
593.9969, 17306.82
594.4791, 17323.23
594.9612, 17345.60
595.4433, 17373.74
595.9254, 17399.41
596.4075, 17417.75
596.8896, 17429.25
597.3718, 17432.54
597.8539, 17422.59
598.3360, 17416.96
598.8181, 17421.94
599.3002, 17437.09
599.7823, 17461.53
600.2645, 17521.90
600.7466, 17560.91
601.2287, 17560.15
601.7108, 17527.56
602.1929, 17496.28
602.6750, 17457.47
603.1572, 17438.21
603.6393, 17461.78
604.1214, 17527.80
604.6035, 17545.52
605.0856, 17505.59
605.5677, 17463.63
606.0499, 17476.86
606.5320, 17532.16
607.0141, 17588.35
607.4962, 17641.64
607.9783, 17682.15
608.4604, 17670.05
608.9425, 17641.01
609.4246, 17660.61
609.9067, 17841.57
610.3889, 17994.50
610.8710, 18010.56
611.3531, 17914.38
611.8352, 17824.51
612.3173, 17750.24
612.7994, 17699.50
613.2816, 17675.60
613.7637, 17680.85
614.2458, 17704.59
614.7279, 17761.87
615.2100, 17812.72
615.6921, 17816.86
616.1743, 17771.88
616.6564, 17743.50
617.1385, 17739.72
617.6206, 17750.38
618.1027, 17767.36
618.5848, 17787.82
619.0670, 17802.02
619.5491, 17801.25
620.0312, 17797.76
620.5133, 17797.96
620.9954, 17804.10
621.4775, 17824.23
621.9597, 17872.74
622.4418, 17926.55
622.9239, 17975.96
623.4060, 18020.10
623.8881, 18057.42
624.3702, 18097.12
624.8524, 18121.32
625.3345, 18116.99
625.8166, 18072.26
626.2987, 18030.30
626.7808, 17986.52
627.2629, 17953.85
627.7451, 17955.07
628.2272, 17989.08
628.7093, 18026.84
629.1914, 18068.12
629.6735, 18099.37
630.1556, 18083.41
630.6378, 18035.03
631.1199, 18003.36
631.6020, 18042.20
