##NAMES=Bavenite
##RRUFFID=R060790
##IDEAL CHEMISTRY=Ca_4_Be_2+x_Al_2-x_Si_9_O_26-x_(OH)_2+x_ (x = 0 to 1)
##LOCALITY=Londonderry, West Australia, Australia
##OWNER=RRUFF
##SOURCE=Michael Scott
##DESCRIPTION=Colorless platy aggregate with a hexagonal outline associated with quartz
##STATUS=The identification of this mineral is confirmed by single-crystal X-ray diffraction and chemical analysis.
##URL=rruff.info/R060790
##MEASURED CHEMISTRY=Ca_3.96_Be_2.00_(Al_1.10_Be_0.90_)_Î£=2_Si_9.00_O_25.1_(OH)_2.90_
136.4733, 1001.431
136.9554, 1078.662
137.4376, 1135.810
137.9197, 1162.265
138.4018, 1210.212
138.8839, 1288.616
139.3660, 1393.922
139.8481, 1522.716
140.3303, 1674.127
140.8124, 1846.288
141.2945, 2034.498
141.7766, 2229.017
142.2587, 2461.904
142.7408, 2766.905
143.2230, 3116.933
143.7051, 3448.680
144.1872, 3736.893
144.6693, 4013.221
145.1514, 4344.149
145.6335, 4753.729
146.1157, 5100.834
146.5978, 5329.494
147.0799, 5443.801
147.5620, 5457.223
148.0441, 5361.795
148.5262, 5169.984
149.0084, 4908.551
149.4905, 4564.943
149.9726, 4208.100
150.4547, 3866.794
150.9368, 3542.414
151.4189, 3253.323
151.9010, 3010.479
152.3832, 2804.003
152.8653, 2617.771
153.3474, 2452.384
153.8295, 2304.209
154.3116, 2168.746
154.7937, 2046.505
155.2759, 1942.664
155.7580, 1868.511
156.2401, 1809.167
156.7222, 1749.813
157.2043, 1687.427
157.6864, 1631.900
158.1686, 1594.826
158.6507, 1577.387
159.1328, 1566.364
159.6149, 1561.877
160.0970, 1560.280
160.5791, 1557.616
161.0613, 1552.340
161.5434, 1550.788
162.0255, 1558.883
162.5076, 1575.804
162.9897, 1606.299
163.4718, 1668.557
163.9540, 1736.137
164.4361, 1791.096
164.9182, 1828.343
165.4003, 1853.963
165.8824, 1873.752
166.3645, 1885.041
166.8467, 1899.734
167.3288, 1915.208
167.8109, 1937.985
168.2930, 1977.034
168.7751, 2035.540
169.2572, 2101.072
169.7394, 2152.179
170.2215, 2181.479
170.7036, 2217.358
171.1857, 2284.495
171.6678, 2350.253
172.1499, 2387.094
172.6321, 2386.258
173.1142, 2361.919
173.5963, 2339.068
174.0784, 2325.762
174.5605, 2292.917
175.0426, 2215.550
175.5248, 2129.961
176.0069, 2065.810
176.4890, 2032.388
176.9711, 2018.250
177.4532, 2002.660
177.9353, 1983.187
178.4175, 1967.918
178.8996, 1950.262
179.3817, 1926.705
179.8638, 1926.333
180.3459, 1918.631
180.8280, 1903.991
181.3102, 1861.635
181.7923, 1855.068
182.2744, 1834.160
182.7565, 1812.664
183.2386, 1811.134
183.7207, 1772.812
184.2029, 1770.962
184.6850, 1754.555
185.1671, 1744.812
185.6492, 1720.638
186.1313, 1700.922
186.6134, 1695.641
187.0956, 1662.384
187.5777, 1646.668
188.0598, 1635.947
188.5419, 1631.872
189.0240, 1640.281
189.5061, 1678.172
189.9883, 1694.474
190.4704, 1673.285
190.9525, 1640.994
191.4346, 1615.336
191.9167, 1602.371
192.3988, 1600.309
192.8810, 1605.213
193.3631, 1611.609
193.8452, 1638.032
194.3273, 1702.438
194.8094, 1772.748
195.2915, 1825.849
195.7737, 1855.510
196.2558, 1870.056
196.7379, 1882.031
197.2200, 1891.192
197.7021, 1897.927
198.1842, 1903.240
198.6664, 1906.060
199.1485, 1906.331
199.6306, 1903.746
200.1127, 1897.048
200.5948, 1881.950
201.0770, 1846.261
201.5591, 1829.702
202.0412, 1849.160
202.5233, 1872.013
203.0054, 1877.759
203.4875, 1862.661
203.9697, 1835.194
204.4518, 1804.772
204.9339, 1767.329
205.4160, 1737.987
205.8981, 1716.809
206.3802, 1701.969
206.8624, 1694.101
207.3445, 1692.427
207.8266, 1693.797
208.3087, 1693.872
208.7908, 1690.029
209.2729, 1694.087
209.7551, 1718.083
210.2372, 1739.065
210.7193, 1739.571
211.2014, 1722.379
211.6835, 1705.878
212.1656, 1710.090
212.6478, 1739.679
213.1299, 1768.483
213.6120, 1805.113
214.0941, 1833.628
214.5762, 1844.246
215.0583, 1839.308
215.5405, 1828.876
216.0226, 1821.447
216.5047, 1816.960
216.9868, 1816.363
217.4689, 1820.255
217.9510, 1827.428
218.4332, 1841.214
218.9153, 1858.513
219.3974, 1871.275
219.8795, 1870.720
220.3616, 1856.411
220.8437, 1859.607
221.3259, 1906.988
221.8080, 1946.359
222.2901, 1957.124
222.7722, 1949.383
223.2543, 1945.214
223.7364, 1961.131
224.2186, 1994.734
224.7007, 2018.231
225.1828, 2021.437
225.6649, 2024.748
226.1470, 2031.010
226.6291, 2040.444
227.1113, 2051.305
227.5934, 2061.449
228.0755, 2074.119
228.5576, 2107.023
229.0397, 2197.418
229.5218, 2258.033
230.0040, 2261.180
230.4861, 2231.074
230.9682, 2193.916
231.4503, 2161.391
231.9324, 2135.187
232.4145, 2122.475
232.8967, 2140.806
233.3788, 2142.458
233.8609, 2107.835
234.3430, 2060.928
234.8251, 2023.306
235.3072, 2003.095
235.7894, 1996.832
236.2715, 2001.707
236.7536, 2031.385
237.2357, 2040.530
237.7178, 2009.412
238.1999, 1966.419
238.6821, 1930.263
239.1642, 1906.296
239.6463, 1892.001
240.1284, 1887.673
240.6105, 1900.151
241.0926, 1898.348
241.5748, 1863.090
242.0569, 1823.939
242.5390, 1800.045
243.0211, 1792.957
243.5032, 1787.951
243.9853, 1768.592
244.4675, 1733.162
244.9496, 1698.099
245.4317, 1649.308
245.9138, 1615.320
246.3959, 1624.575
246.8780, 1668.325
247.3602, 1703.177
247.8423, 1681.011
248.3244, 1604.818
248.8065, 1560.453
249.2886, 1574.527
249.7707, 1592.682
250.2529, 1582.902
250.7350, 1554.002
251.2171, 1532.035
251.6992, 1538.215
252.1813, 1564.832
252.6634, 1579.187
253.1456, 1575.397
253.6277, 1569.149
254.1098, 1568.771
254.5919, 1571.586
255.0740, 1572.868
255.5561, 1569.146
256.0382, 1563.550
256.5204, 1564.985
257.0025, 1578.171
257.4846, 1582.877
257.9667, 1552.639
258.4488, 1513.072
258.9309, 1497.976
259.4131, 1527.029
259.8952, 1566.397
260.3773, 1570.029
260.8594, 1534.609
261.3415, 1511.582
261.8236, 1532.188
262.3058, 1570.480
262.7879, 1595.262
263.2700, 1603.298
263.7521, 1599.720
264.2342, 1580.850
264.7163, 1549.957
265.1985, 1531.553
265.6806, 1537.316
266.1627, 1554.288
266.6448, 1565.477
267.1269, 1570.711
267.6090, 1572.664
268.0912, 1578.990
268.5733, 1582.819
269.0554, 1561.038
269.5375, 1499.199
270.0196, 1435.227
270.5017, 1422.122
270.9839, 1455.116
271.4660, 1487.499
271.9481, 1505.166
272.4302, 1516.533
272.9123, 1531.514
273.3944, 1551.285
273.8766, 1575.624
274.3587, 1609.083
274.8408, 1650.618
275.3229, 1673.669
275.8050, 1662.508
276.2871, 1643.232
276.7693, 1633.596
277.2514, 1633.847
277.7335, 1636.219
278.2156, 1632.547
278.6977, 1626.612
279.1798, 1645.940
279.6620, 1722.773
280.1441, 1787.914
280.6262, 1807.591
281.1083, 1794.567
281.5904, 1776.126
282.0725, 1764.242
282.5547, 1759.351
283.0368, 1763.557
283.5189, 1798.941
284.0010, 1815.326
284.4831, 1790.670
284.9652, 1750.477
285.4474, 1724.693
285.9295, 1723.176
286.4116, 1735.045
286.8937, 1742.628
287.3758, 1743.584
287.8579, 1744.357
288.3401, 1747.497
288.8222, 1748.725
289.3043, 1740.574
289.7864, 1663.794
290.2685, 1723.664
290.7506, 1752.012
291.2328, 1750.532
291.7149, 1629.892
292.1970, 1663.125
292.6791, 1634.692
293.1612, 1603.731
293.6433, 1658.620
294.1255, 1555.310
294.6076, 1583.277
295.0897, 1579.948
295.5718, 1574.763
296.0539, 1569.345
296.5360, 1559.378
297.0182, 1536.776
297.5003, 1511.419
297.9824, 1497.556
298.4645, 1502.948
298.9466, 1517.994
299.4287, 1521.396
299.9109, 1508.424
300.3930, 1495.990
300.8751, 1486.569
301.3572, 1479.861
301.8393, 1476.872
302.3214, 1477.791
302.8036, 1478.836
303.2857, 1478.176
303.7678, 1476.053
304.2499, 1463.221
304.7320, 1426.232
305.2141, 1390.289
305.6963, 1372.839
306.1784, 1372.944
306.6605, 1380.525
307.1426, 1392.487
307.6247, 1407.307
308.1068, 1420.524
308.5890, 1431.683
309.0711, 1441.489
309.5532, 1450.644
310.0353, 1458.859
310.5174, 1464.865
310.9995, 1472.187
311.4817, 1474.813
311.9638, 1461.399
312.4459, 1432.408
312.9280, 1407.768
313.4101, 1396.322
313.8922, 1398.709
314.3744, 1413.252
314.8565, 1452.524
315.3386, 1485.369
315.8207, 1496.757
316.3028, 1490.443
316.7849, 1468.277
317.2671, 1424.944
317.7492, 1384.877
318.2313, 1400.238
318.7134, 1504.310
319.1955, 1569.469
319.6776, 1555.293
320.1598, 1508.656
320.6419, 1471.576
321.1240, 1452.088
321.6061, 1441.952
322.0882, 1432.152
322.5703, 1421.122
323.0525, 1421.783
323.5346, 1451.397
324.0167, 1474.427
324.4988, 1463.989
324.9809, 1432.537
325.4630, 1414.343
325.9452, 1434.077
326.4273, 1483.169
326.9094, 1510.376
327.3915, 1493.252
327.8736, 1480.436
328.3557, 1480.324
328.8379, 1486.755
329.3200, 1492.236
329.8021, 1494.070
330.2842, 1496.116
330.7663, 1505.000
331.2484, 1522.056
331.7306, 1541.878
332.2127, 1566.811
332.6948, 1592.109
333.1769, 1615.619
333.6590, 1637.011
334.1411, 1657.329
334.6233, 1677.882
335.1054, 1698.369
335.5875, 1717.047
336.0696, 1738.802
336.5517, 1750.314
337.0338, 1724.278
337.5160, 1685.096
337.9981, 1684.305
338.4802, 1764.587
338.9623, 1875.055
339.4444, 1936.764
339.9265, 1945.715
340.4087, 1959.249
340.8908, 2008.418
341.3729, 2074.637
341.8550, 2122.151
342.3371, 2139.650
342.8192, 2163.528
343.3014, 2224.611
343.7835, 2307.263
344.2656, 2372.408
344.7477, 2407.804
345.2298, 2429.563
345.7119, 2462.482
346.1941, 2512.792
346.6762, 2534.785
347.1583, 2506.217
347.6404, 2459.047
348.1225, 2424.415
348.6046, 2401.277
349.0868, 2362.696
349.5689, 2283.840
350.0510, 2166.848
350.5331, 2072.618
351.0152, 2005.479
351.4973, 1952.240
351.9795, 1921.659
352.4616, 1900.081
352.9437, 1866.069
353.4258, 1810.142
353.9079, 1744.400
354.3900, 1694.703
354.8722, 1665.033
355.3543, 1645.281
355.8364, 1638.501
356.3185, 1637.053
356.8006, 1643.060
357.2827, 1652.497
357.7649, 1649.312
358.2470, 1605.269
358.7291, 1520.761
359.2112, 1486.715
359.6933, 1540.175
360.1754, 1596.516
360.6576, 1615.432
361.1397, 1612.189
361.6218, 1615.210
362.1039, 1638.916
362.5860, 1671.997
363.0681, 1701.929
363.5503, 1730.441
364.0324, 1737.187
364.5145, 1696.944
364.9966, 1642.590
365.4787, 1618.497
365.9608, 1631.827
366.4430, 1648.751
366.9251, 1647.215
367.4072, 1636.598
367.8893, 1642.605
368.3714, 1674.253
368.8535, 1699.508
369.3357, 1678.387
369.8178, 1607.628
370.2999, 1560.882
370.7820, 1553.316
371.2641, 1560.981
371.7462, 1575.592
372.2284, 1592.813
372.7105, 1602.184
373.1926, 1596.491
373.6747, 1580.086
374.1568, 1570.682
374.6389, 1583.106
375.1211, 1583.978
375.6032, 1556.491
376.0853, 1523.925
376.5674, 1511.928
377.0495, 1525.235
377.5316, 1546.016
378.0138, 1552.127
378.4959, 1541.539
378.9780, 1526.163
379.4601, 1490.304
379.9422, 1464.578
380.4243, 1467.261
380.9065, 1488.975
381.3886, 1508.194
381.8707, 1511.976
382.3528, 1505.706
382.8349, 1500.808
383.3170, 1495.498
383.7992, 1498.032
384.2813, 1525.185
384.7634, 1554.496
385.2455, 1559.593
385.7276, 1532.819
386.2097, 1509.400
386.6919, 1515.875
387.1740, 1545.798
387.6561, 1582.621
388.1382, 1627.431
388.6203, 1665.262
389.1024, 1673.568
389.5846, 1654.960
390.0667, 1651.779
390.5488, 1682.784
391.0309, 1719.183
391.5130, 1738.594
391.9951, 1744.480
392.4773, 1751.028
392.9594, 1764.115
393.4415, 1786.753
393.9236, 1829.753
394.4057, 1925.763
394.8878, 2000.054
395.3700, 2033.697
395.8521, 2053.191
396.3342, 2082.664
396.8163, 2126.064
397.2984, 2171.034
397.7805, 2203.162
398.2627, 2220.737
398.7448, 2243.017
399.2269, 2279.259
399.7090, 2310.338
400.1911, 2332.618
400.6732, 2345.425
401.1554, 2347.460
401.6375, 2336.949
402.1196, 2318.450
402.6017, 2298.840
403.0838, 2277.860
403.5659, 2257.880
404.0481, 2245.623
404.5302, 2228.926
405.0123, 2193.293
405.4944, 2137.940
405.9765, 2084.986
406.4586, 2043.708
406.9408, 2011.993
407.4229, 1989.688
407.9050, 1977.276
408.3871, 1962.786
408.8692, 1937.327
409.3513, 1901.735
409.8335, 1865.130
410.3156, 1820.414
410.7977, 1782.696
411.2798, 1755.456
411.7619, 1739.477
412.2440, 1739.120
412.7262, 1755.778
413.2083, 1778.513
413.6904, 1789.484
414.1725, 1783.854
414.6546, 1778.748
415.1367, 1769.015
415.6189, 1764.262
416.1010, 1777.127
416.5831, 1799.622
417.0652, 1809.627
417.5473, 1789.116
418.0294, 1750.076
418.5116, 1732.778
418.9937, 1740.887
419.4758, 1761.736
419.9579, 1801.531
420.4400, 1846.863
420.9221, 1889.230
421.4043, 1927.577
421.8864, 1956.104
422.3685, 1966.634
422.8506, 1963.978
423.3327, 1959.225
423.8148, 1951.051
424.2970, 1952.568
424.7791, 1979.754
425.2612, 2028.160
425.7433, 2068.202
426.2254, 2095.941
426.7076, 2117.071
427.1897, 2130.490
427.6718, 2139.975
428.1539, 2152.161
428.6360, 2169.548
429.1181, 2193.367
429.6003, 2226.924
430.0824, 2278.999
430.5645, 2320.602
431.0466, 2342.323
431.5287, 2363.424
432.0108, 2394.599
432.4930, 2435.130
432.9751, 2478.808
433.4572, 2519.689
433.9393, 2561.729
434.4214, 2621.114
434.9035, 2705.039
435.3857, 2789.746
435.8678, 2861.983
436.3499, 2936.292
436.8320, 3022.508
437.3141, 3121.850
437.7962, 3239.390
438.2784, 3376.998
438.7605, 3535.956
439.2426, 3727.985
439.7247, 3962.080
440.2068, 4187.907
440.6889, 4347.774
441.1711, 4462.333
441.6532, 4641.019
442.1353, 4951.340
442.6174, 5259.082
443.0995, 5489.957
443.5816, 5678.560
444.0638, 5895.150
444.5459, 6163.480
445.0280, 6434.071
445.5101, 6633.053
445.9922, 6748.845
446.4743, 6827.979
446.9565, 6915.004
447.4386, 6927.692
447.9207, 6819.226
448.4028, 6608.756
448.8849, 6338.393
449.3670, 6028.765
449.8492, 5679.558
450.3313, 5268.356
450.8134, 4770.381
451.2955, 4322.669
451.7776, 3966.219
452.2597, 3663.151
452.7419, 3381.276
453.2240, 3120.526
453.7061, 2896.555
454.1882, 2731.035
454.6703, 2601.470
455.1524, 2470.432
455.6346, 2336.305
456.1167, 2222.170
456.5988, 2144.699
457.0809, 2095.932
457.5630, 2047.037
458.0451, 1994.583
458.5273, 1946.910
459.0093, 1900.874
459.4915, 1863.137
459.9736, 1842.367
460.4557, 1839.201
460.9378, 1847.213
461.4199, 1862.003
461.9020, 1883.594
462.3842, 1897.258
462.8663, 1900.695
463.3484, 1898.296
463.8305, 1890.254
464.3126, 1877.769
464.7947, 1861.577
465.2769, 1841.839
465.7590, 1820.309
466.2411, 1796.027
466.7232, 1770.175
467.2053, 1754.790
467.6874, 1757.172
468.1696, 1757.260
468.6517, 1731.438
469.1338, 1688.088
469.6159, 1657.773
470.0980, 1657.266
470.5801, 1659.043
471.0623, 1642.062
471.5444, 1614.943
472.0265, 1598.265
472.5086, 1599.624
472.9907, 1609.274
473.4728, 1612.704
473.9550, 1608.371
474.4371, 1602.306
474.9192, 1594.581
475.4013, 1585.366
475.8834, 1571.537
476.3655, 1556.658
476.8477, 1546.561
477.3298, 1543.795
477.8119, 1549.250
478.2940, 1567.652
478.7761, 1601.820
479.2582, 1630.425
479.7404, 1643.304
480.2225, 1655.457
480.7046, 1683.551
481.1867, 1724.515
481.6688, 1755.060
482.1509, 1754.856
482.6331, 1747.518
483.1152, 1755.504
483.5973, 1779.050
484.0794, 1817.052
484.5615, 1871.003
485.0436, 1934.319
485.5258, 1994.399
486.0079, 2056.479
486.4900, 2103.520
486.9721, 2120.764
487.4542, 2134.987
487.9363, 2164.084
488.4185, 2207.110
488.9006, 2255.010
489.3827, 2302.781
489.8648, 2349.006
490.3469, 2384.876
490.8290, 2398.950
491.3112, 2435.466
491.7933, 2530.479
492.2754, 2634.650
492.7575, 2708.077
493.2396, 2750.702
493.7217, 2798.719
494.2039, 2869.010
494.6860, 2957.506
495.1681, 3064.335
495.6502, 3187.617
496.1323, 3311.615
496.6144, 3430.028
497.0966, 3539.543
497.5787, 3627.708
498.0608, 3679.134
498.5429, 3738.123
499.0250, 3817.394
499.5071, 3899.119
499.9893, 3973.004
500.4714, 4035.753
500.9535, 4083.679
501.4356, 4113.053
501.9177, 4126.944
502.3998, 4139.870
502.8820, 4156.848
503.3641, 4160.930
503.8462, 4142.164
504.3283, 4112.394
504.8104, 4086.717
505.2925, 4064.573
505.7747, 4016.302
506.2568, 3907.017
506.7389, 3768.708
507.2210, 3653.683
507.7031, 3563.697
508.1852, 3469.904
508.6674, 3357.031
509.1495, 3230.158
509.6316, 3104.404
510.1137, 2972.726
510.5958, 2853.172
511.0779, 2754.471
511.5601, 2662.977
512.0422, 2563.912
512.5243, 2460.964
513.0064, 2374.244
513.4885, 2322.459
513.9706, 2291.763
514.4528, 2226.121
514.9349, 2105.459
515.4170, 2005.922
515.8991, 1960.115
516.3812, 1933.810
516.8633, 1905.646
517.3455, 1873.960
517.8276, 1837.399
518.3097, 1788.597
518.7918, 1738.463
519.2739, 1702.107
519.7560, 1678.926
520.2382, 1660.729
520.7203, 1643.940
521.2024, 1629.073
521.6845, 1617.564
522.1666, 1615.321
522.6487, 1605.386
523.1309, 1578.723
523.6130, 1552.244
524.0951, 1539.449
524.5772, 1536.137
525.0593, 1529.144
525.5414, 1510.982
526.0236, 1483.515
526.5057, 1443.457
526.9878, 1383.723
527.4699, 1355.947
527.9520, 1389.234
528.4341, 1439.037
528.9163, 1463.250
529.3984, 1466.252
529.8805, 1479.275
530.3626, 1531.434
530.8447, 1580.912
531.3268, 1589.395
531.8090, 1565.711
532.2911, 1530.548
532.7732, 1489.775
533.2553, 1464.469
533.7374, 1494.207
534.2195, 1608.393
534.7017, 1675.192
535.1838, 1657.390
535.6659, 1634.786
536.1480, 1634.023
536.6301, 1650.397
537.1122, 1677.342
537.5944, 1714.844
538.0765, 1743.317
538.5586, 1725.526
539.0407, 1668.403
539.5228, 1647.100
540.0049, 1686.676
540.4871, 1725.356
540.9692, 1710.171
541.4513, 1649.320
541.9334, 1593.563
542.4155, 1539.997
542.8976, 1496.944
543.3798, 1468.545
543.8619, 1452.150
544.3440, 1447.803
544.8261, 1453.814
545.3082, 1461.055
545.7903, 1461.698
546.2725, 1455.514
546.7546, 1432.347
547.2367, 1369.510
547.7188, 1327.849
548.2009, 1343.598
548.6830, 1375.654
549.1652, 1382.500
549.6473, 1357.293
550.1294, 1327.466
550.6115, 1305.971
551.0936, 1292.880
551.5757, 1290.187
552.0579, 1297.490
552.5400, 1308.395
553.0221, 1321.692
553.5042, 1332.931
553.9863, 1329.582
554.4684, 1288.187
554.9506, 1269.827
555.4327, 1292.097
555.9148, 1322.241
556.3969, 1350.840
556.8790, 1368.847
557.3611, 1356.365
557.8433, 1295.223
558.3254, 1216.205
558.8075, 1183.603
559.2896, 1200.519
559.7717, 1212.092
560.2538, 1206.724
560.7360, 1193.447
561.2181, 1177.237
561.7002, 1159.284
562.1823, 1147.045
562.6644, 1138.640
563.1465, 1139.416
563.6287, 1164.908
564.1108, 1198.291
564.5929, 1204.326
565.0750, 1175.090
565.5571, 1143.442
566.0392, 1153.298
566.5214, 1207.797
567.0035, 1225.797
567.4856, 1177.625
567.9677, 1137.367
568.4498, 1133.305
568.9319, 1145.322
569.4141, 1148.248
569.8962, 1136.555
570.3783, 1136.908
570.8604, 1186.817
571.3425, 1251.344
571.8246, 1264.842
572.3068, 1227.047
572.7889, 1191.610
573.2710, 1189.605
573.7531, 1208.408
574.2352, 1213.979
574.7173, 1194.100
575.1995, 1181.549
575.6816, 1176.317
576.1637, 1177.801
576.6458, 1195.811
577.1279, 1219.591
577.6100, 1222.612
578.0922, 1186.279
578.5743, 1139.699
579.0564, 1134.893
579.5385, 1167.036
580.0206, 1168.895
580.5027, 1117.040
580.9849, 1063.005
581.4670, 1056.117
581.9491, 1093.159
582.4312, 1116.520
582.9133, 1123.107
583.3954, 1119.706
583.8776, 1100.669
584.3597, 1076.913
584.8418, 1057.109
585.3239, 1044.930
585.8060, 1046.769
586.2881, 1074.659
586.7703, 1119.888
587.2524, 1130.235
587.7345, 1091.497
588.2166, 1065.450
588.6987, 1082.566
589.1808, 1112.283
589.6630, 1122.004
590.1451, 1111.161
590.6272, 1096.496
591.1093, 1069.210
591.5914, 1051.771
592.0735, 1069.758
592.5557, 1112.153
593.0378, 1155.822
593.5199, 1191.586
594.0020, 1209.235
594.4841, 1186.625
594.9662, 1112.909
595.4484, 1070.385
595.9305, 1081.954
596.4126, 1094.397
596.8947, 1082.387
597.3768, 1062.381
597.8589, 1057.689
598.3411, 1074.668
598.8232, 1093.734
599.3053, 1103.616
599.7874, 1107.319
600.2695, 1109.257
600.7516, 1109.735
601.2338, 1107.498
601.7159, 1101.698
602.1980, 1092.971
602.6801, 1082.034
603.1622, 1060.674
603.6443, 1053.605
604.1265, 1082.214
604.6086, 1103.156
605.0907, 1087.671
605.5728, 1049.009
606.0549, 1013.577
606.5370, 987.1859
607.0192, 981.7164
607.5013, 1029.338
607.9834, 1108.826
608.4655, 1143.531
608.9476, 1118.676
609.4297, 1090.803
609.9119, 1105.840
610.3940, 1155.092
610.8761, 1184.956
611.3582, 1192.158
611.8403, 1183.618
612.3224, 1152.607
612.8046, 1111.573
613.2867, 1055.685
613.7688, 996.4292
614.2509, 969.1495
614.7330, 1007.218
615.2151, 1066.863
615.6973, 1071.445
616.1794, 1027.432
616.6615, 995.3856
617.1436, 988.0414
617.6257, 1001.963
618.1078, 1039.255
618.5900, 1099.476
619.0721, 1146.976
619.5542, 1182.004
620.0363, 1205.379
620.5184, 1209.255
621.0005, 1206.686
621.4827, 1211.503
621.9648, 1224.297
622.4469, 1233.788
622.9290, 1225.271
623.4111, 1212.526
623.8932, 1182.624
624.3754, 1268.455
624.8575, 1322.760
625.3396, 1347.240
625.8217, 1252.558
626.3038, 1311.747
626.7859, 1309.272
627.2681, 1304.273
627.7502, 1359.893
628.2323, 1399.321
628.7144, 1431.143
629.1965, 1459.287
629.6786, 1493.922
630.1608, 1534.654
