##NAMES=Bavsiite
##RRUFFID=R150042
##IDEAL CHEMISTRY=Ba_2_V^4+^_2_O_2_[Si_4_O_12_]
##LOCALITY=Gun Claim, Yukon Territory, Canada
##OWNER=RRUFF
##SOURCE=Gunnar Farber
##DESCRIPTION=Isolated aggregates of blueish crystals with good cleavage, associated with pale grey walstromite, pellyite, diopside, benitoite, suzukiite (R150039) and celsian
##STATUS=The identification of this mineral has been confirmed by single-crystal X-ray diffraction.
##URL=rruff.info/R150042
8.930109e+001, 0.000000e+000
8.978320e+001, 6.384919e+002
9.026532e+001, 6.343728e+002
9.074744e+001, 6.343993e+002
9.122955e+001, 6.401414e+002
9.171167e+001, 6.485527e+002
9.219379e+001, 6.571448e+002
9.267590e+001, 6.658518e+002
9.315802e+001, 6.710411e+002
9.364014e+001, 6.667059e+002
9.412225e+001, 6.564525e+002
9.460437e+001, 6.505704e+002
9.508649e+001, 6.535577e+002
9.556860e+001, 6.610970e+002
9.605072e+001, 6.634213e+002
9.653284e+001, 6.608073e+002
9.701495e+001, 6.571176e+002
9.749707e+001, 6.553701e+002
9.797919e+001, 6.554576e+002
9.846130e+001, 6.574934e+002
9.894342e+001, 6.619612e+002
9.942554e+001, 6.686509e+002
9.990765e+001, 6.754697e+002
1.003898e+002, 6.834224e+002
1.008719e+002, 6.898793e+002
1.013540e+002, 6.900140e+002
1.018361e+002, 6.820446e+002
1.023182e+002, 6.748312e+002
1.028004e+002, 6.712521e+002
1.032825e+002, 6.712454e+002
1.037646e+002, 6.745648e+002
1.042467e+002, 6.814674e+002
1.047288e+002, 6.913267e+002
1.052109e+002, 7.026793e+002
1.056931e+002, 7.151088e+002
1.061752e+002, 7.295983e+002
1.066573e+002, 7.470793e+002
1.071394e+002, 7.709603e+002
1.076215e+002, 7.920462e+002
1.081036e+002, 8.122836e+002
1.085858e+002, 8.305929e+002
1.090679e+002, 8.399599e+002
1.095500e+002, 8.353874e+002
1.100321e+002, 8.260559e+002
1.105142e+002, 8.169252e+002
1.109963e+002, 8.092590e+002
1.114785e+002, 8.005106e+002
1.119606e+002, 7.899412e+002
1.124427e+002, 7.776374e+002
1.129248e+002, 7.659197e+002
1.134069e+002, 7.549943e+002
1.138890e+002, 7.448248e+002
1.143712e+002, 7.352520e+002
1.148533e+002, 7.255284e+002
1.153354e+002, 7.170878e+002
1.158175e+002, 7.111533e+002
1.162996e+002, 7.079444e+002
1.167817e+002, 7.037000e+002
1.172639e+002, 6.955499e+002
1.177460e+002, 6.859339e+002
1.182281e+002, 6.779475e+002
1.187102e+002, 6.742227e+002
1.191923e+002, 6.713704e+002
1.196744e+002, 6.668796e+002
1.201566e+002, 6.598306e+002
1.206387e+002, 6.540850e+002
1.211208e+002, 6.519786e+002
1.216029e+002, 6.528926e+002
1.220850e+002, 6.556603e+002
1.225671e+002, 6.596025e+002
1.230493e+002, 6.651068e+002
1.235314e+002, 6.734545e+002
1.240135e+002, 6.863674e+002
1.244956e+002, 6.983403e+002
1.249777e+002, 7.025750e+002
1.254598e+002, 7.007174e+002
1.259420e+002, 6.989203e+002
1.264241e+002, 7.011307e+002
1.269062e+002, 7.061172e+002
1.273883e+002, 7.114905e+002
1.278704e+002, 7.162430e+002
1.283525e+002, 7.218330e+002
1.288347e+002, 7.308997e+002
1.293168e+002, 7.433641e+002
1.297989e+002, 7.568718e+002
1.302810e+002, 7.690836e+002
1.307631e+002, 7.806021e+002
1.312452e+002, 7.945245e+002
1.317274e+002, 8.122839e+002
1.322095e+002, 8.326340e+002
1.326916e+002, 8.524033e+002
1.331737e+002, 8.717333e+002
1.336558e+002, 8.905473e+002
1.341379e+002, 9.104545e+002
1.346201e+002, 9.313916e+002
1.351022e+002, 9.487824e+002
1.355843e+002, 9.620109e+002
1.360664e+002, 9.707877e+002
1.365485e+002, 9.718615e+002
1.370306e+002, 9.645742e+002
1.375128e+002, 9.509752e+002
1.379949e+002, 9.316462e+002
1.384770e+002, 9.050859e+002
1.389591e+002, 8.798217e+002
1.394412e+002, 8.586367e+002
1.399233e+002, 8.420079e+002
1.404055e+002, 8.250399e+002
1.408876e+002, 8.067043e+002
1.413697e+002, 7.890046e+002
1.418518e+002, 7.751024e+002
1.423339e+002, 7.654949e+002
1.428160e+002, 7.586144e+002
1.432982e+002, 7.539313e+002
1.437803e+002, 7.514034e+002
1.442624e+002, 7.513772e+002
1.447445e+002, 7.540750e+002
1.452266e+002, 7.592531e+002
1.457087e+002, 7.661542e+002
1.461909e+002, 7.749728e+002
1.466730e+002, 7.854003e+002
1.471551e+002, 7.975905e+002
1.476372e+002, 8.128203e+002
1.481193e+002, 8.274563e+002
1.486014e+002, 8.407770e+002
1.490836e+002, 8.533957e+002
1.495657e+002, 8.680076e+002
1.500478e+002, 8.844244e+002
1.505299e+002, 9.026430e+002
1.510120e+002, 9.228290e+002
1.514941e+002, 9.483130e+002
1.519763e+002, 9.715729e+002
1.524584e+002, 9.930297e+002
1.529405e+002, 1.012371e+003
1.534226e+002, 1.028633e+003
1.539047e+002, 1.039980e+003
1.543868e+002, 1.049356e+003
1.548690e+002, 1.058363e+003
1.553511e+002, 1.068510e+003
1.558332e+002, 1.076875e+003
1.563153e+002, 1.081438e+003
1.567974e+002, 1.082859e+003
1.572795e+002, 1.086446e+003
1.577617e+002, 1.093369e+003
1.582438e+002, 1.102867e+003
1.587259e+002, 1.114395e+003
1.592080e+002, 1.128705e+003
1.596901e+002, 1.144219e+003
1.601722e+002, 1.160335e+003
1.606544e+002, 1.177098e+003
1.611365e+002, 1.195355e+003
1.616186e+002, 1.215147e+003
1.621007e+002, 1.236544e+003
1.625828e+002, 1.260108e+003
1.630649e+002, 1.284591e+003
1.635471e+002, 1.312211e+003
1.640292e+002, 1.344938e+003
1.645113e+002, 1.382824e+003
1.649934e+002, 1.421608e+003
1.654755e+002, 1.459421e+003
1.659576e+002, 1.496992e+003
1.664398e+002, 1.534697e+003
1.669219e+002, 1.577604e+003
1.674040e+002, 1.617769e+003
1.678861e+002, 1.650927e+003
1.683682e+002, 1.677225e+003
1.688503e+002, 1.693823e+003
1.693325e+002, 1.697949e+003
1.698146e+002, 1.691257e+003
1.702967e+002, 1.676501e+003
1.707788e+002, 1.651672e+003
1.712609e+002, 1.620998e+003
1.717430e+002, 1.588224e+003
1.722252e+002, 1.553428e+003
1.727073e+002, 1.516769e+003
1.731894e+002, 1.478315e+003
1.736715e+002, 1.437741e+003
1.741536e+002, 1.395786e+003
1.746357e+002, 1.351902e+003
1.751179e+002, 1.306413e+003
1.756000e+002, 1.259228e+003
1.760821e+002, 1.210596e+003
1.765642e+002, 1.161381e+003
1.770463e+002, 1.111300e+003
1.775284e+002, 1.060964e+003
1.780106e+002, 1.013107e+003
1.784927e+002, 9.688906e+002
1.789748e+002, 9.279056e+002
1.794569e+002, 8.906329e+002
1.799390e+002, 8.569203e+002
1.804211e+002, 8.263005e+002
1.809033e+002, 7.976896e+002
1.813854e+002, 7.711017e+002
1.818675e+002, 7.473274e+002
1.823496e+002, 7.269506e+002
1.828317e+002, 7.096769e+002
1.833138e+002, 6.936547e+002
1.837960e+002, 6.787294e+002
1.842781e+002, 6.653877e+002
1.847602e+002, 6.549042e+002
1.852423e+002, 6.470318e+002
1.857244e+002, 6.405471e+002
1.862065e+002, 6.346375e+002
1.866887e+002, 6.294455e+002
1.871708e+002, 6.254805e+002
1.876529e+002, 6.229240e+002
1.881350e+002, 6.213393e+002
1.886171e+002, 6.199769e+002
1.890992e+002, 6.188383e+002
1.895814e+002, 6.184628e+002
1.900635e+002, 6.190256e+002
1.905456e+002, 6.205917e+002
1.910277e+002, 6.235292e+002
1.915098e+002, 6.279798e+002
1.919919e+002, 6.336729e+002
1.924741e+002, 6.401279e+002
1.929562e+002, 6.473313e+002
1.934383e+002, 6.549719e+002
1.939204e+002, 6.631604e+002
1.944025e+002, 6.718144e+002
1.948846e+002, 6.797507e+002
1.953668e+002, 6.872574e+002
1.958489e+002, 6.934937e+002
1.963310e+002, 6.966375e+002
1.968131e+002, 6.966902e+002
1.972952e+002, 6.936308e+002
1.977773e+002, 6.871160e+002
1.982595e+002, 6.771220e+002
1.987416e+002, 6.646933e+002
1.992237e+002, 6.494762e+002
1.997058e+002, 6.324368e+002
2.001879e+002, 6.161198e+002
2.006700e+002, 6.002532e+002
2.011522e+002, 5.856702e+002
2.016343e+002, 5.728956e+002
2.021164e+002, 5.619691e+002
2.025985e+002, 5.524767e+002
2.030806e+002, 5.445577e+002
2.035627e+002, 5.380236e+002
2.040449e+002, 5.325178e+002
2.045270e+002, 5.281512e+002
2.050091e+002, 5.244353e+002
2.054912e+002, 5.209684e+002
2.059733e+002, 5.176533e+002
2.064554e+002, 5.152083e+002
2.069376e+002, 5.138888e+002
2.074197e+002, 5.134543e+002
2.079018e+002, 5.129450e+002
2.083839e+002, 5.122936e+002
2.088660e+002, 5.117449e+002
2.093481e+002, 5.114423e+002
2.098303e+002, 5.113676e+002
2.103124e+002, 5.116352e+002
2.107945e+002, 5.122772e+002
2.112766e+002, 5.132753e+002
2.117587e+002, 5.145661e+002
2.122408e+002, 5.161517e+002
2.127230e+002, 5.180441e+002
2.132051e+002, 5.200678e+002
2.136872e+002, 5.218419e+002
2.141693e+002, 5.252056e+002
2.146514e+002, 5.308952e+002
2.151335e+002, 5.383115e+002
2.156157e+002, 5.444946e+002
2.160978e+002, 5.494271e+002
2.165799e+002, 5.532203e+002
2.170620e+002, 5.556482e+002
2.175441e+002, 5.558669e+002
2.180262e+002, 5.571890e+002
2.185084e+002, 5.600673e+002
2.189905e+002, 5.643388e+002
2.194726e+002, 5.690405e+002
2.199547e+002, 5.744359e+002
2.204368e+002, 5.799494e+002
2.209189e+002, 5.851351e+002
2.214011e+002, 5.898919e+002
2.218832e+002, 5.947490e+002
2.223653e+002, 5.998845e+002
2.228474e+002, 6.051696e+002
2.233295e+002, 6.104121e+002
2.238116e+002, 6.160607e+002
2.242938e+002, 6.208010e+002
2.247759e+002, 6.235421e+002
2.252580e+002, 6.230510e+002
2.257401e+002, 6.235071e+002
2.262222e+002, 6.254388e+002
2.267043e+002, 6.285276e+002
2.271865e+002, 6.314965e+002
2.276686e+002, 6.338817e+002
2.281507e+002, 6.367352e+002
2.286328e+002, 6.406411e+002
2.291149e+002, 6.457921e+002
2.295970e+002, 6.515081e+002
2.300792e+002, 6.577061e+002
2.305613e+002, 6.644467e+002
2.310434e+002, 6.716895e+002
2.315255e+002, 6.790343e+002
2.320076e+002, 6.873406e+002
2.324897e+002, 6.970929e+002
2.329719e+002, 7.088754e+002
2.334540e+002, 7.207423e+002
2.339361e+002, 7.324893e+002
2.344182e+002, 7.443516e+002
2.349003e+002, 7.572379e+002
2.353824e+002, 7.709491e+002
2.358646e+002, 7.859771e+002
2.363467e+002, 8.027305e+002
2.368288e+002, 8.220690e+002
2.373109e+002, 8.411725e+002
2.377930e+002, 8.595604e+002
2.382751e+002, 8.777823e+002
2.387573e+002, 8.969655e+002
2.392394e+002, 9.173755e+002
2.397215e+002, 9.383654e+002
2.402036e+002, 9.597082e+002
2.406857e+002, 9.808924e+002
2.411678e+002, 1.003693e+003
2.416500e+002, 1.029137e+003
2.421321e+002, 1.055787e+003
2.426142e+002, 1.080482e+003
2.430963e+002, 1.102626e+003
2.435784e+002, 1.123487e+003
2.440605e+002, 1.143456e+003
2.445427e+002, 1.163031e+003
2.450248e+002, 1.180894e+003
2.455069e+002, 1.197751e+003
2.459890e+002, 1.212681e+003
2.464711e+002, 1.223570e+003
2.469532e+002, 1.230771e+003
2.474354e+002, 1.233579e+003
2.479175e+002, 1.231610e+003
2.483996e+002, 1.224505e+003
2.488817e+002, 1.213835e+003
2.493638e+002, 1.199127e+003
2.498459e+002, 1.181164e+003
2.503281e+002, 1.161047e+003
2.508102e+002, 1.137416e+003
2.512923e+002, 1.113953e+003
2.517744e+002, 1.091682e+003
2.522565e+002, 1.071077e+003
2.527386e+002, 1.050460e+003
2.532208e+002, 1.029222e+003
2.537029e+002, 1.008436e+003
2.541850e+002, 9.894542e+002
2.546671e+002, 9.726188e+002
2.551492e+002, 9.568312e+002
2.556313e+002, 9.420226e+002
2.561135e+002, 9.283895e+002
2.565956e+002, 9.146629e+002
2.570777e+002, 9.009831e+002
2.575598e+002, 8.872098e+002
2.580419e+002, 8.732434e+002
2.585240e+002, 8.593876e+002
2.590062e+002, 8.449494e+002
2.594883e+002, 8.295999e+002
2.599704e+002, 8.135812e+002
2.604525e+002, 7.969338e+002
2.609346e+002, 7.795551e+002
2.614167e+002, 7.619344e+002
2.618989e+002, 7.445095e+002
2.623810e+002, 7.271935e+002
2.628631e+002, 7.107346e+002
2.633452e+002, 6.954789e+002
2.638273e+002, 6.812507e+002
2.643094e+002, 6.680868e+002
2.647916e+002, 6.558079e+002
2.652737e+002, 6.445643e+002
2.657558e+002, 6.343641e+002
2.662379e+002, 6.253701e+002
2.667200e+002, 6.171025e+002
2.672021e+002, 6.092312e+002
2.676843e+002, 6.018948e+002
2.681664e+002, 5.962336e+002
2.686485e+002, 5.926082e+002
2.691306e+002, 5.899073e+002
2.696127e+002, 5.872079e+002
2.700948e+002, 5.843635e+002
2.705770e+002, 5.821217e+002
2.710591e+002, 5.804702e+002
2.715412e+002, 5.795242e+002
2.720233e+002, 5.799855e+002
2.725054e+002, 5.820659e+002
2.729875e+002, 5.849418e+002
2.734697e+002, 5.881624e+002
2.739518e+002, 5.918279e+002
2.744339e+002, 5.952995e+002
2.749160e+002, 5.983569e+002
2.753981e+002, 6.012466e+002
2.758802e+002, 6.048550e+002
2.763624e+002, 6.092443e+002
2.768445e+002, 6.139219e+002
2.773266e+002, 6.186520e+002
2.778087e+002, 6.234511e+002
2.782908e+002, 6.280283e+002
2.787729e+002, 6.321702e+002
2.792551e+002, 6.363055e+002
2.797372e+002, 6.414098e+002
2.802193e+002, 6.476255e+002
2.807014e+002, 6.540364e+002
2.811835e+002, 6.598644e+002
2.816656e+002, 6.651389e+002
2.821478e+002, 6.717872e+002
2.826299e+002, 6.798812e+002
2.831120e+002, 6.893859e+002
2.835941e+002, 7.002090e+002
2.840762e+002, 7.123994e+002
2.845583e+002, 7.260215e+002
2.850405e+002, 7.414287e+002
2.855226e+002, 7.585168e+002
2.860047e+002, 7.764089e+002
2.864868e+002, 7.951655e+002
2.869689e+002, 8.145070e+002
2.874510e+002, 8.345007e+002
2.879332e+002, 8.550756e+002
2.884153e+002, 8.750165e+002
2.888974e+002, 8.940739e+002
2.893795e+002, 9.119413e+002
2.898616e+002, 9.274563e+002
2.903438e+002, 9.408875e+002
2.908259e+002, 9.500561e+002
2.913080e+002, 9.523651e+002
2.917901e+002, 9.481342e+002
2.922722e+002, 9.392477e+002
2.927543e+002, 9.255319e+002
2.932365e+002, 9.080027e+002
2.937186e+002, 8.882738e+002
2.942007e+002, 8.664827e+002
2.946828e+002, 8.444262e+002
2.951649e+002, 8.228474e+002
2.956470e+002, 8.023105e+002
2.961292e+002, 7.838190e+002
2.966113e+002, 7.674882e+002
2.970934e+002, 7.538148e+002
2.975755e+002, 7.437399e+002
2.980576e+002, 7.371240e+002
2.985397e+002, 7.328207e+002
2.990219e+002, 7.304090e+002
2.995040e+002, 7.296017e+002
2.999861e+002, 7.298564e+002
3.004682e+002, 7.311738e+002
3.009503e+002, 7.333083e+002
3.014324e+002, 7.361752e+002
3.019146e+002, 7.396791e+002
3.023967e+002, 7.435276e+002
3.028788e+002, 7.483617e+002
3.033609e+002, 7.531578e+002
3.038430e+002, 7.565389e+002
3.043251e+002, 7.584537e+002
3.048073e+002, 7.584346e+002
3.052894e+002, 7.561085e+002
3.057715e+002, 7.515194e+002
3.062536e+002, 7.447057e+002
3.067357e+002, 7.351891e+002
3.072178e+002, 7.237196e+002
3.077000e+002, 7.105839e+002
3.081821e+002, 6.955867e+002
3.086642e+002, 6.809620e+002
3.091463e+002, 6.699506e+002
3.096284e+002, 6.601873e+002
3.101105e+002, 6.478063e+002
3.105927e+002, 6.287307e+002
3.110748e+002, 6.084059e+002
3.115569e+002, 5.900019e+002
3.120390e+002, 5.736558e+002
3.125211e+002, 5.591852e+002
3.130032e+002, 5.466977e+002
3.134854e+002, 5.357535e+002
3.139675e+002, 5.260573e+002
3.144496e+002, 5.183546e+002
3.149317e+002, 5.111414e+002
3.154138e+002, 5.034361e+002
3.158959e+002, 4.954462e+002
3.163781e+002, 4.881746e+002
3.168602e+002, 4.823050e+002
3.173423e+002, 4.772594e+002
3.178244e+002, 4.726608e+002
3.183065e+002, 4.685788e+002
3.187886e+002, 4.647241e+002
3.192708e+002, 4.608760e+002
3.197529e+002, 4.571862e+002
3.202350e+002, 4.540712e+002
3.207171e+002, 4.521460e+002
3.211992e+002, 4.504850e+002
3.216813e+002, 4.486620e+002
3.221635e+002, 4.466172e+002
3.226456e+002, 4.444013e+002
3.231277e+002, 4.413988e+002
3.236098e+002, 4.383185e+002
3.240919e+002, 4.363411e+002
3.245740e+002, 4.370779e+002
3.250562e+002, 4.376599e+002
3.255383e+002, 4.371597e+002
3.260204e+002, 4.352957e+002
3.265025e+002, 4.333288e+002
3.269846e+002, 4.307593e+002
3.274667e+002, 4.283734e+002
3.279489e+002, 4.269831e+002
3.284310e+002, 4.279865e+002
3.289131e+002, 4.284271e+002
3.293952e+002, 4.275000e+002
3.298773e+002, 4.251539e+002
3.303594e+002, 4.237767e+002
3.308416e+002, 4.238786e+002
3.313237e+002, 4.245314e+002
3.318058e+002, 4.251120e+002
3.322879e+002, 4.256789e+002
3.327700e+002, 4.260693e+002
3.332521e+002, 4.262520e+002
3.337343e+002, 4.262450e+002
3.342164e+002, 4.260324e+002
3.346985e+002, 4.251314e+002
3.351806e+002, 4.247679e+002
3.356627e+002, 4.258361e+002
3.361448e+002, 4.291080e+002
3.366270e+002, 4.313741e+002
3.371091e+002, 4.323475e+002
3.375912e+002, 4.324059e+002
3.380733e+002, 4.320317e+002
3.385554e+002, 4.308102e+002
3.390375e+002, 4.305356e+002
3.395197e+002, 4.324443e+002
3.400018e+002, 4.367188e+002
3.404839e+002, 4.393516e+002
3.409660e+002, 4.399293e+002
3.414481e+002, 4.396635e+002
3.419302e+002, 4.400280e+002
3.424124e+002, 4.410623e+002
3.428945e+002, 4.421917e+002
3.433766e+002, 4.431880e+002
3.438587e+002, 4.441423e+002
3.443408e+002, 4.456118e+002
3.448229e+002, 4.476461e+002
3.453051e+002, 4.498031e+002
3.457872e+002, 4.516822e+002
3.462693e+002, 4.533123e+002
3.467514e+002, 4.549581e+002
3.472335e+002, 4.566790e+002
3.477156e+002, 4.584188e+002
3.481978e+002, 4.599425e+002
3.486799e+002, 4.612814e+002
3.491620e+002, 4.627839e+002
3.496441e+002, 4.645051e+002
3.501262e+002, 4.665793e+002
3.506083e+002, 4.695031e+002
3.510905e+002, 4.735703e+002
3.515726e+002, 4.777394e+002
3.520547e+002, 4.807955e+002
3.525368e+002, 4.829594e+002
3.530189e+002, 4.849008e+002
3.535010e+002, 4.868161e+002
3.539832e+002, 4.887569e+002
3.544653e+002, 4.909316e+002
3.549474e+002, 4.933867e+002
3.554295e+002, 4.954898e+002
3.559116e+002, 4.965112e+002
3.563937e+002, 4.969156e+002
3.568759e+002, 4.973914e+002
3.573580e+002, 4.985593e+002
3.578401e+002, 4.995824e+002
3.583222e+002, 4.999365e+002
3.588043e+002, 4.996543e+002
3.592864e+002, 4.989019e+002
3.597686e+002, 4.975944e+002
3.602507e+002, 4.959404e+002
3.607328e+002, 4.940629e+002
3.612149e+002, 4.915792e+002
3.616970e+002, 4.895400e+002
3.621791e+002, 4.883208e+002
3.626613e+002, 4.878457e+002
3.631434e+002, 4.879444e+002
3.636255e+002, 4.894806e+002
3.641076e+002, 4.908363e+002
3.645897e+002, 4.909824e+002
3.650718e+002, 4.891821e+002
3.655540e+002, 4.883466e+002
3.660361e+002, 4.897167e+002
3.665182e+002, 4.920765e+002
3.670003e+002, 4.939682e+002
3.674824e+002, 4.943145e+002
3.679645e+002, 4.951286e+002
3.684467e+002, 4.968408e+002
3.689288e+002, 4.994533e+002
3.694109e+002, 5.026256e+002
3.698930e+002, 5.066021e+002
3.703751e+002, 5.109668e+002
3.708572e+002, 5.155006e+002
3.713394e+002, 5.204471e+002
3.718215e+002, 5.250515e+002
3.723036e+002, 5.289590e+002
3.727857e+002, 5.324940e+002
3.732678e+002, 5.368408e+002
3.737499e+002, 5.421132e+002
3.742321e+002, 5.480521e+002
3.747142e+002, 5.544846e+002
3.751963e+002, 5.614307e+002
3.756784e+002, 5.689601e+002
3.761605e+002, 5.770916e+002
3.766426e+002, 5.857283e+002
3.771248e+002, 5.944406e+002
3.776069e+002, 6.032949e+002
3.780890e+002, 6.123629e+002
3.785711e+002, 6.216779e+002
3.790532e+002, 6.312473e+002
3.795353e+002, 6.405920e+002
3.800175e+002, 6.498610e+002
3.804996e+002, 6.585936e+002
3.809817e+002, 6.663948e+002
3.814638e+002, 6.732656e+002
3.819459e+002, 6.795585e+002
3.824280e+002, 6.854355e+002
3.829102e+002, 6.905446e+002
3.833923e+002, 6.942228e+002
3.838744e+002, 6.964826e+002
3.843565e+002, 6.971749e+002
3.848386e+002, 6.961969e+002
3.853207e+002, 6.935891e+002
3.858029e+002, 6.892263e+002
3.862850e+002, 6.828915e+002
3.867671e+002, 6.756754e+002
3.872492e+002, 6.686556e+002
3.877313e+002, 6.615682e+002
3.882134e+002, 6.539404e+002
3.886956e+002, 6.457992e+002
3.891777e+002, 6.369898e+002
3.896598e+002, 6.268323e+002
3.901419e+002, 6.154715e+002
3.906240e+002, 6.045828e+002
3.911061e+002, 5.954861e+002
3.915883e+002, 5.871708e+002
3.920704e+002, 5.784787e+002
3.925525e+002, 5.683730e+002
3.930346e+002, 5.588661e+002
3.935167e+002, 5.508411e+002
3.939988e+002, 5.440305e+002
3.944810e+002, 5.375707e+002
3.949631e+002, 5.311873e+002
3.954452e+002, 5.250588e+002
3.959273e+002, 5.192455e+002
3.964094e+002, 5.137066e+002
3.968915e+002, 5.086270e+002
3.973737e+002, 5.040579e+002
3.978558e+002, 4.999521e+002
3.983379e+002, 4.962516e+002
3.988200e+002, 4.926259e+002
3.993021e+002, 4.897464e+002
3.997842e+002, 4.879562e+002
4.002664e+002, 4.872457e+002
4.007485e+002, 4.863715e+002
4.012306e+002, 4.851528e+002
4.017127e+002, 4.839452e+002
4.021948e+002, 4.828988e+002
4.026769e+002, 4.816742e+002
4.031591e+002, 4.814092e+002
4.036412e+002, 4.825650e+002
4.041233e+002, 4.845355e+002
4.046054e+002, 4.858345e+002
4.050875e+002, 4.862972e+002
4.055696e+002, 4.865234e+002
4.060518e+002, 4.864022e+002
4.065339e+002, 4.858833e+002
4.070160e+002, 4.872738e+002
4.074981e+002, 4.910051e+002
4.079802e+002, 4.954083e+002
4.084623e+002, 4.984574e+002
4.089445e+002, 5.001968e+002
4.094266e+002, 5.020666e+002
4.099087e+002, 5.044218e+002
4.103908e+002, 5.071686e+002
4.108729e+002, 5.103634e+002
4.113550e+002, 5.139921e+002
4.118372e+002, 5.170789e+002
4.123193e+002, 5.186024e+002
4.128014e+002, 5.191188e+002
4.132835e+002, 5.200052e+002
