##NAMES=Bayldonite
##RRUFFID=R050670
##IDEAL CHEMISTRY=Cu^2+^_3_Pb^2+^O(As^5+^O_3_OH)_2_(OH)_2_
##LOCALITY=Tsumeb mine, Tsumeb, Otavi District, Oshikoto, Namibia
##OWNER=RRUFF
##SOURCE=University of Arizona Mineral Museum
##DESCRIPTION=Green botryoidal coating asociated with olivenite R050670, malachite balls and azurite
##STATUS=The identification of this mineral has been confirmed by X-ray diffraction and chemical analysis
##URL=rruff.info/R050670
##MEASURED CHEMISTRY=Pb_1.00_Cu_3.00_O(As_1.00_O_3_OH)_2_(OH)_2_
92.02539, 280.5836
92.50751, 292.6653
92.98962, 300.4120
93.47174, 295.7033
93.95386, 285.6446
94.43597, 274.7525
94.91809, 265.6643
95.40021, 257.5858
95.88232, 246.3296
96.36444, 227.9803
96.84656, 212.0176
97.32867, 201.4424
97.81078, 194.7981
98.29290, 189.7065
98.77502, 184.3877
99.25713, 178.6838
99.73925, 171.9603
100.2214, 163.6156
100.7035, 155.0828
101.1856, 146.2448
101.6677, 137.4190
102.1498, 129.7749
102.6320, 124.7339
103.1141, 122.9320
103.5962, 122.8610
104.0783, 125.9134
104.5604, 130.1010
105.0425, 133.6863
105.5247, 136.4428
106.0068, 137.4570
106.4889, 134.6326
106.9710, 127.8755
107.4531, 120.1557
107.9352, 111.8709
108.4173, 103.3237
108.8995, 96.18651
109.3816, 91.52000
109.8637, 88.33072
110.3458, 85.46944
110.8279, 82.78654
111.3100, 80.50854
111.7922, 79.02621
112.2743, 78.60326
112.7564, 78.15748
113.2385, 77.32455
113.7206, 76.35043
114.2027, 75.45185
114.6849, 74.73991
115.1670, 74.13567
115.6491, 73.36397
116.1312, 72.05239
116.6133, 71.00628
117.0954, 70.53759
117.5776, 70.39013
118.0597, 70.13087
118.5418, 69.41932
119.0239, 68.23961
119.5060, 67.68161
119.9881, 68.11051
120.4703, 68.67481
120.9524, 68.98313
121.4345, 69.07098
121.9166, 69.29501
122.3987, 70.11148
122.8808, 71.65160
123.3630, 72.31222
123.8451, 71.47500
124.3272, 70.07504
124.8093, 68.98074
125.2914, 68.33279
125.7735, 67.92313
126.2557, 67.51383
126.7378, 67.11720
127.2199, 66.94110
127.7020, 67.39626
128.1841, 68.19038
128.6662, 68.32049
129.1483, 67.24590
129.6305, 65.90495
130.1126, 64.99129
130.5947, 64.49220
131.0768, 64.19460
131.5589, 63.90966
132.0410, 63.61796
132.5232, 63.50251
133.0053, 63.94802
133.4874, 64.33108
133.9695, 64.37395
134.4516, 64.00528
134.9337, 63.26996
135.4159, 62.14056
135.8980, 60.10509
136.3801, 58.66832
136.8622, 58.08485
137.3443, 57.92103
137.8264, 57.88314
138.3086, 57.84690
138.7907, 57.79778
139.2728, 57.69630
139.7549, 57.61315
140.2370, 57.38744
140.7191, 56.96409
141.2013, 56.39697
141.6834, 55.74097
142.1655, 55.01104
142.6476, 54.24018
143.1297, 53.58694
143.6118, 52.90212
144.0939, 52.44880
144.5761, 52.42856
145.0582, 52.77468
145.5403, 53.21421
146.0224, 53.74000
146.5045, 54.16653
146.9866, 54.08113
147.4688, 53.19830
147.9509, 52.01846
148.4330, 50.91488
148.9151, 49.85778
149.3972, 49.05909
149.8793, 48.82138
150.3615, 48.88475
150.8436, 48.97992
151.3257, 49.08379
151.8078, 49.12492
152.2899, 48.90186
152.7720, 48.23338
153.2542, 47.60996
153.7363, 47.22536
154.2184, 47.00627
154.7005, 46.84069
155.1826, 46.66361
155.6647, 46.47959
156.1469, 46.34364
156.6290, 46.39171
157.1111, 46.35061
157.5932, 46.03998
158.0753, 45.57371
158.5574, 45.19559
159.0396, 45.12469
159.5217, 45.40152
160.0038, 45.62008
160.4859, 45.88454
160.9680, 46.01213
161.4501, 45.80639
161.9323, 45.33775
162.4144, 44.90694
162.8965, 44.85988
163.3786, 45.36398
163.8607, 45.47853
164.3428, 44.77363
164.8250, 44.00861
165.3071, 43.89301
165.7892, 44.50143
166.2713, 45.12091
166.7534, 44.75699
167.2355, 43.20808
167.7177, 42.20821
168.1998, 42.29714
168.6819, 42.90589
169.1640, 43.32026
169.6461, 43.38152
170.1282, 43.29280
170.6104, 43.31942
171.0925, 43.44738
171.5746, 43.46673
172.0567, 43.20099
172.5388, 42.75272
173.0209, 42.43451
173.5031, 42.36288
173.9852, 42.35546
174.4673, 42.24929
174.9494, 42.05180
175.4315, 41.82732
175.9136, 41.57946
176.3958, 41.31205
176.8779, 41.17560
177.3600, 41.40942
177.8421, 41.59315
178.3242, 41.42675
178.8063, 40.92533
179.2885, 40.37423
179.7706, 40.10817
180.2527, 40.22824
180.7348, 40.18822
181.2169, 39.72896
181.6990, 39.26759
182.1812, 39.03292
182.6633, 39.05534
183.1454, 39.21013
183.6275, 39.33516
184.1096, 39.44397
184.5917, 39.48501
185.0738, 39.33451
185.5560, 39.20899
186.0381, 39.31504
186.5202, 39.68358
187.0023, 40.13212
187.4844, 40.35417
187.9665, 40.28800
188.4487, 40.04379
188.9308, 39.42040
189.4129, 38.72752
189.8950, 38.25262
190.3771, 38.09207
190.8592, 38.13998
191.3414, 38.20910
191.8235, 38.33195
192.3056, 38.41345
192.7877, 38.49555
193.2698, 38.51616
193.7519, 38.35392
194.2341, 37.94024
194.7162, 37.42022
195.1983, 37.09429
195.6804, 36.96932
196.1625, 36.91569
196.6446, 36.93488
197.1268, 36.99739
197.6089, 37.05952
198.0910, 37.14965
198.5731, 37.15710
199.0552, 36.86055
199.5373, 36.19083
200.0195, 35.61617
200.5016, 35.36267
200.9837, 35.40986
201.4658, 35.68805
201.9479, 36.35628
202.4300, 37.07500
202.9122, 37.50270
203.3943, 37.62672
203.8764, 37.52765
204.3585, 37.15580
204.8406, 36.51298
205.3227, 36.03238
205.8048, 35.95583
206.2870, 35.98573
206.7691, 35.88681
207.2512, 35.63558
207.7333, 35.40911
208.2154, 35.46650
208.6975, 35.89046
209.1797, 36.10438
209.6618, 35.77151
210.1439, 35.35856
210.6260, 35.10131
211.1081, 35.04423
211.5902, 35.10355
212.0724, 35.17170
212.5545, 35.22709
213.0366, 35.36040
213.5187, 35.78004
214.0008, 36.13177
214.4829, 36.16479
214.9651, 35.84491
215.4472, 35.35047
215.9293, 34.92609
216.4114, 34.56799
216.8935, 34.30190
217.3756, 33.95826
217.8578, 33.79388
218.3399, 34.13656
218.8220, 34.98950
219.3041, 35.93637
219.7862, 36.31087
220.2683, 35.66370
220.7505, 35.28945
221.2326, 35.41662
221.7147, 35.64202
222.1968, 35.63202
222.6789, 35.31646
223.1610, 34.88307
223.6432, 34.60983
224.1253, 34.59961
224.6074, 34.55565
225.0895, 34.33601
225.5716, 34.15970
226.0537, 34.25599
226.5358, 34.67295
227.0180, 35.24812
227.5001, 35.79750
227.9822, 36.38890
228.4643, 36.67938
228.9464, 36.44635
229.4285, 35.99368
229.9107, 35.62491
230.3928, 35.40746
230.8749, 35.26589
231.3570, 35.08964
231.8391, 34.86035
232.3212, 34.77736
232.8034, 34.96677
233.2855, 35.28426
233.7676, 35.60872
234.2497, 35.94577
234.7318, 36.12939
235.2139, 35.83077
235.6961, 35.11842
236.1782, 34.54143
236.6603, 34.27895
237.1424, 34.22186
237.6245, 34.22422
238.1066, 34.28447
238.5888, 34.34918
239.0709, 34.31096
239.5530, 34.21714
240.0351, 34.25032
240.5172, 34.71041
240.9993, 35.29082
241.4815, 35.28450
241.9636, 34.39774
242.4457, 33.58624
242.9278, 33.76209
243.4099, 34.53223
243.8920, 35.09760
244.3742, 35.04752
244.8563, 34.57618
245.3384, 34.07643
245.8205, 33.47145
246.3026, 33.02334
246.7847, 32.94399
247.2668, 33.09376
247.7490, 33.26847
248.2311, 33.40363
248.7132, 33.49070
249.1953, 33.50968
249.6774, 33.45538
250.1595, 33.33569
250.6417, 33.17185
251.1238, 32.95170
251.6059, 32.62607
252.0880, 32.11505
252.5701, 31.55703
253.0522, 31.33797
253.5344, 31.68522
254.0165, 31.92962
254.4986, 31.75571
254.9807, 31.43108
255.4628, 31.25070
255.9449, 31.35183
256.4271, 31.63074
256.9092, 31.89355
257.3913, 32.31197
257.8734, 32.34758
258.3555, 31.62473
258.8376, 30.67605
259.3198, 29.96687
259.8019, 29.68054
260.2840, 29.72461
260.7661, 29.94559
261.2482, 30.51084
261.7303, 30.93001
262.2125, 31.18255
262.6946, 31.27891
263.1767, 31.16162
263.6588, 30.82885
264.1409, 30.44010
264.6230, 30.31058
265.1052, 30.71420
265.5873, 30.83105
266.0694, 30.33962
266.5515, 29.78335
267.0336, 29.63186
267.5157, 29.95831
267.9979, 30.41678
268.4800, 30.45357
268.9621, 29.69873
269.4442, 29.33664
269.9263, 29.74919
270.4084, 30.19563
270.8906, 30.09535
271.3727, 29.43060
271.8548, 28.68104
272.3369, 28.43136
272.8190, 28.81506
273.3011, 29.29650
273.7833, 30.26398
274.2654, 30.99631
274.7475, 30.83185
275.2296, 29.91782
275.7117, 29.06777
276.1938, 29.14289
276.6760, 30.37338
277.1581, 31.11416
277.6402, 31.25848
278.1223, 31.14276
278.6044, 30.72230
279.0865, 30.13767
279.5686, 29.75442
280.0508, 29.90984
280.5329, 30.62188
281.0150, 30.97268
281.4971, 30.71156
281.9792, 30.42353
282.4613, 30.27958
282.9435, 30.28005
283.4256, 30.42223
283.9077, 30.74038
284.3898, 31.18059
284.8719, 31.22699
285.3540, 30.36349
285.8362, 29.74674
286.3183, 29.90548
286.8004, 30.49885
287.2825, 30.91157
287.7646, 30.82570
288.2467, 30.34936
288.7289, 29.84375
289.2110, 28.92751
289.6931, 28.44548
290.1752, 28.89645
290.6573, 29.76805
291.1394, 30.31681
291.6216, 30.24693
292.1037, 29.83450
292.5858, 29.63750
293.0679, 29.75228
293.5500, 29.89949
294.0321, 30.08555
294.5143, 30.27723
294.9964, 30.41825
295.4785, 30.49479
295.9606, 30.57796
296.4427, 30.77974
296.9248, 31.16452
297.4070, 31.47364
297.8891, 31.71443
298.3712, 31.86657
298.8533, 31.85050
299.3354, 31.67194
299.8175, 31.52260
300.2997, 31.63141
300.7818, 32.06214
301.2639, 32.26145
301.7460, 32.12561
302.2281, 31.84540
302.7102, 31.41165
303.1924, 30.88929
303.6745, 30.59318
304.1566, 30.82742
304.6387, 31.55934
305.1208, 32.01231
305.6029, 32.05582
306.0851, 31.98162
306.5672, 31.87648
307.0493, 31.76396
307.5314, 31.68841
308.0135, 31.66581
308.4956, 31.70796
308.9778, 31.87156
309.4599, 32.41623
309.9420, 32.74711
310.4241, 32.44797
310.9062, 31.81954
311.3883, 31.49624
311.8705, 31.78202
312.3526, 32.36711
312.8347, 32.53749
313.3168, 32.12805
313.7989, 31.77658
314.2810, 31.64850
314.7632, 31.63346
315.2453, 31.60961
315.7274, 31.54789
316.2095, 31.41368
316.6916, 31.12185
317.1737, 30.60272
317.6559, 30.24422
318.1380, 30.09249
318.6201, 30.10528
319.1022, 30.32273
319.5843, 30.73079
320.0664, 31.10922
320.5485, 31.24673
321.0306, 31.11605
321.5128, 30.99093
321.9949, 30.95463
322.4770, 30.85438
322.9591, 30.43695
323.4412, 29.80363
323.9233, 29.43674
324.4055, 29.70562
324.8876, 30.51853
325.3697, 31.14770
325.8518, 31.85738
326.3339, 32.14515
326.8160, 31.44292
327.2982, 30.18669
327.7803, 29.38532
328.2624, 29.57635
328.7445, 30.32419
329.2266, 30.41906
329.7087, 29.37702
330.1909, 28.65049
330.6730, 28.84487
331.1551, 29.38485
331.6372, 29.48144
332.1193, 28.90113
332.6014, 28.03284
333.0836, 27.39426
333.5657, 27.00010
334.0478, 26.87505
334.5299, 27.26382
335.0120, 27.76429
335.4941, 28.05932
335.9763, 28.10841
336.4584, 28.04428
336.9405, 27.98867
337.4226, 27.94535
337.9047, 27.81043
338.3868, 27.47093
338.8690, 27.15485
339.3511, 27.00239
339.8332, 26.97748
340.3153, 26.95610
340.7974, 26.85988
341.2795, 26.70164
341.7617, 26.56325
342.2438, 26.24353
342.7259, 26.17241
343.2080, 26.80008
343.6901, 27.65272
344.1722, 27.93274
344.6544, 27.29831
345.1365, 26.20518
345.6186, 25.60073
346.1007, 25.94070
346.5828, 26.10982
347.0649, 25.94180
347.5471, 25.69440
348.0292, 25.59069
348.5113, 25.67305
348.9934, 25.85313
349.4755, 26.04578
349.9576, 26.29929
350.4398, 26.33805
350.9219, 25.90626
351.4040, 25.52458
351.8861, 25.58405
352.3682, 25.96250
352.8503, 26.21349
353.3325, 25.96918
353.8146, 25.27617
354.2967, 24.87049
354.7788, 25.07750
355.2609, 25.19913
355.7430, 24.98055
356.2252, 24.61679
356.7073, 24.39689
357.1894, 24.45979
357.6715, 24.70951
358.1536, 24.91809
358.6357, 25.19685
359.1179, 25.24041
359.5999, 24.75134
360.0821, 24.22345
360.5642, 24.10424
361.0463, 24.45637
361.5284, 24.97162
362.0105, 25.24912
362.4926, 25.18028
362.9748, 25.29840
363.4569, 25.96619
363.9390, 26.47229
364.4211, 26.42338
364.9032, 25.93399
365.3853, 25.34833
365.8675, 24.89315
366.3496, 24.57732
366.8317, 24.50275
367.3138, 24.95836
367.7959, 25.29324
368.2780, 25.30998
368.7602, 25.15163
369.2423, 24.98140
369.7244, 24.86765
370.2065, 24.80671
370.6886, 24.82306
371.1707, 25.01320
371.6529, 25.02798
372.1350, 24.66825
372.6171, 24.23765
373.0992, 23.82568
373.5813, 23.49467
374.0634, 23.42147
374.5456, 24.02938
375.0277, 25.38178
375.5098, 25.98402
375.9919, 25.15293
376.4740, 24.24397
376.9561, 23.84412
377.4383, 23.85322
377.9204, 24.00438
378.4025, 24.18924
378.8846, 24.38633
379.3667, 24.54432
379.8488, 24.67504
380.3310, 24.73328
380.8131, 24.65663
381.2952, 24.51990
381.7773, 24.38579
382.2594, 24.26439
382.7415, 24.17453
383.2237, 24.14759
383.7058, 24.18307
384.1879, 24.21917
384.6700, 24.22460
385.1521, 24.24565
385.6342, 24.34637
386.1164, 24.51790
386.5985, 24.64604
387.0806, 24.61552
387.5627, 24.50027
388.0448, 24.49978
388.5269, 24.66738
389.0091, 24.82248
389.4912, 24.78412
389.9733, 24.63376
390.4554, 24.55692
390.9375, 24.74351
391.4196, 24.87692
391.9018, 24.48865
392.3839, 23.66172
392.8660, 23.20294
393.3481, 23.57681
393.8302, 24.42776
394.3123, 25.07335
394.7945, 25.53196
395.2766, 25.77505
395.7587, 25.67259
396.2408, 25.37526
396.7229, 25.15662
397.2050, 25.08474
397.6872, 24.99407
398.1693, 24.62103
398.6514, 23.92488
399.1335, 23.62583
399.6156, 24.16434
400.0977, 24.77731
400.5798, 24.88324
401.0620, 24.54623
401.5441, 24.16523
402.0262, 23.96490
402.5083, 23.93349
402.9904, 24.02917
403.4725, 24.37072
403.9547, 24.67206
404.4368, 24.94139
404.9189, 25.11837
405.4010, 25.10413
405.8831, 24.87302
406.3652, 24.50870
406.8474, 24.10610
407.3295, 23.56112
407.8116, 23.31738
408.2937, 23.62715
408.7758, 23.97742
409.2579, 24.05661
409.7401, 23.90844
410.2222, 23.76051
410.7043, 23.77861
411.1864, 23.94710
411.6685, 24.12905
412.1506, 24.43322
412.6328, 24.60815
413.1149, 24.46361
413.5970, 24.24209
414.0791, 24.27171
414.5612, 24.65115
415.0433, 25.09317
415.5255, 25.10353
416.0076, 24.51158
416.4897, 24.07771
416.9718, 23.92547
417.4539, 23.87873
417.9360, 23.95478
418.4182, 24.08580
418.9003, 24.08545
419.3824, 23.73501
419.8645, 23.15417
420.3466, 22.89519
420.8287, 23.08378
421.3109, 23.34143
421.7930, 23.52662
422.2751, 23.68802
422.7572, 23.87325
423.2393, 24.09201
423.7214, 24.34986
424.2036, 24.73215
424.6857, 25.22497
425.1678, 25.46661
425.6499, 25.25808
426.1320, 24.91637
426.6141, 24.71501
427.0963, 24.64496
427.5784, 24.64557
428.0605, 24.81549
428.5426, 24.99117
429.0247, 24.84133
429.5068, 24.32466
429.9890, 23.88418
430.4711, 23.79765
430.9532, 24.01243
431.4353, 24.30119
431.9174, 24.88476
432.3995, 25.21325
432.8817, 24.79712
433.3638, 23.94742
433.8459, 23.32435
434.3280, 23.14319
434.8101, 23.18229
435.2922, 23.15668
435.7744, 23.05625
436.2565, 22.91575
436.7386, 22.55516
437.2207, 22.29887
437.7028, 22.50966
438.1849, 23.07633
438.6671, 23.52644
439.1492, 23.53194
439.6313, 23.16851
440.1134, 22.87781
440.5955, 22.61637
441.0776, 22.48533
441.5598, 22.60318
442.0418, 22.80357
442.5240, 22.93912
443.0061, 22.96288
443.4882, 22.88385
443.9703, 22.67699
444.4524, 22.26783
444.9345, 22.08069
445.4167, 22.29459
445.8988, 22.55790
446.3809, 22.78712
446.8630, 22.96921
447.3451, 23.11952
447.8272, 23.25794
448.3094, 23.33627
448.7915, 23.20058
449.2736, 22.75687
449.7557, 22.36771
450.2378, 21.95621
450.7199, 21.74238
451.2021, 22.06709
451.6842, 22.91409
452.1663, 23.62826
452.6484, 23.46049
453.1305, 22.67126
453.6126, 22.53466
454.0948, 23.44112
454.5769, 24.24973
455.0590, 24.01465
455.5411, 23.16878
456.0232, 22.40170
456.5053, 21.77716
456.9875, 21.39739
457.4696, 21.50121
457.9517, 21.97367
458.4338, 22.26494
458.9159, 22.14551
459.3980, 21.86413
459.8802, 21.83273
460.3623, 22.08685
460.8444, 22.18714
461.3265, 21.81072
461.8086, 21.41500
462.2907, 21.49488
462.7729, 22.00994
463.2550, 22.52239
463.7371, 22.75304
464.2192, 22.72495
464.7013, 22.56962
465.1834, 22.04738
465.6656, 21.71108
466.1477, 21.77292
466.6298, 21.98998
467.1119, 22.07022
467.5940, 21.96029
468.0761, 21.86387
468.5583, 22.06244
469.0404, 22.64793
469.5225, 22.94013
470.0046, 22.72198
470.4867, 22.42854
470.9688, 22.09902
471.4510, 21.80018
471.9331, 21.61543
472.4152, 21.58360
472.8973, 21.68575
473.3794, 21.93046
473.8615, 22.37907
474.3437, 22.70852
474.8258, 22.86514
475.3079, 22.86733
475.7900, 22.64688
476.2721, 22.24962
476.7542, 21.89040
477.2364, 21.64554
477.7185, 21.54339
478.2006, 21.69564
478.6827, 22.14298
479.1648, 22.61164
479.6469, 23.09582
480.1291, 23.43827
480.6112, 23.31141
481.0933, 22.47271
481.5754, 21.80792
482.0575, 21.95240
482.5396, 22.53236
483.0217, 22.84922
483.5038, 22.75982
483.9860, 22.52496
484.4681, 22.38041
484.9502, 22.33101
485.4323, 22.24048
485.9144, 22.11659
486.3965, 21.94686
486.8787, 21.58440
487.3608, 21.19742
487.8429, 21.14118
488.3250, 21.55650
488.8071, 22.16723
489.2892, 22.47625
489.7714, 22.35335
490.2535, 22.24191
490.7356, 22.17500
491.2177, 22.08736
491.6998, 21.94084
492.1819, 21.74602
492.6641, 21.48753
493.1462, 21.10324
493.6283, 20.76528
494.1104, 21.09167
494.5925, 22.45306
495.0746, 23.46787
495.5568, 23.58315
496.0389, 23.38943
496.5210, 23.26983
497.0031, 23.25479
497.4852, 23.15985
497.9673, 22.77397
498.4495, 22.21631
498.9316, 21.82541
499.4137, 21.63378
499.8958, 21.50265
500.3779, 21.29296
500.8600, 21.11801
501.3422, 21.23704
501.8243, 21.85461
502.3064, 22.34717
502.7885, 22.31358
503.2706, 21.97031
503.7527, 21.68525
504.2349, 21.53768
504.7170, 21.47861
505.1991, 21.48932
505.6812, 21.57774
506.1633, 21.50906
506.6454, 21.05680
507.1276, 20.71609
507.6097, 20.69101
508.0918, 20.88845
508.5739, 21.26581
509.0560, 21.78727
509.5381, 22.16664
510.0203, 21.84478
510.5024, 20.43910
510.9845, 19.64510
511.4666, 19.88071
511.9487, 20.31884
512.4308, 20.78155
512.9130, 21.19461
513.3951, 21.47676
513.8772, 21.58225
514.3593, 21.55083
514.8414, 21.39834
515.3235, 21.08702
515.8057, 20.95259
516.2878, 21.23111
516.7699, 21.55194
517.2520, 21.61310
517.7341, 21.43264
518.2162, 21.16808
518.6984, 20.76361
519.1805, 20.37934
519.6626, 20.27610
520.1447, 20.43486
520.6268, 20.52810
521.1089, 20.33554
521.5911, 20.06042
522.0732, 20.27366
522.5553, 21.30234
523.0374, 21.79976
523.5195, 21.02594
524.0016, 19.98878
524.4838, 19.59625
524.9659, 19.84971
525.4480, 20.23465
525.9301, 20.39350
526.4122, 20.36057
526.8943, 20.30625
527.3765, 20.12181
527.8586, 20.08136
528.3407, 20.37171
528.8228, 20.69316
529.3049, 20.77157
529.7870, 20.60054
530.2692, 20.39153
530.7513, 20.28892
531.2334, 20.30271
531.7155, 20.53970
532.1976, 21.13594
532.6797, 21.63583
533.1619, 21.89551
533.6440, 21.93440
534.1261, 21.64582
534.6082, 20.95165
535.0903, 20.43404
535.5724, 20.64544
536.0546, 21.26680
536.5367, 21.60211
537.0188, 21.55300
537.5009, 21.41114
537.9830, 21.36233
538.4651, 21.40113
538.9473, 21.48032
539.4294, 21.72219
539.9115, 21.84799
540.3936, 21.66080
540.8757, 21.37119
541.3578, 21.24943
541.8400, 21.34155
542.3221, 21.49744
542.8042, 21.55697
543.2863, 21.51699
543.7684, 21.57916
544.2505, 21.89030
544.7326, 22.12747
545.2147, 22.29967
545.6968, 22.33277
546.1790, 22.05493
546.6611, 21.45204
547.1432, 20.87806
547.6253, 20.77811
548.1074, 21.10550
548.5895, 21.30610
549.0717, 21.28281
549.5538, 21.29433
550.0359, 21.65896
550.5180, 22.11458
551.0001, 22.21972
551.4822, 21.76520
551.9644, 21.29216
552.4465, 21.15198
552.9286, 21.23103
553.4107, 21.30519
553.8928, 21.33124
554.3749, 21.34700
554.8571, 21.37925
555.3392, 21.42917
555.8213, 21.52595
556.3034, 21.79999
556.7855, 21.95611
557.2676, 21.89872
557.7498, 21.69252
558.2319, 21.35878
558.7140, 20.93022
559.1961, 20.53805
559.6782, 20.30015
560.1603, 20.21584
560.6425, 20.41999
561.1246, 21.30506
561.6067, 21.88974
562.0888, 21.68961
562.5709, 21.15882
563.0530, 20.80509
563.5352, 20.75267
564.0173, 20.78473
564.4994, 20.74844
564.9815, 20.64952
565.4636, 20.45751
565.9457, 20.12628
566.4279, 19.93418
566.9100, 20.12593
567.3921, 20.60190
567.8742, 20.99008
568.3563, 21.41933
568.8384, 21.55098
569.3206, 20.92291
569.8027, 20.10916
570.2848, 19.90064
570.7669, 20.35615
571.2490, 20.87010
571.7311, 20.89468
572.2133, 20.49210
572.6954, 20.35172
573.1775, 20.79253
573.6596, 21.05911
574.1417, 20.95289
574.6238, 20.71082
575.1060, 20.54213
575.5881, 20.46770
576.0702, 20.36712
576.5523, 20.09033
577.0344, 19.71119
577.5165, 19.53485
577.9987, 19.61443
578.4808, 19.66055
578.9629, 19.49720
579.4450, 19.27207
579.9271, 19.22446
580.4092, 19.39620
580.8914, 19.47104
581.3735, 19.09663
581.8556, 18.71085
582.3377, 18.90393
582.8198, 19.61489
583.3019, 20.31778
583.7841, 20.73376
584.2662, 20.87720
584.7483, 20.77999
585.2304, 20.19581
585.7125, 19.77132
