##NAMES=Bayldonite
##RRUFFID=R110033
##IDEAL CHEMISTRY=Cu^2+^_3_Pb^2+^O(As^5+^O_3_OH)_2_(OH)_2_
##LOCALITY=Tsumeb, Namibia
##OWNER=RRUFF
##SOURCE=William W Pinch
##DESCRIPTION=Bright green tabular crystals associated with azurite, conichalcite, and wulfenite
##STATUS=The identification of this mineral has been confirmed by single-crystal X-ray diffraction.
##URL=rruff.info/R110033
157.0243, 963.9166
157.5064, 1024.393
157.9885, 1084.912
158.4706, 1148.627
158.9528, 1210.475
159.4349, 1267.777
159.9170, 1317.821
160.3991, 1367.395
160.8812, 1417.502
161.3633, 1468.426
161.8455, 1520.918
162.3276, 1576.851
162.8097, 1633.130
163.2918, 1688.732
163.7739, 1740.862
164.2560, 1795.018
164.7382, 1852.892
165.2203, 1914.544
165.7024, 1980.200
166.1845, 2050.122
166.6666, 2124.351
167.1487, 2202.145
167.6309, 2285.671
168.1130, 2371.451
168.5951, 2456.887
169.0772, 2542.344
169.5593, 2627.805
170.0414, 2715.684
170.5236, 2803.219
171.0057, 2886.014
171.4878, 2964.718
171.9699, 3037.758
172.4520, 3105.298
172.9341, 3167.193
173.4163, 3216.997
173.8984, 3249.674
174.3805, 3267.303
174.8626, 3272.777
175.3447, 3268.768
175.8268, 3252.778
176.3090, 3219.939
176.7911, 3170.453
177.2732, 3111.654
177.7553, 3036.619
178.2374, 2943.922
178.7195, 2844.586
179.2017, 2738.134
179.6838, 2629.679
180.1659, 2528.774
180.6480, 2434.565
181.1301, 2346.690
181.6122, 2263.280
182.0944, 2184.270
182.5765, 2111.491
183.0586, 2045.714
183.5407, 1986.340
184.0228, 1928.464
184.5049, 1871.989
184.9871, 1819.148
185.4692, 1774.008
185.9513, 1735.496
186.4334, 1700.859
186.9155, 1669.084
187.3976, 1639.839
187.8798, 1611.199
188.3619, 1582.709
188.8440, 1556.249
189.3261, 1535.817
189.8082, 1520.864
190.2903, 1507.151
190.7725, 1492.603
191.2546, 1477.266
191.7367, 1463.003
192.2188, 1450.249
192.7009, 1437.536
193.1830, 1422.484
193.6652, 1405.161
194.1473, 1387.259
194.6294, 1369.050
195.1115, 1350.698
195.5936, 1334.834
196.0757, 1321.964
196.5579, 1310.947
197.0400, 1299.788
197.5221, 1288.466
198.0042, 1277.259
198.4863, 1265.504
198.9684, 1253.212
199.4506, 1243.891
199.9327, 1238.489
200.4148, 1235.375
200.8969, 1231.454
201.3790, 1226.761
201.8611, 1220.965
202.3433, 1212.856
202.8254, 1201.975
203.3075, 1194.406
203.7896, 1191.324
204.2717, 1191.203
204.7538, 1190.269
205.2360, 1188.264
205.7181, 1186.320
206.2002, 1185.208
206.6823, 1185.074
207.1644, 1184.524
207.6465, 1182.996
208.1287, 1181.196
208.6108, 1181.570
209.0929, 1184.852
209.5750, 1188.256
210.0571, 1189.420
210.5392, 1187.283
211.0214, 1188.214
211.5035, 1193.970
211.9856, 1202.774
212.4677, 1208.208
212.9498, 1208.906
213.4319, 1209.403
213.9140, 1212.829
214.3962, 1220.351
214.8783, 1226.581
215.3604, 1230.316
215.8425, 1232.532
216.3246, 1237.214
216.8067, 1245.436
217.2889, 1254.097
217.7710, 1261.486
218.2531, 1267.538
218.7352, 1272.391
219.2173, 1275.530
219.6994, 1277.491
220.1816, 1280.731
220.6637, 1285.664
221.1458, 1291.156
221.6279, 1296.529
222.1100, 1301.945
222.5921, 1306.921
223.0743, 1311.567
223.5564, 1315.766
224.0385, 1319.224
224.5206, 1322.088
225.0027, 1323.947
225.4848, 1324.331
225.9670, 1322.431
226.4491, 1321.107
226.9312, 1320.765
227.4133, 1321.204
227.8954, 1321.601
228.3775, 1322.713
228.8597, 1322.701
229.3418, 1320.206
229.8239, 1313.984
230.3060, 1308.286
230.7881, 1304.316
231.2702, 1301.182
231.7524, 1294.604
232.2345, 1283.053
232.7166, 1270.311
233.1987, 1258.762
233.6808, 1249.323
234.1629, 1239.054
234.6451, 1227.771
235.1272, 1215.465
235.6093, 1201.816
236.0914, 1186.244
236.5735, 1170.146
237.0556, 1154.261
237.5378, 1138.629
238.0199, 1123.107
238.5020, 1107.303
238.9841, 1091.554
239.4662, 1077.910
239.9483, 1067.354
240.4305, 1057.597
240.9126, 1047.274
241.3947, 1035.698
241.8768, 1025.126
242.3589, 1015.835
242.8410, 1007.643
243.3232, 999.6526
243.8053, 991.4648
244.2874, 984.0632
244.7695, 978.0470
245.2516, 973.7188
245.7337, 970.0056
246.2159, 967.2840
246.6980, 965.0575
247.1801, 961.7616
247.6622, 956.7817
248.1443, 951.5765
248.6264, 946.8182
249.1086, 942.4105
249.5907, 938.6179
250.0728, 935.6268
250.5549, 933.2108
251.0370, 930.7675
251.5191, 928.2567
252.0013, 925.8134
252.4834, 923.3234
252.9655, 920.2881
253.4476, 918.7321
253.9297, 919.3990
254.4118, 921.2295
254.8940, 921.7895
255.3761, 920.4838
255.8582, 918.9504
256.3403, 917.8565
256.8224, 917.3287
257.3046, 916.7922
257.7867, 916.2924
258.2688, 915.7313
258.7509, 914.7978
259.2330, 913.0460
259.7151, 911.8158
260.1973, 911.7330
260.6794, 913.0792
261.1615, 914.2677
261.6436, 915.1422
262.1257, 915.9899
262.6078, 917.4434
263.0900, 919.9564
263.5721, 921.9928
264.0542, 922.6678
264.5363, 921.5674
265.0184, 922.2638
265.5005, 925.4673
265.9827, 929.6765
266.4648, 932.4488
266.9469, 932.8152
267.4290, 934.5804
267.9111, 939.5685
268.3932, 948.0695
268.8754, 954.2274
269.3575, 957.0914
269.8396, 959.0301
270.3217, 963.1100
270.8038, 969.8046
271.2859, 976.6586
271.7681, 982.9886
272.2502, 988.7726
272.7323, 994.4273
273.2144, 999.6956
273.6965, 1005.147
274.1786, 1011.452
274.6608, 1018.832
275.1429, 1026.188
275.6250, 1033.173
276.1071, 1039.858
276.5892, 1046.896
277.0714, 1053.965
277.5535, 1062.003
278.0356, 1072.142
278.5177, 1084.555
278.9998, 1097.216
279.4819, 1109.762
279.9641, 1122.263
280.4462, 1134.339
280.9283, 1145.861
281.4104, 1157.654
281.8925, 1170.406
282.3746, 1184.118
282.8568, 1198.716
283.3389, 1213.950
283.8210, 1230.284
284.3031, 1249.279
284.7852, 1271.220
285.2673, 1294.309
285.7495, 1317.552
286.2316, 1341.021
286.7137, 1365.123
287.1958, 1389.578
287.6779, 1415.234
288.1600, 1444.000
288.6422, 1475.898
289.1243, 1509.804
289.6064, 1543.823
290.0885, 1578.611
290.5706, 1616.104
291.0527, 1656.326
291.5349, 1699.590
292.0170, 1747.073
292.4991, 1798.191
292.9812, 1851.615
293.4633, 1905.222
293.9454, 1960.062
294.4276, 2018.779
294.9097, 2080.833
295.3918, 2147.232
295.8739, 2220.117
296.3560, 2298.263
296.8381, 2379.420
297.3203, 2462.360
297.8024, 2546.610
298.2845, 2631.960
298.7666, 2718.669
299.2487, 2807.259
299.7308, 2901.642
300.2130, 3000.052
300.6951, 3095.834
301.1772, 3184.394
301.6593, 3269.538
302.1414, 3358.225
302.6235, 3449.626
303.1057, 3541.660
303.5878, 3630.281
304.0699, 3717.940
304.5520, 3807.397
305.0341, 3899.856
305.5162, 3993.998
305.9984, 4089.107
306.4805, 4184.678
306.9626, 4283.543
307.4447, 4388.048
307.9268, 4496.131
308.4089, 4603.818
308.8911, 4711.097
309.3732, 4816.379
309.8553, 4919.438
310.3374, 5019.317
310.8195, 5114.992
311.3016, 5210.427
311.7838, 5297.577
312.2659, 5370.536
312.7480, 5427.851
313.2301, 5470.149
313.7122, 5500.511
314.1943, 5516.847
314.6765, 5513.955
315.1586, 5486.686
315.6407, 5441.778
316.1228, 5381.783
316.6049, 5306.187
317.0870, 5220.040
317.5692, 5121.069
318.0513, 5014.584
318.5334, 4908.551
319.0155, 4802.468
319.4976, 4699.961
319.9797, 4602.198
320.4619, 4508.901
320.9440, 4424.294
321.4261, 4349.447
321.9082, 4284.622
322.3903, 4230.436
322.8724, 4190.851
323.3546, 4157.931
323.8367, 4130.889
324.3188, 4109.515
324.8009, 4090.458
325.2830, 4075.005
325.7651, 4060.837
326.2473, 4046.524
326.7294, 4036.333
327.2115, 4021.106
327.6936, 4002.158
328.1757, 3978.516
328.6578, 3944.286
329.1400, 3899.119
329.6221, 3843.846
330.1042, 3778.357
330.5863, 3701.568
331.0684, 3615.817
331.5505, 3519.828
332.0327, 3415.514
332.5148, 3307.820
332.9969, 3194.910
333.4790, 3080.357
333.9611, 2962.725
334.4432, 2840.046
334.9254, 2721.302
335.4075, 2608.127
335.8896, 2498.745
336.3717, 2390.665
336.8538, 2283.607
337.3359, 2180.702
337.8180, 2083.111
338.3001, 1991.255
338.7823, 1905.912
339.2644, 1828.270
339.7465, 1756.667
340.2286, 1689.992
340.7107, 1629.089
341.1928, 1571.495
341.6750, 1518.174
342.1571, 1468.115
342.6392, 1420.124
343.1213, 1373.502
343.6034, 1330.511
344.0855, 1293.076
344.5677, 1261.308
345.0498, 1229.629
345.5319, 1196.826
346.0140, 1165.169
346.4961, 1140.147
346.9782, 1121.615
347.4604, 1103.448
347.9425, 1081.345
348.4246, 1056.699
348.9067, 1035.478
349.3888, 1018.204
349.8709, 1003.260
350.3531, 989.3489
350.8352, 976.2803
351.3173, 963.4056
351.7994, 949.6669
352.2815, 936.0817
352.7636, 924.5153
353.2458, 914.9568
353.7279, 905.9551
354.2100, 895.8745
354.6921, 885.5615
355.1742, 876.6345
355.6563, 870.5737
356.1385, 864.9042
356.6206, 856.6330
357.1027, 846.3165
357.5848, 836.9669
358.0669, 830.5512
358.5490, 825.7713
359.0312, 821.5310
359.5133, 817.7803
359.9954, 814.0656
360.4775, 810.2633
360.9596, 806.2955
361.4417, 802.0577
361.9239, 797.6029
362.4060, 792.7700
362.8881, 787.1017
363.3702, 780.1961
363.8523, 774.4153
364.3344, 770.9532
364.8166, 768.8705
365.2987, 767.0814
365.7808, 765.8755
366.2629, 764.4481
366.7450, 762.7578
367.2271, 760.7902
367.7093, 758.0101
368.1914, 752.4913
368.6735, 747.2982
369.1556, 744.4265
369.6377, 747.3547
370.1198, 748.3658
370.6020, 746.0029
371.0841, 741.3401
371.5662, 738.2637
372.0483, 737.2932
372.5304, 737.3056
373.0125, 738.1074
373.4947, 740.4461
373.9768, 741.2663
374.4589, 739.8106
374.9410, 737.4517
375.4231, 736.3845
375.9052, 736.8441
376.3874, 737.9821
376.8695, 739.8424
377.3516, 742.4213
377.8337, 743.9004
378.3158, 743.9765
378.7979, 743.9044
379.2801, 744.5949
379.7622, 746.0253
380.2443, 749.2219
380.7264, 755.0699
381.2085, 762.2863
381.6906, 767.1630
382.1728, 769.6295
382.6549, 772.1418
383.1370, 776.6116
383.6191, 782.5485
384.1012, 787.7662
384.5833, 791.9255
385.0655, 795.8705
385.5476, 800.0465
386.0297, 804.7771
386.5118, 811.0607
386.9939, 820.7966
387.4760, 831.8699
387.9582, 841.2315
388.4403, 848.8918
388.9224, 855.9101
389.4045, 862.8635
389.8866, 869.7332
390.3687, 876.5303
390.8509, 883.0244
391.3330, 889.6169
391.8151, 896.9254
392.2972, 904.7161
392.7793, 912.1400
393.2614, 918.2424
393.7436, 924.1221
394.2257, 930.4842
394.7078, 936.9266
395.1899, 945.0390
395.6720, 956.5951
396.1541, 969.9542
396.6363, 982.4830
397.1184, 993.4795
397.6005, 1003.591
398.0826, 1012.461
398.5647, 1019.768
399.0468, 1028.589
399.5290, 1041.308
400.0111, 1054.478
400.4932, 1065.320
400.9753, 1071.489
401.4574, 1078.498
401.9395, 1086.963
402.4217, 1096.653
402.9038, 1106.489
403.3859, 1117.352
403.8680, 1127.081
404.3501, 1134.309
404.8322, 1137.930
405.3144, 1142.799
405.7965, 1149.255
406.2786, 1156.481
406.7607, 1162.614
407.2428, 1167.069
407.7249, 1173.558
408.2071, 1182.671
408.6892, 1194.688
409.1713, 1211.338
409.6534, 1232.776
410.1355, 1258.500
410.6176, 1288.214
411.0998, 1321.914
411.5819, 1359.052
412.0640, 1399.773
412.5461, 1443.561
413.0282, 1491.393
413.5103, 1542.652
413.9925, 1594.637
414.4746, 1645.330
414.9567, 1696.495
415.4388, 1750.254
415.9209, 1807.376
416.4030, 1865.897
416.8852, 1923.972
417.3673, 1983.032
417.8494, 2045.512
418.3315, 2111.710
418.8136, 2182.694
419.2957, 2259.613
419.7779, 2341.992
420.2600, 2431.397
420.7421, 2527.383
421.2242, 2631.155
421.7063, 2741.269
422.1884, 2860.436
422.6706, 2983.841
423.1527, 3113.656
423.6348, 3247.418
424.1169, 3380.892
424.5990, 3523.833
425.0811, 3658.208
425.5633, 3781.143
426.0454, 3894.250
426.5275, 3986.124
427.0096, 4065.490
427.4917, 4117.393
427.9738, 4130.631
428.4560, 4106.229
428.9381, 4040.510
429.4202, 3928.530
429.9023, 3777.011
430.3844, 3597.402
430.8665, 3384.051
431.3487, 3161.495
431.8308, 2937.609
432.3129, 2712.567
432.7950, 2499.640
433.2771, 2298.235
433.7592, 2113.277
434.2414, 1948.743
434.7235, 1804.256
435.2056, 1675.576
435.6877, 1562.948
436.1698, 1464.565
436.6519, 1375.764
437.1341, 1296.583
437.6162, 1226.521
438.0983, 1166.488
438.5804, 1114.150
439.0625, 1065.621
439.5446, 1020.278
440.0268, 978.5710
440.5089, 940.8853
440.9910, 906.9830
441.4731, 876.9550
441.9552, 851.8284
442.4373, 829.4203
442.9195, 808.3271
443.4016, 788.4760
443.8837, 769.8315
444.3658, 752.7054
444.8479, 736.5121
445.3300, 720.9304
445.8122, 704.1500
446.2943, 690.0325
446.7764, 680.3842
447.2585, 673.8230
447.7406, 666.8203
448.2227, 657.7055
448.7049, 649.5648
449.1870, 643.6136
449.6691, 640.4963
450.1512, 635.9356
450.6333, 629.1445
451.1154, 621.8489
451.5976, 615.5325
452.0797, 610.1733
452.5618, 606.2462
453.0439, 604.3973
453.5260, 603.7626
454.0081, 601.3054
454.4903, 596.7381
454.9724, 592.1727
455.4545, 588.6125
455.9366, 586.0300
456.4187, 584.1441
456.9008, 583.0322
457.3830, 582.1946
457.8651, 581.0668
458.3472, 579.7395
458.8293, 578.5988
459.3114, 577.9197
459.7935, 577.3007
460.2757, 575.7988
460.7578, 573.6998
461.2399, 572.4308
461.7220, 573.7250
462.2041, 575.7978
462.6862, 576.7784
463.1684, 576.0975
463.6505, 575.7070
464.1326, 576.7429
464.6147, 578.6245
465.0968, 580.6262
465.5789, 582.5313
466.0611, 584.4960
466.5432, 586.3156
467.0253, 588.0834
467.5074, 590.7780
467.9895, 595.1155
468.4716, 599.9389
468.9538, 604.6918
469.4359, 609.2122
469.9180, 613.9015
470.4001, 618.9157
470.8822, 624.0264
471.3643, 628.6768
471.8465, 632.2230
472.3286, 637.2119
472.8107, 644.6694
473.2928, 654.0692
473.7749, 663.0049
474.2570, 671.3275
474.7392, 679.7109
475.2213, 688.3294
475.7034, 697.3118
476.1855, 707.7330
476.6676, 719.9168
477.1497, 732.8943
477.6319, 745.0351
478.1140, 756.7422
478.5961, 769.1545
479.0782, 782.6451
479.5603, 797.1813
480.0424, 812.9886
480.5246, 830.0353
481.0067, 847.4404
481.4888, 864.4368
481.9709, 881.6539
482.4530, 899.7404
482.9352, 919.3055
483.4173, 938.5020
483.8994, 955.9543
484.3815, 972.7818
484.8636, 990.5091
485.3457, 1010.634
485.8279, 1030.435
486.3100, 1049.473
486.7921, 1067.764
487.2742, 1084.544
487.7563, 1099.647
488.2384, 1113.633
488.7206, 1126.984
489.2027, 1140.745
489.6848, 1150.682
490.1669, 1155.414
490.6490, 1157.775
491.1311, 1162.548
491.6133, 1170.104
492.0954, 1177.140
492.5775, 1182.140
493.0596, 1185.973
493.5417, 1192.741
494.0238, 1202.465
494.5060, 1211.330
494.9881, 1216.742
495.4702, 1219.039
495.9523, 1219.015
496.4344, 1216.582
496.9165, 1212.556
497.3987, 1209.231
497.8808, 1204.755
498.3629, 1195.701
498.8450, 1179.220
499.3271, 1158.926
499.8092, 1137.778
500.2914, 1115.053
500.7735, 1088.523
501.2556, 1054.036
501.7377, 1017.366
502.2198, 981.8414
502.7019, 947.7645
503.1841, 914.1576
503.6662, 880.5203
504.1483, 847.3655
504.6304, 815.5146
505.1125, 784.0453
505.5946, 756.0961
506.0768, 732.7901
506.5589, 713.3478
507.0410, 693.1861
507.5231, 671.6813
508.0052, 651.2561
508.4873, 632.4962
508.9695, 615.6273
509.4516, 602.2164
509.9337, 592.6884
510.4158, 584.8510
510.8979, 576.1555
511.3800, 566.8925
511.8622, 558.8074
512.3443, 552.6276
512.8264, 547.4171
513.3085, 541.9042
513.7906, 536.2142
514.2728, 530.7905
514.7549, 525.9017
515.2370, 521.3828
515.7191, 516.8745
516.2012, 512.2945
516.6833, 508.7603
517.1655, 507.8282
517.6476, 507.5811
518.1297, 506.3663
518.6118, 502.4694
519.0939, 499.3033
519.5760, 497.8157
520.0582, 497.4081
520.5403, 496.5208
521.0224, 494.1961
521.5045, 492.7586
521.9866, 493.1021
522.4688, 495.2240
522.9509, 496.6476
523.4330, 497.0064
523.9151, 497.5206
524.3972, 499.0590
524.8793, 501.6210
525.3615, 505.0720
525.8436, 509.5879
526.3257, 514.5178
526.8078, 518.7556
527.2899, 522.4716
527.7720, 526.4010
528.2542, 530.5886
528.7363, 535.2761
529.2184, 541.3439
529.7005, 548.4512
530.1826, 555.0446
530.6647, 559.7086
531.1469, 563.7030
531.6290, 567.9967
532.1111, 572.5836
532.5932, 578.0901
533.0753, 585.3318
533.5574, 593.3945
534.0396, 601.2073
534.5217, 607.4993
535.0038, 614.9083
535.4859, 624.1913
535.9680, 634.9141
536.4501, 646.0030
536.9323, 658.1195
537.4144, 669.4778
537.8965, 679.4476
538.3786, 687.9974
538.8607, 695.0258
539.3428, 700.2708
539.8250, 704.5977
540.3071, 709.6115
540.7892, 714.8563
541.2713, 716.2043
541.7534, 712.5743
542.2355, 706.0485
542.7177, 699.6151
543.1998, 692.7098
543.6819, 683.6841
544.1640, 670.7431
544.6461, 656.2230
545.1282, 641.4798
545.6104, 626.7636
546.0925, 613.1669
546.5746, 601.8915
547.0567, 591.5341
547.5388, 581.0061
548.0209, 569.9932
548.5031, 559.5143
548.9852, 549.0690
549.4673, 539.5219
549.9494, 531.8175
550.4315, 527.2711
550.9136, 522.4547
551.3958, 516.5729
551.8779, 510.2800
552.3600, 505.7506
552.8421, 503.3139
553.3242, 501.3717
553.8063, 499.1678
554.2885, 496.8326
554.7706, 495.6661
555.2527, 495.7816
555.7348, 495.8875
556.2169, 494.9180
556.6990, 493.0721
557.1812, 490.7296
557.6633, 487.8482
558.1454, 484.9041
558.6275, 482.1281
559.1096, 479.6568
559.5917, 477.6676
560.0739, 476.7334
560.5560, 475.8608
561.0381, 474.4779
561.5202, 472.7163
562.0023, 471.1206
562.4844, 470.1617
562.9666, 469.1000
563.4487, 467.3327
563.9308, 464.4212
564.4129, 463.0504
564.8950, 464.2743
565.3771, 465.8786
565.8593, 466.0458
566.3414, 464.5342
566.8235, 462.4148
567.3056, 459.4049
567.7877, 456.3871
568.2698, 455.1376
568.7520, 455.5611
569.2341, 456.2217
569.7162, 456.7707
570.1983, 457.0956
570.6804, 457.0558
571.1625, 456.6407
571.6447, 455.7536
572.1268, 453.5074
572.6089, 451.2407
573.0910, 450.5526
573.5731, 451.8376
574.0552, 452.9121
574.5374, 452.8768
575.0195, 452.1159
575.5016, 450.9910
575.9837, 448.4095
576.4658, 446.9020
576.9479, 447.2481
577.4301, 448.6519
577.9122, 449.6035
578.3943, 450.0332
578.8764, 450.1143
579.3585, 449.7880
579.8406, 449.1217
580.3228, 448.5487
580.8049, 448.0331
581.2870, 447.8346
581.7691, 448.6939
582.2512, 450.1121
582.7333, 449.5598
583.2155, 446.6674
583.6975, 444.1188
584.1796, 445.3827
584.6617, 448.4633
585.1439, 449.8869
585.6260, 447.7188
586.1081, 445.4968
586.5902, 445.7685
587.0723, 447.4804
587.5544, 448.5884
588.0366, 448.1480
588.5187, 447.3868
589.0008, 446.4068
589.4829, 445.2682
589.9650, 444.8860
590.4471, 445.9205
590.9293, 446.8220
591.4114, 446.6407
591.8935, 445.0684
592.3756, 444.7718
592.8577, 446.1469
593.3398, 447.7218
593.8220, 447.7292
594.3041, 446.4061
594.7862, 445.6619
595.2683, 445.9811
595.7504, 446.6362
596.2325, 446.7475
596.7147, 446.4452
597.1968, 446.0605
597.6789, 445.8000
598.1610, 445.4689
598.6431, 444.8878
599.1252, 444.1017
599.6074, 443.3084
600.0895, 443.1366
600.5716, 442.4956
601.0537, 440.3838
601.5358, 436.0519
602.0179, 433.8268
602.5001, 435.1720
602.9822, 437.2193
603.4643, 438.0479
603.9464, 437.7254
604.4285, 435.6186
604.9106, 430.9745
605.3928, 425.8108
605.8749, 423.2823
606.3570, 423.2245
606.8391, 423.6151
607.3212, 423.9981
607.8033, 424.2939
608.2855, 424.5782
608.7676, 424.7195
609.2497, 424.2480
609.7318, 422.0549
610.2139, 419.7622
610.6960, 419.0833
611.1782, 420.0030
611.6603, 420.0114
612.1424, 417.1358
612.6245, 413.8647
613.1066, 411.7069
613.5887, 410.9686
614.0709, 410.9840
614.5530, 412.5716
615.0351, 414.1891
615.5172, 413.9750
615.9993, 411.3410
616.4814, 409.6276
616.9636, 409.5392
617.4457, 410.2515
617.9278, 409.9292
618.4099, 408.7303
618.8920, 408.3011
619.3741, 409.8789
619.8563, 412.1969
620.3384, 413.7098
620.8205, 414.3806
621.3026, 414.0370
621.7847, 410.9698
622.2668, 408.0003
622.7490, 407.7097
623.2311, 410.5887
623.7132, 412.8354
624.1953, 413.2777
624.6774, 412.8592
625.1595, 412.1525
625.6417, 410.3929
626.1238, 410.0357
626.6059, 411.8597
627.0880, 414.2521
627.5701, 414.7688
628.0522, 413.1337
628.5344, 412.3911
629.0165, 413.3703
629.4986, 415.2940
629.9807, 416.8125
630.4628, 417.9634
630.9449, 418.9244
631.4271, 419.5111
631.9092, 420.1321
632.3913, 421.1671
632.8734, 422.6178
633.3555, 424.4532
633.8376, 426.9690
634.3198, 429.6252
634.8019, 432.1603
635.2840, 434.5707
635.7661, 436.7445
636.2482, 438.1833
636.7303, 439.8088
637.2125, 442.4827
637.6946, 447.1627
638.1767, 450.0158
638.6588, 450.5142
639.1409, 449.8413
639.6230, 450.0157
640.1052, 450.8933
640.5873, 449.8332
641.0694, 445.3488
641.5515, 440.0616
642.0336, 438.2531
642.5157, 439.0162
642.9979, 439.6796
643.4800, 438.6646
643.9621, 437.3000
644.4442, 436.5797
644.9263, 436.3843
645.4084, 435.9381
645.8906, 434.3182
646.3727, 432.9872
646.8548, 432.7537
647.3369, 433.7609
647.8190, 434.6748
648.3011, 435.4060
648.7833, 436.1692
649.2654, 437.1414
649.7475, 438.3576
650.2296, 439.6018
650.7117, 440.9661
651.1938, 441.9763
651.6760, 441.4059
652.1581, 439.9208
652.6402, 439.7723
653.1223, 442.1321
653.6044, 444.7538
654.0865, 445.4930
