##NAMES=Behierite
##RRUFFID=R060657
##IDEAL CHEMISTRY=TaBO_4_
##LOCALITY=Mount Ibity, Antsirabe, Madagascar
##OWNER=RRUFF
##SOURCE=Michael Scott
##DESCRIPTION=Gray deformed crystal
##STATUS=The identification of this mineral is confirmed by single-crystal X-ray diffraction and chemical analysis.
##URL=rruff.info/R060657
##MEASURED CHEMISTRY=(Ta_0.84_Nb_0.16_)_Î£=1_BO_4_; B not measured but estimated by difference and charge balance
121.7922, 66.44675
122.2743, 77.66136
122.7564, 99.27099
123.2385, 116.5782
123.7206, 123.5551
124.2027, 126.7330
124.6849, 134.9968
125.1670, 149.7615
125.6491, 164.5128
126.1312, 172.8202
126.6133, 177.7184
127.0954, 184.4839
127.5776, 196.7302
128.0597, 211.9194
128.5418, 224.1040
129.0239, 231.4774
129.5060, 239.7420
129.9881, 254.4587
130.4702, 272.4189
130.9524, 287.3831
131.4345, 295.4471
131.9166, 297.7095
132.3987, 298.7528
132.8808, 298.6634
133.3629, 296.9618
133.8451, 291.8171
134.3272, 285.0092
134.8093, 280.4193
135.2914, 281.6364
135.7735, 288.1192
136.2556, 292.4274
136.7378, 291.6604
137.2199, 291.7305
137.7020, 295.1001
138.1841, 301.0967
138.6662, 307.8635
139.1483, 313.9175
139.6305, 319.2373
140.1126, 324.9122
140.5947, 328.6680
141.0768, 335.0221
141.5589, 346.5790
142.0410, 362.3652
142.5232, 379.3621
143.0053, 394.8535
143.4874, 408.6144
143.9695, 423.0516
144.4516, 438.1032
144.9337, 453.8567
145.4159, 470.7321
145.8980, 488.5153
146.3801, 506.5131
146.8622, 524.4251
147.3443, 542.9847
147.8264, 557.3441
148.3086, 565.0407
148.7907, 571.5147
149.2728, 579.7116
149.7549, 589.4931
150.2370, 598.6071
150.7191, 604.7683
151.2013, 607.3618
151.6834, 609.1052
152.1655, 613.2531
152.6476, 614.2195
153.1297, 605.0096
153.6118, 587.2007
154.0940, 571.3770
154.5761, 569.7689
155.0582, 587.9057
155.5403, 597.2885
156.0224, 591.7119
156.5045, 582.9249
156.9867, 577.6627
157.4688, 577.0778
157.9509, 580.0735
158.4330, 586.1656
158.9151, 596.6494
159.3972, 603.9753
159.8793, 604.4404
160.3615, 604.3390
160.8436, 609.6537
161.3257, 620.8435
161.8078, 632.4304
162.2899, 637.9625
162.7720, 635.8660
163.2542, 638.8812
163.7363, 653.3751
164.2184, 669.6292
164.7005, 676.5942
165.1826, 672.9502
165.6647, 670.0329
166.1469, 681.0975
166.6290, 706.8013
167.1111, 726.9033
167.5932, 737.3126
168.0753, 742.5454
168.5574, 744.7922
169.0396, 743.9805
169.5217, 746.8715
170.0038, 763.5851
170.4859, 792.3953
170.9680, 814.0560
171.4501, 822.1351
171.9323, 823.3160
172.4144, 823.4255
172.8965, 822.5392
173.3786, 824.6934
173.8607, 837.1309
174.3428, 856.9698
174.8250, 870.7964
175.3071, 870.3747
175.7892, 864.9535
176.2713, 866.3785
176.7534, 876.0481
177.2355, 889.0424
177.7177, 904.5132
178.1998, 920.6661
178.6819, 931.6973
179.1640, 929.8793
179.6461, 924.5951
180.1283, 930.1128
180.6104, 948.8705
181.0925, 969.4754
181.5746, 982.9075
182.0567, 992.3042
182.5388, 1003.420
183.0210, 1018.711
183.5031, 1036.333
183.9852, 1053.442
184.4673, 1069.945
184.9494, 1086.785
185.4315, 1104.671
185.9137, 1123.285
186.3958, 1142.475
186.8779, 1162.872
187.3600, 1183.451
187.8421, 1203.831
188.3242, 1224.791
188.8064, 1242.046
189.2885, 1244.802
189.7706, 1244.229
190.2527, 1255.893
190.7348, 1289.574
191.2169, 1332.346
191.6991, 1365.609
192.1812, 1388.110
192.6633, 1406.180
193.1454, 1419.564
193.6275, 1431.117
194.1096, 1443.349
194.5918, 1456.143
195.0739, 1471.236
195.5560, 1492.623
196.0381, 1522.071
196.5202, 1549.610
197.0023, 1570.083
197.4845, 1587.021
197.9666, 1602.090
198.4487, 1614.447
198.9308, 1628.809
199.4129, 1652.844
199.8950, 1688.707
200.3771, 1723.089
200.8593, 1752.951
201.3414, 1778.739
201.8235, 1799.204
202.3056, 1813.264
202.7877, 1826.468
203.2698, 1847.485
203.7520, 1878.615
204.2341, 1902.839
204.7162, 1913.854
205.1983, 1916.676
205.6804, 1913.447
206.1625, 1904.465
206.6447, 1891.245
207.1268, 1876.126
207.6089, 1859.518
208.0910, 1836.410
208.5731, 1805.042
209.0552, 1766.607
209.5374, 1720.283
210.0195, 1666.504
210.5016, 1609.644
210.9837, 1549.979
211.4658, 1487.016
211.9479, 1436.714
212.4301, 1413.703
212.9122, 1393.433
213.3943, 1358.489
213.8764, 1310.180
214.3585, 1264.972
214.8406, 1239.261
215.3228, 1232.134
215.8049, 1219.414
216.2870, 1193.414
216.7691, 1168.224
217.2512, 1151.335
217.7333, 1141.919
218.2155, 1135.910
218.6976, 1131.675
219.1797, 1128.956
219.6618, 1124.924
220.1439, 1116.288
220.6260, 1111.134
221.1082, 1116.540
221.5903, 1128.165
222.0724, 1136.081
222.5545, 1132.400
223.0366, 1120.484
223.5187, 1113.607
224.0009, 1113.474
224.4830, 1115.725
224.9651, 1117.985
225.4472, 1120.993
225.9293, 1126.224
226.4114, 1135.207
226.8936, 1146.166
227.3757, 1154.725
227.8578, 1160.208
228.3399, 1164.881
228.8220, 1168.777
229.3041, 1172.752
229.7863, 1177.665
230.2684, 1183.634
230.7505, 1191.131
231.2326, 1201.876
231.7147, 1217.309
232.1968, 1230.668
232.6790, 1237.022
233.1611, 1241.483
233.6432, 1248.360
234.1253, 1258.883
234.6074, 1271.107
235.0895, 1285.024
235.5717, 1301.863
236.0538, 1310.098
236.5359, 1297.779
237.0180, 1281.214
237.5001, 1273.876
237.9822, 1277.722
238.4644, 1281.688
238.9465, 1273.694
239.4286, 1254.112
239.9107, 1239.051
240.3928, 1234.997
240.8749, 1232.912
241.3571, 1226.604
241.8392, 1216.002
242.3213, 1203.035
242.8034, 1186.755
243.2855, 1168.402
243.7676, 1155.867
244.2497, 1154.911
244.7319, 1152.219
245.2140, 1136.767
245.6961, 1111.555
246.1782, 1087.001
246.6603, 1068.572
247.1424, 1054.429
247.6246, 1038.389
248.1067, 1017.096
248.5888, 1001.892
249.0709, 1007.633
249.5530, 1023.934
250.0351, 1031.480
250.5173, 1019.687
250.9994, 998.0709
251.4815, 978.7459
251.9636, 961.4446
252.4457, 948.5408
252.9278, 943.5184
253.4100, 943.3483
253.8921, 944.3433
254.3742, 947.7519
254.8563, 949.3462
255.3384, 943.1526
255.8205, 929.4709
256.3027, 918.4193
256.7848, 916.6752
257.2669, 917.8549
257.7490, 911.2262
258.2311, 893.4162
258.7133, 877.5770
259.1954, 873.2932
259.6775, 878.2086
260.1596, 883.5651
260.6417, 888.1011
261.1238, 890.3025
261.6060, 886.2037
262.0880, 875.1095
262.5702, 868.7350
263.0523, 877.3488
263.5344, 892.7366
264.0165, 898.6124
264.4986, 890.7371
264.9807, 878.9255
265.4629, 873.0422
265.9450, 872.5473
266.4271, 873.2382
266.9092, 875.5006
267.3913, 877.9354
267.8734, 877.7106
268.3556, 874.6887
268.8377, 874.4733
269.3198, 882.6059
269.8019, 898.2910
270.2840, 910.3040
270.7661, 915.3321
271.2483, 919.6093
271.7304, 927.3384
272.2125, 937.9168
272.6946, 948.3735
273.1767, 957.2430
273.6588, 964.7133
274.1410, 971.5004
274.6231, 974.5211
275.1052, 980.7559
275.5873, 995.5621
276.0694, 1014.617
276.5515, 1029.154
277.0337, 1035.339
277.5158, 1038.416
277.9979, 1049.141
278.4800, 1073.138
278.9621, 1093.193
279.4442, 1103.078
279.9264, 1110.806
280.4085, 1124.856
280.8906, 1146.791
281.3727, 1171.689
281.8548, 1193.788
282.3369, 1211.586
282.8191, 1231.890
283.3012, 1256.732
283.7833, 1282.023
284.2654, 1306.478
284.7475, 1329.457
285.2296, 1351.241
285.7118, 1372.859
286.1939, 1394.268
286.6760, 1401.959
287.1581, 1387.293
287.6402, 1369.433
288.1223, 1353.590
288.6045, 1337.959
289.0866, 1319.703
289.5687, 1297.559
290.0508, 1270.490
290.5329, 1234.901
291.0150, 1181.262
291.4972, 1132.361
291.9793, 1090.308
292.4614, 1053.333
292.9435, 1019.864
293.4256, 989.4591
293.9077, 963.0268
294.3899, 942.9124
294.8720, 931.7579
295.3541, 919.3845
295.8362, 904.9868
296.3183, 889.9105
296.8004, 873.8033
297.2826, 857.3608
297.7647, 842.7147
298.2468, 831.5215
298.7289, 823.8117
299.2110, 819.9646
299.6931, 827.0332
300.1753, 829.2265
300.6574, 816.5115
301.1395, 795.6336
301.6216, 778.9034
302.1037, 773.5043
302.5858, 775.4750
303.0680, 775.3995
303.5501, 772.6854
304.0322, 769.4714
304.5143, 764.1379
304.9964, 759.8063
305.4785, 760.6637
305.9607, 768.6025
306.4428, 777.1616
306.9249, 779.6344
307.4070, 776.0376
307.8891, 769.4720
308.3712, 756.9307
308.8534, 745.5182
309.3355, 742.5025
309.8176, 747.6894
310.2997, 753.3611
310.7818, 755.9678
311.2639, 755.9637
311.7461, 753.4436
312.2282, 747.0843
312.7103, 742.5884
313.1924, 747.5152
313.6745, 758.7944
314.1566, 766.4095
314.6388, 766.6579
315.1209, 763.5258
315.6030, 759.0323
316.0851, 753.6024
316.5672, 751.4487
317.0493, 756.2405
317.5315, 765.3316
318.0136, 770.0526
318.4957, 768.1202
318.9778, 765.7285
319.4599, 764.7983
319.9420, 765.0936
320.4242, 766.6302
320.9063, 769.5853
321.3884, 772.5264
321.8705, 773.1227
322.3526, 770.5873
322.8347, 767.5661
323.3169, 761.9341
323.7990, 757.3776
324.2811, 758.4738
324.7632, 764.6924
325.2453, 769.9083
325.7274, 767.9539
326.2096, 758.2034
326.6917, 754.4896
327.1738, 760.7910
327.6559, 767.9232
328.1380, 773.7916
328.6201, 778.2700
329.1023, 781.8589
329.5844, 784.8615
330.0665, 786.7161
330.5486, 785.0901
331.0307, 773.0590
331.5128, 769.1652
331.9950, 781.8911
332.4771, 797.9871
332.9592, 805.7495
333.4413, 803.3406
333.9234, 798.4410
334.4055, 800.2743
334.8877, 809.8555
335.3698, 819.5396
335.8519, 830.7772
336.3340, 840.4843
336.8161, 847.9452
337.2982, 852.8730
337.7804, 854.7065
338.2625, 852.2250
338.7446, 846.8410
339.2267, 843.1639
339.7088, 842.7464
340.1909, 839.7725
340.6731, 829.0091
341.1552, 815.4696
341.6373, 803.9537
342.1194, 795.1591
342.6015, 789.6664
343.0836, 789.9290
343.5658, 795.1323
344.0479, 797.7406
344.5300, 794.1357
345.0121, 789.8328
345.4942, 793.4631
345.9763, 804.7232
346.4584, 809.6229
346.9406, 797.3074
347.4227, 778.4903
347.9048, 766.6690
348.3869, 763.1159
348.8690, 766.3486
349.3511, 777.9550
349.8333, 796.2534
350.3154, 807.0930
350.7975, 806.3307
351.2796, 802.7822
351.7617, 797.4401
352.2438, 792.4774
352.7260, 793.9312
353.2081, 805.0281
353.6902, 819.5247
354.1723, 824.0750
354.6544, 807.8273
355.1365, 799.1212
355.6187, 806.5067
356.1008, 815.6292
356.5829, 813.3954
357.0650, 799.7111
357.5471, 784.9470
358.0292, 778.9175
358.5114, 782.0358
358.9935, 785.7404
359.4756, 793.6201
359.9577, 798.1859
360.4398, 796.9446
360.9219, 791.3157
361.4041, 781.7964
361.8862, 767.9971
362.3683, 755.0333
362.8504, 755.7403
363.3325, 776.6927
363.8146, 792.1330
364.2968, 793.2362
364.7789, 790.6384
365.2610, 791.1921
365.7431, 795.3196
366.2252, 798.4663
366.7073, 795.6539
367.1895, 788.3119
367.6716, 784.2618
368.1537, 785.1216
368.6358, 786.6695
369.1179, 786.3709
369.6000, 784.8130
370.0822, 782.9891
370.5643, 781.5633
371.0464, 779.5136
371.5285, 774.4851
372.0106, 767.2173
372.4927, 762.7494
372.9749, 762.8948
373.4570, 767.0776
373.9391, 776.5093
374.4212, 794.3446
374.9033, 803.8537
375.3854, 794.0593
375.8676, 777.1638
376.3497, 765.8753
376.8318, 762.2044
377.3139, 763.9249
377.7960, 770.0588
378.2781, 780.7768
378.7603, 787.7925
379.2424, 795.1279
379.7245, 795.1955
380.2066, 779.0854
380.6887, 755.4964
381.1708, 738.0687
381.6530, 732.7533
382.1351, 735.6953
382.6172, 739.7115
383.0993, 746.8798
383.5814, 750.6580
384.0635, 747.3856
384.5457, 743.9967
385.0278, 744.9840
385.5099, 750.0313
385.9920, 755.7803
386.4741, 760.1606
386.9562, 763.0171
387.4384, 763.0158
387.9205, 758.5107
388.4026, 754.2217
388.8847, 751.5949
389.3668, 750.3704
389.8489, 750.5890
390.3311, 752.5264
390.8132, 754.8428
391.2953, 756.9125
391.7774, 758.5091
392.2595, 757.2095
392.7416, 750.7704
393.2238, 744.2116
393.7059, 744.6353
394.1880, 751.1213
394.6701, 754.8456
395.1522, 750.7869
395.6343, 744.8845
396.1165, 742.9606
396.5986, 744.9210
397.0807, 747.9318
397.5628, 750.6256
398.0449, 752.8737
398.5270, 754.1620
399.0092, 753.6824
399.4913, 753.4460
399.9734, 752.6074
400.4555, 752.7434
400.9376, 757.1855
401.4197, 765.8930
401.9019, 773.2640
402.3840, 772.1644
402.8661, 760.7922
403.3482, 754.6919
403.8303, 756.5463
404.3124, 760.9929
404.7946, 770.5298
405.2767, 780.7695
405.7588, 783.6164
406.2409, 774.3373
406.7230, 761.1898
407.2051, 760.5928
407.6873, 775.1014
408.1694, 790.5573
408.6515, 808.7748
409.1336, 823.0826
409.6157, 826.9065
410.0978, 821.1389
410.5800, 814.9195
411.0621, 813.0248
411.5442, 814.2613
412.0263, 816.8224
412.5084, 820.8104
412.9905, 824.4774
413.4727, 826.7095
413.9548, 827.8586
414.4369, 829.0471
414.9190, 829.4465
415.4011, 831.2512
415.8832, 835.4692
416.3654, 841.6621
416.8475, 850.5754
417.3296, 862.3910
417.8117, 871.9286
418.2938, 871.8205
418.7759, 858.7336
419.2581, 857.1425
419.7402, 878.0731
420.2223, 897.2618
420.7044, 900.6985
421.1865, 895.8653
421.6686, 899.1998
422.1508, 919.2080
422.6329, 945.1101
423.1150, 951.2022
423.5971, 926.5435
424.0792, 911.0693
424.5613, 914.6820
425.0435, 923.5908
425.5256, 930.8767
426.0077, 936.4723
426.4898, 943.3979
426.9719, 953.0291
427.4540, 965.6837
427.9361, 984.2286
428.4182, 1010.943
428.9004, 1032.785
429.3825, 1037.353
429.8646, 1036.653
430.3467, 1051.314
430.8288, 1088.655
431.3109, 1121.255
431.7931, 1126.005
432.2752, 1119.699
432.7573, 1132.268
433.2394, 1169.228
433.7215, 1216.181
434.2036, 1261.481
434.6858, 1304.811
435.1679, 1346.141
435.6500, 1383.481
436.1321, 1421.132
436.6142, 1457.193
437.0963, 1495.656
437.5785, 1542.012
438.0606, 1598.103
438.5427, 1662.807
439.0248, 1734.702
439.5069, 1816.294
439.9890, 1897.844
440.4712, 1973.791
440.9533, 2055.657
441.4354, 2150.400
441.9175, 2254.581
442.3996, 2360.707
442.8817, 2464.701
443.3639, 2569.263
443.8460, 2678.319
444.3281, 2792.015
444.8102, 2910.775
445.2923, 3033.495
445.7744, 3163.063
446.2566, 3299.542
446.7387, 3442.173
447.2208, 3597.269
447.7029, 3770.960
448.1850, 3956.043
448.6671, 4150.315
449.1493, 4350.658
449.6314, 4541.202
450.1135, 4709.199
450.5956, 4860.899
451.0777, 5023.560
451.5598, 5232.958
452.0420, 5403.789
452.5241, 5516.837
453.0062, 5595.014
453.4883, 5664.340
453.9704, 5724.626
454.4525, 5751.644
454.9347, 5722.257
455.4168, 5637.991
455.8989, 5522.776
456.3810, 5375.483
456.8631, 5194.598
457.3452, 4963.524
457.8274, 4711.817
458.3095, 4470.539
458.7916, 4246.290
459.2737, 4025.536
459.7558, 3784.421
460.2379, 3532.500
460.7201, 3312.471
461.2022, 3135.712
461.6843, 2975.023
462.1664, 2813.184
462.6485, 2652.706
463.1306, 2501.443
463.6128, 2352.978
464.0949, 2222.274
464.5770, 2122.632
465.0591, 2045.663
465.5412, 1978.344
466.0233, 1916.666
466.5055, 1856.772
466.9876, 1792.159
467.4697, 1719.315
467.9518, 1660.193
468.4339, 1626.085
468.9160, 1591.795
469.3982, 1544.536
469.8803, 1491.691
470.3624, 1446.250
470.8445, 1413.694
471.3266, 1389.349
471.8087, 1366.985
472.2909, 1347.000
472.7730, 1325.343
473.2551, 1300.632
473.7372, 1275.193
474.2193, 1249.257
474.7014, 1223.764
475.1836, 1201.659
475.6657, 1185.265
476.1478, 1171.422
476.6299, 1156.547
477.1120, 1141.176
477.5941, 1128.844
478.0763, 1121.576
478.5584, 1115.590
479.0405, 1104.997
479.5226, 1087.801
480.0047, 1072.359
480.4868, 1057.835
480.9690, 1045.962
481.4511, 1038.144
481.9332, 1033.807
482.4153, 1032.306
482.8974, 1033.459
483.3795, 1035.547
483.8617, 1034.523
484.3438, 1029.392
484.8259, 1024.027
485.3080, 1019.461
485.7901, 1014.183
486.2722, 1005.342
486.7544, 994.7696
487.2365, 988.5089
487.7186, 992.5034
488.2007, 1000.081
488.6828, 1000.741
489.1649, 994.7318
489.6471, 988.4437
490.1292, 984.4019
490.6113, 980.6407
491.0934, 972.3655
491.5755, 957.9602
492.0576, 951.2314
492.5398, 962.1083
493.0219, 974.7449
493.5040, 977.7045
493.9861, 972.2637
494.4682, 964.1119
494.9503, 956.1191
495.4325, 948.7893
495.9146, 943.6423
496.3967, 941.5860
496.8788, 939.7622
497.3609, 936.6063
497.8430, 934.9378
498.3252, 936.8933
498.8073, 941.7175
499.2894, 947.2839
499.7715, 953.4478
500.2536, 958.4347
500.7357, 957.9334
501.2179, 951.8600
501.7000, 948.1385
502.1821, 950.5018
502.6642, 954.3217
503.1463, 952.2949
503.6284, 944.4199
504.1106, 940.7758
504.5927, 948.8231
505.0748, 956.9404
505.5569, 956.1647
506.0390, 948.2907
506.5211, 938.3244
507.0033, 928.3638
507.4854, 920.5613
507.9675, 919.7966
508.4496, 930.6570
508.9317, 937.4096
509.4138, 934.2822
509.8959, 932.8989
510.3781, 943.2015
510.8602, 958.8159
511.3423, 964.6024
511.8244, 950.7452
512.3065, 931.2642
512.7886, 928.4446
513.2708, 941.4752
513.7529, 951.7319
514.2350, 955.9380
514.7171, 954.8464
515.1992, 945.6256
515.6813, 929.8297
516.1635, 920.6144
516.6456, 926.6093
517.1277, 932.8313
517.6098, 928.4864
518.0919, 918.5257
518.5740, 912.4028
519.0562, 913.4084
519.5383, 919.5195
520.0204, 929.2334
520.5025, 944.5322
520.9846, 951.9438
521.4667, 943.4036
521.9489, 935.2837
522.4310, 931.7907
522.9131, 931.6739
523.3952, 933.7081
523.8773, 937.7908
524.3594, 940.8465
524.8416, 936.6454
525.3237, 927.9095
525.8058, 930.4432
526.2879, 949.8819
526.7700, 964.9799
527.2521, 956.1756
527.7343, 929.3928
528.2164, 915.5968
528.6985, 921.4683
529.1806, 931.0576
529.6627, 941.6451
530.1448, 952.2068
530.6270, 961.7729
531.1091, 970.0975
531.5912, 976.5689
532.0733, 979.5820
532.5554, 980.2995
533.0375, 990.0193
533.5197, 1013.872
534.0018, 1037.624
534.4839, 1060.512
534.9660, 1080.260
535.4481, 1092.295
535.9302, 1097.079
536.4124, 1105.111
536.8945, 1122.839
537.3766, 1147.998
537.8587, 1178.192
538.3408, 1213.008
538.8229, 1247.763
539.3051, 1279.266
539.7872, 1311.245
540.2693, 1351.319
540.7514, 1399.961
541.2335, 1456.383
541.7156, 1525.345
542.1978, 1598.389
542.6799, 1667.739
543.1620, 1737.026
543.6441, 1814.398
544.1262, 1903.448
544.6083, 2005.118
545.0905, 2121.611
545.5726, 2254.988
546.0547, 2390.081
546.5368, 2522.977
547.0189, 2660.914
547.5010, 2810.115
547.9832, 2967.270
548.4653, 3123.875
548.9474, 3272.284
549.4295, 3426.236
549.9116, 3588.759
550.3937, 3763.846
550.8759, 3955.552
551.3580, 4165.534
551.8401, 4398.326
552.3222, 4656.188
552.8043, 4938.858
553.2864, 5271.303
553.7686, 5669.467
554.2507, 6105.217
554.7328, 6569.159
555.2149, 7071.595
555.6970, 7620.829
556.1791, 8217.738
556.6613, 8864.421
557.1434, 9576.043
557.6255, 10334.44
558.1076, 11106.15
558.5897, 11900.10
559.0718, 12636.05
559.5540, 13326.61
560.0361, 13905.74
560.5182, 14256.69
561.0003, 14404.91
561.4824, 14307.22
561.9645, 13894.89
562.4467, 13288.02
562.9288, 12519.40
563.4109, 11631.86
563.8930, 10671.14
564.3751, 9662.068
564.8572, 8652.872
565.3394, 7729.126
565.8215, 6884.904
566.3036, 6141.109
566.7857, 5517.766
567.2678, 4976.093
567.7499, 4495.047
568.2321, 4075.064
568.7142, 3720.979
569.1963, 3443.920
569.6784, 3206.817
570.1605, 2988.880
570.6426, 2792.674
571.1248, 2623.593
571.6069, 2482.765
572.0890, 2366.591
572.5711, 2276.225
573.0532, 2205.934
573.5353, 2124.350
574.0175, 2006.189
574.4996, 1914.454
574.9817, 1870.256
575.4638, 1837.638
575.9459, 1789.479
576.4280, 1728.027
576.9102, 1672.857
577.3923, 1636.948
577.8744, 1610.761
578.3565, 1577.756
578.8386, 1538.509
579.3207, 1502.508
579.8029, 1473.274
580.2850, 1445.190
580.7671, 1409.968
581.2492, 1367.115
581.7313, 1336.922
582.2134, 1333.656
582.6956, 1326.849
583.1777, 1299.444
583.6598, 1264.948
584.1419, 1242.523
584.6240, 1235.291
585.1061, 1229.001
585.5883, 1207.317
586.0704, 1173.994
586.5525, 1154.441
587.0346, 1152.661
587.5167, 1152.342
587.9988, 1151.097
588.4810, 1145.932
588.9631, 1131.598
589.4452, 1107.446
589.9273, 1087.279
590.4094, 1077.183
590.8915, 1070.940
591.3737, 1065.857
591.8558, 1060.224
592.3379, 1048.964
592.8200, 1029.999
593.3021, 1010.917
593.7842, 1004.325
594.2664, 1013.226
594.7485, 1013.765
595.2306, 999.1411
595.7127, 985.1863
596.1948, 977.9034
596.6769, 974.0276
597.1591, 968.7224
597.6412, 960.6592
598.1233, 955.7921
598.6054, 962.1674
599.0875, 971.9193
599.5696, 971.9515
600.0518, 962.6329
600.5339, 953.3969
601.0160, 949.3475
601.4981, 947.8848
601.9802, 943.3430
602.4623, 934.2935
602.9445, 925.5788
603.4266, 914.1089
603.9087, 906.1496
604.3908, 908.0110
604.8729, 914.2640
605.3550, 915.3788
605.8372, 907.6514
606.3193, 897.7662
606.8014, 892.3715
607.2835, 890.0751
607.7656, 886.6418
608.2477, 881.5712
608.7299, 876.9047
609.2120, 874.8175
609.6941, 873.2363
610.1762, 865.3575
610.6583, 840.2272
611.1404, 827.3343
611.6226, 836.6513
612.1047, 849.8917
612.5868, 858.3566
613.0689, 861.2433
613.5510, 858.6561
614.0331, 850.0294
614.5153, 839.8040
614.9974, 834.6073
615.4795, 833.7053
615.9616, 830.8416
616.4437, 824.3549
616.9258, 819.6932
617.4080, 821.3046
