##NAMES=Behierite
##RRUFFID=R060657
##IDEAL CHEMISTRY=TaBO_4_
##LOCALITY=Mount Ibity, Antsirabe, Madagascar
##OWNER=RRUFF
##SOURCE=Michael Scott
##DESCRIPTION=Gray deformed crystal
##STATUS=The identification of this mineral is confirmed by single-crystal X-ray diffraction and chemical analysis.
##URL=rruff.info/R060657
##MEASURED CHEMISTRY=(Ta_0.84_Nb_0.16_)_Î£=1_BO_4_; B not measured but estimated by difference and charge balance
175.2517, 5002.013
175.7339, 5055.021
176.2160, 5098.722
176.6981, 5139.968
177.1802, 5185.783
177.6623, 5232.635
178.1444, 5271.318
178.6266, 5293.439
179.1087, 5314.727
179.5908, 5363.858
180.0729, 5438.521
180.5550, 5511.616
181.0371, 5551.012
181.5193, 5569.125
182.0014, 5602.178
182.4835, 5669.446
182.9656, 5754.136
183.4477, 5819.015
183.9299, 5862.039
184.4120, 5909.162
184.8941, 5994.035
185.3762, 6110.297
185.8583, 6219.335
186.3404, 6297.757
186.8226, 6357.199
187.3047, 6443.354
187.7868, 6559.090
188.2689, 6687.945
188.7510, 6810.746
189.2331, 6927.319
189.7153, 7043.688
190.1974, 7161.166
190.6795, 7279.245
191.1616, 7400.009
191.6437, 7524.338
192.1258, 7648.407
192.6080, 7763.302
193.0901, 7870.375
193.5722, 7972.969
194.0543, 8066.334
194.5364, 8151.329
195.0185, 8257.368
195.5007, 8389.777
195.9828, 8540.744
196.4649, 8691.418
196.9470, 8844.238
197.4291, 8994.861
197.9112, 9138.739
198.3934, 9275.334
198.8755, 9416.879
199.3576, 9565.691
199.8397, 9720.206
200.3218, 9879.888
200.8039, 10049.75
201.2861, 10207.22
201.7682, 10334.10
202.2503, 10428.82
202.7324, 10503.98
203.2145, 10560.43
203.6966, 10598.92
204.1788, 10627.85
204.6609, 10652.34
205.1430, 10654.77
205.6251, 10619.85
206.1072, 10547.67
206.5893, 10436.91
207.0715, 10282.40
207.5536, 10086.29
208.0357, 9869.193
208.5178, 9623.768
208.9999, 9368.476
209.4820, 9119.258
209.9642, 8874.929
210.4463, 8640.510
210.9284, 8416.610
211.4105, 8205.277
211.8926, 8002.122
212.3748, 7802.373
212.8569, 7616.040
213.3390, 7453.195
213.8211, 7315.167
214.3032, 7201.468
214.7853, 7115.613
215.2675, 7063.492
215.7496, 7014.151
216.2317, 6969.378
216.7138, 6925.930
217.1959, 6874.088
217.6780, 6802.309
218.1602, 6745.064
218.6423, 6721.310
219.1244, 6746.583
219.6065, 6756.140
220.0886, 6742.483
220.5707, 6716.166
221.0529, 6704.146
221.5350, 6709.740
222.0171, 6723.332
222.4992, 6740.838
222.9813, 6761.702
223.4634, 6787.583
223.9456, 6818.603
224.4277, 6854.841
224.9098, 6895.538
225.3919, 6945.818
225.8740, 6993.745
226.3561, 7030.603
226.8383, 7043.170
227.3204, 7075.002
227.8025, 7135.321
228.2846, 7217.640
228.7667, 7292.796
229.2488, 7357.743
229.7310, 7417.416
230.2131, 7474.783
230.6952, 7527.735
231.1773, 7581.967
231.6594, 7639.631
232.1415, 7699.744
232.6237, 7757.689
233.1058, 7819.549
233.5879, 7872.008
234.0700, 7905.217
234.5521, 7915.145
235.0342, 7913.344
235.5164, 7897.103
235.9985, 7867.485
236.4806, 7845.620
236.9627, 7841.670
237.4448, 7834.598
237.9269, 7805.337
238.4091, 7739.799
238.8912, 7678.870
239.3733, 7629.197
239.8554, 7590.724
240.3375, 7556.528
240.8196, 7537.455
241.3018, 7511.732
241.7839, 7455.723
242.2660, 7347.895
242.7481, 7250.692
243.2302, 7176.950
243.7124, 7127.584
244.1945, 7080.291
244.6766, 7036.067
245.1587, 6992.971
245.6408, 6948.232
246.1229, 6900.274
246.6051, 6853.722
247.0872, 6810.169
247.5693, 6770.033
248.0514, 6727.465
248.5335, 6680.165
249.0156, 6632.309
249.4978, 6589.380
249.9799, 6553.628
250.4620, 6518.480
250.9441, 6480.767
251.4262, 6439.132
251.9083, 6409.308
252.3905, 6401.257
252.8726, 6396.167
253.3547, 6367.327
253.8368, 6295.396
254.3189, 6238.782
254.8010, 6217.959
255.2832, 6240.045
255.7653, 6244.206
256.2474, 6224.647
256.7295, 6192.356
257.2116, 6160.803
257.6937, 6126.978
258.1758, 6100.954
258.6580, 6088.764
259.1401, 6093.243
259.6222, 6087.828
260.1043, 6067.274
260.5865, 6042.005
261.0686, 6028.367
261.5507, 6031.826
262.0328, 6033.449
262.5149, 6025.774
262.9970, 6006.443
263.4792, 5994.436
263.9613, 5989.343
264.4434, 5991.904
264.9255, 6003.843
265.4076, 6026.745
265.8897, 6054.714
266.3719, 6089.445
266.8540, 6132.889
267.3361, 6161.573
267.8182, 6170.678
268.3003, 6170.553
268.7824, 6172.906
269.2646, 6173.525
269.7467, 6191.055
270.2288, 6237.156
270.7109, 6314.569
271.1930, 6382.836
271.6751, 6439.188
272.1573, 6491.466
272.6394, 6551.521
273.1215, 6619.941
273.6036, 6693.758
274.0857, 6775.633
274.5678, 6866.375
275.0500, 6939.490
275.5321, 6986.254
276.0142, 7031.991
276.4963, 7124.922
276.9784, 7275.437
277.4605, 7409.971
277.9427, 7492.078
278.4248, 7523.073
278.9069, 7580.809
279.3890, 7670.452
279.8711, 7775.282
280.3532, 7871.664
280.8354, 7958.804
281.3175, 8047.335
281.7996, 8141.780
282.2817, 8241.793
282.7638, 8340.776
283.2459, 8441.151
283.7281, 8533.511
284.2102, 8604.409
284.6923, 8653.787
285.1744, 8691.332
285.6565, 8723.328
286.1386, 8747.720
286.6208, 8757.747
287.1029, 8758.844
287.5850, 8724.202
288.0671, 8606.997
288.5492, 8412.233
289.0313, 8203.104
289.5135, 8001.150
289.9956, 7804.866
290.4777, 7603.494
290.9598, 7394.555
291.4419, 7189.629
291.9240, 6996.210
292.4062, 6815.293
292.8883, 6658.582
293.3704, 6536.707
293.8525, 6440.853
294.3346, 6343.395
294.8167, 6244.096
295.2989, 6154.442
295.7810, 6090.255
296.2631, 6047.370
296.7452, 6008.934
297.2273, 5968.954
297.7094, 5929.636
298.1916, 5892.970
298.6737, 5859.154
299.1558, 5831.406
299.6379, 5819.429
300.1200, 5816.409
300.6021, 5805.437
301.0843, 5768.573
301.5664, 5726.574
302.0485, 5708.581
302.5306, 5714.007
303.0127, 5726.702
303.4948, 5739.376
303.9770, 5749.725
304.4591, 5753.911
304.9412, 5746.825
305.4233, 5735.567
305.9054, 5726.374
306.3875, 5719.199
306.8697, 5713.093
307.3518, 5707.996
307.8339, 5703.479
308.3160, 5698.855
308.7981, 5689.966
309.2802, 5684.535
309.7624, 5691.654
310.2445, 5709.378
310.7266, 5725.066
311.2087, 5729.313
311.6908, 5729.042
312.1729, 5731.745
312.6551, 5748.061
313.1372, 5758.186
313.6193, 5743.278
314.1014, 5709.749
314.5835, 5686.332
315.0656, 5694.387
315.5478, 5712.755
316.0299, 5724.703
316.5120, 5718.851
316.9941, 5716.099
317.4762, 5725.262
317.9583, 5743.875
318.4405, 5764.176
318.9226, 5787.267
319.4047, 5808.742
319.8868, 5826.458
320.3690, 5843.337
320.8511, 5851.317
321.3332, 5836.127
321.8153, 5809.540
322.2974, 5802.239
322.7795, 5842.800
323.2617, 5886.249
323.7438, 5912.122
324.2259, 5907.079
324.7080, 5905.092
325.1901, 5911.799
325.6722, 5923.634
326.1544, 5933.018
326.6365, 5941.919
327.1186, 5946.265
327.6007, 5941.869
328.0828, 5916.453
328.5649, 5911.919
329.0471, 5946.167
329.5292, 5995.937
330.0113, 6022.889
330.4934, 6001.142
330.9755, 5990.605
331.4576, 6011.106
331.9398, 6070.420
332.4219, 6123.643
332.9040, 6175.076
333.3861, 6217.195
333.8682, 6237.893
334.3503, 6225.275
334.8325, 6216.168
335.3146, 6216.473
335.7967, 6225.895
336.2788, 6259.257
336.7609, 6325.979
337.2430, 6402.814
337.7252, 6469.668
338.2073, 6532.915
338.6894, 6561.411
339.1715, 6542.738
339.6536, 6482.144
340.1357, 6415.729
340.6179, 6340.310
341.1000, 6267.702
341.5821, 6203.984
342.0642, 6149.994
342.5463, 6113.744
343.0284, 6099.660
343.5106, 6102.908
343.9927, 6112.794
344.4748, 6129.697
344.9569, 6146.942
345.4390, 6159.900
345.9211, 6168.803
346.4033, 6175.029
346.8854, 6178.990
347.3675, 6180.044
347.8496, 6173.437
348.3317, 6160.470
348.8138, 6152.487
349.2960, 6160.664
349.7781, 6178.853
350.2602, 6194.660
350.7423, 6206.716
351.2244, 6215.306
351.7065, 6217.760
352.1887, 6216.310
352.6708, 6218.063
353.1529, 6229.055
353.6350, 6244.408
354.1171, 6261.710
354.5992, 6282.617
355.0814, 6293.675
355.5635, 6272.776
356.0456, 6235.727
356.5277, 6210.345
357.0098, 6222.432
357.4919, 6240.844
357.9741, 6239.056
358.4562, 6215.283
358.9383, 6200.134
359.4204, 6217.840
359.9025, 6250.121
360.3846, 6276.595
360.8668, 6291.707
361.3489, 6298.753
361.8310, 6293.618
362.3131, 6277.877
362.7952, 6269.483
363.2773, 6281.163
363.7595, 6298.063
364.2416, 6309.850
364.7237, 6312.164
365.2058, 6311.995
365.6879, 6307.545
366.1700, 6300.476
366.6522, 6298.607
367.1343, 6304.169
367.6164, 6313.972
368.0985, 6327.277
368.5806, 6355.532
369.0627, 6369.578
369.5449, 6361.750
370.0270, 6340.780
370.5091, 6325.327
370.9912, 6313.466
371.4733, 6309.845
371.9554, 6317.748
372.4376, 6341.071
372.9197, 6361.490
373.4018, 6380.000
373.8839, 6394.419
374.3660, 6401.490
374.8481, 6400.228
375.3303, 6393.949
375.8124, 6379.153
376.2945, 6356.861
376.7766, 6354.765
377.2587, 6377.478
377.7408, 6408.164
378.2230, 6434.385
378.7051, 6456.227
379.1872, 6460.687
379.6693, 6437.766
380.1514, 6398.629
380.6335, 6380.058
381.1157, 6382.859
381.5978, 6387.970
382.0799, 6373.209
382.5620, 6346.481
383.0442, 6339.457
383.5263, 6362.229
384.0084, 6397.894
384.4905, 6426.920
384.9726, 6448.980
385.4547, 6462.626
385.9369, 6461.607
386.4190, 6453.753
386.9011, 6450.136
387.3832, 6452.042
387.8653, 6458.007
388.3474, 6470.444
388.8296, 6485.955
389.3117, 6497.576
389.7938, 6500.325
390.2759, 6499.137
390.7580, 6494.425
391.2401, 6485.834
391.7223, 6484.616
392.2044, 6504.912
392.6865, 6532.181
393.1686, 6551.500
393.6507, 6549.941
394.1328, 6547.358
394.6150, 6550.178
395.0971, 6558.019
395.5792, 6566.570
396.0613, 6577.606
396.5434, 6587.194
397.0255, 6593.142
397.5077, 6593.253
397.9898, 6591.912
398.4719, 6582.428
398.9540, 6571.125
399.4361, 6576.502
399.9182, 6615.363
400.4004, 6652.503
400.8825, 6674.721
401.3646, 6677.117
401.8467, 6678.649
402.3288, 6676.317
402.8109, 6675.546
403.2931, 6686.196
403.7752, 6713.687
404.2573, 6737.042
404.7394, 6746.905
405.2215, 6744.334
405.7036, 6757.487
406.1858, 6789.653
406.6679, 6827.085
407.1500, 6858.121
407.6321, 6882.757
408.1142, 6900.484
408.5963, 6907.392
409.0785, 6910.424
409.5606, 6930.207
410.0427, 6966.396
410.5248, 6999.388
411.0069, 7008.571
411.4890, 7004.209
411.9712, 7015.469
412.4533, 7048.993
412.9354, 7090.186
413.4175, 7125.662
413.8996, 7155.042
414.3817, 7176.243
414.8639, 7172.492
415.3460, 7168.500
415.8281, 7195.165
416.3102, 7255.891
416.7923, 7315.626
417.2744, 7346.650
417.7566, 7364.026
418.2387, 7385.311
418.7208, 7417.439
419.2029, 7454.138
419.6850, 7497.587
420.1671, 7545.606
420.6493, 7585.688
421.1314, 7602.994
421.6135, 7617.794
422.0956, 7642.688
422.5777, 7680.372
423.0598, 7726.575
423.5420, 7786.946
424.0241, 7855.146
424.5062, 7916.797
424.9883, 7960.511
425.4704, 8009.374
425.9525, 8072.385
426.4347, 8152.633
426.9168, 8230.493
427.3989, 8300.311
427.8810, 8374.306
428.3631, 8468.555
428.8452, 8587.345
429.3274, 8712.038
429.8095, 8837.338
430.2916, 8963.898
430.7737, 9091.324
431.2558, 9218.038
431.7379, 9350.860
432.2201, 9485.047
432.7022, 9623.180
433.1843, 9800.393
433.6664, 10023.36
434.1485, 10279.27
434.6306, 10548.47
435.1128, 10831.43
435.5949, 11131.31
436.0770, 11438.19
436.5591, 11768.67
437.0412, 12143.78
437.5233, 12567.57
438.0055, 13020.44
438.4876, 13474.18
438.9697, 13949.55
439.4518, 14473.28
439.9339, 15084.45
440.4160, 15728.76
440.8982, 16360.05
441.3803, 16982.89
441.8624, 17662.95
442.3445, 18446.46
442.8266, 19286.01
443.3088, 20151.19
443.7909, 21053.07
444.2730, 21954.67
444.7551, 22840.14
445.2372, 23721.99
445.7194, 24644.95
446.2015, 25676.99
446.6836, 26688.89
447.1657, 27648.78
447.6478, 28548.69
448.1299, 29444.62
448.6121, 30338.10
449.0942, 31219.46
449.5763, 32068.30
450.0584, 32898.78
450.5405, 33684.32
451.0226, 34456.16
451.5048, 35176.42
451.9869, 35721.55
452.4690, 36092.44
452.9511, 36287.21
453.4332, 36315.67
453.9153, 36174.95
454.3975, 35822.27
454.8796, 35244.84
455.3617, 34476.00
455.8438, 33520.86
456.3259, 32399.95
456.8080, 31162.68
457.2902, 29796.94
457.7723, 28360.83
458.2544, 26955.55
458.7365, 25571.62
459.2186, 24268.79
459.7007, 23093.44
460.1829, 22008.13
460.6650, 20954.85
461.1471, 19893.49
461.6292, 18903.51
462.1113, 18023.35
462.5934, 17244.53
463.0756, 16535.78
463.5577, 15889.87
464.0398, 15298.80
464.5219, 14758.23
465.0040, 14268.75
465.4861, 13825.72
465.9683, 13439.33
466.4504, 13096.31
466.9325, 12777.60
467.4146, 12483.03
467.8967, 12216.34
468.3788, 11986.53
468.8610, 11788.45
469.3431, 11581.51
469.8252, 11353.37
470.3073, 11138.39
470.7894, 10959.41
471.2715, 10821.44
471.7537, 10688.77
472.2358, 10560.42
472.7179, 10436.12
473.2000, 10312.29
473.6821, 10189.05
474.1642, 10079.67
474.6464, 9993.097
475.1285, 9923.354
475.6106, 9858.281
476.0927, 9797.621
476.5748, 9731.558
477.0569, 9646.487
477.5391, 9550.650
478.0212, 9456.786
478.5033, 9362.744
478.9854, 9281.084
479.4675, 9228.741
479.9496, 9198.047
480.4318, 9170.974
480.9139, 9139.416
481.3960, 9109.045
481.8781, 9084.685
482.3602, 9067.692
482.8423, 9048.027
483.3245, 9025.350
483.8066, 8997.305
484.2887, 8961.609
484.7708, 8900.424
485.2529, 8852.877
485.7350, 8825.449
486.2172, 8814.729
486.6993, 8808.656
487.1814, 8817.308
487.6635, 8815.567
488.1456, 8786.607
488.6277, 8720.624
489.1099, 8681.647
489.5920, 8675.626
490.0741, 8684.994
490.5562, 8693.186
491.0383, 8700.677
491.5204, 8689.653
492.0026, 8644.408
492.4847, 8584.752
492.9668, 8564.300
493.4489, 8581.050
493.9310, 8604.192
494.4131, 8615.004
494.8953, 8616.650
495.3774, 8614.317
495.8595, 8608.662
496.3416, 8599.035
496.8237, 8579.476
497.3058, 8556.323
497.7880, 8539.874
498.2701, 8539.408
498.7522, 8542.510
499.2343, 8540.840
499.7164, 8535.277
500.1985, 8537.098
500.6807, 8557.843
501.1628, 8581.276
501.6449, 8598.362
502.1270, 8608.345
502.6091, 8610.921
503.0912, 8598.822
503.5734, 8582.089
504.0555, 8577.633
504.5376, 8590.465
505.0197, 8606.301
505.5019, 8626.157
505.9840, 8648.395
506.4661, 8644.374
506.9482, 8607.492
507.4303, 8565.995
507.9124, 8541.289
508.3946, 8532.696
508.8767, 8531.756
509.3588, 8537.978
509.8409, 8549.873
510.3230, 8572.735
510.8051, 8601.893
511.2873, 8617.423
511.7694, 8594.601
512.2515, 8561.191
512.7336, 8553.397
513.2157, 8570.146
513.6978, 8585.599
514.1799, 8572.147
514.6620, 8555.529
515.1442, 8562.214
515.6263, 8617.005
516.1084, 8662.577
516.5905, 8678.629
517.0726, 8673.212
517.5547, 8662.067
518.0369, 8633.220
518.5190, 8613.890
519.0011, 8614.994
519.4832, 8638.200
519.9653, 8650.543
520.4474, 8644.497
520.9296, 8637.199
521.4117, 8644.136
521.8938, 8671.483
522.3759, 8683.256
522.8580, 8673.114
523.3401, 8650.613
523.8223, 8628.976
524.3044, 8608.522
524.7865, 8600.379
525.2686, 8621.673
525.7507, 8655.531
526.2328, 8652.104
526.7150, 8612.651
527.1971, 8581.133
527.6792, 8597.213
528.1613, 8641.431
528.6434, 8689.407
529.1255, 8739.396
529.6077, 8782.654
530.0898, 8805.555
530.5719, 8818.689
531.0540, 8841.783
531.5361, 8884.536
532.0182, 8935.513
532.5004, 8984.868
532.9825, 9032.368
533.4646, 9106.917
533.9467, 9236.319
534.4288, 9372.540
534.9109, 9489.729
535.3931, 9571.156
535.8752, 9669.391
536.3574, 9787.978
536.8395, 9920.360
537.3216, 10058.75
537.8037, 10202.85
538.2858, 10349.81
538.7679, 10497.60
539.2501, 10649.11
539.7322, 10815.43
540.2143, 10996.57
540.6964, 11192.78
541.1785, 11401.84
541.6606, 11627.22
542.1428, 11862.51
542.6249, 12098.89
543.1070, 12384.19
543.5891, 12763.96
544.0712, 13217.95
544.5533, 13714.38
545.0355, 14241.06
545.5176, 14807.80
545.9997, 15407.80
546.4818, 16050.16
546.9639, 16757.39
547.4460, 17552.63
547.9282, 18399.33
548.4103, 19280.96
548.8924, 20173.36
549.3745, 21166.95
549.8566, 22262.09
550.3387, 23458.11
550.8209, 24771.53
551.3030, 26234.40
551.7851, 27699.55
552.2672, 29153.79
552.7493, 30595.61
553.2314, 32009.05
553.7136, 33394.40
554.1957, 34799.18
554.6778, 36257.65
555.1599, 37760.41
555.6420, 39241.91
556.1241, 40703.80
556.6063, 42234.23
557.0884, 43898.93
557.5705, 45662.64
558.0526, 47495.52
558.5347, 49549.23
559.0168, 51434.10
559.4990, 53142.34
559.9811, 54515.28
560.4632, 55174.64
560.9453, 55079.72
561.4274, 54203.44
561.9095, 52397.38
562.3917, 49645.12
562.8738, 46583.42
563.3559, 43088.07
563.8380, 39529.84
564.3201, 36108.14
564.8022, 32813.29
565.2844, 29839.37
565.7665, 27182.87
566.2486, 24870.36
566.7307, 22933.31
567.2128, 21370.87
567.6949, 20027.20
568.1771, 18863.80
568.6592, 17862.32
569.1413, 16978.52
569.6234, 16216.14
570.1055, 15546.15
570.5876, 14976.23
571.0698, 14484.13
571.5519, 14053.40
572.0340, 13679.97
572.5161, 13354.80
572.9982, 13093.63
573.4803, 12868.28
573.9625, 12654.12
574.4446, 12449.70
574.9267, 12248.55
575.4088, 12037.01
575.8909, 11826.31
576.3730, 11656.41
576.8552, 11546.22
577.3373, 11441.43
577.8194, 11322.80
578.3015, 11191.54
578.7836, 11071.26
579.2657, 10964.65
579.7479, 10864.70
580.2300, 10760.50
580.7121, 10656.12
581.1942, 10580.28
581.6763, 10544.20
582.1584, 10512.01
582.6406, 10435.89
583.1227, 10332.90
583.6048, 10241.06
584.0869, 10184.16
584.5690, 10136.84
585.0511, 10083.70
585.5333, 10026.24
586.0154, 9972.602
586.4975, 9925.855
586.9796, 9883.359
587.4617, 9843.639
587.9438, 9806.888
588.4260, 9772.798
588.9081, 9746.628
589.3902, 9718.458
589.8723, 9677.349
590.3544, 9617.573
590.8365, 9564.891
591.3187, 9520.305
591.8008, 9486.426
592.2829, 9472.269
592.7650, 9477.095
593.2471, 9484.763
593.7292, 9493.358
594.2114, 9497.774
594.6935, 9486.947
595.1756, 9461.811
595.6577, 9431.007
596.1398, 9389.162
596.6219, 9350.694
597.1041, 9332.560
597.5862, 9343.426
598.0683, 9352.352
598.5504, 9340.812
599.0325, 9323.770
599.5146, 9318.109
599.9968, 9342.955
600.4789, 9358.604
600.9610, 9361.244
601.4431, 9352.121
601.9252, 9330.656
602.4073, 9288.343
602.8895, 9259.148
603.3716, 9264.008
603.8537, 9296.884
604.3358, 9304.392
604.8179, 9284.913
605.3000, 9257.627
605.7822, 9232.525
606.2643, 9212.513
606.7464, 9205.520
607.2285, 9215.308
607.7106, 9226.787
608.1927, 9230.280
608.6749, 9226.211
609.1570, 9215.172
609.6391, 9190.167
610.1212, 9165.568
610.6033, 9143.211
611.0854, 9124.548
611.5676, 9115.717
612.0497, 9127.132
612.5318, 9138.176
613.0139, 9144.558
613.4960, 9146.603
613.9781, 9135.247
614.4603, 9104.324
614.9424, 9074.803
615.4245, 9065.651
615.9066, 9075.815
616.3887, 9083.751
616.8708, 9086.592
617.3530, 9089.650
617.8351, 9104.583
618.3172, 9125.152
618.7993, 9135.223
619.2814, 9120.905
619.7635, 9103.011
620.2457, 9096.773
620.7278, 9100.404
621.2099, 9108.676
621.6920, 9127.834
622.1741, 9143.771
622.6563, 9149.715
623.1384, 9144.461
623.6205, 9136.866
624.1026, 9126.130
624.5847, 9114.364
625.0668, 9101.509
625.5490, 9085.072
626.0311, 9077.618
626.5132, 9079.607
626.9953, 9090.074
627.4774, 9113.869
627.9595, 9148.308
628.4417, 9170.593
628.9238, 9171.176
629.4059, 9162.138
629.8880, 9158.808
630.3701, 9159.580
630.8522, 9159.566
631.3344, 9155.147
631.8165, 9150.019
632.2986, 9141.349
632.7807, 9130.225
633.2628, 9135.935
633.7449, 9190.734
634.2271, 9242.278
634.7092, 9259.796
635.1913, 9228.726
635.6734, 9206.513
636.1555, 9193.703
636.6376, 9189.315
637.1198, 9195.525
637.6019, 9213.479
638.0840, 9224.069
638.5661, 9220.577
639.0482, 9215.377
639.5303, 9237.732
640.0125, 9279.841
640.4946, 9307.871
640.9767, 9298.594
641.4588, 9273.718
641.9409, 9248.288
642.4230, 9223.893
642.9052, 9209.269
643.3873, 9214.224
643.8694, 9225.096
644.3515, 9239.204
644.8336, 9261.024
645.3157, 9258.514
645.7979, 9206.568
646.2800, 9153.161
646.7621, 9134.159
647.2442, 9158.471
647.7263, 9186.592
648.2084, 9221.895
648.6906, 9250.717
649.1727, 9241.681
649.6548, 9201.047
650.1369, 9182.773
650.6190, 9215.934
651.1011, 9260.918
651.5833, 9251.507
652.0654, 9205.963
652.5475, 9181.625
653.0296, 9229.117
653.5117, 9288.714
653.9938, 9329.402
654.4760, 9350.002
654.9581, 9353.850
655.4402, 9328.109
655.9223, 9297.051
656.4044, 9271.797
656.8865, 9252.454
657.3687, 9238.675
657.8508, 9230.868
658.3329, 9227.901
658.8150, 9229.246
659.2971, 9234.848
659.7793, 9242.168
660.2614, 9250.588
660.7435, 9261.586
661.2256, 9276.758
661.7078, 9296.245
662.1899, 9320.834
662.6720, 9364.688
663.1541, 9400.038
663.6362, 9400.518
664.1183, 9375.157
664.6005, 9354.005
665.0826, 9346.592
665.5647, 9344.873
666.0468, 9350.278
666.5289, 9362.778
667.0110, 9359.834
667.4932, 9330.379
667.9753, 9304.231
668.4574, 9303.452
668.9395, 9329.229
669.4216, 9343.720
669.9037, 9345.078
670.3859, 9339.957
670.8680, 9333.439
