##NAMES=Behoite
##RRUFFID=R060659
##IDEAL CHEMISTRY=Be(OH)_2_
##LOCALITY=Mont St. Hilaire, Quebec, Canada
##OWNER=RRUFF
##SOURCE=Michael Scott
##DESCRIPTION=Tan colored reticulated groups
##STATUS=The identification of this mineral has been confirmed by single-crystal X-ray diffraction.
##URL=rruff.info/R060659
91.00781, 13.00228
91.48993, 12.79162
91.97205, 12.70778
92.45416, 12.80424
92.93628, 13.02451
93.41840, 13.25439
93.90051, 13.48665
94.38263, 13.70205
94.86475, 13.84071
95.34686, 13.90380
95.82898, 14.00200
96.31110, 14.20938
96.79321, 14.52465
97.27533, 14.93492
97.75745, 15.42923
98.23956, 16.01173
98.72168, 16.68720
99.20380, 17.44758
99.68591, 18.30430
100.1680, 19.28071
100.6501, 20.37843
101.1323, 21.54190
101.6144, 22.70456
102.0965, 23.84253
102.5786, 25.26705
103.0607, 27.01449
103.5428, 29.02587
104.0250, 31.23177
104.5071, 33.53576
104.9892, 36.15710
105.4713, 38.92531
105.9534, 40.73256
106.4355, 45.21385
106.9177, 54.23213
107.3998, 66.00029
107.8819, 75.13471
108.3640, 78.41499
108.8461, 81.53838
109.3282, 87.21044
109.8104, 99.41993
110.2925, 109.4770
110.7746, 115.8258
111.2567, 118.9675
111.7388, 123.1009
112.2209, 128.8898
112.7031, 135.6274
113.1852, 142.8987
113.6673, 151.1030
114.1494, 159.3226
114.6315, 167.3401
115.1136, 175.2127
115.5958, 183.0561
116.0779, 190.4940
116.5600, 198.0537
117.0421, 206.2900
117.5242, 215.6776
118.0063, 225.6714
118.4885, 236.0177
118.9706, 246.6255
119.4527, 257.9503
119.9348, 270.4363
120.4169, 283.7529
120.8990, 297.5094
121.3812, 311.3929
121.8633, 325.6114
122.3454, 340.2818
122.8275, 355.6864
123.3096, 371.1372
123.7917, 386.1134
124.2739, 400.6513
124.7560, 414.8836
125.2381, 428.9031
125.7202, 442.7310
126.2023, 456.0835
126.6844, 468.6543
127.1666, 481.2160
127.6487, 495.0651
128.1308, 510.1933
128.6129, 525.3521
129.0950, 539.2112
129.5771, 552.2771
130.0593, 566.4804
130.5414, 582.5909
131.0235, 599.9905
131.5056, 617.0051
131.9877, 631.3483
132.4698, 641.3845
132.9520, 649.4091
133.4341, 655.4337
133.9162, 657.5715
134.3983, 654.6645
134.8804, 647.2537
135.3625, 638.3746
135.8447, 627.8671
136.3268, 616.3682
136.8089, 603.9611
137.2910, 590.1736
137.7731, 577.8928
138.2552, 568.1528
138.7374, 561.1139
139.2195, 555.3923
139.7016, 551.1580
140.1837, 547.9239
140.6658, 544.7128
141.1479, 541.2379
141.6301, 538.2995
142.1122, 536.2930
142.5943, 535.4787
143.0764, 534.8022
143.5585, 534.2786
144.0406, 533.8452
144.5228, 533.2278
145.0049, 532.0940
145.4870, 531.1870
145.9691, 530.9659
146.4512, 532.0150
146.9333, 532.8089
147.4155, 533.3076
147.8976, 533.5162
148.3797, 533.3480
148.8618, 532.0427
149.3439, 530.9069
149.8260, 530.7737
150.3082, 532.7159
150.7903, 534.4520
151.2724, 535.6045
151.7545, 536.1373
152.2366, 537.1308
152.7188, 539.0225
153.2009, 541.1718
153.6830, 543.0432
154.1651, 544.3806
154.6472, 545.6253
155.1293, 546.9261
155.6115, 548.3433
156.0936, 549.3851
156.5757, 549.5778
157.0578, 549.4965
157.5399, 549.7698
158.0220, 550.8947
158.5042, 552.1163
158.9863, 553.1611
159.4684, 553.9924
159.9505, 554.8009
160.4326, 555.7489
160.9147, 556.7028
161.3969, 557.4580
161.8790, 557.5876
162.3611, 557.7650
162.8432, 558.4278
163.3253, 559.7986
163.8074, 561.1037
164.2896, 561.9425
164.7717, 562.4529
165.2538, 562.9164
165.7359, 563.2178
166.2180, 563.6376
166.7001, 564.4499
167.1823, 565.8649
167.6644, 567.2630
168.1465, 568.3315
168.6286, 569.0817
169.1107, 569.5518
169.5928, 569.4330
170.0750, 569.1822
170.5571, 569.3197
171.0392, 570.1658
171.5213, 571.0957
172.0034, 571.5416
172.4855, 571.6005
172.9677, 571.6760
173.4498, 571.8322
173.9319, 572.2173
174.4140, 573.0966
174.8961, 574.8547
175.3782, 576.7741
175.8604, 578.0882
176.3425, 578.8502
176.8246, 579.4547
177.3067, 580.1620
177.7888, 580.9366
178.2709, 581.6909
178.7531, 582.3782
179.2352, 583.0572
179.7173, 583.8309
180.1994, 584.6989
180.6815, 585.5821
181.1636, 586.5182
181.6458, 587.4326
182.1279, 588.0480
182.6100, 588.0217
183.0921, 587.7549
183.5742, 588.1047
184.0563, 589.0800
184.5385, 590.3411
185.0206, 591.7109
185.5027, 593.1339
185.9848, 594.2842
186.4669, 594.9723
186.9490, 595.3111
187.4312, 595.5383
187.9133, 595.5949
188.3954, 595.8797
188.8775, 597.0977
189.3596, 599.1298
189.8417, 600.9059
190.3239, 601.8491
190.8060, 602.1525
191.2881, 602.7321
191.7702, 603.6055
192.2523, 604.6766
192.7344, 605.9907
193.2166, 607.5464
193.6987, 608.8129
194.1808, 609.2977
194.6629, 609.1258
195.1450, 609.8624
195.6271, 611.6800
196.1093, 613.9657
196.5914, 615.8568
197.0735, 617.3272
197.5556, 618.6981
198.0377, 620.0280
198.5198, 621.3226
199.0020, 622.8729
199.4841, 624.7982
199.9662, 626.7569
200.4483, 627.9995
200.9304, 628.3248
201.4125, 629.1301
201.8947, 631.2439
202.3768, 634.7955
202.8589, 638.0050
203.3410, 640.8454
203.8231, 643.3829
204.3052, 645.6067
204.7874, 647.4369
205.2695, 649.3592
205.7516, 651.6773
206.2337, 654.4919
206.7158, 657.0568
207.1979, 659.3985
207.6801, 661.4694
208.1622, 663.0687
208.6443, 664.0836
209.1264, 665.0153
209.6085, 666.3102
210.0906, 668.3167
210.5728, 669.0208
211.0549, 668.0945
211.5370, 666.0651
212.0191, 664.1065
212.5012, 662.2386
212.9833, 660.3689
213.4655, 658.4556
213.9476, 656.4474
214.4297, 654.4970
214.9118, 652.3495
215.3939, 650.4031
215.8760, 649.7421
216.3581, 650.8813
216.8403, 652.2513
217.3224, 653.0588
217.8045, 653.0536
218.2866, 653.2559
218.7687, 653.7382
219.2508, 654.4013
219.7330, 654.9213
220.2151, 655.0716
220.6972, 655.4553
221.1793, 656.5482
221.6614, 659.0613
222.1435, 660.2950
222.6257, 659.8721
223.1078, 658.2433
223.5899, 656.5715
224.0720, 654.6765
224.5541, 653.0339
225.0362, 651.8804
225.5184, 651.4620
226.0005, 650.9908
226.4826, 650.5013
226.9647, 649.9572
227.4468, 649.2396
227.9289, 648.4259
228.4111, 647.3588
228.8932, 645.8092
229.3753, 643.0934
229.8574, 641.6095
230.3395, 641.8693
230.8216, 643.2828
231.3038, 644.2523
231.7859, 644.6223
232.2680, 644.7563
232.7501, 644.7767
233.2322, 644.5530
233.7143, 644.4732
234.1965, 644.4355
234.6786, 644.5553
235.1607, 645.2288
235.6428, 646.8917
236.1249, 648.4534
236.6070, 649.3426
237.0892, 648.9572
237.5713, 649.2668
238.0534, 650.7613
238.5355, 652.8147
239.0176, 653.7074
239.4997, 652.5253
239.9819, 651.5073
240.4640, 651.7340
240.9461, 654.0549
241.4282, 655.5760
241.9103, 655.9342
242.3924, 655.6143
242.8746, 655.7995
243.3567, 656.8156
243.8388, 657.8542
244.3209, 658.5281
244.8030, 658.4906
245.2851, 659.0653
245.7673, 660.6035
246.2494, 662.6213
246.7315, 664.0466
247.2136, 664.5997
247.6957, 665.0113
248.1778, 665.5182
248.6600, 666.0576
249.1421, 666.8927
249.6242, 668.1133
250.1063, 669.5834
250.5884, 671.1141
251.0705, 672.9964
251.5527, 674.4275
252.0348, 674.9630
252.5169, 674.2205
252.9990, 673.9566
253.4811, 674.1855
253.9632, 674.8734
254.4454, 676.0154
254.9275, 677.8551
255.4096, 679.6811
255.8917, 681.1876
256.3738, 682.2009
256.8560, 683.7219
257.3381, 686.1059
257.8202, 688.7123
258.3023, 690.4697
258.7844, 690.7760
259.2665, 691.5358
259.7487, 693.6191
260.2308, 697.3741
260.7129, 699.8271
261.1950, 700.3683
261.6771, 700.2634
262.1592, 701.2330
262.6414, 703.5394
263.1235, 706.2489
263.6056, 709.1846
264.0877, 712.4036
264.5698, 715.3459
265.0519, 717.9119
265.5341, 720.3279
266.0162, 722.8915
266.4983, 725.6263
266.9804, 728.3688
267.4625, 730.9931
267.9446, 733.4884
268.4268, 736.6813
268.9089, 740.6867
269.3910, 745.0739
269.8731, 749.3799
270.3552, 753.4485
270.8373, 757.9846
271.3195, 763.3604
271.8016, 769.4391
272.2837, 774.9423
272.7658, 779.7127
273.2479, 784.4058
273.7300, 790.2707
274.2122, 797.8320
274.6943, 803.1601
275.1764, 805.0952
275.6585, 804.1595
276.1406, 803.0265
276.6227, 801.7844
277.1049, 800.0823
277.5870, 797.4841
278.0691, 793.9123
278.5512, 790.3774
279.0333, 787.0289
279.5154, 783.8342
279.9976, 780.6985
280.4797, 777.6136
280.9618, 774.5786
281.4439, 771.8403
281.9260, 769.4167
282.4081, 765.6956
282.8903, 760.1213
283.3724, 753.5109
283.8545, 747.6207
284.3366, 742.4412
284.8187, 738.0510
285.3008, 734.8583
285.7830, 732.7270
286.2651, 730.2418
286.7472, 727.0081
287.2293, 723.8411
287.7114, 722.5309
288.1935, 723.0596
288.6757, 723.6430
289.1578, 722.8572
289.6399, 721.1129
290.1220, 720.7342
290.6041, 722.0714
291.0862, 724.0320
291.5684, 725.0937
292.0505, 725.3312
292.5326, 725.4330
293.0147, 725.8224
293.4968, 726.3414
293.9789, 726.4470
294.4611, 726.0739
294.9432, 725.6218
295.4253, 725.5917
295.9074, 725.9056
296.3895, 726.2077
296.8716, 726.2748
297.3538, 726.2546
297.8359, 726.4321
298.3180, 726.8123
298.8001, 727.3451
299.2822, 728.0447
299.7643, 728.8726
300.2465, 729.7087
300.7286, 730.3935
301.2107, 731.1406
301.6928, 732.4243
302.1749, 734.1932
302.6570, 735.8173
303.1392, 736.7238
303.6213, 737.1481
304.1034, 737.4003
304.5855, 737.1698
305.0676, 737.2877
305.5497, 739.1145
306.0319, 742.2883
306.5140, 745.0184
306.9961, 745.4150
307.4782, 744.9328
307.9603, 745.4166
308.4424, 747.7493
308.9246, 750.2403
309.4067, 751.5269
309.8888, 751.8868
310.3709, 752.1452
310.8530, 752.4396
311.3351, 752.9813
311.8173, 754.0058
312.2994, 755.6761
312.7815, 757.4752
313.2636, 758.8278
313.7457, 760.1024
314.2278, 761.9814
314.7100, 766.0739
315.1921, 769.8977
315.6742, 771.6160
316.1563, 770.6851
316.6384, 769.9777
317.1205, 770.6942
317.6027, 772.3555
318.0848, 774.3564
318.5669, 777.1978
319.0490, 779.7243
319.5311, 781.2120
320.0132, 781.5780
320.4954, 782.3398
320.9775, 783.8381
321.4596, 785.9378
321.9417, 788.5088
322.4238, 791.8512
322.9059, 795.3159
323.3881, 798.7244
323.8702, 802.0703
324.3523, 805.6625
324.8344, 809.5370
325.3165, 813.6776
325.7986, 818.1107
326.2808, 822.3203
326.7629, 827.4460
327.2450, 833.5213
327.7271, 840.5613
328.2092, 848.6224
328.6913, 857.8138
329.1735, 867.9200
329.6556, 879.1262
330.1377, 892.4248
330.6198, 904.9523
331.1019, 916.8776
331.5840, 927.9319
332.0662, 937.7994
332.5483, 946.0444
333.0304, 953.7239
333.5125, 960.5974
333.9946, 966.1607
334.4767, 974.0082
334.9589, 984.8779
335.4410, 997.1910
335.9231, 1008.906
336.4052, 1019.459
336.8873, 1030.616
337.3694, 1042.610
337.8516, 1055.405
338.3336, 1069.307
338.8158, 1084.225
339.2979, 1100.561
339.7800, 1118.841
340.2621, 1138.883
340.7442, 1161.216
341.2263, 1185.368
341.7085, 1211.846
342.1906, 1241.129
342.6727, 1273.519
343.1548, 1308.418
343.6369, 1347.158
344.1190, 1389.102
344.6012, 1429.904
345.0833, 1469.485
345.5654, 1506.358
346.0475, 1541.666
346.5296, 1574.594
347.0117, 1593.742
347.4939, 1595.141
347.9760, 1577.968
348.4581, 1535.629
348.9402, 1465.461
349.4223, 1383.061
349.9044, 1296.629
350.3866, 1209.574
350.8687, 1132.454
351.3508, 1069.029
351.8329, 1017.661
352.3150, 976.4827
352.7971, 945.2786
353.2793, 921.4607
353.7614, 904.2532
354.2435, 892.2722
354.7256, 883.2850
355.2077, 877.5619
355.6898, 873.4557
356.1720, 869.3213
356.6541, 865.4406
357.1362, 863.0006
357.6183, 863.4072
358.1004, 865.1302
358.5826, 866.9007
359.0647, 868.5990
359.5468, 870.0184
360.0289, 870.9973
360.5110, 871.6211
360.9931, 872.0554
361.4753, 872.3878
361.9574, 872.5232
362.4395, 872.2998
362.9216, 871.6149
363.4037, 871.1663
363.8858, 871.0667
364.3680, 871.3533
364.8501, 872.0700
365.3322, 873.8563
365.8143, 875.4406
366.2964, 876.4307
366.7785, 876.8478
367.2607, 877.3583
367.7428, 877.3513
368.2249, 877.9229
368.7070, 879.7675
369.1891, 883.8354
369.6712, 887.8612
370.1534, 891.2800
370.6355, 894.5982
371.1176, 899.4717
371.5997, 906.7582
372.0818, 914.4620
372.5639, 921.7154
373.0461, 928.0616
373.5282, 935.5499
374.0103, 944.4039
374.4924, 954.3018
374.9745, 964.6073
375.4566, 975.2734
375.9388, 986.6696
376.4209, 998.6176
376.9030, 1011.345
377.3851, 1025.766
377.8672, 1042.249
378.3493, 1059.859
378.8315, 1077.261
379.3136, 1094.592
379.7957, 1113.555
380.2778, 1135.001
380.7599, 1157.969
381.2420, 1180.577
381.7242, 1202.452
382.2063, 1225.471
382.6884, 1250.525
383.1705, 1277.569
383.6526, 1305.678
384.1347, 1334.631
384.6169, 1364.842
385.0990, 1396.022
385.5811, 1428.400
386.0632, 1461.381
386.5453, 1494.159
387.0274, 1527.733
387.5096, 1563.041
387.9917, 1599.933
388.4738, 1638.141
388.9559, 1675.931
389.4380, 1714.437
389.9201, 1755.605
390.4023, 1801.010
390.8844, 1847.691
391.3665, 1893.785
391.8486, 1939.790
392.3307, 1985.874
392.8128, 2033.101
393.2950, 2079.797
393.7771, 2125.714
394.2592, 2171.551
394.7413, 2214.120
395.2234, 2253.025
395.7055, 2287.518
396.1877, 2316.458
396.6698, 2342.571
397.1519, 2360.209
397.6340, 2368.082
398.1161, 2366.118
398.5982, 2354.677
399.0804, 2331.937
399.5625, 2300.853
400.0446, 2263.492
400.5267, 2219.063
401.0088, 2169.329
401.4909, 2113.808
401.9731, 2053.274
402.4552, 1991.211
402.9373, 1926.027
403.4194, 1861.890
403.9015, 1800.622
404.3836, 1742.283
404.8658, 1686.218
405.3479, 1632.653
405.8300, 1581.760
406.3121, 1533.133
406.7942, 1486.647
407.2763, 1443.124
407.7585, 1402.971
408.2406, 1365.839
408.7227, 1330.734
409.2048, 1297.691
409.6869, 1267.323
410.1690, 1240.815
410.6512, 1217.899
411.1333, 1196.026
411.6154, 1174.493
412.0975, 1154.223
412.5796, 1136.393
413.0617, 1120.865
413.5439, 1106.576
414.0260, 1092.603
414.5081, 1079.458
414.9902, 1068.286
415.4723, 1059.217
415.9544, 1050.891
416.4366, 1042.171
416.9187, 1033.571
417.4008, 1025.890
417.8829, 1019.596
418.3650, 1014.086
418.8471, 1009.100
419.3293, 1004.623
419.8114, 1000.308
420.2935, 995.6774
420.7756, 991.3918
421.2577, 988.0272
421.7398, 985.8416
422.2220, 984.1263
422.7041, 982.7486
423.1862, 981.7316
423.6683, 981.1010
424.1504, 981.0995
424.6325, 981.2410
425.1147, 981.3430
425.5968, 981.3591
426.0789, 981.7682
426.5610, 982.7249
427.0431, 983.9344
427.5252, 985.0716
428.0074, 985.7525
428.4895, 987.3018
428.9716, 990.1434
429.4537, 993.8178
429.9358, 996.8448
430.4179, 999.0908
430.9001, 1001.108
431.3822, 1002.918
431.8643, 1004.503
432.3464, 1007.060
432.8285, 1010.762
433.3106, 1014.881
433.7928, 1018.131
434.2749, 1020.727
434.7570, 1024.576
435.2391, 1030.844
435.7212, 1038.270
436.2033, 1043.911
436.6855, 1047.974
437.1676, 1053.019
437.6497, 1061.350
438.1318, 1071.684
438.6139, 1082.277
439.0960, 1093.058
439.5782, 1103.328
440.0603, 1112.680
440.5424, 1121.131
441.0245, 1128.577
441.5066, 1135.092
441.9887, 1140.590
442.4709, 1145.258
442.9530, 1149.056
443.4351, 1151.092
443.9172, 1152.157
444.3993, 1150.617
444.8814, 1145.225
445.3636, 1134.021
445.8457, 1121.300
446.3278, 1106.331
446.8099, 1090.299
447.2920, 1075.722
447.7741, 1062.185
448.2563, 1050.568
448.7384, 1041.687
449.2205, 1035.802
449.7026, 1029.707
450.1847, 1022.560
450.6668, 1016.362
451.1490, 1013.123
451.6311, 1013.334
452.1132, 1014.636
452.5953, 1016.687
453.0774, 1019.620
453.5595, 1024.287
454.0417, 1030.897
454.5238, 1037.455
455.0059, 1043.056
455.4880, 1047.713
455.9701, 1051.987
456.4522, 1055.966
456.9344, 1058.830
457.4165, 1059.752
457.8986, 1058.858
458.3807, 1056.549
458.8628, 1053.397
459.3449, 1048.376
459.8271, 1040.138
460.3092, 1028.906
460.7913, 1015.552
461.2734, 998.8837
461.7555, 981.4163
462.2376, 964.7162
462.7198, 948.9101
463.2019, 935.0897
463.6840, 924.2059
464.1661, 915.5836
464.6482, 908.4050
465.1303, 903.4130
465.6125, 898.8249
466.0946, 894.1164
466.5767, 889.3058
467.0588, 885.0746
467.5409, 881.2343
468.0230, 878.1922
468.5052, 873.6943
468.9873, 874.0239
469.4694, 873.8156
469.9515, 873.0981
470.4336, 870.3470
470.9157, 870.2220
471.3979, 869.0444
471.8800, 867.8237
472.3621, 868.0684
472.8442, 865.6129
473.3263, 865.8344
473.8084, 864.9871
474.2906, 864.6288
474.7727, 863.2118
475.2548, 862.1218
475.7369, 864.3278
476.2190, 864.4781
476.7011, 862.6025
477.1833, 863.3607
477.6654, 863.0740
478.1475, 862.7519
478.6296, 863.9026
479.1117, 862.3610
479.5938, 863.5038
480.0760, 863.5857
480.5581, 864.1643
481.0402, 863.6917
481.5223, 863.5536
482.0044, 864.4827
482.4865, 864.8328
482.9687, 864.2687
483.4508, 864.9244
483.9329, 863.4222
484.4150, 863.8279
484.8971, 865.0610
485.3792, 864.5886
485.8614, 865.3018
486.3435, 865.5740
486.8256, 863.8148
487.3077, 865.6093
487.7898, 865.8779
488.2719, 864.5796
488.7541, 866.2756
489.2362, 865.2097
489.7183, 865.1399
490.2004, 865.8218
490.6825, 865.7357
491.1646, 866.8801
491.6468, 866.8542
492.1289, 866.7307
492.6110, 867.0740
493.0931, 866.1236
493.5752, 867.5953
494.0573, 867.4254
494.5395, 868.0830
495.0216, 868.9340
495.5037, 868.3698
495.9858, 869.3196
496.4679, 867.9411
496.9500, 868.5248
497.4322, 868.9058
497.9143, 870.5437
498.3964, 869.2072
498.8785, 869.7672
499.3606, 871.1392
499.8427, 871.3934
500.3249, 872.1259
500.8070, 871.4730
501.2891, 872.1363
501.7712, 872.4465
502.2533, 874.0109
502.7354, 874.5989
503.2176, 874.0079
503.6997, 873.4296
504.1818, 875.1143
504.6639, 874.6689
505.1460, 875.3845
505.6281, 874.9166
506.1103, 875.4849
506.5924, 876.0444
507.0745, 877.1387
507.5566, 876.6422
508.0387, 878.2268
508.5208, 878.6207
509.0030, 879.3753
509.4851, 880.0982
509.9672, 879.2205
510.4493, 879.6689
510.9314, 882.0113
511.4135, 881.4845
511.8957, 881.5460
512.3778, 882.0280
512.8599, 883.4852
513.3420, 884.7382
513.8242, 885.8283
514.3063, 886.1165
514.7884, 886.2665
515.2705, 886.9620
515.7526, 888.2522
516.2347, 889.0870
516.7169, 888.3458
517.1990, 887.3832
517.6811, 887.2368
518.1632, 888.7599
518.6453, 890.1444
519.1274, 890.9697
519.6096, 891.5749
520.0917, 892.6276
520.5738, 894.6481
521.0559, 896.2157
521.5380, 896.8234
522.0201, 896.5422
522.5023, 896.6412
522.9844, 897.2347
523.4665, 897.9077
523.9486, 898.0966
524.4307, 897.8724
524.9128, 898.8915
525.3950, 901.5094
525.8771, 904.5494
526.3592, 906.5271
526.8413, 907.5924
527.3234, 908.3785
527.8055, 909.1868
528.2877, 909.7278
528.7698, 909.3396
529.2519, 908.2742
529.7340, 907.6044
530.2161, 908.0480
530.6982, 909.0463
531.1804, 910.3708
531.6625, 912.0934
532.1446, 913.4135
532.6267, 913.3218
533.1088, 913.0826
533.5909, 913.8625
534.0731, 917.6403
534.5552, 920.1843
535.0373, 920.5162
535.5194, 919.5365
536.0015, 919.5633
536.4836, 920.9960
536.9658, 922.6252
537.4479, 924.0958
537.9300, 925.3932
538.4121, 926.4618
538.8942, 927.2836
539.3763, 927.8691
539.8585, 927.8167
540.3406, 927.3749
540.8227, 928.2401
541.3048, 930.9108
541.7869, 933.8957
542.2690, 935.2126
542.7512, 935.3824
543.2333, 935.7181
543.7154, 937.0674
544.1975, 938.5541
544.6796, 939.5248
545.1617, 940.0378
545.6439, 940.2966
546.1260, 940.2590
546.6081, 940.1075
547.0902, 939.9443
547.5723, 939.7913
548.0544, 939.6082
548.5366, 939.4459
549.0187, 939.2222
549.5008, 938.8607
549.9829, 938.2765
550.4650, 937.7786
550.9471, 937.7258
551.4293, 937.6035
551.9114, 935.7927
552.3935, 931.7711
552.8756, 928.6426
553.3577, 928.0283
553.8398, 929.2657
554.3220, 929.1345
554.8041, 927.5898
555.2862, 925.9703
555.7683, 925.1995
556.2504, 925.1166
556.7325, 925.5450
557.2147, 926.5795
557.6968, 927.4571
558.1789, 927.4348
558.6610, 926.8621
559.1431, 926.2570
559.6252, 925.6395
560.1074, 925.1849
560.5895, 924.7850
561.0716, 924.5656
561.5537, 924.9567
562.0358, 927.0206
562.5179, 928.7600
563.0001, 929.3142
563.4822, 928.5356
563.9643, 928.2067
564.4464, 928.5977
564.9285, 929.0660
565.4106, 928.9982
565.8928, 928.2180
566.3749, 928.1237
566.8570, 928.8854
567.3391, 930.2316
567.8212, 932.0110
568.3033, 934.1395
568.7855, 935.8679
569.2676, 936.9231
569.7497, 937.4797
570.2318, 937.4588
570.7139, 937.0587
571.1960, 937.1537
571.6782, 938.8063
572.1603, 940.7925
572.6424, 942.1545
573.1245, 942.8063
573.6066, 943.0607
574.0887, 942.6617
574.5709, 942.1469
575.0530, 941.9257
575.5351, 941.9273
576.0172, 942.4257
576.4993, 943.5135
576.9814, 945.0577
577.4636, 946.9642
577.9457, 949.6315
578.4278, 951.5242
578.9099, 951.8737
579.3920, 951.2740
579.8741, 952.2928
580.3563, 955.0623
580.8384, 957.5693
581.3205, 958.2960
581.8026, 957.8494
582.2847, 957.7602
582.7668, 958.0638
583.2490, 959.0314
583.7311, 961.5366
584.2132, 964.5878
584.6953, 966.8165
585.1774, 967.4515
585.6595, 968.2713
586.1416, 970.5251
586.6237, 973.4697
587.1058, 976.0131
587.5880, 977.7051
588.0701, 979.1904
588.5522, 980.5471
589.0343, 981.8026
589.5164, 983.0201
589.9985, 983.9742
