##NAMES=Behoite
##RRUFFID=R060659
##IDEAL CHEMISTRY=Be(OH)_2_
##LOCALITY=Mont St. Hilaire, Quebec, Canada
##OWNER=RRUFF
##SOURCE=Michael Scott
##DESCRIPTION=Tan colored reticulated groups
##STATUS=The identification of this mineral has been confirmed by single-crystal X-ray diffraction.
##URL=rruff.info/R060659
98.12226, 228.0156
98.60438, 226.8591
99.08649, 226.1719
99.56861, 225.9121
100.0507, 226.0165
100.5328, 226.2613
101.0150, 226.2135
101.4971, 225.4023
101.9792, 223.7970
102.4613, 222.5030
102.9434, 222.1053
103.4255, 222.0653
103.9077, 222.0186
104.3898, 221.8313
104.8719, 221.6473
105.3540, 221.8054
105.8361, 222.6023
106.3182, 223.1970
106.8004, 223.2283
107.2825, 223.0203
107.7646, 222.9445
108.2467, 223.2304
108.7288, 223.8393
109.2109, 224.3295
109.6931, 224.3471
110.1752, 224.5894
110.6573, 225.3819
111.1394, 226.5856
111.6215, 227.8121
112.1037, 228.7055
112.5858, 229.2049
113.0679, 229.8202
113.5500, 230.5153
114.0321, 231.3265
114.5142, 232.3814
114.9964, 233.6977
115.4785, 234.9633
115.9606, 235.7068
116.4427, 235.9593
116.9248, 236.3259
117.4069, 237.0532
117.8891, 237.9796
118.3712, 238.8182
118.8533, 239.5937
119.3354, 240.1019
119.8175, 240.0038
120.2996, 239.3644
120.7818, 238.9231
121.2639, 239.3827
121.7460, 240.7832
122.2281, 241.9533
122.7102, 242.3287
123.1923, 242.6492
123.6745, 243.3924
124.1566, 244.6144
124.6387, 245.8939
125.1208, 246.6050
125.6029, 246.4695
126.0850, 246.3067
126.5672, 246.0937
127.0493, 245.9354
127.5314, 245.9223
128.0135, 246.0894
128.4956, 246.3994
128.9778, 246.7541
129.4599, 246.9913
129.9420, 247.4716
130.4241, 248.3842
130.9062, 249.5355
131.3883, 250.6994
131.8705, 251.7961
132.3526, 252.7581
132.8347, 253.2137
133.3168, 253.0102
133.7989, 252.5966
134.2810, 252.3235
134.7632, 252.0861
135.2453, 251.3266
135.7274, 249.5544
136.2095, 246.9231
136.6916, 244.2713
137.1737, 241.5291
137.6559, 238.8375
138.1380, 236.2807
138.6201, 233.8333
139.1022, 231.6279
139.5843, 229.8660
140.0664, 228.3635
140.5486, 226.9128
141.0307, 225.3923
141.5128, 223.8631
141.9949, 222.5069
142.4770, 221.2432
142.9591, 220.3178
143.4413, 219.5842
143.9234, 219.8082
144.4055, 219.8348
144.8876, 219.6748
145.3697, 218.7564
145.8518, 218.8275
146.3340, 218.5081
146.8161, 218.1770
147.2982, 218.3998
147.7803, 217.6143
148.2624, 217.8372
148.7445, 217.6637
149.2267, 217.6780
149.7088, 217.2995
150.1909, 217.0481
150.6730, 217.1984
151.1551, 217.1331
151.6372, 216.7264
152.1194, 216.7787
152.6015, 216.0232
153.0836, 215.9848
153.5657, 216.2583
154.0478, 215.8935
154.5300, 215.9750
155.0121, 215.8926
155.4942, 215.0498
155.9763, 215.5415
156.4584, 215.4623
156.9405, 214.7969
157.4227, 215.2561
157.9048, 214.6809
158.3869, 214.4809
158.8690, 214.5643
159.3511, 214.3612
159.8332, 214.6212
160.3154, 214.4436
160.7975, 214.2310
161.2796, 214.1951
161.7617, 213.6754
162.2438, 214.0657
162.7259, 213.8418
163.2081, 213.9297
163.6902, 214.0918
164.1723, 213.7245
164.6544, 213.9267
165.1365, 213.2570
165.6186, 213.3249
166.1008, 213.3182
166.5829, 213.7845
167.0650, 213.1367
167.5471, 213.2017
168.0292, 213.5728
168.5113, 213.5262
168.9935, 213.6605
169.4756, 213.2767
169.9577, 213.3881
170.4398, 213.3686
170.9219, 213.8210
171.4040, 213.9087
171.8862, 213.5556
172.3683, 213.2089
172.8504, 213.7125
173.3325, 213.4187
173.8146, 213.5618
174.2967, 213.2626
174.7789, 213.3535
175.2610, 213.4426
175.7431, 214.0335
176.2252, 213.9428
176.7073, 213.8359
177.1894, 214.2786
177.6716, 213.7086
178.1537, 214.1426
178.6358, 214.1758
179.1179, 214.3924
179.6000, 214.2119
180.0822, 214.1540
180.5643, 214.4935
181.0464, 214.6129
181.5285, 214.3866
182.0106, 214.6149
182.4927, 214.0310
182.9749, 214.1599
183.4570, 214.5962
183.9391, 214.3899
184.4212, 214.6254
184.9033, 214.6927
185.3854, 213.9952
185.8676, 214.6277
186.3497, 214.6850
186.8318, 214.1517
187.3139, 214.7387
187.7960, 214.2868
188.2781, 214.2058
188.7603, 214.4038
189.2424, 214.3109
189.7245, 214.6766
190.2066, 214.6005
190.6887, 214.4849
191.1708, 214.5415
191.6530, 214.1101
192.1351, 214.5842
192.6172, 214.4398
193.0993, 214.6028
193.5814, 214.8356
194.0635, 214.5346
194.5457, 214.7987
195.0278, 214.1865
195.5099, 214.3075
195.9920, 214.3496
196.4741, 214.8602
196.9562, 214.2523
197.4384, 214.3530
197.9205, 214.7553
198.4026, 214.7355
198.8847, 214.8922
199.3668, 214.5264
199.8489, 214.6514
200.3311, 214.6412
200.8132, 214.7902
201.2953, 215.1287
201.7774, 215.3818
202.2595, 215.4780
202.7417, 215.5622
203.2238, 215.5757
203.7059, 215.6010
204.1880, 215.7768
204.6701, 216.1878
205.1522, 216.7616
205.6344, 217.1698
206.1165, 217.2402
206.5986, 217.3660
207.0807, 217.6745
207.5628, 218.0937
208.0449, 218.5150
208.5271, 218.9065
209.0092, 219.2230
209.4913, 219.2621
209.9734, 218.8590
210.4555, 218.4436
210.9376, 218.2303
211.4198, 218.1340
211.9019, 217.8900
212.3840, 217.3119
212.8661, 216.5504
213.3482, 216.0281
213.8303, 215.8177
214.3125, 215.7050
214.7946, 215.6125
215.2767, 215.5342
215.7588, 215.4238
216.2409, 215.1972
216.7230, 214.9815
217.2052, 214.9908
217.6873, 215.3058
218.1694, 215.6802
218.6515, 216.0778
219.1336, 216.4839
219.6157, 216.5677
220.0979, 216.7991
220.5800, 216.8286
221.0621, 216.6673
221.5442, 215.7430
222.0263, 215.8038
222.5084, 215.4699
222.9906, 215.1198
223.4727, 214.3619
223.9548, 214.1155
224.4369, 213.9482
224.9190, 213.7689
225.4011, 213.5565
225.8833, 213.3918
226.3654, 213.4099
226.8475, 213.6668
227.3296, 213.8320
227.8117, 213.7584
228.2939, 213.6190
228.7760, 213.5130
229.2581, 213.4608
229.7402, 213.4214
230.2223, 213.3458
230.7044, 213.2352
231.1866, 213.0806
231.6687, 212.7195
232.1508, 212.4295
232.6329, 212.4858
233.1150, 212.8979
233.5971, 213.3481
234.0793, 213.3303
234.5614, 212.5134
235.0435, 212.0574
235.5256, 212.2975
236.0077, 212.6245
236.4898, 212.2460
236.9720, 212.7007
237.4541, 212.9535
237.9362, 213.0154
238.4183, 212.3144
238.9004, 212.5985
239.3825, 212.4878
239.8647, 212.3609
240.3468, 212.7837
240.8289, 212.1937
241.3110, 212.6077
241.7931, 212.6209
242.2752, 212.8176
242.7574, 212.6170
243.2395, 212.5392
243.7216, 212.8586
244.2037, 212.9581
244.6858, 212.7118
245.1679, 212.9202
245.6501, 212.3163
246.1322, 212.4251
246.6143, 212.8414
247.0964, 212.6151
247.5785, 212.8307
248.0606, 212.8780
248.5428, 212.1605
249.0249, 212.7731
249.5070, 212.8104
249.9891, 212.2571
250.4712, 212.8241
250.9533, 212.3522
251.4355, 212.2512
251.9176, 212.4292
252.3997, 212.3163
252.8818, 212.6620
253.3639, 212.5659
253.8461, 212.4304
254.3282, 212.4671
254.8103, 212.0156
255.2924, 212.4698
255.7745, 212.3053
256.2566, 212.4484
256.7387, 212.6611
257.2209, 212.3402
257.7030, 212.5018
258.1851, 212.6329
258.6672, 212.7061
259.1493, 212.7580
259.6314, 212.7935
260.1136, 212.8179
260.5957, 212.8872
261.0778, 213.0857
261.5599, 213.3325
262.0420, 213.3904
262.5241, 213.0367
263.0063, 212.7536
263.4884, 212.9934
263.9705, 213.6897
264.4526, 214.2486
264.9348, 214.3185
265.4169, 214.1208
265.8990, 214.1334
266.3811, 214.4865
266.8632, 214.7826
267.3453, 214.6389
267.8275, 214.1222
268.3096, 213.7379
268.7917, 213.6224
269.2738, 213.7968
269.7559, 214.2882
270.2380, 215.1600
270.7202, 216.0114
271.2023, 216.5673
271.6844, 216.8563
272.1665, 217.0759
272.6486, 217.2889
273.1307, 217.4193
273.6129, 217.3809
274.0950, 217.1756
274.5771, 216.9712
275.0592, 216.8750
275.5413, 216.8738
276.0234, 216.8960
276.5056, 216.9511
276.9877, 217.0003
277.4698, 217.0646
277.9519, 217.1201
278.4340, 217.0498
278.9161, 216.7611
279.3983, 216.2820
279.8804, 215.6920
280.3625, 214.8349
280.8446, 214.1342
281.3267, 213.9059
281.8088, 213.6238
282.2910, 213.4467
282.7731, 213.1101
283.2552, 212.6246
283.7373, 211.4290
284.2194, 211.2385
284.7015, 210.6990
285.1837, 210.1821
285.6658, 210.2429
286.1479, 209.3485
286.6300, 209.4777
287.1121, 209.2521
287.5942, 209.2449
288.0764, 208.5169
288.5585, 208.7743
289.0406, 208.8423
289.5227, 208.7314
290.0048, 207.8806
290.4869, 208.0049
290.9691, 207.7503
291.4512, 207.4884
291.9333, 207.7744
292.4154, 207.0751
292.8975, 207.3696
293.3796, 207.2793
293.8618, 207.3776
294.3439, 207.0947
294.8260, 206.9407
295.3081, 207.1851
295.7902, 207.2222
296.2723, 206.9285
296.7545, 207.0895
297.2366, 206.4621
297.7187, 206.5425
298.2008, 206.9333
298.6829, 206.7020
299.1650, 206.9128
299.6472, 206.9670
300.1293, 206.2793
300.6114, 206.9053
301.0935, 206.9754
301.5756, 206.4745
302.0577, 207.0815
302.5399, 206.6776
303.0220, 206.6460
303.5041, 206.8969
303.9862, 206.8708
304.4683, 207.3034
304.9504, 207.3109
305.4326, 207.2882
305.9147, 207.7011
306.3968, 207.8544
306.8789, 207.5424
307.3610, 207.8645
307.8431, 207.0805
308.3253, 207.2852
308.8074, 207.9219
309.2895, 207.6855
309.7716, 208.0657
310.2537, 208.2244
310.7358, 207.3420
311.2180, 208.2965
311.7001, 208.4704
312.1822, 207.8426
312.6643, 208.7633
313.1465, 208.2666
313.6286, 208.2889
314.1107, 208.7042
314.5928, 208.7295
315.0749, 209.3945
315.5570, 209.4621
316.0392, 209.4852
316.5213, 209.7545
317.0034, 209.3628
317.4855, 210.2250
317.9676, 210.2468
318.4497, 210.7008
318.9319, 211.2602
319.4140, 211.0960
319.8961, 211.7176
320.3782, 211.1451
320.8603, 211.5895
321.3424, 211.9351
321.8246, 212.9341
322.3067, 213.2799
322.7888, 213.7346
323.2709, 213.8436
323.7530, 214.7308
324.2351, 215.6361
324.7173, 216.2562
325.1994, 217.0529
325.6815, 218.1935
326.1636, 219.5719
326.6457, 221.0390
327.1278, 222.5039
327.6100, 224.0424
328.0921, 225.9048
328.5742, 228.3245
329.0563, 230.5657
329.5384, 232.5314
330.0205, 234.2330
330.5027, 235.6402
330.9848, 236.7517
331.4669, 237.6564
331.9490, 238.5209
332.4311, 239.4152
332.9132, 239.9617
333.3954, 239.6937
333.8775, 239.3586
334.3596, 239.3329
334.8417, 239.6479
335.3238, 240.1429
335.8059, 240.6314
336.2881, 241.1098
336.7702, 241.8902
337.2523, 243.1539
337.7344, 244.5522
338.2165, 246.0431
338.6986, 247.5400
339.1808, 248.8807
339.6629, 249.9415
340.1450, 250.7741
340.6271, 251.5279
341.1092, 252.0120
341.5913, 252.7999
342.0735, 254.2697
342.5556, 256.0703
343.0377, 257.7504
343.5198, 259.0908
344.0019, 260.4068
344.4840, 262.2646
344.9662, 264.8207
345.4483, 267.2814
345.9304, 269.5552
346.4125, 271.5522
346.8946, 273.4539
347.3767, 275.2878
347.8589, 276.0866
348.3410, 274.8206
348.8231, 271.5140
349.3052, 267.3241
349.7873, 262.1992
350.2694, 256.3269
350.7516, 249.4819
351.2337, 241.9405
351.7158, 234.9415
352.1979, 229.0759
352.6800, 224.2781
353.1621, 220.4292
353.6443, 217.6498
354.1264, 215.5759
354.6085, 214.2007
355.0906, 213.3079
355.5727, 212.6412
356.0548, 212.1969
356.5370, 211.8462
357.0191, 210.7865
357.5012, 211.1790
357.9833, 211.3697
358.4654, 211.3695
358.9475, 210.6064
359.4297, 210.8283
359.9118, 210.6555
360.3939, 210.4666
360.8760, 210.8271
361.3581, 210.1750
361.8402, 210.5269
362.3224, 210.4780
362.8045, 210.6125
363.2866, 210.3498
363.7687, 210.2098
364.2509, 210.4672
364.7330, 210.5045
365.2151, 210.1961
365.6972, 210.3423
366.1793, 210.6138
366.6614, 211.2490
367.1436, 211.7449
367.6257, 212.1129
368.1078, 212.3836
368.5899, 212.3200
369.0720, 212.3635
369.5541, 212.8186
370.0363, 213.6806
370.5184, 215.0187
371.0005, 217.1523
371.4826, 219.5169
371.9647, 220.7786
372.4468, 220.4796
372.9290, 220.3632
373.4111, 221.1168
373.8932, 222.5050
374.3753, 224.1399
374.8574, 225.9374
375.3395, 227.8454
375.8217, 229.7947
376.3038, 231.7814
376.7859, 233.8191
377.2680, 235.7401
377.7501, 237.8295
378.2322, 240.4331
378.7144, 243.5177
379.1965, 246.6813
379.6786, 249.6822
380.1607, 252.5027
380.6428, 255.1115
381.1249, 257.2617
381.6071, 259.4824
382.0892, 261.9456
382.5713, 264.6240
383.0534, 267.4935
383.5355, 270.5758
384.0176, 273.7266
384.4998, 276.6591
384.9819, 279.2231
385.4640, 281.8107
385.9461, 284.5136
386.4282, 287.1859
386.9103, 289.6446
387.3925, 291.8795
387.8746, 294.0853
388.3567, 296.4420
388.8388, 298.9710
389.3209, 301.4990
389.8030, 303.9392
390.2852, 306.4825
390.7673, 309.2924
391.2494, 312.2575
391.7315, 315.1439
392.2136, 317.8017
392.6957, 320.3140
393.1779, 322.9804
393.6600, 326.2701
394.1421, 329.0132
394.6242, 330.8122
395.1063, 332.2407
395.5884, 333.9261
396.0706, 335.9756
396.5527, 337.8071
397.0348, 338.6380
397.5169, 338.2963
397.9990, 337.6113
398.4811, 336.8336
398.9633, 335.4632
399.4454, 333.2664
399.9275, 330.2900
400.4096, 326.6412
400.8917, 322.3232
401.3738, 317.4445
401.8560, 312.4680
402.3381, 307.4436
402.8202, 302.2274
403.3023, 296.7060
403.7844, 291.0095
404.2665, 285.1553
404.7487, 279.1231
405.2308, 273.2461
405.7129, 267.8669
406.1950, 262.9394
406.6771, 258.8114
407.1592, 256.2435
407.6414, 253.8226
408.1235, 250.4070
408.6056, 246.1542
409.0877, 242.0309
409.5698, 238.6154
410.0519, 235.7326
410.5341, 232.8916
411.0162, 230.0019
411.4983, 227.5066
411.9804, 226.0408
412.4626, 225.0780
412.9447, 223.7268
413.4268, 221.5893
413.9089, 219.4720
414.3910, 218.0558
414.8731, 217.2394
415.3553, 216.5588
415.8374, 215.9038
416.3195, 215.2626
416.8016, 214.6048
417.2837, 213.9246
417.7658, 213.2960
418.2480, 212.8513
418.7301, 212.4101
419.2122, 211.6859
419.6943, 210.6660
420.1764, 209.4192
420.6585, 209.8086
421.1407, 209.9963
421.6228, 209.9930
422.1049, 209.2269
422.5870, 209.4459
423.0691, 209.2701
423.5512, 209.0781
424.0334, 209.4356
424.5155, 208.7805
424.9976, 209.1294
425.4797, 209.0775
425.9618, 209.2090
426.4439, 208.9433
426.9261, 208.8003
427.4082, 209.0546
427.8903, 209.0889
428.3724, 208.7775
428.8545, 208.9207
429.3366, 208.2517
429.8188, 208.2953
430.3009, 208.6465
430.7830, 208.3551
431.2651, 208.5056
431.7472, 208.4877
432.2293, 207.7050
432.7115, 208.2525
433.1936, 208.2247
433.6757, 208.3170
434.1578, 208.9525
434.6399, 209.7410
435.1220, 210.2980
435.6042, 210.2858
436.0863, 210.2857
436.5684, 210.6074
437.0505, 211.1946
437.5326, 211.7966
438.0147, 212.2361
438.4969, 212.5578
438.9790, 212.9178
439.4611, 213.3159
439.9432, 213.7525
440.4253, 214.2637
440.9074, 214.8017
441.3896, 215.3275
441.8717, 215.8421
442.3538, 216.3098
442.8359, 216.7416
443.3180, 217.1189
443.8001, 217.2893
444.2823, 217.1867
444.7644, 216.9414
445.2465, 216.7645
445.7286, 216.5991
446.2107, 216.0902
446.6928, 214.8997
447.1750, 213.4844
447.6571, 212.3616
448.1392, 211.5016
448.6213, 210.4564
449.1034, 208.8751
449.5855, 207.0620
450.0677, 205.9082
450.5498, 205.6597
451.0319, 205.4067
451.5140, 204.7737
451.9961, 204.0810
452.4782, 203.7134
452.9604, 203.7431
453.4425, 204.0482
453.9246, 204.5529
454.4067, 205.2986
454.8888, 205.7905
455.3709, 206.0182
455.8531, 206.0551
456.3352, 205.8162
456.8173, 205.4279
457.2994, 205.0585
457.7815, 204.7863
458.2636, 204.6299
458.7458, 204.7122
459.2279, 205.5315
459.7100, 205.5050
460.1921, 204.0507
460.6742, 202.3106
461.1564, 200.8858
461.6385, 199.7903
462.1206, 198.7732
462.6027, 197.6457
463.0848, 196.4326
463.5670, 195.2432
464.0491, 194.0122
464.5312, 192.9546
465.0133, 192.2840
465.4954, 191.7404
465.9775, 191.0497
466.4597, 190.1369
466.9418, 189.1847
467.4239, 188.2428
467.9060, 187.3596
468.3881, 186.9203
468.8702, 187.1802
469.3524, 187.5011
469.8345, 187.2568
470.3166, 186.6298
470.7987, 186.1353
471.2808, 186.0173
471.7629, 185.9972
472.2451, 185.8093
472.7272, 185.4921
473.2093, 185.2455
473.6914, 185.1676
474.1735, 185.1798
474.6556, 185.1404
475.1378, 185.0608
475.6199, 184.5371
476.1020, 184.9186
476.5841, 185.0983
477.0662, 185.0870
477.5483, 184.3130
478.0305, 184.5239
478.5126, 184.3401
478.9947, 184.1402
479.4768, 184.4898
479.9589, 183.8267
480.4410, 184.1676
480.9232, 184.1077
481.4053, 184.2312
481.8874, 183.9576
482.3695, 183.8066
482.8516, 184.0529
483.3337, 184.0793
483.8159, 183.7599
484.2980, 183.8951
484.7801, 183.2181
485.2622, 183.2538
485.7443, 183.5971
486.2264, 183.2977
486.7086, 183.4401
487.1907, 183.4143
487.6728, 182.6237
488.1549, 183.1631
488.6370, 183.1273
489.1191, 182.5009
489.6013, 182.9948
490.0834, 182.4498
490.5655, 182.2757
491.0476, 182.3806
491.5297, 182.3400
492.0118, 181.9890
492.4940, 181.5438
492.9761, 181.3249
493.4582, 181.3269
493.9403, 180.9033
494.4224, 181.2774
494.9045, 181.4497
495.3867, 181.4310
495.8688, 180.6496
496.3509, 180.8531
496.8330, 180.6619
497.3151, 180.4546
497.7972, 180.7968
498.2794, 180.1262
498.7615, 180.4597
499.2436, 180.3924
499.7257, 180.5086
500.2078, 180.2275
500.6899, 180.0691
501.1721, 180.3081
501.6542, 180.3270
502.1363, 180.0002
502.6184, 180.1280
503.1005, 179.4436
503.5826, 179.4720
504.0648, 179.8078
504.5469, 179.5009
505.0290, 179.6360
505.5111, 179.6028
505.9932, 178.8047
506.4753, 179.3368
506.9575, 179.2936
507.4396, 178.6598
507.9217, 179.1463
508.4038, 178.5939
508.8859, 178.4123
509.3680, 178.5098
509.8502, 178.3164
510.3323, 178.5816
510.8144, 178.2857
511.2965, 178.0613
511.7787, 178.4838
512.2607, 178.7045
512.7429, 178.7342
513.2250, 178.0011
513.7071, 178.2530
514.1892, 178.1102
514.6713, 177.9512
515.1534, 178.3418
515.6356, 177.7196
516.1177, 178.1015
516.5998, 178.0825
517.0819, 178.2470
517.5640, 178.0143
518.0461, 177.9043
518.5283, 178.1917
519.0104, 178.2590
519.4925, 177.9806
519.9746, 178.1567
520.4567, 177.5207
520.9388, 177.5974
521.4210, 177.9816
521.9031, 177.7231
522.3852, 177.9066
522.8673, 177.9217
523.3494, 177.1720
523.8315, 177.7525
524.3137, 177.7576
524.7958, 177.1722
525.2779, 177.7071
525.7600, 177.2030
526.2421, 177.0699
526.7242, 177.2157
527.2064, 177.0706
527.6885, 177.3842
528.1706, 177.2560
528.6527, 177.0883
529.1348, 177.0928
529.6169, 176.6092
530.0991, 177.0312
530.5812, 176.8346
531.0633, 176.9455
531.5454, 177.1262
532.0275, 176.7731
532.5096, 176.9850
532.9918, 176.3207
533.4739, 176.3896
533.9560, 176.3795
534.4381, 176.8381
534.9202, 176.1780
535.4024, 176.2265
535.8845, 176.5767
536.3666, 176.5048
536.8488, 176.6093
537.3309, 176.1914
537.8130, 176.2643
538.2951, 175.8763
538.7772, 175.6259
539.2593, 175.8280
539.7415, 176.1740
540.2236, 176.3308
540.7057, 176.2134
541.1878, 175.9919
541.6699, 175.7562
542.1520, 175.5356
542.6342, 175.5974
543.1163, 176.1077
543.5984, 176.5393
544.0805, 176.4976
544.5626, 176.1488
545.0447, 175.7663
545.5269, 175.3216
546.0090, 174.9695
546.4911, 174.8629
546.9732, 174.8960
547.4553, 174.8223
547.9374, 174.5874
548.4196, 174.4463
548.9017, 174.7083
549.3838, 175.3919
549.8659, 175.6286
550.3480, 175.0949
550.8301, 174.5862
551.3123, 174.3219
551.7944, 174.2037
552.2765, 174.1427
552.7586, 174.0965
553.2407, 173.9856
553.7228, 173.6512
554.2050, 173.0632
554.6871, 172.8280
555.1692, 173.2612
555.6513, 173.6029
556.1334, 173.5603
556.6155, 173.2863
557.0977, 172.9379
557.5798, 172.5379
558.0619, 172.2100
558.5440, 172.0744
559.0261, 172.1052
559.5082, 172.2370
559.9904, 172.4915
560.4725, 172.7066
560.9546, 172.7307
561.4367, 172.6026
561.9188, 172.5476
562.4009, 172.7008
562.8831, 172.7602
563.3652, 172.5824
563.8473, 172.2572
564.3294, 171.8640
564.8115, 171.0566
565.2936, 171.4836
565.7758, 171.7087
566.2579, 171.7430
566.7400, 171.0143
567.2221, 171.2708
567.7042, 171.1324
568.1863, 170.9779
568.6685, 171.3730
569.1506, 170.7553
569.6327, 171.1417
570.1148, 171.1273
570.5969, 171.2963
571.0790, 171.0681
571.5612, 170.9626
572.0433, 171.2544
572.5254, 171.3262
573.0075, 171.0522
573.4896, 171.2329
573.9717, 170.6014
574.4539, 170.6825
574.9360, 171.0712
575.4181, 170.8173
575.9002, 171.0052
576.3823, 171.0248
576.8644, 170.2796
577.3466, 170.8645
577.8287, 170.8742
578.3108, 170.2933
578.7929, 170.8326
579.2750, 170.3331
579.7571, 170.2044
580.2393, 170.8893
580.7214, 171.4347
581.2035, 171.3991
581.6856, 170.8612
582.1677, 170.4350
582.6498, 170.6033
583.1320, 171.2098
583.6141, 171.0276
584.0962, 172.0535
584.5783, 172.6848
585.0604, 172.9422
585.5425, 171.7339
586.0247, 172.3968
586.5068, 172.2968
586.9889, 172.1564
587.4710, 173.0560
587.9531, 172.0128
588.4352, 172.8770
588.9174, 172.9668
589.3995, 173.3974
589.8816, 173.0603
590.3637, 172.9481
590.8458, 173.5851
591.3279, 173.7928
591.8101, 173.3310
592.2922, 173.7278
592.7743, 172.5646
593.2564, 172.7527
593.7385, 173.5186
594.2206, 173.0482
594.7028, 173.4121
595.1849, 172.6911
595.6670, 173.4961
596.1491, 173.9113
596.6312, 173.9571
597.1133, 172.5420
