##NAMES=Beidellite
##RRUFFID=R070244
##IDEAL CHEMISTRY=(Na,Ca)_0.3_Al_2_(Si,Al)_4_O_10_(OH)_2_&#183;nH_2_O
##LOCALITY=Fort Sandeman, Pakistan
##OWNER=RRUFF
##SOURCE=Michael Scott
##DESCRIPTION=Matted fibrous tan crystals (mountain leather)
##STATUS=The identification of this mineral is not yet confirmed.
##URL=rruff.info/R070244
118.1267, 630.7363
118.6088, 638.6691
119.0909, 640.0024
119.5731, 662.5975
120.0552, 716.4632
120.5373, 786.3302
121.0194, 847.8435
121.5015, 894.6284
121.9836, 951.5367
122.4658, 1030.222
122.9479, 1120.334
123.4300, 1211.902
123.9121, 1300.573
124.3942, 1390.838
124.8763, 1492.293
125.3585, 1607.679
125.8406, 1733.026
126.3227, 1872.222
126.8048, 2017.454
127.2869, 2160.176
127.7690, 2294.149
128.2512, 2424.218
128.7333, 2565.317
129.2154, 2723.676
129.6975, 2886.777
130.1796, 3054.990
130.6617, 3225.433
131.1439, 3393.361
131.6260, 3556.040
132.1081, 3713.956
132.5902, 3870.813
133.0723, 4043.774
133.5544, 4197.313
134.0366, 4320.655
134.5187, 4419.296
135.0008, 4502.146
135.4829, 4573.636
135.9650, 4634.378
136.4471, 4697.163
136.9293, 4752.578
137.4114, 4818.995
137.8935, 4899.461
138.3756, 4995.282
138.8577, 5108.297
139.3398, 5239.380
139.8220, 5388.959
140.3041, 5564.043
140.7862, 5761.773
141.2683, 5980.473
141.7504, 6214.750
142.2325, 6467.059
142.7147, 6747.195
143.1968, 7068.396
143.6789, 7430.832
144.1610, 7784.689
144.6431, 8127.583
145.1252, 8463.732
145.6074, 8793.383
146.0895, 9117.472
146.5716, 9440.119
147.0537, 9764.752
147.5358, 10091.13
148.0179, 10414.76
148.5001, 10755.35
148.9822, 11078.76
149.4643, 11363.64
149.9464, 11610.17
150.4285, 11823.07
150.9106, 12006.37
151.3928, 12156.33
151.8749, 12275.81
152.3570, 12349.93
152.8391, 12402.36
153.3212, 12455.06
153.8033, 12509.58
154.2855, 12555.70
154.7676, 12577.33
155.2497, 12581.80
155.7318, 12600.50
156.2139, 12646.86
156.6960, 12705.63
157.1782, 12756.49
157.6603, 12796.05
158.1424, 12843.70
158.6245, 12917.80
159.1066, 13011.81
159.5887, 13112.88
160.0709, 13211.04
160.5530, 13316.76
161.0351, 13445.33
161.5172, 13598.67
161.9993, 13766.92
162.4814, 13952.39
162.9636, 14146.87
163.4457, 14339.48
163.9278, 14521.82
164.4099, 14700.18
164.8920, 14888.90
165.3741, 15096.10
165.8563, 15289.20
166.3384, 15440.53
166.8205, 15565.37
167.3026, 15687.33
167.7847, 15813.13
168.2668, 15943.48
168.7490, 16085.76
169.2311, 16254.07
169.7132, 16402.49
170.1953, 16499.91
170.6774, 16564.94
171.1595, 16624.20
171.6417, 16687.82
172.1238, 16754.29
172.6059, 16819.84
173.0880, 16884.11
173.5701, 16948.29
174.0522, 17022.47
174.5344, 17095.92
175.0165, 17148.02
175.4986, 17156.07
175.9807, 17144.38
176.4628, 17188.12
176.9449, 17327.51
177.4271, 17448.38
177.9092, 17496.94
178.3913, 17505.70
178.8734, 17515.00
179.3555, 17539.67
179.8376, 17582.36
180.3197, 17656.16
180.8019, 17787.37
181.2840, 17902.89
181.7661, 17968.98
182.2482, 18012.13
182.7303, 18066.90
183.2124, 18154.08
183.6946, 18257.15
184.1767, 18327.16
184.6588, 18345.77
185.1409, 18360.66
185.6230, 18377.02
186.1051, 18399.84
186.5873, 18438.57
187.0694, 18500.63
187.5515, 18572.47
188.0336, 18617.67
188.5157, 18619.32
188.9978, 18621.39
189.4800, 18621.09
189.9621, 18630.72
190.4442, 18671.24
190.9263, 18754.89
191.4084, 18854.65
191.8905, 18899.80
192.3727, 18846.31
192.8548, 18815.91
193.3369, 18838.15
193.8190, 18884.90
194.3011, 18929.19
194.7832, 18960.27
195.2654, 18986.88
195.7475, 19029.40
196.2296, 19102.93
196.7117, 19164.46
197.1938, 19195.09
197.6759, 19220.64
198.1581, 19270.64
198.6402, 19354.10
199.1223, 19443.79
199.6044, 19483.14
200.0865, 19429.89
200.5686, 19411.08
201.0508, 19463.46
201.5329, 19532.21
202.0150, 19575.70
202.4971, 19582.51
202.9792, 19568.86
203.4613, 19559.43
203.9435, 19554.51
204.4256, 19553.77
204.9077, 19559.07
205.3898, 19566.48
205.8719, 19569.56
206.3540, 19568.73
206.8362, 19574.09
207.3183, 19607.01
207.8004, 19695.78
208.2825, 19736.96
208.7646, 19697.15
209.2467, 19641.49
209.7289, 19600.73
210.2110, 19581.89
210.6931, 19579.72
211.1752, 19591.18
211.6573, 19621.96
212.1395, 19645.13
212.6216, 19655.43
213.1037, 19663.11
213.5858, 19669.55
214.0679, 19676.95
214.5500, 19689.86
215.0322, 19713.45
215.5143, 19749.14
215.9964, 19786.13
216.4785, 19827.03
216.9606, 19866.99
217.4427, 19906.95
217.9249, 19944.88
218.4070, 19975.83
218.8891, 19993.34
219.3712, 19996.67
219.8533, 20013.38
220.3354, 20069.67
220.8176, 20114.16
221.2997, 20128.52
221.7818, 20120.14
222.2639, 20104.68
222.7460, 20091.95
223.2281, 20082.07
223.7103, 20077.52
224.1924, 20081.22
224.6745, 20087.71
225.1566, 20093.03
225.6387, 20100.91
226.1208, 20119.15
226.6030, 20153.75
227.0851, 20198.41
227.5672, 20226.49
228.0493, 20229.16
228.5314, 20225.39
229.0135, 20213.66
229.4957, 20199.49
229.9778, 20190.18
230.4599, 20189.30
230.9420, 20191.58
231.4241, 20183.14
231.9062, 20155.73
232.3884, 20131.50
232.8705, 20099.70
233.3526, 20078.86
233.8347, 20092.39
234.3168, 20146.69
234.7989, 20215.78
235.2811, 20253.69
235.7632, 20247.23
236.2453, 20240.08
236.7274, 20236.07
237.2095, 20232.65
237.6916, 20224.74
238.1738, 20212.86
238.6559, 20206.23
239.1380, 20216.46
239.6201, 20245.85
240.1022, 20284.33
240.5843, 20356.19
241.0665, 20416.93
241.5486, 20436.56
242.0307, 20419.53
242.5128, 20397.76
242.9949, 20407.07
243.4770, 20452.16
243.9592, 20471.32
244.4413, 20427.96
244.9234, 20392.54
245.4055, 20395.70
245.8876, 20429.13
246.3697, 20468.80
246.8519, 20504.82
247.3340, 20534.22
247.8161, 20523.34
248.2982, 20417.28
248.7803, 20345.59
249.2624, 20374.80
249.7446, 20460.88
250.2267, 20533.16
250.7088, 20554.30
251.1909, 20537.03
251.6730, 20516.65
252.1551, 20491.86
252.6373, 20466.31
253.1194, 20428.43
253.6015, 20395.41
254.0836, 20389.00
254.5657, 20419.77
255.0478, 20469.29
255.5300, 20512.70
256.0121, 20552.50
256.4942, 20575.73
256.9763, 20562.29
257.4584, 20539.87
257.9406, 20526.48
258.4227, 20525.83
258.9048, 20534.61
259.3869, 20555.33
259.8690, 20589.09
260.3511, 20608.52
260.8333, 20597.76
261.3154, 20579.97
261.7975, 20572.93
262.2796, 20576.67
262.7617, 20579.10
263.2438, 20560.29
263.7260, 20528.13
264.2081, 20533.47
264.6902, 20603.36
265.1723, 20678.23
265.6544, 20716.33
266.1365, 20724.33
266.6187, 20721.83
267.1008, 20709.16
267.5829, 20693.84
268.0650, 20698.69
268.5471, 20734.54
269.0292, 20756.82
269.5114, 20711.96
269.9935, 20634.04
270.4756, 20581.02
270.9577, 20575.28
271.4398, 20594.39
271.9219, 20624.29
272.4041, 20665.92
272.8862, 20684.78
273.3683, 20647.82
273.8504, 20583.98
274.3325, 20551.09
274.8146, 20565.45
275.2968, 20585.96
275.7789, 20580.65
276.2610, 20556.91
276.7431, 20545.84
277.2252, 20560.58
277.7073, 20590.36
278.1895, 20620.44
278.6716, 20653.85
279.1537, 20675.45
279.6358, 20678.39
280.1179, 20666.15
280.6000, 20638.47
281.0822, 20592.07
281.5643, 20549.94
282.0464, 20544.35
282.5285, 20578.84
283.0106, 20604.57
283.4927, 20607.22
283.9749, 20604.45
284.4570, 20615.50
284.9391, 20640.64
285.4212, 20661.09
285.9033, 20657.86
286.3854, 20632.01
286.8676, 20629.41
287.3497, 20672.68
287.8318, 20715.01
288.3139, 20739.20
288.7960, 20744.62
289.2781, 20728.54
289.7603, 20685.95
290.2424, 20626.59
290.7245, 20592.87
291.2066, 20605.04
291.6887, 20615.73
292.1708, 20625.91
292.6530, 20627.96
293.1351, 20603.39
293.6172, 20546.66
294.0993, 20486.01
294.5814, 20473.80
295.0635, 20550.63
295.5457, 20600.56
296.0278, 20618.82
296.5099, 20615.80
296.9920, 20587.35
297.4741, 20539.70
297.9562, 20496.45
298.4384, 20482.71
298.9205, 20502.56
299.4026, 20524.30
299.8847, 20553.14
300.3668, 20578.64
300.8489, 20602.04
301.3310, 20619.21
301.8131, 20620.11
302.2953, 20594.73
302.7774, 20551.41
303.2595, 20534.34
303.7416, 20567.18
304.2237, 20592.21
304.7058, 20588.78
305.1880, 20576.06
305.6701, 20575.21
306.1522, 20594.21
306.6343, 20623.85
307.1164, 20652.74
307.5985, 20685.01
308.0807, 20700.61
308.5628, 20673.90
309.0449, 20644.56
309.5270, 20637.59
310.0091, 20654.57
310.4912, 20678.09
310.9734, 20695.61
311.4555, 20707.29
311.9376, 20714.10
312.4197, 20715.40
312.9018, 20712.32
313.3839, 20707.96
313.8661, 20700.65
314.3482, 20685.48
314.8303, 20655.52
315.3124, 20618.44
315.7945, 20585.88
316.2766, 20557.22
316.7588, 20537.17
317.2409, 20532.63
317.7230, 20537.53
318.2051, 20543.50
318.6872, 20555.46
319.1693, 20557.92
319.6515, 20526.48
320.1336, 20471.38
320.6157, 20439.17
321.0978, 20448.78
321.5799, 20483.43
322.0620, 20523.73
322.5442, 20574.44
323.0263, 20604.91
323.5084, 20588.35
323.9905, 20554.49
324.4726, 20541.16
324.9547, 20554.67
325.4369, 20583.41
325.9190, 20623.67
326.4011, 20677.47
326.8832, 20691.89
327.3653, 20627.68
327.8474, 20561.72
328.3296, 20534.04
328.8117, 20540.76
329.2938, 20565.88
329.7759, 20602.72
330.2580, 20646.08
330.7401, 20671.11
331.2223, 20662.67
331.7044, 20654.61
332.1865, 20654.30
332.6686, 20654.27
333.1507, 20647.18
333.6328, 20630.60
334.1150, 20605.13
334.5971, 20567.21
335.0792, 20499.35
335.5613, 20468.74
336.0434, 20505.67
336.5255, 20548.43
337.0077, 20567.17
337.4898, 20562.98
337.9719, 20552.45
338.4540, 20550.45
338.9361, 20554.09
339.4182, 20534.21
339.9004, 20462.24
340.3825, 20409.88
340.8646, 20407.89
341.3467, 20431.36
341.8288, 20449.37
342.3109, 20450.11
342.7931, 20442.78
343.2752, 20439.67
343.7573, 20440.81
344.2394, 20446.84
344.7215, 20468.46
345.2036, 20486.21
345.6858, 20480.63
346.1679, 20451.54
346.6500, 20423.90
347.1321, 20413.17
347.6142, 20415.89
348.0963, 20424.16
348.5785, 20439.14
349.0606, 20453.66
349.5427, 20457.34
350.0248, 20455.43
350.5069, 20464.55
350.9890, 20515.96
351.4712, 20557.00
351.9533, 20523.70
352.4354, 20432.70
352.9175, 20376.46
353.3996, 20409.01
353.8817, 20490.96
354.3639, 20515.94
354.8460, 20462.23
355.3281, 20411.61
355.8102, 20373.78
356.2923, 20352.22
356.7744, 20361.07
357.2566, 20400.78
357.7387, 20440.88
358.2208, 20445.88
358.7029, 20407.68
359.1850, 20378.06
359.6671, 20358.88
360.1493, 20345.06
360.6314, 20334.35
361.1135, 20327.24
361.5956, 20327.10
362.0777, 20336.95
362.5598, 20351.62
363.0420, 20351.00
363.5241, 20318.20
364.0062, 20297.39
364.4883, 20308.69
364.9704, 20323.52
365.4525, 20315.40
365.9347, 20279.89
366.4168, 20235.74
366.8989, 20198.71
367.3810, 20167.62
367.8631, 20160.16
368.3452, 20194.32
368.8274, 20232.48
369.3095, 20255.05
369.7916, 20266.62
370.2737, 20278.73
370.7558, 20297.44
371.2379, 20319.28
371.7201, 20343.04
372.2022, 20370.74
372.6843, 20379.40
373.1664, 20342.95
373.6485, 20291.60
374.1306, 20274.64
374.6128, 20304.32
375.0949, 20329.48
375.5770, 20318.08
376.0591, 20284.33
376.5412, 20255.26
377.0233, 20236.23
377.5055, 20223.21
377.9876, 20213.02
378.4697, 20206.05
378.9518, 20198.95
379.4339, 20183.54
379.9160, 20175.32
380.3982, 20194.45
380.8803, 20229.56
381.3624, 20246.74
381.8445, 20225.83
382.3266, 20181.11
382.8087, 20155.62
383.2909, 20169.40
383.7730, 20177.53
384.2551, 20179.87
384.7372, 20175.74
385.2193, 20160.45
385.7014, 20135.72
386.1836, 20112.50
386.6657, 20101.48
387.1478, 20102.82
387.6299, 20115.06
388.1120, 20166.11
388.5941, 20194.56
389.0763, 20154.64
389.5584, 20085.97
390.0405, 20055.28
390.5226, 20098.22
391.0047, 20168.97
391.4868, 20195.55
391.9690, 20174.24
392.4511, 20140.91
392.9332, 20084.41
393.4153, 20038.73
393.8974, 20042.84
394.3795, 20096.31
394.8617, 20144.77
395.3438, 20155.56
395.8259, 20146.45
396.3080, 20147.38
396.7901, 20161.35
397.2722, 20177.48
397.7544, 20193.37
398.2365, 20204.53
398.7186, 20193.51
399.2007, 20138.81
399.6828, 20086.71
400.1649, 20060.76
400.6471, 20047.93
401.1292, 20021.22
401.6113, 19971.47
402.0934, 19922.71
402.5755, 19912.38
403.0576, 19959.49
403.5398, 19987.99
404.0219, 19988.05
404.5040, 19981.65
404.9861, 19984.17
405.4682, 19989.93
405.9503, 19981.53
406.4325, 19946.24
406.9146, 19892.58
407.3967, 19849.58
407.8788, 19814.12
408.3609, 19796.90
408.8430, 19813.26
409.3252, 19838.18
409.8073, 19854.20
410.2894, 19858.10
410.7715, 19853.55
411.2536, 19839.46
411.7357, 19818.33
412.2179, 19803.75
412.7000, 19797.83
413.1821, 19795.55
413.6642, 19788.15
414.1463, 19782.30
414.6284, 19795.66
415.1106, 19859.17
415.5927, 19908.97
416.0748, 19879.96
416.5569, 19796.90
417.0390, 19737.38
417.5211, 19729.35
418.0033, 19749.14
418.4854, 19763.93
418.9675, 19773.56
419.4496, 19777.35
419.9317, 19763.96
420.4138, 19753.95
420.8960, 19776.07
421.3781, 19816.39
421.8602, 19826.83
422.3423, 19772.49
422.8244, 19672.33
423.3065, 19607.96
423.7887, 19589.86
424.2708, 19594.30
424.7529, 19649.58
425.2350, 19703.60
425.7171, 19703.96
426.1992, 19648.88
426.6814, 19589.80
427.1635, 19576.99
427.6456, 19606.73
428.1277, 19638.00
428.6098, 19676.34
429.0919, 19705.22
429.5741, 19717.06
430.0562, 19714.33
430.5383, 19696.51
431.0204, 19655.73
431.5025, 19616.63
431.9846, 19607.27
432.4668, 19617.84
432.9489, 19609.42
433.4310, 19567.37
433.9131, 19519.69
434.3952, 19497.33
434.8773, 19502.04
435.3595, 19522.97
435.8416, 19597.75
436.3237, 19654.35
436.8058, 19630.21
437.2879, 19551.22
437.7701, 19486.79
438.2522, 19472.96
438.7343, 19492.05
439.2164, 19499.39
439.6985, 19485.54
440.1806, 19476.54
440.6628, 19478.59
441.1449, 19480.38
441.6270, 19471.68
442.1091, 19454.97
442.5912, 19441.39
443.0733, 19438.13
443.5555, 19445.08
444.0376, 19466.95
444.5197, 19515.48
445.0018, 19545.95
445.4839, 19527.42
445.9660, 19489.06
446.4482, 19457.40
446.9303, 19436.31
447.4124, 19417.71
447.8945, 19391.60
448.3766, 19365.50
448.8587, 19358.59
449.3409, 19374.56
449.8230, 19393.74
450.3051, 19402.48
450.7872, 19400.75
451.2693, 19392.84
451.7514, 19371.19
452.2336, 19352.65
452.7157, 19348.15
453.1978, 19348.18
453.6799, 19336.42
454.1620, 19309.13
454.6441, 19281.45
455.1263, 19276.32
455.6084, 19302.29
456.0905, 19302.51
456.5726, 19242.59
457.0547, 19191.45
457.5368, 19170.14
458.0190, 19171.44
458.5011, 19185.33
458.9832, 19210.19
459.4653, 19233.68
459.9474, 19238.38
460.4295, 19224.14
460.9117, 19197.89
461.3938, 19148.02
461.8759, 19104.28
462.3580, 19096.90
462.8401, 19119.89
463.3222, 19143.81
463.8044, 19164.43
464.2865, 19179.83
464.7686, 19190.29
465.2507, 19194.47
465.7328, 19184.95
466.2149, 19156.49
466.6971, 19119.81
467.1792, 19096.22
467.6613, 19092.51
468.1434, 19088.49
468.6255, 19084.74
469.1076, 19080.19
469.5898, 19071.35
470.0719, 19060.93
470.5540, 19057.32
471.0361, 19067.21
471.5182, 19083.62
472.0003, 19083.63
472.4825, 19057.45
472.9646, 19041.60
473.4467, 19064.54
473.9288, 19085.27
474.4109, 19069.62
474.8930, 19020.21
475.3752, 18976.91
475.8573, 18966.68
476.3394, 18975.47
476.8215, 18981.82
477.3036, 18985.20
477.7857, 18984.33
478.2679, 18979.71
478.7500, 18969.45
479.2321, 18946.19
479.7142, 18901.43
480.1963, 18867.10
480.6784, 18858.72
481.1606, 18857.04
481.6427, 18838.62
482.1248, 18806.53
482.6069, 18788.10
483.0890, 18806.82
483.5711, 18852.84
484.0533, 18871.55
484.5354, 18852.24
485.0175, 18821.38
485.4996, 18762.95
485.9817, 18709.82
486.4638, 18691.51
486.9460, 18709.09
487.4281, 18738.33
487.9102, 18767.56
488.3923, 18793.58
488.8744, 18806.11
489.3565, 18804.21
489.8387, 18792.93
490.3208, 18767.44
490.8029, 18737.89
491.2850, 18726.13
491.7671, 18739.26
492.2492, 18749.20
492.7314, 18746.04
493.2135, 18735.02
493.6956, 18721.53
494.1777, 18706.30
494.6598, 18687.08
495.1419, 18661.04
495.6241, 18630.32
496.1062, 18607.96
496.5883, 18591.29
497.0704, 18588.13
497.5525, 18614.57
498.0346, 18643.58
498.5168, 18654.43
498.9989, 18644.20
499.4810, 18620.16
499.9631, 18579.01
500.4452, 18529.14
500.9273, 18507.55
501.4095, 18521.85
501.8916, 18532.45
502.3737, 18523.06
502.8558, 18498.92
503.3379, 18464.48
503.8200, 18412.60
504.3022, 18381.75
504.7843, 18410.35
505.2664, 18453.92
505.7485, 18452.80
506.2306, 18408.73
506.7127, 18372.17
507.1949, 18378.45
507.6770, 18416.69
508.1591, 18439.29
508.6412, 18434.19
509.1233, 18430.46
509.6054, 18427.29
510.0876, 18427.77
510.5697, 18446.29
511.0518, 18474.29
511.5339, 18475.06
512.0161, 18403.45
512.4982, 18297.74
512.9803, 18274.41
513.4624, 18349.52
513.9445, 18410.80
514.4266, 18416.93
514.9088, 18391.77
515.3909, 18367.02
515.8730, 18343.03
516.3551, 18314.93
516.8372, 18265.86
517.3193, 18223.24
517.8015, 18219.29
518.2836, 18247.02
518.7657, 18272.96
519.2478, 18279.03
519.7299, 18273.95
520.2120, 18279.05
520.6942, 18304.08
521.1763, 18320.62
521.6584, 18343.10
522.1405, 18345.05
522.6226, 18294.71
523.1047, 18212.00
523.5869, 18148.17
524.0690, 18133.48
524.5511, 18142.72
525.0332, 18132.74
525.5153, 18103.74
525.9974, 18087.21
526.4796, 18091.45
526.9617, 18109.15
527.4438, 18144.58
527.9259, 18193.94
528.4080, 18213.64
528.8901, 18166.15
529.3723, 18118.43
529.8544, 18117.59
530.3365, 18143.72
530.8186, 18151.78
531.3007, 18127.16
531.7828, 18101.46
532.2650, 18126.72
532.7471, 18221.23
533.2292, 18252.07
533.7113, 18154.10
534.1934, 18065.42
534.6755, 18026.09
535.1577, 18021.48
535.6398, 18035.59
536.1219, 18066.26
536.6040, 18092.29
537.0861, 18089.25
537.5682, 18065.55
538.0504, 18050.77
538.5325, 18050.31
539.0146, 18043.71
539.4967, 18014.38
539.9788, 17967.04
540.4609, 17926.30
540.9431, 17883.07
541.4252, 17857.31
541.9073, 17857.56
542.3894, 17874.10
542.8715, 17909.59
543.3536, 17955.93
543.8358, 17984.03
544.3179, 17967.86
544.8000, 17917.68
545.2821, 17875.59
545.7642, 17837.37
546.2463, 17819.14
546.7285, 17843.27
547.2106, 17875.94
547.6926, 17894.31
548.1747, 17897.38
548.6569, 17889.64
549.1390, 17868.58
549.6211, 17840.77
550.1032, 17810.74
550.5853, 17779.77
551.0674, 17750.28
551.5496, 17721.42
552.0317, 17703.28
552.5138, 17716.00
552.9959, 17779.25
553.4780, 17806.12
553.9601, 17764.63
554.4423, 17726.49
554.9244, 17733.76
555.4065, 17759.24
555.8886, 17749.95
556.3707, 17685.08
556.8528, 17619.98
557.3350, 17634.19
557.8171, 17715.84
558.2992, 17763.71
558.7813, 17758.87
559.2634, 17752.33
559.7455, 17792.78
560.2277, 17854.36
560.7098, 17854.56
561.1919, 17744.36
561.6740, 17657.70
562.1561, 17663.96
562.6382, 17697.68
563.1204, 17677.99
563.6025, 17607.44
564.0846, 17555.60
564.5667, 17577.52
565.0488, 17649.45
565.5309, 17676.27
566.0131, 17641.68
566.4952, 17603.17
566.9773, 17558.61
567.4594, 17522.74
567.9415, 17506.64
568.4236, 17508.43
568.9058, 17517.48
569.3879, 17533.57
569.8700, 17551.23
570.3521, 17571.79
570.8342, 17590.16
571.3163, 17586.52
571.7985, 17553.72
572.2806, 17507.49
572.7627, 17465.37
573.2448, 17426.97
573.7269, 17395.32
574.2090, 17362.36
574.6912, 17344.93
575.1733, 17368.26
575.6554, 17398.35
576.1375, 17388.12
576.6196, 17331.24
577.1017, 17279.19
577.5839, 17288.08
578.0660, 17339.02
578.5481, 17368.38
579.0302, 17373.57
579.5123, 17371.91
579.9944, 17371.57
580.4766, 17368.54
580.9587, 17351.74
581.4408, 17315.28
581.9229, 17291.46
582.4050, 17288.62
582.8871, 17296.37
583.3693, 17321.72
583.8514, 17350.45
584.3335, 17348.58
584.8156, 17300.12
585.2977, 17240.34
585.7798, 17231.49
586.2620, 17279.68
586.7441, 17307.01
587.2262, 17304.04
587.7083, 17289.55
588.1904, 17266.57
588.6725, 17241.19
589.1547, 17225.19
589.6368, 17225.40
590.1189, 17220.73
590.6010, 17202.19
591.0831, 17172.38
591.5652, 17123.01
592.0474, 17061.14
592.5295, 17024.45
593.0116, 17041.63
593.4937, 17091.47
593.9758, 17105.01
594.4579, 17055.99
594.9401, 17033.00
595.4222, 17071.47
595.9043, 17112.12
596.3864, 17123.19
596.8685, 17112.86
597.3506, 17106.09
597.8328, 17116.52
598.3149, 17124.59
598.7970, 17106.41
599.2791, 17072.55
599.7612, 17052.40
600.2433, 17051.57
600.7255, 17051.53
601.2076, 17034.34
601.6897, 17004.06
602.1718, 16994.30
602.6539, 17041.18
603.1360, 17058.70
603.6182, 17008.56
604.1003, 16952.39
604.5824, 16946.24
605.0645, 16980.56
605.5466, 16997.90
606.0287, 16955.30
606.5109, 16891.51
606.9930, 16865.34
607.4751, 16872.84
607.9572, 16884.16
608.4393, 16893.21
608.9214, 16899.79
609.4036, 16905.23
609.8857, 16909.49
610.3678, 16900.58
610.8499, 16874.07
611.3320, 16841.54
611.8141, 16789.85
612.2963, 16743.24
612.7784, 16732.24
613.2605, 16755.36
613.7426, 16782.22
614.2247, 16792.91
614.7068, 16788.66
615.1890, 16763.99
615.6711, 16717.04
616.1532, 16695.86
616.6353, 16726.51
