##NAMES=Bellingerite
##RRUFFID=R050607
##IDEAL CHEMISTRY=Cu^2+^_3_(I^5+^O_3_)_6_&#183;2H_2_O
##LOCALITY=Chuquicamata, Chile
##OWNER=RRUFF
##SOURCE=University of Arizona Mineral Museum
##DESCRIPTION=Bluish green prismatic crystals
##STATUS=The identification of this mineral has been confirmed by single-crystal X-ray diffraction.
##URL=rruff.info/R050607
91.11523, 90.60503
91.59735, 90.29758
92.07947, 90.53866
92.56158, 91.17585
93.04370, 91.73051
93.52582, 91.88892
94.00793, 91.77592
94.49006, 91.50303
94.97218, 90.89497
95.45429, 90.56181
95.93641, 91.33596
96.41853, 93.21564
96.90064, 96.13682
97.38276, 101.4677
97.86488, 108.7316
98.34699, 112.5110
98.82911, 111.1838
99.31123, 106.1786
99.79334, 101.9248
100.2755, 98.47041
100.7576, 95.73039
101.2397, 93.47256
101.7218, 91.45179
102.2039, 91.13168
102.6861, 93.49769
103.1682, 98.52396
103.6503, 100.9461
104.1324, 98.57777
104.6145, 96.03885
105.0966, 99.53632
105.5788, 113.3529
106.0609, 125.7499
106.5430, 133.2407
107.0251, 134.1311
107.5072, 136.4053
107.9893, 140.8393
108.4715, 146.4847
108.9536, 151.5910
109.4357, 152.5576
109.9178, 156.2587
110.3999, 165.2757
110.8820, 183.6015
111.3642, 200.5239
111.8463, 213.2092
112.3284, 223.9742
112.8105, 239.2830
113.2926, 258.8366
113.7747, 284.1478
114.2569, 315.7894
114.7390, 355.7661
115.2211, 400.0698
115.7032, 444.0922
116.1853, 489.9210
116.6674, 547.8846
117.1496, 628.7899
117.6317, 720.8212
118.1138, 813.4103
118.5959, 894.6916
119.0780, 984.0977
119.5602, 1089.358
120.0423, 1211.318
120.5244, 1347.015
121.0065, 1503.322
121.4886, 1670.755
121.9707, 1837.516
122.4529, 2006.016
122.9350, 2165.706
123.4171, 2315.564
123.8992, 2457.537
124.3813, 2563.523
124.8634, 2594.490
125.3456, 2570.568
125.8277, 2537.313
126.3098, 2499.154
126.7919, 2470.925
127.2740, 2473.100
127.7561, 2506.753
128.2383, 2573.181
128.7204, 2674.049
129.2025, 2809.146
129.6846, 2977.344
130.1667, 3182.750
130.6488, 3419.479
131.1310, 3685.322
131.6131, 3984.910
132.0952, 4304.237
132.5773, 4631.394
133.0594, 4968.260
133.5415, 5278.048
134.0237, 5563.913
134.5058, 5821.291
134.9879, 5960.952
135.4700, 5951.758
135.9521, 5827.639
136.4343, 5671.835
136.9164, 5469.961
137.3985, 5293.885
137.8806, 5194.895
138.3627, 5173.651
138.8448, 5229.339
139.3270, 5369.631
139.8091, 5590.692
140.2912, 5848.983
140.7733, 6151.732
141.2554, 6483.116
141.7375, 6830.789
142.2197, 7214.259
142.7018, 7573.773
143.1839, 7913.030
143.6660, 8237.344
144.1481, 8449.243
144.6302, 8544.725
145.1124, 8528.917
145.5945, 8400.728
146.0766, 8112.385
146.5587, 7780.258
147.0408, 7418.463
147.5230, 7005.189
148.0051, 6647.069
148.4872, 6314.797
148.9693, 6007.654
149.4514, 5776.774
149.9335, 5638.623
150.4157, 5553.083
150.8978, 5509.212
151.3799, 5499.817
151.8620, 5541.641
152.3441, 5645.192
152.8262, 5797.026
153.3084, 5970.925
153.7905, 6175.390
154.2726, 6391.749
154.7547, 6617.038
155.2368, 6850.966
155.7189, 7086.904
156.2011, 7339.870
156.6832, 7596.956
157.1653, 7819.028
157.6474, 8017.001
158.1295, 8166.897
158.6116, 8256.844
159.0938, 8280.335
159.5759, 8252.459
160.0580, 8153.916
160.5401, 8001.687
161.0222, 7853.474
161.5044, 7700.577
161.9865, 7573.478
162.4686, 7492.062
162.9507, 7452.317
163.4328, 7467.363
163.9149, 7544.278
164.3971, 7680.512
164.8792, 7862.990
165.3613, 8101.669
165.8434, 8376.207
166.3255, 8670.037
166.8076, 9019.303
167.2898, 9346.529
167.7719, 9639.420
168.2540, 9891.770
168.7361, 10041.05
169.2182, 10059.34
169.7003, 9953.371
170.1825, 9730.833
170.6646, 9345.580
171.1467, 8879.408
171.6288, 8360.556
172.1109, 7796.087
172.5931, 7255.322
173.0752, 6778.198
173.5573, 6359.654
174.0394, 5990.375
174.5215, 5669.341
175.0036, 5396.099
175.4858, 5178.889
175.9679, 5015.803
176.4500, 4895.693
176.9321, 4811.260
177.4142, 4760.645
177.8963, 4740.726
178.3785, 4749.233
178.8606, 4787.447
179.3427, 4858.337
179.8248, 4962.731
180.3069, 5092.573
180.7890, 5241.788
181.2712, 5409.371
181.7533, 5591.361
182.2354, 5801.167
182.7175, 6021.820
183.1996, 6219.258
183.6818, 6398.406
184.1639, 6535.029
184.6460, 6615.479
185.1281, 6637.057
185.6102, 6587.453
186.0923, 6439.777
186.5745, 6213.847
187.0566, 5966.751
187.5387, 5689.985
188.0208, 5421.103
188.5029, 5200.777
188.9850, 5028.351
189.4672, 4884.316
189.9493, 4763.995
190.4314, 4665.450
190.9135, 4576.931
191.3956, 4502.773
191.8777, 4427.407
192.3599, 4321.148
192.8420, 4184.272
193.3241, 4039.461
193.8062, 3895.159
194.2883, 3750.644
194.7704, 3611.667
195.2526, 3476.252
195.7347, 3350.305
196.2168, 3243.715
196.6989, 3156.466
197.1810, 3087.380
197.6632, 3041.290
198.1453, 3017.698
198.6274, 2990.708
199.1095, 2955.898
199.5916, 2921.232
200.0737, 2902.935
200.5559, 2901.364
201.0380, 2912.564
201.5201, 2936.282
202.0022, 2973.367
202.4843, 3014.012
202.9664, 3056.701
203.4486, 3103.748
203.9307, 3160.136
204.4128, 3225.155
204.8949, 3300.163
205.3770, 3385.709
205.8591, 3481.786
206.3413, 3588.088
206.8234, 3704.059
207.3055, 3830.527
207.7876, 3970.809
208.2697, 4125.239
208.7519, 4289.226
209.2340, 4465.384
209.7161, 4658.307
210.1982, 4840.837
210.6803, 5013.982
211.1624, 5174.479
211.6446, 5315.447
212.1267, 5438.626
212.6088, 5535.595
213.0909, 5605.019
213.5730, 5650.337
214.0551, 5652.214
214.5373, 5596.062
215.0194, 5501.988
215.5015, 5422.873
215.9836, 5356.129
216.4657, 5309.336
216.9478, 5283.284
217.4300, 5274.048
217.9121, 5298.314
218.3942, 5358.026
218.8763, 5450.675
219.3584, 5568.010
219.8405, 5704.178
220.3227, 5874.373
220.8048, 6086.403
221.2869, 6346.407
221.7690, 6634.842
222.2511, 6950.694
222.7333, 7293.929
223.2154, 7656.288
223.6975, 8050.051
224.1796, 8449.031
224.6617, 8846.850
225.1438, 9257.319
225.6260, 9630.330
226.1081, 9969.285
226.5902, 10268.29
227.0723, 10502.07
227.5544, 10678.32
228.0365, 10781.65
228.5187, 10800.64
229.0008, 10714.38
229.4829, 10590.75
229.9650, 10405.09
230.4471, 10188.63
230.9292, 10019.31
231.4114, 9890.472
231.8935, 9815.645
232.3756, 9800.432
232.8577, 9845.123
233.3398, 9947.938
233.8220, 10113.01
234.3041, 10334.88
234.7862, 10596.74
235.2683, 10900.65
235.7504, 11239.79
236.2325, 11625.48
236.7147, 12084.91
237.1968, 12507.39
237.6789, 12899.32
238.1610, 13252.68
238.6431, 13554.72
239.1252, 13839.55
239.6074, 14026.87
240.0895, 14088.01
240.5716, 14019.43
241.0537, 13833.78
241.5358, 13517.53
242.0179, 13090.71
242.5001, 12582.62
242.9822, 11949.80
243.4643, 11304.53
243.9464, 10677.02
244.4285, 10051.08
244.9106, 9488.978
245.3928, 8986.600
245.8749, 8545.864
246.3570, 8170.693
246.8391, 7863.942
247.3212, 7618.142
247.8034, 7435.535
248.2855, 7323.853
248.7676, 7241.193
249.2497, 7181.869
249.7318, 7154.920
250.2139, 7175.120
250.6961, 7250.369
251.1782, 7359.048
251.6603, 7496.392
252.1424, 7663.470
252.6245, 7858.227
253.1066, 8086.776
253.5888, 8338.997
254.0709, 8605.569
254.5530, 8886.020
255.0351, 9183.318
255.5172, 9496.908
255.9993, 9829.096
256.4815, 10169.96
256.9636, 10521.06
257.4457, 10874.64
257.9278, 11226.96
258.4099, 11584.37
258.8921, 11927.98
259.3742, 12258.79
259.8563, 12574.16
260.3384, 12869.26
260.8205, 13142.29
261.3026, 13393.42
261.7848, 13625.00
262.2669, 13833.13
262.7490, 14026.26
263.2311, 14198.96
263.7132, 14353.78
264.1953, 14519.10
264.6775, 14693.65
265.1596, 14878.99
265.6417, 15081.59
266.1238, 15310.26
266.6059, 15524.05
267.0880, 15715.84
267.5702, 15887.03
268.0523, 16044.12
268.5344, 16209.41
269.0165, 16317.86
269.4986, 16324.87
269.9807, 16227.31
270.4629, 16040.58
270.9450, 15765.41
271.4271, 15402.13
271.9092, 14954.84
272.3913, 14411.35
272.8734, 13818.34
273.3556, 13195.17
273.8377, 12535.27
274.3198, 11889.41
274.8019, 11248.36
275.2840, 10627.35
275.7661, 10059.87
276.2483, 9549.627
276.7304, 9082.006
277.2125, 8661.221
277.6946, 8286.123
278.1768, 7943.767
278.6589, 7633.092
279.1410, 7355.263
279.6231, 7114.903
280.1052, 6911.003
280.5873, 6736.409
281.0695, 6592.557
281.5516, 6478.524
282.0337, 6378.890
282.5158, 6292.787
282.9979, 6221.995
283.4800, 6170.638
283.9622, 6138.975
284.4443, 6120.060
284.9264, 6110.468
285.4085, 6110.645
285.8906, 6125.696
286.3727, 6156.853
286.8549, 6198.121
287.3370, 6240.249
287.8191, 6283.673
288.3012, 6338.577
288.7833, 6407.693
289.2654, 6490.542
289.7476, 6587.627
290.2297, 6699.171
290.7118, 6823.273
291.1939, 6959.297
291.6760, 7105.937
292.1581, 7262.608
292.6403, 7429.609
293.1224, 7605.915
293.6045, 7793.148
294.0866, 7989.751
294.5687, 8198.617
295.0508, 8429.064
295.5330, 8675.809
296.0151, 8916.831
296.4972, 9153.050
296.9793, 9378.736
297.4614, 9581.439
297.9435, 9762.465
298.4257, 9916.002
298.9078, 10040.37
299.3899, 10133.36
299.8720, 10185.73
300.3541, 10193.55
300.8362, 10166.92
301.3184, 10110.27
301.8005, 10027.05
302.2826, 9933.883
302.7647, 9825.088
303.2469, 9716.874
303.7290, 9629.667
304.2111, 9566.542
304.6932, 9525.604
305.1753, 9499.990
305.6574, 9495.284
306.1396, 9526.068
306.6217, 9599.771
307.1038, 9712.756
307.5859, 9859.605
308.0680, 10040.72
308.5501, 10261.26
309.0323, 10525.30
309.5144, 10831.56
309.9965, 11176.55
310.4786, 11554.36
310.9607, 11977.73
311.4428, 12464.70
311.9250, 13012.00
312.4071, 13594.32
312.8892, 14190.34
313.3713, 14802.42
313.8534, 15438.75
314.3355, 16135.49
314.8177, 16819.62
315.2998, 17481.33
315.7819, 18107.86
316.2640, 18648.83
316.7461, 19126.13
317.2282, 19476.00
317.7104, 19656.64
318.1925, 19657.67
318.6746, 19489.17
319.1567, 19122.13
319.6388, 18583.15
320.1209, 17951.79
320.6031, 17176.32
321.0852, 16371.94
321.5673, 15581.90
322.0494, 14791.33
322.5315, 14065.01
323.0136, 13416.23
323.4958, 12840.04
323.9779, 12328.37
324.4600, 11884.90
324.9421, 11499.61
325.4242, 11173.93
325.9064, 10906.35
326.3885, 10694.43
326.8706, 10535.95
327.3527, 10434.43
327.8348, 10391.06
328.3170, 10426.30
328.7991, 10498.66
329.2812, 10605.05
329.7633, 10746.05
330.2454, 10909.71
330.7275, 11099.72
331.2097, 11307.07
331.6918, 11526.30
332.1739, 11769.34
332.6560, 12007.09
333.1381, 12240.53
333.6202, 12465.67
334.1024, 12657.55
334.5845, 12826.90
335.0666, 12943.87
335.5487, 12993.72
336.0308, 12976.56
336.5129, 12889.15
336.9951, 12717.92
337.4772, 12486.61
337.9593, 12231.94
338.4414, 11949.21
338.9235, 11655.39
339.4056, 11344.67
339.8878, 11015.95
340.3699, 10724.01
340.8520, 10467.91
341.3341, 10248.73
341.8162, 10056.41
342.2983, 9890.877
342.7805, 9769.210
343.2626, 9703.601
343.7447, 9686.978
344.2268, 9686.287
344.7089, 9700.572
345.1910, 9735.410
345.6732, 9799.928
346.1553, 9892.198
346.6374, 9992.753
347.1195, 10102.87
347.6016, 10214.33
348.0837, 10314.49
348.5659, 10403.98
349.0480, 10477.79
349.5301, 10535.27
350.0122, 10574.87
350.4944, 10591.47
350.9765, 10586.33
351.4586, 10553.15
351.9407, 10483.38
352.4228, 10378.97
352.9049, 10246.01
353.3871, 10088.10
353.8692, 9903.200
354.3513, 9682.725
354.8334, 9425.120
355.3155, 9155.183
355.7976, 8885.247
356.2798, 8614.853
356.7619, 8340.213
357.2440, 8033.097
357.7261, 7745.470
358.2082, 7518.797
358.6903, 7348.812
359.1725, 7206.319
359.6546, 7081.931
360.1367, 6974.219
360.6188, 6884.632
361.1009, 6824.306
361.5830, 6766.617
362.0652, 6714.050
362.5473, 6656.749
363.0294, 6570.333
363.5115, 6457.289
363.9936, 6304.404
364.4757, 6100.771
364.9579, 5830.860
365.4400, 5552.779
365.9221, 5263.835
366.4042, 4976.038
366.8863, 4704.591
367.3684, 4442.916
367.8506, 4206.444
368.3327, 3998.710
368.8148, 3821.700
369.2969, 3667.570
369.7790, 3536.586
370.2611, 3426.618
370.7433, 3336.301
371.2254, 3271.112
371.7075, 3218.372
372.1896, 3178.188
372.6717, 3149.707
373.1538, 3130.874
373.6360, 3125.247
374.1181, 3123.381
374.6002, 3118.649
375.0823, 3105.104
375.5645, 3110.608
376.0466, 3138.719
376.5287, 3181.751
377.0108, 3227.793
377.4929, 3275.493
377.9750, 3328.775
378.4572, 3388.054
378.9393, 3453.610
379.4214, 3524.780
379.9035, 3599.785
380.3856, 3685.528
380.8677, 3789.219
381.3499, 3910.185
381.8320, 4038.125
382.3141, 4169.581
382.7962, 4309.466
383.2783, 4471.604
383.7604, 4655.095
384.2426, 4854.260
384.7247, 5067.216
385.2068, 5292.509
385.6889, 5538.480
386.1710, 5805.436
386.6531, 6087.987
387.1353, 6385.137
387.6174, 6695.601
388.0995, 7017.741
388.5816, 7356.209
389.0637, 7705.948
389.5458, 8063.417
390.0280, 8431.907
390.5101, 8819.252
390.9922, 9234.591
391.4743, 9669.260
391.9564, 10118.72
392.4385, 10571.08
392.9207, 11047.61
393.4028, 11555.91
393.8849, 12092.32
394.3670, 12651.17
394.8491, 13226.22
395.3312, 13820.45
395.8134, 14437.22
396.2955, 15081.54
396.7776, 15737.71
397.2597, 16410.52
397.7418, 17083.27
398.2239, 17739.61
398.7061, 18396.97
399.1882, 19011.43
399.6703, 19588.98
400.1524, 20133.65
400.6346, 20572.36
401.1167, 20908.36
401.5988, 21131.76
402.0809, 21238.08
402.5630, 21247.57
403.0451, 21097.34
403.5273, 20772.19
404.0094, 20289.45
404.4915, 19688.67
404.9736, 18941.86
405.4557, 18139.48
405.9378, 17307.29
406.4200, 16443.78
406.9021, 15558.88
407.3842, 14650.16
407.8663, 13747.31
408.3484, 12888.13
408.8305, 12069.56
409.3127, 11291.05
409.7948, 10552.53
410.2769, 9854.206
410.7590, 9205.492
411.2411, 8603.980
411.7232, 8052.194
412.2054, 7549.833
412.6875, 7089.401
413.1696, 6670.159
413.6517, 6288.834
414.1338, 5936.304
414.6159, 5606.473
415.0981, 5299.475
415.5802, 5019.006
416.0623, 4771.030
416.5444, 4549.232
417.0265, 4359.563
417.5086, 4199.792
417.9908, 4050.105
418.4729, 3899.061
418.9550, 3752.016
419.4371, 3617.156
419.9192, 3495.415
420.4013, 3385.629
420.8835, 3291.378
421.3656, 3209.594
421.8477, 3129.143
422.3298, 3041.519
422.8119, 2959.976
423.2940, 2890.856
423.7762, 2839.012
424.2583, 2788.598
424.7404, 2734.367
425.2225, 2682.993
425.7047, 2640.604
426.1868, 2613.113
426.6689, 2587.559
427.1510, 2562.792
427.6331, 2538.648
428.1152, 2511.322
428.5974, 2475.925
429.0795, 2444.166
429.5616, 2423.979
430.0437, 2418.746
430.5258, 2410.234
431.0079, 2395.834
431.4901, 2380.209
431.9722, 2372.142
432.4543, 2372.163
432.9364, 2374.239
433.4185, 2376.039
433.9006, 2377.984
434.3828, 2382.148
434.8649, 2388.599
435.3470, 2396.469
435.8291, 2404.302
436.3112, 2412.895
436.7933, 2424.375
437.2755, 2438.916
437.7576, 2457.169
438.2397, 2482.280
438.7218, 2512.274
439.2039, 2540.481
439.6860, 2557.930
440.1682, 2574.969
440.6503, 2601.900
441.1324, 2639.725
441.6145, 2682.658
442.0966, 2732.232
442.5787, 2783.034
443.0609, 2829.143
443.5430, 2858.098
444.0251, 2893.258
444.5072, 2948.094
444.9893, 3016.908
445.4714, 3079.707
445.9536, 3117.209
446.4357, 3160.576
446.9178, 3225.261
447.3999, 3321.925
447.8820, 3414.026
448.3641, 3496.286
448.8463, 3576.628
449.3284, 3665.134
449.8105, 3764.000
450.2926, 3865.549
450.7747, 3968.641
451.2569, 4073.840
451.7390, 4179.927
452.2211, 4285.806
452.7032, 4397.938
453.1853, 4519.959
453.6674, 4653.043
454.1496, 4793.226
454.6317, 4942.504
455.1138, 5095.636
455.5959, 5238.952
456.0780, 5375.287
456.5602, 5523.231
457.0423, 5691.770
457.5244, 5873.941
458.0065, 6057.161
458.4886, 6240.815
458.9707, 6436.238
459.4529, 6645.400
459.9350, 6873.221
460.4171, 7118.436
460.8992, 7383.593
461.3813, 7671.555
461.8634, 7985.398
462.3456, 8325.202
462.8277, 8683.920
463.3098, 9066.272
463.7919, 9465.620
464.2740, 9877.069
464.7561, 10301.24
465.2383, 10748.05
465.7204, 11222.22
466.2025, 11719.07
466.6846, 12230.79
467.1667, 12748.34
467.6488, 13291.51
468.1310, 13876.36
468.6131, 14485.22
469.0952, 15105.14
469.5773, 15736.43
470.0594, 16375.55
470.5415, 17030.03
471.0237, 17696.67
471.5058, 18364.31
471.9879, 19038.40
472.4700, 19704.10
472.9521, 20347.46
473.4342, 20972.16
473.9164, 21564.06
474.3985, 22133.78
474.8806, 22658.78
475.3627, 23113.08
475.8448, 23495.88
476.3270, 23799.67
476.8091, 24032.75
477.2912, 24177.67
477.7733, 24194.97
478.2554, 24086.02
478.7375, 23870.30
479.2197, 23559.21
479.7018, 23149.78
480.1839, 22633.41
480.6660, 21994.63
481.1481, 21295.82
481.6302, 20564.16
482.1124, 19803.26
482.5945, 19019.16
483.0766, 18176.31
483.5587, 17342.06
484.0408, 16547.19
484.5229, 15795.75
485.0051, 15074.09
485.4872, 14376.35
485.9693, 13708.27
486.4514, 13079.40
486.9335, 12479.24
487.4156, 11927.96
487.8978, 11428.37
488.3799, 10978.29
488.8620, 10557.64
489.3441, 10163.23
489.8262, 9804.364
490.3083, 9482.632
490.7905, 9195.407
491.2726, 8935.058
491.7547, 8700.840
492.2368, 8488.237
492.7189, 8302.019
493.2010, 8138.026
493.6832, 7986.598
494.1653, 7845.996
494.6474, 7715.294
495.1295, 7595.826
495.6116, 7484.236
496.0938, 7368.514
496.5759, 7239.089
497.0580, 7107.089
497.5401, 6994.174
498.0222, 6893.894
498.5044, 6779.125
498.9865, 6619.663
499.4686, 6447.063
499.9507, 6288.202
500.4328, 6152.661
500.9149, 6009.570
501.3971, 5845.918
501.8792, 5668.925
502.3613, 5486.997
502.8434, 5288.082
503.3255, 5097.015
503.8076, 4918.398
504.2898, 4750.802
504.7719, 4587.680
505.2540, 4427.736
505.7361, 4274.670
506.2182, 4128.461
506.7003, 3989.833
507.1825, 3858.132
507.6646, 3733.430
508.1467, 3615.579
508.6288, 3504.144
509.1109, 3399.161
509.5930, 3302.466
510.0752, 3215.445
510.5573, 3135.469
511.0394, 3058.525
511.5215, 2984.500
512.0037, 2912.589
512.4858, 2840.811
512.9679, 2771.543
513.4500, 2708.184
513.9321, 2650.822
514.4142, 2598.021
514.8964, 2552.325
515.3785, 2508.857
515.8606, 2462.417
516.3427, 2407.497
516.8248, 2356.277
517.3069, 2313.931
517.7891, 2278.427
518.2712, 2245.871
518.7533, 2220.925
519.2354, 2193.634
519.7175, 2159.796
520.1996, 2119.488
520.6818, 2082.974
521.1639, 2050.593
521.6460, 2021.486
522.1281, 1995.708
522.6102, 1973.602
523.0923, 1953.403
523.5745, 1936.027
524.0566, 1918.847
524.5387, 1897.230
525.0208, 1871.096
525.5029, 1845.950
525.9850, 1822.675
526.4672, 1802.024
526.9493, 1786.164
527.4314, 1774.550
527.9135, 1763.605
528.3956, 1751.347
528.8777, 1737.968
529.3599, 1723.379
529.8420, 1707.313
530.3241, 1692.181
530.8062, 1679.718
531.2883, 1668.758
531.7704, 1658.279
532.2526, 1647.195
532.7347, 1637.323
533.2168, 1630.055
533.6989, 1624.369
534.1810, 1617.665
534.6631, 1607.440
535.1453, 1598.428
535.6274, 1592.409
536.1095, 1589.404
536.5916, 1586.084
537.0737, 1583.121
537.5558, 1578.746
538.0380, 1570.630
538.5201, 1557.503
539.0022, 1549.556
539.4843, 1548.760
539.9664, 1550.179
540.4485, 1545.622
540.9307, 1535.964
541.4128, 1528.624
541.8949, 1527.505
542.3770, 1528.676
542.8591, 1525.326
543.3412, 1518.209
543.8234, 1511.177
544.3055, 1506.861
544.7876, 1503.566
545.2697, 1499.069
545.7518, 1492.903
546.2339, 1489.069
546.7161, 1492.169
547.1982, 1497.107
547.6803, 1499.424
548.1624, 1496.257
548.6445, 1492.897
549.1266, 1490.764
549.6088, 1488.838
550.0909, 1484.722
550.5730, 1475.031
551.0551, 1468.793
551.5372, 1469.453
552.0193, 1476.175
552.5015, 1480.960
552.9836, 1484.065
553.4657, 1484.380
553.9478, 1479.179
554.4299, 1469.314
554.9120, 1464.275
555.3942, 1465.098
555.8763, 1468.065
556.3584, 1469.615
556.8405, 1469.993
557.3226, 1469.594
557.8047, 1467.254
558.2869, 1466.077
558.7690, 1470.259
559.2511, 1477.960
559.7332, 1484.501
560.2154, 1486.707
560.6975, 1488.142
561.1796, 1491.520
561.6617, 1497.057
562.1439, 1499.553
562.6260, 1493.271
563.1081, 1487.249
563.5902, 1487.011
564.0723, 1497.264
564.5544, 1503.098
565.0366, 1502.541
565.5187, 1499.549
566.0008, 1500.474
566.4829, 1506.816
566.9650, 1507.853
567.4471, 1498.747
567.9293, 1485.313
568.4114, 1483.591
568.8935, 1492.823
569.3756, 1503.029
569.8577, 1509.264
570.3398, 1512.486
570.8220, 1513.325
571.3041, 1511.952
571.7862, 1510.995
572.2683, 1513.400
572.7504, 1516.580
573.2325, 1518.060
573.7147, 1517.279
574.1968, 1514.950
574.6789, 1509.408
575.1610, 1503.157
575.6431, 1499.370
576.1252, 1503.508
576.6074, 1504.152
577.0895, 1497.121
577.5716, 1485.339
578.0537, 1480.189
578.5358, 1483.776
579.0179, 1489.185
579.5001, 1494.419
579.9822, 1499.385
580.4643, 1501.782
580.9464, 1501.460
581.4285, 1499.539
581.9106, 1496.018
582.3928, 1491.563
582.8749, 1488.671
583.3570, 1487.924
583.8391, 1487.399
584.3212, 1483.984
584.8033, 1479.691
585.2855, 1477.972
585.7676, 1482.719
586.2497, 1487.497
586.7318, 1489.393
587.2139, 1488.849
587.6960, 1487.130
588.1782, 1482.306
588.6603, 1478.516
