##NAMES=Belovite-(Ce)
##RRUFFID=R070163
##IDEAL CHEMISTRY=NaCeSr_3_(PO_4_)_3_F
##LOCALITY=Mochalin Log, Kyshtym, Chelyabinsk Oblast', Urals Region, Russia
##OWNER=RRUFF
##SOURCE=Michael Scott
##DESCRIPTION=Brownish red vitreous massive, associated with bastnasite-(La), R070142; 785 Raman signal was overwhelmed by fluorescence and is not posted.
##STATUS=The identification of this mineral has been confirmed only by single crystal X-ray diffraction.
##URL=rruff.info/R070163
157.8955, 3130.706
158.3776, 3127.828
158.8597, 3125.984
159.3418, 3124.984
159.8239, 3127.438
160.3060, 3137.770
160.7882, 3151.905
161.2703, 3162.644
161.7524, 3164.459
162.2345, 3163.877
162.7166, 3164.043
163.1987, 3162.958
163.6808, 3167.522
164.1630, 3186.398
164.6451, 3215.044
165.1272, 3238.604
165.6093, 3240.974
166.0914, 3238.572
166.5735, 3247.149
167.0557, 3284.724
167.5378, 3321.494
168.0199, 3328.887
168.5020, 3310.868
168.9841, 3302.098
169.4662, 3344.146
169.9484, 3405.460
170.4305, 3442.548
170.9126, 3410.258
171.3947, 3361.831
171.8768, 3353.329
172.3589, 3387.806
172.8411, 3425.183
173.3232, 3430.458
173.8053, 3414.102
174.2874, 3399.282
174.7695, 3399.028
175.2516, 3406.381
175.7338, 3412.189
176.2159, 3415.387
176.6980, 3418.092
177.1801, 3424.631
177.6622, 3433.444
178.1443, 3438.167
178.6264, 3428.565
179.1086, 3412.729
179.5907, 3409.038
180.0728, 3423.822
180.5549, 3444.896
181.0370, 3453.514
181.5191, 3450.938
182.0013, 3450.325
182.4834, 3463.603
182.9655, 3487.060
183.4476, 3509.162
183.9297, 3527.102
184.4118, 3542.151
184.8940, 3558.872
185.3761, 3577.675
185.8582, 3590.752
186.3403, 3585.033
186.8224, 3564.154
187.3046, 3551.706
187.7867, 3558.868
188.2688, 3579.281
188.7509, 3590.645
189.2330, 3591.844
189.7151, 3589.986
190.1973, 3593.032
190.6794, 3600.836
191.1615, 3609.515
191.6436, 3618.192
192.1257, 3626.759
192.6078, 3634.475
193.0900, 3641.657
193.5721, 3647.511
194.0542, 3650.199
194.5363, 3649.530
195.0184, 3648.838
195.5005, 3649.184
195.9826, 3650.581
196.4648, 3654.014
196.9469, 3659.077
197.4290, 3666.706
197.9111, 3681.617
198.3932, 3705.781
198.8753, 3725.981
199.3575, 3732.212
199.8396, 3723.186
200.3217, 3716.650
200.8038, 3713.326
201.2859, 3714.163
201.7680, 3724.713
202.2502, 3748.482
202.7323, 3770.808
203.2144, 3779.728
203.6965, 3772.813
204.1786, 3766.558
204.6607, 3762.285
205.1429, 3760.513
205.6250, 3764.957
206.1071, 3776.680
206.5892, 3792.083
207.0713, 3810.563
207.5534, 3835.297
208.0356, 3849.809
208.5177, 3847.920
208.9998, 3830.644
209.4819, 3817.543
209.9640, 3808.773
210.4461, 3803.930
210.9282, 3802.841
211.4104, 3805.880
211.8925, 3811.755
212.3746, 3822.337
212.8567, 3838.454
213.3388, 3844.572
213.8209, 3836.921
214.3031, 3823.626
214.7852, 3814.772
215.2673, 3809.266
215.7494, 3811.105
216.2315, 3823.887
216.7136, 3850.942
217.1958, 3872.051
217.6779, 3888.106
218.1600, 3897.731
218.6421, 3897.437
219.1242, 3882.347
219.6063, 3866.585
220.0885, 3854.638
220.5706, 3846.055
221.0527, 3843.819
221.5348, 3852.118
222.0169, 3864.955
222.4990, 3867.417
222.9812, 3853.427
223.4633, 3839.045
223.9454, 3831.666
224.4275, 3833.310
224.9096, 3837.766
225.3917, 3848.879
225.8739, 3862.280
226.3560, 3862.175
226.8381, 3840.241
227.3202, 3816.794
227.8023, 3801.030
228.2844, 3789.724
228.7665, 3794.894
229.2487, 3826.518
229.7308, 3876.594
230.2129, 3905.018
230.6950, 3902.322
231.1771, 3889.523
231.6592, 3878.519
232.1414, 3867.022
232.6235, 3862.341
233.1056, 3867.034
233.5877, 3880.045
234.0698, 3892.385
234.5519, 3906.996
235.0341, 3917.560
235.5162, 3918.074
235.9983, 3899.353
236.4804, 3888.260
236.9625, 3892.919
237.4446, 3912.257
237.9268, 3917.059
238.4089, 3896.108
238.8910, 3871.973
239.3731, 3865.359
239.8552, 3887.385
240.3373, 3906.504
240.8195, 3916.496
241.3016, 3917.073
241.7837, 3920.871
242.2658, 3931.553
242.7479, 3941.978
243.2300, 3944.087
243.7122, 3930.897
244.1943, 3922.236
244.6764, 3924.054
245.1585, 3937.591
245.6406, 3944.740
246.1227, 3941.375
246.6048, 3935.267
247.0870, 3935.765
247.5691, 3947.962
248.0512, 3957.422
248.5333, 3958.832
249.0154, 3950.073
249.4975, 3950.293
249.9797, 3964.436
250.4618, 3983.341
250.9439, 3995.985
251.4260, 4002.869
251.9081, 4002.072
252.3902, 3988.500
252.8724, 3956.569
253.3545, 3947.371
253.8366, 3973.201
254.3187, 4011.487
254.8008, 4027.854
255.2829, 4008.825
255.7651, 3994.021
256.2472, 3997.223
256.7293, 4023.458
257.2114, 4042.029
257.6935, 4051.400
258.1756, 4054.382
258.6577, 4053.895
259.1399, 4046.123
259.6220, 4043.087
260.1041, 4051.322
260.5862, 4075.554
261.0683, 4087.490
261.5504, 4082.180
262.0326, 4068.861
262.5147, 4063.195
262.9968, 4068.281
263.4789, 4073.810
263.9610, 4075.165
264.4431, 4070.458
264.9253, 4071.446
265.4074, 4080.856
265.8895, 4093.464
266.3716, 4098.730
266.8537, 4092.919
267.3358, 4089.718
267.8180, 4096.059
268.3001, 4114.435
268.7822, 4127.899
269.2643, 4134.840
269.7464, 4138.308
270.2285, 4144.868
270.7107, 4156.332
271.1928, 4164.882
271.6749, 4166.192
272.1570, 4158.917
272.6391, 4153.608
273.1212, 4151.423
273.6034, 4149.866
274.0855, 4142.775
274.5676, 4128.193
275.0497, 4116.506
275.5318, 4113.692
276.0139, 4120.715
276.4961, 4125.397
276.9782, 4126.871
277.4603, 4126.910
277.9424, 4129.518
278.4245, 4135.358
278.9066, 4139.453
279.3888, 4137.551
279.8709, 4129.426
280.3530, 4127.828
280.8351, 4135.143
281.3172, 4145.600
281.7993, 4148.102
282.2815, 4142.064
282.7636, 4135.683
283.2457, 4132.315
283.7278, 4131.950
284.2099, 4136.743
284.6920, 4149.905
285.1741, 4161.424
285.6563, 4150.163
286.1384, 4115.790
286.6205, 4084.020
287.1026, 4068.545
287.5847, 4067.300
288.0668, 4068.726
288.5490, 4073.807
289.0311, 4077.347
289.5132, 4069.041
289.9953, 4049.902
290.4774, 4031.692
290.9595, 4021.448
291.4417, 4017.192
291.9238, 4012.794
292.4059, 4009.041
292.8880, 4001.385
293.3701, 3976.413
293.8522, 3937.964
294.3344, 3910.548
294.8165, 3916.355
295.2986, 3941.810
295.7807, 3951.286
296.2628, 3941.316
296.7449, 3923.911
297.2271, 3915.161
297.7092, 3911.995
298.1913, 3902.673
298.6734, 3873.609
299.1555, 3836.458
299.6376, 3813.521
300.1198, 3806.937
300.6019, 3805.903
301.0840, 3801.723
301.5661, 3794.575
302.0482, 3784.980
302.5303, 3773.514
303.0125, 3759.570
303.4946, 3739.344
303.9767, 3711.825
304.4588, 3688.292
304.9409, 3682.118
305.4230, 3687.276
305.9052, 3691.748
306.3873, 3696.634
306.8694, 3694.643
307.3515, 3673.166
307.8336, 3630.591
308.3157, 3591.954
308.7979, 3579.666
309.2800, 3582.610
309.7621, 3583.787
310.2442, 3579.164
310.7263, 3568.284
311.2084, 3546.076
311.6906, 3512.165
312.1727, 3484.756
312.6548, 3478.604
313.1369, 3483.483
313.6190, 3487.010
314.1011, 3487.230
314.5833, 3482.906
315.0654, 3471.525
315.5475, 3453.150
316.0296, 3435.511
316.5117, 3422.450
316.9938, 3411.475
317.4760, 3400.149
317.9580, 3384.227
318.4402, 3371.360
318.9223, 3366.569
319.4044, 3369.222
319.8865, 3368.773
320.3686, 3361.729
320.8507, 3350.605
321.3329, 3337.283
321.8150, 3313.664
322.2971, 3296.965
322.7792, 3295.316
323.2613, 3306.751
323.7434, 3312.378
324.2256, 3307.158
324.7077, 3296.664
325.1898, 3284.238
325.6719, 3262.041
326.1540, 3247.413
326.6361, 3247.580
327.1183, 3259.217
327.6004, 3261.567
328.0825, 3250.427
328.5646, 3233.128
329.0467, 3213.097
329.5288, 3186.257
330.0110, 3162.109
330.4931, 3137.173
330.9752, 3114.633
331.4573, 3106.923
331.9394, 3124.399
332.4215, 3143.598
332.9037, 3153.845
333.3858, 3150.848
333.8679, 3148.634
334.3500, 3149.379
334.8321, 3150.024
335.3142, 3141.897
335.7964, 3119.447
336.2785, 3099.771
336.7606, 3091.183
337.2427, 3096.942
337.7248, 3098.876
338.2069, 3096.245
338.6891, 3090.688
339.1712, 3084.141
339.6533, 3076.102
340.1354, 3069.769
340.6175, 3068.400
341.0996, 3071.942
341.5818, 3066.631
342.0639, 3049.391
342.5460, 3031.335
343.0281, 3030.750
343.5102, 3047.805
343.9923, 3058.759
344.4745, 3050.089
344.9566, 3027.498
345.4387, 3017.828
345.9208, 3022.080
346.4029, 3032.492
346.8850, 3043.367
347.3672, 3054.210
347.8493, 3062.045
348.3314, 3066.436
348.8135, 3066.979
349.2956, 3058.718
349.7777, 3041.996
350.2599, 3030.351
350.7419, 3041.192
351.2241, 3065.288
351.7062, 3081.952
352.1883, 3082.316
352.6704, 3076.551
353.1525, 3074.539
353.6346, 3076.340
354.1168, 3082.155
354.5989, 3095.440
355.0810, 3111.691
355.5631, 3124.980
356.0452, 3132.758
356.5273, 3139.472
357.0095, 3148.651
357.4916, 3159.529
357.9737, 3169.634
358.4558, 3176.658
358.9379, 3183.203
359.4200, 3190.822
359.9022, 3199.133
360.3843, 3210.267
360.8664, 3226.238
361.3485, 3245.665
361.8306, 3265.727
362.3127, 3288.182
362.7949, 3309.075
363.2770, 3326.394
363.7591, 3339.364
364.2412, 3351.118
364.7233, 3359.097
365.2054, 3367.251
365.6876, 3380.392
366.1697, 3396.577
366.6518, 3420.569
367.1339, 3459.258
367.6160, 3517.233
368.0981, 3557.160
368.5803, 3566.641
369.0624, 3564.825
369.5445, 3567.236
370.0266, 3571.780
370.5087, 3583.641
370.9908, 3605.658
371.4730, 3636.829
371.9551, 3668.133
372.4372, 3705.517
372.9193, 3735.454
373.4014, 3744.507
373.8835, 3720.558
374.3657, 3713.012
374.8478, 3731.063
375.3299, 3766.962
375.8120, 3796.647
376.2941, 3820.701
376.7762, 3837.355
377.2584, 3843.210
377.7405, 3837.562
378.2226, 3833.365
378.7047, 3830.850
379.1868, 3830.755
379.6689, 3835.253
380.1511, 3844.329
380.6332, 3853.941
381.1153, 3865.302
381.5974, 3876.307
382.0795, 3874.467
382.5616, 3857.830
383.0438, 3839.172
383.5259, 3834.260
384.0080, 3839.946
384.4901, 3844.365
384.9722, 3841.742
385.4543, 3835.693
385.9364, 3829.986
386.4185, 3824.762
386.9007, 3823.527
387.3828, 3835.870
387.8649, 3852.504
388.3470, 3858.513
388.8291, 3841.548
389.3112, 3821.517
389.7934, 3816.074
390.2755, 3822.143
390.7576, 3826.726
391.2397, 3822.390
391.7218, 3814.114
392.2039, 3805.546
392.6861, 3796.436
393.1682, 3789.032
393.6503, 3784.483
394.1324, 3782.271
394.6145, 3781.302
395.0966, 3782.968
395.5788, 3784.400
396.0609, 3784.446
396.5430, 3782.933
397.0251, 3780.250
397.5072, 3780.205
397.9893, 3777.782
398.4715, 3766.440
398.9536, 3728.352
399.4357, 3701.461
399.9178, 3698.706
400.3999, 3722.358
400.8820, 3728.027
401.3642, 3704.447
401.8463, 3674.137
402.3284, 3655.977
402.8105, 3657.327
403.2926, 3651.608
403.7747, 3630.991
404.2569, 3601.205
404.7390, 3589.161
405.2211, 3600.636
405.7032, 3613.119
406.1853, 3613.394
406.6674, 3601.101
407.1496, 3583.439
407.6317, 3558.491
408.1138, 3532.660
408.5959, 3516.804
409.0780, 3510.785
409.5602, 3509.007
410.0423, 3516.578
410.5244, 3526.618
411.0065, 3511.496
411.4886, 3467.463
411.9707, 3423.541
412.4529, 3412.451
412.9350, 3425.315
413.4171, 3438.482
413.8992, 3449.791
414.3813, 3452.537
414.8634, 3432.902
415.3456, 3393.412
415.8277, 3357.695
416.3098, 3346.055
416.7919, 3344.047
417.2740, 3336.036
417.7561, 3317.849
418.2382, 3293.708
418.7203, 3260.311
419.2025, 3222.070
419.6846, 3191.426
420.1667, 3176.745
420.6488, 3167.548
421.1309, 3159.068
421.6130, 3151.808
422.0952, 3142.465
422.5773, 3128.046
423.0594, 3112.039
423.5415, 3098.769
424.0236, 3097.591
424.5057, 3089.756
424.9879, 3067.974
425.4700, 3031.657
425.9521, 3004.217
426.4342, 2987.749
426.9163, 2978.323
427.3984, 2975.060
427.8806, 2984.480
428.3627, 2982.367
428.8448, 2961.965
429.3269, 2929.592
429.8090, 2907.127
430.2911, 2896.583
430.7733, 2888.339
431.2554, 2877.098
431.7375, 2862.976
432.2196, 2849.369
432.7017, 2836.328
433.1838, 2824.267
433.6660, 2815.783
434.1481, 2810.017
434.6302, 2800.474
435.1123, 2778.263
435.5944, 2752.276
436.0765, 2746.577
436.5587, 2761.048
437.0408, 2770.319
437.5229, 2745.124
438.0050, 2701.968
438.4871, 2667.412
438.9692, 2649.461
439.4514, 2641.684
439.9335, 2647.316
440.4156, 2660.816
440.8977, 2663.906
441.3798, 2634.780
441.8619, 2600.496
442.3441, 2580.447
442.8262, 2581.849
443.3083, 2583.527
443.7904, 2576.530
444.2725, 2566.320
444.7546, 2560.363
445.2368, 2569.386
445.7189, 2573.633
446.2010, 2567.216
446.6831, 2549.359
447.1652, 2529.193
447.6473, 2501.079
448.1295, 2475.238
448.6116, 2459.756
449.0937, 2460.435
449.5758, 2458.955
450.0579, 2452.847
450.5400, 2443.917
451.0221, 2438.129
451.5042, 2436.765
451.9864, 2434.586
452.4685, 2428.903
452.9506, 2419.677
453.4327, 2408.052
453.9148, 2392.459
454.3969, 2379.672
454.8791, 2384.317
455.3612, 2403.134
455.8433, 2411.552
456.3254, 2394.528
456.8075, 2365.639
457.2896, 2352.100
457.7718, 2352.774
458.2539, 2356.307
458.7360, 2357.599
459.2181, 2355.378
459.7002, 2347.045
460.1823, 2329.713
460.6645, 2311.349
461.1466, 2296.850
461.6287, 2285.647
462.1108, 2276.547
462.5929, 2267.186
463.0750, 2261.167
463.5572, 2262.039
464.0393, 2271.155
464.5214, 2277.979
465.0035, 2281.400
465.4856, 2280.481
465.9677, 2274.264
466.4499, 2249.191
466.9320, 2234.862
467.4141, 2242.542
467.8962, 2265.748
468.3783, 2270.339
468.8604, 2242.797
469.3426, 2215.521
469.8247, 2205.425
470.3068, 2220.153
470.7889, 2222.836
471.2710, 2209.609
471.7531, 2189.925
472.2353, 2177.586
472.7174, 2172.994
473.1995, 2170.826
473.6816, 2170.744
474.1637, 2171.415
474.6458, 2165.826
475.1280, 2153.701
475.6101, 2145.371
476.0922, 2155.281
476.5743, 2175.344
477.0564, 2185.171
477.5385, 2178.898
478.0207, 2166.791
478.5028, 2154.769
478.9849, 2144.707
479.4670, 2141.276
479.9491, 2153.005
480.4312, 2167.840
480.9134, 2177.379
481.3955, 2180.968
481.8776, 2181.753
482.3597, 2180.577
482.8418, 2177.394
483.3239, 2172.152
483.8060, 2157.548
484.2881, 2149.066
484.7703, 2154.299
485.2524, 2169.017
485.7345, 2176.160
486.2166, 2169.302
486.6987, 2162.141
487.1808, 2159.962
487.6630, 2164.015
488.1451, 2168.730
488.6272, 2176.006
489.1093, 2181.402
489.5914, 2177.926
490.0735, 2164.137
490.5557, 2151.398
491.0378, 2140.657
491.5199, 2133.933
492.0020, 2141.241
492.4841, 2162.912
492.9662, 2184.190
493.4484, 2195.305
493.9305, 2198.065
494.4126, 2194.726
494.8947, 2183.843
495.3768, 2174.495
495.8589, 2176.772
496.3411, 2187.249
496.8232, 2198.798
497.3053, 2209.911
497.7874, 2219.793
498.2695, 2229.976
498.7516, 2239.674
499.2338, 2241.888
499.7159, 2219.006
500.1980, 2196.782
500.6801, 2194.693
501.1622, 2232.170
501.6443, 2262.035
502.1265, 2275.244
502.6086, 2277.486
503.0907, 2278.955
503.5728, 2277.453
504.0549, 2278.234
504.5370, 2282.427
505.0192, 2290.033
505.5013, 2301.602
505.9834, 2319.099
506.4655, 2336.395
506.9476, 2348.081
507.4297, 2353.968
507.9119, 2359.724
508.3940, 2366.292
508.8761, 2372.623
509.3582, 2374.245
509.8403, 2372.419
510.3224, 2376.783
510.8046, 2397.399
511.2867, 2425.291
511.7688, 2445.969
512.2509, 2458.942
512.7330, 2469.677
513.2151, 2482.225
513.6973, 2494.811
514.1794, 2505.092
514.6615, 2510.754
515.1436, 2516.705
515.6257, 2526.810
516.1078, 2539.054
516.5900, 2548.348
517.0721, 2547.052
517.5542, 2548.573
518.0363, 2559.561
518.5184, 2582.894
519.0005, 2600.997
519.4827, 2612.869
519.9648, 2620.273
520.4469, 2623.139
520.9290, 2617.265
521.4111, 2618.877
521.8932, 2631.673
522.3754, 2651.325
522.8575, 2668.384
523.3396, 2683.334
523.8217, 2692.518
524.3038, 2690.548
524.7859, 2680.723
525.2681, 2679.099
525.7502, 2686.208
526.2323, 2694.041
526.7144, 2697.784
527.1965, 2696.648
527.6786, 2687.583
528.1608, 2664.903
528.6429, 2643.296
529.1250, 2641.248
529.6071, 2650.430
530.0892, 2650.911
530.5714, 2628.828
531.0535, 2599.860
531.5356, 2571.154
532.0176, 2543.144
532.4998, 2517.277
532.9819, 2492.803
533.4640, 2471.081
533.9461, 2452.866
534.4282, 2439.953
534.9103, 2428.184
535.3925, 2419.075
535.8746, 2410.275
536.3567, 2395.368
536.8388, 2372.052
537.3209, 2350.231
537.8030, 2336.656
538.2852, 2329.368
538.7673, 2304.657
539.2494, 2259.651
539.7315, 2217.490
540.2136, 2204.239
540.6957, 2211.549
541.1779, 2210.450
541.6600, 2192.663
542.1421, 2173.693
542.6242, 2177.572
543.1063, 2194.186
543.5884, 2199.488
544.0706, 2168.608
544.5527, 2133.436
545.0348, 2117.657
545.5169, 2120.790
545.9990, 2119.437
546.4811, 2094.364
546.9633, 2069.418
547.4454, 2061.218
547.9275, 2091.081
548.4096, 2106.133
548.8917, 2097.419
549.3738, 2076.765
549.8560, 2061.456
550.3381, 2052.185
550.8202, 2046.818
551.3023, 2045.601
551.7844, 2047.944
552.2665, 2052.198
552.7487, 2059.477
553.2308, 2061.594
553.7129, 2047.721
554.1950, 2022.630
554.6771, 2008.423
555.1592, 2008.286
555.6414, 2012.037
556.1235, 2009.089
556.6056, 2001.816
557.0877, 1994.952
557.5698, 1991.088
558.0519, 1987.418
558.5341, 1980.622
559.0162, 1971.902
559.4983, 1966.269
559.9804, 1971.048
560.4625, 1974.858
560.9446, 1970.737
561.4268, 1954.938
561.9089, 1942.960
562.3910, 1936.048
562.8731, 1933.044
563.3552, 1933.661
563.8373, 1940.544
564.3195, 1944.648
564.8016, 1944.668
565.2837, 1941.421
565.7658, 1936.502
566.2479, 1929.716
566.7300, 1922.958
567.2122, 1916.944
567.6943, 1911.698
568.1764, 1908.482
568.6585, 1907.310
569.1406, 1903.881
569.6227, 1892.243
570.1049, 1876.580
570.5870, 1862.593
571.0691, 1849.895
571.5512, 1843.703
572.0333, 1854.359
572.5154, 1872.736
572.9976, 1883.573
573.4797, 1876.790
573.9618, 1867.129
574.4439, 1858.350
574.9260, 1850.637
575.4081, 1844.136
575.8903, 1839.740
576.3724, 1835.408
576.8545, 1830.964
577.3366, 1827.927
577.8187, 1817.069
578.3008, 1794.437
578.7830, 1771.289
579.2651, 1764.769
579.7472, 1774.318
580.2293, 1776.581
580.7114, 1763.101
581.1935, 1743.567
581.6757, 1735.071
582.1578, 1736.160
582.6399, 1739.997
583.1220, 1745.562
583.6041, 1750.207
584.0862, 1750.099
584.5684, 1745.068
585.0505, 1740.962
585.5326, 1740.972
586.0147, 1742.983
586.4968, 1745.817
586.9789, 1755.353
587.4611, 1756.019
587.9432, 1736.586
588.4253, 1710.240
588.9074, 1697.750
589.3895, 1707.191
589.8716, 1714.643
590.3538, 1714.589
590.8359, 1708.135
591.3180, 1699.875
591.8001, 1689.158
592.2822, 1680.837
592.7643, 1677.305
593.2465, 1678.626
593.7286, 1687.065
594.2107, 1703.726
594.6928, 1719.581
595.1749, 1726.631
595.6570, 1727.316
596.1392, 1724.956
596.6213, 1716.506
597.1034, 1711.458
597.5854, 1721.027
598.0676, 1737.936
598.5497, 1745.726
599.0318, 1729.820
599.5139, 1713.891
599.9960, 1707.569
600.4781, 1711.179
600.9603, 1708.084
601.4424, 1691.233
601.9245, 1677.119
602.4066, 1677.349
602.8887, 1694.774
603.3708, 1709.274
603.8530, 1720.855
604.3351, 1727.924
604.8172, 1726.694
605.2993, 1718.221
605.7814, 1708.636
606.2635, 1698.314
606.7457, 1689.627
607.2278, 1685.498
607.7099, 1685.697
608.1920, 1689.607
608.6741, 1700.686
609.1563, 1712.464
609.6384, 1720.843
610.1205, 1725.557
610.6026, 1728.193
611.0847, 1730.460
611.5668, 1729.910
612.0490, 1723.924
612.5311, 1703.733
613.0132, 1697.078
613.4953, 1712.909
613.9774, 1734.217
614.4595, 1735.086
614.9417, 1711.559
615.4238, 1692.952
615.9059, 1687.162
616.3880, 1688.808
616.8701, 1686.344
617.3522, 1679.941
617.8344, 1671.650
618.3165, 1657.515
618.7986, 1644.581
619.2807, 1645.970
619.7628, 1661.392
620.2449, 1673.540
620.7271, 1667.857
621.2092, 1657.053
621.6913, 1652.142
622.1734, 1659.533
622.6555, 1662.903
623.1376, 1653.130
623.6198, 1640.396
624.1019, 1637.797
624.5840, 1653.312
625.0661, 1663.358
625.5482, 1663.594
626.0303, 1656.405
626.5125, 1647.420
626.9946, 1636.173
627.4767, 1627.779
627.9588, 1626.691
628.4409, 1630.130
628.9230, 1629.496
629.4052, 1624.907
629.8873, 1619.659
630.3694, 1614.835
630.8515, 1611.437
631.3336, 1611.406
631.8157, 1616.302
632.2979, 1619.551
632.7800, 1616.441
633.2621, 1610.653
633.7442, 1606.545
634.2263, 1608.205
634.7084, 1607.187
635.1906, 1600.528
635.6727, 1591.154
636.1548, 1587.115
636.6369, 1591.205
637.1190, 1592.412
637.6011, 1585.495
638.0833, 1572.581
638.5654, 1563.730
639.0475, 1559.024
639.5296, 1557.809
640.0117, 1564.034
640.4938, 1572.255
640.9760, 1570.234
641.4581, 1555.635
641.9402, 1543.165
642.4223, 1545.497
642.9044, 1554.529
643.3865, 1561.887
643.8687, 1570.268
644.3508, 1569.770
644.8329, 1547.921
645.3150, 1517.505
645.7971, 1503.908
646.2792, 1519.159
646.7614, 1530.082
647.2435, 1528.249
647.7256, 1516.607
648.2077, 1508.437
648.6898, 1503.634
649.1719, 1502.549
649.6541, 1510.005
650.1362, 1521.126
650.6183, 1517.294
651.1004, 1498.151
651.5825, 1482.003
652.0646, 1487.158
652.5468, 1501.864
