##NAMES=Benitoite
##RRUFFID=R050320
##IDEAL CHEMISTRY=BaTi^4+^Si_3_O_9_
##LOCALITY=San Benito County, California, USA
##OWNER=RRUFF
##SOURCE=American Museum of Natural History
##DESCRIPTION=Blue fragment
##STATUS=The identification of this mineral has been confirmed by X-ray diffraction and chemical analysis
##URL=rruff.info/R050320
##MEASURED CHEMISTRY=Ba_1.00_Ti_1.00_(Si_2.99_Al_0.01_)_Î£=3_O_9_
100.7194, 55.65886
101.2015, 55.97907
101.6837, 57.56224
102.1658, 59.20837
102.6479, 59.81015
103.1300, 59.24929
103.6121, 58.81694
104.0942, 59.86805
104.5764, 61.68580
105.0585, 63.17591
105.5406, 63.76941
106.0227, 63.74110
106.5048, 63.83752
106.9869, 63.73919
107.4691, 64.25220
107.9512, 66.01317
108.4333, 68.65675
108.9154, 71.27156
109.3975, 72.93987
109.8796, 73.40936
110.3618, 74.58447
110.8439, 77.22717
111.3260, 79.93403
111.8081, 82.23600
112.2902, 83.99523
112.7723, 85.26537
113.2544, 86.14895
113.7366, 86.94130
114.2187, 86.58043
114.7008, 84.19218
115.1829, 81.19215
115.6650, 78.75043
116.1471, 77.27139
116.6293, 76.58809
117.1114, 76.43129
117.5935, 76.90359
118.0756, 77.58535
118.5577, 78.39404
119.0398, 79.34164
119.5220, 80.53126
120.0041, 82.16545
120.4862, 83.91299
120.9683, 85.20029
121.4504, 86.25753
121.9325, 86.52205
122.4147, 85.43130
122.8968, 82.92820
123.3789, 79.75679
123.8610, 75.69196
124.3431, 71.32188
124.8252, 67.13766
125.3074, 63.19757
125.7895, 59.63683
126.2716, 56.76258
126.7537, 54.77346
127.2358, 53.24269
127.7179, 51.97671
128.2001, 50.99136
128.6822, 50.32690
129.1643, 50.05872
129.6464, 50.14671
130.1285, 50.09105
130.6107, 49.31637
131.0928, 48.95250
131.5749, 49.50886
132.0570, 50.73691
132.5391, 52.05669
133.0212, 52.94706
133.5034, 53.32667
133.9855, 53.83200
134.4676, 54.28785
134.9497, 54.97081
135.4318, 55.89569
135.9139, 57.11419
136.3960, 58.88462
136.8782, 61.56014
137.3603, 65.32157
137.8424, 69.33231
138.3245, 73.49673
138.8066, 77.89973
139.2887, 82.78941
139.7709, 88.33709
140.2530, 93.82900
140.7351, 98.41051
141.2172, 102.1757
141.6993, 105.3324
142.1814, 107.8246
142.6636, 109.7189
143.1457, 111.1768
143.6278, 111.7042
144.1099, 112.4087
144.5920, 114.2887
145.0741, 117.3327
145.5563, 120.6687
146.0384, 123.4365
146.5205, 125.5123
147.0026, 128.0335
147.4847, 131.3854
147.9668, 135.1471
148.4490, 139.1128
148.9311, 143.2296
149.4132, 147.6501
149.8953, 152.5628
150.3774, 157.9602
150.8595, 164.0393
151.3417, 171.0950
151.8238, 178.5024
152.3059, 185.6873
152.7880, 192.4020
153.2701, 199.0131
153.7522, 206.3450
154.2344, 214.4170
154.7165, 223.3049
155.1986, 232.6158
155.6807, 242.8530
156.1628, 254.5689
156.6449, 267.9756
157.1271, 283.1297
157.6092, 300.5318
158.0913, 320.9551
158.5734, 342.3302
159.0555, 368.4632
159.5376, 395.7850
160.0198, 415.6687
160.5019, 424.6021
160.9840, 420.3666
161.4661, 401.6407
161.9482, 361.5921
162.4303, 315.1794
162.9125, 269.1492
163.3946, 223.6816
163.8767, 183.8324
164.3588, 154.0379
164.8409, 132.2372
165.3230, 114.6059
165.8052, 101.4715
166.2873, 91.56206
166.7694, 83.79120
167.2515, 78.43087
167.7336, 74.25475
168.2157, 70.97255
168.6979, 68.34057
169.1800, 66.16210
169.6621, 64.44241
170.1442, 63.06138
170.6263, 61.64065
171.1084, 59.96612
171.5906, 58.63524
172.0727, 57.87714
172.5548, 57.50912
173.0369, 57.27837
173.5190, 57.03376
174.0011, 56.79140
174.4833, 56.68716
174.9654, 56.69087
175.4475, 56.89345
175.9296, 57.33092
176.4117, 57.98228
176.8938, 58.80265
177.3760, 59.75035
177.8581, 60.82125
178.3402, 62.20519
178.8223, 63.59605
179.3044, 65.53426
179.7865, 68.59583
180.2687, 72.46663
180.7508, 76.26410
181.2329, 79.21428
181.7150, 81.23644
182.1971, 83.25960
182.6792, 85.90289
183.1614, 88.05577
183.6435, 88.71919
184.1256, 87.99656
184.6077, 87.16936
185.0898, 87.36527
185.5719, 88.69339
186.0541, 90.05141
186.5362, 91.25999
187.0183, 92.58295
187.5004, 94.22849
187.9825, 96.22020
188.4646, 98.53363
188.9468, 101.3013
189.4289, 104.4221
189.9110, 107.5880
190.3931, 110.5623
190.8752, 113.5877
191.3573, 117.0298
191.8395, 120.8947
192.3216, 125.2662
192.8037, 130.3202
193.2858, 135.8781
193.7679, 141.6531
194.2500, 147.1711
194.7322, 152.7549
195.2143, 159.5189
195.6964, 167.4841
196.1785, 176.7996
196.6606, 187.3601
197.1427, 199.0796
197.6249, 211.6929
198.1070, 225.1719
198.5891, 239.4704
199.0712, 254.3020
199.5533, 271.8296
200.0354, 287.3199
200.5176, 301.5695
200.9997, 312.6417
201.4818, 316.5089
201.9639, 308.9958
202.4460, 289.8630
202.9281, 270.1575
203.4103, 246.4554
203.8924, 225.5214
204.3745, 209.1542
204.8566, 197.3198
205.3387, 189.7535
205.8208, 186.4315
206.3030, 187.6749
206.7851, 190.3011
207.2672, 194.8904
207.7493, 200.1392
208.2314, 205.4282
208.7135, 210.8667
209.1957, 216.9717
209.6778, 224.2225
210.1599, 232.6952
210.6420, 241.8512
211.1241, 250.9046
211.6062, 261.0955
212.0884, 273.4392
212.5705, 287.6816
213.0526, 302.6121
213.5347, 317.1481
214.0168, 331.1823
214.4989, 346.5341
214.9811, 364.1157
215.4632, 382.2144
215.9453, 400.5785
216.4274, 418.9399
216.9095, 435.7542
217.3916, 450.6006
217.8737, 462.7989
218.3559, 468.0351
218.8380, 466.3203
219.3201, 457.6232
219.8022, 440.4352
220.2843, 414.6627
220.7664, 385.2367
221.2486, 354.5614
221.7307, 323.0320
222.2128, 293.5525
222.6949, 265.4805
223.1770, 240.1363
223.6591, 219.4421
224.1413, 203.6568
224.6234, 190.7983
225.1055, 180.4443
225.5876, 172.0908
226.0697, 165.1917
226.5518, 159.6602
227.0340, 155.5167
227.5161, 152.8911
227.9982, 151.8847
228.4803, 152.0891
228.9624, 153.4086
229.4445, 155.7127
229.9267, 159.1341
230.4088, 164.1036
230.8909, 169.8800
231.3730, 175.5969
231.8551, 182.3802
232.3372, 186.0285
232.8194, 185.1104
233.3015, 180.3872
233.7836, 171.9222
234.2657, 158.9302
234.7478, 143.5055
235.2299, 130.2094
235.7121, 119.0797
236.1942, 110.1731
236.6763, 103.4981
237.1584, 98.60435
237.6405, 95.17814
238.1227, 93.16061
238.6048, 92.20423
239.0869, 91.44972
239.5690, 90.88264
240.0511, 90.57750
240.5332, 90.24618
241.0154, 90.25456
241.4975, 91.08284
241.9796, 92.94233
242.4617, 95.44727
242.9438, 97.59706
243.4259, 99.03131
243.9081, 100.6877
244.3902, 102.4864
244.8723, 104.6035
245.3544, 107.2989
245.8365, 110.6724
246.3186, 114.4223
246.8008, 117.9186
247.2829, 121.1577
247.7650, 124.0675
248.2471, 126.3826
248.7292, 128.5259
249.2113, 130.7802
249.6935, 133.2653
250.1756, 136.0782
250.6577, 139.4341
251.1398, 143.7904
251.6219, 148.0474
252.1040, 152.4350
252.5862, 156.5782
253.0683, 159.9035
253.5504, 162.2931
254.0325, 164.4520
254.5146, 167.5029
254.9967, 171.5986
255.4789, 176.5259
255.9610, 182.8500
256.4431, 189.6371
256.9252, 196.1298
257.4073, 202.1553
257.8894, 207.9378
258.3716, 213.7020
258.8537, 219.1307
259.3358, 225.6251
259.8179, 234.3185
260.3000, 243.4252
260.7821, 251.5319
261.2643, 258.3857
261.7464, 264.3467
262.2285, 269.8298
262.7106, 274.8226
263.1927, 279.0675
263.6748, 283.3107
264.1570, 286.3095
264.6391, 286.9512
265.1212, 285.1475
265.6033, 281.5640
266.0854, 276.8623
266.5675, 270.8515
267.0497, 262.8521
267.5318, 251.7270
268.0139, 239.4207
268.4960, 227.3478
268.9781, 215.6197
269.4602, 203.7111
269.9424, 190.9406
270.4245, 177.6101
270.9066, 165.4818
271.3887, 154.7536
271.8708, 145.0893
272.3529, 136.3839
272.8351, 128.5918
273.3172, 121.5203
273.7993, 115.1190
274.2814, 109.3918
274.7635, 104.0287
275.2456, 99.18648
275.7278, 94.56194
276.2099, 89.76612
276.6920, 84.88466
277.1741, 80.64950
277.6562, 77.57300
278.1383, 75.33555
278.6205, 73.08857
279.1026, 70.66972
279.5847, 68.54242
280.0668, 67.24700
280.5489, 66.61990
281.0310, 65.69482
281.5132, 63.99589
281.9953, 61.97047
282.4774, 60.27390
282.9595, 58.93819
283.4416, 57.72680
283.9237, 56.53087
284.4059, 55.35267
284.8880, 54.16422
285.3701, 52.88197
285.8522, 51.71474
286.3343, 50.97088
286.8164, 50.62539
287.2986, 50.12778
287.7807, 48.82731
288.2628, 47.09676
288.7449, 46.31099
289.2270, 47.12857
289.7091, 48.05640
290.1913, 47.73007
290.6734, 46.44784
291.1555, 45.23521
291.6376, 44.73219
292.1197, 44.62632
292.6018, 44.06849
293.0840, 42.76778
293.5661, 41.63595
294.0482, 41.46170
294.5303, 41.85524
295.0124, 42.13292
295.4945, 41.99849
295.9767, 41.61200
296.4588, 41.23325
296.9409, 40.85060
297.4230, 40.51597
297.9051, 40.30654
298.3872, 40.14304
298.8694, 39.90485
299.3515, 39.48529
299.8336, 39.10408
300.3157, 39.13540
300.7978, 39.66975
301.2799, 40.07206
301.7621, 40.09521
302.2442, 39.86486
302.7263, 39.40712
303.2084, 38.68670
303.6905, 37.97041
304.1726, 37.53582
304.6548, 37.39327
305.1369, 37.31919
305.6190, 37.33551
306.1011, 37.34208
306.5832, 37.14239
307.0653, 36.74558
307.5475, 36.59307
308.0296, 37.31757
308.5117, 38.80547
308.9938, 39.65426
309.4759, 39.35948
309.9580, 38.73230
310.4402, 38.30465
310.9223, 38.04113
311.4044, 37.76760
311.8865, 37.23539
312.3686, 36.57107
312.8507, 36.39004
313.3329, 37.00800
313.8150, 37.58141
314.2971, 37.52366
314.7792, 37.12117
315.2613, 36.91209
315.7434, 37.23281
316.2256, 37.83666
316.7077, 38.18430
317.1898, 38.20727
317.6719, 38.16741
318.1540, 38.12284
318.6361, 38.10120
319.1183, 38.14811
319.6004, 38.29411
320.0825, 38.46545
320.5646, 38.52872
321.0467, 38.44978
321.5288, 38.48117
322.0110, 38.76102
322.4931, 39.15562
322.9752, 39.54912
323.4573, 39.92039
323.9394, 40.37905
324.4215, 41.10113
324.9037, 42.07478
325.3858, 42.87271
325.8679, 43.04348
326.3500, 43.42778
326.8321, 44.65012
327.3142, 46.63973
327.7964, 48.86914
328.2785, 51.25132
328.7606, 53.65456
329.2427, 55.43900
329.7248, 56.43837
330.2069, 57.00386
330.6891, 57.09316
331.1712, 56.95765
331.6533, 57.14809
332.1354, 58.03450
332.6175, 59.33989
333.0996, 60.45700
333.5818, 61.27156
334.0639, 62.28862
334.5460, 63.89624
335.0281, 65.80082
335.5102, 67.64937
335.9923, 69.26495
336.4745, 71.02821
336.9566, 73.63197
337.4387, 77.14137
337.9208, 80.16975
338.4029, 81.68479
338.8850, 82.94078
339.3671, 85.08672
339.8492, 88.24126
340.3314, 91.99684
340.8135, 95.99709
341.2956, 100.3277
341.7777, 105.2582
342.2598, 110.6234
342.7419, 117.0038
343.2241, 124.7695
343.7062, 133.8375
344.1883, 143.8303
344.6704, 155.2061
345.1525, 167.2877
345.6346, 179.1877
346.1168, 191.5463
346.5989, 201.4643
347.0810, 206.9159
347.5631, 208.4159
348.0452, 205.6627
348.5273, 195.5044
349.0095, 183.8209
349.4916, 176.7979
349.9737, 174.4940
350.4558, 175.3701
350.9379, 179.9844
351.4200, 186.8622
351.9022, 193.4947
352.3843, 199.7669
352.8664, 205.7464
353.3485, 211.5476
353.8306, 217.0932
354.3127, 221.9687
354.7949, 225.8422
355.2770, 229.3948
355.7591, 233.3825
356.2412, 237.7524
356.7233, 242.7234
357.2054, 248.4526
357.6876, 254.8057
358.1697, 261.1622
358.6518, 267.2274
359.1339, 274.8806
359.6160, 286.2862
360.0981, 300.9651
360.5803, 315.7901
361.0624, 330.2274
361.5445, 344.7724
362.0266, 360.4282
362.5087, 376.9145
362.9908, 391.8457
363.4730, 403.8341
363.9551, 413.2542
364.4372, 421.8853
364.9193, 430.0129
365.4014, 436.9597
365.8835, 442.2826
366.3657, 446.2083
366.8478, 448.6621
367.3299, 449.2233
367.8120, 449.8997
368.2941, 454.4916
368.7762, 464.2003
369.2584, 472.1781
369.7405, 479.2851
370.2226, 483.1879
370.7047, 481.5663
371.1868, 474.1244
371.6689, 461.9852
372.1511, 445.8261
372.6332, 425.3331
373.1153, 402.3672
373.5974, 374.9212
374.0795, 347.0586
374.5616, 319.5453
375.0438, 293.0789
375.5259, 268.5746
376.0080, 246.6171
376.4901, 227.1905
376.9722, 210.5600
377.4543, 198.3797
377.9365, 186.8284
378.4186, 174.9502
378.9007, 163.7614
379.3828, 154.6938
379.8649, 148.0653
380.3470, 142.7433
380.8292, 137.1048
381.3113, 130.5541
381.7934, 125.5683
382.2755, 122.3428
382.7576, 120.2654
383.2397, 119.3560
383.7219, 119.3477
384.2040, 119.6989
384.6861, 120.0079
385.1682, 120.2793
385.6503, 120.5681
386.1324, 120.2598
386.6146, 120.6855
387.0967, 122.4230
387.5788, 124.9138
388.0609, 127.4402
388.5430, 129.6909
389.0251, 131.9326
389.5073, 134.7095
389.9894, 138.1005
390.4715, 141.9288
390.9536, 146.2466
391.4357, 150.8671
391.9178, 156.0577
392.4000, 161.6030
392.8821, 166.7097
393.3642, 170.7331
393.8463, 173.6823
394.3284, 175.3481
394.8105, 176.3274
395.2927, 175.0849
395.7748, 170.6491
396.2569, 163.8514
396.7390, 155.9613
397.2211, 147.5439
397.7032, 138.5326
398.1854, 128.5770
398.6675, 117.0468
399.1496, 106.3891
399.6317, 97.20332
400.1138, 89.14612
400.5959, 82.20784
401.0781, 76.37926
401.5602, 71.25703
402.0423, 66.53234
402.5244, 62.22475
403.0065, 58.46857
403.4886, 55.34600
403.9708, 52.75393
404.4529, 50.67260
404.9350, 49.00854
405.4171, 47.49884
405.8992, 46.06604
406.3813, 44.71568
406.8635, 43.43877
407.3456, 42.23021
407.8277, 41.12167
408.3098, 40.07550
408.7919, 39.16813
409.2740, 38.52848
409.7562, 38.23299
410.2383, 38.01633
410.7204, 37.77783
411.2025, 37.49339
411.6846, 37.07933
412.1667, 36.49527
412.6489, 35.82444
413.1310, 35.11490
413.6131, 34.36120
414.0952, 33.76063
414.5773, 33.42818
415.0594, 33.20815
415.5416, 32.99609
416.0237, 32.77556
416.5058, 32.50690
416.9879, 32.15766
417.4700, 31.74013
417.9521, 31.32264
418.4343, 30.72346
418.9164, 30.33623
419.3985, 30.34874
419.8806, 30.61428
420.3627, 30.97401
420.8448, 31.37448
421.3270, 31.71604
421.8091, 31.84265
422.2912, 31.67150
422.7733, 31.49954
423.2554, 31.50473
423.7375, 31.35898
424.2197, 30.65586
424.7018, 29.58882
425.1839, 28.77919
425.6660, 28.69937
426.1481, 29.23715
426.6302, 29.63089
427.1124, 29.77720
427.5945, 29.88932
428.0766, 30.07705
428.5587, 30.20194
429.0408, 30.04650
429.5229, 29.57164
430.0051, 29.05592
430.4872, 28.93731
430.9693, 29.34729
431.4514, 29.60490
431.9335, 29.38809
432.4156, 29.29254
432.8978, 29.78109
433.3799, 30.60153
433.8620, 31.09375
434.3441, 30.74745
434.8262, 29.87031
435.3083, 29.29304
435.7905, 28.97731
436.2726, 29.08090
436.7547, 30.04696
437.2368, 31.25765
437.7189, 32.24860
438.2010, 32.94537
438.6832, 33.27737
439.1653, 32.89009
439.6474, 31.97973
440.1295, 31.65703
440.6116, 32.25013
441.0938, 33.15683
441.5759, 34.02848
442.0580, 34.82036
442.5401, 35.33361
443.0222, 35.19636
443.5043, 34.97100
443.9865, 35.30424
444.4686, 36.13517
444.9507, 36.89972
445.4328, 37.31128
445.9149, 37.51885
446.3970, 37.86749
446.8792, 38.40347
447.3613, 38.91541
447.8434, 39.13297
448.3255, 39.39456
448.8076, 40.22785
449.2897, 41.69395
449.7719, 43.25296
450.2540, 44.38953
450.7361, 45.08163
451.2182, 45.86178
451.7003, 46.77247
452.1824, 47.70959
452.6646, 48.43598
453.1467, 49.20920
453.6288, 50.50619
454.1109, 52.54107
454.5930, 54.99121
455.0751, 57.23805
455.5573, 59.17907
456.0394, 61.10466
456.5215, 62.99326
457.0036, 64.88515
457.4857, 66.92724
457.9678, 69.01958
458.4500, 70.91468
458.9321, 72.46425
459.4142, 73.63770
459.8963, 74.33070
460.3784, 74.81792
460.8605, 74.25542
461.3427, 71.87345
461.8248, 68.77431
462.3069, 65.84820
462.7890, 63.32077
463.2711, 61.33535
463.7532, 60.19122
464.2354, 59.83170
464.7175, 59.52883
465.1996, 59.05700
465.6817, 58.88177
466.1638, 59.53587
466.6459, 60.72590
467.1281, 61.70773
467.6102, 61.94795
468.0923, 62.13221
468.5744, 63.10101
469.0565, 64.78665
469.5386, 66.43343
470.0208, 67.75330
470.5029, 68.87379
470.9850, 69.93211
471.4671, 70.85786
471.9492, 72.07626
472.4313, 74.06981
472.9135, 76.19659
473.3956, 77.79933
473.8777, 78.81603
474.3598, 79.47556
474.8419, 79.91408
475.3240, 80.14539
475.8062, 80.28802
476.2883, 80.61171
476.7704, 80.53574
477.2525, 79.66940
477.7346, 78.45897
478.2167, 77.47408
478.6989, 76.84840
479.1810, 76.26143
479.6631, 75.27242
480.1452, 73.79851
480.6273, 72.37366
481.1094, 70.83065
481.5916, 69.51839
482.0737, 68.58466
482.5558, 67.95994
483.0379, 67.51256
483.5200, 67.17765
484.0021, 66.98495
484.4843, 67.03117
484.9664, 67.37801
485.4485, 67.67473
485.9306, 67.69277
486.4127, 67.78609
486.8948, 68.31779
487.3770, 69.20001
487.8591, 69.90256
488.3412, 70.05420
488.8233, 69.84541
489.3054, 69.57633
489.7875, 69.23250
490.2697, 69.02251
490.7518, 69.12320
491.2339, 69.39345
491.7160, 69.59250
492.1981, 69.81686
492.6802, 69.68785
493.1624, 68.64526
493.6445, 67.29710
494.1266, 66.54366
494.6087, 66.53398
495.0908, 66.97237
495.5729, 67.68880
496.0551, 68.67407
496.5372, 69.37660
497.0193, 69.58897
497.5014, 69.80499
497.9835, 70.14577
498.4656, 70.59313
498.9478, 71.11913
499.4299, 71.71265
499.9120, 72.37099
500.3941, 73.11484
500.8762, 74.02858
501.3583, 74.70734
501.8405, 75.46345
502.3226, 75.66164
502.8047, 74.88401
503.2868, 73.40026
503.7689, 71.66440
504.2510, 69.85381
504.7331, 68.04685
505.2152, 66.40181
505.6974, 64.94278
506.1795, 63.47230
506.6616, 61.96061
507.1437, 60.42140
507.6258, 58.75781
508.1079, 57.02514
508.5901, 55.57862
509.0722, 54.54397
509.5543, 53.91508
510.0364, 53.77919
510.5185, 54.12809
511.0006, 54.55341
511.4828, 54.88160
511.9649, 55.15714
512.4470, 55.40458
512.9291, 55.47688
513.4113, 55.98280
513.8934, 57.27988
514.3755, 58.96204
514.8576, 60.58287
515.3397, 62.12792
515.8218, 63.84161
516.3040, 65.91199
516.7861, 68.32188
517.2682, 70.91200
517.7503, 73.87736
518.2324, 76.77660
518.7145, 79.76630
519.1967, 82.57890
519.6788, 84.78521
520.1609, 86.42994
520.6430, 88.16095
521.1251, 90.65328
521.6072, 93.90105
522.0894, 97.17177
522.5715, 100.5697
523.0536, 103.8317
523.5357, 106.6862
524.0178, 109.4587
524.4999, 112.4801
524.9821, 115.8292
525.4642, 119.5415
525.9463, 123.6041
526.4284, 128.0391
526.9105, 133.2214
527.3926, 139.3876
527.8748, 145.6459
528.3569, 151.1476
528.8390, 156.1720
529.3211, 161.7686
529.8032, 168.2263
530.2853, 175.0396
530.7675, 182.2635
531.2496, 189.5698
531.7317, 196.3401
532.2138, 202.4236
532.6959, 207.9781
533.1780, 213.4395
533.6602, 219.3083
534.1423, 221.7667
534.6244, 220.2851
535.1065, 216.5955
535.5886, 210.9027
536.0707, 203.5710
536.5529, 194.8138
537.0350, 184.8044
537.5171, 174.0141
537.9992, 163.3084
538.4813, 152.7521
538.9634, 141.9806
539.4456, 130.0004
539.9277, 118.9947
540.4098, 110.3074
540.8919, 103.3158
541.3740, 96.71053
541.8561, 89.88582
542.3383, 83.46014
542.8204, 78.34181
543.3025, 74.43831
543.7846, 70.87654
544.2667, 67.46227
544.7488, 64.29552
545.2310, 61.52604
545.7131, 59.12054
546.1952, 56.87559
546.6773, 54.67162
547.1594, 52.71862
547.6415, 51.19102
548.1237, 50.02362
548.6058, 49.02485
549.0879, 48.12412
549.5700, 47.36196
550.0521, 46.82439
550.5342, 46.60646
551.0164, 46.33483
551.4985, 45.79396
551.9806, 45.42717
552.4627, 45.31312
552.9448, 45.53620
553.4269, 46.13866
553.9091, 47.12197
554.3912, 48.68623
554.8733, 51.18966
555.3554, 54.68148
555.8375, 58.85023
556.3196, 63.67033
556.8018, 69.21596
557.2839, 75.95076
557.7660, 83.42470
558.2481, 90.33209
558.7302, 96.22960
559.2123, 101.3156
559.6945, 105.7700
560.1766, 109.5670
560.6587, 112.3294
561.1408, 113.7082
561.6229, 114.7985
562.1050, 116.8390
562.5872, 119.8996
563.0693, 123.9688
563.5514, 129.2545
564.0335, 135.3309
564.5156, 142.3083
564.9977, 149.8218
565.4799, 157.0466
565.9620, 163.6654
566.4441, 170.7447
566.9262, 180.0743
567.4083, 192.0993
567.8904, 204.5630
568.3726, 216.9330
568.8547, 230.3698
569.3368, 243.7430
569.8189, 258.8715
570.3010, 278.8863
570.7831, 305.5506
571.2653, 335.1736
571.7474, 364.4764
572.2295, 393.2719
572.7116, 422.2358
573.1937, 453.7742
573.6758, 479.5490
574.1580, 494.5836
574.6401, 498.0251
575.1222, 486.1698
575.6043, 453.4432
576.0864, 411.3107
576.5685, 359.6818
577.0507, 304.2236
577.5328, 253.0487
578.0149, 208.4753
578.4970, 171.4328
578.9791, 143.4329
579.4612, 124.7384
579.9434, 108.4792
580.4255, 94.73447
580.9076, 83.48691
581.3897, 75.47292
581.8718, 69.48469
582.3539, 64.46126
582.8361, 60.05526
583.3182, 56.23093
583.8003, 53.02098
584.2824, 50.37192
584.7645, 47.88590
585.2466, 45.43151
585.7288, 43.49834
586.2108, 42.75005
586.6929, 42.47743
587.1750, 41.63479
587.6572, 40.01548
588.1393, 38.41662
588.6214, 37.08016
589.1035, 36.03173
589.5856, 35.48223
590.0677, 35.36911
590.5499, 35.11460
591.0320, 34.32830
591.5141, 33.13871
591.9962, 32.02728
592.4783, 30.84715
592.9604, 29.98323
593.4426, 29.53563
593.9247, 29.31957
594.4068, 29.32026
594.8889, 29.44614
595.3710, 29.50132
595.8531, 29.35769
596.3353, 29.06811
596.8174, 28.67762
597.2995, 28.11831
