##NAMES=Benitoite
##RRUFFID=R050332
##IDEAL CHEMISTRY=BaTi^4+^Si_3_O_9_
##LOCALITY=Benitoite Gem mine, Santa Rita Peak, San Benito County, California, USA
##OWNER=RRUFF
##SOURCE=California Institute of Technology
##DESCRIPTION=Pale blue fragment
##STATUS=The identification of this mineral is confirmed by single-crystal X-ray diffraction and chemical analysis.
##URL=rruff.info/R050332
##MEASURED CHEMISTRY=Ba_1.00_Ti_1.00_Si_3.00_O_9_
92.35352, 8.490348
92.83563, 7.975662
93.31775, 7.756580
93.79987, 7.959379
94.28198, 8.474592
94.76410, 9.000521
95.24622, 9.494649
95.72833, 9.949542
96.21045, 10.33948
96.69257, 10.66653
97.17468, 10.93165
97.65680, 11.01976
98.13892, 10.93919
98.62103, 11.14051
99.10315, 11.75249
99.58527, 12.74450
100.0674, 13.92869
100.5495, 15.32758
101.0316, 16.84712
101.5137, 18.31497
101.9958, 19.67545
102.4780, 21.21275
102.9601, 22.99927
103.4422, 25.03883
103.9243, 27.31291
104.4064, 29.92982
104.8885, 32.72424
105.3707, 35.49767
105.8528, 38.39552
106.3349, 41.03364
106.8170, 43.23702
107.2991, 44.86446
107.7813, 46.31089
108.2634, 47.33581
108.7455, 48.15142
109.2276, 49.42637
109.7097, 51.57925
110.1918, 53.90337
110.6740, 56.10973
111.1561, 57.93447
111.6382, 59.92957
112.1203, 62.18025
112.6024, 64.67178
113.0845, 67.18786
113.5667, 69.50756
114.0488, 71.93320
114.5309, 74.69727
115.0130, 78.14096
115.4951, 81.62889
115.9772, 84.77401
116.4594, 87.62543
116.9415, 91.06809
117.4236, 95.56442
117.9057, 100.7813
118.3878, 106.3378
118.8699, 111.7398
119.3521, 117.7717
119.8342, 125.3066
120.3163, 134.5415
120.7984, 143.6494
121.2805, 152.9379
121.7626, 161.2577
122.2448, 166.6441
122.7269, 168.6225
123.2090, 167.0062
123.6911, 160.7999
124.1732, 149.1571
124.6553, 136.0300
125.1375, 124.0279
125.6196, 113.2887
126.1017, 104.2480
126.5838, 97.62307
127.0659, 92.80808
127.5480, 88.60543
128.0302, 84.67333
128.5123, 81.57842
128.9944, 80.55238
129.4765, 81.41895
129.9586, 82.53078
130.4407, 82.57373
130.9229, 81.82857
131.4050, 81.48650
131.8871, 81.93819
132.3692, 82.78352
132.8513, 82.97358
133.3334, 82.31554
133.8156, 81.38140
134.2977, 80.98162
134.7798, 81.37073
135.2619, 82.11129
135.7440, 83.15462
136.2261, 84.45427
136.7083, 85.87634
137.1904, 87.39507
137.6725, 89.12182
138.1546, 91.21107
138.6367, 93.70088
139.1188, 96.36121
139.6010, 99.10840
140.0831, 101.9280
140.5652, 105.1331
141.0473, 108.5998
141.5294, 112.6403
142.0115, 117.7236
142.4937, 124.3066
142.9758, 130.9602
143.4579, 137.5288
143.9400, 144.2061
144.4221, 149.6692
144.9042, 153.4856
145.3864, 156.3670
145.8685, 159.4285
146.3506, 162.8471
146.8327, 166.2339
147.3148, 169.5070
147.7969, 172.6417
148.2791, 175.6513
148.7612, 178.0537
149.2433, 180.3557
149.7254, 183.8079
150.2075, 189.4153
150.6896, 195.2698
151.1718, 200.5986
151.6539, 204.4091
152.1360, 209.1540
152.6181, 214.9768
153.1002, 221.7722
153.5823, 229.2037
154.0645, 237.3675
154.5466, 246.1421
155.0287, 255.4147
155.5108, 264.1761
155.9929, 274.7973
156.4750, 287.4633
156.9572, 302.1701
157.4393, 318.7247
157.9214, 338.0052
158.4035, 358.7071
158.8856, 380.0607
159.3677, 404.6957
159.8499, 427.2696
160.3320, 448.2853
160.8141, 466.9528
161.2962, 477.9775
161.7783, 481.7157
162.2604, 475.9037
162.7426, 458.6830
163.2247, 422.7220
163.7068, 381.2884
164.1889, 336.6726
164.6710, 289.8607
165.1531, 248.2234
165.6353, 215.0068
166.1174, 188.9933
166.5995, 168.8776
167.0816, 156.7172
167.5637, 148.3810
168.0458, 141.8111
168.5280, 136.9992
169.0101, 133.1295
169.4922, 129.8222
169.9743, 127.1484
170.4564, 125.2363
170.9385, 124.3845
171.4207, 124.1639
171.9028, 124.2763
172.3849, 124.7174
172.8670, 125.3521
173.3491, 125.9731
173.8312, 126.7172
174.3134, 127.8529
174.7955, 129.5275
175.2776, 131.6329
175.7597, 133.9226
176.2418, 136.3572
176.7239, 139.3857
177.2061, 143.6121
177.6882, 148.8589
178.1703, 154.5454
178.6524, 159.8784
179.1345, 165.6663
179.6166, 172.9194
180.0988, 181.6432
180.5809, 192.4447
181.0630, 206.0367
181.5451, 222.3948
182.0272, 240.8393
182.5093, 262.4844
182.9915, 286.1181
183.4736, 309.0816
183.9557, 331.9121
184.4378, 352.2300
184.9199, 366.3508
185.4020, 374.6437
185.8842, 381.5585
186.3663, 388.9336
186.8484, 396.7591
187.3305, 404.5539
187.8126, 412.1720
188.2947, 420.2637
188.7769, 430.0226
189.2590, 441.4034
189.7411, 453.4413
190.2232, 465.5704
190.7053, 477.8817
191.1874, 491.1337
191.6696, 505.4170
192.1517, 520.8936
192.6338, 537.7473
193.1159, 555.9521
193.5980, 576.1434
194.0801, 597.6747
194.5623, 620.6837
195.0444, 648.8393
195.5265, 681.7154
196.0086, 720.6362
196.4907, 768.3761
196.9728, 825.0157
197.4550, 889.5583
197.9371, 962.4677
198.4192, 1043.800
198.9013, 1130.555
199.3834, 1225.968
199.8655, 1322.716
200.3477, 1412.508
200.8298, 1501.035
201.3119, 1554.626
201.7940, 1547.582
202.2761, 1475.933
202.7582, 1385.713
203.2404, 1272.197
203.7225, 1149.002
204.2046, 1053.072
204.6867, 986.0938
205.1688, 940.1528
205.6509, 913.3301
206.1331, 907.1107
206.6152, 909.1890
207.0973, 919.7875
207.5794, 937.3561
208.0615, 957.0228
208.5436, 978.2071
209.0258, 1003.126
209.5079, 1032.988
209.9900, 1067.811
210.4721, 1106.477
210.9542, 1148.241
211.4363, 1193.981
211.9185, 1246.107
212.4006, 1303.548
212.8827, 1370.274
213.3648, 1447.444
213.8469, 1536.557
214.3290, 1633.804
214.8112, 1741.807
215.2933, 1856.738
215.7754, 1970.722
216.2575, 2088.520
216.7396, 2196.751
217.2217, 2290.430
217.7038, 2376.716
218.1860, 2427.184
218.6681, 2442.358
219.1502, 2420.026
219.6323, 2346.897
220.1144, 2210.857
220.5965, 2046.047
221.0787, 1867.706
221.5608, 1664.976
222.0429, 1479.050
222.5250, 1312.757
223.0071, 1165.208
223.4892, 1040.059
223.9714, 939.0247
224.4535, 855.7921
224.9356, 786.5193
225.4177, 733.2464
225.8998, 690.2546
226.3819, 658.0443
226.8641, 635.6605
227.3462, 621.1555
227.8283, 615.5541
228.3104, 616.2034
228.7925, 622.1367
229.2746, 634.8420
229.7568, 649.9241
230.2389, 668.3273
230.7210, 688.9607
231.2031, 709.4867
231.6852, 737.5994
232.1673, 754.2567
232.6495, 749.7324
233.1316, 719.9344
233.6137, 677.0587
234.0958, 615.3981
234.5779, 542.5109
235.0600, 480.0680
235.5422, 427.8890
236.0243, 385.4367
236.5064, 352.9007
236.9885, 332.9470
237.4706, 317.1459
237.9527, 306.2762
238.4349, 299.5219
238.9170, 295.1954
239.3991, 293.9969
239.8812, 294.1754
240.3633, 294.9917
240.8454, 296.1835
241.3276, 298.6031
241.8097, 301.9427
242.2918, 306.5926
242.7739, 313.5234
243.2560, 323.5715
243.7381, 334.6033
244.2203, 345.6872
244.7024, 356.1852
245.1845, 368.5769
245.6666, 383.3089
246.1487, 399.6931
246.6308, 416.7186
247.1130, 434.2281
247.5951, 452.7211
248.0772, 472.2383
248.5593, 493.0160
249.0414, 514.3495
249.5235, 536.4651
250.0057, 558.9554
250.4878, 581.6241
250.9699, 604.7258
251.4520, 627.6000
251.9341, 649.3827
252.4162, 669.4636
252.8984, 692.0658
253.3805, 717.8323
253.8626, 745.8528
254.3447, 773.9445
254.8268, 801.9197
255.3089, 831.1509
255.7911, 861.5730
256.2732, 893.2098
256.7553, 926.9213
257.2374, 962.7806
257.7195, 1000.810
258.2017, 1041.125
258.6838, 1084.405
259.1659, 1129.200
259.6480, 1175.658
260.1301, 1223.379
260.6122, 1273.049
261.0944, 1326.375
261.5765, 1379.802
262.0586, 1430.703
262.5407, 1480.590
263.0228, 1523.713
263.5049, 1559.224
263.9871, 1587.293
264.4692, 1604.866
264.9513, 1613.115
265.4334, 1609.352
265.9155, 1590.593
266.3976, 1556.232
266.8798, 1509.881
267.3619, 1451.010
267.8440, 1380.113
268.3261, 1304.610
268.8082, 1223.071
269.2903, 1140.268
269.7725, 1059.748
270.2546, 981.9623
270.7367, 908.8309
271.2188, 841.0879
271.7009, 778.3671
272.1830, 721.1902
272.6652, 668.2302
273.1473, 620.4666
273.6294, 578.1932
274.1115, 541.9341
274.5936, 508.6245
275.0757, 477.8905
275.5579, 449.6035
276.0400, 424.5122
276.5221, 402.9063
277.0042, 383.3204
277.4863, 365.1229
277.9684, 348.3563
278.4506, 332.3223
278.9327, 316.8114
279.4148, 302.2201
279.8969, 289.4645
280.3790, 278.6369
280.8611, 269.0080
281.3433, 260.6576
281.8254, 253.5387
282.3075, 245.6277
282.7896, 236.5396
283.2717, 227.2608
283.7538, 219.4725
284.2360, 213.2207
284.7181, 207.2613
285.2002, 200.8516
285.6823, 194.1297
286.1644, 188.5110
286.6465, 184.2327
287.1287, 180.3822
287.6108, 175.6648
288.0929, 170.1444
288.5750, 165.0236
289.0571, 160.8727
289.5392, 157.4638
290.0214, 153.9508
290.5035, 150.3174
290.9856, 146.8290
291.4677, 143.7979
291.9498, 141.1749
292.4319, 138.7606
292.9141, 136.5395
293.3962, 134.4389
293.8783, 132.2538
294.3604, 129.9922
294.8425, 127.8082
295.3246, 125.7002
295.8068, 123.7340
296.2889, 122.2147
296.7710, 121.3681
297.2531, 120.7936
297.7352, 119.8079
298.2173, 118.4571
298.6995, 117.0866
299.1816, 115.9844
299.6637, 115.0455
300.1458, 114.0545
300.6279, 112.9129
301.1100, 111.8124
301.5922, 111.0784
302.0743, 110.6299
302.5564, 110.1456
303.0385, 109.2100
303.5206, 108.1890
304.0027, 107.6780
304.4849, 107.8591
304.9670, 108.1283
305.4491, 107.9506
305.9312, 107.4190
306.4133, 106.7570
306.8954, 105.9771
307.3776, 105.1759
307.8597, 104.4052
308.3418, 103.6473
308.8239, 103.1108
309.3060, 103.1612
309.7881, 103.5010
310.2703, 103.6581
310.7524, 103.2915
311.2345, 102.7869
311.7166, 102.3990
312.1987, 102.1318
312.6808, 101.9165
313.1630, 101.7550
313.6451, 101.6065
314.1272, 101.4266
314.6093, 101.2890
315.0914, 101.0335
315.5735, 100.3863
316.0557, 99.46358
316.5378, 98.88538
317.0199, 99.27000
317.5020, 99.89335
317.9841, 100.2088
318.4662, 99.79422
318.9484, 99.50028
319.4305, 99.88110
319.9126, 100.6228
320.3947, 100.9004
320.8768, 99.72749
321.3589, 98.59657
321.8411, 98.34116
322.3232, 99.50945
322.8053, 100.4681
323.2874, 100.6568
323.7695, 100.4929
324.2516, 100.6372
324.7338, 101.4493
325.2159, 102.3453
325.6980, 102.9549
326.1801, 102.9892
326.6622, 103.9992
327.1443, 106.0671
327.6265, 109.1647
328.1086, 113.2926
328.5907, 119.0866
329.0728, 125.1405
329.5549, 131.4507
330.0370, 138.0502
330.5192, 144.1244
331.0013, 149.9732
331.4834, 155.0937
331.9655, 159.1163
332.4476, 161.2444
332.9297, 163.6365
333.4119, 166.3856
333.8940, 169.5138
334.3761, 173.0980
334.8582, 177.0160
335.3403, 181.4452
335.8224, 186.4741
336.3046, 192.1836
336.7867, 198.2487
337.2688, 204.5498
337.7509, 211.3196
338.2330, 219.0644
338.7151, 227.5595
339.1973, 237.5357
339.6794, 248.9073
340.1615, 261.4488
340.6436, 278.0305
341.1257, 298.5833
341.6078, 322.9102
342.0899, 351.4560
342.5721, 383.9005
343.0542, 418.2706
343.5363, 453.7767
344.0184, 490.3786
344.5005, 529.8807
344.9826, 572.4636
345.4648, 614.3095
345.9469, 659.2834
346.4290, 704.4926
346.9111, 721.6087
347.3932, 700.9094
347.8753, 655.8502
348.3575, 604.2773
348.8396, 547.6756
349.3217, 500.8086
349.8038, 474.5814
350.2859, 465.9173
350.7680, 468.1781
351.2502, 481.1960
351.7323, 502.6828
352.2144, 531.3992
352.6965, 566.8123
353.1786, 606.4913
353.6607, 651.0256
354.1429, 698.3613
354.6250, 746.3262
355.1071, 794.8467
355.5892, 843.4706
356.0713, 892.3571
356.5534, 941.0387
357.0356, 988.8018
357.5177, 1034.189
357.9998, 1079.834
358.4819, 1127.234
358.9640, 1176.135
359.4461, 1223.965
359.9283, 1273.065
360.4104, 1318.541
360.8925, 1356.278
361.3746, 1384.603
361.8567, 1406.354
362.3388, 1417.042
362.8210, 1421.787
363.3031, 1432.475
363.7852, 1447.714
364.2673, 1473.802
364.7494, 1514.025
365.2315, 1569.752
365.7137, 1636.045
366.1958, 1716.516
366.6779, 1804.768
367.1600, 1894.021
367.6421, 1990.154
368.1242, 2080.318
368.6064, 2166.330
369.0885, 2248.992
369.5706, 2308.946
370.0527, 2358.582
370.5348, 2376.534
371.0169, 2348.602
371.4991, 2266.050
371.9812, 2152.220
372.4633, 1998.574
372.9454, 1814.340
373.4275, 1633.155
373.9096, 1447.075
374.3918, 1274.303
374.8739, 1126.350
375.3560, 1003.119
375.8381, 897.2847
376.3202, 811.1461
376.8023, 740.8514
377.2845, 682.1221
377.7666, 636.0775
378.2487, 598.1147
378.7308, 568.6217
379.2129, 546.5451
379.6950, 527.9891
380.1772, 512.9095
380.6593, 500.7522
381.1414, 491.1164
381.6235, 483.9903
382.1056, 478.5067
382.5877, 474.6049
383.0699, 472.1986
383.5520, 471.0115
384.0341, 471.0767
384.5162, 472.8192
384.9983, 476.5721
385.4804, 482.2030
385.9626, 489.1325
386.4447, 497.0812
386.9268, 507.5166
387.4089, 522.3427
387.8910, 540.8644
388.3731, 561.1898
388.8553, 581.6511
389.3374, 604.0883
389.8195, 630.9385
390.3016, 661.6508
390.7837, 693.0861
391.2658, 724.0557
391.7480, 754.0287
392.2301, 782.7151
392.7122, 812.2804
393.1943, 837.4481
393.6764, 858.0955
394.1585, 872.6033
394.6407, 876.0976
395.1228, 867.0823
395.6049, 846.8380
396.0870, 814.8189
396.5691, 769.1495
397.0512, 718.0871
397.5334, 658.7978
398.0155, 596.1160
398.4976, 536.8980
398.9797, 479.0406
399.4618, 427.1014
399.9439, 382.1397
400.4261, 344.1408
400.9082, 310.7453
401.3903, 282.5818
401.8724, 258.4166
402.3545, 237.6090
402.8366, 221.2457
403.3188, 206.3336
403.8009, 192.7290
404.2830, 180.4767
404.7651, 169.7401
405.2472, 160.8019
405.7293, 152.8735
406.2115, 145.7535
406.6936, 139.5154
407.1757, 133.5326
407.6578, 127.6917
408.1399, 122.3807
408.6220, 118.1502
409.1042, 114.9786
409.5863, 111.8544
410.0684, 108.3888
410.5505, 104.9039
411.0326, 102.0760
411.5147, 99.87936
411.9969, 97.86333
412.4790, 95.59755
412.9611, 93.24906
413.4432, 91.31717
413.9253, 89.92398
414.4074, 88.65208
414.8896, 86.90970
415.3717, 84.92586
415.8538, 83.25236
416.3359, 82.46748
416.8180, 81.92093
417.3001, 80.94340
417.7823, 79.52978
418.2644, 78.33280
418.7465, 77.83738
419.2286, 77.66196
419.7107, 77.45610
420.1928, 77.22453
420.6750, 76.81078
421.1571, 76.01212
421.6392, 74.97079
422.1213, 74.07700
422.6034, 73.51818
423.0855, 73.05783
423.5677, 72.59134
424.0498, 72.09234
424.5319, 71.66982
425.0140, 70.83036
425.4961, 70.31016
425.9782, 70.90061
426.4604, 73.73547
426.9425, 76.05208
427.4246, 77.63396
427.9067, 78.44280
428.3888, 77.96427
428.8709, 75.58122
429.3531, 73.00867
429.8352, 71.16473
430.3173, 70.19128
430.7994, 69.34957
431.2815, 68.59277
431.7636, 68.00426
432.2458, 67.81755
432.7279, 68.05871
433.2100, 68.24684
433.6921, 68.18752
434.1742, 67.94686
434.6563, 67.80913
435.1385, 67.77912
435.6206, 67.65791
436.1027, 67.16888
436.5848, 66.45208
437.0669, 65.86626
437.5490, 65.44923
438.0312, 65.25743
438.5133, 65.48650
438.9954, 66.00862
439.4775, 66.46750
439.9596, 66.50568
440.4417, 66.51089
440.9239, 66.90617
441.4060, 67.71661
441.8881, 68.47476
442.3702, 68.81832
442.8523, 69.01635
443.3344, 69.32454
443.8166, 69.66078
444.2987, 70.29202
444.7808, 71.36455
445.2629, 72.80200
445.7450, 74.39481
446.2271, 76.21545
446.7093, 78.04449
447.1914, 79.80135
447.6735, 81.48401
448.1556, 83.08773
448.6377, 84.42336
449.1198, 85.79053
449.6020, 87.51492
450.0841, 89.70076
450.5662, 91.97015
451.0483, 94.36837
451.5304, 96.81126
452.0125, 98.74322
452.4947, 99.95015
452.9768, 101.3561
453.4589, 103.5332
453.9410, 106.5187
454.4231, 109.6024
454.9052, 112.7876
455.3874, 116.1343
455.8695, 119.7344
456.3516, 123.6104
456.8337, 127.7467
457.3158, 132.0006
457.7979, 136.6874
458.2801, 142.8159
458.7622, 150.1502
459.2443, 157.2639
459.7264, 162.7788
460.2085, 167.5886
460.6906, 172.8819
461.1728, 178.9628
461.6549, 184.8671
462.1370, 190.5478
462.6191, 195.3907
463.1012, 198.3434
463.5833, 199.3519
464.0655, 198.0971
464.5476, 193.9716
465.0297, 187.1984
465.5118, 179.3439
465.9939, 170.0444
466.4760, 160.4766
466.9582, 151.2309
467.4403, 141.5389
467.9224, 133.4925
468.4045, 127.5971
468.8866, 123.1679
469.3687, 119.1680
469.8509, 115.5486
470.3330, 112.5981
470.8151, 110.5546
471.2972, 109.3224
471.7793, 107.7928
472.2614, 105.7147
472.7436, 103.9860
473.2257, 103.4519
473.7078, 104.1370
474.1899, 104.3936
474.6720, 104.0542
475.1541, 103.3846
475.6363, 102.7311
476.1184, 102.0846
476.6005, 101.3841
477.0826, 100.5326
477.5647, 99.65643
478.0468, 99.02734
478.5290, 98.61086
479.0111, 98.09429
479.4932, 97.12653
479.9753, 95.99126
480.4574, 94.96172
480.9395, 94.01080
481.4217, 93.42272
481.9038, 93.42823
482.3859, 93.90209
482.8680, 94.66828
483.3501, 95.79617
483.8322, 97.08130
484.3144, 98.35188
484.7965, 99.62801
485.2786, 101.3737
485.7607, 104.0094
486.2428, 106.8339
486.7249, 109.4801
487.2071, 111.6604
487.6892, 114.2211
488.1713, 117.2907
488.6534, 120.6479
489.1355, 123.9944
489.6176, 127.2587
490.0998, 130.8073
490.5819, 134.8593
491.0640, 139.3197
491.5461, 143.5091
492.0282, 147.3915
492.5103, 151.4520
492.9925, 155.9120
493.4746, 160.8344
493.9567, 166.1516
494.4388, 171.9279
494.9209, 178.1187
495.4030, 184.7783
495.8852, 191.8489
496.3673, 199.4083
496.8494, 207.7679
497.3315, 216.2604
497.8136, 224.3468
498.2957, 232.0820
498.7779, 239.3625
499.2600, 246.6486
499.7421, 253.2070
500.2242, 258.4213
500.7063, 262.0845
501.1884, 265.2730
501.6706, 269.0389
502.1527, 272.1598
502.6348, 273.3227
503.1169, 272.2870
503.5990, 269.3350
504.0811, 264.0508
504.5633, 256.8922
505.0454, 249.2554
505.5275, 240.9207
506.0096, 232.6988
506.4917, 224.8188
506.9738, 217.1612
507.4560, 210.4008
507.9381, 204.4528
508.4202, 199.6206
508.9023, 196.2837
509.3844, 194.4137
509.8665, 193.5464
510.3487, 193.6072
510.8308, 194.6103
511.3129, 196.7000
511.7950, 199.8007
512.2772, 203.5573
512.7593, 207.5709
513.2414, 212.2446
513.7235, 218.1269
514.2056, 225.2200
514.6877, 233.2809
515.1699, 241.9128
515.6520, 251.5649
516.1341, 262.6477
516.6162, 275.3368
517.0983, 289.3427
517.5804, 304.5993
518.0626, 321.1846
518.5447, 339.2279
519.0268, 359.0080
519.5089, 380.0818
519.9910, 402.5337
520.4731, 426.3302
520.9553, 449.8531
521.4374, 472.5956
521.9195, 495.4295
522.4016, 518.5888
522.8837, 541.5363
523.3658, 566.5571
523.8480, 593.7825
524.3301, 622.9758
524.8122, 653.1648
525.2943, 684.3251
525.7764, 718.3498
526.2585, 755.8063
526.7407, 796.3465
527.2228, 840.2531
527.7049, 887.6304
528.1870, 937.5106
528.6691, 991.1703
529.1512, 1046.728
529.6334, 1102.364
530.1155, 1158.440
530.5976, 1213.761
531.0797, 1270.560
531.5618, 1325.653
532.0439, 1375.440
532.5261, 1421.943
533.0082, 1459.703
533.4903, 1491.781
533.9724, 1514.299
534.4545, 1519.671
534.9366, 1506.649
535.4188, 1476.811
535.9009, 1428.595
536.3830, 1362.269
536.8651, 1287.281
537.3472, 1201.160
537.8293, 1111.669
538.3115, 1023.287
538.7936, 936.0453
539.2757, 853.5643
539.7578, 776.0202
540.2399, 704.9787
540.7220, 641.8261
541.2042, 586.9261
541.6863, 537.7689
542.1684, 493.3591
542.6505, 453.9009
543.1326, 420.2090
543.6147, 391.8218
544.0969, 366.1818
544.5790, 342.9320
545.0611, 321.7176
545.5432, 302.3867
546.0253, 285.0015
546.5074, 269.2949
546.9896, 255.4053
547.4717, 243.1887
547.9538, 232.5462
548.4359, 224.0551
548.9180, 216.3425
549.4001, 209.2735
549.8823, 202.8544
550.3644, 197.1040
550.8465, 191.8452
551.3286, 187.4820
551.8107, 184.1085
552.2928, 181.7032
552.7750, 180.1084
553.2571, 179.2379
553.7392, 179.5251
554.2213, 181.0615
554.7034, 183.9272
555.1855, 188.3604
555.6677, 194.2183
556.1498, 202.8241
556.6319, 214.5498
557.1140, 230.0626
557.5961, 250.8045
558.0782, 277.7316
558.5604, 309.2083
559.0425, 346.2792
559.5246, 386.6846
560.0067, 425.2133
560.4888, 460.0306
560.9709, 491.8594
561.4531, 519.5901
561.9352, 543.3907
562.4173, 567.7333
562.8994, 591.7731
563.3815, 617.6829
563.8636, 646.1821
564.3458, 674.6904
564.8279, 712.0197
565.3100, 757.9918
565.7921, 813.4872
566.2742, 878.6471
566.7563, 953.6220
567.2385, 1039.936
567.7206, 1138.443
568.2027, 1247.280
568.6848, 1359.799
569.1669, 1476.959
569.6490, 1594.610
570.1312, 1709.139
570.6133, 1825.182
571.0954, 1947.496
571.5775, 2077.659
572.0596, 2212.687
572.5417, 2370.323
573.0239, 2522.684
573.5060, 2653.657
573.9881, 2786.375
574.4702, 2829.362
574.9523, 2740.229
575.4344, 2551.942
575.9166, 2306.873
576.3987, 1937.520
576.8808, 1601.997
577.3629, 1309.781
577.8450, 1062.297
578.3271, 862.3641
578.8093, 716.1675
579.2914, 600.5602
579.7735, 511.3349
580.2556, 447.5201
580.7377, 394.7691
581.2198, 353.6797
581.7020, 320.2501
582.1841, 292.9406
582.6662, 270.7060
583.1483, 250.7131
583.6304, 232.9541
584.1125, 217.2436
584.5947, 203.6778
585.0768, 192.0598
585.5589, 182.1202
586.0410, 174.6651
586.5231, 167.8648
587.0052, 160.9915
587.4873, 154.2248
587.9694, 148.1663
