##NAMES=Benitoite
##RRUFFID=R050320
##IDEAL CHEMISTRY=BaTi^4+^Si_3_O_9_
##LOCALITY=San Benito County, California, USA
##OWNER=RRUFF
##SOURCE=American Museum of Natural History
##DESCRIPTION=Blue fragment
##STATUS=The identification of this mineral has been confirmed by X-ray diffraction and chemical analysis
##URL=rruff.info/R050320
##MEASURED CHEMISTRY=Ba_1.00_Ti_1.00_(Si_2.99_Al_0.01_)_Î£=3_O_9_
100.5495, 8.587332
101.0316, 9.295225
101.5137, 10.38592
101.9958, 11.98378
102.4780, 13.54868
102.9601, 14.86270
103.4422, 15.86015
103.9243, 17.06426
104.4064, 18.63412
104.8885, 20.31630
105.3707, 21.67234
105.8528, 22.52026
106.3349, 23.28002
106.8170, 24.09943
107.2991, 25.03688
107.7813, 25.91232
108.2634, 26.49602
108.7455, 26.98879
109.2276, 28.03487
109.7097, 30.31058
110.1918, 32.66128
110.6740, 34.61199
111.1561, 35.41308
111.6382, 36.64247
112.1203, 38.67243
112.6024, 41.36783
113.0845, 43.79128
113.5667, 46.09854
114.0488, 47.91242
114.5309, 48.99995
115.0130, 48.27224
115.4951, 47.77300
115.9772, 47.95580
116.4594, 48.83709
116.9415, 50.47216
117.4236, 53.25081
117.9057, 56.67442
118.3878, 60.19384
118.8699, 63.32357
119.3521, 66.74902
119.8342, 71.02950
120.3163, 76.26086
120.7984, 81.65011
121.2805, 87.68067
121.7626, 93.48225
122.2448, 97.56712
122.7269, 99.67887
123.2090, 99.52351
123.6911, 96.28798
124.1732, 89.39879
124.6553, 81.47294
125.1375, 74.19290
125.6196, 67.68298
126.1017, 62.33624
126.5838, 58.70894
127.0659, 56.35783
127.5480, 54.50323
128.0302, 53.06583
128.5123, 51.98241
128.9944, 51.07067
129.4765, 50.36406
129.9586, 50.17457
130.4407, 51.13251
130.9229, 52.91698
131.4050, 54.15707
131.8871, 54.34383
132.3692, 54.02856
132.8513, 54.43345
133.3334, 55.50123
133.8156, 56.68834
134.2977, 57.77743
134.7798, 58.96276
135.2619, 60.16195
135.7440, 61.24324
136.2261, 62.31385
136.7083, 63.97810
137.1904, 66.23153
137.6725, 69.05578
138.1546, 72.41932
138.6367, 76.29170
139.1188, 80.88677
139.6010, 86.36693
140.0831, 92.70535
140.5652, 99.48602
141.0473, 106.9847
141.5294, 114.6527
142.0115, 121.7945
142.4937, 128.6972
142.9758, 134.5926
143.4579, 139.1019
143.9400, 141.8231
144.4221, 145.0382
144.9042, 148.9219
145.3864, 153.1900
145.8685, 157.2097
146.3506, 160.4336
146.8327, 164.1812
147.3148, 168.9560
147.7969, 175.0515
148.2791, 181.4462
148.7612, 188.4779
149.2433, 195.7519
149.7254, 202.4636
150.2075, 207.5339
150.6896, 212.9433
151.1718, 219.3479
151.6539, 226.9332
152.1360, 235.2221
152.6181, 243.5636
153.1002, 252.4883
153.5823, 263.5566
154.0645, 276.9693
154.5466, 292.5565
155.0287, 310.1369
155.5108, 328.4312
155.9929, 350.5310
156.4750, 375.6376
156.9572, 404.3997
157.4393, 439.1649
157.9214, 484.8207
158.4035, 534.2716
158.8856, 583.1993
159.3677, 646.7902
159.8499, 693.9305
160.3320, 719.4488
160.8141, 722.9854
161.2962, 699.6002
161.7783, 629.5789
162.2604, 540.4254
162.7426, 454.8292
163.2247, 372.3475
163.7068, 300.9677
164.1889, 245.1262
164.6710, 204.8474
165.1531, 173.6346
165.6353, 151.7223
166.1174, 136.1058
166.5995, 123.5548
167.0816, 113.9003
167.5637, 106.1796
168.0458, 100.1673
168.5280, 95.88990
169.0101, 92.14928
169.4922, 87.92458
169.9743, 83.85134
170.4564, 80.85072
170.9385, 80.02970
171.4207, 80.00050
171.9028, 79.50967
172.3849, 78.48948
172.8670, 77.58008
173.3491, 77.29251
173.8312, 77.45949
174.3134, 77.76305
174.7955, 77.90805
175.2776, 78.17329
175.7597, 78.96806
176.2418, 80.36446
176.7239, 81.91651
177.2061, 83.11041
177.6882, 84.13793
178.1703, 85.49197
178.6524, 87.32261
179.1345, 89.67165
179.6166, 92.54622
180.0988, 95.95627
180.5809, 99.97704
181.0630, 104.9926
181.5451, 110.8348
182.0272, 116.6134
182.5093, 121.8463
182.9915, 126.7449
183.4736, 131.8696
183.9557, 137.4462
184.4378, 142.7365
184.9199, 146.8283
185.4020, 149.7371
185.8842, 152.1033
186.3663, 153.4653
186.8484, 154.3995
187.3305, 157.1087
187.8126, 162.0280
188.2947, 168.1164
188.7769, 173.7607
189.2590, 178.9971
189.7411, 184.5547
190.2232, 190.7589
190.7053, 197.6213
191.1874, 205.4603
191.6696, 214.5675
192.1517, 224.3228
192.6338, 233.2405
193.1159, 241.2478
193.5980, 250.3474
194.0801, 261.4883
194.5623, 274.6087
195.0444, 289.6735
195.5265, 306.2111
196.0086, 325.1887
196.4907, 348.1621
196.9728, 374.9816
197.4550, 406.9118
197.9371, 445.9062
198.4192, 492.0530
198.9013, 540.0262
199.3834, 591.3351
199.8655, 642.0200
200.3477, 687.8793
200.8298, 732.2648
201.3119, 755.3802
201.7940, 740.6926
202.2761, 685.2414
202.7582, 624.0366
203.2404, 555.9750
203.7225, 487.0653
204.2046, 433.9188
204.6867, 397.6431
205.1688, 373.0833
205.6509, 358.8065
206.1331, 355.6909
206.6152, 356.3857
207.0973, 360.5052
207.5794, 367.9066
208.0615, 378.3786
208.5436, 392.2676
209.0258, 408.3766
209.5079, 425.6924
209.9900, 443.7909
210.4721, 464.4627
210.9542, 487.3061
211.4363, 512.9880
211.9185, 543.9374
212.4006, 580.7276
212.8827, 621.8893
213.3648, 665.2081
213.8469, 710.1036
214.3290, 761.1627
214.8112, 820.6235
215.2933, 885.8776
215.7754, 950.7429
216.2575, 1017.488
216.7396, 1079.777
217.2217, 1135.910
217.7038, 1191.050
218.1860, 1224.326
218.6681, 1234.529
219.1502, 1221.832
219.6323, 1184.081
220.1144, 1115.337
220.5965, 1032.362
221.0787, 942.6580
221.5608, 840.9026
222.0429, 747.2711
222.5250, 663.0193
223.0071, 587.8574
223.4892, 524.2392
223.9714, 473.1562
224.4535, 431.0916
224.9356, 395.7837
225.4177, 367.6796
225.8998, 346.0113
226.3819, 331.8230
226.8641, 323.8342
227.3462, 318.0514
227.8283, 313.8152
228.3104, 312.7597
228.7925, 315.8676
229.2746, 324.0895
229.7568, 334.6400
230.2389, 348.2409
230.7210, 364.0654
231.2031, 380.0767
231.6852, 400.7802
232.1673, 415.0153
232.6495, 417.2786
233.1316, 406.2377
233.6137, 385.4503
234.0958, 350.4437
234.5779, 306.8936
235.0600, 271.0594
235.5422, 243.7869
236.0243, 222.4471
236.5064, 206.2122
236.9885, 196.7183
237.4706, 188.7302
237.9527, 182.2918
238.4349, 177.4346
238.9170, 174.4058
239.3991, 173.6538
239.8812, 174.0573
240.3633, 175.1749
240.8454, 176.9632
241.3276, 179.6290
241.8097, 183.5481
242.2918, 188.1699
242.7739, 192.1569
243.2560, 194.7738
243.7381, 197.8883
244.2203, 202.1418
244.7024, 207.5202
245.1845, 214.1350
245.6666, 222.3916
246.1487, 231.6755
246.6308, 241.0382
247.1130, 250.6126
247.5951, 260.0735
248.0772, 268.9844
248.5593, 276.8337
249.0414, 286.2848
249.5235, 298.2044
250.0057, 311.1608
250.4878, 322.9047
250.9699, 332.5854
251.4520, 342.6053
251.9341, 353.6259
252.4162, 365.8333
252.8984, 378.3588
253.3805, 391.1056
253.8626, 404.3577
254.3447, 418.0290
254.8268, 431.8714
255.3089, 447.0228
255.7911, 463.6398
256.2732, 481.8086
256.7553, 501.4214
257.2374, 523.0909
257.7195, 545.6920
258.2017, 567.6573
258.6838, 588.3106
259.1659, 610.2980
259.6480, 634.6048
260.1301, 661.0682
260.6122, 688.8172
261.0944, 719.3102
261.5765, 749.4247
262.0586, 776.1986
262.5407, 799.5672
263.0228, 819.7859
263.5049, 837.3385
263.9871, 852.2248
264.4692, 860.6949
264.9513, 862.8682
265.4334, 858.6115
265.9155, 847.8214
266.3976, 830.9680
266.8798, 806.4769
267.3619, 773.0538
267.8440, 731.2991
268.3261, 687.9365
268.8082, 642.1197
269.2903, 596.6527
269.7725, 553.9656
270.2546, 514.7086
270.7367, 477.5244
271.2188, 442.2406
271.7009, 409.2730
272.1830, 379.8511
272.6652, 354.6331
273.1473, 331.7607
273.6294, 309.5163
274.1115, 287.6088
274.5936, 268.6243
275.0757, 253.2413
275.5579, 240.4441
276.0400, 227.6724
276.5221, 214.6685
277.0042, 202.7290
277.4863, 192.7831
277.9684, 184.9335
278.4506, 177.6960
278.9327, 171.0216
279.4148, 164.8491
279.8969, 159.1849
280.3790, 154.1044
280.8611, 149.0144
281.3433, 143.3973
281.8254, 137.2413
282.3075, 131.9407
282.7896, 127.6365
283.2717, 123.8940
283.7538, 119.8371
284.2360, 115.4244
284.7181, 111.7682
285.2002, 109.9687
285.6823, 109.7024
286.1644, 107.7961
286.6465, 103.9901
287.1287, 99.55767
287.6108, 96.01305
288.0929, 93.33106
288.5750, 91.08656
289.0571, 89.30037
289.5392, 87.82348
290.0214, 85.97284
290.5035, 83.68894
290.9856, 81.57723
291.4677, 80.45260
291.9498, 80.16035
292.4319, 79.77604
292.9141, 79.00388
293.3962, 77.96332
293.8783, 76.83797
294.3604, 75.63033
294.8425, 74.56236
295.3246, 73.98735
295.8068, 73.73012
296.2889, 73.20742
296.7710, 72.22390
297.2531, 70.96754
297.7352, 69.52003
298.2173, 67.95239
298.6995, 66.83404
299.1816, 67.04838
299.6637, 67.98250
300.1458, 68.29779
300.6279, 67.62138
301.1100, 66.55086
301.5922, 65.75321
302.0743, 65.18718
302.5564, 64.69041
303.0385, 63.96693
303.5206, 63.31309
304.0027, 63.27357
304.4849, 64.05937
304.9670, 64.87595
305.4491, 64.85191
305.9312, 64.25701
306.4133, 63.73829
306.8954, 63.73555
307.3776, 63.90497
307.8597, 63.89455
308.3418, 63.67012
308.8239, 63.40696
309.3060, 63.19760
309.7881, 63.04030
310.2703, 62.93819
310.7524, 63.02503
311.2345, 63.06954
311.7166, 62.76561
312.1987, 62.13304
312.6808, 61.75542
313.1630, 62.26778
313.6451, 63.09027
314.1272, 63.60331
314.6093, 63.46293
315.0914, 63.09370
315.5735, 62.46723
316.0557, 61.68615
316.5378, 61.29795
317.0199, 61.90995
317.5020, 62.78454
317.9841, 63.38487
318.4662, 63.41390
318.9484, 63.40220
319.4305, 63.51518
319.9126, 63.71796
320.3947, 63.91860
320.8768, 64.07057
321.3589, 64.22921
321.8411, 64.39099
322.3232, 64.46083
322.8053, 64.76469
323.2874, 65.64790
323.7695, 66.75151
324.2516, 67.50714
324.7338, 67.14439
325.2159, 67.04950
325.6980, 67.56601
326.1801, 68.68056
326.6622, 70.57243
327.1443, 73.42303
327.6265, 76.98584
328.1086, 81.03796
328.5907, 86.09405
329.0728, 91.00947
329.5549, 95.89349
330.0370, 100.7728
330.5192, 104.3655
331.0013, 105.6574
331.4834, 106.5513
331.9655, 108.3734
332.4476, 111.5760
332.9297, 114.9472
333.4119, 118.3367
333.8940, 121.7996
334.3761, 125.5122
334.8582, 129.2465
335.3403, 133.4517
335.8224, 138.3885
336.3046, 144.2685
336.7867, 150.3195
337.2688, 156.6614
337.7509, 163.0990
338.2330, 169.1615
338.7151, 174.3824
339.1973, 180.5354
339.6794, 188.0410
340.1615, 196.7623
340.6436, 208.3973
341.1257, 223.0467
341.6078, 240.1033
342.0899, 258.7678
342.5721, 278.6449
343.0542, 301.1199
343.5363, 326.5416
344.0184, 354.6217
344.5005, 385.4912
344.9826, 419.1850
345.4648, 453.5909
345.9469, 493.1491
346.4290, 535.2952
346.9111, 555.2189
347.3932, 545.3357
347.8753, 515.2535
348.3575, 476.6478
348.8396, 430.8597
349.3217, 391.4738
349.8038, 368.2379
350.2859, 358.5591
350.7680, 357.3456
351.2502, 364.9966
351.7323, 377.1817
352.2144, 390.3563
352.6965, 404.2999
353.1786, 417.9607
353.6607, 432.1610
354.1429, 445.1968
354.6250, 453.9023
355.1071, 458.0216
355.5892, 462.3711
356.0713, 469.4227
356.5534, 479.3672
357.0356, 492.4916
357.5177, 509.1988
357.9998, 528.9581
358.4819, 550.9623
358.9640, 575.3645
359.4461, 602.6058
359.9283, 633.2311
360.4104, 666.6243
360.8925, 702.3483
361.3746, 740.6519
361.8567, 780.6565
362.3388, 823.7908
362.8210, 868.2136
363.3031, 910.7557
363.7852, 950.5461
364.2673, 988.0582
364.7494, 1023.217
365.2315, 1055.558
365.7137, 1087.363
366.1958, 1117.902
366.6779, 1148.202
367.1600, 1179.751
367.6421, 1212.804
368.1242, 1247.007
368.6064, 1285.295
369.0885, 1328.348
369.5706, 1361.215
370.0527, 1390.868
370.5348, 1405.262
371.0169, 1396.596
371.4991, 1361.298
371.9812, 1308.804
372.4633, 1234.557
372.9454, 1143.366
373.4275, 1053.075
373.9096, 961.3196
374.3918, 872.7803
374.8739, 790.8834
375.3560, 714.5222
375.8381, 645.3173
376.3202, 583.9659
376.8023, 529.8236
377.2845, 482.6564
377.7666, 443.2394
378.2487, 408.5528
378.7308, 378.5038
379.2129, 352.6777
379.6950, 331.7925
380.1772, 316.1174
380.6593, 303.0757
381.1414, 289.6579
381.6235, 276.2861
382.1056, 265.8986
382.5877, 259.4998
383.0699, 256.0029
383.5520, 253.8756
384.0341, 253.0264
384.5162, 252.7095
384.9983, 251.9770
385.4804, 251.4910
385.9626, 252.5157
386.4447, 255.1064
386.9268, 259.5768
387.4089, 266.7576
387.8910, 276.1024
388.3731, 286.2236
388.8553, 295.9626
389.3374, 306.5536
389.8195, 319.3137
390.3016, 334.0154
390.7837, 349.6285
391.2658, 365.6855
391.7480, 382.0647
392.2301, 398.9055
392.7122, 418.6353
393.1943, 435.5315
393.6764, 447.3148
394.1585, 454.1225
394.6407, 456.1801
395.1228, 455.1169
395.6049, 448.2765
396.0870, 433.5396
396.5691, 409.0229
397.0512, 382.1677
397.5334, 352.8570
398.0155, 322.3299
398.4976, 292.5386
398.9797, 261.2984
399.4618, 233.0639
399.9439, 208.6775
400.4261, 188.1323
400.9082, 170.2647
401.3903, 155.3213
401.8724, 142.8169
402.3545, 132.6366
402.8366, 125.9717
403.3188, 119.2067
403.8009, 111.8112
404.2830, 104.3465
404.7651, 98.28306
405.2472, 93.93764
405.7293, 90.25905
406.2115, 86.90575
406.6936, 83.91090
407.1757, 81.09306
407.6578, 78.47453
408.1399, 75.95535
408.6220, 73.16682
409.1042, 70.13038
409.5863, 67.91894
410.0684, 67.11935
410.5505, 67.09060
411.0326, 66.20233
411.5147, 64.47400
411.9969, 62.66735
412.4790, 61.36159
412.9611, 60.36126
413.4432, 59.12183
413.9253, 57.44566
414.4074, 55.96828
414.8896, 55.51803
415.3717, 55.79625
415.8538, 56.10980
416.3359, 56.45185
416.8180, 56.47131
417.3001, 55.54264
417.7823, 53.69267
418.2644, 52.20997
418.7465, 52.18174
419.2286, 52.69051
419.7107, 52.83838
420.1928, 52.10534
420.6750, 51.36390
421.1571, 50.96801
421.6392, 50.81433
422.1213, 50.64658
422.6034, 50.32892
423.0855, 50.04151
423.5677, 49.86207
424.0498, 49.82264
424.5319, 49.80439
425.0140, 49.84620
425.4961, 49.88358
425.9782, 49.86024
426.4604, 49.88030
426.9425, 49.67724
427.4246, 49.08795
427.9067, 48.19655
428.3888, 47.63066
428.8709, 47.46044
429.3531, 47.49081
429.8352, 47.66299
430.3173, 48.02464
430.7994, 48.26544
431.2815, 48.35812
431.7636, 48.35696
432.2458, 48.26429
432.7279, 48.05967
433.2100, 48.12070
433.6921, 48.77026
434.1742, 49.76015
434.6563, 50.07496
435.1385, 49.70001
435.6206, 49.23087
436.1027, 49.22128
436.5848, 49.51844
437.0669, 49.64380
437.5490, 49.38885
438.0312, 49.23895
438.5133, 50.00227
438.9954, 51.35761
439.4775, 52.41165
439.9596, 52.41533
440.4417, 52.09815
440.9239, 52.02715
441.4060, 52.23582
441.8881, 52.75666
442.3702, 53.69740
442.8523, 54.91210
443.3344, 56.28398
443.8166, 58.30875
444.2987, 59.86510
444.7808, 60.36143
445.2629, 60.09397
445.7450, 59.93050
446.2271, 59.65553
446.7093, 59.85812
447.1914, 60.86019
447.6735, 62.94279
448.1556, 64.96002
448.6377, 67.06955
449.1198, 68.98887
449.6020, 70.33616
450.0841, 70.53487
450.5662, 71.32035
451.0483, 73.04276
451.5304, 75.55421
452.0125, 78.14338
452.4947, 80.80961
452.9768, 83.62170
453.4589, 86.64954
453.9410, 89.92198
454.4231, 93.28112
454.9052, 96.74374
455.3874, 100.3727
455.8695, 104.4711
456.3516, 108.9665
456.8337, 113.1623
457.3158, 116.7577
457.7979, 120.0465
458.2801, 124.0934
458.7622, 128.6414
459.2443, 131.9786
459.7264, 132.4544
460.2085, 131.1715
460.6906, 129.5054
461.1728, 127.6756
461.6549, 125.4061
462.1370, 122.1604
462.6191, 118.4533
463.1012, 115.1113
463.5833, 112.0890
464.0655, 109.8151
464.5476, 108.6615
465.0297, 108.5506
465.5118, 108.7957
465.9939, 109.0439
466.4760, 109.7256
466.9582, 111.0610
467.4403, 113.0755
467.9224, 115.7834
468.4045, 119.6282
468.8866, 123.9458
469.3687, 127.8105
469.8509, 130.6946
470.3330, 133.9919
470.8151, 138.2018
471.2972, 143.1940
471.7793, 147.5649
472.2614, 151.2668
472.7436, 154.5981
473.2257, 157.7843
473.7078, 160.8407
474.1899, 163.6372
474.6720, 166.2784
475.1541, 168.4026
475.6363, 169.4926
476.1184, 169.5827
476.6005, 168.8886
477.0826, 167.4216
477.5647, 165.2668
478.0468, 162.4769
478.5290, 159.0697
479.0111, 155.2027
479.4932, 150.3023
479.9753, 145.2991
480.4574, 141.3951
480.9395, 139.0414
481.4217, 136.9826
481.9038, 134.2271
482.3859, 131.3627
482.8680, 129.2944
483.3501, 128.8783
483.8322, 128.7640
484.3144, 128.3399
484.7965, 127.6550
485.2786, 127.5627
485.7607, 128.6603
486.2428, 130.0124
486.7249, 131.1308
487.2071, 131.7142
487.6892, 132.7451
488.1713, 134.7765
488.6534, 136.8690
489.1355, 137.5309
489.6176, 136.2089
490.0998, 135.1151
490.5819, 134.9111
491.0640, 135.3432
491.5461, 135.0526
492.0282, 133.9603
492.5103, 132.7443
492.9925, 131.7224
493.4746, 130.9333
493.9567, 130.6575
494.4388, 130.9260
494.9209, 131.6022
495.4030, 132.4630
495.8852, 133.6015
496.3673, 135.2980
496.8494, 137.8670
497.3315, 140.8163
497.8136, 143.8719
498.2957, 146.9757
498.7779, 149.7662
499.2600, 151.7804
499.7421, 153.6413
500.2242, 156.0052
500.7063, 159.2910
501.1884, 161.6325
501.6706, 162.0200
502.1527, 161.3849
502.6348, 160.6509
503.1169, 160.8897
503.5990, 159.8774
504.0811, 157.1058
504.5633, 152.9174
505.0454, 148.3665
505.5275, 143.1529
506.0096, 138.2328
506.4917, 134.1149
506.9738, 130.8503
507.4560, 127.1384
507.9381, 122.6678
508.4202, 118.5845
508.9023, 116.2721
509.3844, 115.6398
509.8665, 115.0332
510.3487, 113.9589
510.8308, 113.1191
511.3129, 113.7980
511.7950, 115.8088
512.2772, 118.2790
512.7593, 120.9101
513.2414, 123.6582
513.7235, 126.3170
514.2056, 128.9203
514.6877, 132.1527
515.1699, 136.6129
515.6520, 141.8179
516.1341, 147.3049
516.6162, 152.8574
517.0983, 158.9345
517.5804, 165.4651
518.0626, 172.6948
518.5447, 181.0269
519.0268, 191.2674
519.5089, 201.8750
519.9910, 212.5759
520.4731, 223.3806
520.9553, 233.8277
521.4374, 243.3229
521.9195, 253.1718
522.4016, 264.2904
522.8837, 276.9049
523.3658, 288.8186
523.8480, 299.5153
524.3301, 310.6300
524.8122, 324.4839
525.2943, 340.8827
525.7764, 357.5423
526.2585, 373.1758
526.7407, 389.4980
527.2228, 410.5148
527.7049, 435.7880
528.1870, 461.9870
528.6691, 487.3423
529.1512, 512.7379
529.6334, 539.5856
530.1155, 568.2669
530.5976, 596.4590
531.0797, 623.8052
531.5618, 649.8846
532.0439, 674.0438
532.5261, 697.5233
533.0082, 717.4515
533.4903, 735.5452
533.9724, 749.6290
534.4545, 755.4825
534.9366, 753.8630
535.4188, 742.5157
535.9009, 719.7756
536.3830, 685.8155
536.8651, 646.8000
537.3472, 600.8429
537.8293, 553.7580
538.3115, 509.2682
538.7936, 467.5263
539.2757, 428.3690
539.7578, 391.9699
540.2399, 358.4730
540.7220, 327.3469
541.2042, 299.0689
541.6863, 274.1357
542.1684, 252.7541
542.6505, 234.3913
543.1326, 218.8071
543.6147, 205.6977
544.0969, 193.5253
544.5790, 181.3791
545.0611, 170.1187
545.5432, 160.7410
546.0253, 153.4223
546.5074, 146.5309
546.9896, 138.9883
547.4717, 131.8901
547.9538, 126.1342
548.4359, 122.6147
548.9180, 119.4383
549.4001, 116.4510
549.8823, 113.6869
550.3644, 111.1800
550.8465, 108.7124
551.3286, 106.8755
551.8107, 105.8677
552.2928, 105.6268
552.7750, 105.6506
553.2571, 105.8722
553.7392, 106.6708
554.2213, 108.0865
554.7034, 110.2151
555.1855, 113.6001
555.6677, 118.2275
556.1498, 124.4277
556.6319, 131.8274
557.1140, 141.0660
557.5961, 153.5905
558.0782, 170.5826
558.5604, 189.7522
559.0425, 211.0853
559.5246, 233.0688
560.0067, 252.1909
560.4888, 264.8866
560.9709, 276.1436
561.4531, 287.5557
561.9352, 299.2756
562.4173, 311.8211
562.8994, 323.9851
563.3815, 338.0667
563.8636, 355.3785
564.3458, 376.1432
564.8279, 399.0489
565.3100, 423.5335
565.7921, 451.1685
566.2742, 483.0041
566.7563, 518.9259
567.2385, 561.6060
567.7206, 611.7113
568.2027, 668.5217
568.6848, 727.8307
569.1669, 790.6507
569.6490, 858.7510
570.1312, 936.1574
570.6133, 1019.011
571.0954, 1099.595
571.5775, 1179.157
572.0596, 1262.605
572.5417, 1365.396
573.0239, 1467.671
573.5060, 1556.769
573.9881, 1645.411
574.4702, 1681.860
574.9523, 1645.428
575.4344, 1550.431
575.9166, 1415.198
576.3987, 1196.339
576.8808, 995.0508
577.3629, 816.8016
577.8450, 663.2261
578.3271, 538.3246
578.8093, 445.5297
579.2914, 372.0992
579.7735, 316.1967
580.2556, 277.0829
580.7377, 244.8824
581.2198, 219.9872
581.7020, 199.6252
582.1841, 182.5050
582.6662, 168.1427
583.1483, 155.0123
583.6304, 143.0416
584.1125, 132.7978
584.5947, 125.6789
585.0768, 120.4223
585.5589, 115.1705
586.0410, 108.6603
586.5231, 102.7439
587.0052, 98.39150
587.4873, 95.25797
587.9694, 92.48799
588.4515, 90.36040
588.9337, 88.08296
589.4158, 85.28910
589.8979, 81.97260
590.3800, 79.17467
590.8621, 76.95993
591.3442, 75.13848
591.8264, 73.65601
592.3085, 72.51631
592.7906, 71.57127
593.2727, 70.87234
593.7548, 70.14568
594.2369, 69.02972
594.7191, 67.58904
595.2012, 66.06283
595.6833, 64.39507
596.1654, 62.87336
596.6475, 61.96003
597.1296, 61.44513
