##NAMES=Benstonite
##RRUFFID=R050484
##IDEAL CHEMISTRY=Ba_6_Ca_6_Mg(CO_3_)_13_
##LOCALITY=Minerva #1 mine, Cave-in-Rock, Hardin County, Illinois, USA
##OWNER=RRUFF
##SOURCE=California Institute of Technology
##DESCRIPTION=Colorless fragment
##STATUS=The identification of this mineral has been confirmed by X-ray diffraction and chemical analysis
##URL=rruff.info/R050484
##MEASURED CHEMISTRY=lighter phase: (Ba_5.77_Sr_0.23_)_Σ=6_Ca_6.00_(Mg_0.90_Ca_0.10_)_Σ=1_(CO_3_)_13_ ; darker phase: (Ba_5.75_Sr_0.25_)_Σ=6_Ca_6.00_(Mg_0.86_Ca_0.14_)_Σ=1_(CO_3_)_13_ ; C estimated by difference
93.30109, 0.0000000E+00
93.78320, 179.3996
94.26532, 178.1150
94.74744, 178.7384
95.22955, 180.8370
95.71167, 183.9334
96.19379, 186.3636
96.67590, 188.5416
97.15802, 190.1920
97.64014, 191.3951
98.12225, 192.0670
98.60437, 191.9977
99.08649, 191.0266
99.56860, 189.5679
100.0507, 188.2812
100.5328, 186.8966
101.0150, 185.4285
101.4971, 183.9585
101.9792, 182.4964
102.4613, 180.9447
102.9434, 178.8836
103.4255, 176.8452
103.9077, 175.2222
104.3898, 174.1251
104.8719, 173.4625
105.3540, 173.0880
105.8361, 173.1246
106.3182, 173.2292
106.8004, 173.4475
107.2825, 173.6357
107.7646, 173.5924
108.2467, 173.1707
108.7288, 172.4001
109.2109, 171.7320
109.6931, 170.7349
110.1752, 170.2428
110.6573, 170.7164
111.1394, 171.9382
111.6215, 173.3139
112.1036, 174.2928
112.5858, 174.7878
113.0679, 175.7038
113.5500, 177.3259
114.0321, 179.1178
114.5142, 180.6492
114.9964, 181.8520
115.4785, 183.0517
115.9606, 184.6626
116.4427, 186.6538
116.9248, 188.6680
117.4069, 190.6272
117.8891, 192.5491
118.3712, 194.4935
118.8533, 196.4664
119.3354, 198.4603
119.8175, 200.4175
120.2996, 202.3539
120.7818, 204.4007
121.2639, 206.5907
121.7460, 208.9159
122.2281, 211.5906
122.7102, 215.0218
123.1923, 218.5931
123.6745, 221.9822
124.1566, 225.1397
124.6387, 228.1922
125.1208, 231.3381
125.6029, 234.5947
126.0850, 237.9174
126.5672, 241.1597
127.0493, 244.5235
127.5314, 248.3240
128.0135, 252.6837
128.4956, 257.2058
128.9777, 260.8600
129.4599, 262.3519
129.9420, 264.3307
130.4241, 267.4421
130.9062, 271.0955
131.3883, 274.4217
131.8704, 276.9521
132.3526, 278.7900
132.8347, 280.5664
133.3168, 282.3583
133.7989, 284.0422
134.2810, 285.6937
134.7632, 287.2575
135.2453, 288.4648
135.7274, 289.1585
136.2095, 289.2958
136.6916, 289.0143
137.1737, 288.4689
137.6559, 287.4135
138.1380, 285.4464
138.6201, 282.4192
139.1022, 279.1507
139.5843, 276.0544
140.0664, 273.0542
140.5486, 270.1018
141.0307, 267.2309
141.5128, 264.3773
141.9949, 261.3612
142.4770, 257.9639
142.9591, 254.7222
143.4413, 251.6970
143.9234, 248.9760
144.4055, 246.6970
144.8876, 245.0097
145.3697, 243.9181
145.8518, 243.0459
146.3340, 242.6810
146.8161, 242.2982
147.2982, 241.8958
147.7803, 241.3681
148.2624, 240.5115
148.7445, 239.0808
149.2267, 236.9383
149.7088, 234.7946
150.1909, 232.6670
150.6730, 230.5258
151.1551, 228.3653
151.6372, 226.1751
152.1194, 223.9465
152.6015, 221.6456
153.0836, 219.2512
153.5657, 216.8565
154.0478, 214.2451
154.5299, 211.7301
155.0121, 209.6157
155.4942, 207.9799
155.9763, 206.7434
156.4584, 205.8923
156.9405, 205.4137
157.4226, 205.1019
157.9048, 204.9892
158.3869, 205.0020
158.8690, 204.9182
159.3511, 204.5179
159.8332, 204.2885
160.3153, 204.8754
160.7975, 206.2877
161.2796, 207.7681
161.7617, 208.8394
162.2438, 209.5354
162.7259, 210.2172
163.2081, 211.0093
163.6902, 211.7808
164.1723, 212.4966
164.6544, 213.1552
165.1365, 213.6086
165.6186, 213.6017
166.1008, 212.9917
166.5829, 212.5728
167.0650, 212.6203
167.5471, 212.8038
168.0292, 212.9425
168.5113, 212.9877
168.9935, 212.9964
169.4756, 213.0518
169.9577, 213.1269
170.4398, 213.3185
170.9219, 213.6316
171.4040, 214.0396
171.8862, 214.5429
172.3683, 215.1371
172.8504, 215.7817
173.3325, 216.3878
173.8146, 216.9982
174.2967, 217.4954
174.7789, 217.8708
175.2610, 218.1349
175.7431, 218.3398
176.2252, 218.5203
176.7073, 218.5860
177.1894, 218.2120
177.6716, 217.4306
178.1537, 216.2455
178.6358, 214.3832
179.1179, 212.1206
179.6000, 209.9709
180.0821, 208.2121
180.5643, 206.7142
181.0464, 205.0898
181.5285, 203.4616
182.0106, 201.5547
182.4927, 199.0603
182.9748, 196.1030
183.4570, 193.2687
183.9391, 190.9502
184.4212, 188.8565
184.9033, 186.3821
185.3854, 183.3458
185.8675, 180.2133
186.3497, 177.4318
186.8318, 175.0154
187.3139, 172.4411
187.7960, 169.2352
188.2781, 165.8463
188.7602, 162.7890
189.2424, 160.1931
189.7245, 157.8547
190.2066, 155.4739
190.6887, 152.9617
191.1708, 150.7305
191.6530, 149.0241
192.1351, 147.6033
192.6172, 146.3019
193.0993, 145.0725
193.5814, 143.9183
194.0635, 142.8103
194.5457, 141.5626
195.0278, 140.7843
195.5099, 140.8411
195.9920, 141.2316
196.4741, 141.4342
196.9562, 141.2043
197.4384, 140.7568
197.9205, 140.7095
198.4026, 141.2266
198.8847, 141.9880
199.3668, 143.0149
199.8489, 144.2181
200.3311, 145.5507
200.8132, 146.9958
201.2953, 148.4865
201.7774, 149.7408
202.2595, 150.2025
202.7416, 151.0521
203.2238, 152.6426
203.7059, 154.6473
204.1880, 156.6485
204.6701, 158.4229
205.1522, 160.0022
205.6343, 161.5106
206.1165, 162.9769
206.5986, 164.3703
207.0807, 165.6253
207.5628, 166.8060
208.0449, 168.0406
208.5270, 169.4059
209.0092, 170.8584
209.4913, 172.1995
209.9734, 173.5080
210.4555, 174.6486
210.9376, 175.4703
211.4197, 176.0683
211.9019, 176.6959
212.3840, 177.4384
212.8661, 178.3311
213.3482, 179.4110
213.8303, 180.6122
214.3124, 182.0600
214.7946, 183.9492
215.2767, 186.2058
215.7588, 188.3595
216.2409, 190.1103
216.7230, 191.7148
217.2052, 193.6406
217.6873, 195.9173
218.1694, 198.4448
218.6515, 201.1464
219.1336, 204.0341
219.6157, 207.1416
220.0979, 210.6446
220.5800, 214.3058
221.0621, 217.8544
221.5442, 221.2391
222.0263, 224.6065
222.5084, 228.1170
222.9906, 231.8025
223.4727, 235.4425
223.9548, 238.8109
224.4369, 242.1900
224.9190, 245.8508
225.4011, 249.8820
225.8833, 253.9048
226.3654, 257.3989
226.8475, 260.1741
227.3296, 263.2722
227.8117, 267.0711
228.2938, 271.1558
228.7760, 275.3412
229.2581, 279.5895
229.7402, 283.7725
230.2223, 287.6781
230.7044, 291.1892
231.1865, 294.8359
231.6687, 298.8064
232.1508, 302.8177
232.6329, 306.5551
233.1150, 310.0339
233.5971, 313.6471
234.0792, 318.1022
234.5614, 324.0624
235.0435, 329.1974
235.5256, 333.6890
236.0077, 337.3432
236.4898, 339.9655
236.9719, 341.5363
237.4541, 342.2359
237.9362, 342.3620
238.4183, 342.2741
238.9004, 340.5250
239.3825, 337.1381
239.8646, 332.4516
240.3468, 326.4683
240.8289, 319.2846
241.3110, 311.3354
241.7931, 303.0092
242.2752, 294.2594
242.7573, 285.3271
243.2395, 275.6188
243.7216, 266.2057
244.2037, 257.9006
244.6858, 250.7445
245.1679, 244.0350
245.6501, 236.9363
246.1322, 229.1559
246.6143, 222.3894
247.0964, 216.9605
247.5785, 212.1516
248.0606, 207.4446
248.5428, 202.8337
249.0249, 198.6762
249.5070, 195.4387
249.9891, 193.3030
250.4712, 190.6745
250.9533, 186.9049
251.4355, 183.1691
251.9176, 180.1877
252.3997, 178.0051
252.8818, 176.3331
253.3639, 174.9891
253.8460, 174.0051
254.3282, 173.2180
254.8103, 172.8666
255.2924, 172.5191
255.7745, 171.7910
256.2566, 170.7167
256.7387, 169.7329
257.2209, 169.1572
257.7030, 168.9678
258.1851, 168.7827
258.6672, 168.6319
259.1493, 168.4610
259.6314, 168.2005
260.1136, 167.8628
260.5957, 167.5589
261.0778, 167.3131
261.5599, 167.1762
262.0420, 167.2153
262.5241, 167.4185
263.0063, 167.8116
263.4884, 168.4053
263.9705, 169.2007
264.4526, 170.2373
264.9347, 171.6458
265.4168, 173.2459
265.8990, 174.6481
266.3811, 175.7812
266.8632, 176.8906
267.3453, 177.9269
267.8274, 178.9666
268.3095, 180.7217
268.7917, 183.8257
269.2738, 187.4619
269.7559, 190.4645
270.2380, 192.7230
270.7201, 194.8649
271.2022, 197.3572
271.6844, 200.1343
272.1665, 202.8361
272.6486, 205.6137
273.1307, 207.9506
273.6128, 209.3541
274.0949, 209.8400
274.5771, 210.1101
275.0592, 210.8606
275.5413, 211.8984
276.0234, 212.0889
276.5055, 211.1476
276.9876, 209.3753
277.4698, 207.1113
277.9519, 204.3670
278.4340, 201.1877
278.9161, 197.4496
279.3982, 193.2598
279.8803, 189.0533
280.3625, 185.0335
280.8446, 180.7102
281.3267, 175.6145
281.8088, 170.0448
282.2909, 164.6587
282.7730, 159.9440
283.2552, 155.6970
283.7373, 151.2253
284.2194, 146.3841
284.7015, 141.5889
285.1836, 136.8408
285.6658, 132.2549
286.1479, 128.0070
286.6300, 124.2434
287.1121, 120.8301
287.5942, 117.4622
288.0764, 114.0485
288.5585, 110.9118
289.0406, 108.2806
289.5227, 105.9165
290.0048, 103.6292
290.4869, 101.3396
290.9691, 99.05061
291.4512, 96.69966
291.9333, 94.19115
292.4154, 91.94700
292.8975, 90.24039
293.3796, 88.74276
293.8618, 87.19622
294.3439, 85.53474
294.8260, 83.95747
295.3081, 82.79395
295.7902, 82.16322
296.2723, 81.38741
296.7545, 80.17099
297.2366, 78.90783
297.7187, 77.85586
298.2008, 77.02193
298.6829, 76.19241
299.1650, 75.09469
299.6472, 73.67349
300.1293, 72.48048
300.6114, 71.78751
301.0935, 71.13071
301.5756, 70.24773
302.0577, 69.20596
302.5399, 68.25410
303.0220, 67.59519
303.5041, 67.22237
303.9862, 66.98109
304.4683, 67.10054
304.9504, 67.08004
305.4326, 66.69639
305.9147, 66.05609
306.3968, 65.35598
306.8789, 64.70293
307.3610, 64.08910
307.8431, 63.46649
308.3253, 62.66616
308.8074, 62.15242
309.2895, 62.23286
309.7716, 62.56304
310.2537, 62.74824
310.7358, 62.61817
311.2180, 62.24731
311.7001, 61.80100
312.1822, 61.29206
312.6643, 60.65741
313.1464, 59.70052
313.6285, 58.73389
314.1107, 58.08381
314.5928, 57.82475
315.0749, 57.62329
315.5570, 56.93597
316.0391, 55.56456
316.5212, 54.43456
317.0034, 53.81051
317.4855, 53.31415
317.9676, 52.76220
318.4497, 52.13521
318.9318, 51.51110
319.4139, 50.99326
319.8961, 50.60339
320.3782, 50.11175
320.8603, 49.26926
321.3424, 48.56791
321.8245, 48.32137
322.3066, 48.38121
322.7888, 48.36399
323.2709, 47.97072
323.7530, 47.25574
324.2351, 46.63190
324.7172, 46.12878
325.1993, 45.68353
325.6815, 45.28373
326.1636, 44.91745
326.6457, 44.56802
327.1278, 44.23175
327.6099, 43.90136
328.0920, 43.54323
328.5742, 43.10295
329.0563, 42.75702
329.5384, 42.61572
330.0205, 42.53541
330.5026, 42.40102
330.9847, 42.17855
331.4669, 41.89833
331.9490, 41.57267
332.4311, 41.16695
332.9132, 40.86932
333.3953, 40.85653
333.8774, 40.85109
334.3596, 40.69646
334.8417, 40.38860
335.3238, 40.03113
335.8059, 39.70106
336.2880, 39.39729
336.7701, 39.14589
337.2523, 38.95111
337.7344, 38.81278
338.2165, 38.75168
338.6986, 38.74334
339.1807, 38.68333
339.6628, 38.26842
340.1450, 37.81583
340.6271, 38.84700
341.1092, 42.79433
341.5913, 45.39247
342.0735, 44.18265
342.5556, 41.16853
343.0377, 38.68826
343.5198, 37.61755
344.0019, 37.38310
344.4840, 37.14036
344.9662, 36.87518
345.4483, 36.65672
345.9304, 36.55639
346.4125, 36.48243
346.8946, 36.36534
347.3767, 36.19365
347.8589, 36.02460
348.3410, 35.93644
348.8231, 35.92522
349.3052, 35.83567
349.7873, 35.53925
350.2694, 35.28443
350.7516, 35.26805
351.2337, 35.44650
351.7158, 35.62749
352.1979, 35.73481
352.6800, 35.75923
353.1621, 35.65318
353.6443, 35.37270
354.1264, 35.05864
354.6085, 34.73357
355.0906, 34.43966
355.5727, 34.26239
356.0548, 34.26198
356.5370, 34.35116
357.0191, 34.45609
357.5012, 34.58851
357.9833, 34.59830
358.4654, 34.30878
358.9475, 33.92852
359.4297, 33.72459
359.9118, 33.75236
360.3939, 33.79869
360.8760, 33.68891
361.3581, 33.45496
361.8402, 33.26110
362.3224, 33.16071
362.8045, 33.08744
363.2866, 32.91969
363.7687, 32.67513
364.2508, 32.57764
364.7329, 32.92307
365.2151, 33.40694
365.6972, 33.43867
366.1793, 32.89748
366.6614, 32.34351
367.1435, 32.24852
367.6256, 32.48027
368.1078, 32.62617
368.5899, 32.62790
369.0720, 32.53169
369.5541, 32.30677
370.0362, 31.98220
370.5183, 31.76899
371.0005, 31.80958
371.4826, 31.98410
371.9647, 32.01858
372.4468, 31.88164
372.9289, 31.70649
373.4110, 31.49221
373.8932, 31.28347
374.3753, 31.19287
374.8574, 31.26439
375.3395, 31.36591
375.8216, 31.33574
376.3037, 31.16573
376.7859, 30.92656
377.2680, 30.44814
377.7501, 30.02231
378.2322, 29.96783
378.7143, 30.26399
379.1964, 30.57905
379.6786, 30.66855
380.1607, 30.55039
380.6428, 30.46882
381.1249, 30.55498
381.6070, 30.53110
382.0891, 30.18055
382.5713, 29.66388
383.0534, 29.28679
383.5355, 29.18141
384.0176, 29.26302
384.4997, 29.35218
384.9818, 29.46275
385.4640, 29.55817
385.9461, 29.66606
386.4282, 29.74076
386.9103, 29.74618
387.3924, 29.67601
387.8745, 29.53217
388.3567, 29.30049
388.8388, 28.95143
389.3209, 28.73533
389.8030, 28.75549
390.2851, 28.77890
390.7672, 28.73411
391.2494, 28.62325
391.7315, 28.44257
392.2136, 28.17894
392.6957, 27.88870
393.1778, 27.80210
393.6599, 28.14202
394.1421, 28.37586
394.6242, 28.41284
395.1063, 28.35599
395.5884, 28.27031
396.0706, 28.18318
396.5527, 28.12807
397.0348, 28.18218
397.5169, 28.41427
397.9990, 28.47850
398.4811, 28.20937
398.9633, 27.91750
399.4454, 27.71230
399.9275, 27.58641
400.4096, 27.48581
400.8917, 27.37144
401.3738, 27.25581
401.8560, 27.20091
402.3381, 27.25075
402.8202, 27.27807
403.3023, 27.24925
403.7844, 27.17983
404.2665, 27.06520
404.7487, 26.89884
405.2308, 26.75136
405.7129, 26.70456
406.1950, 26.75968
406.6771, 26.89806
407.1592, 27.24657
407.6414, 27.53903
408.1235, 27.56303
408.6056, 27.35146
409.0877, 27.10321
409.5698, 26.91470
410.0519, 26.77290
410.5341, 26.62958
411.0162, 26.46263
411.4983, 26.37962
411.9804, 26.54701
412.4625, 26.81908
412.9446, 26.91758
413.4268, 26.63179
413.9089, 26.44646
414.3910, 27.02740
414.8731, 28.14586
415.3552, 28.60714
415.8373, 27.81998
416.3195, 26.56806
416.8016, 26.02051
417.2837, 26.18100
417.7658, 26.38897
418.2479, 26.55501
418.7300, 26.63346
419.2122, 26.50992
419.6943, 26.18616
420.1764, 25.90422
420.6585, 25.88190
421.1406, 26.08742
421.6227, 26.13710
422.1049, 25.84719
422.5870, 25.61843
423.0691, 25.66567
423.5512, 25.87373
424.0333, 26.02142
424.5154, 26.01766
424.9976, 25.95237
425.4797, 25.99892
425.9618, 26.27230
426.4439, 26.42400
426.9260, 26.40561
427.4081, 26.30943
427.8903, 26.15978
428.3724, 25.98468
428.8545, 25.85655
429.3366, 25.84995
429.8187, 25.95370
430.3008, 25.92102
430.7830, 25.55820
431.2651, 25.26791
431.7472, 25.10893
432.2293, 25.05892
432.7114, 25.12574
433.1935, 25.30622
433.6757, 25.50076
434.1578, 25.51763
434.6399, 25.27598
435.1220, 25.14251
435.6041, 25.28582
436.0862, 25.42334
436.5684, 25.38141
437.0505, 25.20472
437.5326, 25.07618
438.0147, 25.17095
438.4968, 25.39543
438.9789, 25.37662
439.4611, 24.98126
439.9432, 24.68045
440.4253, 24.73478
440.9074, 24.95381
441.3895, 25.17616
441.8716, 25.38230
442.3538, 25.51566
442.8359, 25.47538
443.3180, 25.29649
443.8001, 25.20419
444.2822, 25.28585
444.7643, 25.38107
445.2465, 25.29243
445.7286, 25.06586
446.2107, 24.91350
446.6928, 24.98226
447.1749, 25.09124
447.6570, 25.03879
448.1392, 24.83723
448.6213, 24.63650
449.1034, 24.51348
449.5855, 24.44617
450.0677, 24.36920
450.5498, 24.25273
451.0319, 24.18780
451.5140, 24.18407
451.9961, 24.25077
452.4782, 24.47185
452.9604, 24.84088
453.4425, 25.12105
453.9246, 25.04282
454.4067, 24.55773
454.8888, 24.22379
455.3709, 24.05541
455.8531, 23.99289
456.3352, 24.10430
456.8173, 24.28864
457.2994, 24.38695
457.7815, 24.32509
458.2636, 24.15676
458.7458, 23.98411
459.2279, 23.77153
459.7100, 23.63320
460.1921, 23.61585
460.6742, 23.62631
461.1563, 23.59058
461.6385, 23.52633
462.1206, 23.51935
462.6027, 23.65644
463.0848, 23.90119
463.5669, 24.06781
464.0490, 24.14952
464.5312, 24.16040
465.0133, 24.06274
465.4954, 23.92312
465.9775, 23.80644
466.4596, 23.72760
466.9417, 23.65905
467.4239, 23.57549
467.9060, 23.47890
468.3881, 23.37438
468.8702, 23.24243
469.3523, 23.14215
469.8344, 23.13910
470.3166, 23.20889
470.7987, 23.28999
471.2808, 23.43766
471.7629, 23.53598
472.2450, 23.37751
472.7271, 23.03599
473.2093, 22.93150
473.6914, 23.31326
474.1735, 23.88888
474.6556, 24.05596
475.1377, 23.68863
475.6198, 23.41412
476.1020, 23.40600
476.5841, 23.47347
477.0662, 23.43264
477.5483, 23.28464
478.0304, 23.16834
478.5125, 23.20429
478.9947, 23.36224
479.4768, 23.37480
479.9589, 23.03354
480.4410, 22.80030
480.9231, 22.78623
481.4052, 22.88111
481.8874, 23.00681
482.3695, 23.12816
482.8516, 23.19113
483.3337, 23.10616
483.8158, 22.84591
484.2979, 22.67188
484.7801, 22.64076
485.2622, 22.63775
485.7443, 22.60982
486.2264, 22.58607
486.7085, 22.63545
487.1906, 22.80900
487.6728, 22.98507
488.1549, 22.93590
488.6370, 22.63995
489.1191, 22.49628
489.6012, 22.75137
490.0833, 23.00331
490.5655, 22.81747
491.0476, 22.26670
491.5297, 21.85653
492.0118, 21.89509
492.4939, 22.12429
492.9760, 22.21713
493.4582, 22.17301
493.9403, 22.14630
494.4224, 22.23697
494.9045, 22.37580
495.3866, 22.36814
495.8687, 22.13692
496.3509, 21.97815
496.8330, 21.96889
497.3151, 22.06037
497.7972, 22.25775
498.2793, 22.53182
498.7614, 22.74004
499.2436, 22.75172
499.7257, 22.57762
500.2078, 22.41438
500.6899, 22.25324
501.1720, 22.11356
501.6541, 22.00360
502.1363, 21.91437
502.6184, 21.83571
503.1005, 21.76496
503.5826, 21.70557
504.0647, 21.65611
504.5468, 21.61292
505.0290, 21.61687
505.5111, 21.67266
505.9932, 21.77535
506.4753, 22.02354
506.9575, 22.28835
507.4396, 22.33960
507.9217, 22.04998
508.4038, 21.66762
508.8859, 21.51838
509.3680, 21.58710
509.8502, 21.58616
510.3323, 21.38926
510.8144, 21.20862
511.2965, 21.35158
511.7786, 21.74084
512.2607, 21.92929
512.7429, 21.61240
513.2250, 21.20465
513.7071, 21.04585
514.1892, 21.10907
514.6713, 21.25998
515.1534, 21.46054
515.6356, 21.65675
516.1177, 21.73570
516.5998, 21.62437
517.0819, 21.55805
517.5640, 21.63885
518.0461, 21.68794
518.5283, 21.51525
519.0104, 21.18848
519.4925, 20.95719
519.9746, 20.99868
520.4567, 21.22172
520.9388, 21.27582
521.4210, 21.02891
521.9031, 20.85857
522.3852, 20.87132
522.8673, 20.91782
523.3494, 20.88558
523.8315, 20.77552
524.3137, 20.66624
524.7958, 20.59972
525.2779, 20.58405
525.7600, 20.69378
526.2421, 20.99715
526.7242, 21.16252
527.2064, 20.87899
527.6885, 20.46546
528.1706, 20.36682
528.6527, 20.68012
529.1348, 20.93599
529.6169, 20.79233
530.0991, 20.47408
530.5812, 20.38091
531.0633, 20.55827
531.5454, 20.74636
532.0275, 20.75324
532.5096, 20.60626
532.9918, 20.49486
533.4739, 20.43105
533.9560, 20.38152
534.4381, 20.37686
534.9202, 20.36333
535.4023, 20.25642
535.8845, 20.05596
536.3666, 19.85757
536.8487, 19.74965
537.3308, 19.73173
537.8129, 19.82952
538.2950, 20.19942
538.7772, 20.47959
539.2593, 20.56024
539.7414, 20.52961
540.2235, 20.46195
540.7056, 20.37972
541.1877, 20.31366
541.6699, 20.31245
542.1520, 20.36306
542.6341, 20.37561
543.1162, 20.34463
543.5983, 20.27191
544.0804, 20.06509
544.5626, 19.83652
545.0447, 19.83176
545.5268, 20.23194
546.0089, 20.57454
546.4910, 20.51100
546.9731, 20.22093
547.4553, 20.00732
547.9374, 19.93360
548.4195, 20.05209
548.9016, 20.43925
549.3837, 21.10291
549.8658, 21.72988
550.3480, 22.61516
550.8301, 23.12780
551.3122, 22.92874
551.7943, 22.33307
552.2764, 21.64594
552.7585, 20.98489
553.2407, 20.42917
553.7228, 20.09769
554.2049, 20.00235
554.6870, 19.90455
555.1691, 19.71235
555.6512, 19.65716
556.1334, 20.01776
556.6155, 20.46798
557.0976, 20.53506
557.5797, 20.05334
558.0618, 19.49816
558.5439, 19.30737
559.0261, 19.40089
559.5082, 19.47058
559.9903, 19.46086
560.4724, 19.49834
560.9545, 19.75254
561.4366, 20.14263
561.9188, 20.28009
562.4009, 19.90674
562.8830, 19.60004
563.3651, 19.65222
563.8472, 19.86654
564.3293, 19.98531
564.8115, 19.94995
565.2936, 19.81328
565.7757, 19.59548
566.2578, 19.29478
566.7399, 19.26004
567.2220, 19.87538
567.7042, 20.29724
568.1863, 20.26300
568.6684, 20.03687
569.1505, 19.87851
569.6326, 19.84708
570.1147, 19.84460
570.5969, 19.78554
571.0790, 19.67466
571.5611, 19.52474
572.0432, 19.30129
572.5253, 19.13987
573.0074, 19.14770
573.4896, 19.24547
573.9717, 19.31163
574.4538, 19.32308
574.9359, 19.35416
575.4180, 19.48865
575.9001, 19.64144
576.3823, 19.67905
576.8644, 19.59418
577.3465, 19.49101
577.8286, 19.45106
578.3107, 19.44768
578.7928, 19.34903
579.2750, 18.89918
579.7571, 18.69551
580.2392, 19.03939
580.7213, 19.44086
581.2034, 19.44345
581.6855, 19.09230
582.1677, 18.80748
582.6498, 18.93236
583.1319, 19.33424
583.6140, 19.54833
584.0961, 19.52842
584.5782, 19.48059
585.0604, 19.44897
