##NAMES=Beraunite
##RRUFFID=R060464
##IDEAL CHEMISTRY=Fe^2+^Fe^3+^_5_(PO_4_)_4_(OH)_5_&#183;6H_2_O
##LOCALITY=York mine, Polk County, Arkansas, USA
##OWNER=RRUFF
##SOURCE=Michael Scott
##DESCRIPTION=Brownish-red fractured-looking aggregate associated with balls of kidwellite
##STATUS=The identification of this mineral is confirmed by single-crystal X-ray diffraction and chemical analysis.
##URL=rruff.info/R060464
##MEASURED CHEMISTRY=(Fe^2+^_0.85_Mn^2+^_0.15_)_Σ=1_Fe^3+^_5.00_(P_1.00_O_4_)_4_(OH)_5_·5.50H_2_O; H_2_O by difference; (OH) by charge balance
165.2812, 141.7835
165.7633, 144.6587
166.2454, 147.9214
166.7276, 151.3645
167.2097, 155.2943
167.6918, 160.1868
168.1739, 165.8991
168.6560, 171.6089
169.1381, 176.9810
169.6203, 181.9617
170.1024, 185.3199
170.5845, 187.1512
171.0666, 189.0641
171.5487, 192.2278
172.0309, 196.5136
172.5130, 200.2790
172.9951, 201.7162
173.4772, 202.0003
173.9593, 202.9667
174.4414, 205.8025
174.9236, 209.3902
175.4057, 212.8230
175.8878, 216.1400
176.3699, 218.5988
176.8520, 219.2353
177.3341, 218.5823
177.8163, 217.7868
178.2984, 216.9623
178.7805, 216.4066
179.2626, 216.6225
179.7447, 217.6249
180.2268, 219.1315
180.7090, 221.3676
181.1911, 223.9882
181.6732, 225.8806
182.1553, 226.0142
182.6374, 225.1426
183.1195, 224.7824
183.6017, 224.9718
184.0838, 225.6219
184.5659, 227.0082
185.0480, 228.9288
185.5301, 230.4206
186.0123, 229.9583
186.4944, 228.5920
186.9765, 230.0874
187.4586, 235.0367
187.9407, 241.1131
188.4228, 245.3757
188.9050, 247.8989
189.3871, 249.5210
189.8692, 250.1409
190.3513, 250.0312
190.8334, 250.7474
191.3155, 252.5575
191.7977, 254.6845
192.2798, 255.6990
192.7619, 255.6068
193.2440, 255.7529
193.7261, 257.2144
194.2082, 259.8140
194.6904, 261.5219
195.1725, 262.2198
195.6546, 262.0560
196.1367, 260.8710
196.6188, 258.5441
197.1009, 256.6984
197.5831, 256.8268
198.0652, 258.9157
198.5473, 259.1324
199.0294, 256.8860
199.5115, 253.2195
199.9937, 250.1842
200.4758, 247.8885
200.9579, 245.7319
201.4400, 243.5088
201.9221, 241.2360
202.4042, 238.5912
202.8864, 235.4365
203.3685, 232.0175
203.8506, 228.8674
204.3327, 226.0165
204.8148, 223.4171
205.2969, 221.0304
205.7791, 218.8380
206.2612, 217.0370
206.7433, 215.7955
207.2254, 214.8320
207.7075, 213.3392
208.1896, 211.1035
208.6718, 208.9491
209.1539, 207.3566
209.6360, 206.4675
210.1181, 205.5319
210.6002, 204.6080
211.0823, 203.5678
211.5645, 201.9032
212.0466, 199.2688
212.5287, 196.8218
213.0108, 195.3013
213.4929, 195.0068
213.9750, 194.3857
214.4572, 193.1465
214.9393, 191.6145
215.4214, 190.7027
215.9035, 190.4644
216.3856, 190.7324
216.8678, 191.4924
217.3499, 192.9245
217.8320, 194.2975
218.3141, 195.6535
218.7962, 196.8926
219.2783, 197.6256
219.7605, 197.6070
220.2426, 197.5055
220.7247, 197.8113
221.2068, 199.0050
221.6889, 199.1145
222.1710, 197.4466
222.6532, 194.7845
223.1353, 193.6304
223.6174, 194.2983
224.0995, 195.9326
224.5816, 198.3574
225.0637, 202.4333
225.5459, 205.0941
226.0280, 205.7006
226.5101, 204.9642
226.9922, 205.1216
227.4743, 206.8606
227.9564, 208.4130
228.4386, 208.8663
228.9207, 207.6956
229.4028, 206.6912
229.8849, 206.0011
230.3670, 205.4622
230.8492, 204.5926
231.3313, 203.3213
231.8134, 201.8416
232.2955, 200.1422
232.7776, 197.9345
233.2597, 196.2844
233.7419, 195.4609
234.2240, 195.1263
234.7061, 194.3284
235.1882, 192.4837
235.6703, 191.0711
236.1524, 190.8855
236.6346, 192.9417
237.1167, 193.9056
237.5988, 193.6320
238.0809, 192.3414
238.5630, 190.3877
239.0451, 187.1579
239.5273, 184.1998
240.0094, 182.1393
240.4915, 181.1634
240.9736, 180.5836
241.4557, 180.3907
241.9378, 180.5849
242.4200, 181.2754
242.9021, 183.0509
243.3842, 184.4073
243.8663, 184.6339
244.3484, 183.1312
244.8306, 182.3888
245.3127, 183.1158
245.7948, 184.2372
246.2769, 183.5549
246.7590, 179.7609
247.2411, 176.4066
247.7233, 174.8337
248.2054, 175.5781
248.6875, 176.1661
249.1696, 176.7861
249.6517, 177.1259
250.1338, 176.6018
250.6160, 174.8153
251.0981, 172.8676
251.5802, 171.0015
252.0623, 169.0956
252.5444, 167.9066
253.0265, 167.8447
253.5087, 168.1728
253.9908, 167.7655
254.4729, 166.1156
254.9550, 164.7815
255.4371, 164.4593
255.9192, 165.4242
256.4014, 165.1181
256.8835, 163.0314
257.3656, 160.1764
257.8477, 157.7284
258.3298, 155.8909
258.8120, 153.9866
259.2941, 151.8002
259.7762, 149.2974
260.2583, 146.8397
260.7404, 144.1054
261.2225, 141.7808
261.7047, 140.6244
262.1868, 140.9900
262.6689, 141.6423
263.1510, 142.6102
263.6331, 143.8472
264.1152, 143.6699
264.5974, 141.3597
265.0795, 138.7448
265.5616, 137.7368
266.0437, 138.8229
266.5258, 139.8459
267.0079, 140.3637
267.4901, 140.4619
267.9722, 140.8840
268.4543, 141.7675
268.9364, 142.7171
269.4185, 143.3314
269.9006, 143.4552
270.3828, 143.9702
270.8649, 145.2059
271.3470, 146.9203
271.8291, 147.8086
272.3112, 147.4892
272.7933, 147.3631
273.2755, 148.7380
273.7576, 151.9468
274.2397, 154.2068
274.7218, 154.7678
275.2039, 154.3952
275.6860, 155.6549
276.1682, 158.9808
276.6503, 162.3504
277.1324, 164.3476
277.6145, 164.8293
278.0966, 165.7328
278.5787, 167.3745
279.0609, 169.3240
279.5430, 170.4739
280.0251, 170.6499
280.5072, 171.1052
280.9893, 172.5929
281.4715, 175.0968
281.9536, 177.9094
282.4357, 181.2071
282.9178, 184.4073
283.3999, 186.3906
283.8820, 187.1025
284.3642, 187.5288
284.8463, 188.2886
285.3284, 189.2876
285.8105, 189.2843
286.2926, 188.0638
286.7747, 186.4976
287.2569, 185.8297
287.7390, 186.0266
288.2211, 186.2544
288.7032, 186.0995
289.1853, 185.6882
289.6674, 185.8065
290.1496, 186.5877
290.6317, 187.0563
291.1138, 185.6249
291.5959, 182.6135
292.0780, 180.2898
292.5602, 179.5299
293.0423, 179.8945
293.5244, 180.5179
294.0065, 181.4209
294.4886, 182.0446
294.9707, 181.5647
295.4529, 180.3099
295.9350, 179.5495
296.4171, 179.9623
296.8992, 180.7064
297.3813, 180.0495
297.8634, 178.1132
298.3456, 176.2206
298.8277, 175.6795
299.3098, 175.9229
299.7919, 175.6481
300.2740, 174.3952
300.7561, 172.8665
301.2383, 171.7184
301.7204, 171.0021
302.2025, 171.0450
302.6846, 172.8095
303.1667, 175.2423
303.6488, 176.9190
304.1310, 177.7144
304.6131, 177.3963
305.0952, 174.6294
305.5773, 170.3825
306.0594, 167.2863
306.5415, 167.5593
307.0237, 169.2522
307.5058, 170.4088
307.9879, 170.8270
308.4700, 170.7861
308.9521, 170.5639
309.4343, 170.0215
309.9164, 168.9216
310.3985, 166.4140
310.8806, 163.8056
311.3627, 162.0621
311.8448, 161.2159
312.3270, 160.8838
312.8091, 161.3770
313.2912, 162.0807
313.7733, 162.2686
314.2554, 161.6362
314.7375, 160.4656
315.2197, 158.4527
315.7018, 155.7503
316.1839, 153.7440
316.6660, 153.6583
317.1481, 154.2166
317.6302, 154.3720
318.1124, 153.5452
318.5945, 152.6901
319.0766, 152.2876
319.5587, 152.1500
320.0408, 151.6234
320.5229, 149.3931
321.0051, 147.4940
321.4872, 147.2458
321.9693, 150.1324
322.4514, 152.2596
322.9335, 152.4402
323.4156, 151.3695
323.8978, 150.3873
324.3799, 149.3158
324.8620, 148.7243
325.3441, 149.0203
325.8262, 150.7269
326.3083, 151.7461
326.7905, 151.3395
327.2726, 150.3481
327.7547, 149.8124
328.2368, 150.2060
328.7189, 150.5974
329.2010, 150.8298
329.6832, 150.8935
330.1653, 150.8785
330.6474, 150.5706
331.1295, 150.3385
331.6116, 150.5660
332.0938, 152.2223
332.5759, 152.7422
333.0580, 151.2421
333.5401, 148.0975
334.0222, 146.3312
334.5043, 146.8121
334.9865, 147.4499
335.4686, 146.8176
335.9507, 144.0466
336.4328, 142.3979
336.9149, 142.2849
337.3970, 143.2726
337.8792, 144.2760
338.3613, 145.3837
338.8434, 146.3038
339.3255, 146.9816
339.8076, 147.4594
340.2898, 147.2725
340.7719, 146.2012
341.2540, 144.8459
341.7361, 144.1428
342.2182, 144.1789
342.7003, 144.1426
343.1825, 143.5945
343.6646, 142.6860
344.1467, 142.6057
344.6288, 143.4856
345.1109, 144.5185
345.5930, 144.8187
346.0752, 144.4565
346.5573, 144.1647
347.0394, 144.0114
347.5215, 144.1247
348.0036, 145.3203
348.4857, 147.5435
348.9679, 148.9149
349.4500, 146.8227
349.9321, 142.6983
350.4142, 141.0127
350.8963, 143.0432
351.3784, 146.1441
351.8606, 146.8867
352.3427, 145.7291
352.8248, 144.3612
353.3069, 143.0818
353.7890, 142.4200
354.2711, 143.6224
354.7533, 147.0263
355.2354, 150.0340
355.7175, 149.6760
356.1996, 147.4520
356.6817, 145.9768
357.1638, 147.1283
357.6460, 148.8775
358.1281, 149.7897
358.6102, 149.8760
359.0923, 149.6070
359.5744, 148.9023
360.0565, 148.1214
360.5387, 147.6003
361.0208, 147.3130
361.5029, 147.4517
361.9850, 148.5820
362.4671, 150.2991
362.9492, 151.3371
363.4314, 150.3913
363.9135, 149.2782
364.3956, 149.1661
364.8777, 150.9599
365.3598, 151.9604
365.8419, 151.1379
366.3241, 149.2891
366.8062, 147.6076
367.2883, 145.7574
367.7704, 144.5729
368.2526, 144.4502
368.7347, 145.5993
369.2168, 146.6401
369.6989, 148.0418
370.1810, 149.0281
370.6631, 148.9149
371.1453, 146.6540
371.6274, 144.8595
372.1095, 144.0206
372.5916, 143.9567
373.0737, 143.4461
373.5558, 142.1246
374.0380, 140.8898
374.5201, 140.3161
375.0022, 140.7246
375.4843, 140.7179
375.9664, 140.1217
376.4485, 139.2029
376.9307, 138.4120
377.4128, 137.7188
377.8949, 137.3263
378.3770, 137.5640
378.8591, 138.3644
379.3412, 138.1919
379.8234, 136.8596
380.3055, 135.2172
380.7876, 134.1639
381.2697, 133.6757
381.7518, 133.4373
382.2339, 133.1911
382.7161, 133.2712
383.1982, 134.9161
383.6803, 138.0521
384.1624, 140.9267
384.6445, 142.0222
385.1266, 141.8468
385.6088, 141.4707
386.0909, 140.8487
386.5730, 140.7039
387.0551, 142.6689
387.5372, 145.9338
388.0193, 148.2049
388.5015, 147.1331
388.9836, 145.0463
389.4657, 144.4326
389.9478, 145.4500
390.4299, 147.0499
390.9120, 149.2603
391.3942, 151.4106
391.8763, 152.6257
392.3584, 151.3360
392.8405, 150.2568
393.3226, 151.3409
393.8047, 154.0429
394.2869, 155.8643
394.7690, 154.7787
395.2511, 153.2301
395.7332, 152.8545
396.2154, 154.7785
396.6975, 156.0531
397.1796, 155.7707
397.6617, 154.5024
398.1438, 153.2415
398.6259, 152.0115
399.1081, 150.8978
399.5902, 149.9106
400.0723, 149.0383
400.5544, 148.3617
401.0365, 148.1100
401.5186, 147.8775
402.0008, 147.3213
402.4829, 146.2406
402.9650, 145.2357
403.4471, 144.5703
403.9292, 144.0227
404.4113, 142.5281
404.8935, 139.5810
405.3756, 136.8302
405.8577, 135.2060
406.3398, 134.8727
406.8219, 134.7008
407.3040, 134.9373
407.7862, 134.8443
408.2683, 132.7939
408.7504, 128.6982
409.2325, 125.6484
409.7146, 125.0810
410.1967, 126.2753
410.6789, 126.8649
411.1610, 126.8396
411.6431, 126.5292
412.1252, 126.2449
412.6073, 125.9062
413.0894, 125.2406
413.5716, 124.1311
414.0537, 122.8529
414.5358, 121.6335
415.0179, 120.5122
415.5000, 119.5773
415.9821, 118.8633
416.4643, 118.3769
416.9464, 118.0043
417.4285, 117.7108
417.9106, 118.0250
418.3927, 120.2171
418.8748, 122.9015
419.3570, 124.3968
419.8391, 122.9697
420.3212, 121.3928
420.8033, 121.2009
421.2854, 121.9941
421.7675, 121.8829
422.2497, 118.4741
422.7318, 115.3657
423.2139, 114.7603
423.6960, 118.5507
424.1781, 121.2226
424.6602, 121.4799
425.1424, 120.4682
425.6245, 119.8402
426.1066, 119.7710
426.5887, 119.8967
427.0709, 120.1849
427.5530, 120.6347
428.0351, 121.0925
428.5172, 121.5676
428.9993, 122.0424
429.4814, 122.5277
429.9636, 123.0617
430.4457, 123.4284
430.9278, 123.5365
431.4099, 123.5396
431.8920, 123.8253
432.3741, 124.4424
432.8563, 124.9734
433.3384, 124.9631
433.8205, 124.6033
434.3026, 125.5440
434.7847, 127.9779
435.2668, 130.2113
435.7490, 130.1117
436.2311, 128.2825
436.7132, 126.8186
437.1953, 126.1495
437.6774, 126.2659
438.1595, 127.6268
438.6417, 129.9229
439.1238, 131.8727
439.6059, 132.7250
440.0880, 132.8287
440.5701, 132.3673
441.0522, 131.2606
441.5344, 130.3076
442.0165, 129.6387
442.4986, 129.5269
442.9807, 130.3160
443.4628, 133.5584
443.9449, 136.3134
444.4271, 137.2447
444.9092, 136.5957
445.3913, 135.8309
445.8734, 134.3476
446.3555, 133.5842
446.8376, 134.5252
447.3198, 139.0895
447.8019, 141.6380
448.2840, 140.7570
448.7661, 138.3461
449.2482, 137.0118
449.7303, 137.2190
450.2125, 137.7507
450.6946, 138.4465
451.1767, 139.2917
451.6588, 140.1151
452.1409, 141.1292
452.6230, 141.6499
453.1052, 140.7579
453.5873, 138.2419
454.0694, 137.2583
454.5515, 138.4453
455.0337, 140.4326
455.5158, 140.7619
455.9979, 139.5515
456.4800, 138.5202
456.9621, 138.5533
457.4442, 139.2233
457.9264, 139.5403
458.4085, 139.5137
458.8906, 139.3950
459.3727, 139.5979
459.8548, 139.7926
460.3369, 139.3872
460.8191, 138.0782
461.3012, 136.5601
461.7833, 135.3414
462.2654, 134.3266
462.7475, 133.3206
463.2296, 132.2599
463.7118, 131.1533
464.1939, 129.7448
464.6760, 127.9962
465.1581, 127.0775
465.6402, 128.0787
466.1223, 129.6066
466.6045, 130.6721
467.0866, 130.7776
467.5687, 130.8620
468.0508, 131.2798
468.5329, 131.6812
469.0150, 131.1779
469.4972, 128.7491
469.9793, 127.0060
470.4614, 127.1812
470.9435, 129.4514
471.4256, 129.9371
471.9077, 128.1093
472.3899, 125.5586
472.8720, 123.5965
473.3541, 122.2254
473.8362, 121.1588
474.3183, 120.3197
474.8004, 119.8021
475.2826, 120.0963
475.7647, 121.1206
476.2468, 121.7159
476.7289, 120.8407
477.2110, 119.2026
477.6931, 118.3817
478.1753, 118.3846
478.6574, 118.7610
479.1395, 119.7443
479.6216, 120.6958
480.1037, 120.5555
480.5858, 118.5308
481.0680, 116.3308
481.5501, 114.8697
482.0322, 114.0965
482.5143, 113.9262
482.9964, 115.2045
483.4786, 116.3220
483.9607, 116.4720
484.4428, 115.5527
484.9249, 114.3917
485.4070, 112.6762
485.8892, 111.0768
486.3713, 110.0908
486.8534, 110.2578
487.3355, 110.2394
487.8176, 109.8037
488.2997, 109.2318
488.7819, 109.1950
489.2640, 110.0379
489.7461, 110.6304
490.2282, 110.5722
490.7103, 109.8946
491.1924, 109.1618
491.6746, 108.3788
492.1567, 107.4992
492.6388, 106.1397
493.1209, 104.4480
493.6030, 104.1297
494.0851, 105.7979
494.5673, 107.7983
495.0494, 107.3607
495.5315, 105.1005
496.0136, 103.2569
496.4957, 103.3523
496.9778, 104.1171
497.4600, 104.1447
497.9421, 103.4819
498.4242, 102.6951
498.9063, 102.0753
499.3884, 101.5055
499.8705, 100.7815
500.3527, 99.58852
500.8348, 98.95007
501.3169, 100.1549
501.7990, 101.8952
502.2811, 102.3266
502.7632, 99.18181
503.2454, 96.77998
503.7275, 96.59195
504.2096, 98.33857
504.6917, 98.89078
505.1738, 97.75494
505.6559, 96.09924
506.1381, 94.38564
506.6202, 92.41345
507.1023, 91.32751
507.5844, 91.43596
508.0665, 91.87904
508.5486, 91.39509
509.0308, 89.95531
509.5129, 88.69690
509.9950, 87.88119
510.4771, 87.44657
510.9592, 87.36442
511.4413, 87.60262
511.9235, 87.85799
512.4056, 88.15934
512.8877, 88.27197
513.3698, 87.60826
513.8519, 86.05721
514.3340, 84.79602
514.8162, 85.18787
515.2983, 86.18021
515.7804, 86.50986
516.2625, 85.56472
516.7446, 84.19194
517.2267, 81.92746
517.7089, 79.46425
518.1910, 78.54107
518.6731, 82.03987
519.1552, 84.78278
519.6373, 84.36082
520.1194, 80.33931
520.6016, 77.84605
521.0837, 77.23445
521.5658, 77.77710
522.0479, 79.31003
522.5300, 82.48210
523.0121, 84.15034
523.4943, 83.83533
523.9764, 82.28935
524.4585, 80.38131
524.9406, 78.10928
525.4227, 76.97068
525.9048, 78.06470
526.3870, 80.39326
526.8691, 81.59850
527.3513, 81.71060
527.8334, 81.16225
528.3155, 79.82767
528.7976, 78.18593
529.2797, 76.96217
529.7618, 76.28513
530.2440, 75.72916
530.7261, 74.53301
531.2082, 73.42772
531.6903, 73.36873
532.1724, 76.03286
532.6545, 78.33794
533.1367, 79.13127
533.6188, 78.74759
534.1009, 78.43319
534.5830, 78.30995
535.0651, 78.34494
535.5472, 78.62392
536.0294, 79.24014
536.5115, 79.38084
536.9936, 78.70853
537.4757, 78.03297
537.9578, 78.05500
538.4399, 78.86714
538.9221, 79.86421
539.4042, 81.12460
539.8863, 82.32104
540.3684, 82.78973
540.8505, 82.58215
541.3326, 82.29342
541.8148, 81.93232
542.2969, 81.77847
542.7790, 82.44431
543.2611, 83.86117
543.7432, 85.48797
544.2253, 87.25961
544.7075, 88.89550
545.1896, 89.97178
545.6717, 90.29903
546.1538, 90.82793
546.6359, 92.09101
547.1180, 93.77258
547.6002, 95.52248
548.0823, 97.65950
548.5644, 99.40065
549.0465, 100.2256
549.5286, 100.5434
550.0107, 101.5348
550.4929, 103.4386
550.9750, 105.6693
551.4571, 108.1522
551.9392, 110.8991
552.4213, 113.3080
552.9034, 115.3215
553.3856, 117.2178
553.8677, 119.2879
554.3498, 121.4956
554.8319, 123.3572
555.3140, 124.7726
555.7961, 126.0332
556.2783, 127.1549
556.7604, 128.3822
557.2425, 130.4644
557.7246, 134.4057
558.2067, 138.5718
558.6888, 141.2212
559.1710, 142.7042
559.6531, 144.1673
560.1352, 146.7870
560.6173, 149.0511
561.0994, 149.5764
561.5815, 147.9337
562.0637, 147.5207
562.5458, 150.1894
563.0279, 153.5544
563.5100, 155.8920
563.9921, 156.6044
564.4742, 157.3793
564.9564, 158.5810
565.4385, 159.6044
565.9206, 159.0384
566.4027, 156.3755
566.8848, 154.8204
567.3669, 155.9098
567.8491, 158.4389
568.3312, 158.2371
568.8133, 155.3997
569.2954, 152.2852
569.7775, 150.3028
570.2596, 149.1214
570.7418, 148.4575
571.2239, 148.3159
571.7060, 147.7519
572.1881, 145.4123
572.6702, 142.5470
573.1523, 140.5954
573.6345, 140.5581
574.1166, 140.3415
574.5987, 138.7365
575.0808, 136.5458
575.5629, 135.0769
576.0450, 135.0932
576.5272, 135.2920
577.0093, 135.7011
577.4914, 136.1865
577.9735, 135.7668
578.4556, 134.1094
578.9377, 132.2441
579.4199, 130.6923
579.9020, 129.4850
580.3841, 127.7931
580.8662, 125.4887
581.3483, 123.4135
581.8304, 122.6974
582.3126, 122.9703
582.7947, 122.9765
583.2768, 122.5036
583.7589, 121.6457
584.2410, 120.2766
584.7231, 118.6125
585.2053, 117.0812
585.6874, 115.7443
586.1696, 114.6949
586.6517, 113.8426
587.1338, 113.2735
587.6159, 113.3688
588.0980, 115.0679
588.5801, 116.6996
589.0623, 117.3678
589.5444, 116.8185
590.0265, 117.0456
590.5086, 118.6159
590.9907, 120.2395
591.4728, 120.9260
591.9550, 120.5846
592.4371, 119.7476
592.9192, 118.2650
593.4013, 116.7721
593.8834, 116.3087
594.3655, 116.7413
594.8477, 117.1972
595.3298, 117.2477
595.8119, 117.3689
596.2940, 118.6183
596.7761, 120.5733
597.2582, 121.8538
597.7404, 121.3425
598.2225, 120.1891
598.7046, 119.0187
599.1867, 117.8837
599.6688, 117.0023
600.1509, 116.4870
600.6331, 116.1966
601.1152, 116.1866
601.5973, 117.1305
602.0794, 116.6158
602.5615, 113.5445
603.0436, 110.0707
603.5258, 108.8217
604.0079, 110.2220
604.4900, 111.7088
604.9721, 113.1714
605.4542, 114.0724
605.9363, 112.7705
606.4185, 109.5426
606.9006, 106.7268
607.3827, 105.6400
607.8648, 105.4692
608.3469, 105.3242
608.8290, 105.1528
609.3112, 104.6693
609.7933, 103.1222
610.2754, 101.6010
610.7575, 101.1254
611.2396, 101.9962
611.7217, 102.4212
612.2039, 101.8125
612.6860, 100.6244
613.1681, 99.17204
613.6502, 97.36878
614.1323, 95.42322
614.6144, 92.85056
615.0966, 90.58421
615.5787, 90.42480
616.0608, 92.91457
616.5429, 93.87706
617.0250, 91.80213
617.5071, 88.25683
617.9893, 86.91551
618.4714, 87.55227
618.9535, 88.41868
619.4356, 88.69206
619.9177, 88.63228
620.3998, 88.57882
620.8820, 88.51972
621.3641, 88.29977
621.8462, 87.99476
622.3283, 87.37723
622.8104, 86.11178
623.2925, 83.85060
623.7747, 82.17273
624.2568, 81.83801
624.7389, 81.90405
625.2210, 81.58176
625.7031, 80.48436
626.1852, 79.92445
626.6674, 80.28909
627.1495, 80.86129
627.6316, 80.19726
628.1137, 78.22326
628.5958, 76.89631
629.0779, 77.05769
629.5601, 77.87168
630.0422, 77.52433
630.5243, 76.27467
631.0064, 75.32989
631.4885, 75.76757
631.9706, 76.54683
632.4528, 76.82506
632.9349, 76.56526
633.4170, 75.79592
633.8991, 74.03793
634.3812, 72.14571
634.8633, 70.52081
635.3455, 69.08706
635.8276, 68.42321
636.3097, 68.92654
636.7918, 69.83279
637.2739, 70.55190
637.7560, 71.08049
638.2382, 71.41013
638.7203, 71.54077
639.2024, 71.45992
639.6845, 71.14303
640.1666, 70.58991
640.6487, 69.78584
641.1309, 68.53269
641.6130, 67.28428
642.0951, 66.53755
642.5772, 66.30666
643.0594, 66.67155
643.5415, 68.40849
644.0236, 70.10609
644.5057, 70.79362
644.9879, 70.56203
645.4700, 70.48820
645.9521, 71.35632
646.4342, 71.93534
646.9163, 71.44788
647.3984, 69.54192
647.8806, 69.05813
648.3627, 70.51476
648.8448, 72.41502
649.3269, 73.59880
649.8090, 74.06496
650.2911, 74.53979
650.7733, 75.16280
651.2554, 75.46640
651.7375, 74.38058
652.2196, 72.55880
652.7017, 71.68448
653.1838, 72.63752
653.6660, 73.85255
654.1481, 74.01171
654.6302, 73.60763
655.1123, 73.51381
655.5944, 74.71046
656.0765, 75.52311
656.5587, 74.95072
657.0408, 73.42828
657.5229, 73.04058
658.0050, 74.36913
