##NAMES=Beraunite
##RRUFFID=R060696
##IDEAL CHEMISTRY=Fe^2+^Fe^3+^_5_(PO_4_)_4_(OH)_5_&#183;6H_2_O
##LOCALITY=Three Oak Gap, Shady, Polk County, Arkansas, USA
##OWNER=RRUFF
##SOURCE=Bob Jenkins
##DESCRIPTION=Reddish brown bladed crystals in radial aggregates
##STATUS=The identification of this mineral is confirmed by single-crystal X-ray diffraction and chemical analysis.
##URL=rruff.info/R060696
##MEASURED CHEMISTRY=(Fe^2+^_0.98_Mn_0.02_)_Σ=1_Fe^3+^_5.00_(P_1.00_O_4_)_4_(OH)_5_·6H_2_O
139.366, 3563.410
139.848, 3700.785
140.330, 3856.812
140.812, 4029.689
141.294, 4226.275
141.776, 4437.085
142.258, 4648.499
142.741, 4852.342
143.223, 5053.374
143.705, 5264.022
144.187, 5487.972
144.669, 5710.542
145.151, 5936.430
145.633, 6154.430
146.115, 6339.104
146.598, 6469.224
147.080, 6555.750
147.562, 6633.072
148.044, 6708.122
148.526, 6760.454
149.008, 6774.281
149.490, 6760.219
149.972, 6742.615
150.454, 6748.082
150.936, 6767.328
151.419, 6740.694
151.901, 6635.293
152.383, 6523.213
152.865, 6435.021
153.347, 6368.335
153.829, 6314.053
154.311, 6270.233
154.794, 6236.014
155.276, 6194.698
155.758, 6128.750
156.240, 6075.134
156.722, 6054.784
157.204, 6060.916
157.686, 6072.100
158.168, 6060.739
158.650, 6024.128
159.133, 6036.178
159.615, 6146.617
160.097, 6265.333
160.579, 6354.866
161.061, 6420.304
161.543, 6487.580
162.025, 6582.821
162.507, 6710.210
162.990, 6827.735
163.472, 6947.700
163.954, 7045.803
164.436, 7100.481
164.918, 7120.061
165.400, 7135.152
165.882, 7180.033
166.364, 7264.274
166.846, 7320.897
167.329, 7329.652
167.811, 7328.365
168.293, 7325.786
168.775, 7325.938
169.257, 7334.323
169.739, 7363.912
170.221, 7342.913
170.703, 7321.915
171.185, 7300.917
171.668, 7279.913
172.150, 7222.947
172.632, 7197.518
173.114, 7186.191
173.596, 7169.835
174.078, 7143.388
174.560, 7133.725
175.042, 7163.964
175.525, 7189.485
176.007, 7179.660
176.489, 7138.598
176.971, 7097.543
177.453, 7091.479
177.935, 7131.164
178.417, 7165.547
178.899, 7187.994
179.381, 7211.753
179.863, 7239.913
180.346, 7274.794
180.828, 7320.938
181.310, 7383.552
181.792, 7466.005
182.274, 7554.454
182.756, 7644.814
183.238, 7742.825
183.721, 7853.006
184.203, 7974.383
184.685, 8103.121
185.167, 8234.405
185.649, 8370.016
186.131, 8501.460
186.613, 8603.482
187.095, 8722.317
187.577, 8890.360
188.059, 9104.532
188.542, 9333.416
189.024, 9546.111
189.506, 9735.125
189.988, 9938.264
190.470, 10168.910
190.952, 10399.230
191.434, 10616.130
191.917, 10818.880
192.399, 11015.740
192.881, 11217.720
193.363, 11430.020
193.845, 11613.420
194.327, 11780.000
194.809, 11915.500
195.291, 12017.980
195.773, 12084.630
196.255, 12109.220
196.738, 12085.180
197.220, 12009.240
197.702, 11900.570
198.184, 11754.780
198.666, 11587.920
199.148, 11409.000
199.630, 11215.940
200.112, 10998.910
200.595, 10744.890
201.077, 10448.310
201.559, 10169.170
202.041, 9909.801
202.523, 9661.947
203.005, 9427.067
203.487, 9202.055
203.969, 8978.724
204.452, 8748.590
204.934, 8509.784
205.416, 8309.079
205.898, 8157.403
206.380, 8024.558
206.862, 7898.209
207.344, 7780.756
207.826, 7681.821
208.308, 7608.508
208.790, 7560.291
209.273, 7523.675
209.755, 7499.878
210.237, 7484.178
210.719, 7473.638
211.201, 7469.982
211.683, 7475.754
212.165, 7491.357
212.648, 7518.199
213.130, 7573.646
213.612, 7677.869
214.094, 7786.082
214.576, 7876.738
215.058, 7964.159
215.540, 8077.366
216.022, 8234.326
216.504, 8427.825
216.986, 8619.304
217.469, 8807.975
217.951, 8995.260
218.433, 9178.028
218.915, 9359.845
219.397, 9543.024
219.879, 9728.960
220.361, 9921.375
220.844, 10135.970
221.326, 10405.920
221.808, 10659.080
222.290, 10892.790
222.772, 11106.240
223.254, 11295.370
223.736, 11459.010
224.218, 11604.370
224.700, 11748.860
225.182, 11897.780
225.665, 12039.980
226.147, 12190.040
226.629, 12326.980
227.111, 12424.720
227.593, 12475.400
228.075, 12498.440
228.557, 12533.000
229.040, 12607.880
229.522, 12648.380
230.004, 12639.790
230.486, 12607.950
230.968, 12574.020
231.450, 12543.390
231.932, 12507.080
232.414, 12449.760
232.896, 12357.080
233.378, 12272.720
233.861, 12199.720
234.343, 12131.770
234.825, 12070.370
235.307, 12012.450
235.789, 11946.470
236.271, 11855.160
236.753, 11727.260
237.235, 11611.030
237.718, 11505.220
238.200, 11409.930
238.682, 11327.550
239.164, 11256.420
239.646, 11189.770
240.128, 11120.760
240.610, 11049.000
241.092, 10979.570
241.574, 10921.700
242.057, 10857.210
242.539, 10771.890
243.021, 10673.430
243.503, 10581.110
243.985, 10510.520
244.467, 10460.900
244.949, 10414.570
245.431, 10387.230
245.913, 10346.080
246.396, 10275.590
246.878, 10185.930
247.360, 10097.490
247.842, 10024.530
248.324, 9960.568
248.806, 9873.626
249.288, 9759.304
249.770, 9624.544
250.253, 9456.278
250.735, 9275.401
251.217, 9109.883
251.699, 8974.032
252.181, 8853.482
252.663, 8711.347
253.145, 8538.878
253.627, 8363.451
254.109, 8184.933
254.592, 8010.742
255.074, 7846.730
255.556, 7695.427
256.038, 7554.417
256.520, 7419.008
257.002, 7287.436
257.484, 7169.431
257.966, 7082.250
258.449, 7001.296
258.931, 6905.725
259.413, 6792.449
259.895, 6686.758
260.377, 6617.755
260.859, 6587.034
261.341, 6559.359
261.823, 6529.513
262.306, 6501.810
262.788, 6473.306
263.270, 6445.898
263.752, 6434.541
264.234, 6458.221
264.716, 6510.507
265.198, 6552.879
265.680, 6575.261
266.162, 6597.816
266.645, 6631.646
267.127, 6676.415
267.609, 6732.221
268.091, 6801.052
268.573, 6880.857
269.055, 6966.368
269.537, 7055.726
270.019, 7156.191
270.501, 7278.997
270.984, 7416.652
271.466, 7556.984
271.948, 7691.001
272.430, 7829.859
272.912, 7986.613
273.394, 8160.393
273.876, 8350.694
274.358, 8564.018
274.841, 8791.074
275.323, 9006.231
275.805, 9203.189
276.287, 9394.345
276.769, 9580.691
277.251, 9764.682
277.733, 9960.917
278.215, 10182.700
278.698, 10410.910
279.180, 10604.100
279.662, 10754.150
280.144, 10894.150
280.626, 11042.270
281.108, 11186.990
281.590, 11313.640
282.072, 11420.800
282.554, 11496.350
283.036, 11515.400
283.519, 11465.600
284.001, 11408.220
284.483, 11355.740
284.965, 11295.540
285.447, 11216.540
285.929, 11116.820
286.411, 10997.860
286.893, 10860.150
287.376, 10701.760
287.858, 10528.440
288.340, 10310.250
288.822, 10105.220
289.304, 9960.627
289.786, 9863.101
290.268, 9757.265
290.750, 9600.141
291.233, 9395.921
291.715, 9224.956
292.197, 9098.016
292.679, 8988.999
293.161, 8902.611
293.643, 8828.789
294.125, 8753.187
294.607, 8668.349
295.089, 8578.501
295.572, 8495.613
296.054, 8409.194
296.536, 8347.249
297.018, 8331.724
297.500, 8328.353
297.982, 8305.143
298.464, 8253.469
298.946, 8189.238
299.428, 8135.682
299.911, 8094.954
300.393, 8058.704
300.875, 8034.054
301.357, 8007.405
301.839, 7963.983
302.321, 7908.188
302.803, 7862.494
303.285, 7832.155
303.767, 7801.816
304.250, 7771.470
304.732, 7741.130
305.214, 7710.792
305.696, 7680.452
306.178, 7664.322
306.660, 7651.280
307.142, 7630.076
307.625, 7602.274
308.107, 7571.205
308.589, 7536.530
309.071, 7499.599
309.553, 7459.436
310.035, 7417.953
310.517, 7378.570
310.999, 7344.309
311.481, 7306.814
311.964, 7255.262
312.446, 7190.568
312.928, 7126.027
313.410, 7060.516
313.892, 7003.608
314.374, 6974.547
314.856, 6981.062
315.338, 6967.368
315.820, 6886.319
316.303, 6769.417
316.785, 6681.735
317.267, 6638.720
317.749, 6616.309
318.231, 6591.876
318.713, 6565.456
319.195, 6538.652
319.677, 6504.642
320.159, 6475.226
320.642, 6462.155
321.124, 6464.944
321.606, 6475.896
322.088, 6493.313
322.570, 6514.907
323.052, 6514.242
323.534, 6450.307
324.016, 6411.972
324.499, 6442.941
324.981, 6518.848
325.463, 6599.816
325.945, 6668.735
326.427, 6721.988
326.909, 6749.928
327.391, 6720.481
327.873, 6708.138
328.355, 6725.083
328.838, 6751.913
329.320, 6775.630
329.802, 6792.127
330.284, 6801.058
330.766, 6801.615
331.248, 6793.377
331.730, 6778.819
332.212, 6751.632
332.694, 6724.192
333.177, 6697.858
333.659, 6675.176
334.141, 6662.410
334.623, 6670.245
335.105, 6689.102
335.587, 6670.022
336.069, 6584.139
336.552, 6512.646
337.034, 6498.689
337.516, 6505.688
337.998, 6488.951
338.480, 6429.449
338.962, 6358.946
339.444, 6323.478
339.926, 6325.456
340.408, 6311.912
340.891, 6259.193
341.373, 6193.374
341.855, 6140.016
342.337, 6099.846
342.819, 6064.524
343.301, 6028.920
343.783, 5994.750
344.265, 5965.043
344.747, 5939.983
345.230, 5919.969
345.712, 5904.807
346.194, 5894.756
346.676, 5893.101
347.158, 5915.125
347.640, 5933.705
348.122, 5922.031
348.604, 5885.985
349.086, 5855.695
349.569, 5848.768
350.051, 5858.940
350.533, 5861.708
351.015, 5843.206
351.497, 5835.708
351.979, 5858.169
352.461, 5889.214
352.944, 5897.630
353.426, 5875.937
353.908, 5849.893
354.390, 5859.252
354.872, 5923.983
355.354, 5967.049
355.836, 5974.383
356.318, 5976.655
356.800, 5984.990
357.283, 6001.986
357.765, 6030.537
358.247, 6077.809
358.729, 6137.676
359.211, 6163.183
359.693, 6121.766
360.175, 6094.494
360.657, 6104.283
361.139, 6137.266
361.622, 6179.557
362.104, 6227.061
362.586, 6277.164
363.068, 6328.766
363.550, 6382.667
364.032, 6427.520
364.514, 6455.742
364.996, 6478.721
365.478, 6505.095
365.961, 6535.083
366.443, 6568.318
366.925, 6605.809
367.407, 6646.200
367.889, 6690.117
368.371, 6739.893
368.853, 6778.741
369.335, 6789.808
369.818, 6778.108
370.300, 6771.648
370.782, 6768.093
371.264, 6773.582
371.746, 6775.093
372.228, 6776.604
372.710, 6778.116
373.192, 6779.627
373.674, 6781.138
374.157, 6782.649
374.639, 6801.851
375.121, 6809.404
375.603, 6796.461
376.085, 6775.646
376.567, 6752.702
377.049, 6730.925
377.531, 6717.093
378.013, 6718.505
378.496, 6735.840
378.978, 6754.816
379.460, 6772.490
379.942, 6795.118
380.424, 6827.469
380.906, 6865.078
381.388, 6900.004
381.871, 6927.849
382.353, 6955.328
382.835, 6992.396
383.317, 7036.568
383.799, 7100.913
384.281, 7204.669
384.763, 7319.402
385.245, 7423.991
385.727, 7518.163
386.210, 7619.292
386.692, 7752.234
387.174, 7901.404
387.656, 8014.370
388.138, 8078.027
388.620, 8141.071
389.102, 8239.077
389.584, 8364.766
390.066, 8495.700
390.549, 8645.358
391.031, 8784.793
391.513, 8891.417
391.995, 8972.071
392.477, 9048.498
392.959, 9129.463
393.441, 9208.899
393.923, 9277.069
394.405, 9338.570
394.888, 9376.268
395.370, 9388.810
395.852, 9377.699
396.334, 9337.032
396.816, 9270.913
397.298, 9195.395
397.780, 9123.776
398.263, 9055.943
398.745, 8984.870
399.227, 8904.125
399.709, 8827.976
400.191, 8781.506
400.673, 8732.359
401.155, 8632.013
401.637, 8461.480
402.119, 8270.517
402.602, 8136.655
403.084, 8066.499
403.566, 7988.172
404.048, 7888.855
404.530, 7779.417
405.012, 7662.894
405.494, 7541.778
405.976, 7427.332
406.458, 7323.149
406.941, 7228.741
407.423, 7146.155
407.905, 7075.956
408.387, 7002.633
408.869, 6913.280
409.351, 6816.616
409.833, 6738.814
410.315, 6684.309
410.797, 6639.841
411.280, 6616.175
411.762, 6594.463
412.244, 6537.757
412.726, 6438.436
413.208, 6338.052
413.690, 6289.112
414.172, 6304.263
414.654, 6306.482
415.137, 6300.177
415.619, 6278.788
416.101, 6219.857
416.583, 6146.315
417.065, 6104.394
417.547, 6122.337
418.029, 6169.664
418.511, 6166.568
418.993, 6088.548
419.476, 6028.114
419.958, 6015.338
420.440, 6015.638
420.922, 6006.452
421.404, 5986.882
421.886, 5972.108
422.368, 5975.682
422.850, 5991.869
423.332, 6002.492
423.815, 6004.204
424.297, 6012.696
424.779, 6046.732
425.261, 6093.485
425.743, 6117.877
426.225, 6107.765
426.707, 6089.074
427.190, 6066.955
427.672, 6046.735
428.154, 6041.872
428.636, 6056.730
429.118, 6077.719
429.600, 6085.279
430.082, 6070.991
430.564, 6077.753
431.046, 6121.388
431.529, 6168.348
432.011, 6203.836
432.493, 6229.572
432.975, 6252.322
433.457, 6275.497
433.939, 6298.944
434.421, 6323.121
434.903, 6351.312
435.385, 6371.898
435.868, 6371.623
436.350, 6371.509
436.832, 6382.906
437.314, 6407.618
437.796, 6445.882
438.278, 6512.031
438.760, 6590.962
439.242, 6637.302
439.724, 6644.697
440.207, 6645.223
440.689, 6659.687
441.171, 6680.189
441.653, 6684.666
442.135, 6656.386
442.617, 6637.557
443.099, 6655.406
443.581, 6692.447
444.064, 6719.244
444.546, 6728.477
445.028, 6733.205
445.510, 6749.786
445.992, 6782.777
446.474, 6798.987
446.956, 6784.735
447.438, 6770.855
447.921, 6768.796
448.403, 6774.784
448.885, 6781.982
449.367, 6787.419
449.849, 6791.119
450.331, 6795.706
450.813, 6804.761
451.295, 6797.796
451.777, 6755.421
452.259, 6711.280
452.742, 6687.721
453.224, 6682.049
453.706, 6677.747
454.188, 6672.873
454.670, 6661.758
455.152, 6631.863
455.634, 6583.698
456.116, 6537.235
456.599, 6501.409
457.081, 6473.065
457.563, 6446.195
458.045, 6426.868
458.527, 6394.411
459.009, 6335.334
459.491, 6267.104
459.973, 6202.438
460.456, 6144.805
460.938, 6097.207
461.420, 6064.255
461.902, 6043.687
462.384, 6013.861
462.866, 5983.950
463.348, 5930.342
463.830, 5824.628
464.312, 5708.625
464.795, 5630.387
465.277, 5598.949
465.759, 5570.586
466.241, 5495.939
466.723, 5382.427
467.205, 5284.908
467.687, 5210.446
468.169, 5143.483
468.651, 5076.691
469.134, 5009.796
469.616, 4941.317
470.098, 4868.206
470.580, 4798.110
471.062, 4740.674
471.544, 4688.919
472.026, 4624.847
472.508, 4543.034
472.991, 4459.194
473.473, 4392.635
473.955, 4344.947
474.437, 4306.148
474.919, 4290.440
475.401, 4266.964
475.883, 4218.000
476.365, 4154.434
476.848, 4093.042
477.330, 4041.027
477.812, 3998.646
478.294, 3969.008
478.776, 3954.127
479.258, 3938.166
479.740, 3918.824
480.222, 3898.392
480.704, 3880.699
481.186, 3863.912
481.669, 3841.370
482.151, 3802.281
482.633, 3762.847
483.115, 3743.172
483.597, 3739.714
484.079, 3733.918
484.561, 3718.348
485.043, 3698.001
485.526, 3680.291
486.008, 3664.193
486.490, 3654.681
486.972, 3655.123
487.454, 3659.138
487.936, 3664.607
488.418, 3670.253
488.900, 3675.713
489.383, 3681.616
489.865, 3683.515
490.347, 3665.519
490.829, 3614.815
491.311, 3582.234
491.793, 3596.923
492.275, 3616.368
492.757, 3612.086
493.239, 3586.384
493.722, 3563.094
494.204, 3556.062
494.686, 3557.700
495.168, 3558.042
495.650, 3557.052
496.132, 3555.357
496.614, 3552.800
497.096, 3550.330
497.578, 3549.625
498.061, 3549.229
498.543, 3554.141
499.025, 3581.244
499.507, 3600.871
499.989, 3579.064
500.471, 3527.188
500.953, 3489.649
501.435, 3498.382
501.918, 3535.373
502.400, 3537.715
502.882, 3487.963
503.364, 3447.397
503.846, 3428.067
504.328, 3421.269
504.810, 3428.176
505.292, 3445.745
505.775, 3457.325
506.257, 3453.309
506.739, 3437.946
507.221, 3412.638
507.703, 3378.489
508.185, 3353.156
508.667, 3346.220
509.149, 3351.303
509.631, 3356.730
510.114, 3370.604
510.596, 3365.431
511.078, 3320.479
511.560, 3270.320
512.042, 3241.883
512.524, 3231.830
513.006, 3220.314
513.488, 3193.709
513.971, 3159.784
514.453, 3146.275
514.935, 3166.311
515.417, 3167.707
515.899, 3116.943
516.381, 3063.313
516.863, 3043.503
517.345, 3054.358
517.827, 3062.708
518.310, 3051.713
518.792, 3030.310
519.274, 3005.450
519.756, 2978.771
520.238, 2961.647
520.720, 2961.046
521.202, 2967.630
521.684, 2964.183
522.166, 2944.436
522.649, 2929.067
523.131, 2924.085
523.613, 2917.881
524.095, 2898.195
524.577, 2872.017
525.059, 2860.341
525.541, 2877.239
526.023, 2898.803
526.505, 2865.376
526.988, 2762.046
527.470, 2700.849
527.952, 2723.190
528.434, 2765.875
528.916, 2784.459
529.398, 2782.427
529.880, 2773.815
530.362, 2758.169
530.844, 2741.725
531.327, 2728.459
531.809, 2718.339
532.291, 2708.988
532.773, 2699.117
533.255, 2697.158
533.737, 2717.882
534.219, 2771.754
534.701, 2799.640
535.184, 2766.633
535.666, 2747.868
536.148, 2783.085
536.630, 2844.098
537.112, 2888.234
537.594, 2899.755
538.076, 2896.284
538.558, 2889.677
539.041, 2882.727
539.523, 2906.673
540.005, 2976.881
540.487, 3045.081
540.969, 3068.046
541.451, 3060.837
541.933, 3080.005
542.415, 3144.961
542.898, 3214.140
543.380, 3275.501
543.862, 3330.307
544.344, 3373.602
544.826, 3407.991
545.308, 3456.057
545.790, 3542.746
546.272, 3663.415
546.754, 3757.754
547.237, 3794.455
547.719, 3859.384
548.201, 3995.553
548.683, 4151.701
549.165, 4280.343
549.647, 4376.305
550.129, 4474.582
550.611, 4593.043
551.093, 4729.180
551.576, 4885.137
552.058, 5058.729
552.540, 5231.306
553.022, 5388.810
553.504, 5543.710
553.986, 5727.186
554.468, 5967.299
554.950, 6182.573
555.432, 6343.900
555.915, 6505.485
556.397, 6708.500
556.879, 6938.836
557.361, 7157.921
557.843, 7343.098
558.325, 7510.759
558.807, 7695.888
559.289, 7900.866
559.771, 8077.443
560.254, 8209.329
560.736, 8323.080
561.218, 8453.983
561.700, 8589.902
562.182, 8676.506
562.664, 8680.078
563.146, 8659.030
563.628, 8644.521
564.111, 8625.680
564.593, 8588.682
565.075, 8528.688
565.557, 8438.271
566.039, 8306.555
566.521, 8133.583
567.003, 7949.412
567.485, 7738.584
567.968, 7541.257
568.450, 7388.176
568.932, 7241.734
569.414, 7054.925
569.896, 6820.972
570.378, 6598.215
570.860, 6433.793
571.342, 6301.466
571.825, 6158.997
572.307, 6006.046
572.789, 5863.422
573.271, 5744.674
573.753, 5636.006
574.235, 5500.241
574.717, 5297.040
575.199, 5148.454
575.681, 5098.350
576.164, 5058.219
576.646, 4973.078
577.128, 4859.950
577.610, 4764.200
578.092, 4711.002
578.574, 4672.505
579.056, 4605.169
579.538, 4512.187
580.020, 4435.293
580.503, 4386.922
580.985, 4338.221
581.467, 4259.525
581.949, 4156.965
582.431, 4079.925
582.913, 4043.864
583.395, 4013.930
583.877, 3982.039
584.360, 3949.233
584.842, 3916.363
585.324, 3883.716
585.806, 3851.690
586.288, 3821.476
586.770, 3791.819
587.252, 3757.076
587.734, 3716.118
588.216, 3674.331
588.699, 3636.000
589.181, 3594.911
589.663, 3536.217
590.145, 3461.323
590.627, 3413.431
591.109, 3436.642
591.591, 3465.029
592.073, 3435.517
592.555, 3370.104
593.038, 3327.933
593.520, 3330.262
594.002, 3347.516
594.484, 3333.965
594.966, 3281.350
595.448, 3265.143
595.930, 3321.171
596.412, 3364.946
596.895, 3359.716
597.377, 3331.781
597.859, 3311.083
598.341, 3302.676
598.823, 3305.824
599.305, 3335.337
599.787, 3368.837
600.269, 3365.810
600.752, 3328.157
601.234, 3292.949
601.716, 3280.542
602.198, 3284.340
602.680, 3289.197
603.162, 3300.256
603.644, 3301.486
604.126, 3280.419
604.609, 3262.763
605.091, 3271.376
605.573, 3290.570
606.055, 3286.177
606.537, 3239.632
607.019, 3186.561
607.501, 3165.740
607.983, 3168.284
608.465, 3167.838
608.948, 3160.650
609.430, 3147.902
609.912, 3129.674
610.394, 3106.835
610.876, 3084.128
611.358, 3055.014
611.840, 3034.916
612.322, 3037.140
612.804, 3038.491
613.287, 3014.968
613.769, 2974.162
614.251, 2946.582
614.733, 2954.730
615.215, 2975.417
615.697, 2969.948
616.179, 2941.354
616.661, 2917.799
617.143, 2906.573
617.626, 2898.231
618.108, 2884.603
618.590, 2865.786
619.072, 2846.151
619.554, 2828.400
620.036, 2806.461
620.518, 2772.638
621.000, 2738.006
621.482, 2715.260
621.965, 2704.281
622.447, 2694.139
622.929, 2675.345
623.411, 2653.113
623.893, 2638.939
624.375, 2632.907
624.857, 2634.337
625.339, 2645.295
625.822, 2659.506
626.304, 2671.945
626.786, 2682.643
627.268, 2684.181
627.750, 2671.450
628.232, 2655.436
628.714, 2630.104
629.196, 2608.740
629.679, 2616.480
630.161, 2652.301
630.643, 2676.613
631.125, 2641.135
631.607, 2570.876
632.089, 2560.976
632.571, 2618.583
633.053, 2674.049
633.536, 2707.295
634.018, 2725.154
634.500, 2733.814
634.982, 2732.784
635.464, 2730.921
635.946, 2720.828
636.428, 2718.725
636.910, 2738.984
637.392, 2768.744
637.875, 2791.162
638.357, 2801.574
638.839, 2804.654
639.321, 2802.489
639.803, 2796.815
640.285, 2793.737
640.767, 2791.972
641.249, 2803.233
641.731, 2841.192
642.214, 2883.614
642.696, 2890.474
643.178, 2854.496
643.660, 2852.511
644.142, 2926.637
644.624, 2997.600
645.106, 3021.859
645.588, 3020.646
646.070, 3026.934
646.553, 3049.622
647.035, 3075.215
647.517, 3087.235
647.999, 3090.288
648.481, 3104.620
648.963, 3130.720
649.445, 3166.118
649.927, 3215.540
650.409, 3266.885
650.892, 3299.093
651.374, 3307.544
651.856, 3327.480
652.338, 3369.558
652.820, 3413.787
653.302, 3446.799
653.784, 3477.934
654.266, 3524.198
654.749, 3588.513
655.231, 3652.388
655.713, 3698.045
656.195, 3728.737
656.677, 3750.138
657.159, 3760.519
657.641, 3791.852
658.123, 3866.743
658.606, 3950.232
