##NAMES=Berlinite
##RRUFFID=R130243
##IDEAL CHEMISTRY=AlPO_4_
##LOCALITY=Buranga pegmatite, Gatumba District, Western Province, Rwanda
##OWNER=RRUFF
##SOURCE=Rock Currier
##DESCRIPTION=Massive white to gray vitreous, associated with lazulite, muscovite and apatite.
##STATUS=The identification of this mineral has been confirmed by single-crystal X-ray diffraction.
##URL=rruff.info/R130243
102.1665, 97.66477
102.6486, 101.0367
103.1307, 105.3688
103.6128, 110.6081
104.0950, 116.7782
104.5771, 123.7682
105.0592, 131.8827
105.5413, 140.6598
106.0234, 149.5532
106.5055, 159.8281
106.9877, 170.3232
107.4698, 176.2272
107.9519, 176.2182
108.4340, 172.5033
108.9161, 164.8828
109.3982, 154.4762
109.8804, 143.6837
110.3625, 134.2652
110.8446, 126.0846
111.3267, 120.3241
111.8088, 117.4297
112.2909, 116.2740
112.7731, 116.4596
113.2552, 117.8979
113.7373, 120.7091
114.2194, 125.0469
114.7015, 131.3944
115.1836, 138.8891
115.6658, 147.9397
116.1479, 157.8991
116.6300, 168.7083
117.1121, 180.4924
117.5942, 192.0822
118.0763, 200.6963
118.5584, 207.9416
119.0406, 210.4502
119.5227, 206.2839
120.0048, 196.4769
120.4869, 183.3232
120.9690, 166.4567
121.4511, 147.7892
121.9333, 131.0520
122.4154, 116.1714
122.8975, 103.3112
123.3796, 93.04344
123.8617, 85.48363
124.3438, 79.28322
124.8260, 74.32174
125.3081, 70.29375
125.7902, 67.08875
126.2723, 64.75578
126.7544, 63.17273
127.2365, 62.16520
127.7187, 62.03571
128.2008, 62.01960
128.6829, 61.89099
129.1650, 61.70822
129.6471, 61.56028
130.1292, 61.51423
130.6114, 61.55806
131.0935, 61.51085
131.5756, 61.27570
132.0577, 61.03709
132.5398, 60.82521
133.0219, 60.64585
133.5041, 60.49672
133.9862, 60.37383
134.4683, 60.27531
134.9504, 60.22829
135.4325, 60.26607
135.9146, 60.31769
136.3968, 60.32711
136.8789, 60.29494
137.3610, 60.27605
137.8431, 60.32122
138.3252, 60.43063
138.8073, 60.66330
139.2895, 61.06624
139.7716, 61.57759
140.2537, 62.09039
140.7358, 62.54934
141.2179, 63.12853
141.7000, 64.11229
142.1821, 65.45349
142.6643, 66.86726
143.1464, 68.31335
143.6285, 69.75612
144.1106, 71.07437
144.5927, 72.21745
145.0748, 73.23556
145.5570, 74.24987
146.0391, 75.25610
146.5212, 76.09229
147.0033, 76.48512
147.4854, 76.36198
147.9675, 76.51553
148.4497, 77.19043
148.9318, 78.15038
149.4139, 79.36836
149.8960, 80.81740
150.3781, 82.37232
150.8602, 83.78114
151.3424, 84.81242
151.8245, 86.26556
152.3066, 88.20119
152.7887, 90.49728
153.2708, 93.12428
153.7529, 96.04937
154.2351, 99.20581
154.7172, 102.4112
155.1993, 105.2264
155.6814, 108.6731
156.1635, 112.7304
156.6456, 117.4506
157.1278, 122.9218
157.6099, 129.2086
158.0920, 136.1966
158.5741, 143.4528
159.0562, 151.0770
159.5383, 158.8150
160.0205, 166.6618
160.5026, 174.5651
160.9847, 182.5998
161.4668, 191.0413
161.9489, 199.3922
162.4310, 205.7131
162.9131, 211.9700
163.3953, 214.7054
163.8774, 211.9345
164.3595, 203.7880
164.8416, 191.1743
165.3237, 172.4532
165.8058, 149.8496
166.2880, 128.6773
166.7701, 108.7310
167.2522, 90.91600
167.7343, 76.45456
168.2164, 65.56609
168.6985, 57.11827
169.1807, 51.47223
169.6628, 47.66708
170.1449, 44.80182
170.6270, 42.68764
171.1091, 41.24556
171.5912, 40.33286
172.0734, 40.06472
172.5555, 40.17887
173.0376, 40.55144
173.5197, 41.16151
174.0018, 42.00533
174.4839, 43.11835
174.9661, 44.45612
175.4482, 45.73409
175.9303, 46.87494
176.4124, 48.04341
176.8945, 49.21145
177.3766, 50.43900
177.8588, 51.82307
178.3409, 53.46611
178.8230, 55.37457
179.3051, 57.14076
179.7872, 58.67193
180.2693, 60.15632
180.7515, 61.50839
181.2336, 62.83749
181.7157, 64.37741
182.1978, 66.36137
182.6799, 68.85608
183.1620, 71.13293
183.6441, 72.79543
184.1263, 74.63207
184.6084, 77.12199
185.0905, 80.20812
185.5726, 83.42698
186.0547, 86.29655
186.5368, 88.73909
187.0190, 91.67269
187.5011, 95.22594
187.9832, 99.12252
188.4653, 103.1821
188.9474, 107.3664
189.4296, 111.7366
189.9117, 116.3531
190.3938, 121.2144
190.8759, 126.3404
191.3580, 131.6468
191.8401, 137.2354
192.3223, 143.3245
192.8044, 150.0074
193.2865, 156.8933
193.7686, 163.8344
194.2507, 170.7576
194.7328, 177.2485
195.2150, 183.6060
195.6971, 189.3997
196.1792, 193.7659
196.6613, 196.4796
197.1434, 198.0021
197.6255, 198.2111
198.1077, 197.5434
198.5898, 197.0938
199.0719, 197.2195
199.5540, 197.9725
200.0361, 199.5561
200.5182, 201.9817
201.0004, 205.3916
201.4825, 209.8165
201.9646, 215.1189
202.4467, 220.9176
202.9288, 226.8746
203.4109, 233.0327
203.8930, 239.9594
204.3752, 247.6641
204.8573, 256.2482
205.3394, 265.9260
205.8215, 276.4591
206.3036, 287.4018
206.7857, 298.3251
207.2679, 309.2060
207.7500, 320.5345
208.2321, 332.6689
208.7142, 344.9705
209.1963, 357.3386
209.6784, 369.6912
210.1606, 381.9378
210.6427, 394.0673
211.1248, 406.0620
211.6069, 417.4180
212.0890, 428.5390
212.5711, 438.7126
213.0533, 447.8892
213.5354, 455.9064
214.0175, 462.5229
214.4996, 467.4240
214.9817, 470.4201
215.4638, 472.8393
215.9460, 475.1514
216.4281, 476.6509
216.9102, 476.5836
217.3923, 475.2079
217.8744, 473.6514
218.3565, 472.9714
218.8387, 473.3167
219.3208, 473.2356
219.8029, 472.5371
220.2850, 471.6261
220.7671, 470.9797
221.2492, 470.5066
221.7314, 469.5102
222.2135, 467.4914
222.6956, 464.2839
223.1777, 459.8370
223.6598, 453.6835
224.1419, 446.6590
224.6240, 439.3852
225.1062, 431.8849
225.5883, 423.9276
226.0704, 415.3161
226.5525, 406.0271
227.0346, 396.1543
227.5167, 384.9095
227.9989, 373.5927
228.4810, 363.7042
228.9631, 355.3659
229.4452, 347.2311
229.9273, 338.4413
230.4094, 329.1471
230.8916, 319.7146
231.3737, 309.9908
231.8558, 300.3016
232.3379, 291.1110
232.8200, 282.4933
233.3021, 273.8654
233.7843, 264.6473
234.2664, 255.1792
234.7485, 245.9721
235.2306, 237.1828
235.7127, 228.6862
236.1948, 220.1276
236.6770, 211.2913
237.1591, 203.1026
237.6412, 196.3462
238.1233, 190.3769
238.6054, 184.4957
239.0875, 178.4048
239.5697, 172.4298
240.0518, 167.1929
240.5339, 162.8503
241.0160, 158.6880
241.4981, 154.4282
241.9802, 150.1999
242.4624, 146.1251
242.9445, 142.2536
243.4266, 138.5684
243.9087, 135.0934
244.3908, 131.9510
244.8729, 128.6932
245.3550, 125.1459
245.8372, 121.4771
246.3193, 117.7821
246.8014, 114.0780
247.2835, 110.4642
247.7656, 107.0717
248.2477, 103.9869
248.7299, 100.9476
249.2120, 97.95445
249.6941, 94.96530
250.1762, 91.91670
250.6583, 88.78951
251.1404, 85.69792
251.6226, 82.79528
252.1047, 80.10774
252.5868, 77.60743
253.0689, 75.33158
253.5510, 73.17924
254.0331, 71.06552
254.5153, 68.97575
254.9974, 66.94541
255.4795, 65.02367
255.9616, 63.26817
256.4437, 61.51668
256.9258, 59.67906
257.4080, 57.90412
257.8901, 56.29135
258.3722, 54.85719
258.8543, 53.52858
259.3364, 52.19998
259.8185, 50.81085
260.3007, 49.58979
260.7828, 48.61487
261.2649, 47.69874
261.7470, 46.69122
262.2291, 45.59552
262.7112, 44.57470
263.1934, 43.84172
263.6755, 43.55302
264.1576, 42.96798
264.6397, 41.82402
265.1218, 40.66559
265.6039, 39.84633
266.0861, 39.34135
266.5682, 38.85445
267.0503, 38.07229
267.5324, 36.90999
268.0145, 36.02714
268.4966, 35.55707
268.9788, 35.18166
269.4609, 34.77695
269.9430, 34.33246
270.4251, 33.88205
270.9072, 33.45554
271.3893, 33.05778
271.8715, 32.61414
272.3536, 32.08602
272.8357, 31.56125
273.3178, 31.04497
273.7999, 30.55919
274.2820, 30.16834
274.7642, 29.93416
275.2463, 29.83513
275.7284, 29.60497
276.2105, 29.10017
276.6926, 28.65055
277.1747, 28.38352
277.6568, 28.25429
278.1389, 28.16805
278.6211, 28.08231
279.1032, 27.98761
279.5853, 27.83624
280.0674, 27.58829
280.5495, 27.34286
281.0316, 27.08672
281.5138, 26.85386
281.9959, 26.72941
282.4780, 26.76700
282.9601, 26.87914
283.4422, 26.82729
283.9243, 26.51184
284.4065, 26.24830
284.8886, 26.16220
285.3707, 26.15020
285.8528, 26.03300
286.3349, 25.73829
286.8170, 25.40618
287.2992, 25.28965
287.7813, 25.44786
288.2634, 25.59626
288.7455, 25.67809
289.2276, 25.73259
289.7097, 25.82560
290.1919, 25.97510
290.6740, 26.09770
291.1561, 26.06352
291.6382, 25.84211
292.1203, 25.70826
292.6024, 25.69862
293.0846, 25.78290
293.5667, 25.97736
294.0488, 26.28043
294.5309, 26.55217
295.0130, 26.63104
295.4951, 26.51656
295.9773, 26.53272
296.4594, 26.73699
296.9415, 27.04215
297.4236, 27.43188
297.9057, 27.88842
298.3878, 28.28966
298.8700, 28.51922
299.3521, 28.61381
299.8342, 28.82596
300.3163, 29.20048
300.7984, 29.64575
301.2805, 30.15082
301.7627, 30.69689
302.2448, 31.20828
302.7269, 31.64222
303.2090, 32.01785
303.6911, 32.40831
304.1732, 32.87159
304.6554, 33.26208
305.1375, 33.55392
305.6196, 33.72710
306.1017, 33.72594
306.5838, 33.52428
307.0659, 33.14608
307.5481, 32.61370
308.0302, 31.91605
308.5123, 31.17050
308.9944, 30.40719
309.4765, 29.62306
309.9586, 28.81609
310.4408, 27.98597
310.9229, 27.14399
311.4050, 26.28202
311.8871, 25.38591
312.3692, 24.62029
312.8513, 24.07370
313.3335, 23.64945
313.8156, 23.23546
314.2977, 22.81688
314.7798, 22.41414
315.2619, 22.01864
315.7440, 21.64231
316.2262, 21.40666
316.7083, 21.40176
317.1904, 21.48487
317.6725, 21.55681
318.1546, 21.61193
318.6367, 21.65503
319.1188, 21.69254
319.6010, 21.71826
320.0831, 21.71529
320.5652, 21.64954
321.0473, 21.58982
321.5294, 21.55466
322.0115, 21.55206
322.4937, 21.60952
322.9758, 21.73845
323.4579, 21.93909
323.9400, 22.21014
324.4221, 22.56916
324.9042, 22.94556
325.3864, 23.30396
325.8685, 23.66470
326.3506, 24.08216
326.8327, 24.58447
327.3148, 25.10866
327.7969, 25.53531
328.2791, 25.83329
328.7612, 26.22256
329.2433, 26.75690
329.7254, 27.39618
330.2075, 28.06694
330.6896, 28.75642
331.1718, 29.57452
331.6539, 30.65466
332.1360, 32.02279
332.6181, 33.44796
333.1002, 34.88580
333.5823, 36.39734
334.0645, 38.18164
334.5466, 40.16216
335.0287, 41.94241
335.5108, 43.30199
335.9929, 44.18936
336.4750, 44.44381
336.9572, 44.05770
337.4393, 43.14476
337.9214, 41.56612
338.4035, 39.48816
338.8856, 37.25591
339.3677, 34.98483
339.8499, 32.76253
340.3320, 30.85834
340.8141, 29.30153
341.2962, 27.94734
341.7783, 26.81117
342.2604, 25.84667
342.7426, 25.01621
343.2247, 24.31215
343.7068, 23.70548
344.1889, 23.15860
344.6710, 22.67318
345.1531, 22.27375
345.6353, 22.04016
346.1174, 21.84103
346.5995, 21.55804
347.0816, 21.19415
347.5637, 20.84343
348.0458, 20.59124
348.5280, 20.44140
349.0101, 20.33917
349.4922, 20.30989
349.9743, 20.29383
350.4564, 20.25018
350.9385, 20.19962
351.4207, 20.20213
351.9028, 20.30029
352.3849, 20.46133
352.8670, 20.54366
353.3491, 20.34411
353.8312, 20.31727
354.3134, 20.54848
354.7955, 20.96849
355.2776, 21.53297
355.7597, 22.22108
356.2418, 22.96538
356.7239, 23.66635
357.2061, 24.37128
357.6882, 24.91345
358.1703, 25.21103
358.6524, 25.42455
359.1345, 25.53431
359.6166, 25.61844
360.0987, 25.93543
360.5808, 26.77903
361.0630, 28.22132
361.5451, 29.49645
362.0272, 30.40136
362.5093, 31.35765
362.9914, 32.56710
363.4735, 33.93136
363.9557, 35.22406
364.4378, 36.30590
364.9199, 37.22828
365.4020, 38.19064
365.8841, 38.91953
366.3662, 40.10715
366.8484, 41.86283
367.3305, 44.06257
367.8126, 46.51561
368.2947, 49.17078
368.7768, 52.26519
369.2589, 56.18580
369.7411, 61.00915
370.2232, 66.49894
370.7053, 72.91651
371.1874, 79.73181
371.6695, 87.08224
372.1516, 94.70467
372.6338, 102.0942
373.1159, 109.2215
373.5980, 116.0016
374.0801, 119.7525
374.5622, 119.4891
375.0443, 117.0252
375.5265, 111.7636
376.0086, 105.1313
376.4907, 99.10475
376.9728, 94.47746
377.4549, 91.30038
377.9370, 90.05044
378.4192, 91.64676
378.9013, 92.55940
379.3834, 92.63305
379.8655, 91.17464
380.3476, 87.23573
380.8297, 80.65160
381.3119, 72.73903
381.7940, 64.26208
382.2761, 55.23796
382.7582, 47.45230
383.2403, 41.23335
383.7224, 36.33521
384.2046, 32.57481
384.6867, 29.84083
385.1688, 27.64814
385.6509, 25.84903
386.1330, 24.42025
386.6151, 23.33317
387.0973, 22.63244
387.5794, 22.12707
388.0615, 21.82014
388.5436, 21.61441
389.0257, 21.36848
389.5078, 21.01885
389.9900, 20.69152
390.4721, 20.50547
390.9542, 20.44788
391.4363, 20.42483
391.9184, 20.40553
392.4005, 20.41060
392.8827, 20.47179
393.3648, 20.59111
393.8469, 20.71920
394.3290, 20.84858
394.8111, 20.97106
395.2932, 21.01911
395.7754, 20.96546
396.2575, 21.04012
396.7396, 21.51512
397.2217, 22.35436
397.7038, 23.04382
398.1859, 23.42991
398.6681, 23.78296
399.1501, 24.24728
399.6323, 24.82384
400.1144, 25.51236
400.5965, 26.33222
401.0786, 27.23173
401.5607, 28.04910
402.0428, 28.75864
402.5250, 29.44800
403.0071, 30.07620
403.4892, 30.71803
403.9713, 31.44629
404.4534, 32.27712
404.9355, 33.21113
405.4177, 34.25924
405.8998, 35.43964
406.3819, 36.62189
406.8640, 37.67982
407.3461, 38.85162
407.8282, 40.26214
408.3104, 41.88860
408.7925, 43.64619
409.2746, 45.49889
409.7567, 47.45346
410.2388, 49.56637
410.7209, 51.71460
411.2031, 54.21305
411.6852, 57.12296
412.1673, 60.36442
412.6494, 63.92167
413.1315, 67.76688
413.6136, 71.78007
414.0958, 75.81649
414.5779, 79.91162
415.0600, 83.96229
415.5421, 87.95432
416.0242, 91.89541
416.5063, 96.29632
416.9885, 100.6749
417.4706, 103.9436
417.9527, 105.4720
418.4348, 105.3678
418.9169, 103.8808
419.3990, 100.6090
419.8812, 96.82336
420.3633, 92.52194
420.8454, 88.14961
421.3275, 84.11186
421.8096, 80.50871
422.2917, 77.24400
422.7739, 74.22651
423.2560, 71.46458
423.7381, 69.00181
424.2202, 66.83951
424.7023, 65.01878
425.1844, 63.41526
425.6666, 62.09422
426.1487, 61.31822
426.6308, 61.27067
427.1129, 61.79853
427.5950, 62.67979
428.0771, 63.91457
428.5593, 65.55340
429.0414, 67.62392
429.5235, 70.15582
430.0056, 73.03171
430.4877, 76.19362
430.9698, 79.83751
431.4520, 83.97066
431.9341, 88.64793
432.4162, 93.94225
432.8983, 99.81297
433.3804, 106.5101
433.8625, 114.2208
434.3447, 122.9704
434.8268, 133.4176
435.3089, 146.0463
435.7910, 159.9882
436.2731, 175.1911
436.7552, 191.2601
437.2374, 207.6554
437.7195, 224.4425
438.2016, 240.5465
438.6837, 251.4995
439.1658, 259.0135
439.6479, 258.9106
440.1301, 247.8678
440.6122, 230.7929
441.0943, 210.1401
441.5764, 187.5569
442.0585, 166.4620
442.5406, 150.7746
443.0227, 140.6386
443.5049, 134.6242
443.9870, 134.2724
444.4691, 136.5630
444.9512, 141.5369
445.4333, 148.3882
445.9154, 156.2663
446.3976, 164.7743
446.8797, 173.6059
447.3618, 181.9875
447.8439, 189.6001
448.3260, 197.7008
448.8081, 206.1218
449.2903, 215.4647
449.7724, 225.9919
450.2545, 237.8057
450.7366, 251.2141
451.2187, 266.3706
451.7008, 283.3038
452.1830, 301.6990
452.6651, 321.2475
453.1472, 342.8057
453.6293, 366.6303
454.1114, 392.8726
454.5935, 422.1648
455.0757, 454.3005
455.5578, 489.9438
456.0399, 529.3920
456.5220, 572.7235
457.0041, 621.1730
457.4862, 675.4705
457.9684, 734.4050
458.4505, 798.2844
458.9326, 866.9931
459.4147, 934.1769
459.8968, 1003.866
460.3789, 1067.597
460.8611, 1121.735
461.3432, 1164.307
461.8253, 1188.931
462.3074, 1191.973
462.7895, 1173.868
463.2716, 1135.192
463.7538, 1066.160
464.2359, 991.0405
464.7180, 906.2882
465.2001, 819.4009
465.6822, 736.5781
466.1643, 659.4757
466.6465, 589.5979
467.1286, 528.9213
467.6107, 477.4732
468.0928, 430.6181
468.5749, 388.9504
469.0570, 351.3859
469.5392, 318.6615
470.0213, 289.7642
470.5034, 263.5936
470.9855, 239.6442
471.4676, 218.1358
471.9497, 199.6461
472.4319, 184.5233
472.9140, 170.9875
473.3961, 159.0379
473.8782, 148.6315
474.3603, 140.0229
474.8424, 133.0668
475.3246, 126.9920
475.8067, 121.4664
476.2888, 116.5279
476.7709, 112.2495
477.2530, 108.6901
477.7351, 105.5390
478.2173, 102.7953
478.6994, 100.3219
479.1815, 97.94258
479.6636, 95.71613
480.1457, 93.35838
480.6278, 90.74620
481.1100, 87.90135
481.5920, 84.79611
482.0742, 81.41551
482.5563, 77.98243
483.0384, 74.64315
483.5205, 71.41659
484.0026, 68.35650
484.4847, 65.39583
484.9669, 62.66746
485.4490, 60.22118
485.9311, 58.03202
486.4132, 56.07561
486.8953, 54.33464
487.3774, 52.77674
487.8596, 51.37553
488.3417, 50.18901
488.8238, 48.97644
489.3059, 47.66851
489.7880, 46.40755
490.2701, 45.26652
490.7523, 44.23288
491.2344, 43.27778
491.7165, 42.39717
492.1986, 41.55747
492.6807, 40.65279
493.1628, 39.63838
493.6450, 38.68962
494.1271, 37.91960
494.6092, 37.17942
495.0913, 36.35039
495.5734, 35.43880
496.0555, 34.56125
496.5377, 33.80192
497.0198, 33.14358
497.5019, 32.55714
497.9840, 32.05259
498.4661, 31.56585
498.9482, 31.04629
499.4304, 30.52428
499.9125, 30.06483
500.3946, 29.69809
500.8767, 29.32425
501.3588, 28.83660
501.8409, 28.32087
502.3231, 27.95786
502.8052, 27.78764
503.2873, 27.62377
503.7694, 27.28251
504.2515, 26.75319
504.7336, 26.27498
505.2158, 25.83831
505.6979, 25.45674
506.1800, 25.11920
506.6621, 24.84400
507.1442, 24.70363
507.6263, 24.71483
508.1085, 24.73557
508.5906, 24.51625
509.0727, 23.93080
509.5548, 23.56092
510.0369, 23.63313
510.5190, 23.69579
511.0012, 23.50809
511.4833, 23.19418
511.9654, 23.02544
512.4475, 23.16242
512.9296, 23.42378
513.4117, 23.47005
513.8939, 23.27202
514.3760, 23.08532
514.8581, 22.97487
515.3402, 22.88197
515.8223, 22.72300
516.3044, 22.51938
516.7866, 22.41283
517.2687, 22.57073
517.7508, 22.79573
518.2329, 22.82670
518.7150, 22.67042
519.1971, 22.45587
519.6793, 22.20152
520.1614, 21.97491
520.6435, 21.97404
521.1256, 22.30603
521.6077, 22.50358
522.0898, 22.42025
522.5720, 22.21879
523.0541, 21.97300
523.5362, 21.73086
524.0183, 21.61414
524.5004, 21.72954
524.9825, 22.01831
525.4647, 22.17448
525.9468, 22.04294
526.4289, 21.99710
526.9110, 22.12482
527.3931, 22.30770
527.8752, 22.47351
528.3574, 22.59958
528.8395, 22.66805
529.3216, 22.64011
529.8037, 22.53724
530.2858, 22.48846
530.7679, 22.49674
531.2501, 22.55328
531.7322, 22.67806
532.2143, 22.83852
532.6964, 23.00830
533.1785, 23.18441
533.6606, 23.36261
534.1428, 23.53290
534.6249, 23.70511
535.1070, 23.90697
535.5891, 24.14369
536.0712, 24.39135
536.5533, 24.65136
537.0355, 24.90648
537.5176, 25.06002
537.9997, 25.14295
538.4818, 25.09868
538.9639, 24.90847
539.4460, 24.58358
539.9282, 24.11122
540.4103, 23.50234
540.8924, 22.82425
541.3745, 22.14421
541.8566, 21.46169
542.3387, 20.79244
542.8209, 20.07346
543.3029, 19.45392
543.7850, 19.01557
544.2672, 18.66828
544.7493, 18.29725
545.2314, 17.87524
545.7135, 17.50055
546.1956, 17.32410
546.6777, 17.32398
547.1599, 17.22653
547.6420, 16.94456
548.1241, 16.72016
548.6062, 16.73408
549.0883, 16.90017
549.5704, 17.11042
550.0526, 17.39591
550.5347, 17.61780
551.0168, 17.62890
551.4989, 17.52487
551.9810, 17.51517
552.4631, 17.64505
552.9453, 17.79903
553.4274, 17.84426
553.9095, 17.78085
554.3916, 17.93573
554.8737, 18.55575
555.3558, 19.06476
555.8380, 19.17912
556.3201, 19.15439
556.8022, 19.30102
557.2843, 19.70008
557.7664, 20.22590
558.2485, 20.73497
558.7307, 21.22012
559.2128, 21.81291
559.6949, 22.59378
560.1770, 23.36265
560.6591, 23.94959
561.1412, 24.53383
561.6234, 25.35566
562.1055, 26.48442
562.5876, 27.72946
563.0697, 28.96933
563.5518, 30.19437
564.0339, 31.42563
564.5161, 32.71812
564.9982, 33.78036
565.4803, 34.46076
565.9624, 34.70880
566.4445, 34.49375
566.9266, 33.74220
567.4088, 32.64164
567.8909, 31.13175
568.3730, 29.36744
568.8551, 27.45891
569.3372, 25.47150
569.8193, 23.51311
570.3015, 21.69440
570.7836, 20.01200
571.2657, 18.53225
571.7478, 17.24769
572.2299, 16.19285
572.7120, 15.42218
573.1942, 14.83599
573.6763, 14.37269
574.1584, 14.00579
574.6405, 13.68887
575.1226, 13.36655
575.6047, 13.05810
576.0869, 12.86423
576.5690, 12.81517
577.0511, 12.75341
577.5332, 12.58939
578.0153, 12.37862
578.4974, 12.20832
578.9796, 12.08180
579.4617, 11.98742
579.9438, 11.95503
580.4259, 11.93239
580.9080, 11.83384
581.3901, 11.67142
581.8723, 11.56573
582.3544, 11.60938
582.8365, 11.73393
583.3186, 11.70304
583.8007, 11.34839
584.2828, 11.09186
584.7650, 10.98372
585.2471, 10.93219
585.7292, 10.88681
586.2113, 10.84318
586.6934, 10.81431
587.1755, 10.80946
587.6577, 10.82228
588.1398, 10.85577
588.6219, 10.92346
589.1040, 10.90614
589.5861, 10.67901
590.0682, 10.46465
590.5504, 10.53501
591.0325, 10.83418
591.5146, 10.99261
591.9967, 10.78579
592.4788, 10.48877
592.9609, 10.28097
593.4431, 10.17405
593.9252, 10.22128
594.4073, 10.45280
594.8894, 10.73699
595.3715, 10.89637
595.8536, 10.92002
596.3358, 10.85960
596.8179, 10.63064
597.3000, 10.42432
597.7821, 10.30797
598.2642, 10.25574
598.7463, 10.23238
599.2285, 10.22444
