##NAMES=Berlinite
##RRUFFID=R130243
##IDEAL CHEMISTRY=AlPO_4_
##LOCALITY=Buranga pegmatite, Gatumba District, Western Province, Rwanda
##OWNER=RRUFF
##SOURCE=Rock Currier
##DESCRIPTION=Massive white to gray vitreous, associated with lazulite, muscovite and apatite.
##STATUS=The identification of this mineral has been confirmed by single-crystal X-ray diffraction.
##URL=rruff.info/R130243
103.2825, 100.3907
103.7646, 107.2464
104.2467, 114.9784
104.7288, 123.8381
105.2109, 134.4581
105.6931, 147.0202
106.1752, 160.9927
106.6573, 176.7391
107.1394, 198.4753
107.6215, 214.9527
108.1036, 226.8776
108.5858, 233.9883
109.0679, 233.7033
109.5500, 221.2129
110.0321, 205.1848
110.5142, 190.3418
110.9963, 174.1160
111.4785, 161.7704
111.9606, 154.1481
112.4427, 151.0956
112.9248, 150.8506
113.4069, 153.2765
113.8890, 158.1953
114.3712, 165.5125
114.8533, 175.0180
115.3354, 186.9652
115.8175, 201.3801
116.2996, 218.4512
116.7817, 237.7780
117.2639, 261.2997
117.7460, 286.6378
118.2281, 310.7704
118.7102, 339.0722
119.1923, 361.5116
119.6744, 371.9357
120.1566, 369.3853
120.6387, 356.6790
121.1208, 330.6552
121.6029, 295.6535
122.0850, 260.6123
122.5671, 227.5400
123.0493, 197.7388
123.5314, 172.7209
124.0135, 153.0994
124.4956, 137.2209
124.9777, 124.3411
125.4598, 114.1891
125.9420, 106.0314
126.4241, 99.78681
126.9062, 95.16438
127.3883, 91.69896
127.8704, 89.45390
128.3525, 88.11063
128.8347, 87.39455
129.3168, 87.28154
129.7989, 87.36678
130.2810, 87.36868
130.7631, 87.30575
131.2452, 87.26219
131.7274, 87.29691
132.2095, 87.34800
132.6916, 87.18838
133.1737, 86.78380
133.6558, 86.40682
134.1379, 86.38384
134.6201, 86.70914
135.1022, 86.96399
135.5843, 87.02258
136.0664, 86.90323
136.5485, 86.68096
137.0306, 86.28575
137.5128, 85.95423
137.9949, 86.04697
138.4770, 86.66917
138.9591, 87.19437
139.4412, 87.37414
139.9233, 87.17094
140.4055, 87.08504
140.8876, 87.08543
141.3697, 87.23474
141.8518, 87.58176
142.3339, 87.99586
142.8160, 88.89121
143.2982, 90.53329
143.7803, 93.21768
144.2624, 95.62320
144.7445, 97.48732
145.2266, 99.16020
145.7087, 101.4049
146.1909, 104.8225
146.6730, 108.0951
147.1551, 110.7209
147.6372, 112.2886
148.1193, 113.8597
148.6014, 115.4089
149.0836, 116.9573
149.5657, 118.6419
150.0478, 120.3277
150.5299, 122.2192
151.0120, 124.4238
151.4941, 126.9888
151.9763, 129.7767
152.4584, 132.7282
152.9405, 135.8799
153.4226, 139.4682
153.9047, 143.4529
154.3868, 147.9145
154.8690, 152.8962
155.3511, 158.1396
155.8332, 164.1777
156.3153, 170.8410
156.7974, 178.2133
157.2795, 186.9631
157.7617, 197.1695
158.2438, 208.8397
158.7259, 221.9796
159.2080, 237.0528
159.6901, 253.1601
160.1722, 270.0536
160.6544, 287.7379
161.1365, 306.3541
161.6186, 327.2419
162.1007, 348.4240
162.5828, 368.5859
163.0649, 392.6044
163.5471, 410.8401
164.0292, 420.5732
164.5113, 421.6769
164.9934, 410.4410
165.4755, 379.1056
165.9576, 335.7008
166.4398, 290.6709
166.9219, 241.9615
167.4040, 196.5914
167.8861, 159.7236
168.3682, 131.5132
168.8503, 109.3184
169.3325, 92.99844
169.8146, 81.35985
170.2967, 72.66723
170.7788, 67.22607
171.2609, 63.64132
171.7430, 60.81975
172.2252, 58.67271
172.7073, 57.24125
173.1894, 56.81767
173.6715, 57.15356
174.1536, 57.69208
174.6357, 58.06512
175.1179, 58.53422
175.6000, 59.44093
176.0821, 60.82965
176.5642, 62.51036
177.0463, 64.33327
177.5284, 66.31076
178.0106, 68.44678
178.4927, 70.84113
178.9748, 73.38479
179.4569, 75.82051
179.9390, 78.12321
180.4211, 80.41132
180.9033, 82.85925
181.3854, 85.46000
181.8675, 88.10429
182.3496, 90.65428
182.8317, 93.20436
183.3138, 96.16432
183.7960, 99.61034
184.2781, 103.2982
184.7602, 106.7460
185.2423, 110.0287
185.7244, 113.4950
186.2065, 117.4163
186.6887, 121.7274
187.1708, 126.2196
187.6529, 130.8164
188.1350, 135.6748
188.6171, 140.8940
189.0992, 146.5216
189.5814, 152.6388
190.0635, 159.2829
190.5456, 166.5363
191.0277, 174.2176
191.5098, 182.2409
191.9919, 190.8596
192.4741, 200.5249
192.9562, 211.2165
193.4383, 222.4620
193.9204, 234.0907
194.4025, 246.0589
194.8846, 257.7361
195.3668, 269.2690
195.8489, 280.2242
196.3310, 289.9679
196.8131, 298.6495
197.2952, 304.9438
197.7773, 307.4905
198.2595, 306.1840
198.7416, 303.9495
199.2237, 300.7028
199.7058, 297.1033
200.1879, 294.8424
200.6700, 293.8639
201.1522, 294.4084
201.6343, 296.6465
202.1164, 300.5975
202.5985, 306.1129
203.0806, 313.1706
203.5627, 321.7270
204.0449, 331.6613
204.5270, 343.0733
205.0091, 355.5304
205.4912, 368.6078
205.9733, 382.1565
206.4554, 397.3004
206.9376, 414.5452
207.4197, 433.3200
207.9018, 452.0343
208.3839, 470.4708
208.8660, 489.4904
209.3481, 509.6651
209.8303, 531.4279
210.3124, 552.9182
210.7945, 574.0806
211.2766, 594.7360
211.7587, 615.1150
212.2408, 635.6702
212.7230, 655.0994
213.2051, 672.8223
213.6872, 688.8619
214.1693, 703.1643
214.6514, 715.6580
215.1335, 726.3664
215.6157, 734.8027
216.0978, 740.7518
216.5799, 744.9099
217.0620, 747.5471
217.5441, 748.1550
218.0262, 748.6666
218.5084, 749.1842
218.9905, 749.7481
219.4726, 750.6215
219.9547, 752.1526
220.4368, 753.4436
220.9189, 753.9479
221.4011, 753.6458
221.8832, 752.7242
222.3653, 751.5046
222.8474, 749.7116
223.3295, 745.9988
223.8116, 740.4572
224.2938, 733.0298
224.7759, 723.5607
225.2580, 711.7454
225.7401, 698.7281
226.2222, 684.1763
226.7043, 668.4750
227.1865, 652.4944
227.6686, 636.4681
228.1507, 620.2775
228.6328, 603.9656
229.1149, 587.3157
229.5970, 571.1527
230.0792, 555.7357
230.5613, 540.8567
231.0434, 526.2400
231.5255, 512.1895
232.0076, 498.2440
232.4897, 484.4016
232.9719, 471.0013
233.4540, 456.9804
233.9361, 441.8796
234.4182, 426.0897
234.9003, 410.7345
235.3824, 395.8717
235.8646, 381.3524
236.3467, 367.0416
236.8288, 352.6365
237.3109, 339.0863
237.7930, 326.4512
238.2751, 314.6249
238.7573, 303.6877
239.2394, 293.7074
239.7215, 284.4923
240.2036, 275.8985
240.6857, 267.9944
241.1678, 260.5729
241.6500, 253.7557
242.1321, 247.4134
242.6142, 241.0979
243.0963, 234.8110
243.5784, 228.5940
244.0605, 222.5184
244.5427, 216.5299
245.0248, 210.7380
245.5069, 205.1638
245.9890, 199.7601
246.4711, 194.5582
246.9532, 189.7317
247.4354, 184.7459
247.9175, 179.4045
248.3996, 173.5130
248.8817, 167.8028
249.3638, 162.2646
249.8459, 156.9156
250.3281, 151.7939
250.8102, 146.9202
251.2923, 142.2243
251.7744, 137.6186
252.2565, 133.1159
252.7386, 128.8212
253.2208, 124.6849
253.7029, 120.7962
254.1850, 117.2575
254.6671, 114.2119
255.1492, 111.2175
255.6313, 108.1334
256.1135, 104.9298
256.5956, 101.8834
257.0777, 98.98515
257.5598, 96.28593
258.0419, 93.91950
258.5240, 92.09510
259.0062, 90.17252
259.4883, 87.87936
259.9704, 85.20904
260.4525, 82.89000
260.9346, 81.04403
261.4167, 79.43254
261.8989, 77.78720
262.3810, 76.08457
262.8631, 74.45418
263.3452, 72.95967
263.8273, 71.58275
264.3094, 70.19651
264.7916, 68.74264
265.2737, 67.34039
265.7558, 66.10857
266.2379, 65.11826
266.7200, 64.08847
267.2021, 62.92356
267.6843, 61.65168
268.1664, 60.48785
268.6485, 59.41549
269.1306, 58.48725
269.6127, 57.82696
270.0948, 57.53189
270.5770, 57.05819
271.0591, 56.25460
271.5412, 55.21228
272.0233, 54.36175
272.5054, 53.76426
272.9875, 53.22691
273.4697, 52.60867
273.9518, 51.88487
274.4339, 51.20465
274.9160, 50.58784
275.3981, 50.02691
275.8802, 49.46916
276.3624, 48.90398
276.8445, 48.41953
277.3266, 48.13076
277.8087, 48.06050
278.2908, 47.83103
278.7729, 47.36956
279.2551, 46.78365
279.7372, 46.30654
280.2193, 45.93740
280.7014, 45.67756
281.1835, 45.58795
281.6656, 45.66429
282.1478, 45.59126
282.6299, 45.32649
283.1120, 44.96851
283.5941, 44.66643
284.0762, 44.41982
284.5583, 44.21917
285.0405, 44.03975
285.5226, 43.89001
286.0047, 43.87019
286.4868, 44.00418
286.9689, 44.19008
287.4510, 44.29237
287.9332, 44.31421
288.4153, 44.32386
288.8974, 44.34808
289.3795, 44.38088
289.8616, 44.39785
290.3438, 44.39754
290.8259, 44.39053
291.3080, 44.34858
291.7901, 44.29151
292.2722, 44.34789
292.7543, 44.63928
293.2365, 45.03408
293.7186, 45.18064
294.2007, 45.07396
294.6828, 44.94764
295.1649, 44.91156
295.6470, 45.00776
296.1292, 45.41285
296.6113, 46.31441
297.0934, 47.38390
297.5755, 48.05008
298.0576, 48.35152
298.5397, 48.66626
299.0219, 49.28138
299.5040, 50.11890
299.9861, 50.98838
300.4682, 51.82085
300.9503, 52.73843
301.4324, 53.96505
301.9146, 55.43397
302.3967, 56.91735
302.8788, 58.26337
303.3609, 59.53053
303.8430, 60.80819
304.3251, 62.14214
304.8073, 63.35754
305.2894, 64.33803
305.7715, 65.08067
306.2536, 65.60636
306.7357, 66.08925
307.2178, 66.26540
307.7000, 65.80589
308.1821, 64.65527
308.6642, 63.15534
309.1463, 61.37711
309.6284, 59.44964
310.1105, 57.54729
310.5927, 55.72088
311.0748, 53.99124
311.5569, 52.22937
312.0390, 50.44600
312.5211, 49.10404
313.0032, 49.02066
313.4854, 49.29034
313.9675, 48.95179
314.4496, 47.16851
314.9317, 45.17652
315.4138, 43.39289
315.8959, 41.84339
316.3781, 40.61618
316.8602, 39.92084
317.3423, 39.47734
317.8244, 39.08183
318.3065, 38.61885
318.7886, 38.29987
319.2708, 38.34041
319.7529, 38.60067
320.2350, 38.68743
320.7171, 38.23216
321.1992, 37.76289
321.6813, 37.55559
322.1635, 37.75653
322.6456, 37.96400
323.1277, 38.07010
323.6098, 38.13967
324.0919, 38.28199
324.5740, 38.60321
325.0562, 38.91584
325.5383, 39.15392
326.0204, 39.29128
326.5025, 39.44919
326.9846, 39.53048
327.4667, 39.67894
327.9489, 40.05000
328.4310, 40.90130
328.9131, 41.68943
329.3952, 42.33502
329.8773, 42.83625
330.3594, 43.28070
330.8416, 43.47654
331.3237, 43.77279
331.8058, 44.42158
332.2879, 45.56831
332.7700, 46.83022
333.2521, 48.18896
333.7343, 49.64821
334.2164, 51.26316
334.6985, 53.15513
335.1806, 54.98492
335.6627, 56.64290
336.1448, 58.25883
336.6270, 59.26575
337.1091, 59.64738
337.5912, 59.40414
338.0733, 58.45322
338.5554, 56.68068
339.0375, 54.59547
339.5197, 52.24574
340.0018, 49.61255
340.4839, 47.45866
340.9660, 45.89032
341.4481, 44.65585
341.9302, 43.47090
342.4124, 42.31432
342.8945, 41.36700
343.3766, 40.71796
343.8587, 40.31604
344.3408, 39.89592
344.8229, 39.45143
345.3051, 39.04591
345.7872, 38.79126
346.2693, 38.65549
346.7514, 38.38306
347.2335, 37.84439
347.7156, 37.24709
348.1978, 37.06467
348.6799, 37.26818
349.1620, 37.49115
349.6441, 37.50394
350.1262, 37.35390
350.6083, 37.11995
351.0905, 36.77935
351.5726, 36.46893
352.0547, 36.36114
352.5368, 36.41682
353.0189, 36.51742
353.5010, 36.56849
353.9832, 36.64785
354.4653, 36.87183
354.9474, 37.25116
355.4295, 37.66076
355.9116, 37.88339
356.3937, 38.09934
356.8759, 38.57409
357.3580, 39.54163
357.8401, 40.68916
358.3222, 41.84603
358.8043, 43.01790
359.2864, 44.17491
359.7686, 45.17443
360.2507, 46.22630
360.7328, 47.48719
361.2149, 48.97262
361.6970, 50.71875
362.1791, 52.77922
362.6613, 55.11174
363.1434, 57.61941
363.6255, 60.43181
364.1076, 63.28289
364.5897, 66.02891
365.0718, 68.50883
365.5540, 71.19984
366.0361, 74.12758
366.5182, 77.32567
367.0003, 80.83461
367.4824, 84.34319
367.9645, 88.48759
368.4467, 93.42620
368.9288, 99.08875
369.4109, 105.4619
369.8930, 112.4124
370.3751, 120.1788
370.8572, 128.9189
371.3394, 138.1858
371.8215, 149.0413
372.3036, 161.8913
372.7857, 176.3885
373.2678, 191.9730
373.7499, 210.9022
374.2321, 227.1731
374.7142, 237.8142
375.1963, 242.3003
375.6784, 242.9238
376.1605, 237.6875
376.6426, 231.1318
377.1248, 230.1477
377.6069, 234.9997
378.0890, 243.8664
378.5711, 258.3530
379.0532, 277.0352
379.5353, 290.0916
380.0175, 298.3892
380.4996, 297.1817
380.9817, 278.4700
381.4638, 244.2356
381.9459, 209.2370
382.4280, 175.3707
382.9102, 144.2250
383.3923, 119.9602
383.8744, 102.1217
384.3565, 88.16709
384.8386, 77.38116
385.3207, 69.18040
385.8029, 63.01729
386.2850, 58.94023
386.7671, 56.00089
387.2492, 53.44521
387.7313, 51.25769
388.2134, 49.45708
388.6956, 48.18419
389.1777, 47.23513
389.6598, 46.44544
390.1419, 45.81634
390.6240, 45.34536
391.1061, 45.04112
391.5883, 44.88599
392.0704, 44.86385
392.5525, 45.01336
393.0346, 45.23611
393.5167, 45.51625
393.9988, 45.84003
394.4810, 46.17111
394.9631, 46.33386
395.4452, 46.62749
395.9273, 47.23181
396.4094, 48.25397
396.8915, 49.30927
397.3737, 50.30047
397.8558, 51.29588
398.3379, 52.37958
398.8200, 53.31096
399.3021, 54.59688
399.7842, 56.38215
400.2664, 58.66339
400.7485, 61.11537
401.2306, 63.78455
401.7127, 66.54643
402.1948, 69.31432
402.6769, 72.05771
403.1591, 74.85630
403.6412, 77.65894
404.1233, 80.53649
404.6054, 83.78905
405.0875, 87.48210
405.5696, 91.25668
406.0518, 94.89034
406.5339, 98.36783
407.0160, 102.2697
407.4981, 106.5677
407.9802, 111.2615
408.4623, 116.1889
408.9445, 121.3879
409.4266, 127.4553
409.9087, 134.5056
410.3908, 142.5338
410.8729, 151.5273
411.3550, 161.5264
411.8372, 172.2794
412.3193, 183.5922
412.8014, 195.6332
413.2835, 208.8532
413.7656, 223.4035
414.2477, 239.1227
414.7299, 256.2606
415.2120, 274.4265
415.6941, 292.1933
416.1762, 310.2408
416.6583, 326.9403
417.1404, 341.8347
417.6226, 354.8791
418.1047, 363.0907
418.5868, 365.0839
419.0689, 361.3608
419.5510, 352.2301
420.0331, 335.7242
420.5153, 316.5737
420.9974, 294.7733
421.4795, 271.6250
421.9616, 251.3149
422.4437, 234.5843
422.9258, 220.9269
423.4080, 210.3907
423.8901, 203.2919
424.3722, 197.7407
424.8543, 193.9594
425.3364, 191.4975
425.8185, 189.9248
426.3007, 188.9883
426.7828, 189.3065
427.2649, 191.1177
427.7470, 194.2897
428.2291, 197.9742
428.7112, 201.7186
429.1934, 206.7261
429.6755, 213.7122
430.1576, 222.6893
430.6397, 233.2121
431.1218, 244.7778
431.6039, 258.5995
432.0861, 276.6149
432.5682, 298.8692
433.0503, 325.2083
433.5324, 355.6844
434.0145, 390.3466
434.4966, 429.2392
434.9788, 472.3497
435.4609, 519.9160
435.9430, 572.1141
436.4251, 629.5140
436.9072, 693.7806
437.3893, 766.8813
437.8715, 843.7637
438.3536, 932.9606
438.8357, 1023.387
439.3178, 1084.098
439.7999, 1106.473
440.2820, 1087.169
440.7642, 1010.679
441.2463, 875.5521
441.7284, 735.2134
442.2105, 601.3680
442.6926, 483.4051
443.1747, 390.5465
443.6569, 332.4865
444.1390, 291.0238
444.6211, 265.1664
445.1032, 252.3554
445.5853, 246.0464
446.0674, 247.5719
446.5496, 252.9568
447.0317, 261.1119
447.5138, 272.6133
447.9959, 285.0203
448.4780, 298.1956
448.9601, 312.4488
449.4423, 328.2700
449.9244, 345.3697
450.4065, 364.2980
450.8886, 385.1781
451.3707, 407.8696
451.8528, 432.3556
452.3350, 458.4753
452.8171, 487.4181
453.2992, 519.7605
453.7813, 555.6451
454.2634, 596.5035
454.7455, 642.3795
455.2277, 694.2816
455.7098, 753.9516
456.1919, 820.9883
456.6740, 897.0422
457.1561, 981.3396
457.6382, 1074.305
458.1204, 1175.092
458.6025, 1284.206
459.0846, 1398.391
459.5667, 1521.401
460.0488, 1647.271
460.5309, 1773.303
461.0131, 1902.638
461.4952, 2013.626
461.9773, 2102.322
462.4594, 2159.015
462.9415, 2170.199
463.4236, 2122.105
463.9058, 2035.018
464.3879, 1903.458
464.8700, 1733.461
465.3521, 1563.940
465.8342, 1390.950
466.3163, 1229.196
466.7985, 1086.358
467.2806, 966.1483
467.7627, 860.2219
468.2448, 771.4864
468.7269, 696.4667
469.2090, 629.4407
469.6912, 570.5128
470.1733, 518.2523
470.6554, 472.7531
471.1375, 433.7912
471.6196, 399.3400
472.1017, 369.4710
472.5839, 343.8242
473.0660, 321.9702
473.5481, 304.0306
474.0302, 288.5062
474.5123, 275.4127
474.9944, 264.3601
475.4766, 254.8033
475.9587, 246.7742
476.4408, 240.4886
476.9229, 236.6518
477.4050, 234.3042
477.8871, 232.1177
478.3693, 230.0845
478.8514, 228.1179
479.3335, 226.6538
479.8156, 225.0012
480.2977, 222.5422
480.7798, 219.4285
481.2620, 214.6495
481.7441, 206.7210
482.2262, 196.9483
482.7083, 187.2588
483.1904, 178.1672
483.6725, 169.3366
484.1547, 160.4690
484.6368, 151.6682
485.1189, 143.8461
485.6010, 137.4751
486.0831, 131.8470
486.5652, 126.6473
487.0474, 121.8324
487.5295, 117.4862
488.0116, 113.8221
488.4937, 110.5188
488.9758, 107.0451
489.4579, 103.2252
489.9401, 99.74471
490.4222, 96.73009
490.9043, 94.17558
491.3864, 92.01280
491.8685, 90.28064
492.3506, 88.61830
492.8328, 86.74634
493.3149, 84.72995
493.7970, 82.82629
494.2791, 81.05481
494.7612, 79.37198
495.2433, 77.68178
495.7255, 76.02061
496.2076, 74.46407
496.6897, 73.08486
497.1718, 71.77833
497.6539, 70.48472
498.1360, 69.20548
498.6182, 67.91404
499.1003, 66.42645
499.5824, 65.04707
500.0645, 64.09730
500.5466, 63.71354
501.0287, 63.20903
501.5109, 62.27048
501.9930, 61.16271
502.4751, 60.16139
502.9572, 59.34967
503.4393, 58.58931
503.9214, 57.88789
504.4036, 57.23494
504.8857, 56.56093
505.3678, 55.78781
505.8499, 55.11738
506.3320, 54.64158
506.8141, 54.37065
507.2963, 54.13750
507.7784, 53.92199
508.2605, 53.79296
508.7426, 53.96883
509.2247, 54.40558
509.7068, 54.37231
510.1890, 53.61047
510.6711, 52.55350
511.1532, 51.87851
511.6353, 51.54676
512.1174, 51.38430
512.5995, 51.37870
513.0817, 51.44605
513.5638, 51.51643
514.0459, 51.58353
514.5280, 51.58019
515.0101, 51.36306
515.4922, 51.10741
515.9744, 50.98367
516.4565, 51.07195
516.9386, 51.20441
517.4207, 51.39633
517.9028, 51.58485
518.3849, 51.66658
518.8671, 51.52855
519.3492, 51.38403
519.8313, 51.25118
520.3134, 51.13620
520.7955, 51.13721
521.2776, 51.35799
521.7598, 51.54053
522.2419, 51.47934
522.7240, 51.07366
523.2061, 50.99709
523.6882, 51.34908
524.1703, 51.84011
524.6525, 52.02853
525.1346, 51.94328
525.6167, 52.05582
526.0988, 52.57169
526.5809, 53.26390
527.0630, 53.71992
527.5452, 53.96887
528.0273, 54.18740
528.5094, 54.44573
528.9915, 54.75151
529.4736, 55.11304
529.9557, 55.53226
530.4379, 56.01597
530.9200, 56.59705
531.4021, 57.23590
531.8842, 57.89541
532.3663, 58.55492
532.8484, 59.24794
533.3306, 59.93992
533.8127, 60.67187
534.2948, 61.51382
534.7769, 62.50047
535.2590, 63.57653
535.7411, 64.72860
536.2233, 65.95226
536.7054, 67.34830
537.1875, 69.11354
537.6696, 70.65025
538.1517, 71.56810
538.6339, 71.83402
539.1160, 71.89418
539.5981, 71.83766
540.0802, 71.38259
540.5623, 70.01978
541.0444, 67.85924
541.5266, 65.49132
542.0087, 63.05622
542.4908, 60.55757
542.9729, 57.92556
543.4550, 55.24754
543.9371, 52.78599
544.4193, 50.59676
544.9014, 48.72643
545.3835, 47.24356
545.8656, 46.16227
546.3477, 45.28478
546.8298, 44.56727
547.3120, 43.98620
547.7941, 43.52611
548.2762, 43.16996
548.7583, 42.94821
549.2404, 42.85379
549.7225, 42.89521
550.2047, 43.10539
550.6868, 43.56733
551.1689, 44.03271
551.6510, 44.39571
552.1331, 44.70058
552.6152, 45.24585
553.0974, 46.05701
553.5795, 46.98402
554.0616, 47.94960
554.5437, 48.95266
555.0258, 50.00134
555.5079, 51.11037
555.9901, 52.19657
556.4722, 52.98197
556.9543, 53.71083
557.4364, 54.90980
557.9185, 56.85789
558.4006, 59.12181
558.8828, 61.34994
559.3649, 63.63637
559.8470, 66.24902
560.3291, 69.37370
560.8112, 72.77126
561.2933, 76.31608
561.7755, 80.00069
562.2576, 84.10351
562.7397, 88.86265
563.2218, 93.84127
563.7039, 98.87830
564.1860, 104.0488
564.6682, 109.2495
565.1503, 115.0151
565.6324, 120.2134
566.1145, 123.5948
566.5966, 125.2561
567.0787, 124.3608
567.5609, 120.4932
568.0430, 114.2942
568.5251, 106.7221
569.0072, 97.85748
569.4893, 88.90389
569.9714, 79.82646
570.4536, 71.26393
570.9357, 64.14134
571.4178, 58.46376
571.8999, 53.60495
572.3820, 49.35548
572.8641, 45.69481
573.3463, 42.69267
573.8284, 40.39718
574.3105, 38.56147
574.7926, 37.36364
575.2747, 36.49061
575.7568, 35.55317
576.2390, 34.32928
576.7211, 33.27732
577.2032, 32.48566
577.6853, 31.89599
578.1674, 31.33958
578.6495, 30.81658
579.1317, 30.32645
579.6138, 29.86166
580.0959, 29.42698
580.5780, 29.05585
581.0601, 28.74378
581.5422, 28.51253
582.0244, 28.45855
582.5065, 28.49241
582.9886, 28.37384
583.4707, 28.04814
583.9528, 27.68682
584.4349, 27.37221
584.9171, 27.13861
585.3992, 27.03976
585.8813, 27.29284
586.3634, 27.46874
586.8455, 27.32494
587.3276, 26.96226
587.8098, 26.65982
588.2919, 26.46406
588.7740, 26.34526
589.2561, 26.32865
589.7382, 26.41743
590.2203, 26.40137
590.7025, 26.24145
591.1846, 26.04730
591.6667, 25.87818
592.1488, 25.73236
592.6309, 25.64951
593.1130, 25.64903
593.5952, 25.64332
594.0773, 25.45581
594.5594, 25.15642
595.0415, 25.04663
595.5236, 25.29128
596.0057, 25.58180
596.4879, 25.54528
596.9700, 25.28565
597.4521, 25.04568
597.9342, 24.93499
598.4163, 24.87680
598.8984, 24.86253
599.3806, 24.87985
599.8627, 24.83508
600.3448, 24.62885
