##NAMES=Bertossaite
##RRUFFID=R060666
##IDEAL CHEMISTRY=Li_2_CaAl_4_(PO_4_)_4_(OH)_4_
##LOCALITY=Buranga, Rwanda
##OWNER=RRUFF
##SOURCE=Michael Scott
##DESCRIPTION=Pale pink massive
##STATUS=The identification of this mineral is confirmed by single-crystal X-ray diffraction and chemical analysis.
##URL=rruff.info/R060666
##MEASURED CHEMISTRY=(Li_1.86_Na_0.14_)_Σ=2_(Ca_0.90_Mn_0.06_Mg_0.04_)_Σ=1_(Al_3.90_Fe^3+^_0.10_)_Σ=4_(P_1.00_O_4_)_4_((OH)_3.06_F_0.94_)_Σ=4_; H_2_O assumed by stoichiometry; Li estimated by difference; OH estimated by charge balance
125.867, 1761.065
126.349, 1887.312
126.831, 1996.106
127.313, 2107.040
127.795, 2227.147
128.277, 2358.479
128.759, 2499.564
129.241, 2651.785
129.723, 2820.768
130.206, 2985.479
130.688, 3165.754
131.170, 3328.679
131.652, 3462.307
132.134, 3561.070
132.616, 3611.666
133.098, 3585.801
133.580, 3435.007
134.062, 3294.988
134.545, 3168.117
135.027, 3054.900
135.509, 2956.812
135.991, 2874.021
136.473, 2805.521
136.955, 2747.806
137.437, 2693.269
137.919, 2663.903
138.402, 2662.434
138.884, 2683.849
139.366, 2724.020
139.848, 2781.350
140.330, 2854.523
140.812, 2941.702
141.294, 3045.895
141.776, 3161.982
142.258, 3289.228
142.741, 3428.636
143.223, 3585.745
143.705, 3765.403
144.187, 3958.537
144.669, 4130.267
145.151, 4268.383
145.633, 4399.467
146.115, 4533.087
146.598, 4662.757
147.080, 4780.530
147.562, 4883.292
148.044, 4968.375
148.526, 5012.729
149.008, 4997.355
149.490, 4971.677
149.972, 4954.718
150.454, 4939.475
150.936, 4906.868
151.419, 4843.542
151.901, 4752.973
152.383, 4670.283
152.865, 4590.618
153.347, 4521.188
153.829, 4469.050
154.311, 4430.766
154.794, 4394.548
155.276, 4351.325
155.758, 4303.845
156.240, 4271.681
156.722, 4260.813
157.204, 4258.198
157.686, 4254.392
158.168, 4250.982
158.650, 4258.393
159.133, 4284.291
159.615, 4329.319
160.097, 4380.505
160.579, 4439.801
161.061, 4503.099
161.543, 4568.136
162.025, 4634.725
162.507, 4702.622
162.990, 4771.601
163.472, 4841.987
163.954, 4913.524
164.436, 4983.010
164.918, 5055.927
165.400, 5143.978
165.882, 5247.018
166.364, 5339.427
166.846, 5402.816
167.329, 5438.229
167.811, 5459.336
168.293, 5478.322
168.775, 5476.846
169.257, 5427.452
169.739, 5326.898
170.221, 5220.521
170.703, 5147.171
171.185, 5095.786
171.668, 5025.550
172.150, 4914.060
172.632, 4789.610
173.114, 4682.651
173.596, 4594.847
174.078, 4516.402
174.560, 4444.975
175.042, 4377.959
175.525, 4308.530
176.007, 4227.382
176.489, 4146.470
176.971, 4083.908
177.453, 4042.585
177.935, 4004.802
178.417, 3949.565
178.899, 3887.011
179.381, 3845.054
179.863, 3846.154
180.346, 3865.427
180.828, 3866.433
181.310, 3844.019
181.792, 3822.185
182.274, 3822.102
182.756, 3835.539
183.238, 3847.518
183.721, 3855.328
184.203, 3858.613
184.685, 3853.786
185.167, 3837.562
185.649, 3825.657
186.131, 3835.644
186.613, 3857.722
187.095, 3874.685
187.577, 3877.894
188.059, 3874.062
188.542, 3850.253
189.024, 3842.094
189.506, 3860.097
189.988, 3871.749
190.470, 3877.391
190.952, 3859.026
191.434, 3871.662
191.917, 3871.875
192.399, 3871.578
192.881, 3888.577
193.363, 3885.234
193.845, 3871.996
194.327, 3866.074
194.809, 3856.673
195.291, 3835.318
195.773, 3811.175
196.255, 3801.793
196.738, 3811.843
197.220, 3818.316
197.702, 3797.790
198.184, 3765.874
198.666, 3743.232
199.148, 3710.943
199.630, 3707.810
200.112, 3700.057
200.595, 3722.188
201.077, 3737.064
201.559, 3745.076
202.041, 3725.664
202.523, 3741.664
203.005, 3743.473
203.487, 3744.701
203.969, 3765.685
204.452, 3750.263
204.934, 3770.933
205.416, 3777.196
205.898, 3790.053
206.380, 3788.632
206.862, 3791.621
207.344, 3796.807
207.826, 3806.876
208.308, 3862.746
208.790, 3907.318
209.273, 3901.004
209.755, 3870.023
210.237, 3845.994
210.719, 3833.231
211.201, 3832.001
211.683, 3850.986
212.165, 3892.614
212.648, 3919.802
213.130, 3899.034
213.612, 3861.974
214.094, 3851.092
214.576, 3881.131
215.058, 3921.548
215.540, 3942.372
216.022, 3943.411
216.504, 3947.657
216.986, 3968.463
217.469, 3994.791
217.951, 4011.850
218.433, 4015.813
218.915, 4017.003
219.397, 4021.194
219.879, 4028.697
220.361, 4043.556
220.844, 4067.946
221.326, 4100.854
221.808, 4139.960
222.290, 4186.443
222.772, 4235.491
223.254, 4285.232
223.736, 4335.245
224.218, 4381.009
224.700, 4414.720
225.182, 4450.711
225.665, 4507.970
226.147, 4589.833
226.629, 4673.694
227.111, 4743.108
227.593, 4803.532
228.075, 4873.063
228.557, 4955.195
229.040, 5049.815
229.522, 5156.349
230.004, 5274.229
230.486, 5398.699
230.968, 5524.121
231.450, 5654.380
231.932, 5799.077
232.414, 5961.436
232.896, 6135.492
233.378, 6315.547
233.861, 6500.647
234.343, 6696.413
234.825, 6908.299
235.307, 7132.012
235.789, 7362.951
236.271, 7604.783
236.753, 7842.048
237.235, 8059.070
237.718, 8258.203
238.200, 8436.233
238.682, 8607.597
239.164, 8751.765
239.646, 8838.787
240.128, 8864.333
240.610, 8864.593
241.092, 8884.408
241.574, 8916.119
242.057, 8864.068
242.539, 8674.125
243.021, 8429.599
243.503, 8191.896
243.985, 7965.312
244.467, 7736.682
244.949, 7494.392
245.431, 7241.069
245.913, 7004.485
246.396, 6781.283
246.878, 6576.554
247.360, 6394.163
247.842, 6233.730
248.324, 6098.149
248.806, 5991.493
249.288, 5910.546
249.770, 5832.274
250.253, 5751.073
250.735, 5677.527
251.217, 5616.930
251.699, 5566.862
252.181, 5519.950
252.663, 5470.689
253.145, 5425.651
253.627, 5409.635
254.109, 5446.774
254.592, 5479.400
255.074, 5489.350
255.556, 5490.439
256.038, 5504.411
256.520, 5540.200
257.002, 5586.739
257.484, 5620.918
257.966, 5634.821
258.449, 5646.388
258.931, 5654.950
259.413, 5662.009
259.895, 5667.725
260.377, 5672.524
260.859, 5679.172
261.341, 5691.688
261.823, 5711.113
262.306, 5735.447
262.788, 5774.338
263.270, 5810.852
263.752, 5833.595
264.234, 5841.301
264.716, 5838.748
265.198, 5829.248
265.680, 5808.943
266.162, 5800.335
266.645, 5814.915
267.127, 5828.978
267.609, 5835.866
268.091, 5833.502
268.573, 5819.070
269.055, 5787.669
269.537, 5739.525
270.019, 5705.035
270.501, 5690.178
270.984, 5684.648
271.466, 5695.870
271.948, 5713.883
272.430, 5721.965
272.912, 5708.985
273.394, 5680.631
273.876, 5658.531
274.358, 5638.375
274.841, 5633.076
275.323, 5645.344
275.805, 5671.672
276.287, 5709.471
276.769, 5757.894
277.251, 5814.785
277.733, 5875.689
278.215, 5938.806
278.698, 6010.955
279.180, 6098.851
279.662, 6192.885
280.144, 6286.366
280.626, 6377.956
281.108, 6470.546
281.590, 6568.604
282.072, 6672.944
282.554, 6775.645
283.036, 6869.103
283.519, 6966.602
284.001, 7082.545
284.483, 7215.200
284.965, 7342.544
285.447, 7458.988
285.929, 7559.936
286.411, 7621.563
286.893, 7630.441
287.376, 7618.626
287.858, 7612.133
288.340, 7606.951
288.822, 7587.640
289.304, 7548.519
289.786, 7491.806
290.268, 7420.082
290.750, 7333.786
291.233, 7231.856
291.715, 7105.056
292.197, 6962.097
292.679, 6824.768
293.161, 6701.751
293.643, 6581.764
294.125, 6458.492
294.607, 6331.464
295.089, 6195.536
295.572, 6042.515
296.054, 5882.363
296.536, 5742.727
297.018, 5623.673
297.500, 5520.861
297.982, 5439.508
298.464, 5373.348
298.946, 5309.939
299.428, 5245.256
299.911, 5181.677
300.393, 5122.833
300.875, 5069.974
301.357, 5019.180
301.839, 4971.841
302.321, 4925.524
302.803, 4875.197
303.285, 4820.616
303.767, 4770.011
304.250, 4731.792
304.732, 4707.134
305.214, 4692.708
305.696, 4699.158
306.178, 4704.837
306.660, 4695.951
307.142, 4675.605
307.625, 4655.370
308.107, 4643.331
308.589, 4639.433
309.071, 4642.845
309.553, 4656.120
310.035, 4674.577
310.517, 4701.522
310.999, 4732.042
311.481, 4758.840
311.964, 4778.051
312.446, 4794.089
312.928, 4817.025
313.410, 4844.190
313.892, 4884.647
314.374, 4947.344
314.856, 5016.819
315.338, 5078.381
315.820, 5129.611
316.303, 5184.348
316.785, 5259.590
317.267, 5356.923
317.749, 5460.944
318.231, 5566.042
318.713, 5683.227
319.195, 5818.751
319.677, 5971.460
320.159, 6138.218
320.642, 6310.399
321.124, 6494.229
321.606, 6708.956
322.088, 6960.741
322.570, 7234.552
323.052, 7525.765
323.534, 7832.646
324.016, 8156.001
324.499, 8499.364
324.981, 8858.097
325.463, 9229.300
325.945, 9612.503
326.427, 9996.242
326.909, 10370.100
327.391, 10745.110
327.873, 11152.640
328.355, 11645.650
328.838, 12060.400
329.320, 12299.880
329.802, 12412.030
330.284, 12498.210
330.766, 12590.490
331.248, 12648.610
331.730, 12613.750
332.212, 12472.670
332.694, 12277.390
333.177, 12015.900
333.659, 11711.870
334.141, 11369.270
334.623, 10996.160
335.105, 10619.510
335.587, 10257.670
336.069, 9912.553
336.552, 9573.116
337.034, 9236.666
337.516, 8908.723
337.998, 8582.102
338.480, 8264.559
338.962, 7966.048
339.444, 7691.709
339.926, 7439.587
340.408, 7206.247
340.891, 6986.350
341.373, 6794.150
341.855, 6665.374
342.337, 6539.770
342.819, 6354.579
343.301, 6100.650
343.783, 5841.135
344.265, 5650.344
344.747, 5534.573
345.230, 5431.020
345.712, 5344.999
346.194, 5261.930
346.676, 5176.219
347.158, 5087.342
347.640, 4996.040
348.122, 4896.424
348.604, 4795.576
349.086, 4711.840
349.569, 4647.099
350.051, 4591.830
350.533, 4544.083
351.015, 4501.877
351.497, 4462.930
351.979, 4426.582
352.461, 4394.254
352.944, 4367.760
353.426, 4346.563
353.908, 4328.663
354.390, 4314.809
354.872, 4301.972
355.354, 4282.971
355.836, 4255.005
356.318, 4234.947
356.800, 4228.160
357.283, 4230.529
357.765, 4238.390
358.247, 4251.035
358.729, 4268.990
359.211, 4295.553
359.693, 4332.655
360.175, 4348.924
360.657, 4323.600
361.139, 4302.404
361.622, 4307.029
362.104, 4328.815
362.586, 4349.083
363.068, 4357.800
363.550, 4358.976
364.032, 4364.609
364.514, 4377.584
364.996, 4390.671
365.478, 4409.914
365.961, 4424.798
366.443, 4424.278
366.925, 4407.562
367.407, 4386.277
367.889, 4373.656
368.371, 4370.290
368.853, 4365.024
369.335, 4361.168
369.818, 4350.302
370.300, 4327.509
370.782, 4295.048
371.264, 4258.123
371.746, 4214.255
372.228, 4170.963
372.710, 4143.860
373.192, 4135.465
373.674, 4123.264
374.157, 4096.962
374.639, 4060.391
375.121, 4019.753
375.603, 3971.939
376.085, 3928.695
376.567, 3900.182
377.049, 3879.922
377.531, 3854.464
378.013, 3820.352
378.496, 3781.496
378.978, 3740.427
379.460, 3695.211
379.942, 3661.508
380.424, 3650.167
380.906, 3641.423
381.388, 3620.594
381.871, 3590.604
382.353, 3564.193
382.835, 3550.427
383.317, 3546.168
383.799, 3535.006
384.281, 3503.926
384.763, 3482.201
385.245, 3481.210
385.727, 3486.153
386.210, 3479.787
386.692, 3458.525
387.174, 3436.668
387.656, 3435.027
388.138, 3457.586
388.620, 3474.671
389.102, 3487.941
389.584, 3491.938
390.066, 3474.837
390.549, 3445.775
391.031, 3429.549
391.513, 3444.875
391.995, 3477.347
392.477, 3501.502
392.959, 3517.115
393.441, 3524.439
393.923, 3515.624
394.405, 3502.666
394.888, 3505.856
395.370, 3530.823
395.852, 3557.817
396.334, 3577.007
396.816, 3591.118
397.298, 3603.975
397.780, 3616.069
398.263, 3631.317
398.745, 3655.723
399.227, 3691.854
399.709, 3718.826
400.191, 3723.955
400.673, 3732.259
401.155, 3764.043
401.637, 3809.755
402.119, 3844.918
402.602, 3855.060
403.084, 3848.297
403.566, 3849.702
404.048, 3863.061
404.530, 3879.214
405.012, 3898.255
405.494, 3919.041
405.976, 3944.286
406.458, 3972.659
406.941, 3994.638
407.423, 3995.859
407.905, 3977.735
408.387, 3974.171
408.869, 3996.302
409.351, 4014.747
409.833, 4007.164
410.315, 3987.245
410.797, 3979.555
411.280, 3997.435
411.762, 4021.310
412.244, 4025.195
412.726, 4013.471
413.208, 4021.359
413.690, 4068.027
414.172, 4127.267
414.654, 4152.320
415.137, 4137.081
415.619, 4136.430
416.101, 4170.133
416.583, 4216.504
417.065, 4258.725
417.547, 4294.751
418.029, 4325.443
418.511, 4349.645
418.993, 4369.473
419.476, 4404.442
419.958, 4466.533
420.440, 4530.421
420.922, 4602.264
421.404, 4669.730
421.886, 4712.433
422.368, 4727.368
422.850, 4742.384
423.332, 4797.541
423.815, 4898.198
424.297, 4993.330
424.779, 5080.752
425.261, 5162.600
425.743, 5235.426
426.225, 5304.028
426.707, 5379.051
427.190, 5466.466
427.672, 5561.131
428.154, 5652.567
428.636, 5741.397
429.118, 5841.370
429.600, 5962.803
430.082, 6092.392
430.564, 6206.466
431.046, 6300.456
431.529, 6402.794
432.011, 6531.070
432.493, 6665.787
432.975, 6783.160
433.457, 6882.145
433.939, 6981.550
434.421, 7097.889
434.903, 7228.530
435.385, 7339.753
435.868, 7423.133
436.350, 7495.974
436.832, 7564.995
437.314, 7622.726
437.796, 7657.671
438.278, 7667.383
438.760, 7667.419
439.242, 7683.771
439.724, 7721.255
440.207, 7726.159
440.689, 7688.167
441.171, 7624.750
441.653, 7538.184
442.135, 7435.738
442.617, 7334.050
443.099, 7238.522
443.581, 7146.736
444.064, 7058.017
444.546, 6971.583
445.028, 6878.673
445.510, 6774.088
445.992, 6665.705
446.474, 6567.126
446.956, 6477.723
447.438, 6395.661
447.921, 6320.664
448.403, 6252.377
448.885, 6191.765
449.367, 6138.295
449.849, 6091.759
450.331, 6052.563
450.813, 6019.026
451.295, 5981.193
451.777, 5930.962
452.259, 5888.229
452.742, 5851.592
453.224, 5825.111
453.706, 5813.058
454.188, 5815.714
454.670, 5827.858
455.152, 5852.918
455.634, 5887.426
456.116, 5894.286
456.599, 5858.500
457.081, 5825.735
457.563, 5825.794
458.045, 5844.329
458.527, 5861.273
459.009, 5873.685
459.491, 5882.485
459.973, 5889.070
460.456, 5892.395
460.938, 5893.764
461.420, 5894.874
461.902, 5880.786
462.384, 5831.008
462.866, 5738.239
463.348, 5655.961
463.830, 5591.414
464.312, 5529.519
464.795, 5472.056
465.277, 5411.245
465.759, 5332.088
466.241, 5227.073
466.723, 5109.821
467.205, 5007.093
467.687, 4924.608
468.169, 4836.430
468.651, 4727.632
469.134, 4624.320
469.616, 4543.502
470.098, 4480.666
470.580, 4416.250
471.062, 4336.192
471.544, 4252.205
472.026, 4179.832
472.508, 4119.001
472.991, 4069.186
473.473, 4034.238
473.955, 4005.877
474.437, 3968.597
474.919, 3920.519
475.401, 3873.238
475.883, 3829.320
476.365, 3786.531
476.848, 3737.400
477.330, 3685.770
477.812, 3647.974
478.294, 3636.737
478.776, 3645.708
479.258, 3646.220
479.740, 3636.495
480.222, 3620.547
480.704, 3593.551
481.186, 3565.237
481.669, 3542.021
482.151, 3525.096
482.633, 3513.611
483.115, 3505.800
483.597, 3502.888
484.079, 3511.778
484.561, 3535.668
485.043, 3556.301
485.526, 3563.738
486.008, 3561.358
486.490, 3556.802
486.972, 3546.317
487.454, 3542.289
487.936, 3557.924
488.418, 3578.682
488.900, 3581.548
489.383, 3565.266
489.865, 3551.981
490.347, 3561.967
490.829, 3593.843
491.311, 3619.431
491.793, 3642.259
492.275, 3653.414
492.757, 3643.039
493.239, 3625.221
493.722, 3612.933
494.204, 3609.452
494.686, 3612.202
495.168, 3620.341
495.650, 3633.131
496.132, 3646.109
496.614, 3660.255
497.096, 3671.333
497.578, 3675.364
498.061, 3674.694
498.543, 3673.521
499.025, 3668.903
499.507, 3669.717
499.989, 3685.819
500.471, 3708.237
500.953, 3721.207
501.435, 3722.033
501.918, 3721.334
502.400, 3728.968
502.882, 3744.946
503.364, 3765.998
503.846, 3799.022
504.328, 3829.223
504.810, 3852.982
505.292, 3872.803
505.775, 3889.360
506.257, 3903.386
506.739, 3921.143
507.221, 3950.285
507.703, 3989.647
508.185, 4032.545
508.667, 4081.767
509.149, 4126.487
509.631, 4159.379
510.114, 4182.809
510.596, 4188.698
511.078, 4204.533
511.560, 4217.954
512.042, 4229.089
512.524, 4231.097
513.006, 4244.892
513.488, 4253.962
513.971, 4262.843
514.453, 4278.295
514.935, 4281.631
515.417, 4296.981
515.899, 4307.535
516.381, 4316.976
516.863, 4323.760
517.345, 4331.885
517.827, 4334.600
518.310, 4330.359
518.792, 4322.520
519.274, 4314.405
519.756, 4305.407
520.238, 4292.693
520.720, 4275.904
521.202, 4256.189
521.684, 4232.244
522.166, 4206.389
522.649, 4182.655
523.131, 4142.286
523.613, 4113.770
524.095, 4095.770
524.577, 4075.218
525.059, 4052.252
525.541, 4019.628
526.023, 3999.474
526.505, 3974.323
526.988, 3948.967
527.470, 3930.563
527.952, 3903.986
528.434, 3899.338
528.916, 3891.289
529.398, 3878.380
529.880, 3857.438
530.362, 3828.740
530.844, 3800.037
531.327, 3775.823
531.809, 3755.193
532.291, 3735.323
532.773, 3716.102
533.255, 3701.722
533.737, 3694.894
534.219, 3693.696
534.701, 3694.437
535.184, 3701.707
535.666, 3700.791
536.148, 3680.120
536.630, 3658.654
537.112, 3652.376
537.594, 3658.806
538.076, 3665.291
538.558, 3663.737
539.041, 3657.228
539.523, 3655.020
540.005, 3659.633
540.487, 3658.544
540.969, 3646.224
541.451, 3630.213
541.933, 3617.643
542.415, 3607.321
542.898, 3591.690
543.380, 3557.571
543.862, 3525.550
544.344, 3510.459
544.826, 3504.883
545.308, 3510.634
545.790, 3513.636
546.272, 3514.036
546.754, 3504.041
547.237, 3507.469
547.719, 3505.518
548.201, 3503.346
548.683, 3508.663
549.165, 3505.172
549.647, 3510.239
550.129, 3518.010
550.611, 3521.503
551.093, 3525.042
551.576, 3536.935
552.058, 3554.874
552.540, 3559.727
553.022, 3543.478
553.504, 3532.991
553.986, 3552.987
554.468, 3595.823
554.950, 3622.985
555.432, 3623.707
555.915, 3622.484
556.397, 3624.643
556.879, 3629.971
557.361, 3641.182
557.843, 3656.850
558.325, 3668.740
558.807, 3669.656
559.289, 3660.516
559.771, 3645.807
560.254, 3619.644
560.736, 3600.850
561.218, 3602.636
561.700, 3608.613
562.182, 3607.586
562.664, 3598.501
563.146, 3581.868
563.628, 3548.283
564.111, 3513.448
564.593, 3500.313
565.075, 3505.023
565.557, 3505.349
566.039, 3491.066
566.521, 3468.199
567.003, 3448.241
567.485, 3434.406
567.968, 3414.666
568.450, 3381.807
568.932, 3351.201
569.414, 3329.387
569.896, 3314.662
570.378, 3304.819
570.860, 3300.028
571.342, 3293.796
571.825, 3273.203
572.307, 3242.546
572.789, 3227.779
573.271, 3235.615
573.753, 3247.988
574.235, 3251.656
574.717, 3247.950
575.199, 3246.383
575.681, 3249.580
576.164, 3251.430
576.646, 3248.618
577.128, 3244.964
577.610, 3246.112
578.092, 3251.328
578.574, 3252.634
579.056, 3241.380
579.538, 3222.939
580.020, 3220.216
580.503, 3238.562
580.985, 3251.659
581.467, 3248.986
581.949, 3240.791
582.431, 3234.407
582.913, 3230.128
583.395, 3237.187
583.877, 3272.287
584.360, 3307.043
584.842, 3315.584
585.324, 3307.092
585.806, 3304.323
586.288, 3315.680
586.770, 3334.277
587.252, 3349.559
587.734, 3359.761
588.216, 3380.008
588.699, 3419.994
589.181, 3457.422
589.663, 3481.160
590.145, 3499.738
590.627, 3522.820
591.109, 3551.914
591.591, 3589.261
592.073, 3643.363
592.555, 3703.739
593.038, 3750.509
593.520, 3783.866
594.002, 3821.966
594.484, 3875.984
594.966, 3940.807
595.448, 4001.727
595.930, 4060.330
596.412, 4112.650
596.895, 4132.937
597.377, 4172.107
597.859, 4273.472
598.341, 4414.417
598.823, 4538.080
599.305, 4615.033
599.787, 4678.625
600.269, 4773.828
600.752, 4891.071
601.234, 4988.702
601.716, 5057.771
602.198, 5114.693
602.680, 5173.378
603.162, 5232.174
603.644, 5277.269
604.126, 5307.776
604.609, 5327.172
605.091, 5333.052
605.573, 5329.966
606.055, 5324.391
606.537, 5314.558
607.019, 5289.647
607.501, 5237.344
607.983, 5170.638
608.465, 5115.560
608.948, 5072.307
609.430, 5037.910
609.912, 5010.627
610.394, 4994.026
610.876, 4992.500
611.358, 4988.899
611.840, 5003.674
612.322, 5013.988
612.804, 5020.081
613.287, 5009.312
613.769, 5020.317
614.251, 5022.596
614.733, 5029.196
615.215, 5040.333
615.697, 5072.818
616.179, 5120.928
616.661, 5154.610
617.143, 5169.864
617.626, 5189.738
618.108, 5219.885
618.590, 5261.099
619.072, 5305.605
619.554, 5320.739
620.036, 5351.566
620.518, 5378.585
621.000, 5402.000
621.482, 5411.013
621.965, 5438.627
622.447, 5458.782
622.929, 5478.634
623.411, 5504.758
623.893, 5537.610
624.375, 5600.439
624.857, 5631.832
625.339, 5624.041
625.822, 5605.299
626.304, 5580.839
626.786, 5556.452
627.268, 5541.737
627.750, 5538.913
628.232, 5534.866
628.714, 5524.290
629.196, 5512.918
629.679, 5508.304
630.161, 5506.298
630.643, 5494.864
631.125, 5468.975
631.607, 5439.198
632.089, 5421.105
632.571, 5399.450
633.053, 5390.716
633.536, 5378.840
634.018, 5364.003
634.500, 5337.310
634.982, 5325.924
635.464, 5309.819
635.946, 5284.403
636.428, 5255.626
636.910, 5208.723
637.392, 5161.804
637.875, 5140.897
638.357, 5134.461
638.839, 5104.684
639.321, 5032.786
639.803, 4942.572
640.285, 4879.142
640.767, 4846.607
641.249, 4790.002
641.731, 4693.586
642.214, 4596.904
642.696, 4521.657
643.178, 4460.311
643.660, 4400.711
644.142, 4342.638
644.624, 4284.503
645.106, 4218.375
645.588, 4157.616
