##NAMES=Bertrandite
##RRUFFID=R110025
##IDEAL CHEMISTRY=Be_4_Si_2_O_7_(OH)_2_
##LOCALITY=Foote mine, Kings Mountain, North Carolina, USA
##OWNER=RRUFF
##SOURCE=
##DESCRIPTION=Colorless bladed crystals associated with lithiophilite R100096 
##STATUS=The identification of this mineral has been confirmed by single-crystal X-ray diffraction.
##URL=rruff.info/R110025
141.7098, 114.0641
142.1919, 113.0349
142.6740, 111.8673
143.1561, 111.0666
143.6383, 110.7071
144.1204, 110.7015
144.6025, 111.0581
145.0846, 111.8649
145.5667, 112.3539
146.0488, 112.3216
146.5310, 112.0363
147.0131, 111.7133
147.4952, 111.3581
147.9773, 111.1253
148.4594, 111.3333
148.9415, 111.8980
149.4237, 112.3516
149.9058, 112.4286
150.3879, 112.2578
150.8700, 112.1899
151.3521, 112.2850
151.8342, 112.5052
152.3164, 112.8945
152.7985, 113.4157
153.2806, 113.7969
153.7627, 113.7649
154.2448, 113.3106
154.7269, 112.9036
155.2091, 112.4692
155.6912, 112.2183
156.1733, 112.3892
156.6554, 112.9510
157.1375, 113.5509
157.6196, 113.7012
158.1018, 113.1519
158.5839, 112.8863
159.0660, 113.1941
159.5481, 113.6013
160.0302, 113.7576
160.5123, 113.5989
160.9945, 113.3719
161.4766, 113.4992
161.9587, 114.0597
162.4408, 114.9384
162.9229, 116.4246
163.4050, 118.0594
163.8871, 119.4328
164.3693, 120.3957
164.8514, 121.0432
165.3335, 121.5929
165.8156, 122.1643
166.2977, 122.4693
166.7798, 122.1998
167.2620, 121.6932
167.7441, 121.5270
168.2262, 122.0146
168.7083, 122.8445
169.1904, 123.0698
169.6725, 122.2646
170.1547, 121.7402
170.6368, 122.2357
171.1189, 123.4902
171.6010, 124.5921
172.0831, 125.0502
172.5652, 125.1717
173.0474, 125.6618
173.5295, 126.7247
174.0116, 127.7635
174.4937, 128.2109
174.9758, 128.0699
175.4579, 128.0682
175.9401, 128.7459
176.4222, 129.6163
176.9043, 130.0639
177.3864, 129.8155
177.8685, 129.5187
178.3506, 130.0718
178.8328, 131.6988
179.3149, 133.3967
179.7970, 134.6224
180.2791, 135.8493
180.7612, 137.5857
181.2433, 140.0943
181.7255, 142.9307
182.2076, 145.2088
182.6897, 146.9827
183.1718, 147.9737
183.6539, 147.8808
184.1360, 147.2424
184.6181, 146.5399
185.1003, 145.9932
185.5824, 145.6091
186.0645, 145.4355
186.5466, 145.9262
187.0287, 146.0561
187.5108, 145.6017
187.9930, 144.7479
188.4751, 143.6628
188.9572, 142.4266
189.4393, 141.1108
189.9214, 140.1395
190.4035, 139.5733
190.8857, 139.2851
191.3678, 139.2174
191.8499, 139.4207
192.3320, 140.0377
192.8141, 141.1999
193.2962, 142.8166
193.7784, 144.1982
194.2605, 145.0909
194.7426, 146.0744
195.2247, 147.5674
195.7068, 149.3549
196.1889, 150.7947
196.6711, 151.4144
197.1532, 151.3861
197.6353, 151.6938
198.1174, 152.2030
198.5995, 153.1186
199.0816, 154.6864
199.5638, 156.8428
200.0459, 159.0982
200.5280, 160.9988
201.0101, 162.9098
201.4922, 165.6699
201.9743, 169.7099
202.4565, 174.2203
202.9386, 178.9479
203.4207, 183.9393
203.9028, 188.0072
204.3849, 191.2934
204.8670, 192.8072
205.3492, 190.9057
205.8313, 184.5376
206.3134, 175.6110
206.7955, 165.7091
207.2776, 154.2961
207.7597, 144.4292
208.2419, 137.8699
208.7240, 133.4334
209.2061, 130.4822
209.6882, 129.0478
210.1703, 128.5189
210.6524, 127.8498
211.1346, 126.8941
211.6167, 126.2005
212.0988, 126.0856
212.5809, 126.2239
213.0630, 126.3492
213.5451, 126.3717
214.0273, 126.2638
214.5094, 125.9114
214.9915, 125.0385
215.4736, 124.4341
215.9557, 124.2284
216.4378, 124.3199
216.9200, 124.6439
217.4021, 125.1763
217.8842, 125.8587
218.3663, 126.5413
218.8484, 127.3949
219.3305, 127.9719
219.8127, 127.9430
220.2948, 127.7495
220.7769, 127.8173
221.2590, 128.3397
221.7411, 129.2666
222.2232, 130.4570
222.7054, 132.2483
223.1875, 133.9163
223.6696, 135.4130
224.1517, 136.7708
224.6338, 137.9837
225.1159, 139.0523
225.5980, 140.0496
226.0802, 141.1914
226.5623, 142.4787
227.0444, 143.9166
227.5265, 146.1432
228.0086, 148.3415
228.4907, 149.4295
228.9729, 148.9485
229.4550, 147.2177
229.9371, 144.9755
230.4192, 142.0981
230.9013, 138.9532
231.3834, 135.1092
231.8656, 131.1426
232.3477, 127.9592
232.8298, 125.9457
233.3119, 124.6995
233.7940, 123.3776
234.2761, 121.8419
234.7583, 120.5638
235.2404, 119.5949
235.7225, 118.9712
236.2046, 118.8114
236.6867, 119.2239
237.1688, 119.9433
237.6510, 120.5284
238.1331, 120.9589
238.6152, 121.4071
239.0973, 122.1118
239.5794, 122.8654
240.0615, 123.1929
240.5437, 122.9074
241.0258, 122.2772
241.5079, 121.6628
241.9900, 121.0752
242.4721, 120.3389
242.9542, 119.2897
243.4364, 118.0368
243.9185, 116.8494
244.4006, 115.7722
244.8827, 114.7939
245.3648, 113.8902
245.8469, 113.0588
246.3290, 112.3331
246.8112, 111.7815
247.2933, 111.3555
247.7754, 110.8854
248.2575, 110.3173
248.7396, 109.7633
249.2217, 109.2249
249.7039, 108.7411
250.1860, 108.4784
250.6681, 108.6801
251.1502, 109.2013
251.6323, 109.5355
252.1144, 109.7310
252.5966, 109.5853
253.0787, 108.7617
253.5608, 107.5472
254.0429, 106.5832
254.5250, 106.3105
255.0071, 106.5782
255.4893, 106.8153
255.9714, 107.0335
256.4535, 107.1945
256.9356, 107.3067
257.4177, 107.3596
257.8998, 107.3157
258.3820, 107.0897
258.8641, 106.7817
259.3462, 106.7783
259.8283, 107.3134
260.3104, 107.7743
260.7925, 108.0058
261.2747, 108.0481
261.7568, 107.9424
262.2389, 107.6952
262.7210, 107.3384
263.2031, 106.9322
263.6852, 106.3294
264.1674, 105.9492
264.6495, 105.9593
265.1316, 106.1732
265.6137, 106.4165
266.0958, 106.6178
266.5779, 106.7752
267.0601, 106.8801
267.5422, 106.9179
268.0243, 106.9233
268.5064, 106.8550
268.9885, 106.7870
269.4706, 106.8177
269.9528, 106.9764
270.4349, 107.1563
270.9170, 107.1372
271.3991, 106.7811
271.8812, 106.4925
272.3633, 106.1806
272.8455, 106.0062
273.3276, 106.1950
273.8097, 106.7588
274.2918, 107.4028
274.7739, 107.6728
275.2560, 107.4079
275.7382, 107.0820
276.2202, 106.4285
276.7024, 105.9196
277.1845, 105.9824
277.6666, 106.5991
278.1487, 107.3094
278.6308, 107.5165
279.1129, 106.9678
279.5951, 106.7953
280.0772, 107.2330
280.5593, 107.7703
281.0414, 108.1783
281.5235, 108.4328
282.0056, 108.6047
282.4878, 108.7535
282.9699, 108.8725
283.4520, 109.0265
283.9341, 109.4627
284.4162, 109.6984
284.8983, 109.4059
285.3805, 108.7257
285.8626, 108.0362
286.3447, 107.6200
286.8268, 107.4759
287.3089, 107.4338
287.7910, 107.4895
288.2732, 107.6405
288.7553, 108.0306
289.2374, 108.5090
289.7195, 108.7472
290.2016, 108.5134
290.6837, 107.9500
291.1659, 107.8659
291.6480, 108.8586
292.1301, 109.6279
292.6122, 109.9433
293.0943, 109.9129
293.5764, 109.5972
294.0586, 109.0063
294.5407, 108.3532
295.0228, 108.2157
295.5049, 109.0584
295.9870, 109.8821
296.4691, 110.7744
296.9513, 111.5794
297.4334, 112.1405
297.9155, 112.4038
298.3976, 112.4071
298.8797, 112.2003
299.3618, 111.6567
299.8440, 111.1136
300.3261, 110.6303
300.8082, 110.1150
301.2903, 109.4520
301.7724, 108.6370
302.2545, 107.7877
302.7367, 107.0169
303.2188, 106.2981
303.7009, 105.8400
304.1830, 105.6780
304.6651, 105.7139
305.1472, 106.0207
305.6294, 106.5196
306.1115, 106.9207
306.5936, 106.9660
307.0757, 106.6334
307.5578, 106.2928
308.0399, 105.7729
308.5221, 105.4104
309.0042, 105.4760
309.4863, 105.8341
309.9684, 106.1144
310.4505, 106.0620
310.9326, 105.7443
311.4148, 105.6377
311.8969, 106.0948
312.3790, 106.3255
312.8611, 105.9742
313.3432, 105.3037
313.8253, 104.6998
314.3075, 104.3296
314.7896, 104.1906
315.2717, 104.2953
315.7538, 104.9496
316.2359, 105.4072
316.7180, 105.5776
317.2001, 105.5377
317.6823, 105.2859
318.1644, 104.8336
318.6465, 104.3863
319.1286, 104.2621
319.6107, 104.6478
320.0928, 104.9368
320.5750, 105.1229
321.0571, 105.2206
321.5392, 105.1387
322.0213, 104.9172
322.5034, 104.8275
322.9855, 105.1824
323.4677, 106.0860
323.9498, 106.6696
324.4319, 106.7307
324.9140, 106.7137
325.3961, 106.8664
325.8782, 107.1413
326.3604, 107.3476
326.8425, 107.3528
327.3246, 107.1682
327.8067, 106.9123
328.2888, 106.2853
328.7709, 105.9340
329.2531, 106.3113
329.7352, 107.0256
330.2173, 107.3693
330.6994, 106.9851
331.1815, 106.2184
331.6636, 106.0041
332.1458, 107.3648
332.6279, 108.0124
333.1100, 107.2643
333.5921, 106.0751
334.0742, 105.3702
334.5563, 105.4128
335.0385, 105.8645
335.5206, 106.2623
336.0027, 106.6534
336.4848, 106.8371
336.9669, 106.6617
337.4490, 106.4229
337.9312, 106.3481
338.4133, 106.4222
338.8954, 106.4184
339.3775, 106.0626
339.8596, 105.2710
340.3417, 105.1958
340.8239, 106.5827
341.3060, 107.8105
341.7881, 108.2051
342.2702, 108.0050
342.7523, 107.7607
343.2344, 107.8115
343.7166, 108.0892
344.1987, 108.2622
344.6808, 108.0518
345.1629, 108.0613
345.6450, 108.4415
346.1271, 109.0301
346.6093, 109.7157
347.0914, 110.4393
347.5735, 111.0931
348.0556, 111.4252
348.5377, 111.0787
349.0198, 111.0670
349.5020, 111.6808
349.9841, 112.3671
350.4662, 112.7476
350.9483, 112.7858
351.4304, 112.6921
351.9125, 112.7204
352.3947, 112.9401
352.8768, 112.8127
353.3589, 111.9074
353.8410, 111.0867
354.3231, 110.6780
354.8052, 110.5917
355.2874, 110.5814
355.7695, 110.4782
356.2516, 110.3186
356.7337, 110.3098
357.2158, 110.4909
357.6979, 110.7908
358.1800, 111.5904
358.6621, 112.3298
359.1443, 112.2897
359.6264, 111.1989
360.1085, 109.6072
360.5906, 108.5219
361.0727, 108.1938
361.5548, 107.7215
362.0370, 106.7422
362.5191, 105.8060
363.0012, 105.2658
363.4833, 105.1399
363.9654, 105.2185
364.4475, 105.3912
364.9297, 105.6829
365.4118, 105.6280
365.8939, 104.8449
366.3760, 104.1199
366.8581, 103.8014
367.3402, 103.7737
367.8224, 103.7751
368.3045, 103.6476
368.7866, 103.4492
369.2687, 103.3457
369.7508, 103.3419
370.2329, 103.4315
370.7151, 103.7329
371.1972, 104.0624
371.6793, 104.2286
372.1614, 104.1661
372.6435, 104.0048
373.1256, 103.8896
373.6078, 103.8231
374.0899, 103.7766
374.5720, 103.8006
375.0541, 103.7892
375.5362, 103.6369
376.0183, 103.3568
376.5005, 103.0916
376.9826, 102.9375
377.4647, 102.8728
377.9468, 102.7995
378.4289, 102.6664
378.9110, 102.6273
379.3932, 102.8208
379.8753, 103.1732
380.3574, 103.5739
380.8395, 104.0971
381.3216, 104.5532
381.8037, 104.6624
382.2859, 104.4189
382.7680, 104.1311
383.2501, 103.8939
383.7322, 103.7172
384.2143, 103.5925
384.6964, 103.5124
385.1786, 103.5155
385.6607, 103.7653
386.1428, 104.1199
386.6249, 104.1322
387.1070, 103.6017
387.5891, 102.9850
388.0713, 102.8567
388.5534, 103.1676
389.0355, 103.4820
389.5176, 103.8535
389.9997, 104.1015
390.4818, 103.9428
390.9640, 103.3931
391.4461, 102.8752
391.9282, 102.6687
392.4103, 102.7403
392.8924, 102.8441
393.3745, 102.9871
393.8567, 103.1500
394.3388, 103.4775
394.8209, 103.8019
395.3030, 103.7091
395.7851, 103.0024
396.2672, 102.0687
396.7494, 101.5863
397.2315, 101.7137
397.7136, 101.9541
398.1957, 102.4559
398.6778, 102.9516
399.1599, 103.2213
399.6420, 103.2476
400.1241, 103.1370
400.6063, 102.9771
401.0884, 102.7671
401.5705, 102.5131
402.0526, 102.1046
402.5347, 101.7809
403.0168, 101.5965
403.4990, 101.5502
403.9811, 101.6740
404.4632, 101.9867
404.9453, 102.3821
405.4274, 102.6060
405.9095, 102.6436
406.3917, 102.5103
406.8738, 101.9069
407.3559, 101.3689
407.8380, 101.3932
408.3201, 101.9587
408.8022, 102.5656
409.2844, 102.6751
409.7665, 102.2404
410.2486, 102.0468
410.7307, 102.3790
411.2128, 102.6510
411.6949, 102.6508
412.1771, 102.4841
412.6592, 102.3304
413.1413, 102.2785
413.6234, 102.2861
414.1055, 102.2329
414.5876, 102.0419
415.0698, 102.0276
415.5519, 102.4556
416.0340, 102.9591
416.5161, 103.3311
416.9982, 103.5379
417.4803, 103.5815
417.9625, 103.3814
418.4446, 102.9846
418.9267, 102.7245
419.4088, 102.6934
419.8909, 102.6767
420.3730, 102.5302
420.8552, 102.2984
421.3373, 102.0683
421.8194, 101.8707
422.3015, 101.6855
422.7836, 101.4425
423.2657, 101.1448
423.7479, 101.0089
424.2300, 101.1979
424.7121, 101.5314
425.1942, 101.7258
425.6763, 101.7661
426.1584, 101.7557
426.6406, 101.6954
427.1227, 101.6260
427.6048, 101.6483
428.0869, 101.7889
428.5690, 101.8931
429.0511, 101.8021
429.5333, 101.5121
430.0154, 101.2781
430.4975, 101.1166
430.9796, 100.9961
431.4617, 100.9288
431.9438, 100.8902
432.4260, 100.7765
432.9081, 100.5116
433.3902, 100.2536
433.8723, 100.4027
434.3544, 101.4713
434.8365, 102.0905
435.3187, 101.9266
435.8008, 101.4888
436.2829, 101.2041
436.7650, 101.1089
437.2471, 100.9468
437.7292, 100.4347
438.2114, 99.55138
438.6935, 99.08712
439.1756, 99.40137
439.6577, 99.74317
440.1398, 100.0443
440.6219, 100.2421
441.1040, 100.2174
441.5862, 99.92220
442.0683, 99.54140
442.5504, 99.43806
443.0325, 99.72722
443.5146, 99.94182
443.9967, 100.0488
444.4789, 100.0661
444.9610, 99.92344
445.4431, 99.67760
445.9252, 99.49973
446.4073, 99.47313
446.8894, 99.61833
447.3716, 100.1671
447.8537, 101.5076
448.3358, 102.2720
448.8179, 101.1320
449.3000, 99.41291
449.7821, 98.60751
450.2643, 99.15359
450.7464, 99.98863
451.2285, 100.1392
451.7106, 99.76089
452.1927, 99.67959
452.6748, 100.1830
453.1570, 100.7585
453.6391, 100.8806
454.1212, 100.6277
454.6033, 100.2577
455.0854, 99.68545
455.5675, 99.12862
456.0497, 98.79391
456.5318, 98.66390
457.0139, 98.59496
457.4960, 98.51431
457.9781, 98.44930
458.4602, 98.48072
458.9424, 98.62413
459.4245, 98.80997
459.9066, 99.13515
460.3887, 99.43603
460.8708, 99.52482
461.3529, 99.38532
461.8351, 99.15219
462.3172, 98.95168
462.7993, 98.78869
463.2814, 98.53333
463.7635, 97.82661
464.2456, 97.44283
464.7278, 97.83280
465.2099, 98.57671
465.6920, 99.12637
466.1741, 99.26751
466.6562, 99.11042
467.1383, 98.77087
467.6205, 98.08440
468.1026, 97.72354
468.5847, 98.03379
469.0668, 98.38609
469.5489, 98.50847
470.0310, 98.43560
470.5132, 98.32461
470.9953, 98.27235
471.4774, 98.15791
471.9595, 98.14869
472.4416, 97.94832
472.9237, 97.78938
473.4059, 97.68441
473.8880, 97.67394
474.3701, 97.87721
474.8522, 98.31897
475.3343, 98.63118
475.8164, 98.39925
476.2986, 97.87606
476.7807, 97.76177
477.2628, 98.21127
477.7449, 98.63936
478.2270, 98.48661
478.7091, 97.93656
479.1913, 97.77776
479.6734, 98.48406
480.1555, 99.10466
480.6376, 99.04552
481.1197, 98.55622
481.6018, 98.07846
482.0839, 97.73666
482.5660, 97.68672
483.0482, 98.24715
483.5303, 99.77293
484.0124, 100.5446
484.4945, 99.96329
484.9766, 99.23901
485.4587, 99.07237
485.9409, 99.29418
486.4230, 99.33639
486.9051, 98.86130
487.3872, 98.11181
487.8693, 97.81493
488.3514, 98.27202
488.8336, 98.62312
489.3157, 98.66776
489.7978, 98.71117
490.2799, 99.08632
490.7620, 99.70791
491.2441, 100.1077
491.7263, 99.78007
492.2084, 98.92677
492.6905, 98.55492
493.1726, 98.83239
493.6547, 99.19067
494.1368, 99.45467
494.6190, 99.65303
495.1011, 99.80769
495.5832, 99.92210
496.0653, 99.99459
496.5474, 100.1274
497.0295, 100.2205
497.5117, 99.83135
497.9938, 98.74718
498.4759, 97.81172
498.9580, 97.91322
499.4401, 98.81608
499.9222, 99.20772
500.4044, 98.48786
500.8865, 97.77898
501.3686, 97.72525
501.8507, 98.09108
502.3328, 98.41722
502.8149, 98.55071
503.2971, 98.53531
503.7792, 98.42543
504.2613, 98.19909
504.7434, 97.94324
505.2255, 97.51839
505.7076, 97.20472
506.1898, 97.28101
506.6719, 97.55579
507.1540, 97.56986
507.6361, 97.06245
508.1182, 96.37660
508.6003, 96.40595
509.0825, 97.59861
509.5646, 98.30211
510.0467, 98.08665
510.5288, 97.57351
511.0109, 96.90768
511.4930, 96.20603
511.9752, 95.71951
512.4573, 95.61052
512.9394, 95.81774
513.4215, 96.32158
513.9036, 97.21705
514.3857, 97.80634
514.8679, 97.67116
515.3500, 97.19344
515.8321, 96.85650
516.3142, 96.67571
516.7963, 96.58074
517.2784, 96.59188
517.7606, 96.64709
518.2427, 96.61814
518.7248, 96.50479
519.2069, 96.50990
519.6890, 96.80933
520.1711, 97.32265
520.6533, 97.63455
521.1354, 97.63416
521.6175, 97.61782
522.0996, 97.71391
522.5817, 97.77040
523.0638, 97.54713
523.5460, 97.05935
524.0281, 96.61618
524.5102, 96.52419
524.9923, 96.77355
525.4744, 97.04553
525.9565, 97.52713
526.4387, 97.76772
526.9208, 97.52866
527.4029, 97.09587
527.8850, 96.71023
528.3671, 96.44576
528.8492, 96.36375
529.3314, 96.60512
529.8135, 97.13144
530.2956, 97.58641
530.7777, 97.98731
531.2598, 98.23679
531.7419, 98.12363
532.2241, 97.85084
532.7062, 97.77718
533.1883, 98.11301
533.6704, 98.35947
534.1525, 97.96275
534.6346, 97.24234
535.1168, 97.02487
535.5989, 97.52969
536.0810, 98.19393
536.5631, 98.44645
537.0452, 98.26355
537.5273, 98.19329
538.0095, 98.53652
538.4916, 98.64721
538.9737, 98.13505
539.4558, 97.29042
539.9379, 96.47265
540.4200, 95.82143
540.9022, 95.40665
541.3843, 95.38925
541.8664, 95.87888
542.3485, 96.14604
542.8306, 95.99406
543.3127, 95.82155
543.7948, 95.78313
544.2769, 95.79532
544.7590, 95.74117
545.2411, 95.58509
545.7233, 95.30468
546.2054, 94.71491
546.6875, 93.86169
547.1696, 93.54313
547.6517, 94.13415
548.1339, 94.79388
548.6160, 94.63851
549.0981, 93.96490
549.5802, 93.61700
550.0623, 94.05026
550.5444, 94.53121
551.0266, 94.50633
551.5087, 94.17989
551.9908, 94.03603
552.4729, 94.22489
552.9550, 94.55553
553.4371, 94.83862
553.9193, 95.13157
554.4014, 94.98927
554.8835, 93.78451
555.3656, 92.90217
555.8477, 93.07482
556.3298, 93.81042
556.8120, 94.38325
557.2941, 94.52612
557.7762, 94.43778
558.2583, 94.35755
558.7404, 94.27253
559.2225, 94.31044
559.7047, 94.54902
560.1868, 94.81702
560.6689, 95.13029
561.1510, 95.39323
561.6331, 95.42039
562.1152, 95.09575
562.5974, 94.69172
563.0795, 94.43720
563.5616, 94.30955
564.0437, 94.22771
564.5258, 94.17471
565.0079, 94.16702
565.4901, 94.20524
565.9722, 94.30069
566.4543, 94.51833
566.9364, 95.12074
567.4185, 95.54651
567.9006, 95.42136
568.3828, 95.05145
568.8649, 94.90867
569.3470, 95.09892
569.8291, 95.31776
570.3112, 95.16261
570.7933, 94.58888
571.2755, 94.44887
571.7576, 95.11852
572.2397, 95.76617
572.7218, 96.30614
573.2039, 96.66576
573.6860, 96.67525
574.1682, 96.30685
574.6503, 95.97265
575.1324, 96.15843
575.6145, 96.72819
576.0966, 97.06763
576.5787, 97.10587
577.0609, 97.04577
577.5430, 97.02449
578.0251, 96.97752
578.5072, 96.72580
578.9893, 96.06718
579.4714, 95.65235
579.9536, 96.07481
580.4357, 96.69722
580.9178, 96.63730
581.3999, 95.86021
581.8820, 95.00743
582.3641, 94.54330
582.8463, 94.44007
583.3284, 94.54127
583.8105, 95.20618
584.2926, 95.54812
584.7747, 95.41277
585.2568, 95.01839
585.7390, 94.38243
586.2211, 93.61415
586.7032, 93.01807
587.1853, 92.83228
587.6674, 92.95814
588.1495, 93.21449
588.6317, 93.66244
589.1138, 93.84940
589.5959, 93.52189
590.0780, 92.96303
590.5601, 92.44065
591.0422, 91.95375
591.5244, 91.69979
592.0065, 91.95943
592.4886, 92.30563
592.9707, 92.30532
593.4528, 92.04402
593.9349, 91.83873
594.4171, 91.82176
594.8992, 91.99232
595.3813, 92.40681
595.8634, 93.35136
596.3455, 93.66634
596.8276, 92.85977
597.3098, 92.03286
597.7919, 91.61137
598.2740, 91.49450
598.7561, 91.42760
599.2382, 91.30198
599.7203, 91.29793
600.2025, 91.80756
600.6846, 92.80883
601.1667, 93.34034
601.6488, 93.09295
602.1309, 92.79745
602.6130, 93.10119
603.0952, 93.69468
603.5773, 93.92199
604.0594, 93.52812
604.5415, 93.08949
605.0236, 92.90896
605.5057, 92.86684
605.9879, 92.79640
606.4700, 92.66610
606.9521, 92.49282
607.4342, 92.28571
607.9163, 92.05031
608.3984, 91.82310
608.8806, 91.46184
609.3627, 91.31734
609.8448, 91.53918
610.3269, 91.88973
610.8090, 92.30653
611.2911, 92.69878
611.7733, 92.82012
612.2554, 92.38694
612.7375, 91.66921
613.2196, 91.27507
613.7017, 91.21584
614.1838, 91.38590
614.6660, 91.93632
615.1481, 92.48483
615.6302, 92.53382
616.1123, 92.12166
616.5944, 91.72205
617.0765, 91.31483
617.5587, 91.06030
618.0408, 91.18340
618.5229, 91.52834
619.0050, 91.74145
619.4871, 91.70082
619.9692, 91.58182
620.4514, 91.64900
620.9335, 91.96338
621.4156, 91.99255
621.8977, 91.37420
622.3798, 90.89489
622.8619, 90.82871
623.3441, 90.96937
623.8262, 91.11559
624.3083, 91.21403
624.7904, 91.22560
625.2725, 91.01138
625.7546, 90.69558
626.2367, 90.66557
626.7188, 90.96438
627.2009, 91.28036
627.6830, 91.49241
628.1652, 91.58949
628.6473, 91.51231
629.1294, 91.19794
629.6115, 90.94822
630.0936, 90.89712
630.5757, 90.84749
631.0579, 90.52974
631.5400, 90.09233
632.0221, 89.96651
632.5042, 90.37887
632.9863, 91.04483
633.4684, 91.43765
633.9506, 91.51399
634.4327, 91.53908
634.9148, 91.55496
635.3969, 91.47671
635.8790, 91.20903
636.3611, 90.84282
636.8433, 90.52412
637.3254, 90.27840
637.8075, 90.12354
638.2896, 90.13858
638.7717, 90.23649
639.2538, 90.21973
