##NAMES=Berthierite
##RRUFFID=R070177
##IDEAL CHEMISTRY=Fe^2+^Sb^3+^_2_S^2-^_4_
##LOCALITY=Baia Sprie mine (Felsöbánya mine), Baia Sprie (Felsöbánya), Maramures County, Romania
##OWNER=RRUFF
##SOURCE=Michael Scott
##DESCRIPTION=A mass of parallel silver gray metallic prismatic striated crystals
##STATUS=The identification of this mineral has been confirmed by X-ray diffraction and chemical analysis
##URL=rruff.info/R070177
##MEASURED CHEMISTRY=darker phase: (Fe_0.97_Mn_0.03_)_Σ=1_(Sb_1.99_As_0.01_)_Σ=2_S_4.00_ ; lighter phase (bottom): Sb_2.00_S_3.00_ (stibnite)
130.8969, 243.7871
131.3791, 249.1938
131.8612, 244.7598
132.3433, 240.2512
132.8254, 238.1193
133.3075, 238.5017
133.7896, 243.3711
134.2718, 253.8307
134.7539, 266.2269
135.2360, 273.9843
135.7181, 276.1614
136.2002, 279.2237
136.6823, 287.3523
137.1645, 301.5332
137.6466, 312.8398
138.1287, 321.0605
138.6108, 326.1241
139.0929, 327.0526
139.5750, 322.4167
140.0572, 316.7722
140.5393, 313.2008
141.0214, 312.4359
141.5035, 311.6331
141.9856, 310.0325
142.4677, 307.7431
142.9499, 307.2926
143.4320, 308.9642
143.9141, 312.2067
144.3962, 316.6599
144.8783, 323.8155
145.3604, 330.0047
145.8425, 335.0745
146.3247, 339.8130
146.8068, 339.7901
147.2889, 329.4697
147.7710, 316.0362
148.2531, 310.7656
148.7352, 320.0949
149.2174, 331.6996
149.6995, 341.9719
150.1816, 351.6331
150.6637, 358.8004
151.1458, 361.7960
151.6279, 361.9021
152.1101, 363.2836
152.5922, 365.5012
153.0743, 369.5198
153.5564, 375.7847
154.0385, 389.1374
154.5206, 399.7141
155.0028, 406.3899
155.4849, 409.1766
155.9670, 408.3423
156.4491, 398.7307
156.9312, 387.9673
157.4133, 382.2005
157.8955, 386.5727
158.3776, 392.7425
158.8597, 398.9081
159.3418, 405.0937
159.8239, 409.5678
160.3060, 412.8418
160.7882, 413.8641
161.2703, 411.3016
161.7524, 397.4735
162.2345, 385.1397
162.7166, 381.8403
163.1987, 390.3359
163.6808, 401.4314
164.1630, 414.2518
164.6451, 426.6689
165.1272, 434.1983
165.6093, 429.2379
166.0914, 421.4304
166.5735, 418.7264
167.0557, 424.5521
167.5378, 432.6563
168.0199, 438.7087
168.5020, 443.3610
168.9841, 449.0891
169.4662, 461.0402
169.9484, 473.7484
170.4305, 480.5633
170.9126, 474.8839
171.3947, 466.6588
171.8768, 465.4295
172.3589, 470.7720
172.8411, 477.1914
173.3232, 481.6547
173.8053, 484.3287
174.2874, 485.5125
174.7695, 482.0229
175.2516, 478.4719
175.7338, 482.2374
176.2159, 493.9817
176.6980, 506.1545
177.1801, 511.3394
177.6622, 511.1823
178.1443, 510.5160
178.6264, 511.8873
179.1086, 514.2810
179.5907, 515.2856
180.0728, 514.2572
180.5549, 513.6512
181.0370, 517.0043
181.5191, 523.7534
182.0013, 530.9322
182.4834, 537.3261
182.9655, 542.7949
183.4476, 547.1165
183.9297, 550.1884
184.4118, 552.1509
184.8940, 552.0606
185.3761, 550.0632
185.8582, 549.7562
186.3403, 555.2864
186.8224, 565.4082
187.3046, 573.4109
187.7867, 577.0737
188.2688, 578.6525
188.7509, 586.0468
189.2330, 600.0454
189.7151, 610.5453
190.1973, 604.1446
190.6794, 582.3966
191.1615, 567.4709
191.6436, 568.0883
192.1257, 579.8640
192.6078, 583.2003
193.0900, 576.8760
193.5721, 567.7891
194.0542, 562.7098
194.5363, 561.6425
195.0184, 564.3697
195.5005, 573.2371
195.9826, 587.2901
196.4648, 594.5617
196.9469, 593.7891
197.4290, 589.0723
197.9111, 585.5070
198.3932, 583.1152
198.8753, 581.8969
199.3575, 582.0121
199.8396, 583.5051
200.3217, 585.4196
200.8038, 587.5239
201.2859, 590.3280
201.7680, 595.5215
202.2502, 604.0314
202.7323, 611.2615
203.2144, 614.4836
203.6965, 613.1097
204.1786, 611.7499
204.6607, 610.3769
205.1429, 609.3227
205.6250, 609.1321
206.1071, 609.3210
206.5892, 611.7661
207.0713, 619.0820
207.5534, 633.3171
208.0356, 642.2881
208.5177, 642.4092
208.9998, 636.6960
209.4819, 638.7045
209.9640, 651.0603
210.4461, 665.8292
210.9282, 677.5540
211.4104, 686.3414
211.8925, 691.6437
212.3746, 691.6589
212.8567, 687.4161
213.3388, 688.3843
213.8209, 695.9133
214.3031, 706.4828
214.7852, 717.3679
215.2673, 728.8025
215.7494, 739.5821
216.2315, 749.2214
216.7136, 757.6834
217.1958, 766.8804
217.6779, 776.8139
218.1600, 787.5706
218.6421, 800.0364
219.1242, 816.4511
219.6063, 829.5200
220.0885, 836.1755
220.5706, 835.2080
221.0527, 839.5701
221.5348, 851.4194
222.0169, 866.6544
222.4990, 880.2668
222.9812, 891.7102
223.4633, 902.3386
223.9454, 912.2330
224.4275, 921.2841
224.9096, 930.9739
225.3917, 943.0573
225.8739, 954.7628
226.3560, 960.6848
226.8381, 955.6838
227.3202, 953.8288
227.8023, 961.3138
228.2844, 983.3283
228.7665, 998.0814
229.2487, 1003.180
229.7308, 1001.866
230.2129, 1000.425
230.6950, 998.9217
231.1771, 997.2204
231.6592, 995.5466
232.1414, 995.1680
232.6235, 991.5331
233.1056, 982.7819
233.5877, 971.2375
234.0698, 963.1689
234.5519, 958.7521
235.0341, 957.5559
235.5162, 959.7665
235.9983, 967.3141
236.4804, 974.4512
236.9625, 982.2635
237.4446, 989.4910
237.9268, 991.5402
238.4089, 984.5628
238.8910, 977.4991
239.3731, 975.3491
239.8552, 981.6673
240.3373, 985.2983
240.8195, 982.9260
241.3016, 977.1214
241.7837, 980.5289
242.2658, 1001.445
242.7479, 1020.969
243.2300, 1025.944
243.7122, 1003.327
244.1943, 993.1591
244.6764, 1002.208
245.1585, 1027.264
245.6406, 1050.128
246.1227, 1073.184
246.6048, 1091.098
247.0870, 1098.604
247.5691, 1086.665
248.0512, 1083.194
248.5333, 1094.463
249.0154, 1118.278
249.4975, 1135.597
249.9797, 1143.195
250.4618, 1148.518
250.9439, 1157.544
251.4260, 1173.713
251.9081, 1186.059
252.3902, 1190.829
252.8724, 1189.018
253.3545, 1195.833
253.8366, 1215.900
254.3187, 1238.552
254.8008, 1254.350
255.2829, 1258.649
255.7651, 1266.482
256.2472, 1280.142
256.7293, 1299.610
257.2114, 1323.078
257.6935, 1352.809
258.1756, 1383.528
258.6577, 1409.911
259.1399, 1430.733
259.6220, 1451.039
260.1041, 1473.384
260.5862, 1497.562
261.0683, 1513.362
261.5504, 1520.202
262.0326, 1519.510
262.5147, 1511.649
262.9968, 1494.674
263.4789, 1476.378
263.9610, 1459.839
264.4431, 1444.643
264.9253, 1420.080
265.4074, 1383.083
265.8895, 1341.681
266.3716, 1303.026
266.8537, 1267.691
267.3358, 1233.870
267.8180, 1199.410
268.3001, 1164.960
268.7822, 1139.730
269.2643, 1125.275
269.7464, 1117.757
270.2285, 1114.181
270.7107, 1115.762
271.1928, 1116.480
271.6749, 1115.056
272.1570, 1111.511
272.6391, 1106.494
273.1212, 1100.032
273.6034, 1092.041
274.0855, 1081.398
274.5676, 1067.198
275.0497, 1055.592
275.5318, 1048.265
276.0139, 1044.960
276.4961, 1044.889
276.9782, 1049.915
277.4603, 1053.327
277.9424, 1046.948
278.4245, 1029.983
278.9066, 1011.314
279.3888, 992.0722
279.8709, 972.7224
280.3530, 959.3135
280.8351, 953.5450
281.3172, 948.0090
281.7993, 933.9954
282.2815, 911.2632
282.7636, 887.8062
283.2457, 864.6976
283.7278, 842.6133
284.2099, 825.0598
284.6920, 812.2797
285.1741, 802.8469
285.6563, 797.8232
286.1384, 796.7578
286.6205, 790.8945
287.1026, 775.1657
287.5847, 753.1294
288.0668, 737.6403
288.5490, 729.1985
289.0311, 723.4999
289.5132, 715.5667
289.9953, 706.1599
290.4774, 699.7952
290.9595, 699.1337
291.4417, 701.9388
291.9238, 701.8317
292.4059, 698.6154
292.8880, 695.8517
293.3701, 696.6130
293.8522, 700.6417
294.3344, 707.1879
294.8165, 718.6226
295.2986, 730.8868
295.7807, 733.6252
296.2628, 726.9968
296.7449, 721.0792
297.2271, 728.8452
297.7092, 744.6217
298.1913, 753.1909
298.6734, 746.2705
299.1555, 732.8336
299.6376, 725.9343
300.1198, 725.2101
300.6019, 726.6768
301.0840, 729.6812
301.5661, 732.4022
302.0482, 731.2825
302.5303, 724.5164
303.0125, 714.3312
303.4946, 701.3381
303.9767, 686.1929
304.4588, 672.8076
304.9409, 665.2956
305.4230, 661.1317
305.9052, 656.7675
306.3873, 652.1505
306.8694, 645.9561
307.3515, 635.0859
307.8336, 620.8121
308.3157, 608.9787
308.7979, 607.9564
309.2800, 609.5197
309.7621, 604.1644
310.2442, 585.0569
310.7263, 565.3318
311.2084, 553.3991
311.6906, 547.9453
312.1727, 543.9506
312.6548, 539.9748
313.1369, 535.7493
313.6190, 531.2567
314.1011, 526.9750
314.5833, 521.5270
315.0654, 513.4170
315.5475, 503.4709
316.0296, 494.1727
316.5117, 486.4230
316.9938, 479.7025
317.4760, 473.8301
317.9580, 469.4647
318.4402, 464.6932
318.9223, 458.2951
319.4044, 451.0356
319.8865, 444.7263
320.3686, 443.5971
320.8507, 440.6855
321.3329, 431.1982
321.8150, 408.6766
322.2971, 393.3166
322.7792, 391.3984
323.2613, 398.6920
323.7434, 407.5757
324.2256, 424.3293
324.7077, 436.0273
325.1898, 436.0689
325.6719, 416.4054
326.1540, 406.0264
326.6361, 412.2251
327.1183, 427.0703
327.6004, 439.0766
328.0825, 448.3957
328.5646, 454.5852
329.0467, 455.5756
329.5288, 448.0691
330.0110, 449.4416
330.4931, 467.6689
330.9752, 490.2437
331.4573, 501.2653
331.9394, 490.9648
332.4215, 484.5884
332.9037, 488.7582
333.3858, 504.3447
333.8679, 519.0911
334.3500, 534.5981
334.8321, 547.6265
335.3142, 553.7075
335.7964, 548.5113
336.2785, 548.0016
336.7606, 556.9461
337.2427, 574.4213
337.7248, 587.2783
338.2069, 594.0379
338.6891, 599.3469
339.1712, 607.2590
339.6533, 617.9850
340.1354, 630.0204
340.6175, 644.9080
341.0996, 660.2982
341.5818, 664.7295
342.0639, 656.4142
342.5460, 646.7714
343.0281, 644.6529
343.5102, 649.7371
343.9923, 655.0972
344.4745, 660.1147
344.9566, 664.2762
345.4387, 667.9285
345.9208, 670.9854
346.4029, 668.4579
346.8850, 651.6665
347.3672, 625.4105
347.8493, 609.9022
348.3314, 610.5886
348.8135, 614.9492
349.2956, 603.2842
349.7777, 578.3806
350.2599, 554.0468
350.7419, 540.7109
351.2241, 532.3013
351.7062, 517.0375
352.1883, 492.8960
352.6704, 467.6270
353.1525, 449.1508
353.6346, 435.7860
354.1168, 423.0974
354.5989, 408.5863
355.0810, 393.9770
355.5631, 381.7796
356.0452, 372.3354
356.5273, 362.1695
357.0095, 345.8705
357.4916, 327.9556
357.9737, 315.0474
358.4558, 314.7241
358.9379, 315.8164
359.4200, 310.9352
359.9022, 300.2322
360.3843, 291.3278
360.8664, 289.7308
361.3485, 290.4782
361.8306, 289.1022
362.3127, 283.1211
362.7949, 276.1793
363.2770, 268.9455
363.7591, 261.4976
364.2412, 254.2747
364.7233, 247.1739
365.2054, 240.4347
365.6876, 234.2328
366.1697, 225.8316
366.6518, 221.2583
367.1339, 223.9943
367.6160, 231.5312
368.0981, 235.4547
368.5803, 233.3567
369.0624, 229.6764
369.5445, 225.8910
370.0266, 221.4442
370.5087, 218.1602
370.9908, 216.4885
371.4730, 215.8105
371.9551, 214.9190
372.4372, 213.4467
372.9193, 212.4261
373.4014, 212.5956
373.8835, 214.3667
374.3657, 213.9825
374.8478, 210.5235
375.3299, 206.1743
375.8120, 203.7707
376.2941, 203.5733
376.7762, 204.0791
377.2584, 205.3443
377.7405, 207.1067
378.2226, 206.8851
378.7047, 204.3188
379.1868, 201.3561
379.6689, 199.9658
380.1511, 200.0436
380.6332, 199.7983
381.1153, 198.7743
381.5974, 197.2650
382.0795, 195.3215
382.5616, 192.9898
383.0438, 192.2542
383.5259, 197.0819
384.0080, 204.6331
384.4901, 206.9794
384.9722, 201.7252
385.4543, 193.8311
385.9364, 187.2115
386.4185, 182.3861
386.9007, 181.0320
387.3828, 188.8786
387.8649, 198.5015
388.3470, 199.8253
388.8291, 190.5500
389.3112, 181.3189
389.7934, 181.4992
390.2755, 186.8127
390.7576, 190.4075
391.2397, 189.2957
391.7218, 185.8235
392.2039, 179.8391
392.6861, 171.3506
393.1682, 165.7474
393.6503, 167.7146
394.1324, 172.3996
394.6145, 175.4076
395.0966, 173.1615
395.5788, 171.7688
396.0609, 173.2713
396.5430, 177.2327
397.0251, 180.5854
397.5072, 183.7186
397.9893, 185.5417
398.4715, 185.4734
398.9536, 182.3667
399.4357, 178.9359
399.9178, 174.3919
400.3999, 169.6145
400.8820, 166.6582
401.3642, 165.3192
401.8463, 166.1695
402.3284, 170.4459
402.8105, 179.9133
403.2926, 184.2064
403.7747, 181.7126
404.2569, 175.9301
404.7390, 170.5358
405.2211, 164.5236
405.7032, 163.6060
406.1853, 172.2153
406.6674, 188.0524
407.1496, 192.9823
407.6317, 185.3012
408.1138, 174.5049
408.5959, 168.9593
409.0780, 168.2312
409.5602, 168.3773
410.0423, 168.9803
410.5244, 169.5396
411.0065, 168.7773
411.4886, 166.8288
411.9707, 165.1681
412.4529, 165.0718
412.9350, 165.8797
413.4171, 166.6035
413.8992, 167.3998
414.3813, 167.0570
414.8634, 162.8783
415.3456, 156.5903
415.8277, 152.2402
416.3098, 152.3190
416.7919, 154.6893
417.2740, 158.9037
417.7561, 165.0332
418.2382, 168.7800
418.7203, 163.9949
419.2025, 157.1527
419.6846, 155.0724
420.1667, 168.0248
420.6488, 177.6605
421.1309, 175.8284
421.6130, 164.1643
422.0952, 154.8246
422.5773, 149.9332
423.0594, 148.2947
423.5415, 149.3633
424.0236, 156.0252
424.5057, 161.3372
424.9879, 165.6879
425.4700, 168.5166
425.9521, 168.4095
426.4342, 162.5790
426.9163, 157.9318
427.3984, 157.5722
427.8806, 162.7524
428.3627, 163.3201
428.8448, 157.1174
429.3269, 149.4040
429.8090, 146.5735
430.2911, 149.3906
430.7733, 152.5364
431.2554, 154.6622
431.7375, 156.1931
432.2196, 159.4879
432.7017, 164.8524
433.1838, 169.1584
433.6660, 168.6830
434.1481, 164.6727
434.6302, 162.8963
435.1123, 164.6812
435.5944, 167.8158
436.0765, 168.8868
436.5587, 168.4937
437.0408, 169.0621
437.5229, 175.2888
438.0050, 181.6559
438.4871, 179.7692
438.9692, 168.4132
439.4514, 157.3981
439.9335, 154.9556
440.4156, 156.8344
440.8977, 157.3430
441.3798, 151.3651
441.8619, 146.3112
442.3441, 146.0390
442.8262, 150.0740
443.3083, 155.0759
443.7904, 163.7618
444.2725, 170.4464
444.7546, 171.2181
445.2368, 158.7477
445.7189, 150.7078
446.2010, 151.3481
446.6831, 157.4394
447.1652, 162.3467
447.6473, 165.6360
448.1295, 168.2656
448.6116, 170.3967
449.0937, 171.9961
449.5758, 173.5668
450.0579, 175.5517
450.5400, 176.9175
451.0221, 176.1706
451.5042, 172.6628
451.9864, 170.2597
452.4685, 170.2420
452.9506, 171.5997
453.4327, 170.1619
453.9148, 165.6230
454.3969, 161.7754
454.8791, 161.9928
455.3612, 165.3194
455.8433, 167.4233
456.3254, 167.7133
456.8075, 167.3167
457.2896, 168.7670
457.7718, 170.9361
458.2539, 170.2835
458.7360, 160.9709
459.2181, 150.3482
459.7002, 147.9197
460.1823, 153.4352
460.6645, 158.7639
461.1466, 156.8435
461.6287, 152.8277
462.1108, 152.2799
462.5929, 160.6271
463.0750, 167.2536
463.5572, 165.8015
464.0393, 159.1549
464.5214, 155.2883
465.0035, 159.5075
465.4856, 164.2138
465.9677, 166.3508
466.4499, 165.2132
466.9320, 162.9574
467.4141, 157.9597
467.8962, 152.8000
468.3783, 150.3035
468.8604, 151.5529
469.3426, 153.5505
469.8247, 156.2431
470.3068, 159.3730
470.7889, 161.3666
471.2710, 162.2910
471.7531, 161.8919
472.2353, 159.6471
472.7174, 155.5080
473.1995, 151.0475
473.6816, 145.8328
474.1637, 141.6076
474.6458, 142.0619
475.1280, 146.6423
475.6101, 151.1344
476.0922, 153.2187
476.5743, 154.1191
477.0564, 156.2655
477.5385, 159.6387
478.0207, 162.9462
478.5028, 166.7851
478.9849, 169.4776
479.4670, 168.2290
479.9491, 159.1159
480.4312, 151.1393
480.9134, 152.5468
481.3955, 159.4988
481.8776, 162.7259
482.3597, 153.9914
482.8418, 144.6418
483.3239, 139.7936
483.8060, 140.3341
484.2881, 143.2366
484.7703, 151.0326
485.2524, 159.4436
485.7345, 164.4731
486.2166, 163.7204
486.6987, 163.1665
487.1808, 164.0908
487.6630, 165.7929
488.1451, 164.5014
488.6272, 158.5116
489.1093, 153.3320
489.5914, 152.4532
490.0735, 156.3651
490.5557, 158.1460
491.0378, 157.1231
491.5199, 155.4353
492.0020, 156.2271
492.4841, 159.2416
492.9662, 162.0910
493.4484, 164.8295
493.9305, 166.3219
494.4126, 162.7692
494.8947, 154.8256
495.3768, 148.5502
495.8589, 149.4008
496.3411, 153.8503
496.8232, 157.6178
497.3053, 160.0217
497.7874, 161.5048
498.2695, 162.0591
498.7516, 161.9018
499.2338, 161.3777
499.7159, 159.8068
500.1980, 158.6351
500.6801, 159.4639
501.1622, 162.2491
501.6443, 162.1559
502.1265, 155.2260
502.6086, 147.5582
503.0907, 142.5745
503.5728, 140.0667
504.0549, 140.8084
504.5370, 146.5954
505.0192, 154.6435
505.5013, 159.5942
505.9834, 160.9477
506.4655, 160.8125
506.9476, 159.7874
507.4297, 157.8625
507.9119, 154.7680
508.3940, 150.3188
508.8761, 145.7683
509.3582, 142.1530
509.8403, 139.3255
510.3224, 136.2884
510.8046, 132.1168
511.2867, 129.5074
511.7688, 133.4852
512.2509, 142.0419
512.7330, 149.2825
513.2151, 152.6994
513.6973, 153.1895
514.1794, 149.2001
514.6615, 140.7124
515.1436, 136.7189
515.6257, 146.9896
516.1078, 160.7704
516.5900, 168.5796
517.0721, 163.6768
517.5542, 159.3555
518.0363, 158.2569
518.5184, 159.1135
519.0005, 158.7978
519.4827, 157.5541
519.9648, 154.6353
520.4469, 148.4484
520.9290, 138.3766
521.4111, 135.6017
521.8932, 142.5569
522.3754, 152.0101
522.8575, 157.7562
523.3396, 159.7608
523.8217, 159.5413
524.3038, 156.5073
524.7859, 152.6913
525.2681, 152.3080
525.7502, 154.8415
526.2323, 156.5233
526.7144, 153.0392
527.1965, 148.4459
527.6786, 150.4982
528.1608, 159.2134
528.6429, 166.8593
529.1250, 166.5610
529.6071, 162.7702
530.0892, 160.3412
530.5714, 161.3703
531.0535, 162.4738
531.5356, 162.0699
532.0176, 160.7845
532.4998, 159.9559
532.9819, 160.3406
533.4640, 160.7327
533.9461, 160.6879
534.4282, 160.1445
534.9103, 159.9213
535.3925, 160.1380
535.8746, 160.5323
536.3567, 161.3209
536.8388, 163.1547
537.3209, 162.2193
537.8030, 157.2754
538.2852, 150.6955
538.7673, 146.2573
539.2494, 143.9949
539.7315, 144.4529
540.2136, 150.3566
540.6957, 158.3536
541.1779, 159.0116
541.6600, 152.7563
542.1421, 147.4683
542.6242, 153.0808
543.1063, 161.9249
543.5884, 162.7954
544.0706, 150.3454
544.5527, 138.4787
545.0348, 135.8612
545.5169, 139.0705
545.9990, 142.6182
546.4811, 145.7468
546.9633, 148.0847
547.4454, 149.7333
547.9275, 150.6336
548.4096, 149.8321
548.8917, 147.0242
549.3738, 142.8503
549.8560, 136.7983
550.3381, 126.2091
550.8202, 122.4757
551.3023, 128.2430
551.7844, 137.1231
552.2665, 139.5775
552.7487, 135.3011
553.2308, 131.9922
553.7129, 132.1872
554.1950, 134.3846
554.6771, 135.0694
555.1592, 134.3865
555.6414, 133.7886
556.1235, 134.3499
556.6056, 135.5060
557.0877, 136.4034
557.5698, 136.8885
558.0519, 137.7766
558.5341, 140.7250
559.0162, 143.9745
559.4983, 145.4011
559.9804, 143.5659
560.4625, 140.8335
560.9446, 137.0668
561.4268, 132.7630
561.9089, 129.4869
562.3910, 127.2797
562.8731, 126.1381
563.3552, 126.0730
563.8373, 127.0767
564.3195, 129.4550
564.8016, 133.9334
565.2837, 138.3193
565.7658, 140.8885
566.2479, 141.6644
566.7300, 140.1494
567.2122, 135.7533
567.6943, 130.1768
568.1764, 124.6828
568.6585, 119.8869
569.1406, 118.7455
569.6227, 126.2361
570.1049, 136.0049
570.5870, 139.7059
571.0691, 137.9804
571.5512, 136.7530
572.0333, 141.6086
572.5154, 146.8926
572.9976, 147.7666
573.4797, 141.4471
573.9618, 136.0672
574.4439, 132.7408
574.9260, 131.6278
575.4081, 133.1288
575.8903, 141.5291
576.3724, 145.7802
576.8545, 142.2336
577.3366, 133.3942
577.8187, 130.9173
578.3008, 136.7797
578.7830, 142.1716
579.2651, 141.1349
579.7472, 134.6591
580.2293, 134.2790
580.7114, 140.7366
581.1935, 146.6883
581.6757, 142.1403
582.1578, 131.7072
582.6399, 126.3571
583.1220, 130.5254
583.6041, 136.4209
584.0862, 137.1967
584.5684, 134.8285
585.0505, 133.3518
585.5326, 137.0019
586.0147, 139.4736
586.4968, 136.5636
586.9789, 128.4171
587.4611, 123.2592
587.9432, 123.6088
588.4253, 125.9236
588.9074, 128.9445
589.3895, 133.5125
589.8716, 136.3788
590.3538, 137.5426
590.8359, 136.9978
591.3180, 134.6855
591.8001, 130.5909
592.2822, 124.3982
592.7643, 114.1777
593.2465, 104.1737
593.7286, 105.1725
594.2107, 115.4286
594.6928, 123.8435
595.1749, 122.4613
595.6570, 117.1642
596.1392, 114.0633
596.6213, 113.4314
597.1034, 114.0163
597.5854, 115.7683
598.0676, 118.0739
598.5497, 120.5961
599.0318, 124.6104
599.5139, 126.4792
599.9960, 123.2679
600.4781, 118.4357
600.9603, 116.8796
601.4424, 119.5899
601.9245, 124.0696
602.4066, 131.8484
602.8887, 140.7331
603.3708, 139.2564
603.8530, 125.7554
604.3351, 113.4614
604.8172, 111.2793
605.2993, 116.7212
605.7814, 121.3998
606.2635, 125.1910
606.7457, 126.3784
607.2278, 120.2949
607.7099, 111.5118
608.1920, 107.2257
608.6741, 110.8912
609.1563, 115.5008
609.6384, 115.9924
610.1205, 115.0116
610.6026, 116.9964
611.0847, 129.1640
611.5668, 137.9168
612.0490, 137.6165
612.5311, 129.8533
613.0132, 125.6507
613.4953, 126.3731
613.9774, 128.3610
614.4595, 130.4602
614.9417, 132.8561
615.4238, 132.0346
615.9059, 127.3274
616.3880, 122.2379
616.8701, 120.6973
617.3522, 121.8681
617.8344, 122.4607
618.3165, 121.7056
618.7986, 120.5197
619.2807, 119.8715
619.7628, 119.5257
620.2449, 118.9933
620.7271, 118.3301
621.2092, 117.1819
621.6913, 114.3601
622.1734, 110.3919
622.6555, 108.8579
623.1376, 111.5647
