##NAMES=Bertrandite
##RRUFFID=R110025
##IDEAL CHEMISTRY=Be_4_Si_2_O_7_(OH)_2_
##LOCALITY=Foote mine, Kings Mountain, North Carolina, USA
##OWNER=RRUFF
##SOURCE=
##DESCRIPTION=Colorless bladed crystals associated with lithiophilite R100096 
##STATUS=The identification of this mineral has been confirmed by single-crystal X-ray diffraction.
##URL=rruff.info/R110025
169.1381, 876.6923
169.6203, 889.3967
170.1024, 896.8203
170.5845, 903.8414
171.0666, 911.9848
171.5487, 920.1989
172.0309, 928.4524
172.5130, 936.5076
172.9951, 944.0673
173.4772, 951.3455
173.9593, 958.6959
174.4414, 965.7673
174.9236, 973.1832
175.4057, 981.9660
175.8878, 992.2030
176.3699, 1001.921
176.8520, 1008.869
177.3341, 1014.128
177.8163, 1020.089
178.2984, 1027.708
178.7805, 1036.547
179.2626, 1045.920
179.7447, 1055.597
180.2268, 1066.210
180.7090, 1078.609
181.1911, 1092.409
181.6732, 1106.330
182.1553, 1119.977
182.6374, 1133.296
183.1195, 1146.375
183.6017, 1159.719
184.0838, 1170.994
184.5659, 1179.356
185.0480, 1184.256
185.5301, 1183.000
186.0123, 1170.549
186.4944, 1150.559
186.9765, 1134.416
187.4586, 1122.226
187.9407, 1114.157
188.4228, 1111.391
188.9050, 1113.570
189.3871, 1117.280
189.8692, 1121.418
190.3513, 1125.786
190.8334, 1129.333
191.3155, 1131.791
191.7977, 1133.957
192.2798, 1137.484
192.7619, 1142.379
193.2440, 1146.578
193.7261, 1148.467
194.2082, 1148.327
194.6904, 1149.357
195.1725, 1151.745
195.6546, 1155.314
196.1367, 1160.217
196.6188, 1166.643
197.1009, 1172.308
197.5831, 1175.186
198.0652, 1175.314
198.5473, 1177.266
199.0294, 1181.109
199.5115, 1187.083
199.9937, 1196.011
200.4758, 1207.942
200.9579, 1221.516
201.4400, 1235.822
201.9221, 1250.785
202.4042, 1267.316
202.8864, 1285.577
203.3685, 1305.282
203.8506, 1326.165
204.3327, 1348.304
204.8148, 1370.448
205.2969, 1395.316
205.7791, 1425.542
206.2612, 1439.414
206.7433, 1434.580
207.2254, 1413.716
207.7075, 1380.062
208.1896, 1328.370
208.6718, 1278.915
209.1539, 1242.421
209.6360, 1220.930
210.1181, 1203.561
210.6002, 1189.932
211.0823, 1179.954
211.5645, 1173.717
212.0466, 1171.904
212.5287, 1172.233
213.0108, 1173.853
213.4929, 1177.262
213.9750, 1180.043
214.4572, 1181.760
214.9393, 1182.897
215.4214, 1185.080
215.9035, 1188.863
216.3856, 1192.572
216.8678, 1195.076
217.3499, 1195.838
217.8320, 1197.219
218.3141, 1199.500
218.7962, 1202.360
219.2783, 1204.799
219.7605, 1206.581
220.2426, 1208.253
220.7247, 1209.896
221.2068, 1211.021
221.6889, 1213.481
222.1710, 1217.618
222.6532, 1223.079
223.1353, 1228.468
223.6174, 1233.205
224.0995, 1238.975
224.5816, 1246.676
225.0637, 1256.885
225.5459, 1267.719
226.0280, 1278.590
226.5101, 1290.207
226.9922, 1304.759
227.4743, 1324.565
227.9564, 1343.855
228.4386, 1359.985
228.9207, 1371.435
229.4028, 1383.371
229.8849, 1399.958
230.3670, 1416.145
230.8492, 1417.532
231.3313, 1399.440
231.8134, 1373.701
232.2955, 1343.829
232.7776, 1305.398
233.2597, 1274.366
233.7419, 1252.113
234.2240, 1236.890
234.7061, 1224.926
235.1882, 1216.815
235.6703, 1211.096
236.1524, 1207.422
236.6346, 1207.101
237.1167, 1205.809
237.5988, 1202.830
238.0809, 1199.137
238.5630, 1197.031
239.0451, 1197.242
239.5273, 1197.939
240.0094, 1198.288
240.4915, 1197.740
240.9736, 1198.322
241.4557, 1200.812
241.9378, 1204.050
242.4200, 1205.628
242.9021, 1205.048
243.3842, 1203.552
243.8663, 1201.260
244.3484, 1197.249
244.8306, 1195.360
245.3127, 1196.869
245.7948, 1199.841
246.2769, 1200.445
246.7590, 1196.827
247.2411, 1194.023
247.7233, 1194.231
248.2054, 1198.868
248.6875, 1201.142
249.1696, 1199.935
249.6517, 1197.124
250.1338, 1195.746
250.6160, 1196.345
251.0981, 1197.441
251.5802, 1198.775
252.0623, 1200.585
252.5444, 1201.417
253.0265, 1200.858
253.5087, 1199.667
253.9908, 1198.912
254.4729, 1198.708
254.9550, 1198.705
255.4371, 1198.787
255.9192, 1198.928
256.4014, 1199.514
256.8835, 1201.165
257.3656, 1202.644
257.8477, 1201.982
258.3298, 1197.280
258.8120, 1194.777
259.2941, 1196.771
259.7762, 1203.663
260.2583, 1208.259
260.7404, 1210.042
261.2225, 1210.186
261.7047, 1209.726
262.1868, 1208.142
262.6689, 1207.245
263.1510, 1207.452
263.6331, 1208.730
264.1152, 1210.525
264.5974, 1213.163
265.0795, 1215.787
265.5616, 1217.645
266.0437, 1218.896
266.5258, 1218.866
267.0079, 1216.731
267.4901, 1212.956
267.9722, 1212.155
268.4543, 1215.522
268.9364, 1219.524
269.4185, 1221.161
269.9006, 1219.888
270.3828, 1218.646
270.8649, 1217.694
271.3470, 1217.114
271.8291, 1217.460
272.3112, 1219.085
272.7933, 1220.649
273.2755, 1220.964
273.7576, 1219.764
274.2397, 1218.957
274.7218, 1218.658
275.2039, 1218.924
275.6860, 1220.479
276.1682, 1223.945
276.6503, 1226.409
277.1324, 1225.057
277.6145, 1219.433
278.0966, 1216.856
278.5787, 1218.756
279.0609, 1223.044
279.5430, 1224.963
280.0251, 1224.164
280.5072, 1223.325
280.9893, 1224.288
281.4715, 1227.045
281.9536, 1228.386
282.4357, 1227.763
282.9178, 1226.482
283.3999, 1226.982
283.8820, 1229.342
284.3642, 1231.620
284.8463, 1232.653
285.3284, 1232.566
285.8105, 1233.160
286.2926, 1234.574
286.7747, 1236.138
287.2569, 1236.512
287.7390, 1235.760
288.2211, 1236.003
288.7032, 1239.148
289.1853, 1244.150
289.6674, 1245.985
290.1496, 1244.326
290.6317, 1241.822
291.1138, 1241.536
291.5959, 1243.189
292.0780, 1244.752
292.5602, 1245.611
293.0423, 1245.950
293.5244, 1245.805
294.0065, 1245.135
294.4886, 1245.271
294.9707, 1248.450
295.4529, 1253.700
295.9350, 1257.240
296.4171, 1257.145
296.8992, 1255.756
297.3813, 1257.742
297.8634, 1262.802
298.3456, 1267.677
298.8277, 1270.034
299.3098, 1270.341
299.7919, 1269.384
300.2740, 1266.921
300.7561, 1263.987
301.2383, 1261.891
301.7204, 1260.521
302.2025, 1259.513
302.6846, 1258.698
303.1667, 1258.073
303.6488, 1257.695
304.1310, 1257.682
304.6131, 1257.588
305.0952, 1256.590
305.5773, 1255.096
306.0594, 1254.213
306.5415, 1254.964
307.0237, 1256.391
307.5058, 1257.496
307.9879, 1258.148
308.4700, 1258.674
308.9521, 1259.351
309.4343, 1260.065
309.9164, 1260.630
310.3985, 1260.745
310.8806, 1260.831
311.3627, 1261.179
311.8448, 1261.805
312.3270, 1262.650
312.8091, 1264.325
313.2912, 1265.998
313.7733, 1266.689
314.2554, 1264.594
314.7375, 1262.691
315.2197, 1262.678
315.7018, 1264.393
316.1839, 1266.396
316.6660, 1268.374
317.1481, 1270.202
317.6302, 1271.750
318.1124, 1272.882
318.5945, 1273.878
319.0766, 1275.277
319.5587, 1276.723
320.0408, 1277.018
320.5229, 1274.194
321.0051, 1271.227
321.4872, 1269.832
321.9693, 1271.028
322.4514, 1272.405
322.9335, 1273.442
323.4156, 1274.342
323.8978, 1275.500
324.3799, 1277.380
324.8620, 1279.191
325.3441, 1280.603
325.8262, 1281.405
326.3083, 1282.369
326.7905, 1284.296
327.2726, 1286.182
327.7547, 1286.772
328.2368, 1283.760
328.7189, 1281.819
329.2010, 1282.263
329.6832, 1285.372
330.1653, 1287.686
330.6474, 1289.285
331.1295, 1290.033
331.6116, 1289.717
332.0938, 1287.151
332.5759, 1285.394
333.0580, 1284.842
333.5401, 1285.422
334.0222, 1286.800
334.5043, 1289.788
334.9865, 1292.460
335.4686, 1293.623
335.9507, 1292.803
336.4328, 1291.591
336.9149, 1289.483
337.3970, 1287.303
337.8792, 1287.741
338.3613, 1291.959
338.8434, 1295.548
339.3255, 1296.118
339.8076, 1293.115
340.2898, 1291.487
340.7719, 1291.450
341.2540, 1292.425
341.7361, 1293.781
342.2182, 1295.571
342.7003, 1297.108
343.1825, 1298.003
343.6646, 1298.396
344.1467, 1299.168
344.6288, 1300.349
345.1109, 1301.763
345.5930, 1303.251
346.0752, 1304.797
346.5573, 1306.625
347.0394, 1309.222
347.5215, 1311.746
348.0036, 1311.579
348.4857, 1308.795
348.9679, 1306.771
349.4500, 1308.812
349.9321, 1313.640
350.4142, 1317.509
350.8963, 1319.730
351.3784, 1321.169
351.8606, 1322.617
352.3427, 1324.123
352.8248, 1325.890
353.3069, 1328.605
353.7890, 1331.415
354.2711, 1333.076
354.7533, 1333.415
355.2354, 1333.359
355.7175, 1333.689
356.1996, 1334.162
356.6817, 1334.357
357.1638, 1333.184
357.6460, 1332.320
358.1281, 1333.779
358.6102, 1337.310
359.0923, 1339.769
359.5744, 1338.755
360.0565, 1336.052
360.5387, 1333.379
361.0208, 1331.336
361.5029, 1329.250
361.9850, 1326.209
362.4671, 1322.779
362.9492, 1320.750
363.4314, 1321.712
363.9135, 1323.543
364.3956, 1325.301
364.8777, 1327.370
365.3598, 1328.135
365.8419, 1325.901
366.3241, 1322.471
366.8062, 1320.566
367.2883, 1321.984
367.7704, 1323.585
368.2526, 1324.364
368.7347, 1324.014
369.2168, 1324.509
369.6989, 1326.973
370.1810, 1329.609
370.6631, 1330.900
371.1453, 1329.500
371.6274, 1328.777
372.1095, 1329.457
372.5916, 1331.254
373.0737, 1332.217
373.5558, 1331.956
374.0380, 1331.444
374.5201, 1331.101
375.0022, 1330.758
375.4843, 1331.237
375.9664, 1332.920
376.4485, 1335.124
376.9307, 1336.503
377.4128, 1336.910
377.8949, 1337.054
378.3770, 1337.090
378.8591, 1337.032
379.3412, 1337.426
379.8234, 1338.400
380.3055, 1339.355
380.7876, 1339.383
381.2697, 1338.558
381.7518, 1338.230
382.2339, 1338.991
382.7161, 1340.299
383.1982, 1340.808
383.6803, 1340.542
384.1624, 1340.248
384.6445, 1340.359
385.1266, 1340.872
385.6088, 1342.072
386.0909, 1344.375
386.5730, 1346.202
387.0551, 1344.445
387.5372, 1340.478
388.0193, 1338.215
388.5015, 1341.455
388.9836, 1346.521
389.4657, 1349.432
389.9478, 1349.927
390.4299, 1349.840
390.9120, 1350.379
391.3942, 1351.071
391.8763, 1351.327
392.3584, 1350.698
392.8405, 1349.819
393.3226, 1348.838
393.8047, 1347.824
394.2869, 1347.086
394.7690, 1346.340
395.2511, 1346.186
395.7332, 1347.137
396.2154, 1349.972
396.6975, 1352.452
397.1796, 1354.339
397.6617, 1355.566
398.1438, 1356.016
398.6259, 1354.538
399.1081, 1353.389
399.5902, 1353.640
400.0723, 1355.741
400.5544, 1355.959
401.0365, 1351.623
401.5186, 1347.354
402.0008, 1347.317
402.4829, 1355.029
402.9650, 1360.153
403.4471, 1360.597
403.9292, 1357.596
404.4113, 1356.397
404.8935, 1357.498
405.3756, 1359.220
405.8577, 1360.936
406.3398, 1362.749
406.8219, 1363.735
407.3040, 1363.826
407.7862, 1363.250
408.2683, 1362.127
408.7504, 1360.450
409.2325, 1358.993
409.7146, 1357.891
410.1967, 1357.276
410.6789, 1357.654
411.1610, 1359.068
411.6431, 1360.805
412.1252, 1362.379
412.6073, 1363.794
413.0894, 1365.021
413.5716, 1366.003
414.0537, 1366.842
414.5358, 1367.628
415.0179, 1368.339
415.5000, 1368.958
415.9821, 1369.033
416.4643, 1369.200
416.9464, 1370.447
417.4285, 1372.913
417.9106, 1374.875
418.3927, 1374.317
418.8748, 1372.893
419.3570, 1372.577
419.8391, 1375.349
420.3212, 1378.074
420.8033, 1379.460
421.2854, 1379.691
421.7675, 1379.677
422.2497, 1379.900
422.7318, 1379.838
423.2139, 1378.995
423.6960, 1376.280
424.1781, 1375.133
424.6602, 1377.644
425.1424, 1381.510
425.6245, 1383.274
426.1066, 1380.397
426.5887, 1378.620
427.0709, 1379.615
427.5530, 1383.370
428.0351, 1385.781
428.5172, 1386.122
428.9993, 1386.115
429.4814, 1387.236
429.9636, 1390.121
430.4457, 1391.488
430.9278, 1390.590
431.4099, 1388.495
431.8920, 1387.763
432.3741, 1388.626
432.8563, 1388.973
433.3384, 1387.077
433.8205, 1383.530
434.3026, 1382.809
434.7847, 1385.172
435.2668, 1388.234
435.7490, 1389.111
436.2311, 1388.563
436.7132, 1389.457
437.1953, 1393.340
437.6774, 1397.885
438.1595, 1399.892
438.6417, 1399.787
439.1238, 1399.322
439.6059, 1399.298
440.0880, 1399.592
440.5701, 1400.227
441.0522, 1401.299
441.5344, 1402.089
442.0165, 1402.051
442.4986, 1401.509
442.9807, 1400.849
443.4628, 1399.631
443.9449, 1398.873
444.4271, 1399.268
444.9092, 1400.598
445.3913, 1401.616
445.8734, 1402.204
446.3555, 1402.227
446.8376, 1401.397
447.3198, 1398.356
447.8019, 1397.167
448.2840, 1399.515
448.7661, 1403.071
449.2482, 1404.567
449.7303, 1403.033
450.2125, 1401.007
450.6946, 1398.539
451.1767, 1395.777
451.6588, 1395.039
452.1409, 1396.794
452.6230, 1399.486
453.1052, 1402.630
453.5873, 1406.464
454.0694, 1407.501
454.5515, 1404.743
455.0337, 1400.609
455.5158, 1399.363
455.9979, 1400.807
456.4800, 1402.239
456.9621, 1402.272
457.4442, 1401.563
457.9264, 1401.779
458.4085, 1402.891
458.8906, 1404.041
459.3727, 1404.424
459.8548, 1404.422
460.3369, 1404.579
460.8191, 1404.939
461.3012, 1405.706
461.7833, 1407.361
462.2654, 1409.546
462.7475, 1411.500
463.2296, 1413.527
463.7118, 1414.736
464.1939, 1414.060
464.6760, 1411.400
465.1581, 1409.622
465.6402, 1409.895
466.1223, 1411.182
466.6045, 1412.757
467.0866, 1415.196
467.5687, 1417.026
468.0508, 1417.884
468.5329, 1418.097
469.0150, 1418.400
469.4972, 1418.819
469.9793, 1419.284
470.4614, 1419.822
470.9435, 1420.453
471.4256, 1420.922
471.9077, 1421.302
472.3899, 1421.422
472.8720, 1421.005
473.3541, 1419.990
473.8362, 1419.179
474.3183, 1418.547
474.8004, 1418.378
475.2826, 1419.594
475.7647, 1422.082
476.2468, 1424.299
476.7289, 1425.306
477.2110, 1425.504
477.6931, 1425.759
478.1753, 1426.073
478.6574, 1426.285
479.1395, 1426.150
479.6216, 1425.853
480.1037, 1425.684
480.5858, 1425.789
481.0680, 1425.912
481.5501, 1425.886
482.0322, 1425.767
482.5143, 1425.658
482.9964, 1425.447
483.4786, 1425.420
483.9607, 1425.891
484.4428, 1426.938
484.9249, 1427.604
485.4070, 1427.525
485.8892, 1427.124
486.3713, 1426.626
486.8534, 1424.240
487.3355, 1424.553
487.8176, 1429.658
488.2997, 1436.846
488.7819, 1440.105
489.2640, 1437.534
489.7461, 1435.330
490.2282, 1435.810
490.7103, 1438.741
491.1924, 1439.982
491.6746, 1439.205
492.1567, 1438.062
492.6388, 1437.937
493.1209, 1438.738
493.6030, 1439.734
494.0851, 1440.841
494.5673, 1442.062
495.0494, 1443.745
495.5315, 1445.633
496.0136, 1446.748
496.4957, 1445.885
496.9778, 1444.475
497.4600, 1444.051
497.9421, 1444.581
498.4242, 1445.542
498.9063, 1447.397
499.3884, 1449.120
499.8705, 1449.782
500.3527, 1448.916
500.8348, 1447.687
501.3169, 1446.064
501.7990, 1444.463
502.2811, 1443.464
502.7632, 1443.580
503.2454, 1443.906
503.7275, 1444.390
504.2096, 1445.000
504.6917, 1445.363
505.1738, 1445.307
505.6559, 1445.265
506.1381, 1445.476
506.6202, 1446.000
507.1023, 1446.661
507.5844, 1447.586
508.0665, 1448.454
508.5486, 1448.557
509.0308, 1447.863
509.5129, 1447.920
509.9950, 1449.462
510.4771, 1451.622
510.9592, 1452.310
511.4413, 1451.656
511.9235, 1451.174
512.4056, 1451.883
512.8877, 1453.309
513.3698, 1454.899
513.8519, 1456.621
514.3340, 1458.139
514.8162, 1459.309
515.2983, 1460.102
515.7804, 1460.472
516.2625, 1460.236
516.7446, 1459.833
517.2267, 1459.240
517.7089, 1458.638
518.1910, 1458.459
518.6731, 1459.097
519.1552, 1459.938
519.6373, 1460.856
520.1194, 1461.886
520.6016, 1462.726
521.0837, 1463.484
521.5658, 1463.898
522.0479, 1463.484
522.5300, 1461.578
523.0121, 1461.469
523.4943, 1464.090
523.9764, 1467.625
524.4585, 1468.359
524.9406, 1466.202
525.4227, 1464.897
525.9048, 1466.300
526.3870, 1469.231
526.8691, 1470.859
527.3513, 1471.235
527.8334, 1471.013
528.3155, 1470.475
528.7976, 1469.714
529.2797, 1468.578
529.7618, 1466.843
530.2440, 1465.996
530.7261, 1467.877
531.2082, 1471.020
531.6903, 1473.516
532.1724, 1474.260
532.6545, 1474.787
533.1367, 1475.321
533.6188, 1475.986
534.1009, 1477.233
534.5830, 1480.229
535.0651, 1482.743
535.5472, 1483.869
536.0294, 1483.375
536.5115, 1483.312
536.9936, 1483.906
537.4757, 1484.629
537.9578, 1485.020
538.4399, 1485.019
538.9221, 1485.203
539.4042, 1485.853
539.8863, 1486.323
540.3684, 1485.028
540.8505, 1482.149
541.3326, 1479.854
541.8148, 1479.073
542.2969, 1479.390
542.7790, 1480.629
543.2611, 1482.601
543.7432, 1483.845
544.2253, 1482.640
544.7075, 1480.599
545.1896, 1479.419
545.6717, 1479.447
546.1538, 1479.685
546.6359, 1479.703
547.1180, 1479.654
547.6002, 1479.700
548.0823, 1479.355
548.5644, 1479.710
549.0465, 1481.445
549.5286, 1484.043
550.0107, 1485.987
550.4929, 1486.789
550.9750, 1487.686
551.4571, 1489.414
551.9392, 1491.981
552.4213, 1492.382
552.9034, 1490.084
553.3856, 1487.291
553.8677, 1485.824
554.3498, 1485.568
554.8319, 1484.987
555.3140, 1483.743
555.7961, 1482.837
556.2783, 1483.838
556.7604, 1486.269
557.2425, 1488.872
557.7246, 1492.091
558.2067, 1494.357
558.6888, 1493.451
559.1710, 1490.151
559.6531, 1487.065
560.1352, 1484.735
560.6173, 1483.616
561.0994, 1484.540
561.5815, 1487.892
562.0637, 1490.322
562.5458, 1490.291
563.0279, 1489.669
563.5100, 1489.843
563.9921, 1491.474
564.4742, 1492.743
564.9564, 1493.652
565.4385, 1494.113
565.9206, 1493.716
566.4027, 1492.146
566.8848, 1491.204
567.3669, 1491.356
567.8491, 1492.517
568.3312, 1494.842
568.8133, 1498.267
569.2954, 1501.397
569.7775, 1503.333
570.2596, 1504.351
570.7418, 1504.758
571.2239, 1504.568
571.7060, 1504.263
572.1881, 1503.964
572.6702, 1503.868
573.1523, 1504.311
573.6345, 1506.096
574.1166, 1507.125
574.5987, 1505.314
575.0808, 1502.497
575.5629, 1501.699
576.0450, 1506.883
576.5272, 1510.203
577.0093, 1509.599
577.4914, 1505.687
577.9735, 1502.148
578.4556, 1498.349
578.9377, 1496.338
579.4199, 1497.937
579.9020, 1503.238
580.3841, 1506.426
580.8662, 1507.369
581.3483, 1507.017
581.8304, 1505.756
582.3126, 1503.909
582.7947, 1502.628
583.2768, 1502.239
583.7589, 1502.121
584.2410, 1501.419
584.7231, 1500.503
585.2053, 1500.114
585.6874, 1500.445
586.1696, 1501.447
586.6517, 1503.755
587.1338, 1506.884
587.6159, 1508.816
588.0980, 1507.119
588.5801, 1505.748
589.0623, 1506.652
589.5444, 1510.246
590.0265, 1513.353
590.5086, 1516.515
590.9907, 1518.516
591.4728, 1518.116
591.9550, 1514.943
592.4371, 1511.823
592.9192, 1508.812
593.4013, 1506.428
593.8834, 1505.630
594.3655, 1506.275
594.8477, 1507.425
595.3298, 1509.190
595.8119, 1510.820
596.2940, 1511.063
596.7761, 1510.241
597.2582, 1509.436
597.7404, 1508.739
598.2225, 1508.598
598.7046, 1509.771
599.1867, 1512.235
599.6688, 1513.829
600.1509, 1512.949
600.6331, 1511.660
601.1152, 1511.317
601.5973, 1512.636
602.0794, 1513.193
602.5615, 1512.339
603.0436, 1511.340
603.5258, 1511.969
604.0079, 1514.761
604.4900, 1516.322
604.9721, 1515.969
605.4542, 1514.365
605.9363, 1511.956
606.4185, 1509.040
606.9006, 1508.049
607.3827, 1512.361
607.8648, 1517.861
608.3469, 1517.063
608.8290, 1511.183
609.3112, 1507.086
609.7933, 1510.917
610.2754, 1516.591
610.7575, 1519.428
611.2396, 1518.510
611.7217, 1517.461
612.2039, 1516.643
612.6860, 1516.427
613.1681, 1517.198
613.6502, 1520.509
614.1323, 1521.866
614.6144, 1519.990
615.0966, 1517.190
615.5787, 1517.308
616.0608, 1521.043
616.5429, 1523.088
617.0250, 1521.651
617.5071, 1518.484
617.9893, 1517.487
618.4714, 1518.500
618.9535, 1520.159
619.4356, 1522.767
619.9177, 1525.108
620.3998, 1525.145
620.8820, 1523.128
621.3641, 1521.376
621.8462, 1521.751
622.3283, 1522.466
622.8104, 1521.866
623.2925, 1519.023
623.7747, 1517.730
624.2568, 1520.043
624.7389, 1523.288
625.2210, 1525.340
625.7031, 1525.803
626.1852, 1525.839
626.6674, 1525.340
627.1495, 1524.616
627.6316, 1524.046
628.1137, 1523.612
628.5958, 1523.757
629.0779, 1524.656
629.5601, 1526.172
630.0422, 1528.773
630.5243, 1532.026
631.0064, 1533.940
631.4885, 1532.031
631.9706, 1529.227
632.4528, 1528.484
632.9349, 1529.725
633.4170, 1530.780
633.8991, 1530.288
634.3812, 1529.650
634.8633, 1529.791
635.3455, 1531.179
635.8276, 1532.155
636.3097, 1532.554
636.7918, 1532.632
637.2739, 1532.458
637.7560, 1531.785
638.2382, 1531.756
638.7203, 1532.423
639.2024, 1533.755
639.6845, 1536.225
640.1666, 1539.597
640.6487, 1541.951
641.1309, 1542.358
641.6130, 1541.953
642.0951, 1542.077
642.5772, 1542.639
643.0594, 1543.416
643.5415, 1544.748
644.0236, 1545.866
644.5057, 1546.731
644.9879, 1547.207
645.4700, 1546.172
645.9521, 1541.015
646.4342, 1536.514
646.9163, 1535.077
647.3984, 1537.375
647.8806, 1538.335
648.3627, 1537.661
648.8448, 1536.330
649.3269, 1534.938
649.8090, 1533.508
650.2911, 1532.572
650.7733, 1532.231
651.2554, 1532.111
651.7375, 1531.303
652.2196, 1530.370
652.7017, 1530.828
653.1838, 1533.722
653.6660, 1536.848
654.1481, 1538.014
654.6302, 1538.268
655.1123, 1539.507
655.5944, 1544.649
656.0765, 1548.356
656.5587, 1547.866
657.0408, 1544.201
657.5229, 1542.419
658.0050, 1543.637
658.4871, 1544.835
658.9692, 1544.903
659.4514, 1543.955
659.9335, 1543.233
660.4156, 1542.721
660.8977, 1542.584
661.3798, 1543.188
661.8619, 1544.252
662.3441, 1545.189
662.8262, 1545.986
663.3083, 1546.194
663.7904, 1544.458
664.2725, 1542.442
664.7546, 1542.135
665.2368, 1544.565
665.7189, 1547.073
666.2010, 1549.664
666.6831, 1551.531
