##NAMES=Bertrandite
##RRUFFID=R060800
##IDEAL CHEMISTRY=Be_4_Si_2_O_7_(OH)_2_
##LOCALITY=Golconda mine, Governador Valadares, Minas Gerais, Brazil
##OWNER=RRUFF
##SOURCE=Bob Jenkins
##DESCRIPTION=Colorless pseudohexagonal prisms
##STATUS=The identification of this mineral is confirmed by single-crystal X-ray diffraction and chemical analysis.
##URL=rruff.info/R060800
##MEASURED CHEMISTRY=Be_4.00_Si_2.00_O_7_(OH)_2_
172.1499, 14855.65
172.6321, 14855.41
173.1142, 14861.44
173.5963, 14892.06
174.0784, 14958.63
174.5605, 15043.67
175.0426, 15128.76
175.5248, 15214.29
176.0069, 15297.45
176.4890, 15371.18
176.9711, 15439.79
177.4532, 15522.88
177.9353, 15623.03
178.4175, 15742.37
178.8996, 15876.40
179.3817, 16024.78
179.8638, 16197.26
180.3459, 16399.21
180.8280, 16630.59
181.3102, 16886.10
181.7923, 17159.10
182.2744, 17467.35
182.7565, 17857.20
183.2386, 18322.72
183.7207, 18717.99
184.2029, 19007.86
184.6850, 19171.13
185.1671, 19058.77
185.6492, 18508.07
186.1313, 17823.14
186.6134, 17230.77
187.0956, 16735.18
187.5777, 16326.29
188.0598, 16009.43
188.5419, 15781.56
189.0240, 15617.16
189.5061, 15530.20
189.9883, 15494.35
190.4704, 15490.70
190.9525, 15516.23
191.4346, 15551.09
191.9167, 15573.13
192.3988, 15588.80
192.8810, 15642.58
193.3631, 15759.22
193.8452, 15892.03
194.3273, 15998.13
194.8094, 16086.32
195.2915, 16199.39
195.7737, 16357.58
196.2558, 16561.71
196.7379, 16818.08
197.2200, 17135.32
197.7021, 17501.34
198.1842, 17913.42
198.6664, 18362.75
199.1485, 18819.08
199.6306, 19239.06
200.1127, 19640.08
200.5948, 20131.57
201.0770, 20751.32
201.5591, 21415.42
202.0412, 22022.65
202.5233, 22617.43
203.0054, 23312.41
203.4875, 24203.63
203.9697, 25256.78
204.4518, 26314.33
204.9339, 27341.20
205.4160, 28428.39
205.8981, 29668.44
206.3802, 30996.38
206.8624, 32306.19
207.3445, 33934.99
207.8266, 35472.65
208.3087, 35483.43
208.7908, 33461.88
209.2729, 30745.71
209.7551, 27571.27
210.2372, 24288.90
210.7193, 21540.57
211.2014, 19674.64
211.6835, 18513.67
212.1656, 17651.86
212.6478, 17162.05
213.1299, 16829.82
213.6120, 16594.20
214.0941, 16428.33
214.5762, 16297.92
215.0583, 16193.71
215.5405, 16114.86
216.0226, 16060.59
216.5047, 16030.67
216.9868, 16027.80
217.4689, 16065.37
217.9510, 16125.26
218.4332, 16186.58
218.9153, 16237.43
219.3974, 16294.98
219.8795, 16387.31
220.3616, 16519.59
220.8437, 16670.00
221.3259, 16845.84
221.8080, 17028.82
222.2901, 17194.90
222.7722, 17329.51
223.2543, 17472.81
223.7364, 17681.75
224.2186, 17964.60
224.7007, 18262.92
225.1828, 18550.70
225.6649, 18851.59
226.1470, 19176.82
226.6291, 19521.76
227.1113, 19922.64
227.5934, 20443.26
228.0755, 21087.05
228.5576, 21733.30
229.0397, 22544.88
229.5218, 23182.17
230.0040, 23352.54
230.4861, 23015.58
230.9682, 22391.39
231.4503, 21539.83
231.9324, 20484.54
232.4145, 19565.96
232.8967, 18849.92
233.3788, 18320.22
233.8609, 17942.72
234.3430, 17718.67
234.8251, 17596.71
235.3072, 17557.89
235.7894, 17597.96
236.2715, 17699.39
236.7536, 17873.40
237.2357, 18094.54
237.7178, 18350.51
238.1999, 18635.09
238.6821, 18917.80
239.1642, 19158.45
239.6463, 19385.64
240.1284, 19706.75
240.6105, 20192.45
241.0926, 20629.59
241.5748, 20907.42
242.0569, 21023.10
242.5390, 20891.71
243.0211, 20359.63
243.5032, 19603.17
243.9853, 18868.75
244.4675, 18150.32
244.9496, 17531.02
245.4317, 17106.53
245.9138, 16831.91
246.3959, 16625.76
246.8780, 16499.93
247.3602, 16417.73
247.8423, 16343.80
248.3244, 16278.36
248.8065, 16221.94
249.2886, 16175.96
249.7707, 16140.02
250.2529, 16110.56
250.7350, 16090.27
251.2171, 16073.31
251.6992, 16051.17
252.1813, 16025.89
252.6634, 16013.98
253.1456, 16028.99
253.6277, 16058.17
254.1098, 16071.67
254.5919, 16066.34
255.0740, 16052.09
255.5561, 16023.78
256.0382, 15989.16
256.5204, 15970.40
257.0025, 15976.31
257.4846, 16000.32
257.9667, 16035.15
258.4488, 16087.65
258.9309, 16127.06
259.4131, 16140.78
259.8952, 16136.95
260.3773, 16125.76
260.8594, 16109.00
261.3415, 16091.49
261.8236, 16078.92
262.3058, 16070.56
262.7879, 16071.31
263.2700, 16095.13
263.7521, 16121.03
264.2342, 16122.88
264.7163, 16098.21
265.1985, 16073.82
265.6806, 16080.17
266.1627, 16125.46
266.6448, 16140.33
267.1269, 16097.17
267.6090, 16047.87
268.0912, 16028.63
268.5733, 16035.72
269.0554, 16040.07
269.5375, 16017.49
270.0196, 15968.97
270.5017, 15942.76
270.9839, 15959.45
271.4660, 15971.84
271.9481, 15955.91
272.4302, 15923.66
272.9123, 15900.84
273.3944, 15902.43
273.8766, 15922.91
274.3587, 15939.08
274.8408, 15950.57
275.3229, 15957.75
275.8050, 15953.98
276.2871, 15948.20
276.7693, 15952.73
277.2514, 15972.08
277.7335, 15997.58
278.2156, 16010.81
278.6977, 15994.43
279.1798, 15994.40
279.6620, 16022.44
280.1441, 16057.65
280.6262, 16086.91
281.1083, 16106.46
281.5904, 16117.57
282.0725, 16121.32
282.5547, 16116.85
283.0368, 16107.56
283.5189, 16080.86
284.0010, 16060.65
284.4831, 16059.99
284.9652, 16076.48
285.4474, 16100.54
285.9295, 16129.20
286.4116, 16161.38
286.8937, 16164.81
287.3758, 16107.58
287.8579, 16058.67
288.3401, 16041.59
288.8222, 16047.45
289.3043, 16057.24
289.7864, 16055.61
290.2685, 16058.29
290.7506, 16123.03
291.2328, 16301.74
291.7149, 16425.66
292.1970, 16397.71
292.6791, 16314.86
293.1612, 16268.84
293.6433, 16288.23
294.1255, 16344.44
294.6076, 16405.86
295.0897, 16472.88
295.5718, 16541.94
296.0539, 16606.91
296.5360, 16678.84
297.0182, 16766.51
297.5003, 16870.57
297.9824, 16986.59
298.4645, 17104.28
298.9466, 17228.97
299.4287, 17389.91
299.9109, 17609.90
300.3930, 17833.12
300.8751, 18045.98
301.3572, 18236.86
301.8393, 18315.79
302.3214, 18219.54
302.8036, 18005.06
303.2857, 17726.52
303.7678, 17380.13
304.2499, 17047.42
304.7320, 16776.47
305.2141, 16570.11
305.6963, 16421.36
306.1784, 16356.25
306.6605, 16325.74
307.1426, 16305.87
307.6247, 16294.65
308.1068, 16286.41
308.5890, 16280.92
309.0711, 16274.11
309.5532, 16252.01
310.0353, 16203.21
310.5174, 16160.90
310.9995, 16138.84
311.4817, 16127.04
311.9638, 16111.38
312.4459, 16087.49
312.9280, 16060.26
313.4101, 16037.51
313.8922, 16023.38
314.3744, 16004.18
314.8565, 15965.19
315.3386, 15932.19
315.8207, 15932.86
316.3028, 15963.42
316.7849, 15991.10
317.2671, 15983.56
317.7492, 15937.24
318.2313, 15909.82
318.7134, 15914.40
319.1955, 15922.78
319.6776, 15931.36
320.1598, 15936.86
320.6419, 15931.27
321.1240, 15907.66
321.6061, 15877.37
322.0882, 15881.32
322.5703, 15937.91
323.0525, 16001.19
323.5346, 16076.01
324.0167, 16146.43
324.4988, 16193.63
324.9809, 16213.35
325.4630, 16224.38
325.9452, 16252.88
326.4273, 16301.82
326.9094, 16350.41
327.3915, 16395.41
327.8736, 16440.31
328.3557, 16486.25
328.8379, 16533.47
329.3200, 16582.43
329.8021, 16644.70
330.2842, 16711.07
330.7663, 16745.17
331.2484, 16748.51
331.7306, 16713.40
332.2127, 16611.97
332.6948, 16473.61
333.1769, 16346.36
333.6590, 16247.43
334.1411, 16163.84
334.6233, 16079.16
335.1054, 15994.25
335.5875, 15926.44
336.0696, 15884.31
336.5517, 15864.75
337.0338, 15862.23
337.5160, 15888.61
337.9981, 15899.84
338.4802, 15858.40
338.9623, 15792.14
339.4444, 15755.99
339.9265, 15765.54
340.4087, 15793.29
340.8908, 15806.52
341.3729, 15801.27
341.8550, 15799.69
342.3371, 15816.92
342.8192, 15826.89
343.3014, 15794.54
343.7835, 15730.46
344.2656, 15690.20
344.7477, 15721.05
345.2298, 15814.52
345.7119, 15858.04
346.1941, 15780.38
346.6762, 15738.27
347.1583, 15792.45
347.6404, 15892.53
348.1225, 15967.67
348.6046, 15989.29
349.0868, 15985.22
349.5689, 16010.80
350.0510, 16084.11
350.5331, 16148.73
351.0152, 16172.69
351.4973, 16211.06
351.9795, 16313.53
352.4616, 16472.79
352.9437, 16629.53
353.4258, 16720.15
353.9079, 16749.13
354.3900, 16816.75
354.8722, 16941.92
355.3543, 17081.25
355.8364, 17205.69
356.3185, 17330.34
356.8006, 17480.86
357.2827, 17671.09
357.7649, 17887.09
358.2470, 18122.25
358.7291, 18379.63
359.2112, 18615.19
359.6933, 18853.02
360.1754, 19026.03
360.6576, 19059.67
361.1397, 18942.67
361.6218, 18735.01
362.1039, 18393.46
362.5860, 17993.27
363.0681, 17690.26
363.5503, 17516.46
364.0324, 17426.31
364.5145, 17409.58
364.9966, 17470.31
365.4787, 17427.92
365.9608, 17214.25
366.4430, 16944.58
366.9251, 16664.06
367.4072, 16388.92
367.8893, 16153.69
368.3714, 15978.54
368.8535, 15858.01
369.3357, 15768.66
369.8178, 15724.80
370.2999, 15695.61
370.7820, 15683.71
371.2641, 15682.83
371.7462, 15688.20
372.2284, 15698.02
372.7105, 15711.56
373.1926, 15730.68
373.6747, 15760.89
374.1568, 15771.93
374.6389, 15740.91
375.1211, 15711.92
375.6032, 15711.16
376.0853, 15725.62
376.5674, 15720.32
377.0495, 15664.40
377.5316, 15584.67
378.0138, 15562.76
378.4959, 15620.45
378.9780, 15672.15
379.4601, 15679.44
379.9422, 15669.87
380.4243, 15667.37
380.9065, 15677.01
381.3886, 15685.67
381.8707, 15677.92
382.3528, 15659.49
382.8349, 15655.18
383.3170, 15673.40
383.7992, 15696.90
384.2813, 15702.54
384.7634, 15694.07
385.2455, 15704.24
385.7276, 15765.16
386.2097, 15827.27
386.6919, 15842.97
387.1740, 15818.74
387.6561, 15795.67
388.1382, 15797.81
388.6203, 15816.52
389.1024, 15819.29
389.5846, 15792.86
390.0667, 15768.72
390.5488, 15751.64
391.0309, 15737.62
391.5130, 15726.82
391.9951, 15717.36
392.4773, 15698.11
392.9594, 15650.04
393.4415, 15561.95
393.9236, 15514.30
394.4057, 15550.17
394.8878, 15584.65
395.3700, 15585.95
395.8521, 15566.35
396.3342, 15553.38
396.8163, 15564.47
397.2984, 15583.61
397.7805, 15569.83
398.2627, 15510.07
398.7448, 15468.36
399.2269, 15488.95
399.7090, 15516.54
400.1911, 15502.63
400.6732, 15442.68
401.1554, 15378.78
401.6375, 15333.60
402.1196, 15304.52
402.6017, 15285.31
403.0838, 15275.09
403.5659, 15276.89
404.0481, 15304.37
404.5302, 15348.76
405.0123, 15362.20
405.4944, 15310.30
405.9765, 15259.00
406.4586, 15250.23
406.9408, 15268.43
407.4229, 15276.95
407.9050, 15261.07
408.3871, 15232.28
408.8692, 15210.29
409.3513, 15192.35
409.8335, 15189.48
410.3156, 15222.70
410.7977, 15253.11
411.2798, 15246.96
411.7619, 15212.19
412.2440, 15184.13
412.7262, 15190.20
413.2083, 15225.37
413.6904, 15257.13
414.1725, 15285.72
414.6546, 15309.51
415.1367, 15337.68
415.6189, 15356.55
416.1010, 15344.14
416.5831, 15293.92
417.0652, 15246.46
417.5473, 15253.64
418.0294, 15307.10
418.5116, 15330.61
418.9937, 15303.98
419.4758, 15264.95
419.9579, 15238.16
420.4400, 15223.18
420.9221, 15223.13
421.4043, 15258.11
421.8864, 15292.99
422.3685, 15295.42
422.8506, 15271.19
423.3327, 15244.20
423.8148, 15224.75
424.2970, 15210.05
424.7791, 15194.13
425.2612, 15175.05
425.7433, 15158.91
426.2254, 15149.46
426.7076, 15140.70
427.1897, 15121.56
427.6718, 15095.89
428.1539, 15084.93
428.6360, 15110.89
429.1181, 15167.91
429.6003, 15188.35
430.0824, 15145.50
430.5645, 15102.28
431.0466, 15064.26
431.5287, 15036.02
432.0108, 15027.13
432.4930, 15040.10
432.9751, 15052.99
433.4572, 15039.59
433.9393, 15001.77
434.4214, 14962.89
434.9035, 14920.34
435.3857, 14886.40
435.8678, 14876.38
436.3499, 14882.85
436.8320, 14885.05
437.3141, 14857.78
437.7962, 14840.66
438.2784, 14887.15
438.7605, 14977.55
439.2426, 15029.02
439.7247, 15002.29
440.2068, 14938.15
440.6889, 14911.65
441.1711, 14940.44
441.6532, 14969.17
442.1353, 14998.31
442.6174, 15025.47
443.0995, 15048.69
443.5816, 15068.23
444.0638, 15084.92
444.5459, 15098.73
445.0280, 15110.85
445.5101, 15127.91
445.9922, 15154.44
446.4743, 15177.52
446.9565, 15190.31
447.4386, 15201.69
447.9207, 15223.27
448.4028, 15255.77
448.8849, 15281.44
449.3670, 15286.46
449.8492, 15272.32
450.3313, 15244.23
450.8134, 15201.41
451.2955, 15148.75
451.7776, 15083.13
452.2597, 15010.24
452.7419, 14943.75
453.2240, 14883.26
453.7061, 14832.15
454.1882, 14791.68
454.6703, 14762.16
455.1524, 14749.28
455.6346, 14755.08
456.1167, 14759.94
456.5988, 14737.28
457.0809, 14678.24
457.5630, 14633.62
458.0451, 14598.54
458.5273, 14579.92
459.0093, 14598.24
459.4915, 14631.42
459.9736, 14636.95
460.4557, 14592.60
460.9378, 14530.63
461.4199, 14520.04
461.9020, 14577.47
462.3842, 14607.93
462.8663, 14570.95
463.3484, 14528.47
463.8305, 14524.86
464.3126, 14552.88
464.7947, 14574.64
465.2769, 14564.15
465.7590, 14542.17
466.2411, 14539.78
466.7232, 14555.63
467.2053, 14565.05
467.6874, 14556.19
468.1696, 14536.20
468.6517, 14518.77
469.1338, 14501.38
469.6159, 14492.49
470.0980, 14510.41
470.5801, 14524.98
471.0623, 14499.31
471.5444, 14441.37
472.0265, 14395.57
472.5086, 14396.38
472.9907, 14434.05
473.4728, 14456.70
473.9550, 14464.86
474.4371, 14455.27
474.9192, 14411.29
475.4013, 14362.83
475.8834, 14331.19
476.3655, 14320.48
476.8477, 14326.90
477.3298, 14362.08
477.8119, 14412.80
478.2940, 14428.35
478.7761, 14400.21
479.2582, 14368.60
479.7404, 14354.14
480.2225, 14353.35
480.7046, 14356.69
481.1867, 14370.11
481.6688, 14376.37
482.1509, 14354.84
482.6331, 14328.16
483.1152, 14332.73
483.5973, 14372.72
484.0794, 14417.43
484.5615, 14437.06
485.0436, 14431.77
485.5258, 14435.33
486.0079, 14452.14
486.4900, 14473.22
486.9721, 14483.45
487.4542, 14503.77
487.9363, 14570.14
488.4185, 14688.78
488.9006, 14804.56
489.3827, 14850.07
489.8648, 14831.89
490.3469, 14827.92
490.8290, 14854.15
491.3112, 14868.99
491.7933, 14833.24
492.2754, 14768.47
492.7575, 14714.83
493.2396, 14672.53
493.7217, 14650.27
494.2039, 14665.19
494.6860, 14700.63
495.1681, 14722.79
495.6502, 14723.91
496.1323, 14726.32
496.6144, 14755.16
497.0966, 14813.34
497.5787, 14865.40
498.0608, 14915.10
498.5429, 14954.94
499.0250, 14990.59
499.5071, 15011.94
499.9893, 15006.96
500.4714, 14971.71
500.9535, 14909.89
501.4356, 14815.56
501.9177, 14689.59
502.3998, 14579.98
502.8820, 14491.94
503.3641, 14416.03
503.8462, 14346.94
504.3283, 14285.05
504.8104, 14232.01
505.2925, 14184.00
505.7747, 14151.01
506.2568, 14154.44
506.7389, 14174.14
507.2210, 14164.00
507.7031, 14113.09
508.1852, 14057.35
508.6674, 14037.03
509.1495, 14055.72
509.6316, 14063.07
510.1137, 14053.66
510.5958, 14039.85
511.0779, 14014.97
511.5601, 13991.54
512.0422, 13987.69
512.5243, 14008.13
513.0064, 14035.04
513.4885, 14049.03
513.9706, 14050.59
514.4528, 14049.95
514.9349, 14051.87
515.4170, 14041.82
515.8991, 13991.47
516.3812, 13925.93
516.8633, 13898.46
517.3455, 13940.10
517.8276, 13978.15
518.3097, 13963.49
518.7918, 13924.75
519.2739, 13913.08
519.7560, 13936.52
520.2382, 13957.77
520.7203, 13937.86
521.2024, 13877.92
521.6845, 13845.07
522.1666, 13868.06
522.6487, 13884.96
523.1309, 13879.84
523.6130, 13867.82
524.0951, 13865.53
524.5772, 13875.98
525.0593, 13887.88
525.5414, 13893.55
526.0236, 13892.44
526.5057, 13878.54
526.9878, 13847.33
527.4699, 13823.08
527.9520, 13821.50
528.4341, 13835.40
528.9163, 13846.54
529.3984, 13855.22
529.8805, 13860.93
530.3626, 13860.75
530.8447, 13859.48
531.3268, 13861.49
531.8090, 13867.57
532.2911, 13876.58
532.7732, 13886.83
533.2553, 13900.43
533.7374, 13929.56
534.2195, 13989.26
534.7017, 14035.66
535.1838, 14041.86
535.6659, 14048.60
536.1480, 14083.81
536.6301, 14148.40
537.1122, 14228.37
537.5944, 14331.45
538.0765, 14436.68
538.5586, 14506.33
539.0407, 14541.80
539.5228, 14573.11
540.0049, 14615.98
540.4871, 14655.61
540.9692, 14668.56
541.4513, 14656.36
541.9334, 14609.72
542.4155, 14512.36
542.8976, 14394.76
543.3798, 14260.90
543.8619, 14123.34
544.3440, 14000.41
544.8261, 13901.48
545.3082, 13826.03
545.7903, 13780.32
546.2725, 13770.15
546.7546, 13748.36
547.2367, 13697.98
547.7188, 13651.24
548.2009, 13638.39
548.6830, 13645.45
549.1652, 13634.04
549.6473, 13581.99
550.1294, 13525.39
550.6115, 13478.49
551.0936, 13447.37
551.5757, 13453.13
552.0579, 13500.11
552.5400, 13552.24
553.0221, 13571.93
553.5042, 13558.27
553.9863, 13539.58
554.4684, 13505.79
554.9506, 13478.93
555.4327, 13463.90
555.9148, 13456.92
556.3969, 13456.92
556.8790, 13462.64
557.3611, 13465.44
557.8433, 13451.26
558.3254, 13428.89
558.8075, 13428.70
559.2896, 13454.19
559.7717, 13477.54
560.2538, 13485.64
560.7360, 13481.93
561.2181, 13471.75
561.7002, 13448.19
562.1823, 13437.17
562.6644, 13464.04
563.1465, 13487.42
563.6287, 13463.38
564.1108, 13406.47
564.5929, 13366.53
565.0750, 13373.09
565.5571, 13407.00
566.0392, 13429.03
566.5214, 13439.41
567.0035, 13434.46
567.4856, 13398.39
567.9677, 13364.86
568.4498, 13363.04
568.9319, 13382.91
569.4141, 13391.18
569.8962, 13354.43
570.3783, 13332.90
570.8604, 13386.53
571.3425, 13482.83
571.8246, 13556.87
572.3068, 13592.57
572.7889, 13610.46
573.2710, 13628.45
573.7531, 13646.46
574.2352, 13684.86
574.7173, 13771.79
575.1995, 13841.33
575.6816, 13857.41
576.1637, 13866.83
576.6458, 13919.85
577.1279, 14021.42
577.6100, 14127.98
578.0922, 14218.07
578.5743, 14288.79
579.0564, 14335.80
579.5385, 14358.87
580.0206, 14357.67
580.5027, 14334.89
580.9849, 14282.07
581.4670, 14179.52
581.9491, 13996.21
582.4312, 13840.24
582.9133, 13721.75
583.3954, 13620.67
583.8776, 13530.78
584.3597, 13449.59
584.8418, 13370.65
585.3239, 13291.00
585.8060, 13224.74
586.2881, 13202.37
586.7703, 13220.50
587.2524, 13210.52
587.7345, 13154.79
588.2166, 13100.96
588.6987, 13084.37
589.1808, 13093.83
589.6630, 13091.89
590.1451, 13072.26
590.6272, 13050.64
591.1093, 13025.86
591.5914, 13005.12
592.0735, 12999.29
592.5557, 13006.29
593.0378, 13012.37
593.5199, 13007.28
594.0020, 12995.56
594.4841, 12993.92
594.9662, 13008.28
595.4484, 13009.80
595.9305, 12980.06
596.4126, 12949.49
596.8947, 12946.66
597.3768, 12964.45
597.8589, 12970.08
598.3411, 12934.81
598.8232, 12903.86
599.3053, 12919.47
599.7874, 12958.76
600.2695, 12978.68
600.7516, 12968.43
601.2338, 12942.56
601.7159, 12913.89
602.1980, 12882.90
602.6801, 12859.46
603.1622, 12846.87
603.6443, 12837.12
604.1265, 12827.00
604.6086, 12819.75
605.0907, 12821.35
605.5728, 12831.08
606.0549, 12835.62
606.5370, 12823.37
607.0192, 12805.14
607.5013, 12787.08
607.9834, 12773.13
608.4655, 12785.78
608.9476, 12836.60
609.4297, 12892.98
609.9119, 12905.68
610.3940, 12865.83
610.8761, 12828.46
611.3582, 12780.84
611.8403, 12750.10
612.3224, 12755.89
612.8046, 12776.77
613.2867, 12785.58
613.7688, 12776.10
614.2509, 12766.18
614.7330, 12777.38
615.2151, 12795.40
615.6973, 12785.71
616.1794, 12748.70
616.6615, 12717.07
617.1436, 12706.03
617.6257, 12712.65
618.1078, 12733.66
618.5900, 12785.35
619.0721, 12809.70
619.5542, 12782.59
620.0363, 12755.71
620.5184, 12756.25
621.0005, 12771.68
621.4827, 12777.89
621.9648, 12765.64
622.4469, 12751.89
622.9290, 12753.02
623.4111, 12766.57
623.8932, 12792.38
624.3754, 12832.60
624.8575, 12850.26
625.3396, 12819.45
625.8217, 12754.60
626.3038, 12695.65
626.7859, 12636.47
627.2681, 12594.29
627.7502, 12572.44
628.2323, 12565.20
628.7144, 12582.72
629.1965, 12610.38
629.6786, 12617.09
630.1608, 12586.53
630.6429, 12547.43
631.1250, 12535.16
631.6071, 12545.59
632.0892, 12564.04
632.5714, 12593.20
633.0535, 12598.86
633.5356, 12548.18
634.0177, 12460.31
634.4998, 12406.85
634.9819, 12409.51
635.4641, 12410.09
635.9462, 12397.34
636.4283, 12387.68
636.9104, 12396.59
637.3925, 12417.76
637.8746, 12433.61
638.3568, 12434.96
638.8389, 12429.04
639.3210, 12426.08
639.8031, 12424.94
640.2852, 12417.79
640.7673, 12402.44
641.2495, 12386.08
641.7316, 12372.67
642.2137, 12362.46
642.6958, 12356.97
643.1779, 12363.46
643.6600, 12363.81
644.1422, 12273.00
644.6243, 12347.00
645.1064, 12386.03
645.5885, 12391.98
646.0706, 12265.75
646.5527, 12310.20
647.0349, 12286.25
647.5170, 12259.49
647.9991, 12327.96
648.4812, 12220.96
648.9633, 12287.92
649.4454, 12285.43
649.9276, 12314.73
650.4097, 12275.21
650.8918, 12256.94
651.3739, 12307.52
651.8560, 12319.98
652.3381, 12272.54
652.8203, 12251.87
653.3024, 12222.19
653.7845, 12183.42
654.2666, 12176.76
654.7487, 12230.44
655.2308, 12295.49
655.7130, 12308.26
656.1951, 12277.90
656.6772, 12239.42
657.1593, 12195.89
657.6414, 12163.87
658.1235, 12158.60
658.6057, 12172.28
659.0878, 12173.19
659.5699, 12145.01
660.0520, 12127.40
660.5341, 12128.43
661.0162, 12132.75
661.4984, 12131.48
661.9805, 12125.98
662.4626, 12121.53
662.9447, 12120.89
663.4268, 12120.06
663.9089, 12109.40
664.3911, 12095.85
664.8732, 12108.70
665.3553, 12150.99
665.8374, 12166.35
666.3195, 12108.63
666.8016, 12011.66
667.2838, 11982.04
667.7659, 12078.25
668.2480, 12133.05
