##NAMES=Berthierine
##RRUFFID=R110177
##IDEAL CHEMISTRY=(Fe^2+^,Fe^3+^,Al)_3_(Si,Al)_2_O_5_(OH)_4_
##LOCALITY=DeMix quarry, Mont St-Hilaire, Quebec
##OWNER=RRUFF
##SOURCE=Donald Doell
##DESCRIPTION=Hexagonal prisms, with gray transparent terminations. We sample the terminations.
##STATUS=The identification of this mineral has been confirmed only by single crystal X-ray diffraction.
##URL=rruff.info/R110177
187.0626, 1040.121
187.5447, 1047.254
188.0269, 1050.433
188.5090, 1048.830
188.9911, 1047.608
189.4732, 1048.368
189.9553, 1050.161
190.4374, 1051.121
190.9196, 1050.375
191.4017, 1049.414
191.8838, 1050.468
192.3659, 1053.513
192.8480, 1057.078
193.3301, 1061.075
193.8123, 1065.183
194.2944, 1068.195
194.7765, 1069.467
195.2586, 1069.841
195.7407, 1070.056
196.2228, 1070.100
196.7050, 1070.686
197.1871, 1072.833
197.6692, 1076.437
198.1513, 1079.125
198.6334, 1080.094
199.1155, 1080.204
199.5977, 1079.634
200.0798, 1078.507
200.5619, 1077.769
201.0440, 1078.910
201.5261, 1082.476
202.0082, 1084.304
202.4904, 1080.811
202.9725, 1077.643
203.4546, 1077.990
203.9367, 1082.062
204.4188, 1087.603
204.9009, 1092.097
205.3831, 1095.611
205.8652, 1097.728
206.3473, 1097.179
206.8294, 1096.305
207.3115, 1096.469
207.7936, 1097.865
208.2758, 1099.768
208.7579, 1101.167
209.2400, 1101.814
209.7221, 1102.452
210.2042, 1103.286
210.6863, 1103.973
211.1685, 1103.897
211.6506, 1103.108
212.1327, 1102.607
212.6148, 1103.981
213.0969, 1108.794
213.5790, 1112.180
214.0612, 1113.398
214.5433, 1113.764
215.0254, 1114.030
215.5075, 1114.444
215.9896, 1115.316
216.4717, 1117.160
216.9539, 1120.656
217.4360, 1123.542
217.9181, 1125.351
218.4002, 1126.755
218.8823, 1128.584
219.3644, 1131.038
219.8466, 1133.350
220.3287, 1134.108
220.8108, 1132.774
221.2929, 1133.034
221.7750, 1136.637
222.2571, 1141.620
222.7393, 1145.497
223.2214, 1147.663
223.7035, 1149.234
224.1856, 1151.624
224.6677, 1154.762
225.1498, 1157.604
225.6320, 1159.693
226.1141, 1161.369
226.5962, 1163.075
227.0783, 1164.779
227.5604, 1166.844
228.0425, 1169.973
228.5247, 1173.887
229.0068, 1177.563
229.4889, 1180.576
229.9710, 1183.050
230.4531, 1185.136
230.9352, 1186.522
231.4174, 1188.196
231.8995, 1191.551
232.3816, 1195.887
232.8637, 1199.194
233.3458, 1199.314
233.8279, 1197.536
234.3101, 1198.278
234.7922, 1202.779
235.2743, 1207.979
235.7564, 1212.414
236.2385, 1216.173
236.7206, 1219.409
237.2028, 1221.931
237.6849, 1223.959
238.1670, 1226.556
238.6491, 1230.217
239.1312, 1233.712
239.6133, 1236.467
240.0955, 1238.758
240.5776, 1240.983
241.0597, 1243.073
241.5418, 1245.350
242.0239, 1249.591
242.5060, 1258.514
242.9882, 1265.625
243.4703, 1267.925
243.9524, 1267.639
244.4345, 1268.113
244.9166, 1271.424
245.3987, 1276.787
245.8809, 1280.313
246.3630, 1279.555
246.8451, 1280.103
247.3272, 1284.191
247.8093, 1289.872
248.2914, 1294.649
248.7736, 1297.165
249.2557, 1297.838
249.7378, 1298.321
250.2199, 1298.078
250.7020, 1298.342
251.1841, 1299.415
251.6663, 1301.016
252.1484, 1303.041
252.6305, 1305.471
253.1126, 1307.864
253.5947, 1308.838
254.0768, 1306.939
254.5590, 1305.237
255.0411, 1304.257
255.5232, 1303.446
256.0053, 1302.020
256.4874, 1299.661
256.9695, 1296.896
257.4517, 1295.001
257.9338, 1295.104
258.4159, 1294.772
258.8980, 1294.289
259.3801, 1293.232
259.8622, 1290.876
260.3444, 1287.002
260.8265, 1282.458
261.3086, 1278.866
261.7907, 1277.296
262.2728, 1274.953
262.7549, 1271.643
263.2371, 1267.602
263.7192, 1262.894
264.2013, 1257.551
264.6834, 1251.987
265.1655, 1246.787
265.6476, 1242.043
266.1298, 1237.576
266.6119, 1234.467
267.0940, 1231.021
267.5761, 1225.027
268.0582, 1216.152
268.5403, 1207.063
269.0225, 1201.096
269.5046, 1199.301
269.9867, 1196.031
270.4688, 1190.496
270.9509, 1183.880
271.4330, 1176.678
271.9152, 1169.078
272.3973, 1162.105
272.8794, 1156.946
273.3615, 1153.772
273.8436, 1150.309
274.3257, 1147.201
274.8079, 1143.288
275.2900, 1136.978
275.7721, 1128.384
276.2542, 1120.174
276.7363, 1114.244
277.2184, 1110.645
277.7006, 1107.484
278.1827, 1105.200
278.6648, 1103.023
279.1469, 1100.521
279.6290, 1097.691
280.1111, 1094.537
280.5933, 1090.961
281.0754, 1087.077
281.5575, 1083.303
282.0396, 1079.606
282.5217, 1076.073
283.0038, 1072.651
283.4860, 1069.394
283.9681, 1066.567
284.4502, 1064.443
284.9323, 1062.722
285.4144, 1060.906
285.8965, 1059.382
286.3787, 1056.902
286.8608, 1051.538
287.3429, 1044.361
287.8250, 1039.314
288.3071, 1038.107
288.7892, 1039.099
289.2714, 1040.340
289.7535, 1042.107
290.2356, 1042.302
290.7177, 1038.979
291.1998, 1033.306
291.6819, 1028.093
292.1641, 1023.543
292.6462, 1020.450
293.1283, 1020.821
293.6104, 1024.157
294.0925, 1025.796
294.5746, 1022.564
295.0568, 1016.608
295.5389, 1012.447
296.0210, 1011.151
296.5031, 1010.006
296.9852, 1005.667
297.4673, 999.4053
297.9495, 994.8521
298.4316, 994.6914
298.9137, 996.3419
299.3958, 996.0896
299.8779, 993.7179
300.3600, 990.0477
300.8422, 984.3984
301.3243, 977.9695
301.8064, 973.0358
302.2885, 970.9332
302.7706, 969.6487
303.2527, 966.6417
303.7349, 961.7546
304.2170, 957.2711
304.6991, 954.8379
305.1812, 953.1588
305.6633, 950.3239
306.1454, 945.6453
306.6276, 940.9637
307.1097, 938.2203
307.5918, 937.2891
308.0739, 935.7777
308.5560, 932.4219
309.0381, 928.6066
309.5203, 926.0012
310.0024, 924.7371
310.4845, 923.5998
310.9666, 922.1611
311.4487, 920.2831
311.9308, 916.8950
312.4130, 910.3871
312.8951, 904.4449
313.3772, 903.1823
313.8593, 905.8780
314.3414, 907.9473
314.8235, 906.5461
315.3057, 902.8594
315.7878, 899.9955
316.2699, 898.5207
316.7520, 897.1319
317.2341, 894.5167
317.7162, 891.2590
318.1984, 888.6553
318.6805, 887.5507
319.1626, 887.2071
319.6447, 886.4599
320.1268, 885.2319
320.6089, 884.0102
321.0911, 883.0983
321.5732, 882.3561
322.0553, 881.5803
322.5374, 880.6418
323.0195, 879.8015
323.5016, 879.7706
323.9838, 880.5663
324.4659, 880.0898
324.9480, 876.4643
325.4301, 871.8975
325.9122, 869.0311
326.3943, 868.0964
326.8765, 868.2424
327.3586, 869.2118
327.8407, 870.8683
328.3228, 872.5201
328.8049, 874.2842
329.2870, 875.5720
329.7692, 875.8627
330.2513, 875.2131
330.7334, 873.9601
331.2155, 871.3482
331.6976, 868.3291
332.1797, 867.4237
332.6619, 869.4630
333.1440, 872.0154
333.6261, 873.2202
334.1082, 873.4246
334.5903, 873.2764
335.0724, 872.4501
335.5546, 871.6281
336.0367, 871.6777
336.5188, 872.6276
337.0009, 874.2344
337.4830, 877.1178
337.9651, 880.3318
338.4473, 881.9789
338.9294, 880.9767
339.4115, 879.7695
339.8936, 880.4698
340.3757, 882.8438
340.8578, 885.1259
341.3400, 886.7112
341.8221, 887.8427
342.3042, 888.8528
342.7863, 889.6737
343.2684, 890.7431
343.7505, 892.4294
344.2327, 894.5161
344.7148, 896.6340
345.1969, 898.8889
345.6790, 900.6606
346.1611, 900.4220
346.6432, 898.5566
347.1254, 898.1049
347.6075, 900.8968
348.0896, 905.0176
348.5717, 908.1741
349.0538, 910.1744
349.5359, 911.6398
350.0181, 912.6895
350.5002, 913.5693
350.9823, 915.2615
351.4644, 918.9559
351.9465, 922.4938
352.4286, 924.0914
352.9108, 924.1207
353.3929, 924.3226
353.8750, 925.3670
354.3571, 927.2914
354.8392, 930.1771
355.3214, 934.2056
355.8035, 938.5676
356.2856, 943.8019
356.7677, 949.0165
357.2498, 952.2007
357.7319, 952.5402
358.2141, 952.1203
358.6962, 954.0499
359.1783, 958.8286
359.6604, 962.7426
360.1425, 964.7578
360.6246, 966.1324
361.1068, 967.7968
361.5889, 969.9207
362.0710, 972.6559
362.5531, 976.2846
363.0352, 980.8007
363.5173, 984.7550
363.9995, 987.4532
364.4816, 990.3496
364.9637, 994.3954
365.4458, 999.2020
365.9279, 1003.596
366.4100, 1006.841
366.8922, 1009.545
367.3743, 1013.714
367.8564, 1021.241
368.3385, 1027.457
368.8206, 1030.741
369.3027, 1032.844
369.7849, 1035.739
370.2670, 1039.962
370.7491, 1044.824
371.2312, 1049.437
371.7133, 1053.838
372.1954, 1057.672
372.6776, 1061.151
373.1597, 1063.934
373.6418, 1065.520
374.1239, 1066.133
374.6060, 1066.664
375.0881, 1067.896
375.5703, 1069.781
376.0524, 1070.716
376.5345, 1070.337
377.0166, 1069.478
377.4987, 1068.392
377.9808, 1066.920
378.4630, 1064.562
378.9451, 1061.083
379.4272, 1057.196
379.9093, 1054.759
380.3914, 1055.816
380.8735, 1054.806
381.3557, 1050.747
381.8378, 1045.362
382.3199, 1039.247
382.8020, 1032.837
383.2841, 1027.167
383.7662, 1023.686
384.2484, 1022.850
384.7305, 1020.886
385.2126, 1017.036
385.6947, 1012.694
386.1768, 1007.916
386.6589, 1002.981
387.1411, 998.4600
387.6232, 994.8704
388.1053, 991.6264
388.5874, 986.3858
389.0695, 977.3710
389.5516, 969.7634
390.0338, 965.0151
390.5159, 961.8033
390.9980, 959.4201
391.4801, 957.6254
391.9622, 955.4311
392.4443, 951.3261
392.9265, 945.0889
393.4086, 939.1607
393.8907, 933.3355
394.3728, 928.4756
394.8549, 926.0998
395.3370, 925.4003
395.8192, 923.4161
396.3013, 917.2455
396.7834, 908.3591
397.2655, 901.7867
397.7476, 898.1956
398.2297, 895.2259
398.7119, 891.8784
399.1940, 888.3236
399.6761, 884.8349
400.1582, 881.6144
400.6403, 878.1651
401.1224, 873.4063
401.6046, 867.4539
402.0867, 863.1456
402.5688, 862.2311
403.0509, 862.3282
403.5330, 860.7644
404.0151, 857.5583
404.4973, 853.3547
404.9794, 847.1780
405.4615, 840.5374
405.9436, 836.6221
406.4257, 836.1512
406.9078, 835.6825
407.3900, 832.1585
407.8721, 826.1470
408.3542, 820.8608
408.8363, 816.7985
409.3184, 813.2841
409.8005, 809.9457
410.2827, 806.8254
410.7648, 804.1592
411.2469, 802.0957
411.7290, 800.4567
412.2111, 798.9144
412.6932, 797.6053
413.1754, 796.0506
413.6575, 793.9537
414.1396, 791.6855
414.6217, 789.6194
415.1038, 787.8211
415.5859, 786.0948
416.0681, 784.1697
416.5502, 781.9619
417.0323, 780.6246
417.5144, 780.6915
417.9965, 780.9133
418.4786, 780.9215
418.9608, 780.6993
419.4429, 780.2994
419.9250, 779.7500
420.4071, 779.0388
420.8892, 778.1288
421.3713, 777.0236
421.8535, 775.6951
422.3356, 773.4952
422.8177, 771.5298
423.2998, 770.7834
423.7819, 771.2910
424.2640, 772.2958
424.7462, 773.0369
425.2283, 773.4898
425.7104, 774.0842
426.1925, 775.0779
426.6746, 775.9305
427.1567, 776.1715
427.6389, 776.2429
428.1210, 776.9977
428.6031, 778.9846
429.0852, 781.2852
429.5673, 781.8204
430.0494, 779.9941
430.5316, 778.5723
431.0137, 778.6500
431.4958, 779.0497
431.9779, 778.8499
432.4600, 778.0717
432.9421, 777.7360
433.4243, 779.1755
433.9064, 781.8232
434.3885, 783.1170
434.8706, 782.5764
435.3527, 781.5311
435.8348, 780.3601
436.3170, 779.3340
436.7991, 779.0287
437.2812, 779.9539
437.7633, 781.1208
438.2454, 781.5012
438.7275, 781.2236
439.2097, 781.2917
439.6918, 782.3268
440.1739, 783.4335
440.6560, 783.0719
441.1381, 781.1600
441.6202, 779.4355
442.1024, 778.2562
442.5845, 777.5811
443.0666, 777.4998
443.5487, 777.9812
444.0308, 778.7691
444.5129, 780.0360
444.9951, 781.4866
445.4772, 780.5488
445.9593, 775.5531
446.4414, 770.5108
446.9235, 766.1976
447.4056, 762.7246
447.8878, 760.4968
448.3699, 759.6180
448.8520, 759.1277
449.3341, 757.4534
449.8162, 753.7982
450.2983, 751.2665
450.7805, 751.2122
451.2626, 750.8683
451.7447, 748.5294
452.2268, 744.6414
452.7089, 740.6151
453.1910, 737.3722
453.6732, 734.7995
454.1553, 732.5253
454.6374, 731.0336
455.1195, 728.9796
455.6016, 725.3820
456.0837, 721.7042
456.5659, 719.4929
457.0480, 718.8847
457.5301, 718.3875
458.0122, 716.2020
458.4943, 712.3654
458.9764, 709.4277
459.4586, 708.3967
459.9407, 706.8480
460.4228, 702.7880
460.9049, 697.5338
461.3870, 693.5209
461.8691, 691.9928
462.3513, 691.3932
462.8334, 689.6917
463.3155, 686.9540
463.7976, 684.9933
464.2797, 684.8610
464.7618, 685.1597
465.2440, 684.0170
465.7261, 681.4250
466.2082, 678.8826
466.6903, 676.6641
467.1724, 674.8778
467.6545, 674.0147
468.1367, 674.0206
468.6188, 673.5473
469.1009, 671.5792
469.5830, 668.4352
470.0651, 665.6854
470.5472, 662.9974
471.0294, 661.0665
471.5115, 660.7819
471.9936, 661.0561
472.4757, 660.5311
472.9578, 658.8593
473.4399, 656.5039
473.9221, 653.9339
474.4042, 651.0328
474.8863, 648.6113
475.3684, 646.9586
475.8505, 645.3932
476.3326, 643.7580
476.8148, 642.0233
477.2969, 639.9695
477.7790, 637.4664
478.2611, 635.1695
478.7432, 634.8484
479.2253, 637.7001
479.7075, 639.1227
480.1896, 637.5786
480.6717, 635.3293
481.1538, 633.3753
481.6359, 631.8019
482.1180, 630.3743
482.6002, 628.9685
483.0823, 627.5900
483.5644, 626.2748
484.0465, 625.0974
484.5286, 623.7025
485.0107, 621.1649
485.4929, 618.7501
485.9750, 618.4227
486.4571, 620.9249
486.9392, 622.6874
487.4213, 620.4017
487.9034, 615.9774
488.3856, 614.0911
488.8677, 615.7529
489.3498, 617.6237
489.8319, 616.6511
490.3140, 613.0394
490.7961, 610.5510
491.2783, 609.4510
491.7604, 609.1564
492.2425, 610.2352
492.7246, 611.7783
493.2067, 612.0330
493.6888, 610.3881
494.1710, 607.6777
494.6531, 605.0141
495.1352, 601.8024
495.6173, 600.7104
496.0994, 603.5784
496.5815, 606.4598
497.0637, 608.0102
497.5458, 608.0207
498.0279, 606.1237
498.5100, 601.9068
498.9921, 596.7180
499.4742, 594.1924
499.9564, 595.7744
500.4385, 596.3620
500.9206, 593.8904
501.4027, 591.2742
501.8848, 590.3235
502.3669, 590.9983
502.8491, 592.1751
503.3312, 593.4235
503.8133, 594.5399
504.2954, 594.9562
504.7775, 594.6359
505.2596, 593.7496
505.7418, 591.7902
506.2239, 589.6371
506.7060, 588.6778
507.1881, 589.3084
507.6702, 589.7668
508.1523, 588.8261
508.6345, 587.2552
509.1166, 586.5242
509.5987, 586.8505
510.0808, 586.9837
510.5629, 585.7357
511.0450, 583.2908
511.5272, 581.8002
512.0093, 581.2687
512.4914, 581.5251
512.9735, 583.5489
513.4556, 585.9106
513.9377, 586.6505
514.4199, 585.2918
514.9020, 582.8805
515.3841, 580.5140
515.8662, 577.9689
516.3483, 577.0348
516.8304, 580.3860
517.3126, 582.5215
517.7947, 581.2917
518.2768, 578.0519
518.7589, 574.5668
519.2410, 571.4796
519.7231, 569.1864
520.2053, 568.3826
520.6874, 569.1436
521.1695, 570.5094
521.6516, 573.6342
522.1337, 575.6311
522.6158, 574.0437
523.0980, 569.8704
523.5801, 565.9283
524.0622, 563.0424
524.5443, 560.9846
525.0264, 559.6738
525.5085, 559.0453
525.9907, 558.8273
526.4728, 559.0040
526.9549, 559.3907
527.4370, 559.9352
527.9191, 560.8719
528.4012, 560.5496
528.8834, 557.2899
529.3655, 554.0205
529.8476, 553.2902
530.3297, 554.3347
530.8118, 554.6049
531.2939, 552.6879
531.7761, 549.4274
532.2582, 546.9479
532.7403, 545.5231
533.2224, 544.4189
533.7045, 543.5588
534.1866, 543.0140
534.6688, 543.2319
535.1509, 543.8391
535.6330, 543.7963
536.1151, 542.2927
536.5972, 539.8569
537.0793, 537.9894
537.5615, 536.9628
538.0436, 535.3649
538.5257, 531.2943
539.0078, 527.7327
539.4899, 528.0363
539.9720, 532.0450
540.4542, 535.1998
540.9363, 534.6072
541.4184, 532.1953
541.9005, 530.5324
542.3826, 529.7098
542.8647, 529.3265
543.3469, 529.3971
543.8290, 529.5392
544.3111, 528.6240
544.7932, 526.0298
545.2753, 524.0032
545.7574, 523.1906
546.2396, 522.8168
546.7217, 522.4722
547.2038, 521.9689
547.6859, 520.9003
548.1680, 518.8748
548.6501, 516.2510
549.1323, 514.6600
549.6144, 514.7012
550.0965, 514.7878
550.5786, 514.5368
551.0607, 514.4124
551.5428, 515.1725
552.0250, 516.5655
552.5071, 517.1840
552.9892, 515.4562
553.4713, 512.3807
553.9534, 511.0484
554.4355, 511.8307
554.9177, 512.4854
555.3998, 511.9854
555.8819, 510.9945
556.3640, 510.5733
556.8461, 510.8675
557.3282, 510.6189
557.8104, 508.5123
558.2925, 506.0845
558.7746, 505.5909
559.2567, 506.8734
559.7388, 507.5639
560.2209, 506.0609
560.7031, 503.2350
561.1852, 501.8660
561.6673, 503.3845
562.1494, 504.3812
562.6315, 504.4328
563.1136, 504.2481
563.5958, 504.6005
564.0779, 505.2614
564.5600, 505.1984
565.0421, 503.5471
565.5242, 500.8746
566.0063, 499.1112
566.4885, 498.5399
566.9706, 498.0689
567.4527, 497.1687
567.9348, 496.5149
568.4169, 496.9405
568.8990, 498.2578
569.3812, 499.0374
569.8633, 497.8373
570.3454, 496.0270
570.8275, 495.9942
571.3096, 497.5845
571.7917, 498.1608
572.2739, 496.1586
572.7560, 493.2997
573.2381, 492.9572
573.7202, 496.0617
574.2023, 497.8458
574.6844, 497.5484
575.1666, 496.0854
575.6487, 492.9836
576.1308, 489.2546
576.6129, 487.3506
577.0950, 488.6114
577.5771, 491.6073
578.0593, 493.2936
578.5414, 493.5817
579.0235, 492.7823
579.5056, 489.0645
579.9877, 485.9706
580.4698, 485.5421
580.9520, 486.9801
581.4341, 488.2965
581.9162, 488.6167
582.3983, 488.4045
582.8804, 488.0497
583.3625, 487.6059
583.8447, 487.7866
584.3268, 489.0179
584.8089, 490.3279
585.2910, 490.7927
585.7731, 490.4428
586.2552, 489.5241
586.7374, 487.0608
587.2195, 485.0790
587.7016, 484.9572
588.1837, 485.9553
588.6658, 486.7787
589.1479, 487.0365
589.6301, 487.2053
590.1122, 487.9971
590.5943, 489.5909
591.0764, 490.0451
591.5585, 488.4599
592.0406, 486.7261
592.5228, 484.6162
593.0049, 482.9107
593.4870, 482.8667
593.9691, 484.7434
594.4512, 486.6699
594.9333, 486.6172
595.4155, 485.0699
595.8976, 484.1378
596.3797, 483.9912
596.8618, 484.2608
597.3439, 485.1666
597.8260, 486.1669
598.3082, 485.9000
598.7903, 483.6568
599.2724, 481.9493
599.7545, 481.9998
600.2366, 482.7288
600.7188, 482.9622
601.2009, 482.6664
601.6830, 482.4808
602.1651, 482.8384
602.6472, 483.6303
603.1293, 484.4816
603.6115, 485.5601
604.0936, 486.3759
604.5757, 487.5757
605.0578, 487.9518
605.5399, 486.0399
606.0220, 482.5639
606.5042, 479.7833
606.9863, 479.0269
607.4684, 479.5448
607.9505, 480.2665
608.4326, 481.1928
608.9147, 482.4347
609.3969, 484.4834
609.8790, 485.9988
610.3611, 484.9421
610.8432, 481.5800
611.3253, 479.3050
611.8074, 478.5621
612.2896, 478.8929
612.7717, 480.6586
613.2538, 483.1634
613.7359, 485.5258
614.2180, 487.4112
614.7001, 488.3329
615.1823, 487.3972
615.6644, 484.4186
616.1465, 483.4912
616.6286, 486.4437
617.1107, 488.9696
617.5928, 489.7385
618.0750, 489.7012
618.5571, 489.8432
619.0392, 490.3458
619.5213, 490.7178
620.0034, 490.1669
620.4855, 489.3232
620.9677, 489.6738
621.4498, 491.3044
621.9319, 493.5161
622.4140, 496.3176
622.8961, 499.1208
623.3782, 500.5338
623.8604, 500.1266
624.3425, 499.8981
624.8246, 500.1728
625.3067, 500.6015
625.7888, 500.8141
626.2709, 500.9922
626.7531, 501.5799
627.2352, 502.7900
627.7173, 504.5338
628.1994, 506.8977
628.6815, 510.2021
629.1636, 512.3604
629.6458, 512.9342
630.1279, 512.6938
630.6100, 511.3420
631.0921, 509.6938
631.5742, 509.1989
632.0563, 510.2948
632.5385, 512.3501
633.0206, 515.3719
633.5027, 518.9103
633.9848, 522.4187
634.4669, 525.7740
634.9490, 527.7920
635.4312, 527.1742
635.9133, 524.8067
636.3954, 524.9083
636.8775, 529.4353
637.3596, 533.9222
637.8417, 539.1604
638.3239, 543.5486
638.8060, 545.3800
639.2881, 545.2569
639.7702, 545.1261
640.2523, 545.9664
640.7344, 547.9238
641.2166, 552.0348
641.6987, 558.4957
642.1808, 562.6346
642.6629, 562.4489
643.1450, 561.5232
643.6271, 563.1529
644.1093, 566.7441
644.5914, 570.2777
645.0735, 573.8409
645.5556, 576.8651
646.0377, 578.7786
646.5198, 580.1198
647.0020, 581.3771
647.4841, 582.7711
647.9662, 584.9406
648.4483, 588.6592
648.9304, 593.5455
649.4125, 596.9885
649.8947, 598.3395
650.3768, 599.3906
650.8589, 600.0759
651.3410, 600.8743
651.8231, 602.2348
652.3052, 604.0663
652.7874, 605.8099
653.2695, 606.9184
653.7516, 608.0540
654.2337, 610.6713
654.7158, 614.2112
655.1979, 615.7831
655.6801, 614.3349
656.1622, 612.0471
656.6443, 611.2322
657.1264, 611.9577
657.6085, 612.9678
658.0906, 615.4453
658.5728, 616.7025
659.0549, 615.3333
659.5370, 612.9082
660.0191, 611.1561
660.5012, 610.2421
660.9833, 608.9733
661.4655, 605.9974
661.9476, 602.1289
662.4297, 600.3574
662.9118, 601.0528
663.3939, 600.9377
663.8760, 598.8756
664.3582, 595.7488
664.8403, 592.0233
665.3224, 587.7941
665.8045, 585.0525
666.2866, 585.4343
666.7687, 585.9970
667.2509, 585.3430
667.7330, 583.7009
668.2151, 581.2786
668.6972, 578.2357
669.1793, 575.2297
669.6614, 572.9449
670.1436, 571.3287
670.6257, 569.7766
671.1078, 569.0244
671.5899, 566.8028
672.0720, 560.1057
672.5541, 553.3324
673.0363, 550.1113
673.5184, 550.4306
674.0005, 551.5853
674.4826, 554.0168
674.9647, 555.4796
675.4468, 552.8536
675.9290, 547.3611
676.4111, 542.7240
676.8932, 540.1111
677.3753, 538.2750
677.8574, 535.7546
678.3395, 532.5002
678.8217, 529.8814
679.3038, 528.4925
679.7859, 527.0037
680.2680, 525.4980
680.7501, 523.6158
681.2322, 520.9633
681.7144, 517.5745
682.1965, 513.8309
682.6786, 509.7373
683.1607, 505.6461
683.6428, 502.4038
