##NAMES=Berthierine
##RRUFFID=R110177
##IDEAL CHEMISTRY=(Fe^2+^,Fe^3+^,Al)_3_(Si,Al)_2_O_5_(OH)_4_
##LOCALITY=DeMix quarry, Mont St-Hilaire, Quebec
##OWNER=RRUFF
##SOURCE=Donald Doell
##DESCRIPTION=Hexagonal prisms, with gray transparent terminations. We sample the terminations.
##STATUS=The identification of this mineral has been confirmed only by single crystal X-ray diffraction.
##URL=rruff.info/R110177
200.8969, 158.6745
201.3790, 159.1864
201.8611, 159.6530
202.3433, 159.9753
202.8254, 160.1377
203.3075, 160.3630
203.7896, 160.6909
204.2717, 161.0665
204.7538, 161.3876
205.2360, 161.6903
205.7181, 161.8006
206.2002, 161.4907
206.6823, 160.6394
207.1644, 160.1363
207.6465, 160.0703
208.1287, 160.3797
208.6108, 160.9749
209.0929, 161.9869
209.5750, 162.9226
210.0571, 163.4876
210.5392, 163.6643
211.0214, 163.5262
211.5035, 162.8706
211.9856, 161.9745
212.4677, 161.9007
212.9498, 162.9968
213.4319, 164.1458
213.9140, 164.5390
214.3962, 163.7958
214.8783, 163.7423
215.3604, 164.8440
215.8425, 166.7090
216.3246, 167.7168
216.8067, 167.7201
217.2889, 167.1764
217.7710, 166.1546
218.2531, 164.1760
218.7352, 163.1833
219.2173, 163.6552
219.6994, 165.2357
220.1816, 166.1863
220.6637, 166.2282
221.1458, 166.1435
221.6279, 166.4629
222.1100, 167.4376
222.5921, 168.1502
223.0743, 168.4869
223.5564, 168.5070
224.0385, 168.4668
224.5206, 168.2808
225.0027, 168.1758
225.4848, 168.3443
225.9670, 169.0098
226.4491, 169.4074
226.9312, 169.4119
227.4133, 169.1028
227.8954, 168.8196
228.3775, 168.4638
228.8597, 168.2860
229.3418, 168.4655
229.8239, 169.1385
230.3060, 169.8377
230.7881, 170.4713
231.2702, 171.0948
231.7524, 171.9715
232.2345, 173.1884
232.7166, 174.5077
233.1987, 175.8443
233.6808, 177.4586
234.1629, 178.4754
234.6451, 178.6312
235.1272, 178.1327
235.6093, 177.8878
236.0914, 177.9461
236.5735, 178.1886
237.0556, 178.5602
237.5378, 179.0939
238.0199, 179.7127
238.5020, 180.5470
238.9841, 181.4767
239.4662, 181.9358
239.9483, 181.6397
240.4305, 181.2748
240.9126, 181.1755
241.3947, 181.3233
241.8768, 181.7934
242.3589, 182.6589
242.8410, 183.8411
243.3232, 185.1137
243.8053, 186.5837
244.2874, 187.9872
244.7695, 189.2354
245.2516, 190.5652
245.7337, 191.1701
246.2159, 190.6386
246.6980, 189.4086
247.1801, 188.9588
247.6622, 189.7792
248.1443, 190.6249
248.6264, 190.8202
249.1086, 189.8503
249.5907, 189.4874
250.0728, 189.9611
250.5549, 191.0022
251.0370, 191.9013
251.5191, 192.6039
252.0013, 193.2609
252.4834, 193.9928
252.9655, 194.9751
253.4476, 195.5411
253.9297, 195.5181
254.4118, 195.1591
254.8940, 194.9956
255.3761, 194.9783
255.8582, 195.2459
256.3403, 195.9651
256.8224, 197.4263
257.3046, 198.3266
257.7867, 198.4426
258.2688, 198.1271
258.7509, 198.0851
259.2330, 198.4785
259.7151, 198.8056
260.1973, 198.8198
260.6794, 198.3939
261.1615, 198.2529
261.6436, 198.5491
262.1257, 199.0020
262.6078, 199.1248
263.0900, 198.8228
263.5721, 198.4295
264.0542, 198.0857
264.5363, 197.8264
265.0184, 197.3412
265.5005, 196.4990
265.9827, 195.5832
266.4648, 194.9902
266.9469, 194.7850
267.4290, 194.7384
267.9111, 194.8619
268.3932, 195.1817
268.8754, 195.1709
269.3575, 194.7511
269.8396, 194.1151
270.3217, 193.5143
270.8038, 192.9789
271.2859, 192.3459
271.7681, 191.5271
272.2502, 190.5340
272.7323, 189.6809
273.2144, 189.0073
273.6965, 188.4199
274.1786, 187.8667
274.6608, 187.3742
275.1429, 186.7204
275.6250, 185.7251
276.1071, 184.4899
276.5892, 183.8662
277.0714, 184.0469
277.5535, 184.3172
278.0356, 183.9282
278.5177, 182.8026
278.9998, 181.8150
279.4819, 181.1651
279.9641, 180.7801
280.4462, 180.3853
280.9283, 179.9764
281.4104, 179.5682
281.8925, 179.2104
282.3746, 178.9070
282.8568, 178.4491
283.3389, 177.7759
283.8210, 176.9556
284.3031, 176.1268
284.7852, 175.2762
285.2673, 174.5442
285.7495, 174.1079
286.2316, 173.9393
286.7137, 173.5759
287.1958, 172.8459
287.6779, 172.0656
288.1600, 172.1027
288.6422, 172.9740
289.1243, 173.5924
289.6064, 172.8463
290.0885, 171.0940
290.5706, 170.3858
291.0527, 171.1262
291.5349, 172.4105
292.0170, 172.8744
292.4991, 172.5522
292.9812, 171.9014
293.4633, 170.8709
293.9454, 169.6801
294.4276, 169.0756
294.9097, 169.1427
295.3918, 169.6177
295.8739, 170.4976
296.3560, 171.6247
296.8381, 172.2876
297.3203, 171.8358
297.8024, 170.7412
298.2845, 169.9076
298.7666, 169.3503
299.2487, 169.0581
299.7308, 169.2501
300.2130, 169.7294
300.6951, 169.9189
301.1772, 169.1615
301.6593, 168.1920
302.1414, 168.3961
302.6235, 169.7371
303.1057, 170.7456
303.5878, 169.7388
304.0699, 167.5719
304.5520, 165.8391
305.0341, 165.1815
305.5162, 165.0698
305.9984, 165.1519
306.4805, 165.3786
306.9626, 165.4157
307.4447, 164.8296
307.9268, 163.9800
308.4089, 163.3586
308.8911, 163.2123
309.3732, 163.1400
309.8553, 162.8278
310.3374, 162.3242
310.8195, 161.7834
311.3016, 161.1914
311.7838, 160.6602
312.2659, 160.3355
312.7480, 160.3803
313.2301, 160.3095
313.7122, 159.5418
314.1943, 158.4407
314.6765, 157.7895
315.1586, 158.3665
315.6407, 159.2028
316.1228, 159.7136
316.6049, 159.7868
317.0870, 159.6856
317.5692, 159.4439
318.0513, 159.1181
318.5334, 158.7873
319.0155, 158.5498
319.4976, 158.2516
319.9797, 157.8409
320.4619, 157.3148
320.9440, 156.6583
321.4261, 155.5861
321.9082, 154.5052
322.3903, 153.8063
322.8724, 153.8167
323.3546, 153.9665
323.8367, 154.2538
324.3188, 154.6563
324.8009, 154.7261
325.2830, 154.1138
325.7651, 153.3204
326.2473, 152.6720
326.7294, 151.9588
327.2115, 151.6738
327.6936, 152.2110
328.1757, 153.3438
328.6578, 153.9501
329.1400, 153.3881
329.6221, 152.8317
330.1042, 152.8241
330.5863, 154.1938
331.0684, 154.7098
331.5505, 153.6821
332.0327, 151.9232
332.5148, 151.2960
332.9969, 152.6275
333.4790, 153.9805
333.9611, 154.7367
334.4432, 154.8030
334.9254, 154.5615
335.4075, 153.7486
335.8896, 152.8447
336.3717, 152.5267
336.8538, 152.9268
337.3359, 153.6272
337.8180, 154.7170
338.3001, 156.1771
338.7823, 156.7336
339.2644, 156.0544
339.7465, 155.1251
340.2286, 154.9764
340.7107, 155.7651
341.1928, 156.4186
341.6750, 156.6845
342.1571, 156.6790
342.6392, 156.9496
343.1213, 157.6077
343.6034, 157.9748
344.0855, 157.2285
344.5677, 155.4464
345.0498, 154.4711
345.5319, 154.6647
346.0140, 155.5379
346.4961, 156.3564
346.9782, 157.1077
347.4604, 157.5022
347.9425, 157.0883
348.4246, 156.1360
348.9067, 155.5928
349.3888, 155.4981
349.8709, 155.8616
350.3531, 157.1012
350.8352, 158.9261
351.3173, 160.2531
351.7994, 160.2095
352.2815, 159.5196
352.7636, 159.3863
353.2458, 159.8087
353.7279, 160.4248
354.2100, 161.1292
354.6921, 161.7874
355.1742, 162.1428
355.6563, 161.8954
356.1385, 161.5525
356.6206, 161.6191
357.1027, 162.0320
357.5848, 162.4739
358.0669, 162.7706
358.5490, 163.0021
359.0312, 163.2662
359.5133, 163.6547
359.9954, 163.9224
360.4775, 163.6988
360.9596, 163.2541
361.4417, 163.1615
361.9239, 163.9661
362.4060, 164.9455
362.8881, 165.7172
363.3702, 166.2180
363.8523, 166.6400
364.3344, 166.8635
364.8166, 167.1048
365.2987, 167.6154
365.7808, 168.7912
366.2629, 169.8918
366.7450, 170.7612
367.2271, 171.3927
367.7093, 171.7866
368.1914, 171.5977
368.6735, 171.3853
369.1556, 171.5153
369.6377, 172.3323
370.1198, 173.0694
370.6020, 173.6531
371.0841, 174.1275
371.5662, 174.6596
372.0483, 175.2617
372.5304, 175.8938
373.0125, 176.5272
373.4947, 177.1082
373.9768, 177.8550
374.4589, 178.9092
374.9410, 180.0241
375.4231, 180.7111
375.9052, 180.7334
376.3874, 181.0338
376.8695, 182.0538
377.3516, 183.7783
377.8337, 184.7914
378.3158, 184.9283
378.7979, 184.8675
379.2801, 185.2968
379.7622, 186.2445
380.2443, 187.1890
380.7264, 188.0715
381.2085, 188.8643
381.6906, 189.5302
382.1728, 190.0674
382.6549, 190.4037
383.1370, 190.4930
383.6191, 190.3336
384.1012, 189.8253
384.5833, 188.8469
385.0655, 187.8646
385.5476, 187.5737
386.0297, 187.8271
386.5118, 188.1155
386.9939, 188.3266
387.4760, 188.3742
387.9582, 188.0434
388.4403, 187.3264
388.9224, 186.6127
389.4045, 186.2649
389.8866, 186.1155
390.3687, 185.9345
390.8509, 185.7429
391.3330, 185.4016
391.8151, 184.6692
392.2972, 183.6558
392.7793, 182.7935
393.2614, 182.3086
393.7436, 182.0496
394.2257, 181.9700
394.7078, 182.2509
395.1899, 182.2390
395.6720, 181.3799
396.1541, 180.1347
396.6363, 179.2452
397.1184, 179.2100
397.6005, 179.2598
398.0826, 179.2251
398.5647, 179.1235
399.0468, 178.6795
399.5290, 177.5806
400.0111, 176.2882
400.4932, 175.1744
400.9753, 174.4713
401.4574, 173.6258
401.9395, 172.4319
402.4217, 171.0279
402.9038, 170.1429
403.3859, 170.1585
403.8680, 170.1346
404.3501, 169.5618
404.8322, 168.2226
405.3144, 167.1264
405.7965, 166.3520
406.2786, 165.7413
406.7607, 164.9816
407.2428, 163.9916
407.7249, 163.3124
408.2071, 163.2695
408.6892, 163.7235
409.1713, 163.8277
409.6534, 163.5780
410.1355, 162.9850
410.6176, 161.7858
411.0998, 160.1346
411.5819, 159.0379
412.0640, 158.8557
412.5461, 159.0312
413.0282, 158.6047
413.5103, 157.6708
413.9925, 156.7839
414.4746, 156.2015
414.9567, 155.8843
415.4388, 155.8611
415.9209, 156.1678
416.4030, 156.4498
416.8852, 156.4866
417.3673, 156.2894
417.8494, 155.8803
418.3315, 154.8784
418.8136, 153.9901
419.2957, 153.9229
419.7779, 154.5159
420.2600, 154.6909
420.7421, 153.3897
421.2242, 151.8296
421.7063, 150.9462
422.1884, 151.2007
422.6706, 151.5459
423.1527, 151.7554
423.6348, 151.8829
424.1169, 152.0310
424.5990, 152.2759
425.0811, 152.4845
425.5633, 152.6231
426.0454, 152.6917
426.5275, 152.6581
427.0096, 152.2083
427.4917, 151.8999
427.9738, 152.2950
428.4560, 154.0693
428.9381, 155.0683
429.4202, 154.6884
429.9023, 153.4363
430.3844, 153.2065
430.8665, 154.4458
431.3487, 155.4387
431.8308, 155.0651
432.3129, 153.2260
432.7950, 152.1878
433.2771, 152.0986
433.7592, 152.4926
434.2414, 152.7074
434.7235, 152.7884
435.2056, 153.3533
435.6877, 155.0312
436.1698, 157.0137
436.6519, 157.2659
437.1341, 155.8811
437.6162, 154.5723
438.0983, 154.9356
438.5804, 156.1449
439.0625, 156.7141
439.5446, 156.2664
440.0268, 155.6077
440.5089, 155.2167
440.9910, 155.1515
441.4731, 155.5303
441.9552, 157.1664
442.4373, 158.6631
442.9195, 158.9186
443.4016, 157.9358
443.8837, 157.1051
444.3658, 157.0488
444.8479, 157.3444
445.3300, 157.6771
445.8122, 158.3348
446.2943, 158.5652
446.7764, 157.9232
447.2585, 156.7521
447.7406, 155.9303
448.2227, 155.4589
448.7049, 155.4124
449.1870, 155.9817
449.6691, 157.3549
450.1512, 158.1986
450.6333, 158.4536
451.1154, 158.2411
451.5976, 157.5787
452.0797, 156.2943
452.5618, 155.1224
453.0439, 154.0218
453.5260, 153.1935
454.0081, 153.5302
454.4903, 155.2801
454.9724, 156.5855
455.4545, 156.1403
455.9366, 154.2094
456.4187, 152.5978
456.9008, 151.3716
457.3830, 150.4640
457.8651, 149.8638
458.3472, 149.5408
458.8293, 149.4487
459.3114, 149.6681
459.7935, 150.0033
460.2757, 150.2368
460.7578, 150.3742
461.2399, 150.4589
461.7220, 150.5751
462.2041, 150.6197
462.6862, 150.4887
463.1684, 150.1578
463.6505, 149.7070
464.1326, 149.0628
464.6147, 148.3651
465.0968, 147.7839
465.5789, 147.5897
466.0611, 147.3172
466.5432, 146.7161
467.0253, 145.8354
467.5074, 145.2001
467.9895, 144.9634
468.4716, 144.9155
468.9538, 145.0253
469.4359, 145.6614
469.9180, 145.5917
470.4001, 144.3284
470.8822, 142.6913
471.3643, 141.9153
471.8465, 142.1849
472.3286, 142.8118
472.8107, 143.8105
473.2928, 145.0296
473.7749, 145.5835
474.2570, 145.3798
474.7392, 144.9692
475.2213, 144.7601
475.7034, 144.7129
476.1855, 144.5795
476.6676, 144.3546
477.1497, 143.9718
477.6319, 143.0970
478.1140, 141.9421
478.5961, 141.2136
479.0782, 141.5994
479.5603, 142.3382
480.0424, 142.5678
480.5246, 142.3284
481.0067, 141.9456
481.4888, 141.4904
481.9709, 141.0572
482.4530, 140.7264
482.9352, 140.5085
483.4173, 140.4029
483.8994, 140.4359
484.3815, 140.5735
484.8636, 140.7638
485.3457, 141.2796
485.8279, 141.5534
486.3100, 141.3063
486.7921, 140.5353
487.2742, 140.0020
487.7563, 139.8860
488.2384, 139.8242
488.7206, 139.5857
489.2027, 138.9985
489.6848, 138.7488
490.1669, 139.0220
490.6490, 139.4463
491.1311, 139.2841
491.6133, 138.3912
492.0954, 137.9576
492.5775, 138.5801
493.0596, 139.8798
493.5417, 140.4844
494.0238, 140.3887
494.5060, 139.8664
494.9881, 138.7629
495.4702, 137.4050
495.9523, 136.6522
496.4344, 136.7009
496.9165, 136.9826
497.3987, 136.8758
497.8808, 136.6000
498.3629, 136.5721
498.8450, 137.3148
499.3271, 138.0677
499.8092, 138.3022
500.2914, 138.0906
500.7735, 137.8258
501.2556, 137.5721
501.7377, 137.3789
502.2198, 137.2816
502.7019, 137.3103
503.1841, 137.3697
503.6662, 137.5402
504.1483, 137.6988
504.6304, 137.7001
505.1125, 137.4883
505.5946, 137.1949
506.0768, 136.7118
506.5589, 136.1478
507.0410, 136.1147
507.5231, 136.7952
508.0052, 137.4876
508.4873, 137.7992
508.9695, 137.7212
509.4516, 137.7063
509.9337, 137.7585
510.4158, 137.8640
510.8979, 138.0857
511.3800, 138.3719
511.8622, 138.4725
512.3443, 138.2760
512.8264, 137.9299
513.3085, 137.5472
513.7906, 137.1618
514.2728, 136.8943
514.7549, 136.7992
515.2370, 136.8616
515.7191, 137.1781
516.2012, 137.7781
516.6833, 138.1651
517.1655, 137.9218
517.6476, 137.4711
518.1297, 137.1738
518.6118, 137.1905
519.0939, 137.2597
519.5760, 137.5208
520.0582, 137.7962
520.5403, 137.6496
521.0224, 136.5413
521.5045, 135.7778
521.9866, 135.8619
522.4688, 136.7915
522.9509, 137.2000
523.4330, 136.9360
523.9151, 136.5070
524.3972, 136.3102
524.8793, 136.3518
525.3615, 136.2799
525.8436, 136.0139
526.3257, 135.7578
526.8078, 135.8916
527.2899, 136.3342
527.7720, 136.7055
528.2542, 136.8878
528.7363, 136.8887
529.2184, 136.6098
529.7005, 136.1106
530.1826, 135.7005
530.6647, 135.6686
531.1469, 135.7514
531.6290, 135.7348
532.1111, 135.5887
532.5932, 135.3535
533.0753, 135.0433
533.5574, 134.6553
534.0396, 134.1922
534.5217, 133.1550
535.0038, 132.6320
535.4859, 133.1733
535.9680, 134.3591
536.4501, 134.8278
536.9323, 134.1698
537.4144, 133.4888
537.8965, 133.1869
538.3786, 133.2722
538.8607, 133.3852
539.3428, 133.5551
539.8250, 133.6542
540.3071, 133.5338
540.7892, 133.2143
541.2713, 132.8633
541.7534, 132.4865
542.2355, 132.1416
542.7177, 131.8946
543.1998, 131.7433
543.6819, 131.6888
544.1640, 131.8192
544.6461, 131.9855
545.1282, 132.0535
545.6104, 132.0318
546.0925, 131.9776
546.5746, 132.0274
547.0567, 131.9820
547.5388, 131.6134
548.0209, 130.6911
548.5031, 130.1364
548.9852, 130.4084
549.4673, 131.0088
549.9494, 131.4201
550.4315, 131.6497
550.9136, 131.6457
551.3958, 131.2703
551.8779, 130.6874
552.3600, 130.4157
552.8421, 130.5287
553.3242, 130.6830
553.8063, 130.7025
554.2885, 130.6238
554.7706, 130.7735
555.2527, 131.1694
555.7348, 131.6092
556.2169, 131.9671
556.6990, 132.2303
557.1812, 132.3954
557.6633, 132.4866
558.1454, 132.3879
558.6275, 131.8027
559.1096, 130.9784
559.5917, 130.3379
560.0739, 130.0478
560.5560, 129.9955
561.0381, 130.2589
561.5202, 130.7537
562.0023, 131.1283
562.4844, 131.1513
562.9666, 131.1558
563.4487, 131.3465
563.9308, 131.8279
564.4129, 131.9674
564.8950, 131.5576
565.3771, 131.0299
565.8593, 130.7789
566.3414, 130.9198
566.8235, 130.8021
567.3056, 130.2738
567.7877, 129.5934
568.2698, 129.1630
568.7520, 128.9823
569.2341, 129.1119
569.7162, 129.7368
570.1983, 130.5786
570.6804, 131.0972
571.1625, 131.3392
571.6447, 131.6351
572.1268, 132.5467
572.6089, 133.4209
573.0910, 133.4823
573.5731, 132.5399
574.0552, 131.6511
574.5374, 131.2091
575.0195, 131.0857
575.5016, 131.1567
575.9837, 131.7604
576.4658, 132.1026
576.9479, 131.9334
577.4301, 131.4968
577.9122, 131.2587
578.3943, 131.2277
578.8764, 131.3840
579.3585, 131.8272
579.8406, 132.4729
580.3228, 132.7006
580.8049, 132.4681
581.2870, 132.0884
581.7691, 131.6850
582.2512, 131.2968
582.7333, 131.0963
583.2155, 131.1073
583.6975, 131.1857
584.1796, 131.0822
584.6617, 130.9827
585.1439, 131.2423
585.6260, 132.2129
586.1081, 133.1039
586.5902, 133.4244
587.0723, 133.3254
587.5544, 133.0968
588.0366, 132.4949
588.5187, 132.1031
589.0008, 132.2773
589.4829, 132.9708
589.9650, 133.2474
590.4471, 132.7881
590.9293, 132.3194
591.4114, 132.2536
591.8935, 132.6983
592.3756, 132.6606
592.8577, 131.9556
593.3398, 131.2642
593.8220, 131.5079
594.3041, 132.5280
594.7862, 133.0222
595.2683, 132.6452
595.7504, 131.9639
596.2325, 131.6326
596.7147, 131.5823
597.1968, 131.6340
597.6789, 131.6574
598.1610, 131.7975
598.6431, 132.2618
599.1252, 132.9707
599.6074, 133.5589
600.0895, 134.1164
600.5716, 134.3419
601.0537, 133.9682
601.5358, 132.7918
602.0179, 131.9156
602.5001, 131.3471
602.9822, 131.0852
603.4643, 131.2446
603.9464, 132.0677
604.4285, 132.2724
604.9106, 131.5669
605.3928, 130.6187
605.8749, 130.5783
606.3570, 131.3648
606.8391, 131.8838
607.3212, 131.6390
607.8033, 131.1609
608.2855, 131.2775
608.7676, 131.8705
609.2497, 132.5112
609.7318, 133.2168
610.2139, 133.6825
610.6960, 133.4927
611.1782, 132.6609
611.6603, 132.0227
612.1424, 131.8990
612.6245, 132.0348
613.1066, 132.3209
613.5887, 132.9634
614.0709, 133.2445
614.5530, 132.9706
615.0351, 132.5152
615.5172, 132.2413
615.9993, 132.1506
616.4814, 132.2676
616.9636, 132.6865
617.4457, 133.1778
617.9278, 133.2693
618.4099, 132.9902
618.8920, 132.6603
619.3741, 132.3881
619.8563, 132.1531
620.3384, 131.8749
620.8205, 131.5871
621.3026, 131.4635
621.7847, 131.7055
622.2668, 132.0762
622.7490, 132.4365
623.2311, 132.7832
623.7132, 133.0137
624.1953, 132.9530
624.6774, 132.8714
625.1595, 132.9778
625.6417, 133.5326
626.1238, 133.7461
626.6059, 133.4237
627.0880, 132.9764
627.5701, 133.0249
628.0522, 133.6413
628.5344, 134.0443
629.0165, 134.0048
629.4986, 133.7621
629.9807, 133.6896
630.4628, 133.8003
630.9449, 134.1611
631.4271, 135.1013
631.9092, 136.1153
632.3913, 136.5102
632.8734, 136.3977
633.3555, 136.4904
633.8376, 137.5751
634.3198, 138.6360
634.8019, 138.9559
635.2840, 138.2683
635.7661, 137.8854
636.2482, 137.9556
636.7303, 138.3545
637.2125, 139.1072
637.6946, 140.5642
638.1767, 141.2917
638.6588, 141.0342
639.1409, 140.3931
639.6230, 140.1844
640.1052, 140.3885
640.5873, 140.7411
641.0694, 141.2095
641.5515, 141.7334
642.0336, 142.1666
642.5157, 142.5646
642.9979, 143.1007
643.4800, 144.0010
643.9621, 144.9457
644.4442, 145.7486
644.9263, 146.4060
645.4084, 146.9067
645.8906, 147.1086
646.3727, 147.2674
646.8548, 147.4361
647.3369, 147.5665
647.8190, 148.0808
648.3011, 149.1306
648.7833, 150.3314
649.2654, 151.4110
649.7475, 152.3787
650.2296, 153.2745
650.7117, 154.1167
651.1938, 154.8390
651.6760, 155.1821
652.1581, 155.3129
652.6402, 155.7735
653.1223, 156.8303
653.6044, 157.9923
654.0865, 158.9184
654.5687, 159.6345
655.0508, 160.1990
655.5329, 160.6569
656.0150, 160.9508
656.4971, 160.9946
656.9792, 160.8335
657.4614, 160.6808
657.9435, 160.2465
658.4256, 160.2529
658.9077, 161.1363
659.3898, 162.8360
659.8719, 163.8091
660.3541, 163.9598
660.8362, 163.8310
661.3183, 163.7401
661.8004, 163.6792
662.2825, 163.6371
662.7646, 163.6187
663.2468, 163.5239
663.7289, 163.2094
664.2110, 162.7883
664.6931, 162.4136
665.1752, 162.1458
665.6573, 161.8570
666.1395, 161.4861
666.6216, 161.0648
667.1037, 160.6319
667.5858, 159.9933
668.0679, 159.6265
668.5500, 159.7748
669.0322, 160.1253
669.5143, 159.9638
669.9964, 159.2027
670.4785, 158.3280
670.9606, 157.3731
671.4427, 156.4805
671.9249, 156.2445
672.4070, 156.5682
672.8891, 156.6806
673.3712, 155.8237
673.8533, 154.6886
674.3354, 154.1642
674.8176, 154.2088
675.2997, 154.1662
675.7818, 153.5479
676.2639, 152.8637
676.7460, 152.4256
677.2281, 152.3249
677.7103, 152.3034
678.1924, 152.5356
678.6745, 152.6543
679.1566, 152.3397
679.6387, 151.4712
680.1208, 150.7466
680.6030, 150.2231
681.0851, 149.7677
681.5672, 149.1911
682.0493, 148.5217
682.5314, 147.8246
683.0135, 147.0445
683.4957, 146.4260
683.9778, 146.4199
684.4599, 146.7433
684.9420, 146.8646
685.4241, 146.4749
685.9063, 145.9663
686.3884, 145.5600
686.8705, 145.1619
687.3526, 144.4093
687.8347, 142.8329
688.3168, 141.5693
688.7990, 141.0704
689.2811, 141.1718
689.7632, 140.7219
690.2453, 139.6236
690.7274, 138.6599
691.2095, 138.4966
691.6917, 138.8107
692.1738, 138.5993
692.6559, 137.8699
693.1380, 137.0130
693.6201, 136.0337
694.1022, 135.2335
694.5844, 134.9972
695.0665, 135.4673
695.5486, 135.8571
696.0307, 135.7903
696.5128, 135.6026
696.9949, 135.6082
697.4771, 136.2977
