##NAMES=Beryllonite
##RRUFFID=R060299
##IDEAL CHEMISTRY=NaBePO_4_
##LOCALITY=Paprok, near Kamdesh, Nuristan, Kunar Province, Afghanistan
##OWNER=RRUFF
##SOURCE=Herb Obodda
##DESCRIPTION=Pale blue fragment
##STATUS=The identification of this mineral has been confirmed by X-ray diffraction and chemical analysis
##URL=rruff.info/R060299
##MEASURED CHEMISTRY=Na_1.00_Be_1.00_P_1.00_O_4_
90.52570, 0.0000000E+00
91.00781, 32.67772
91.48993, 32.74282
91.97205, 32.76985
92.45416, 32.61088
92.93628, 32.41921
93.41840, 32.58522
93.90051, 33.27805
94.38263, 34.16204
94.86475, 34.78014
95.34686, 35.13196
95.82898, 35.18543
96.31110, 34.47163
96.79321, 33.13293
97.27533, 32.84978
97.75745, 34.42001
98.23956, 37.27695
98.72168, 38.80815
99.20380, 38.67403
99.68591, 38.23112
100.1680, 39.06327
100.6501, 41.42851
101.1323, 43.77509
101.6144, 45.64586
102.0965, 47.00830
102.5786, 48.20536
103.0607, 49.00075
103.5428, 49.84607
104.0250, 51.55067
104.5071, 54.37785
104.9892, 57.59657
105.4713, 60.83010
105.9534, 63.55635
106.4355, 67.44049
106.9177, 72.89470
107.3998, 79.51720
107.8819, 86.24308
108.3640, 92.58480
108.8461, 99.34169
109.3282, 106.9910
109.8104, 115.6361
110.2925, 124.8669
110.7746, 134.7495
111.2567, 145.1911
111.7388, 155.9005
112.2209, 166.3330
112.7031, 177.1772
113.1852, 189.0358
113.6673, 201.8773
114.1494, 215.7742
114.6315, 230.3841
115.1136, 245.7844
115.5958, 263.4438
116.0779, 284.9214
116.5600, 308.5897
117.0421, 332.5199
117.5242, 355.0825
118.0063, 378.7280
118.4885, 405.2057
118.9706, 434.9280
119.4527, 466.0074
119.9348, 496.7179
120.4169, 527.9349
120.8990, 561.8046
121.3812, 599.7603
121.8633, 640.5416
122.3454, 682.0519
122.8275, 723.3994
123.3096, 767.6224
123.7917, 818.2178
124.2739, 874.2501
124.7560, 932.2845
125.2381, 992.0330
125.7202, 1052.294
126.2023, 1110.509
126.6844, 1167.686
127.1666, 1221.367
127.6487, 1269.047
128.1308, 1310.813
128.6129, 1345.107
129.0950, 1369.151
129.5771, 1384.576
130.0593, 1397.235
130.5414, 1408.593
131.0235, 1418.270
131.5056, 1422.482
131.9877, 1415.594
132.4698, 1402.586
132.9520, 1396.365
133.4341, 1396.600
133.9162, 1398.016
134.3983, 1397.141
134.8804, 1395.092
135.3625, 1401.473
135.8447, 1417.137
136.3268, 1438.678
136.8089, 1462.130
137.2910, 1487.604
137.7731, 1514.813
138.2552, 1544.617
138.7374, 1577.355
139.2195, 1609.010
139.7016, 1640.702
140.1837, 1670.756
140.6658, 1694.640
141.1479, 1710.836
141.6301, 1724.964
142.1122, 1740.531
142.5943, 1760.680
143.0764, 1773.745
143.5585, 1778.773
144.0406, 1776.824
144.5228, 1771.401
145.0049, 1761.740
145.4870, 1749.690
145.9691, 1736.189
146.4512, 1719.247
146.9333, 1703.864
147.4155, 1690.498
147.8976, 1678.924
148.3797, 1668.096
148.8618, 1656.373
149.3439, 1646.433
149.8260, 1639.970
150.3082, 1640.157
150.7903, 1640.172
151.2724, 1638.654
151.7545, 1635.500
152.2366, 1634.582
152.7188, 1635.441
153.2009, 1638.769
153.6830, 1645.121
154.1651, 1656.075
154.6472, 1668.487
155.1293, 1681.075
155.6115, 1693.540
156.0936, 1708.631
156.5757, 1728.217
157.0578, 1750.214
157.5399, 1772.090
158.0220, 1793.390
158.5042, 1814.560
158.9863, 1836.272
159.4684, 1859.358
159.9505, 1879.702
160.4326, 1898.029
160.9147, 1912.465
161.3969, 1920.173
161.8790, 1919.900
162.3611, 1912.980
162.8432, 1898.799
163.3253, 1875.329
163.8074, 1851.246
164.2896, 1829.157
164.7717, 1809.203
165.2538, 1791.709
165.7359, 1777.414
166.2180, 1765.205
166.7001, 1754.106
167.1823, 1743.716
167.6644, 1735.098
168.1465, 1729.535
168.6286, 1726.399
169.1107, 1723.955
169.5928, 1722.777
170.0750, 1721.187
170.5571, 1717.221
171.0392, 1709.633
171.5213, 1701.043
172.0034, 1693.151
172.4855, 1685.965
172.9677, 1679.668
173.4498, 1673.557
173.9319, 1668.538
174.4140, 1666.023
174.8961, 1667.141
175.3782, 1670.036
175.8604, 1672.966
176.3425, 1675.954
176.8246, 1679.075
177.3067, 1682.284
177.7888, 1685.709
178.2709, 1689.637
178.7531, 1694.810
179.2352, 1700.066
179.7173, 1703.324
180.1994, 1704.671
180.6815, 1705.907
181.1636, 1708.240
181.6458, 1711.675
182.1279, 1716.279
182.6100, 1723.505
183.0921, 1731.324
183.5742, 1735.338
184.0563, 1735.358
184.5385, 1733.999
185.0206, 1732.983
185.5027, 1732.476
185.9848, 1733.415
186.4669, 1736.858
186.9490, 1741.880
187.4312, 1745.923
187.9133, 1748.859
188.3954, 1751.135
188.8775, 1752.084
189.3596, 1752.039
189.8417, 1754.457
190.3239, 1762.032
190.8060, 1773.559
191.2881, 1782.016
191.7702, 1786.660
192.2523, 1790.855
192.7344, 1799.609
193.2166, 1812.893
193.6987, 1825.789
194.1808, 1837.299
194.6629, 1847.218
195.1450, 1853.416
195.6271, 1855.575
196.1093, 1854.877
196.5914, 1852.931
197.0735, 1849.763
197.5556, 1844.957
198.0377, 1838.139
198.5198, 1829.231
199.0020, 1819.068
199.4841, 1806.836
199.9662, 1794.705
200.4483, 1785.997
200.9304, 1780.926
201.4125, 1777.865
201.8947, 1776.230
202.3768, 1776.032
202.8589, 1777.375
203.3410, 1780.847
203.8231, 1785.115
204.3052, 1787.379
204.7874, 1787.155
205.2695, 1787.087
205.7516, 1788.199
206.2337, 1790.488
206.7158, 1794.058
207.1979, 1799.065
207.6801, 1805.234
208.1622, 1811.804
208.6443, 1818.609
209.1264, 1826.432
209.6085, 1835.986
210.0906, 1847.831
210.5728, 1859.042
211.0549, 1869.896
211.5370, 1879.804
212.0191, 1887.197
212.5012, 1892.044
212.9833, 1894.674
213.4655, 1895.062
213.9476, 1892.938
214.4297, 1889.332
214.9118, 1882.906
215.3939, 1875.736
215.8760, 1873.148
216.3581, 1876.621
216.8403, 1881.657
217.3224, 1886.092
217.8045, 1889.536
218.2866, 1893.475
218.7687, 1897.384
219.2508, 1901.956
219.7330, 1909.170
220.2151, 1919.826
220.6972, 1931.492
221.1793, 1943.183
221.6614, 1955.733
222.1435, 1966.165
222.6257, 1974.234
223.1078, 1980.229
223.5899, 1985.243
224.0720, 1989.699
224.5541, 1992.535
225.0362, 1993.166
225.5184, 1990.838
226.0005, 1987.992
226.4826, 1983.289
226.9647, 1978.495
227.4468, 1978.809
227.9289, 1986.734
228.4111, 1996.023
228.8932, 2004.019
229.3753, 2010.648
229.8574, 2016.360
230.3395, 2021.873
230.8216, 2026.292
231.3038, 2027.242
231.7859, 2024.792
232.2680, 2018.706
232.7501, 2008.340
233.2322, 1991.167
233.7143, 1975.334
234.1965, 1960.617
234.6786, 1947.196
235.1607, 1935.392
235.6428, 1925.164
236.1249, 1916.543
236.6070, 1909.675
237.0892, 1905.251
237.5713, 1900.902
238.0534, 1896.056
238.5355, 1891.409
239.0176, 1889.206
239.4997, 1892.157
239.9819, 1893.587
240.4640, 1890.357
240.9461, 1880.172
241.4282, 1870.734
241.9103, 1862.218
242.3924, 1854.411
242.8746, 1846.747
243.3567, 1838.920
243.8388, 1831.737
244.3209, 1825.364
244.8030, 1819.458
245.2851, 1815.592
245.7673, 1814.429
246.2494, 1815.063
246.7315, 1815.650
247.2136, 1816.488
247.6957, 1816.826
248.1778, 1816.277
248.6600, 1814.489
249.1421, 1812.934
249.6242, 1811.812
250.1063, 1810.800
250.5884, 1809.113
251.0705, 1805.905
251.5527, 1803.427
252.0348, 1802.567
252.5169, 1803.638
252.9990, 1805.175
253.4811, 1807.382
253.9632, 1809.917
254.4454, 1812.252
254.9275, 1814.695
255.4096, 1816.338
255.8917, 1816.568
256.3738, 1814.815
256.8560, 1814.347
257.3381, 1815.666
257.8202, 1817.846
258.3023, 1819.585
258.7844, 1820.913
259.2665, 1821.726
259.7487, 1822.068
260.2308, 1822.007
260.7129, 1820.629
261.1950, 1816.730
261.6771, 1812.806
262.1592, 1812.883
262.6414, 1819.043
263.1235, 1823.829
263.6056, 1824.279
264.0877, 1819.895
264.5698, 1819.130
265.0519, 1823.391
265.5341, 1829.336
266.0162, 1833.358
266.4983, 1835.403
266.9804, 1835.443
267.4625, 1832.413
267.9446, 1826.437
268.4268, 1824.616
268.9089, 1828.572
269.3910, 1833.880
269.8731, 1835.674
270.3552, 1832.884
270.8373, 1830.811
271.3195, 1830.611
271.8016, 1832.157
272.2837, 1834.259
272.7658, 1837.059
273.2479, 1840.132
273.7300, 1843.039
274.2122, 1845.659
274.6943, 1848.888
275.1764, 1853.150
275.6585, 1858.165
276.1406, 1862.457
276.6227, 1866.002
277.1049, 1868.961
277.5870, 1871.362
278.0691, 1873.177
278.5512, 1874.794
279.0333, 1876.057
279.5154, 1877.280
279.9976, 1879.719
280.4797, 1883.598
280.9618, 1887.559
281.4439, 1891.253
281.9260, 1894.666
282.4081, 1895.712
282.8903, 1893.619
283.3724, 1889.544
283.8545, 1885.688
284.3366, 1881.932
284.8187, 1879.618
285.3008, 1880.565
285.7830, 1884.411
286.2651, 1886.589
286.7472, 1886.370
287.2293, 1884.969
287.7114, 1884.415
288.1935, 1884.698
288.6757, 1885.448
289.1578, 1886.666
289.6399, 1888.234
290.1220, 1889.436
290.6041, 1890.141
291.0862, 1890.769
291.5684, 1891.881
292.0505, 1893.462
292.5326, 1895.307
293.0147, 1897.519
293.4968, 1899.929
293.9789, 1902.224
294.4611, 1904.440
294.9432, 1906.215
295.4253, 1906.470
295.9074, 1905.689
296.3895, 1905.912
296.8716, 1909.003
297.3538, 1913.470
297.8359, 1916.002
298.3180, 1916.549
298.8001, 1916.889
299.2822, 1918.321
299.7643, 1920.849
300.2465, 1924.540
300.7286, 1930.766
301.2107, 1937.262
301.6928, 1940.023
302.1749, 1939.304
302.6570, 1939.370
303.1392, 1945.141
303.6213, 1953.776
304.1034, 1960.308
304.5855, 1963.281
305.0676, 1963.737
305.5497, 1962.880
306.0319, 1960.582
306.5140, 1956.113
306.9961, 1948.269
307.4782, 1938.295
307.9603, 1927.185
308.4424, 1914.181
308.9246, 1902.065
309.4067, 1893.151
309.8888, 1886.909
310.3709, 1881.710
310.8530, 1876.936
311.3351, 1872.743
311.8173, 1869.277
312.2994, 1866.529
312.7815, 1864.478
313.2636, 1863.748
313.7457, 1863.686
314.2278, 1863.104
314.7100, 1860.705
315.1921, 1858.251
315.6742, 1856.974
316.1563, 1857.215
316.6384, 1857.394
317.1205, 1856.531
317.6027, 1855.318
318.0848, 1854.633
318.5669, 1855.500
319.0490, 1856.270
319.5311, 1855.999
320.0132, 1854.578
320.4954, 1853.762
320.9775, 1853.722
321.4596, 1854.631
321.9417, 1856.654
322.4238, 1861.474
322.9059, 1865.678
323.3881, 1868.460
323.8702, 1869.850
324.3523, 1870.705
324.8344, 1870.174
325.3165, 1869.795
325.7986, 1870.474
326.2808, 1873.476
326.7629, 1876.164
327.2450, 1878.435
327.7271, 1880.295
328.2092, 1881.746
328.6913, 1881.394
329.1735, 1881.867
329.6556, 1884.331
330.1377, 1890.208
330.6198, 1895.365
331.1019, 1899.775
331.5840, 1903.431
332.0662, 1906.183
332.5483, 1906.211
333.0304, 1907.958
333.5125, 1913.275
333.9946, 1923.168
334.4767, 1931.330
334.9589, 1936.684
335.4410, 1941.238
335.9231, 1947.722
336.4052, 1957.020
336.8873, 1965.736
337.3694, 1972.539
337.8515, 1977.616
338.3336, 1984.764
338.8158, 1994.418
339.2979, 2005.346
339.7800, 2016.761
340.2621, 2028.625
340.7442, 2040.818
341.2263, 2053.062
341.7085, 2065.603
342.1906, 2078.547
342.6727, 2091.980
343.1548, 2105.999
343.6369, 2120.584
344.1190, 2135.667
344.6012, 2152.542
345.0833, 2171.449
345.5654, 2191.727
346.0475, 2211.564
346.5296, 2231.022
347.0117, 2253.039
347.4939, 2280.653
347.9760, 2311.892
348.4581, 2340.454
348.9402, 2365.492
349.4223, 2390.607
349.9044, 2421.743
350.3866, 2457.189
350.8687, 2491.406
351.3508, 2523.309
351.8329, 2552.441
352.3150, 2578.668
352.7971, 2602.053
353.2793, 2621.352
353.7614, 2636.972
354.2435, 2648.004
354.7256, 2653.379
355.2077, 2654.292
355.6898, 2647.580
356.1720, 2629.156
356.6541, 2600.038
357.1362, 2565.191
357.6183, 2524.988
358.1004, 2481.371
358.5826, 2435.276
359.0647, 2385.154
359.5468, 2337.033
360.0289, 2293.849
360.5110, 2254.958
360.9931, 2218.984
361.4753, 2186.312
361.9574, 2156.140
362.4395, 2128.222
362.9216, 2102.570
363.4037, 2078.955
363.8858, 2057.680
364.3680, 2038.283
364.8501, 2020.207
365.3322, 2003.051
365.8143, 1987.787
366.2964, 1974.993
366.7785, 1964.604
367.2607, 1955.195
367.7428, 1946.498
368.2249, 1938.769
368.7070, 1932.161
369.1891, 1927.023
369.6712, 1922.621
370.1534, 1919.497
370.6355, 1917.070
371.1176, 1913.458
371.5997, 1907.481
372.0818, 1901.734
372.5639, 1897.166
373.0461, 1893.911
373.5282, 1891.254
374.0103, 1889.426
374.4924, 1887.858
374.9745, 1885.660
375.4566, 1882.565
375.9388, 1879.614
376.4209, 1877.082
376.9030, 1874.964
377.3851, 1873.379
377.8672, 1872.318
378.3493, 1871.886
378.8315, 1872.409
379.3136, 1873.945
379.7957, 1875.504
380.2778, 1877.185
380.7599, 1878.571
381.2420, 1878.213
381.7242, 1876.117
382.2063, 1874.222
382.6884, 1873.919
383.1705, 1874.835
383.6526, 1875.740
384.1347, 1876.447
384.6169, 1877.227
385.0990, 1878.760
385.5811, 1880.703
386.0632, 1881.922
386.5453, 1880.688
387.0274, 1878.964
387.5096, 1879.701
387.9917, 1882.911
388.4738, 1886.513
388.9559, 1889.240
389.4380, 1891.256
389.9201, 1892.747
390.4023, 1893.384
390.8844, 1893.994
391.3665, 1894.874
391.8486, 1896.133
392.3307, 1898.111
392.8128, 1901.153
393.2950, 1904.827
393.7771, 1908.911
394.2592, 1913.441
394.7413, 1918.063
395.2234, 1922.890
395.7055, 1927.624
396.1877, 1931.819
396.6698, 1934.536
397.1519, 1937.484
397.6340, 1941.289
398.1161, 1946.071
398.5982, 1950.886
399.0804, 1958.125
399.5625, 1963.929
400.0446, 1965.473
400.5267, 1960.870
401.0088, 1954.739
401.4909, 1946.466
401.9731, 1936.924
402.4552, 1929.809
402.9373, 1925.967
403.4194, 1923.196
403.9015, 1920.301
404.3836, 1916.791
404.8658, 1915.217
405.3479, 1916.074
405.8300, 1918.161
406.3121, 1919.806
406.7942, 1920.941
407.2763, 1921.843
407.7585, 1922.271
408.2406, 1922.466
408.7227, 1923.904
409.2048, 1926.615
409.6869, 1930.026
410.1690, 1932.882
410.6512, 1935.716
411.1333, 1941.542
411.6154, 1951.571
412.0975, 1963.691
412.5796, 1975.502
413.0617, 1986.919
413.5439, 1997.695
414.0260, 2006.513
414.5081, 2015.210
414.9902, 2026.949
415.4723, 2042.335
415.9544, 2057.442
416.4366, 2068.396
416.9187, 2077.068
417.4008, 2086.212
417.8829, 2101.116
418.3650, 2113.237
418.8471, 2117.787
419.3293, 2115.161
419.8114, 2108.140
420.2935, 2094.277
420.7756, 2078.702
421.2577, 2064.991
421.7398, 2053.129
422.2220, 2043.840
422.7041, 2037.160
423.1862, 2033.108
423.6683, 2031.630
424.1504, 2033.088
424.6325, 2036.776
425.1147, 2042.488
425.5968, 2050.304
426.0789, 2059.868
426.5610, 2070.188
427.0431, 2083.151
427.5252, 2100.411
428.0074, 2123.271
428.4895, 2147.452
428.9716, 2172.581
429.4537, 2198.348
429.9358, 2224.038
430.4179, 2250.254
430.9001, 2273.970
431.3822, 2294.922
431.8643, 2313.208
432.3464, 2322.841
432.8285, 2324.360
433.3106, 2315.499
433.7928, 2290.635
434.2749, 2251.122
434.7570, 2207.641
435.2391, 2160.405
435.7212, 2113.662
436.2033, 2075.447
436.6855, 2045.799
437.1676, 2021.736
437.6497, 2001.762
438.1318, 1985.943
438.6139, 1974.890
439.0960, 1969.345
439.5782, 1966.179
440.0603, 1962.209
440.5424, 1958.822
441.0245, 1958.647
441.5066, 1965.391
441.9887, 1973.496
442.4709, 1979.321
442.9530, 1982.876
443.4351, 1987.734
443.9172, 1995.495
444.3993, 2004.872
444.8814, 2014.831
445.3636, 2025.240
445.8457, 2036.214
446.3278, 2047.288
446.8099, 2058.877
447.2920, 2072.312
447.7741, 2087.749
448.2563, 2105.048
448.7384, 2124.535
449.2205, 2146.967
449.7026, 2166.965
450.1847, 2182.804
450.6668, 2198.145
451.1490, 2216.213
451.6311, 2237.409
452.1132, 2260.145
452.5953, 2284.552
453.0774, 2310.257
453.5595, 2337.593
454.0417, 2366.708
454.5238, 2397.044
455.0059, 2429.465
455.4880, 2463.159
455.9701, 2494.992
456.4522, 2524.335
456.9344, 2554.248
457.4165, 2586.456
457.8986, 2621.877
458.3807, 2662.220
458.8628, 2709.733
459.3449, 2760.975
459.8271, 2811.676
460.3092, 2862.804
460.7913, 2919.313
461.2734, 2987.783
461.7555, 3060.406
462.2376, 3131.850
462.7198, 3200.762
463.2019, 3268.207
463.6840, 3339.230
464.1661, 3406.880
464.6482, 3462.743
465.1303, 3509.156
465.6125, 3538.751
466.0946, 3548.211
466.5767, 3538.337
467.0588, 3515.433
467.5409, 3478.636
468.0230, 3430.097
468.5052, 3370.524
468.9873, 3299.474
469.4694, 3217.989
469.9515, 3122.608
470.4336, 3020.283
470.9157, 2918.171
471.3979, 2815.457
471.8800, 2717.509
472.3621, 2624.060
472.8442, 2536.948
473.3263, 2461.677
473.8084, 2398.749
474.2906, 2343.614
474.7727, 2293.528
475.2548, 2248.518
475.7369, 2209.019
476.2190, 2175.123
476.7011, 2146.048
477.1833, 2121.182
477.6654, 2100.034
478.1475, 2081.273
478.6296, 2064.917
479.1117, 2050.291
479.5938, 2036.968
480.0760, 2024.830
480.5581, 2013.516
481.0402, 2002.289
481.5223, 1991.979
482.0044, 1983.457
482.4865, 1977.629
482.9687, 1971.826
483.4508, 1964.880
483.9329, 1957.479
484.4150, 1950.693
484.8971, 1946.510
485.3792, 1940.985
485.8614, 1931.649
486.3435, 1918.968
486.8256, 1910.365
487.3077, 1908.584
487.7898, 1907.754
488.2719, 1904.512
488.7541, 1897.645
489.2362, 1892.604
489.7183, 1889.916
490.2004, 1888.389
490.6825, 1886.271
491.1646, 1883.505
491.6468, 1880.480
492.1289, 1876.819
492.6110, 1873.211
493.0931, 1871.838
493.5752, 1872.670
494.0573, 1873.811
494.5395, 1874.221
495.0216, 1873.899
495.5037, 1872.675
495.9858, 1870.433
496.4679, 1867.980
496.9500, 1866.078
497.4322, 1864.487
497.9143, 1862.844
498.3964, 1861.171
498.8785, 1859.272
499.3606, 1856.710
499.8427, 1853.703
500.3249, 1851.400
500.8070, 1850.090
501.2891, 1849.647
501.7712, 1850.196
502.2533, 1852.218
502.7354, 1853.877
503.2176, 1854.914
503.6997, 1855.568
504.1818, 1856.003
504.6639, 1855.788
505.1460, 1856.021
505.6281, 1856.453
506.1103, 1857.466
506.5924, 1861.285
507.0745, 1869.035
507.5566, 1875.525
508.0387, 1877.471
508.5208, 1875.122
509.0030, 1873.336
509.4851, 1872.026
509.9672, 1871.818
510.4493, 1874.017
510.9314, 1878.003
511.4135, 1881.498
511.8957, 1883.401
512.3778, 1885.525
512.8599, 1890.285
513.3420, 1897.083
513.8242, 1904.096
514.3063, 1910.027
514.7884, 1916.202
515.2705, 1923.707
515.7526, 1932.590
516.2347, 1941.895
516.7169, 1951.274
517.1990, 1960.867
517.6811, 1970.774
518.1632, 1981.091
518.6453, 1991.551
519.1274, 2001.281
519.6096, 2011.308
520.0917, 2023.646
520.5738, 2040.425
521.0559, 2055.943
521.5380, 2069.226
522.0201, 2080.201
522.5023, 2087.325
522.9844, 2090.157
523.4665, 2090.446
523.9486, 2088.910
524.4307, 2085.644
524.9128, 2082.467
525.3950, 2079.622
525.8771, 2076.653
526.3592, 2071.501
526.8413, 2065.390
527.3234, 2062.726
527.8055, 2066.456
528.2877, 2073.136
528.7698, 2079.928
529.2519, 2086.520
529.7340, 2091.901
530.2161, 2096.361
530.6982, 2098.789
531.1804, 2098.176
531.6625, 2094.167
532.1446, 2088.672
532.6267, 2080.750
533.1088, 2072.462
533.5909, 2065.832
534.0731, 2059.082
534.5552, 2056.620
535.0373, 2060.245
535.5194, 2068.068
536.0015, 2075.370
536.4836, 2080.848
536.9658, 2088.254
537.4479, 2098.409
537.9300, 2111.287
538.4121, 2128.594
538.8942, 2150.577
539.3763, 2175.544
539.8585, 2202.241
540.3406, 2230.700
540.8227, 2260.846
541.3048, 2292.694
541.7869, 2327.195
542.2690, 2367.021
542.7512, 2410.612
543.2333, 2454.048
543.7154, 2494.360
544.1975, 2534.978
544.6796, 2580.063
545.1617, 2628.637
545.6439, 2674.547
546.1260, 2721.148
546.6081, 2759.637
547.0902, 2787.536
547.5723, 2807.411
548.0544, 2803.307
548.5366, 2763.825
549.0187, 2704.223
549.5008, 2637.200
549.9829, 2556.294
550.4650, 2479.373
550.9471, 2406.148
551.4293, 2338.844
551.9114, 2281.234
552.3935, 2233.802
552.8756, 2193.769
553.3577, 2160.648
553.8398, 2134.063
554.3220, 2112.936
554.8041, 2097.269
555.2862, 2085.093
555.7683, 2076.399
556.2504, 2069.663
556.7325, 2061.378
557.2147, 2050.800
557.6968, 2040.234
558.1789, 2031.920
558.6610, 2024.747
559.1431, 2017.158
559.6252, 2008.181
560.1074, 1999.104
560.5895, 1990.076
561.0716, 1981.249
561.5537, 1973.331
562.0358, 1965.602
562.5179, 1959.541
563.0001, 1955.818
563.4822, 1954.559
563.9643, 1954.157
564.4464, 1954.352
564.9285, 1955.789
565.4106, 1959.494
565.8928, 1966.056
566.3749, 1970.987
566.8570, 1973.663
567.3391, 1975.372
567.8212, 1979.598
568.3033, 1985.524
568.7855, 1986.539
569.2676, 1978.251
569.7497, 1966.053
570.2318, 1957.244
570.7139, 1951.496
571.1960, 1946.656
571.6782, 1941.572
572.1603, 1936.881
572.6424, 1932.912
573.1245, 1929.602
573.6066, 1927.941
574.0887, 1928.730
574.5709, 1931.050
575.0530, 1934.178
575.5351, 1938.214
576.0172, 1942.838
576.4993, 1947.334
576.9814, 1952.743
577.4636, 1960.824
577.9457, 1972.297
578.4278, 1984.480
578.9099, 1996.368
579.3920, 2010.415
579.8741, 2022.791
580.3563, 2039.760
580.8384, 2056.270
581.3205, 2072.236
581.8026, 2086.369
582.2847, 2094.741
582.7668, 2097.311
583.2490, 2093.538
583.7311, 2082.584
584.2131, 2065.239
584.6953, 2040.833
585.1774, 2005.100
585.6595, 1972.525
586.1416, 1950.853
586.6237, 1937.151
587.1058, 1926.571
587.5880, 1921.593
