##NAMES=Beryl
##RRUFFID=R050121
##IDEAL CHEMISTRY=Be_3_Al_2_Si_6_O_18_
##LOCALITY=Cruziero mine, San Jose, Minas Gerais, Brazil
##OWNER=RRUFF
##SOURCE=Carlos and Paulo Vasconcelos
##DESCRIPTION=Light blue fragment, variety aquamarine
##STATUS=The identification of this mineral has been confirmed by X-ray diffraction and chemical analysis
##URL=rruff.info/R050121
##MEASURED CHEMISTRY=(Be_0.96_Li_0.04_)_3_Al_2.00_Si_6.00_O_18_Î‡Na_0.09_Mg_0.03_
93.78320, 28.84301
94.26532, 29.10606
94.74744, 29.23119
95.22955, 29.14364
95.71167, 28.95631
96.19379, 28.66003
96.67590, 28.25700
97.15802, 27.95685
97.64014, 27.85542
98.12225, 27.86077
98.60437, 27.81571
99.08649, 27.66867
99.56860, 27.46921
100.0507, 27.30111
100.5328, 27.13309
101.0150, 26.93393
101.4971, 26.65549
101.9792, 26.29096
102.4613, 25.99488
102.9434, 25.84140
103.4255, 25.76765
103.9077, 25.75742
104.3898, 25.82089
104.8719, 25.90096
105.3540, 25.87838
105.8361, 25.70123
106.3182, 25.49802
106.8004, 25.29052
107.2825, 25.07914
107.7646, 24.84730
108.2467, 24.57465
108.7288, 24.27224
109.2109, 24.11191
109.6931, 24.24113
110.1752, 24.35922
110.6573, 24.34343
111.1394, 24.23826
111.6215, 24.18241
112.1036, 24.30782
112.5858, 24.65051
113.0679, 24.91085
113.5500, 24.99043
114.0321, 25.06147
114.5142, 25.28673
114.9964, 25.69127
115.4785, 26.09733
115.9606, 26.24861
116.4427, 26.16101
116.9248, 26.14771
117.4069, 26.34052
117.8891, 26.65253
118.3712, 26.90975
118.8533, 27.07568
119.3354, 27.17610
119.8175, 27.22138
120.2996, 27.21775
120.7818, 27.23475
121.2639, 27.34320
121.7460, 27.54760
122.2281, 27.71718
122.7102, 27.81535
123.1923, 27.87762
123.6745, 27.92152
124.1566, 27.94927
124.6387, 27.94757
125.1208, 27.88821
125.6029, 27.72750
126.0850, 27.60093
126.5672, 27.51240
127.0493, 27.45779
127.5314, 27.44855
128.0135, 27.48712
128.4956, 27.54699
128.9777, 27.55342
129.4599, 27.29062
129.9420, 27.22116
130.4241, 27.54021
130.9062, 28.04930
131.3883, 28.43894
131.8705, 28.52308
132.3526, 28.37646
132.8347, 28.42927
133.3168, 28.83288
133.7989, 29.23595
134.2810, 29.44971
134.7632, 29.51223
135.2453, 29.63361
135.7274, 29.98131
136.2095, 30.49720
136.6916, 30.93723
137.1737, 31.25647
137.6559, 31.51661
138.1380, 31.81601
138.6201, 32.18682
139.1022, 32.44262
139.5843, 32.34883
140.0664, 32.07749
140.5486, 31.86890
141.0307, 31.88114
141.5128, 32.01725
141.9949, 31.97822
142.4770, 31.65122
142.9591, 31.30527
143.4413, 31.06145
143.9234, 30.88587
144.4055, 30.71884
144.8876, 30.54509
145.3697, 30.36633
145.8518, 30.03045
146.3340, 29.46751
146.8161, 28.79380
147.2982, 27.96161
147.7803, 27.02664
148.2624, 26.11371
148.7445, 25.34032
149.2267, 24.73635
149.7088, 24.18749
150.1909, 23.67286
150.6730, 23.21371
151.1551, 22.83968
151.6372, 22.54584
152.1194, 22.28636
152.6015, 21.99783
153.0836, 21.64800
153.5657, 21.37592
154.0478, 21.23438
154.5299, 21.14471
155.0121, 21.02022
155.4942, 20.83603
155.9763, 20.65079
156.4584, 20.58047
156.9405, 20.63959
157.4227, 20.64557
157.9048, 20.47300
158.3869, 20.21578
158.8690, 20.08914
159.3511, 20.19547
159.8332, 20.37868
160.3154, 20.45759
160.7975, 20.43483
161.2796, 20.35399
161.7617, 20.17827
162.2438, 19.92308
162.7259, 19.81143
163.2081, 20.03185
163.6902, 20.30894
164.1723, 20.42827
164.6544, 20.37091
165.1365, 20.26174
165.6186, 20.23718
166.1008, 20.31867
166.5829, 20.38953
167.0650, 20.38773
167.5471, 20.39682
168.0292, 20.48798
168.5113, 20.67452
168.9935, 20.88953
169.4756, 21.01043
169.9577, 20.94711
170.4398, 20.96508
170.9219, 21.17776
171.4040, 21.41620
171.8862, 21.52499
172.3683, 21.44960
172.8504, 21.26949
173.3325, 21.17267
173.8146, 21.24740
174.2967, 21.31009
174.7789, 21.31895
175.2610, 21.32489
175.7431, 21.39039
176.2252, 21.54534
176.7073, 21.76834
177.1894, 21.99054
177.6716, 22.19175
178.1537, 22.41671
178.6358, 22.69909
179.1179, 23.01095
179.6000, 23.31950
180.0821, 23.62793
180.5643, 23.88994
181.0464, 23.96596
181.5285, 23.76869
182.0106, 23.55225
182.4927, 23.42278
182.9749, 23.37144
183.4570, 23.35783
183.9391, 23.36033
184.4212, 23.39717
184.9033, 23.50080
185.3854, 23.72523
185.8676, 23.92840
186.3497, 23.98620
186.8318, 23.89569
187.3139, 23.75959
187.7960, 23.52074
188.2781, 23.31071
188.7603, 23.31898
189.2424, 23.66004
189.7245, 24.05269
190.2066, 24.06945
190.6887, 23.57282
191.1708, 23.20271
191.6530, 23.33305
192.1351, 23.61997
192.6172, 23.78529
193.0993, 23.73033
193.5814, 23.51325
194.0635, 23.23403
194.5457, 22.85070
195.0278, 22.48879
195.5099, 22.08743
195.9920, 21.75204
196.4741, 21.62436
196.9562, 21.77712
197.4384, 22.09127
197.9205, 22.21622
198.4026, 21.96139
198.8847, 21.76513
199.3668, 21.69897
199.8489, 21.71214
200.3311, 21.74585
200.8132, 21.77032
201.2953, 21.79593
201.7774, 21.86337
202.2595, 22.16135
202.7416, 22.28611
203.2238, 22.03326
203.7059, 21.61712
204.1880, 21.35568
204.6701, 21.42987
205.1522, 21.74413
205.6344, 21.86820
206.1165, 21.56267
206.5986, 21.36287
207.0807, 21.44147
207.5628, 21.70127
208.0449, 21.98639
208.5271, 22.23934
209.0092, 22.42376
209.4913, 22.37698
209.9734, 21.97704
210.4555, 21.54963
210.9376, 21.16132
211.4198, 20.82740
211.9019, 20.58673
212.3840, 20.45998
212.8661, 20.45183
213.3482, 20.56289
213.8303, 20.90394
214.3125, 21.18117
214.7946, 21.21581
215.2767, 21.03534
215.7588, 20.76210
216.2409, 20.33607
216.7230, 19.94037
217.2052, 19.90274
217.6873, 20.40261
218.1694, 20.88555
218.6515, 20.84230
219.1336, 20.29556
219.6157, 19.85468
220.0979, 19.80166
220.5800, 19.94373
221.0621, 20.08783
221.5442, 20.22788
222.0263, 20.31276
222.5084, 20.24774
222.9906, 20.01154
223.4727, 19.85818
223.9548, 20.00714
224.4369, 20.18525
224.9190, 20.17206
225.4011, 19.92050
225.8833, 19.59030
226.3654, 19.34243
226.8475, 19.17202
227.3296, 19.11517
227.8117, 19.32430
228.2938, 19.55836
228.7760, 19.65253
229.2581, 19.57700
229.7402, 19.44340
230.2223, 19.39843
230.7044, 19.46524
231.1866, 19.54938
231.6687, 19.71159
232.1508, 19.83850
232.6329, 19.81360
233.1150, 19.63417
233.5971, 19.43958
234.0793, 19.46319
234.5614, 19.88985
235.0435, 20.06740
235.5256, 19.82209
236.0077, 19.48137
236.4898, 19.19463
236.9720, 19.01329
237.4541, 18.95295
237.9362, 19.06324
238.4183, 19.48369
238.9004, 19.72668
239.3825, 19.68048
239.8647, 19.57411
240.3468, 19.56376
240.8289, 19.66410
241.3110, 19.77288
241.7931, 19.75718
242.2752, 19.55228
242.7574, 19.40493
243.2395, 19.22256
243.7216, 19.15415
244.2037, 19.38902
244.6858, 19.90101
245.1679, 20.41971
245.6501, 20.63684
246.1322, 20.45943
246.6143, 20.31543
247.0964, 20.23924
247.5785, 20.16645
248.0606, 20.03681
248.5428, 19.85448
249.0249, 19.68577
249.5070, 19.59692
249.9891, 19.60205
250.4712, 19.61251
250.9533, 19.60523
251.4355, 19.62035
251.9176, 19.69949
252.3997, 19.83816
252.8818, 19.98537
253.3639, 20.10791
253.8460, 20.20019
254.3282, 20.23432
254.8103, 20.21476
255.2924, 20.13644
255.7745, 20.02700
256.2566, 19.87564
256.7387, 19.57669
257.2209, 18.98610
257.7030, 18.16810
258.1851, 17.56207
258.6672, 17.26472
259.1493, 17.10206
259.6314, 16.97880
260.1136, 16.89264
260.5957, 16.85101
261.0778, 16.91280
261.5599, 16.99936
262.0420, 16.89582
262.5241, 16.46136
263.0063, 16.00097
263.4884, 15.70276
263.9705, 15.56019
264.4526, 15.51313
264.9347, 15.51451
265.4168, 15.62619
265.8990, 15.96860
266.3811, 16.70675
266.8632, 17.32659
267.3453, 17.36270
267.8275, 16.88825
268.3096, 16.47260
268.7917, 16.31373
269.2738, 16.32482
269.7559, 16.35642
270.2380, 16.39740
270.7202, 16.50864
271.2023, 16.81249
271.6844, 17.26504
272.1665, 17.55586
272.6486, 17.52703
273.1307, 17.38527
273.6129, 17.36213
274.0950, 17.45654
274.5771, 17.51920
275.0592, 17.41247
275.5413, 17.17190
276.0234, 17.00664
276.5056, 16.96323
276.9877, 16.98758
277.4698, 17.04761
277.9519, 17.13527
278.4340, 17.21055
278.9161, 17.21589
279.3983, 17.17966
279.8804, 17.23232
280.3625, 17.39924
280.8446, 17.63530
281.3267, 18.01903
281.8088, 18.44965
282.2910, 18.68024
282.7731, 18.44817
283.2552, 17.91847
283.7373, 17.63925
284.2194, 17.67364
284.7015, 17.85878
285.1837, 18.23192
285.6658, 18.66468
286.1479, 18.95466
286.6300, 18.97347
287.1121, 18.82859
287.5942, 18.74625
288.0764, 18.71500
288.5585, 18.78121
289.0406, 19.06800
289.5227, 19.40896
290.0048, 19.61798
290.4869, 19.61852
290.9691, 19.50905
291.4512, 19.41337
291.9333, 19.26913
292.4154, 19.34574
292.8975, 19.92358
293.3796, 20.62080
293.8618, 21.14735
294.3439, 21.42966
294.8260, 21.60510
295.3081, 21.86958
295.7902, 22.26635
296.2723, 22.54407
296.7545, 22.47703
297.2366, 22.40778
297.7187, 22.58147
298.2008, 22.99634
298.6829, 23.41342
299.1650, 23.54069
299.6472, 23.33517
300.1293, 23.25082
300.6114, 23.45650
301.0935, 23.66338
301.5756, 23.66604
302.0577, 23.53568
302.5399, 23.52701
303.0220, 23.88894
303.5041, 24.60146
303.9862, 25.23471
304.4683, 25.77129
304.9504, 26.23797
305.4326, 26.60878
305.9147, 26.92459
306.3968, 27.25244
306.8789, 27.62629
307.3610, 28.04775
307.8431, 28.51499
308.3253, 29.02065
308.8074, 29.59321
309.2895, 30.28544
309.7716, 31.02419
310.2537, 31.66999
310.7358, 32.13993
311.2180, 32.60786
311.7001, 33.51045
312.1822, 35.14455
312.6643, 36.57167
313.1464, 37.35465
313.6285, 38.03809
314.1107, 39.02353
314.5928, 40.42647
315.0749, 42.17682
315.5570, 44.20774
316.0392, 46.57558
316.5213, 49.01701
317.0034, 51.18394
317.4855, 53.67823
317.9676, 56.80690
318.4497, 60.60909
318.9319, 64.97780
319.4140, 69.92784
319.8961, 75.51020
320.3782, 81.07217
320.8603, 86.37798
321.3424, 91.88039
321.8246, 98.40860
322.3067, 105.3379
322.7888, 111.3700
323.2709, 115.8123
323.7530, 118.5472
324.2351, 118.5084
324.7173, 114.9222
325.1994, 109.2977
325.6815, 101.4497
326.1636, 92.28804
326.6457, 82.77602
327.1278, 73.27563
327.6100, 64.10122
328.0921, 55.91724
328.5742, 48.67496
329.0563, 42.62157
329.5384, 37.98280
330.0205, 34.27985
330.5027, 31.22363
330.9848, 28.71287
331.4669, 26.63917
331.9490, 24.91875
332.4311, 23.63369
332.9132, 22.34263
333.3954, 20.70655
333.8775, 19.25508
334.3596, 18.38590
334.8417, 18.07309
335.3238, 17.92683
335.8059, 17.60162
336.2881, 17.09395
336.7702, 16.62610
337.2523, 16.20249
337.7344, 15.82497
338.2165, 15.50079
338.6986, 15.21975
339.1808, 14.94921
339.6629, 14.63715
340.1450, 14.32906
340.6271, 14.22980
341.1092, 14.50048
341.5913, 14.66626
342.0735, 14.43157
342.5556, 14.04139
343.0377, 13.81494
343.5198, 13.90524
344.0019, 14.09883
344.4840, 14.01491
344.9662, 13.56894
345.4483, 13.21573
345.9304, 13.12669
346.4125, 13.16731
346.8946, 13.31305
347.3767, 13.55706
347.8589, 13.73705
348.3410, 13.61944
348.8231, 13.21535
349.3052, 13.00659
349.7873, 13.22673
350.2694, 13.46983
350.7516, 13.42656
351.2337, 13.15170
351.7158, 12.89506
352.1979, 12.80052
352.6800, 12.83820
353.1621, 12.93032
353.6443, 13.11722
354.1264, 13.26239
354.6085, 13.26165
355.0906, 13.17369
355.5727, 13.08193
356.0548, 13.00959
356.5370, 12.95022
357.0191, 12.88252
357.5012, 12.80141
357.9833, 12.77097
358.4654, 12.82016
358.9475, 12.93878
359.4297, 13.13136
359.9118, 13.41879
360.3939, 13.68555
360.8760, 13.84686
361.3581, 13.91323
361.8402, 13.93987
362.3224, 13.93549
362.8045, 13.89767
363.2866, 13.78947
363.7687, 13.62239
364.2508, 13.53205
364.7329, 13.59433
365.2151, 13.75974
365.6972, 13.96527
366.1793, 14.21649
366.6614, 14.44555
367.1436, 14.57728
367.6257, 14.64483
368.1078, 14.75190
368.5899, 14.99960
369.0720, 15.21912
369.5541, 15.17521
370.0363, 14.92531
370.5184, 14.86982
371.0005, 15.24826
371.4826, 15.89460
371.9647, 16.44223
372.4468, 16.91262
372.9290, 17.24891
373.4111, 17.30300
373.8932, 17.22974
374.3753, 17.32575
374.8574, 17.67931
375.3395, 18.13719
375.8217, 18.47180
376.3038, 18.64558
376.7859, 19.05131
377.2680, 19.92578
377.7501, 20.91244
378.2322, 21.73551
378.7144, 22.37401
379.1965, 22.87801
379.6786, 23.22241
380.1607, 23.45381
380.6428, 24.06668
381.1249, 25.40252
381.6071, 26.67748
382.0892, 27.60756
382.5713, 28.28677
383.0534, 28.88098
383.5355, 29.45821
384.0176, 30.03730
384.4998, 30.66505
384.9819, 31.36269
385.4640, 32.08286
385.9461, 32.56660
386.4282, 33.23146
386.9103, 34.51672
387.3925, 36.43206
387.8746, 38.59836
388.3567, 40.57446
388.8388, 42.28575
389.3209, 44.36234
389.8030, 47.03476
390.2852, 49.78685
390.7673, 52.24399
391.2494, 54.64461
391.7315, 57.48277
392.2136, 61.05161
392.6957, 65.23641
393.1779, 69.56782
393.6600, 74.47668
394.1421, 78.89261
394.6242, 82.67139
395.1063, 86.00644
395.5884, 89.22977
396.0706, 92.35870
396.5527, 94.79652
397.0348, 95.80258
397.5169, 95.30748
397.9990, 93.62182
398.4811, 90.28059
398.9633, 86.13357
399.4454, 81.13706
399.9275, 75.56850
400.4096, 69.88797
400.8917, 64.37704
401.3738, 59.04956
401.8560, 53.93055
402.3381, 48.87453
402.8202, 44.35553
403.3023, 40.52908
403.7844, 37.20628
404.2665, 34.21861
404.7487, 31.52038
405.2308, 29.10107
405.7129, 26.93353
406.1950, 24.99556
406.6771, 23.49608
407.1592, 22.82847
407.6414, 22.26775
408.1235, 21.21257
408.6056, 19.75000
409.0877, 18.40927
409.5698, 17.51314
410.0519, 16.95472
410.5341, 16.52015
411.0162, 16.24371
411.4983, 15.94478
411.9804, 15.45391
412.4625, 14.88348
412.9446, 14.42700
413.4268, 14.13815
413.9089, 13.92982
414.3910, 13.74468
414.8731, 13.58473
415.3553, 13.46594
415.8374, 13.40663
416.3195, 13.36882
416.8016, 13.31093
417.2837, 13.24079
417.7658, 13.10596
418.2480, 12.78548
418.7301, 12.44965
419.2122, 12.32543
419.6943, 12.42841
420.1764, 12.56324
420.6585, 12.58167
421.1407, 12.49136
421.6228, 12.41247
422.1049, 12.31187
422.5870, 12.25570
423.0691, 12.35735
423.5512, 12.50752
424.0334, 12.47164
424.5155, 12.14820
424.9976, 11.71330
425.4797, 11.50258
425.9618, 11.67769
426.4439, 11.76545
426.9261, 11.69393
427.4082, 11.59455
427.8903, 11.58759
428.3724, 11.65533
428.8545, 11.66630
429.3366, 11.49532
429.8188, 11.15559
430.3009, 10.95951
430.7830, 11.04234
431.2651, 11.12878
431.7472, 11.18389
432.2293, 11.21683
432.7115, 11.22806
433.1936, 11.21974
433.6757, 11.22708
434.1578, 11.32443
434.6399, 11.55416
435.1220, 11.72215
435.6042, 11.79206
436.0863, 11.81248
436.5684, 11.77353
437.0505, 11.69797
437.5326, 11.64088
438.0147, 11.62130
438.4969, 11.65453
438.9790, 11.81801
439.4611, 12.17398
439.9432, 12.50229
440.4253, 12.67970
440.9074, 12.79873
441.3896, 12.94124
441.8717, 13.11971
442.3538, 13.35040
442.8359, 13.69367
443.3180, 14.12245
443.8001, 14.44840
444.2823, 14.60865
444.7644, 14.71047
445.2465, 14.82413
445.7286, 14.95718
446.2107, 15.16497
446.6928, 15.54998
447.1750, 15.95808
447.6571, 16.23059
448.1392, 16.37175
448.6213, 16.46427
449.1034, 16.55539
449.5855, 16.62096
450.0677, 16.60405
450.5498, 16.56970
451.0319, 16.34816
451.5140, 15.72479
451.9961, 14.96833
452.4782, 14.42157
452.9604, 14.14282
453.4425, 13.95961
453.9246, 13.70293
454.4067, 13.36656
454.8888, 13.01773
455.3709, 12.58406
455.8531, 12.21938
456.3352, 12.02100
456.8173, 11.92162
457.2994, 11.80421
457.7815, 11.61509
458.2636, 11.39058
458.7458, 11.20567
459.2279, 11.07407
459.7100, 10.95529
460.1921, 10.85934
460.6742, 10.76443
461.1563, 10.63893
461.6385, 10.49769
462.1206, 10.39674
462.6027, 10.39014
463.0848, 10.45710
463.5669, 10.49175
464.0491, 10.49179
464.5312, 10.46188
465.0133, 10.39142
465.4954, 10.30033
465.9775, 10.20133
466.4597, 10.09524
466.9418, 10.00126
467.4239, 9.925796
467.9060, 9.873264
468.3881, 9.886510
468.8702, 10.01187
469.3524, 10.12543
469.8345, 10.09639
470.3166, 9.968487
470.7987, 9.862969
471.2808, 9.787364
471.7629, 9.764095
472.2451, 9.850465
472.7272, 10.02205
473.2093, 10.15319
473.6914, 10.18887
474.1735, 10.16178
474.6556, 10.12854
475.1378, 10.08780
475.6199, 10.04680
476.1020, 9.998492
476.5841, 9.955695
477.0662, 9.945035
477.5483, 9.958503
478.0305, 9.938731
478.5126, 9.830337
478.9947, 9.653041
479.4768, 9.585697
479.9589, 9.752036
480.4410, 9.877828
480.9232, 9.865005
481.4053, 9.827834
481.8874, 9.935163
482.3695, 10.20420
482.8516, 10.43848
483.3337, 10.37175
483.8159, 9.959055
484.2980, 9.624446
484.7801, 9.323754
485.2622, 9.165386
485.7443, 9.276468
486.2264, 9.529114
486.7086, 9.728928
487.1907, 9.797532
487.6728, 9.773120
488.1549, 9.672298
488.6370, 9.485169
489.1191, 9.397487
489.6013, 9.516714
490.0834, 9.674787
490.5655, 9.729564
491.0476, 9.689641
491.5297, 9.612045
492.0118, 9.458434
492.4940, 9.313761
492.9761, 9.321696
493.4582, 9.475195
493.9403, 9.591940
494.4224, 9.568192
494.9045, 9.458193
495.3867, 9.394926
495.8688, 9.372007
496.3509, 9.396469
496.8330, 9.522056
497.3151, 9.666221
497.7972, 9.744067
498.2794, 9.745469
498.7615, 9.692603
499.2436, 9.588225
499.7257, 9.441454
500.2078, 9.416599
500.6899, 9.675464
501.1721, 9.860514
501.6542, 9.861573
502.1363, 9.786830
502.6184, 9.753961
503.1005, 9.793925
503.5826, 9.859011
504.0648, 9.884515
504.5469, 9.862728
505.0290, 9.881834
505.5111, 9.987314
505.9932, 10.07777
506.4753, 10.07074
506.9575, 10.03435
507.4396, 10.08488
507.9217, 10.27853
508.4038, 10.52513
508.8859, 10.74356
509.3680, 10.93052
509.8502, 11.00300
510.3323, 10.87651
510.8144, 10.73702
511.2965, 10.78087
511.7786, 10.97865
512.2607, 11.19327
512.7429, 11.46457
513.2250, 11.68059
513.7071, 11.68402
514.1892, 11.53031
514.6713, 11.46137
515.1534, 11.59206
515.6356, 11.84205
516.1177, 12.05597
516.5998, 12.22136
517.0819, 12.38074
517.5640, 12.50973
518.0461, 12.65405
518.5283, 12.82263
519.0104, 13.03283
519.4925, 13.33954
519.9746, 13.79457
520.4567, 14.33003
520.9388, 14.67399
521.4210, 14.65136
521.9031, 14.76598
522.3852, 15.20694
522.8673, 15.68896
523.3494, 15.96886
523.8315, 16.06427
524.3137, 16.20575
524.7958, 16.61648
525.2779, 17.20491
525.7600, 17.64405
526.2421, 17.91285
526.7242, 18.10853
527.2064, 18.24916
527.6885, 18.34860
528.1706, 18.46753
528.6527, 18.64799
529.1348, 18.62985
529.6169, 18.10765
530.0991, 17.36220
530.5812, 16.88598
531.0633, 16.73535
531.5454, 16.60504
532.0275, 16.26471
532.5096, 15.75081
532.9918, 15.32506
533.4739, 15.13652
533.9560, 14.83478
534.4381, 14.21129
534.9202, 13.51200
535.4023, 13.01561
535.8845, 12.76635
536.3666, 12.60632
536.8487, 12.38015
537.3308, 12.08770
537.8129, 11.84125
538.2951, 11.69796
538.7772, 11.52536
539.2593, 11.28666
539.7415, 11.00911
540.2236, 10.69997
540.7057, 10.36550
541.1878, 10.07251
541.6699, 9.906466
542.1520, 9.850712
542.6342, 9.787540
543.1163, 9.707009
543.5984, 9.624477
544.0805, 9.549956
544.5626, 9.480655
545.0447, 9.414416
545.5269, 9.363875
546.0090, 9.291841
546.4911, 9.158620
546.9732, 8.992297
547.4553, 8.863343
547.9374, 8.786196
548.4196, 8.675550
548.9017, 8.421495
549.3838, 8.016202
549.8659, 7.814244
550.3480, 7.918262
550.8301, 8.063002
551.3123, 8.227997
551.7944, 8.370153
552.2765, 8.434226
552.7586, 8.409623
553.2407, 8.340907
553.7228, 8.271313
554.2050, 8.198693
554.6871, 8.169595
555.1692, 8.238613
555.6513, 8.272624
556.1334, 8.146734
556.6155, 7.993115
557.0977, 8.023963
557.5798, 8.323155
558.0619, 8.593566
558.5440, 8.491719
559.0261, 8.128477
559.5082, 7.932950
559.9904, 7.990677
560.4725, 8.092060
560.9546, 8.061406
561.4367, 7.938408
561.9188, 7.926257
562.4009, 8.162837
562.8831, 8.339248
563.3652, 8.281840
563.8473, 8.120351
564.3294, 8.056296
564.8115, 8.121950
565.2936, 8.166069
565.7758, 8.019474
566.2579, 7.680551
566.7400, 7.490140
567.2221, 7.568297
567.7042, 7.659212
568.1863, 7.738427
568.6685, 7.800212
569.1506, 7.844528
569.6327, 7.869594
570.1148, 7.864922
570.5969, 7.766369
571.0790, 7.609283
571.5612, 7.659229
572.0433, 8.011495
572.5254, 8.303103
573.0075, 8.291821
573.4896, 8.129603
573.9717, 8.040167
574.4539, 8.052037
574.9360, 8.093710
575.4181, 8.147341
575.9002, 8.203403
576.3823, 8.265946
576.8644, 8.329039
577.3466, 8.325168
577.8287, 8.183346
578.3108, 7.952899
578.7929, 7.877577
579.2750, 8.161492
579.7571, 8.334674
580.2393, 8.256352
580.7214, 8.144917
581.2035, 8.199385
581.6856, 8.402957
582.1677, 8.588979
582.6498, 8.636607
583.1320, 8.566578
583.6141, 8.412167
584.0962, 8.103847
584.5783, 7.950460
585.0604, 8.134126
585.5425, 8.435326
586.0247, 8.744359
586.5068, 9.037717
586.9889, 9.129712
587.4710, 8.755614
587.9531, 8.259762
588.4352, 8.057552
588.9174, 8.116662
589.3995, 8.196428
