##NAMES=Beryl
##RRUFFID=R050120
##IDEAL CHEMISTRY=Be_3_Al_2_Si_6_O_18_
##LOCALITY=Cruziero mine, San Jose, Minas Gerais, Brazil
##OWNER=RRUFF
##SOURCE=Carlos and Paulo Vasconcelos
##DESCRIPTION=Yellow gemmy fragment
##STATUS=The identification of this mineral has been confirmed by X-ray diffraction and chemical analysis
##URL=rruff.info/R050120
##MEASURED CHEMISTRY=(Be_2.76_Li_0.24_)_Σ=3_Al_2.00_Si_6.00_O_18_·Na_0.24_
91.00781, 6.646838
91.48993, 6.932488
91.97205, 7.046914
92.45416, 6.871419
92.93628, 6.530342
93.41840, 6.299363
93.90051, 6.239144
94.38263, 6.275551
94.86475, 6.299605
95.34686, 6.311437
95.82898, 6.323694
96.31110, 6.325558
96.79321, 6.322977
97.27533, 6.391481
97.75745, 6.582146
98.23956, 6.851634
98.72168, 7.001180
99.20380, 7.009138
99.68591, 6.960620
100.1680, 6.903473
100.6501, 6.805242
101.1323, 6.866025
101.6144, 7.204987
102.0965, 7.858315
102.5786, 8.326522
103.0607, 8.524786
103.5428, 8.616269
104.0250, 8.872165
104.5071, 9.320332
104.9892, 9.883693
105.4713, 10.55151
105.9534, 11.41499
106.4355, 12.17548
106.9177, 12.75972
107.3998, 13.23749
107.8819, 13.84489
108.3640, 14.45274
108.8461, 15.28609
109.3282, 16.46701
109.8104, 18.57956
110.2925, 20.34391
110.7746, 21.43968
111.2567, 21.97729
111.7388, 22.87226
112.2209, 24.52299
112.7031, 26.38633
113.1852, 28.10649
113.6673, 29.52076
114.1494, 30.86145
114.6315, 32.13985
115.1136, 33.36400
115.5958, 34.70212
116.0779, 36.24926
116.5600, 37.92702
117.0421, 39.64006
117.5242, 41.24607
118.0063, 42.97964
118.4885, 44.92427
118.9706, 47.05323
119.4527, 49.58599
119.9348, 53.05228
120.4169, 56.98420
120.8990, 60.57953
121.3812, 63.13152
121.8633, 65.28068
122.3454, 67.60782
122.8275, 70.27014
123.3096, 72.99180
123.7917, 75.68609
124.2739, 78.28833
124.7560, 80.56117
125.2381, 82.21034
125.7202, 83.45618
126.2023, 84.63956
126.6844, 85.82687
127.1666, 87.01051
127.6487, 88.27882
128.1308, 89.61832
128.6129, 90.73222
129.0950, 91.09514
129.5771, 90.96558
130.0593, 91.31492
130.5414, 92.69396
131.0235, 94.62576
131.5056, 95.75688
131.9877, 95.68169
132.4698, 94.89399
132.9520, 94.27356
133.4341, 93.82194
133.9162, 93.67274
134.3983, 93.87376
134.8804, 94.40758
135.3625, 95.22076
135.8447, 96.33231
136.3268, 97.66882
136.8089, 99.22094
137.2910, 101.0450
137.7731, 102.7952
138.2552, 104.4848
138.7374, 106.1890
139.2195, 107.1361
139.7016, 107.1596
140.1837, 106.6150
140.6658, 106.2361
141.1479, 106.0965
141.6301, 105.9323
142.1122, 105.6519
142.5943, 105.3181
143.0764, 104.6554
143.5585, 103.4709
144.0406, 101.9685
144.5228, 100.8592
145.0049, 100.4129
145.4870, 100.0281
145.9691, 99.39358
146.4512, 98.45326
146.9333, 97.33702
147.4155, 95.90708
147.8976, 94.21583
148.3797, 92.88661
148.8618, 92.05989
149.3439, 91.47569
149.8260, 90.96481
150.3082, 90.48396
150.7903, 90.11631
151.2724, 89.85657
151.7545, 89.70454
152.2366, 89.66679
152.7188, 89.72541
153.2009, 89.90112
153.6830, 90.21043
154.1651, 91.17240
154.6472, 91.76222
155.1293, 91.60445
155.6115, 90.59512
156.0936, 89.68087
156.5757, 88.73296
157.0578, 88.04942
157.5399, 87.97282
158.0220, 89.52421
158.5042, 90.88890
158.9863, 91.26690
159.4684, 90.39952
159.9505, 89.57499
160.4326, 89.17166
160.9147, 89.06022
161.3969, 89.04841
161.8790, 89.20631
162.3611, 89.34892
162.8432, 89.40162
163.3253, 89.38370
163.8074, 89.18188
164.2896, 88.53242
164.7717, 87.65872
165.2538, 87.00829
165.7359, 87.01021
166.2180, 87.17724
166.7001, 87.11447
167.1823, 86.64410
167.6644, 86.17635
168.1465, 85.97753
168.6286, 85.98817
169.1107, 86.04287
169.5928, 86.09203
170.0750, 86.12218
170.5571, 86.10167
171.0392, 85.95800
171.5213, 85.87218
172.0034, 86.15841
172.4855, 86.70633
172.9677, 87.01969
173.4498, 86.56017
173.9319, 85.72811
174.4140, 85.10207
174.8961, 84.92207
175.3782, 84.90504
175.8604, 84.71326
176.3425, 84.36954
176.8246, 84.07364
177.3067, 84.09534
177.7888, 84.26534
178.2709, 84.22520
178.7531, 83.74369
179.2352, 83.09653
179.7173, 82.70982
180.1994, 82.57275
180.6815, 82.47812
181.1636, 82.26234
181.6458, 81.94521
182.1279, 81.58994
182.6100, 81.18545
183.0921, 80.76757
183.5742, 80.42443
184.0563, 80.16695
184.5385, 79.88281
185.0206, 79.44054
185.5027, 78.86507
185.9848, 78.30410
186.4669, 77.86985
186.9490, 77.47967
187.4312, 76.84981
187.9133, 75.97554
188.3954, 74.96826
188.8775, 73.80261
189.3596, 72.53040
189.8417, 71.62403
190.3239, 71.54858
190.8060, 72.06738
191.2881, 71.88753
191.7702, 70.89603
192.2523, 69.66528
192.7344, 68.86865
193.2166, 68.51051
193.6987, 68.36375
194.1808, 68.49498
194.6629, 68.85268
195.1450, 68.77399
195.6271, 68.17331
196.1093, 67.35662
196.5914, 66.78717
197.0735, 66.48759
197.5556, 66.14812
198.0377, 65.53689
198.5198, 64.64404
199.0020, 64.16895
199.4841, 64.23082
199.9662, 64.49726
200.4483, 64.35955
200.9304, 63.73192
201.4125, 63.21948
201.8947, 63.20928
202.3768, 63.76974
202.8589, 63.92812
203.3410, 63.58571
203.8231, 62.96357
204.3052, 62.44547
204.7874, 62.02586
205.2695, 61.71928
205.7516, 61.57940
206.2337, 61.64798
206.7158, 61.58710
207.1979, 61.35120
207.6801, 61.02558
208.1622, 60.80876
208.6443, 60.74712
209.1264, 60.64771
209.6085, 60.39708
210.0906, 59.94448
210.5728, 59.56651
211.0549, 59.26234
211.5370, 59.04065
212.0191, 58.94505
212.5012, 59.01397
212.9833, 59.11300
213.4655, 59.16169
213.9476, 59.11564
214.4297, 59.20005
214.9118, 59.48069
215.3939, 59.86264
215.8760, 60.11938
216.3581, 60.22885
216.8403, 60.25371
217.3224, 60.19595
217.8045, 59.99225
218.2866, 59.90808
218.7687, 60.00310
219.2508, 60.19902
219.7330, 60.25907
220.2151, 60.07344
220.6972, 59.95073
221.1793, 60.08172
221.6614, 60.64320
222.1435, 60.96256
222.6257, 60.92354
223.1078, 60.66766
223.5899, 60.59910
224.0720, 60.81917
224.5541, 61.06568
225.0362, 61.19987
225.5184, 61.10765
226.0005, 61.20299
226.4826, 61.60476
226.9647, 62.17100
227.4468, 62.48861
227.9289, 62.38338
228.4111, 62.29686
228.8932, 62.43610
229.3753, 62.87991
229.8574, 63.38566
230.3395, 64.08093
230.8216, 64.80239
231.3038, 65.05273
231.7859, 64.49274
232.2680, 63.95661
232.7501, 63.85412
233.2322, 64.47255
233.7143, 64.86192
234.1965, 64.89777
234.6786, 64.72778
235.1607, 64.77422
235.6428, 65.14749
236.1249, 65.57442
236.6070, 65.94476
237.0892, 66.26810
237.5713, 66.50453
238.0534, 66.61071
238.5355, 66.64031
239.0176, 66.72115
239.4997, 66.81870
239.9819, 67.02042
240.4640, 67.40134
240.9461, 68.15366
241.4282, 68.61716
241.9103, 68.63704
242.3924, 68.41785
242.8746, 68.48017
243.3567, 69.06908
243.8388, 69.56741
244.3209, 69.66991
244.8030, 69.09334
245.2851, 68.89140
245.7673, 69.21046
246.2494, 69.84509
246.7315, 70.36096
247.2136, 70.73345
247.6957, 71.02694
248.1778, 71.24937
248.6600, 71.35479
249.1421, 71.55033
249.6242, 71.98583
250.1063, 72.43398
250.5884, 72.46130
251.0705, 72.02931
251.5527, 71.23259
252.0348, 70.04639
252.5169, 68.31423
252.9990, 66.73689
253.4811, 65.41011
253.9632, 64.15743
254.4454, 62.63820
254.9275, 60.59254
255.4096, 58.75451
255.8917, 57.36589
256.3738, 56.48291
256.8560, 55.85872
257.3381, 55.58522
257.8202, 55.48821
258.3023, 55.30813
258.7844, 55.04280
259.2665, 54.69787
259.7487, 54.20107
260.2308, 53.48259
260.7129, 53.16573
261.1950, 53.43583
261.6771, 53.90487
262.1592, 54.02003
262.6414, 53.63284
263.1235, 53.26292
263.6056, 53.05313
264.0877, 53.00875
264.5698, 53.00494
265.0519, 52.99195
265.5341, 53.08595
266.0162, 53.50468
266.4983, 54.42103
266.9804, 55.10511
267.4625, 55.27658
267.9446, 54.94645
268.4268, 55.00827
268.9089, 55.63216
269.3910, 56.34496
269.8731, 56.64920
270.3552, 56.46189
270.8373, 56.18339
271.3195, 55.86845
271.8016, 55.52587
272.2837, 55.24459
272.7658, 55.03761
273.2479, 54.85429
273.7300, 54.60102
274.2122, 54.23690
274.6943, 54.08343
275.1764, 54.30264
275.6585, 54.78451
276.1406, 54.87743
276.6227, 54.46664
277.1049, 54.04790
277.5870, 54.06740
278.0691, 54.56620
278.5512, 55.03601
279.0333, 55.40677
279.5154, 55.68833
279.9976, 55.89905
280.4797, 56.03035
280.9618, 56.13688
281.4439, 56.22241
281.9260, 56.28527
282.4081, 56.49596
282.8903, 56.92967
283.3724, 57.46354
283.8545, 57.78283
284.3366, 57.87016
284.8187, 57.92672
285.3008, 58.03048
285.7830, 58.19170
286.2651, 58.53577
286.7472, 59.10535
287.2293, 59.80455
287.7114, 60.50275
288.1935, 61.19905
288.6757, 61.81495
289.1578, 62.24091
289.6399, 62.52629
290.1220, 62.86122
290.6041, 63.22406
291.0862, 63.74727
291.5684, 64.80216
292.0505, 66.32037
292.5326, 67.61336
293.0147, 68.19034
293.4968, 68.28237
293.9789, 68.66072
294.4611, 69.38896
294.9432, 70.11729
295.4253, 70.42992
295.9074, 70.38550
296.3895, 70.23308
296.8716, 70.13536
297.3538, 69.98756
297.8359, 69.55054
298.3180, 68.81417
298.8001, 67.94256
299.2822, 66.94150
299.7643, 65.90251
300.2465, 65.09007
300.7286, 64.78477
301.2107, 64.63191
301.6928, 64.08840
302.1749, 63.18208
302.6570, 62.26232
303.1392, 61.57879
303.6213, 61.07926
304.1034, 60.67188
304.5855, 60.21683
305.0676, 59.97089
305.5497, 60.33259
306.0319, 61.19807
306.5140, 62.04622
306.9961, 62.61287
307.4782, 62.93229
307.9603, 63.00432
308.4424, 62.68836
308.9246, 62.38515
309.4067, 62.42405
309.8888, 62.72942
310.3709, 63.08973
310.8530, 63.36403
311.3351, 63.65563
311.8173, 64.05989
312.2994, 64.61833
312.7815, 65.22240
313.2636, 65.85354
313.7457, 66.47729
314.2278, 67.03567
314.7100, 67.34645
315.1921, 67.69361
315.6742, 68.24680
316.1563, 69.03176
316.6384, 69.95841
317.1205, 70.98328
317.6027, 72.11639
318.0848, 73.36591
318.5669, 74.85964
319.0490, 76.35842
319.5311, 77.67115
320.0132, 78.77396
320.4954, 80.17241
320.9775, 82.34755
321.4596, 84.70535
321.9417, 86.70888
322.4238, 87.85697
322.9059, 89.04899
323.3881, 90.80126
323.8702, 92.99186
324.3523, 94.33718
324.8344, 94.09167
325.3165, 93.31641
325.7986, 92.63972
326.2808, 93.08440
326.7629, 92.48416
327.2450, 90.26154
327.7271, 86.77596
328.2092, 83.43979
328.6913, 80.22062
329.1735, 77.19642
329.6556, 74.36046
330.1377, 71.79783
330.6198, 69.25353
331.1019, 66.61004
331.5840, 64.02621
332.0662, 61.74835
332.5483, 59.80323
333.0304, 58.11180
333.5125, 56.68205
333.9946, 55.49921
334.4767, 54.57952
334.9589, 54.02005
335.4410, 53.63891
335.9231, 53.21291
336.4052, 52.71983
336.8873, 52.24865
337.3694, 51.81317
337.8516, 51.41741
338.3336, 51.13068
338.8158, 51.01512
339.2979, 50.87767
339.7800, 50.43092
340.2621, 49.57973
340.7442, 49.15919
341.2263, 49.48444
341.7085, 50.26061
342.1906, 50.45345
342.6727, 50.00026
343.1548, 49.36886
343.6369, 48.75878
344.1190, 48.18983
344.6012, 47.97201
345.0833, 48.23875
345.5654, 48.67839
346.0475, 48.66890
346.5296, 48.24156
347.0117, 47.89414
347.4939, 47.95547
347.9760, 48.31262
348.4581, 48.64857
348.9402, 48.96311
349.4223, 49.17162
349.9044, 49.07701
350.3866, 48.77591
350.8687, 48.59943
351.3508, 48.81334
351.8329, 49.17418
352.3150, 49.31057
352.7971, 49.22581
353.2793, 49.03477
353.7614, 48.70312
354.2435, 48.34753
354.7256, 48.15839
355.2077, 48.23238
355.6898, 48.43873
356.1720, 48.76834
356.6541, 49.17017
357.1362, 49.42737
357.6183, 49.25318
358.1004, 48.96788
358.5826, 48.87409
359.0647, 49.08956
359.5468, 49.34157
360.0289, 49.54354
360.5110, 49.67545
360.9931, 49.69907
361.4753, 49.52739
361.9574, 49.30108
362.4395, 49.05552
362.9216, 48.77318
363.4037, 48.61213
363.8858, 48.71272
364.3680, 48.92213
364.8501, 49.08006
365.3322, 49.02188
365.8143, 49.04240
366.2964, 49.29685
366.7785, 49.77787
367.2607, 50.06773
367.7428, 49.88548
368.2249, 49.66481
368.7070, 49.66876
369.1891, 50.01841
369.6712, 50.44079
370.1534, 51.07379
370.6355, 51.78061
371.1176, 52.09591
371.5997, 51.60078
372.0818, 51.25430
372.5639, 51.52896
373.0461, 52.77688
373.5282, 53.42976
374.0103, 53.15815
374.4924, 52.60979
374.9745, 52.85184
375.4566, 54.17244
375.9388, 55.38030
376.4209, 56.09576
376.9030, 56.35790
377.3851, 56.64805
377.8672, 56.96719
378.3493, 57.32592
378.8315, 57.69838
379.3136, 58.08626
379.7957, 58.64987
380.2778, 59.47765
380.7599, 60.44725
381.2420, 61.16859
381.7242, 61.62975
382.2063, 62.37388
382.6884, 63.95469
383.1705, 66.13439
383.6526, 67.98746
384.1347, 69.35152
384.6169, 70.66863
385.0990, 72.57251
385.5811, 74.89797
386.0632, 77.02685
386.5453, 78.23206
387.0274, 79.27998
387.5096, 81.34763
387.9917, 84.42705
388.4738, 87.54459
388.9559, 89.71059
389.4380, 91.46107
389.9201, 93.52255
390.4023, 96.19716
390.8844, 99.14184
391.3665, 102.0814
391.8486, 105.1012
392.3307, 108.4126
392.8128, 112.1518
393.2950, 116.1949
393.7771, 120.4471
394.2592, 124.7470
394.7413, 129.6033
395.2234, 135.3969
395.7055, 141.7714
396.1877, 148.1769
396.6698, 154.5959
397.1519, 160.9246
397.6340, 167.2925
398.1161, 173.7641
398.5982, 179.6837
399.0804, 185.2215
399.5625, 190.0628
400.0446, 194.0418
400.5267, 198.2994
401.0088, 200.0120
401.4909, 198.4583
401.9731, 194.1513
402.4552, 189.1184
402.9373, 183.4809
403.4194, 176.9211
403.9015, 169.0959
404.3836, 159.6005
404.8658, 150.3403
405.3479, 141.2615
405.8300, 132.6111
406.3121, 124.6305
406.7942, 117.3108
407.2763, 110.7054
407.7585, 104.8255
408.2406, 99.65235
408.7227, 95.30204
409.2048, 91.82500
409.6869, 88.86227
410.1690, 86.22287
410.6512, 83.88628
411.1333, 81.58323
411.6154, 79.14745
412.0975, 76.93900
412.5796, 75.56188
413.0617, 74.91668
413.5439, 74.47097
414.0260, 74.04554
414.5081, 73.58147
414.9902, 72.96555
415.4723, 72.17249
415.9544, 71.38912
416.4366, 70.79040
416.9187, 70.30029
417.4008, 69.80666
417.8829, 69.09131
418.3650, 68.50597
418.8471, 68.29211
419.3293, 68.40968
419.8114, 68.60363
420.2935, 68.76920
420.7756, 68.97208
421.2577, 69.29027
421.7398, 69.95442
422.2220, 70.32029
422.7041, 70.21790
423.1862, 69.73643
423.6683, 69.04224
424.1504, 67.88432
424.6325, 66.77256
425.1147, 65.86274
425.5968, 65.16458
426.0789, 64.48120
426.5610, 63.90217
427.0431, 63.25681
427.5252, 62.39142
428.0074, 61.18477
428.4895, 60.02885
428.9716, 58.93453
429.4537, 57.94342
429.9358, 57.25528
430.4179, 56.95420
430.9001, 56.66275
431.3822, 56.12370
431.8643, 55.32922
432.3464, 54.81894
432.8285, 54.60833
433.3106, 54.63515
433.7928, 54.97991
434.2749, 55.58187
434.7570, 55.90363
435.2391, 55.63364
435.7212, 55.09838
436.2033, 54.91488
436.6855, 55.06671
437.1676, 55.37088
437.6497, 55.75560
438.1318, 56.19276
438.6139, 56.68198
439.0960, 57.27474
439.5782, 57.72905
440.0603, 57.62302
440.5424, 57.25459
441.0245, 57.18122
441.5066, 57.92720
441.9887, 58.79957
442.4709, 59.45145
442.9530, 59.86816
443.4351, 60.08873
443.9172, 59.96397
444.3993, 59.74200
444.8814, 59.60948
445.3636, 59.78803
445.8457, 59.79917
446.3278, 59.46871
446.8099, 58.92540
447.2920, 58.48920
447.7741, 58.54366
448.2563, 58.27688
448.7384, 57.32954
449.2205, 55.55120
449.7026, 54.24969
450.1847, 53.62617
450.6668, 53.24449
451.1490, 52.66348
451.6311, 51.75259
452.1132, 51.17683
452.5953, 51.13514
453.0774, 51.40861
453.5595, 51.43848
454.0417, 51.22034
454.5238, 50.78703
455.0059, 50.06394
455.4880, 49.11485
455.9701, 48.17970
456.4522, 47.24444
456.9344, 46.49672
457.4165, 46.30596
457.8986, 46.47957
458.3807, 46.46984
458.8628, 45.96621
459.3449, 45.35432
459.8271, 45.08644
460.3092, 45.10284
460.7913, 45.13909
461.2734, 45.06729
461.7555, 44.93264
462.2376, 44.78692
462.7198, 44.65689
463.2019, 44.42696
463.6840, 43.89846
464.1661, 43.28901
464.6482, 42.86197
465.1303, 42.90656
465.6125, 42.90959
466.0946, 42.68950
466.5767, 42.27316
467.0588, 41.95031
467.5409, 41.82663
468.0230, 41.72522
468.5052, 41.54389
468.9873, 41.14213
469.4694, 41.03954
469.9515, 41.42127
470.4336, 41.94209
470.9157, 42.09718
471.3979, 41.79177
471.8800, 41.44214
472.3621, 41.15743
472.8442, 40.91302
473.3263, 40.47878
473.8084, 39.80001
474.2906, 39.35368
474.7727, 39.75380
475.2548, 40.76313
475.7369, 41.14741
476.2190, 40.67836
476.7011, 39.99028
477.1833, 39.82542
477.6654, 40.05703
478.1475, 40.33964
478.6296, 40.66015
479.1117, 40.87185
479.5938, 40.67549
480.0760, 40.15028
480.5581, 39.83036
481.0402, 40.21962
481.5223, 40.81936
482.0044, 41.22900
482.4865, 41.32943
482.9687, 41.35716
483.4508, 41.39943
483.9329, 41.41436
484.4150, 41.34229
484.8971, 40.94451
485.3792, 40.69883
485.8614, 40.77020
486.3435, 41.13396
486.8256, 41.47150
487.3077, 41.88808
487.7898, 42.15105
488.2719, 42.07395
488.7541, 41.46498
489.2362, 41.14768
489.7183, 41.18096
490.2004, 41.43467
490.6825, 41.78336
491.1646, 42.25249
491.6468, 42.55711
492.1289, 42.57473
492.6110, 42.39137
493.0931, 42.21692
493.5752, 42.05198
494.0573, 41.97272
494.5395, 42.09535
495.0216, 42.33141
495.5037, 42.50701
495.9858, 42.59893
496.4679, 42.62826
496.9500, 42.55937
497.4322, 42.44810
497.9143, 42.38836
498.3964, 42.48663
498.8785, 42.58465
499.3606, 42.56237
499.8427, 42.45088
500.3249, 42.39651
500.8070, 42.50296
501.2891, 42.63774
501.7712, 42.72247
502.2533, 42.70978
502.7354, 42.76059
503.2176, 42.99825
503.6997, 43.24633
504.1818, 43.31567
504.6639, 43.08711
505.1460, 42.89398
505.6281, 42.76009
506.1103, 42.69835
506.5924, 42.80426
507.0745, 43.13973
507.5566, 43.42242
508.0387, 43.38326
508.5208, 43.05761
509.0030, 43.30122
509.4851, 44.21661
509.9672, 45.12455
510.4493, 45.15051
510.9314, 44.54289
511.4135, 44.14738
511.8957, 44.22094
512.3778, 44.52205
512.8599, 44.87457
513.3420, 45.24090
513.8242, 45.50853
514.3063, 45.37757
514.7884, 45.30134
515.2705, 45.78662
515.7526, 46.86878
516.2347, 47.66313
516.7169, 47.46503
517.1990, 47.04658
517.6811, 46.99952
518.1632, 47.77365
518.6453, 48.44091
519.1274, 48.88185
519.6096, 49.16363
520.0917, 49.39330
520.5738, 49.53345
521.0559, 49.68346
521.5380, 49.88790
522.0201, 50.13879
522.5023, 50.26501
522.9844, 50.21020
523.4665, 50.19408
523.9486, 50.41899
524.4307, 50.87068
524.9128, 51.21694
525.3950, 51.40768
525.8771, 51.56369
526.3592, 51.84779
526.8413, 52.23161
527.3234, 52.63667
527.8055, 53.15532
528.2877, 53.55753
528.7698, 53.42730
529.2519, 52.89499
529.7340, 52.51180
530.2161, 52.78354
530.6982, 53.19151
531.1804, 53.29919
531.6625, 52.98303
532.1446, 52.79919
532.6267, 53.07537
533.1088, 53.49804
533.5909, 53.77389
534.0731, 53.86833
534.5552, 53.80847
535.0373, 53.50169
535.5194, 53.06007
536.0015, 52.76006
536.4836, 52.67525
536.9658, 52.58613
537.4479, 52.40887
537.9300, 52.14936
538.4121, 51.94115
538.8942, 51.79753
539.3763, 51.65071
539.8585, 51.50195
540.3406, 51.32058
540.8227, 50.88011
541.3048, 50.08709
541.7869, 49.25096
542.2690, 48.73061
542.7512, 48.46677
543.2333, 48.31356
543.7154, 48.36276
544.1975, 48.37091
544.6796, 48.12708
545.1617, 47.66319
545.6439, 47.12751
546.1260, 46.50381
546.6081, 45.89314
547.0902, 45.34859
547.5723, 44.88274
548.0544, 44.47976
548.5366, 44.21044
549.0187, 43.95824
549.5008, 43.60835
549.9829, 43.01564
550.4650, 42.59629
550.9471, 42.43468
551.4293, 42.43997
551.9114, 42.39588
552.3935, 42.28946
552.8756, 42.19916
553.3577, 42.17463
553.8398, 42.19054
554.3220, 42.12967
554.8041, 41.99063
555.2862, 41.80169
555.7683, 41.47552
556.2504, 41.13481
556.7325, 41.04921
557.2147, 41.28343
557.6968, 41.61073
558.1789, 41.96452
558.6610, 42.25910
559.1431, 42.36504
559.6252, 42.01062
560.1074, 41.69096
560.5895, 41.63417
561.0716, 41.77394
561.5537, 41.88828
562.0358, 41.97620
562.5179, 41.98941
563.0001, 41.86739
563.4822, 41.58373
563.9643, 41.45842
564.4464, 41.52651
564.9285, 41.70432
565.4106, 41.97179
565.8928, 42.36435
566.3749, 42.60022
566.8570, 42.62612
567.3391, 42.56519
567.8212, 42.55678
568.3033, 42.61105
568.7855, 42.81914
569.2676, 43.32155
569.7497, 43.88445
570.2318, 44.18422
570.7139, 44.24145
571.1960, 44.17155
571.6782, 43.80365
572.1603, 43.49532
572.6424, 43.61823
573.1245, 44.23328
573.6066, 44.78036
574.0887, 45.08727
574.5709, 45.21906
575.0530, 45.23206
575.5351, 45.12769
576.0172, 44.90326
576.4993, 44.46126
576.9814, 43.94745
577.4636, 43.60911
577.9457, 43.49734
578.4278, 43.43756
578.9099, 43.43722
579.3920, 43.44489
579.8741, 43.22506
580.3563, 42.76333
580.8384, 42.27686
581.3205, 41.91666
581.8026, 41.62744
582.2847, 41.25562
582.7668, 40.79349
583.2490, 40.32829
583.7311, 39.87621
584.2132, 39.48740
584.6953, 39.24422
585.1774, 39.23780
585.6595, 39.21297
586.1416, 39.02741
586.6237, 38.74240
587.1058, 38.44810
