##NAMES=Beryl
##RRUFFID=R060944
##IDEAL CHEMISTRY=Be_3_Al_2_Si_6_O_18_
##LOCALITY=Habachtal, Salzburg, Austria
##OWNER=RRUFF
##SOURCE=Lawrence W. Snee
##DESCRIPTION=Green hexagonal prisms in a muscovite schist, variety emerald. Note that there are micro inclusions of actinolite. The Raman signal is a mixture of the two phases.
##STATUS=The identification of this mineral has been confirmed by X-ray diffraction and chemical analysis
##URL=rruff.info/R060944
##MEASURED CHEMISTRY=Be_3.00_(Al_1.59_Mg_0.33_Fe^3+^_0.04_Cr^3+^_0.04_)_Σ=2_Si_6.00_O_18_·Na_0.33_ ; bright inclusions are actinolite
148.5215, 3125.619
149.0037, 3126.126
149.4858, 3151.119
149.9679, 3176.655
150.4500, 3197.399
150.9321, 3211.040
151.4142, 3226.010
151.8964, 3245.545
152.3785, 3266.236
152.8606, 3282.322
153.3427, 3284.719
153.8248, 3290.293
154.3069, 3305.271
154.7890, 3334.422
155.2712, 3366.181
155.7533, 3404.396
156.2354, 3444.752
156.7175, 3476.501
157.1996, 3487.466
157.6817, 3496.218
158.1639, 3513.105
158.6460, 3551.593
159.1281, 3584.362
159.6102, 3605.501
160.0923, 3615.105
160.5744, 3614.405
161.0566, 3593.083
161.5387, 3566.383
162.0208, 3546.170
162.5029, 3543.270
162.9850, 3540.780
163.4671, 3529.742
163.9493, 3510.718
164.4314, 3494.231
164.9135, 3485.427
165.3956, 3481.862
165.8777, 3480.805
166.3598, 3477.633
166.8420, 3479.414
167.3241, 3494.896
167.8062, 3525.830
168.2883, 3552.526
168.7704, 3558.255
169.2525, 3552.279
169.7346, 3549.802
170.2168, 3558.568
170.6989, 3573.628
171.1810, 3589.526
171.6631, 3604.833
172.1452, 3626.357
172.6273, 3666.164
173.1095, 3717.293
173.5916, 3763.688
174.0737, 3788.881
174.5558, 3807.060
175.0379, 3837.388
175.5201, 3885.352
176.0022, 3938.660
176.4843, 3988.678
176.9664, 4033.880
177.4485, 4069.151
177.9306, 4088.937
178.4128, 4096.599
178.8949, 4099.821
179.3770, 4102.971
179.8591, 4097.408
180.3412, 4068.512
180.8233, 4017.541
181.3055, 3958.514
181.7876, 3894.492
182.2697, 3829.652
182.7518, 3773.093
183.2339, 3725.874
183.7160, 3689.750
184.1982, 3675.631
184.6803, 3683.531
185.1624, 3690.599
185.6445, 3669.837
186.1266, 3628.342
186.6087, 3598.824
187.0908, 3596.676
187.5730, 3611.155
188.0551, 3610.201
188.5372, 3591.746
189.0193, 3574.313
189.5014, 3582.838
189.9835, 3614.357
190.4657, 3636.670
190.9478, 3634.925
191.4299, 3614.758
191.9120, 3602.464
192.3941, 3599.346
192.8762, 3598.953
193.3584, 3591.247
193.8405, 3576.307
194.3226, 3566.669
194.8047, 3570.299
195.2868, 3585.753
195.7689, 3596.316
196.2511, 3602.412
196.7332, 3603.055
197.2153, 3593.410
197.6974, 3572.125
198.1795, 3555.197
198.6616, 3552.842
199.1438, 3565.625
199.6259, 3569.926
200.1080, 3562.828
200.5901, 3551.081
201.0722, 3546.769
201.5543, 3550.327
202.0364, 3558.526
202.5186, 3573.277
203.0007, 3596.256
203.4828, 3606.772
203.9649, 3600.607
204.4470, 3584.404
204.9291, 3572.161
205.4113, 3562.802
205.8934, 3560.377
206.3755, 3569.096
206.8576, 3591.205
207.3397, 3611.124
207.8218, 3627.350
208.3040, 3641.027
208.7861, 3654.825
209.2682, 3667.350
209.7503, 3683.430
210.2324, 3708.076
210.7145, 3744.607
211.1967, 3774.916
211.6788, 3794.166
212.1609, 3806.622
212.6430, 3831.299
213.1251, 3873.199
213.6072, 3917.320
214.0894, 3952.829
214.5715, 3975.352
215.0536, 4003.222
215.5357, 4038.241
216.0178, 4080.031
216.4999, 4126.266
216.9820, 4177.185
217.4642, 4231.069
217.9463, 4288.903
218.4284, 4354.329
218.9105, 4411.792
219.3926, 4459.130
219.8747, 4496.176
220.3569, 4524.746
220.8390, 4540.340
221.3211, 4553.531
221.8032, 4576.415
222.2853, 4620.979
222.7674, 4646.716
223.2496, 4644.785
223.7317, 4616.066
224.2138, 4580.938
224.6959, 4535.904
225.1780, 4488.456
225.6601, 4443.757
226.1423, 4402.655
226.6244, 4363.099
227.1065, 4323.420
227.5886, 4283.190
228.0707, 4253.710
228.5528, 4239.284
229.0350, 4230.617
229.5171, 4219.285
229.9992, 4205.087
230.4813, 4187.871
230.9634, 4166.684
231.4455, 4140.997
231.9276, 4117.596
232.4098, 4098.201
232.8919, 4079.402
233.3740, 4058.537
233.8561, 4036.556
234.3382, 4010.467
234.8203, 3976.995
235.3025, 3935.055
235.7846, 3902.279
236.2667, 3882.787
236.7488, 3868.925
237.2309, 3852.252
237.7130, 3830.646
238.1952, 3810.328
238.6773, 3791.391
239.1594, 3773.106
239.6415, 3763.491
240.1236, 3764.055
240.6057, 3772.068
241.0879, 3786.618
241.5700, 3818.587
242.0521, 3837.130
242.5342, 3829.354
243.0163, 3789.587
243.4984, 3768.514
243.9806, 3773.317
244.4627, 3790.887
244.9448, 3805.488
245.4269, 3814.380
245.9090, 3824.865
246.3911, 3839.905
246.8732, 3860.816
247.3554, 3876.560
247.8375, 3889.724
248.3196, 3895.433
248.8017, 3885.333
249.2838, 3847.995
249.7659, 3816.240
250.2481, 3800.582
250.7302, 3804.396
251.2123, 3799.993
251.6944, 3786.511
252.1765, 3765.957
252.6586, 3739.155
253.1408, 3700.480
253.6229, 3666.887
254.1050, 3643.800
254.5871, 3633.048
255.0692, 3619.510
255.5513, 3600.544
256.0334, 3581.365
256.5156, 3569.096
256.9977, 3567.850
257.4798, 3564.521
257.9619, 3553.207
258.4440, 3531.745
258.9261, 3523.923
259.4083, 3536.701
259.8904, 3555.497
260.3725, 3560.141
260.8546, 3542.652
261.3367, 3529.484
261.8188, 3528.672
262.3010, 3541.168
262.7831, 3551.337
263.2652, 3556.833
263.7473, 3562.804
264.2294, 3578.705
264.7115, 3612.311
265.1937, 3633.709
265.6758, 3630.626
266.1579, 3602.344
266.6400, 3584.039
267.1221, 3579.583
267.6042, 3579.852
268.0864, 3573.118
268.5685, 3556.132
269.0506, 3543.002
269.5327, 3538.104
270.0148, 3541.406
270.4969, 3545.951
270.9791, 3553.805
271.4612, 3559.320
271.9433, 3553.634
272.4254, 3533.309
272.9075, 3517.916
273.3896, 3513.983
273.8718, 3520.585
274.3539, 3524.852
274.8360, 3526.562
275.3181, 3526.494
275.8002, 3524.334
276.2823, 3519.253
276.7645, 3517.492
277.2466, 3521.573
277.7287, 3530.609
278.2108, 3536.690
278.6929, 3538.649
279.1750, 3541.245
279.6572, 3551.353
280.1393, 3569.822
280.6214, 3582.798
281.1035, 3585.871
281.5856, 3580.894
282.0677, 3575.514
282.5499, 3569.155
283.0320, 3564.952
283.5141, 3566.506
283.9962, 3573.809
284.4783, 3582.164
284.9604, 3590.872
285.4425, 3599.872
285.9247, 3608.550
286.4068, 3616.829
286.8889, 3625.512
287.3710, 3636.761
287.8531, 3650.022
288.3352, 3659.036
288.8174, 3661.182
289.2995, 3659.375
289.7816, 3660.559
290.2637, 3664.729
290.7458, 3670.453
291.2279, 3678.406
291.7101, 3687.548
292.1922, 3693.082
292.6743, 3694.311
293.1564, 3691.125
293.6385, 3679.977
294.1206, 3661.487
294.6028, 3646.258
295.0849, 3644.875
295.5670, 3653.001
296.0491, 3656.912
296.5312, 3652.648
297.0133, 3646.696
297.4955, 3650.544
297.9776, 3662.715
298.4597, 3673.452
298.9418, 3674.280
299.4239, 3669.443
299.9060, 3666.146
300.3882, 3664.109
300.8703, 3667.266
301.3524, 3686.486
301.8345, 3716.944
302.3166, 3740.455
302.7987, 3739.415
303.2809, 3727.207
303.7630, 3723.117
304.2451, 3730.341
304.7272, 3741.825
305.2093, 3752.378
305.6914, 3762.039
306.1736, 3770.580
306.6557, 3779.427
307.1378, 3786.539
307.6199, 3787.983
308.1020, 3782.214
308.5841, 3779.079
309.0663, 3788.934
309.5484, 3806.671
310.0305, 3822.510
310.5126, 3831.488
310.9947, 3837.647
311.4768, 3840.841
311.9590, 3840.332
312.4411, 3847.904
312.9232, 3877.397
313.4053, 3917.650
313.8874, 3953.045
314.3695, 3969.078
314.8517, 3986.631
315.3337, 4021.510
315.8159, 4074.227
316.2980, 4119.980
316.7801, 4142.070
317.2622, 4154.688
317.7443, 4172.359
318.2264, 4200.475
318.7086, 4233.264
319.1907, 4269.521
319.6728, 4309.133
320.1549, 4350.759
320.6370, 4398.604
321.1191, 4445.820
321.6013, 4487.552
322.0834, 4516.816
322.5655, 4546.203
323.0476, 4581.974
323.5297, 4621.523
324.0118, 4650.856
324.4940, 4672.940
324.9761, 4680.481
325.4582, 4669.518
325.9403, 4635.291
326.4224, 4587.788
326.9045, 4520.370
327.3867, 4438.575
327.8688, 4361.238
328.3509, 4288.570
328.8330, 4220.566
329.3151, 4156.986
329.7972, 4099.899
330.2794, 4043.003
330.7615, 3978.834
331.2436, 3916.098
331.7257, 3874.434
332.2078, 3866.312
332.6899, 3862.034
333.1721, 3851.825
333.6542, 3833.510
334.1363, 3817.297
334.6184, 3801.303
335.1005, 3788.871
335.5826, 3785.809
336.0648, 3796.826
336.5469, 3806.409
337.0290, 3808.784
337.5111, 3803.311
337.9932, 3805.532
338.4753, 3818.528
338.9575, 3833.575
339.4396, 3839.876
339.9217, 3834.929
340.4038, 3833.778
340.8859, 3840.219
341.3680, 3853.322
341.8502, 3870.420
342.3323, 3893.106
342.8144, 3912.087
343.2965, 3916.222
343.7786, 3905.890
344.2607, 3899.030
344.7429, 3900.254
345.2250, 3905.931
345.7071, 3906.237
346.1892, 3901.077
346.6713, 3896.022
347.1534, 3895.169
347.6355, 3897.727
348.1176, 3899.294
348.5998, 3897.573
349.0819, 3898.171
349.5640, 3914.286
350.0461, 3943.047
350.5282, 3966.118
351.0103, 3970.421
351.4925, 3962.556
351.9746, 3952.901
352.4567, 3941.560
352.9388, 3932.461
353.4209, 3931.935
353.9030, 3936.938
354.3852, 3940.216
354.8673, 3932.783
355.3494, 3925.249
355.8315, 3932.489
356.3136, 3955.497
356.7957, 3974.358
357.2779, 3967.688
357.7600, 3950.080
358.2421, 3941.525
358.7242, 3957.882
359.2063, 3978.213
359.6884, 3990.129
360.1706, 3994.412
360.6527, 3999.026
361.1348, 4011.018
361.6169, 4023.109
362.0990, 4028.624
362.5811, 4013.582
363.0633, 4007.045
363.5454, 4024.794
364.0275, 4059.707
364.5096, 4087.207
364.9917, 4095.961
365.4738, 4099.523
365.9560, 4104.864
366.4381, 4115.699
366.9202, 4122.968
367.4023, 4125.456
367.8844, 4123.969
368.3665, 4119.972
368.8487, 4111.178
369.3308, 4102.163
369.8129, 4092.698
370.2950, 4080.447
370.7771, 4078.277
371.2592, 4097.825
371.7414, 4119.826
372.2235, 4120.921
372.7056, 4086.262
373.1877, 4057.160
373.6698, 4041.941
374.1519, 4040.230
374.6341, 4045.837
375.1162, 4063.061
375.5983, 4079.756
376.0804, 4084.991
376.5625, 4076.467
377.0446, 4066.914
377.5267, 4057.160
378.0089, 4048.187
378.4910, 4043.296
378.9731, 4042.611
379.4552, 4045.625
379.9373, 4052.421
380.4194, 4063.040
380.9016, 4075.883
381.3837, 4090.745
381.8658, 4108.733
382.3479, 4133.597
382.8300, 4164.473
383.3121, 4194.491
383.7943, 4217.573
384.2764, 4237.304
384.7585, 4261.196
385.2406, 4288.884
385.7227, 4324.047
386.2048, 4373.926
386.6870, 4433.171
387.1691, 4490.697
387.6512, 4542.950
388.1333, 4589.916
388.6154, 4628.376
389.0975, 4659.366
389.5797, 4694.539
390.0618, 4739.533
390.5439, 4793.259
391.0260, 4855.906
391.5081, 4937.646
391.9902, 5011.493
392.4724, 5059.397
392.9545, 5087.842
393.4366, 5115.043
393.9187, 5152.311
394.4008, 5187.690
394.8829, 5214.314
395.3651, 5228.417
395.8472, 5242.605
396.3293, 5257.970
396.8114, 5275.853
397.2935, 5298.042
397.7756, 5347.413
398.2578, 5378.499
398.7399, 5379.484
399.2220, 5348.363
399.7041, 5300.352
400.1862, 5233.879
400.6683, 5151.725
401.1505, 5053.186
401.6326, 4912.546
402.1147, 4799.889
402.5968, 4731.953
403.0789, 4697.463
403.5610, 4644.607
404.0432, 4565.000
404.5253, 4483.180
405.0074, 4409.962
405.4895, 4343.879
405.9716, 4294.190
406.4537, 4264.378
406.9359, 4246.468
407.4180, 4226.882
407.9001, 4204.951
408.3822, 4187.731
408.8643, 4179.522
409.3464, 4178.657
409.8285, 4176.274
410.3106, 4172.307
410.7928, 4167.345
411.2749, 4161.443
411.7570, 4154.882
412.2391, 4149.073
412.7212, 4145.293
413.2033, 4141.417
413.6855, 4133.166
414.1676, 4121.279
414.6497, 4110.126
415.1318, 4101.752
415.6139, 4096.222
416.0960, 4094.722
416.5782, 4098.910
417.0603, 4102.269
417.5424, 4100.848
418.0245, 4094.928
418.5066, 4085.149
418.9887, 4066.568
419.4709, 4048.224
419.9530, 4035.501
420.4351, 4029.215
420.9172, 4024.151
421.3993, 4016.154
421.8814, 4009.859
422.3636, 4009.483
422.8457, 4032.711
423.3278, 4043.652
423.8099, 4026.899
424.2920, 3987.751
424.7741, 3962.305
425.2563, 3960.807
425.7384, 3965.818
426.2205, 3970.335
426.7026, 3975.710
427.1847, 3977.633
427.6668, 3974.813
428.1490, 3969.164
428.6311, 3963.061
429.1132, 3954.013
429.5953, 3950.581
430.0774, 3957.854
430.5595, 3975.164
431.0417, 3982.324
431.5238, 3975.007
432.0059, 3969.859
432.4880, 3988.723
432.9701, 4030.934
433.4522, 4061.012
433.9344, 4070.159
434.4165, 4065.750
434.8986, 4063.571
435.3807, 4063.280
435.8628, 4059.655
436.3449, 4042.068
436.8271, 4019.912
437.3092, 4015.510
437.7913, 4033.393
438.2734, 4055.362
438.7555, 4066.312
439.2376, 4068.453
439.7197, 4066.197
440.2018, 4060.731
440.6840, 4052.020
441.1661, 4037.061
441.6482, 4016.792
442.1303, 4000.921
442.6124, 4000.251
443.0945, 4002.729
443.5767, 3998.384
444.0588, 3982.115
444.5409, 3963.233
445.0230, 3939.946
445.5051, 3915.628
445.9872, 3898.782
446.4694, 3899.052
446.9515, 3899.491
447.4336, 3894.195
447.9157, 3881.486
448.3978, 3869.743
448.8799, 3856.708
449.3621, 3846.492
449.8442, 3844.878
450.3263, 3858.498
450.8084, 3864.434
451.2905, 3855.254
451.7726, 3835.635
452.2548, 3827.528
452.7369, 3832.870
453.2190, 3843.040
453.7011, 3855.472
454.1832, 3869.903
454.6653, 3874.923
455.1475, 3867.227
455.6296, 3857.535
456.1117, 3865.701
456.5938, 3888.161
457.0759, 3902.736
457.5580, 3893.810
458.0402, 3873.877
458.5223, 3865.626
459.0044, 3868.418
459.4865, 3872.224
459.9686, 3869.542
460.4507, 3863.295
460.9329, 3857.292
461.4150, 3852.810
461.8971, 3848.327
462.3792, 3840.561
462.8613, 3832.045
463.3434, 3828.231
463.8256, 3833.859
464.3077, 3842.719
464.7898, 3852.896
465.2719, 3864.739
465.7540, 3873.966
466.2361, 3882.367
466.7183, 3886.514
467.2004, 3883.149
467.6825, 3859.599
468.1646, 3844.208
468.6467, 3843.047
469.1288, 3852.388
469.6110, 3855.440
470.0930, 3848.163
470.5752, 3841.319
471.0573, 3838.395
471.5394, 3838.409
472.0215, 3850.519
472.5036, 3880.285
472.9857, 3911.509
473.4679, 3918.767
473.9500, 3901.668
474.4321, 3889.440
474.9142, 3893.294
475.3963, 3905.885
475.8784, 3906.964
476.3606, 3897.205
476.8427, 3888.578
477.3248, 3892.604
477.8069, 3903.389
478.2890, 3909.796
478.7711, 3909.499
479.2533, 3908.305
479.7354, 3911.211
480.2175, 3916.906
480.6996, 3922.950
481.1817, 3929.812
481.6638, 3935.257
482.1460, 3934.674
482.6281, 3928.858
483.1102, 3930.266
483.5923, 3951.533
484.0744, 3975.898
484.5565, 3992.098
485.0387, 3992.854
485.5208, 3993.027
486.0029, 3996.745
486.4850, 3999.993
486.9671, 3994.213
487.4492, 3966.064
487.9314, 3949.338
488.4135, 3958.117
488.8956, 3993.183
489.3777, 4012.699
489.8598, 4012.930
490.3419, 4006.513
490.8241, 4005.026
491.3062, 4009.197
491.7883, 4005.357
492.2704, 3988.617
492.7525, 3968.485
493.2346, 3965.065
493.7168, 3976.499
494.1989, 3985.644
494.6810, 3977.978
495.1631, 3963.898
495.6452, 3964.825
496.1273, 3981.081
496.6095, 3998.135
497.0916, 4003.665
497.5737, 4002.928
498.0558, 4002.354
498.5379, 4002.622
499.0201, 4005.199
499.5022, 4014.793
499.9843, 4027.531
500.4664, 4034.034
500.9485, 4021.559
501.4306, 4010.719
501.9127, 4010.189
502.3948, 4021.625
502.8770, 4036.830
503.3591, 4062.723
503.8412, 4086.995
504.3233, 4099.668
504.8054, 4090.004
505.2875, 4088.843
505.7697, 4100.928
506.2518, 4122.035
506.7339, 4141.375
507.2160, 4159.471
507.6981, 4173.403
508.1802, 4178.477
508.6624, 4176.313
509.1445, 4187.319
509.6266, 4213.387
510.1087, 4240.432
510.5908, 4251.197
511.0729, 4250.914
511.5551, 4256.472
512.0372, 4271.716
512.5193, 4294.689
513.0014, 4330.194
513.4835, 4372.607
513.9656, 4405.025
514.4478, 4406.523
514.9299, 4403.093
515.4120, 4417.244
515.8941, 4451.464
516.3762, 4480.378
516.8583, 4488.483
517.3405, 4489.204
517.8226, 4493.439
518.3047, 4502.257
518.7868, 4515.634
519.2689, 4539.465
519.7510, 4567.638
520.2332, 4585.553
520.7153, 4590.167
521.1974, 4588.533
521.6795, 4580.932
522.1616, 4567.088
522.6437, 4558.942
523.1259, 4559.156
523.6080, 4558.720
524.0901, 4551.003
524.5722, 4535.843
525.0543, 4509.972
525.5364, 4468.630
526.0186, 4425.164
526.5007, 4402.117
526.9828, 4396.847
527.4649, 4395.962
527.9470, 4399.041
528.4291, 4399.629
528.9113, 4379.601
529.3934, 4372.471
529.8755, 4360.341
530.3576, 4343.483
530.8397, 4307.733
531.3218, 4296.380
531.8040, 4275.245
532.2861, 4253.715
532.7682, 4245.793
533.2503, 4212.792
533.7324, 4204.654
534.2145, 4186.594
534.6967, 4173.069
535.1788, 4149.715
535.6609, 4129.396
536.1430, 4118.918
536.6251, 4102.991
537.1072, 4071.662
537.5894, 4056.252
538.0715, 4046.425
538.5536, 4042.333
539.0357, 4046.805
539.5178, 4050.813
539.9999, 4034.959
540.4821, 4002.394
540.9642, 3983.768
541.4463, 3995.391
541.9284, 4020.902
542.4105, 4034.259
542.8926, 4036.422
543.3748, 4033.290
543.8569, 4024.498
544.3390, 4014.470
544.8211, 4007.918
545.3032, 4005.767
545.7853, 4003.976
546.2675, 3997.529
546.7495, 3991.660
547.2316, 3991.920
547.7137, 4010.173
548.1959, 4022.661
548.6780, 4021.591
549.1601, 4011.110
549.6422, 4006.036
550.1243, 4010.625
550.6064, 4014.553
551.0886, 4012.663
551.5707, 4003.964
552.0528, 4004.536
552.5349, 4016.542
553.0170, 4032.149
553.4991, 4046.410
553.9813, 4058.985
554.4634, 4062.066
554.9455, 4051.206
555.4276, 4037.931
555.9097, 4041.454
556.3918, 4058.134
556.8740, 4075.247
557.3561, 4091.594
557.8382, 4102.347
558.3203, 4098.311
558.8024, 4081.249
559.2845, 4068.210
559.7667, 4069.482
560.2488, 4077.257
560.7309, 4086.998
561.2130, 4101.089
561.6951, 4109.540
562.1772, 4103.034
562.6594, 4092.674
563.1415, 4093.288
563.6236, 4117.406
564.1057, 4132.103
564.5878, 4127.086
565.0699, 4109.022
565.5521, 4109.602
566.0342, 4135.701
566.5163, 4156.326
566.9984, 4147.887
567.4805, 4114.713
567.9626, 4109.585
568.4448, 4135.828
568.9269, 4164.322
569.4090, 4159.268
569.8911, 4135.021
570.3732, 4127.371
570.8553, 4152.553
571.3375, 4180.241
571.8196, 4178.184
572.3017, 4158.333
572.7838, 4145.204
573.2659, 4157.752
573.7480, 4171.156
574.2302, 4170.580
574.7123, 4156.331
575.1944, 4150.876
575.6765, 4168.910
576.1586, 4187.898
576.6407, 4196.065
577.1229, 4187.574
577.6050, 4184.552
578.0871, 4190.015
578.5692, 4197.521
579.0513, 4199.128
579.5334, 4194.650
580.0156, 4184.657
580.4977, 4164.458
580.9798, 4144.120
581.4619, 4154.368
581.9440, 4190.864
582.4261, 4218.132
582.9083, 4204.194
583.3904, 4173.450
583.8725, 4161.532
584.3546, 4169.325
584.8367, 4176.881
585.3188, 4168.202
585.8010, 4154.995
586.2831, 4147.959
586.7652, 4149.682
587.2473, 4157.014
587.7294, 4176.565
588.2115, 4199.366
588.6937, 4210.654
589.1758, 4198.517
589.6579, 4191.673
590.1400, 4197.807
590.6221, 4213.667
591.1042, 4220.403
591.5864, 4215.452
592.0685, 4209.961
592.5506, 4211.803
593.0327, 4219.775
593.5148, 4218.489
593.9969, 4206.643
594.4791, 4195.735
594.9612, 4199.361
595.4433, 4211.918
595.9254, 4221.699
596.4075, 4225.366
596.8896, 4227.421
597.3718, 4231.967
597.8539, 4237.407
598.3360, 4240.838
598.8181, 4239.978
599.3002, 4238.085
599.7823, 4234.649
600.2645, 4230.227
600.7466, 4230.709
601.2287, 4236.670
601.7108, 4247.339
602.1929, 4264.850
602.6750, 4292.631
603.1572, 4307.660
603.6393, 4307.337
604.1214, 4299.874
604.6035, 4288.424
605.0856, 4273.615
605.5677, 4276.914
606.0499, 4306.660
606.5320, 4344.960
607.0141, 4362.515
607.4962, 4365.826
607.9783, 4375.070
608.4604, 4407.486
608.9425, 4443.650
609.4246, 4468.428
609.9067, 4482.600
610.3889, 4489.898
610.8710, 4482.812
611.3531, 4476.537
611.8352, 4480.179
612.3173, 4497.311
612.7994, 4514.064
613.2816, 4529.521
613.7637, 4544.873
614.2458, 4563.511
614.7279, 4591.719
615.2100, 4600.965
615.6921, 4583.763
616.1743, 4553.754
616.6564, 4534.107
617.1385, 4524.676
617.6206, 4522.341
618.1027, 4531.875
618.5848, 4543.050
619.0670, 4535.318
619.5491, 4511.654
620.0312, 4488.150
620.5133, 4469.269
620.9954, 4457.919
621.4775, 4460.511
621.9597, 4479.109
622.4418, 4491.139
622.9239, 4482.014
623.4060, 4467.421
623.8881, 4459.104
624.3702, 4459.999
624.8524, 4464.746
625.3345, 4476.022
625.8166, 4489.301
626.2987, 4498.604
626.7808, 4504.767
627.2629, 4502.578
627.7451, 4487.648
628.2272, 4466.233
628.7093, 4453.637
629.1914, 4449.730
629.6735, 4452.629
630.1556, 4469.872
630.6378, 4489.161
631.1199, 4490.331
631.6020, 4473.743
632.0841, 4457.559
632.5662, 4445.850
633.0483, 4443.515
633.5305, 4457.691
634.0126, 4499.951
634.4947, 4531.292
634.9768, 4541.065
635.4589, 4537.917
635.9410, 4530.140
636.4232, 4512.681
636.9053, 4500.514
637.3874, 4494.191
637.8695, 4494.904
638.3516, 4508.427
638.8337, 4535.786
639.3159, 4560.404
639.7980, 4576.313
640.2801, 4584.913
