##NAMES=Beryl
##RRUFFID=R060943
##IDEAL CHEMISTRY=Be_3_Al_2_Si_6_O_18_
##LOCALITY=Xinjiang, China
##OWNER=RRUFF
##SOURCE=Lawrence W. Snee
##DESCRIPTION=Green hexagonal prisms, variety emerald
##STATUS=The identification of this mineral has been confirmed by X-ray diffraction and chemical analysis
##URL=rruff.info/R060943
##MEASURED CHEMISTRY=(Be_2.96_Li_0.04_)_Σ=3_(Al_1.64_Mg_0.21_V^3+^_0.06_Fe^3+^_0.04_Sc^3+^_0.03_Cr^3+^_0.02_)_Σ=2_Si_6.00_O_18_·Na_0.25_
126.8263, 7986.964
127.3084, 8032.647
127.7905, 8070.716
128.2727, 8128.060
128.7548, 8199.010
129.2369, 8268.226
129.7190, 8336.441
130.2011, 8397.852
130.6832, 8432.789
131.1654, 8438.888
131.6475, 8443.638
132.1296, 8486.691
132.6117, 8563.071
133.0938, 8617.414
133.5759, 8612.489
134.0581, 8560.151
134.5402, 8554.354
135.0223, 8603.865
135.5044, 8677.537
135.9865, 8727.780
136.4686, 8751.832
136.9508, 8772.595
137.4329, 8798.276
137.9150, 8828.355
138.3971, 8867.958
138.8792, 8920.210
139.3613, 8980.321
139.8434, 9038.897
140.3256, 9100.142
140.8077, 9151.712
141.2898, 9186.380
141.7719, 9200.534
142.2540, 9208.895
142.7361, 9213.523
143.2183, 9213.605
143.7004, 9201.979
144.1825, 9170.601
144.6646, 9136.722
145.1467, 9113.875
145.6288, 9109.200
146.1110, 9102.487
146.5931, 9091.720
147.0752, 9076.633
147.5573, 9054.617
148.0394, 9025.914
148.5215, 8989.846
149.0037, 8944.701
149.4858, 8869.722
149.9679, 8808.373
150.4500, 8773.308
150.9321, 8776.166
151.4142, 8767.683
151.8964, 8742.346
152.3785, 8707.502
152.8606, 8673.366
153.3427, 8633.711
153.8248, 8601.389
154.3069, 8582.241
154.7890, 8584.052
155.2712, 8583.881
155.7533, 8575.304
156.2354, 8562.901
156.7175, 8556.413
157.1996, 8556.474
157.6817, 8563.652
158.1639, 8578.815
158.6460, 8609.578
159.1281, 8637.156
159.6102, 8656.021
160.0923, 8666.879
160.5744, 8673.505
161.0566, 8669.669
161.5387, 8665.061
162.0208, 8666.649
162.5029, 8682.405
162.9850, 8698.332
163.4671, 8704.968
163.9493, 8703.757
164.4314, 8709.781
164.9135, 8750.037
165.3956, 8794.232
165.8777, 8811.311
166.3598, 8762.565
166.8420, 8704.652
167.3241, 8668.980
167.8062, 8656.601
168.2883, 8661.163
168.7704, 8699.531
169.2525, 8749.525
169.7346, 8777.690
170.2168, 8749.605
170.6989, 8705.004
171.1810, 8679.184
171.6631, 8676.349
172.1452, 8678.209
172.6273, 8666.501
173.1095, 8648.177
173.5916, 8638.488
174.0737, 8655.882
174.5558, 8682.358
175.0379, 8694.912
175.5201, 8689.748
176.0022, 8675.337
176.4843, 8650.806
176.9664, 8621.436
177.4485, 8605.543
177.9306, 8625.532
178.4128, 8664.539
178.8949, 8690.988
179.3770, 8694.868
179.8591, 8694.671
180.3412, 8722.252
180.8233, 8773.363
181.3055, 8815.476
181.7876, 8820.709
182.2697, 8799.101
182.7518, 8775.932
183.2339, 8752.757
183.7160, 8734.861
184.1981, 8736.101
184.6803, 8755.986
185.1624, 8777.788
185.6445, 8788.971
186.1266, 8790.684
186.6087, 8787.519
187.0908, 8775.367
187.5730, 8761.637
188.0551, 8768.590
188.5372, 8797.864
189.0193, 8831.965
189.5014, 8857.310
189.9835, 8874.143
190.4657, 8881.850
190.9478, 8876.356
191.4299, 8861.785
191.9120, 8856.393
192.3941, 8861.983
192.8762, 8868.627
193.3584, 8868.734
193.8405, 8862.397
194.3226, 8840.976
194.8047, 8790.749
195.2868, 8717.690
195.7689, 8677.357
196.2511, 8676.419
196.7332, 8689.795
197.2153, 8678.962
197.6974, 8641.460
198.1795, 8611.479
198.6616, 8606.739
199.1437, 8627.362
199.6259, 8638.634
200.1080, 8638.610
200.5901, 8632.640
201.0722, 8629.760
201.5543, 8630.598
202.0364, 8630.348
202.5186, 8627.219
203.0007, 8621.106
203.4828, 8609.002
203.9649, 8586.176
204.4470, 8561.812
204.9291, 8555.511
205.4113, 8568.990
205.8934, 8592.577
206.3755, 8628.774
206.8576, 8684.051
207.3397, 8709.718
207.8218, 8695.762
208.3040, 8656.620
208.7861, 8630.432
209.2682, 8623.333
209.7503, 8614.344
210.2324, 8587.479
210.7145, 8534.719
211.1967, 8501.885
211.6788, 8495.747
212.1609, 8510.674
212.6430, 8530.917
213.1251, 8562.979
213.6072, 8587.212
214.0894, 8588.580
214.5715, 8557.621
215.0536, 8535.205
215.5357, 8528.712
216.0178, 8533.209
216.4999, 8524.826
216.9820, 8494.568
217.4642, 8465.974
217.9463, 8453.730
218.4284, 8459.470
218.9105, 8477.904
219.3926, 8517.031
219.8747, 8570.243
220.3569, 8595.760
220.8390, 8582.277
221.3211, 8557.013
221.8032, 8537.646
222.2853, 8522.396
222.7674, 8519.376
223.2496, 8535.410
223.7317, 8567.978
224.2138, 8587.246
224.6959, 8591.697
225.1780, 8585.542
225.6601, 8569.501
226.1423, 8534.648
226.6244, 8510.012
227.1065, 8502.179
227.5886, 8510.343
228.0707, 8516.916
228.5528, 8518.286
229.0350, 8521.729
229.5171, 8536.708
229.9992, 8580.032
230.4813, 8599.714
230.9634, 8574.606
231.4455, 8504.548
231.9276, 8476.017
232.4098, 8510.312
232.8919, 8564.574
233.3740, 8598.505
233.8561, 8605.822
234.3382, 8605.291
234.8203, 8597.219
235.3025, 8581.223
235.7846, 8573.353
236.2667, 8577.806
236.7488, 8586.586
237.2309, 8590.962
237.7130, 8585.420
238.1952, 8586.046
238.6773, 8598.385
239.1594, 8623.542
239.6415, 8641.646
240.1236, 8647.536
240.6057, 8651.358
241.0879, 8664.411
241.5700, 8692.258
242.0521, 8718.844
242.5342, 8738.971
243.0163, 8751.387
243.4984, 8772.918
243.9806, 8806.074
244.4627, 8845.722
244.9448, 8886.667
245.4269, 8929.605
245.9090, 8972.185
246.3911, 9016.686
246.8732, 9064.224
247.3554, 9094.468
247.8375, 9095.854
248.3196, 9089.863
248.8017, 9102.883
249.2838, 9152.013
249.7659, 9187.682
250.2481, 9198.286
250.7302, 9182.570
251.2123, 9159.943
251.6944, 9131.984
252.1765, 9096.563
252.6586, 9051.208
253.1408, 8996.928
253.6229, 8931.595
254.1050, 8853.313
254.5871, 8762.575
255.0692, 8664.354
255.5513, 8551.246
256.0334, 8438.479
256.5156, 8341.412
256.9977, 8262.858
257.4798, 8192.843
257.9619, 8127.732
258.4440, 8066.220
258.9261, 8021.337
259.4083, 7996.434
259.8904, 7983.123
260.3725, 7973.156
260.8546, 7967.702
261.3367, 7961.704
261.8188, 7953.073
262.3010, 7941.438
262.7831, 7933.774
263.2652, 7930.697
263.7473, 7930.423
264.2294, 7931.146
264.7115, 7932.912
265.1937, 7935.460
265.6758, 7939.331
266.1579, 7944.458
266.6400, 7946.270
267.1221, 7941.794
267.6042, 7939.023
268.0864, 7948.627
268.5685, 7975.927
269.0506, 7997.772
269.5327, 8006.166
270.0148, 8002.448
270.4969, 8011.477
270.9791, 8039.806
271.4612, 8068.274
271.9433, 8074.621
272.4254, 8054.215
272.9075, 8034.446
273.3896, 8022.493
273.8718, 8017.197
274.3539, 8006.019
274.8360, 7986.439
275.3181, 7966.832
275.8002, 7954.343
276.2823, 7948.960
276.7645, 7950.638
277.2466, 7961.624
277.7287, 7979.886
278.2108, 7992.866
278.6929, 7999.815
279.1750, 8003.863
279.6572, 8005.714
280.1393, 8004.762
280.6214, 8009.634
281.1035, 8022.382
281.5856, 8042.053
282.0677, 8069.512
282.5499, 8107.737
283.0320, 8138.246
283.5141, 8135.946
283.9962, 8101.446
284.4783, 8087.274
284.9604, 8110.311
285.4425, 8156.654
285.9247, 8181.557
286.4068, 8183.237
286.8889, 8183.405
287.3710, 8201.787
287.8531, 8236.219
288.3352, 8264.566
288.8174, 8278.788
289.2995, 8289.148
289.7816, 8326.091
290.2637, 8389.248
290.7458, 8445.637
291.2279, 8469.156
291.7101, 8464.351
292.1922, 8451.208
292.6743, 8430.855
293.1564, 8407.149
293.6385, 8384.771
294.1206, 8364.135
294.6028, 8348.944
295.0849, 8347.993
295.5670, 8355.004
296.0491, 8350.522
296.5312, 8329.866
297.0133, 8302.271
297.4955, 8277.406
297.9776, 8256.314
298.4597, 8241.340
298.9418, 8232.943
299.4239, 8232.164
299.9060, 8244.257
300.3882, 8273.240
300.8703, 8303.144
301.3524, 8307.978
301.8345, 8295.505
302.3166, 8292.903
302.7987, 8327.127
303.2809, 8375.322
303.7630, 8404.073
304.2451, 8406.719
304.7272, 8404.511
305.2093, 8414.596
305.6914, 8434.626
306.1736, 8458.650
306.6557, 8489.560
307.1378, 8520.418
307.6199, 8543.590
308.1020, 8558.379
308.5841, 8570.644
309.0663, 8575.468
309.5484, 8582.235
310.0305, 8606.300
310.5126, 8668.567
310.9947, 8740.949
311.4768, 8802.175
311.9590, 8850.874
312.4411, 8899.008
312.9232, 8946.093
313.4053, 8998.496
313.8874, 9063.103
314.3695, 9144.133
314.8516, 9237.864
315.3337, 9347.316
315.8159, 9471.719
316.2980, 9594.225
316.7801, 9701.222
317.2622, 9806.978
317.7443, 9925.686
318.2264, 10047.49
318.7086, 10195.14
319.1907, 10384.20
319.6728, 10610.57
320.1549, 10843.48
320.6370, 11053.36
321.1191, 11278.87
321.6013, 11547.27
322.0834, 11932.38
322.5655, 12280.58
323.0476, 12589.74
323.5297, 12847.05
324.0118, 13001.20
324.4940, 13064.42
324.9761, 13006.99
325.4582, 12810.29
325.9403, 12400.79
326.4224, 11953.68
326.9045, 11437.29
327.3867, 10885.94
327.8688, 10393.23
328.3509, 9953.814
328.8330, 9579.858
329.3151, 9277.475
329.7972, 9074.399
330.2794, 8883.751
330.7615, 8694.283
331.2436, 8519.241
331.7257, 8386.307
332.2078, 8318.859
332.6899, 8259.466
333.1721, 8188.555
333.6542, 8099.483
334.1363, 8033.983
334.6184, 8001.392
335.1005, 7983.759
335.5826, 7956.584
336.0648, 7912.916
336.5469, 7875.892
337.0290, 7850.801
337.5111, 7837.549
337.9932, 7834.906
338.4753, 7850.393
338.9575, 7861.921
339.4396, 7839.660
339.9217, 7772.940
340.4038, 7730.213
340.8859, 7733.064
341.3680, 7769.896
341.8502, 7785.524
342.3323, 7777.477
342.8144, 7758.805
343.2965, 7734.759
343.7786, 7705.659
344.2607, 7689.923
344.7429, 7693.947
345.2250, 7709.277
345.7071, 7717.844
346.1892, 7719.848
346.6713, 7717.218
347.1534, 7707.705
347.6355, 7693.771
348.1176, 7685.205
348.5998, 7682.926
349.0819, 7685.853
349.5640, 7698.158
350.0461, 7716.804
350.5282, 7725.633
351.0103, 7705.118
351.4925, 7671.528
351.9746, 7653.666
352.4567, 7654.403
352.9388, 7664.410
353.4209, 7680.164
353.9030, 7698.482
354.3852, 7712.325
354.8673, 7721.083
355.3494, 7722.749
355.8315, 7712.188
356.3136, 7689.818
356.7957, 7667.964
357.2779, 7654.097
357.7600, 7646.464
358.2421, 7642.893
358.7242, 7645.464
359.2063, 7649.359
359.6884, 7650.510
360.1706, 7649.793
360.6527, 7652.736
361.1348, 7666.495
361.6169, 7682.242
362.0990, 7692.991
362.5811, 7695.995
363.0633, 7695.468
363.5454, 7690.971
364.0275, 7683.533
364.5096, 7676.274
364.9917, 7663.399
365.4738, 7655.939
365.9560, 7661.060
366.4381, 7689.277
366.9202, 7708.852
367.4023, 7702.687
367.8844, 7688.725
368.3665, 7696.033
368.8487, 7759.934
369.3308, 7812.025
369.8129, 7831.292
370.2950, 7809.700
370.7771, 7799.200
371.2592, 7801.280
371.7414, 7813.393
372.2235, 7834.050
372.7056, 7868.641
373.1877, 7901.228
373.6698, 7926.094
374.1519, 7944.397
374.6341, 7975.314
375.1162, 8025.625
375.5983, 8074.938
376.0804, 8102.808
376.5625, 8101.006
377.0446, 8119.234
377.5267, 8167.744
378.0089, 8236.730
378.4910, 8297.789
378.9731, 8349.801
379.4552, 8401.053
379.9373, 8455.833
380.4194, 8514.482
380.9016, 8574.108
381.3837, 8636.673
381.8658, 8696.924
382.3479, 8741.982
382.8300, 8774.526
383.3121, 8816.070
383.7943, 8878.836
384.2764, 8956.729
384.7585, 9040.335
385.2406, 9129.294
385.7227, 9215.137
386.2048, 9268.940
386.6870, 9312.046
387.1691, 9391.658
387.6512, 9538.305
388.1333, 9713.392
388.6154, 9884.128
389.0975, 10049.89
389.5797, 10213.67
390.0618, 10358.31
390.5439, 10508.91
391.0260, 10688.75
391.5081, 10905.75
391.9902, 11147.08
392.4724, 11418.33
392.9545, 11710.88
393.4366, 12006.45
393.9187, 12296.02
394.4008, 12587.29
394.8829, 12899.51
395.3651, 13247.19
395.8472, 13557.58
396.3293, 13832.04
396.8114, 14052.77
397.2935, 14198.25
397.7756, 14298.62
398.2578, 14288.44
398.7399, 14134.76
399.2220, 13830.14
399.7041, 13486.30
400.1862, 13078.90
400.6683, 12651.51
401.1505, 12232.07
401.6326, 11813.23
402.1147, 11412.99
402.5968, 11023.20
403.0789, 10651.74
403.5610, 10327.83
404.0432, 10058.50
404.5253, 9823.051
405.0074, 9615.784
405.4895, 9440.225
405.9716, 9268.009
406.4537, 9092.592
406.9359, 8931.512
407.4180, 8818.505
407.9001, 8756.273
408.3822, 8707.224
408.8643, 8659.975
409.3464, 8614.393
409.8285, 8570.565
410.3106, 8528.960
410.7928, 8487.003
411.2749, 8433.612
411.7570, 8375.358
412.2391, 8340.939
412.7212, 8347.133
413.2033, 8366.930
413.6855, 8357.690
414.1676, 8324.371
414.6497, 8292.489
415.1318, 8279.867
415.6139, 8277.820
416.0960, 8276.498
416.5782, 8274.840
417.0603, 8271.707
417.5424, 8265.346
418.0245, 8256.898
418.5066, 8248.487
418.9887, 8247.894
419.4709, 8241.822
419.9530, 8219.624
420.4351, 8180.720
420.9172, 8143.692
421.3993, 8117.234
421.8814, 8094.990
422.3636, 8071.716
422.8457, 8038.360
423.3278, 8013.287
423.8099, 8003.522
424.2920, 8006.098
424.7741, 8007.332
425.2563, 8014.108
425.7384, 8012.594
426.2205, 7994.395
426.7026, 7944.896
427.1847, 7915.542
427.6668, 7912.691
428.1490, 7925.869
428.6311, 7940.865
429.1132, 7960.563
429.5953, 7974.609
430.0774, 7978.996
430.5595, 7974.315
431.0417, 7966.414
431.5238, 7952.341
432.0059, 7944.342
432.4880, 7956.861
432.9701, 7989.326
433.4522, 8019.325
433.9344, 8043.025
434.4165, 8062.985
434.8986, 8077.562
435.3807, 8088.770
435.8628, 8118.384
436.3449, 8199.806
436.8271, 8305.388
437.3092, 8373.481
437.7913, 8395.048
438.2734, 8409.109
438.7555, 8447.140
439.2376, 8503.679
439.7197, 8568.626
440.2018, 8653.318
440.6840, 8732.927
441.1661, 8780.537
441.6482, 8800.491
442.1303, 8830.051
442.6124, 8910.443
443.0945, 8994.408
443.5767, 9045.114
444.0588, 9052.348
444.5409, 9032.190
445.0230, 8974.107
445.5051, 8892.165
445.9872, 8816.281
446.4694, 8770.288
446.9515, 8713.340
447.4336, 8628.479
447.9157, 8508.657
448.3978, 8400.022
448.8799, 8304.113
449.3621, 8219.014
449.8442, 8143.529
450.3263, 8075.520
450.8084, 8024.538
451.2905, 8000.890
451.7726, 7993.641
452.2548, 7953.797
452.7369, 7870.981
453.2190, 7791.639
453.7011, 7740.881
454.1832, 7718.570
454.6653, 7711.752
455.1475, 7723.751
455.6296, 7738.336
456.1117, 7731.053
456.5938, 7705.516
457.0759, 7681.827
457.5580, 7665.415
458.0402, 7657.103
458.5223, 7665.907
459.0044, 7689.790
459.4865, 7703.505
459.9686, 7677.622
460.4507, 7634.916
460.9329, 7603.828
461.4150, 7592.361
461.8971, 7590.468
462.3792, 7598.871
462.8613, 7611.866
463.3434, 7618.365
463.8256, 7604.882
464.3077, 7591.563
464.7898, 7590.872
465.2719, 7605.638
465.7540, 7611.914
466.2361, 7591.843
466.7183, 7568.471
467.2004, 7560.616
467.6825, 7592.489
468.1646, 7609.956
468.6467, 7598.424
469.1288, 7569.682
469.6109, 7567.600
470.0930, 7611.043
470.5752, 7647.226
471.0573, 7650.028
471.5394, 7612.898
472.0215, 7590.271
472.5036, 7585.010
472.9857, 7588.077
473.4679, 7590.202
473.9500, 7591.392
474.4321, 7590.222
474.9142, 7587.309
475.3963, 7581.248
475.8784, 7568.313
476.3606, 7548.847
476.8427, 7525.285
477.3248, 7486.389
477.8069, 7448.164
478.2890, 7444.934
478.7711, 7486.543
479.2533, 7534.054
479.7354, 7551.977
480.2175, 7552.914
480.6996, 7558.281
481.1817, 7593.298
481.6638, 7620.849
482.1460, 7604.727
482.6281, 7551.803
483.1102, 7526.433
483.5923, 7580.917
484.0744, 7649.186
484.5565, 7690.249
485.0387, 7684.980
485.5208, 7673.913
486.0029, 7650.679
486.4850, 7625.873
486.9671, 7617.374
487.4492, 7639.672
487.9314, 7656.353
488.4135, 7657.330
488.8956, 7643.223
489.3777, 7631.615
489.8598, 7622.184
490.3419, 7616.686
490.8241, 7616.690
491.3062, 7622.505
491.7883, 7634.413
492.2704, 7656.955
492.7525, 7677.359
493.2346, 7666.063
493.7168, 7627.628
494.1989, 7597.420
494.6810, 7595.733
495.1631, 7612.008
495.6452, 7629.512
496.1273, 7647.867
496.6095, 7665.536
497.0916, 7679.803
497.5737, 7692.729
498.0558, 7707.708
498.5379, 7728.784
499.0201, 7745.984
499.5022, 7753.444
499.9843, 7753.093
500.4664, 7748.577
500.9485, 7732.537
501.4306, 7720.620
501.9127, 7719.351
502.3948, 7729.736
502.8770, 7745.132
503.3591, 7773.092
503.8412, 7800.034
504.3233, 7815.898
504.8054, 7809.749
505.2875, 7812.952
505.7697, 7828.786
506.2518, 7853.991
506.7339, 7881.038
507.2160, 7910.028
507.6981, 7940.064
508.1802, 7972.225
508.6624, 8005.709
509.1445, 8031.510
509.6266, 8048.432
510.1087, 8067.740
510.5908, 8106.864
511.0729, 8158.005
511.5551, 8193.186
512.0372, 8199.514
512.5193, 8204.011
513.0014, 8237.882
513.4835, 8294.903
513.9656, 8358.532
514.4478, 8426.469
514.9299, 8493.486
515.4120, 8552.869
515.8941, 8604.235
516.3762, 8661.907
516.8583, 8721.160
517.3405, 8794.343
517.8226, 8891.286
518.3047, 9040.422
518.7868, 9177.866
519.2689, 9297.636
519.7510, 9401.484
520.2332, 9491.050
520.7153, 9551.390
521.1974, 9618.500
521.6795, 9705.826
522.1616, 9813.271
522.6437, 9913.197
523.1259, 10010.97
523.6080, 10084.81
524.0901, 10108.56
524.5722, 10083.18
525.0543, 10060.14
525.5364, 10049.32
526.0186, 10032.48
526.5007, 9981.227
526.9828, 9899.303
527.4649, 9801.157
527.9470, 9694.537
528.4291, 9575.105
528.9113, 9423.339
529.3934, 9244.341
529.8755, 9075.401
530.3576, 8941.143
530.8397, 8827.038
531.3218, 8719.294
531.8040, 8618.141
532.2861, 8518.695
532.7682, 8424.222
533.2503, 8330.655
533.7324, 8234.504
534.2145, 8120.358
534.6967, 8019.758
535.1788, 7941.749
535.6609, 7884.742
536.1430, 7823.026
536.6251, 7752.052
537.1072, 7686.113
537.5894, 7633.587
538.0715, 7595.069
538.5536, 7569.396
539.0357, 7560.941
539.5178, 7555.021
539.9999, 7527.248
540.4821, 7480.876
540.9642, 7443.410
541.4463, 7424.771
541.9284, 7416.861
542.4105, 7409.500
542.8926, 7401.869
543.3748, 7390.033
543.8569, 7365.767
544.3390, 7339.370
544.8211, 7322.409
545.3032, 7317.041
545.7853, 7309.712
546.2675, 7288.268
546.7495, 7263.997
547.2316, 7248.043
547.7137, 7255.468
548.1959, 7257.016
548.6780, 7242.919
549.1601, 7219.405
549.6422, 7204.633
550.1243, 7203.219
550.6064, 7204.006
551.0886, 7203.829
551.5707, 7202.674
552.0528, 7203.060
552.5349, 7207.222
553.0170, 7206.800
553.4991, 7187.446
553.9813, 7151.362
554.4634, 7135.783
554.9455, 7148.687
555.4276, 7175.568
555.9097, 7198.710
556.3918, 7218.419
556.8740, 7235.991
557.3561, 7255.634
557.8382, 7271.074
558.3203, 7271.277
558.8024, 7259.023
559.2845, 7252.608
559.7667, 7268.771
560.2488, 7289.202
560.7309, 7299.236
561.2130, 7289.705
561.6951, 7290.634
562.1772, 7325.601
562.6594, 7366.103
563.1415, 7378.407
563.6236, 7339.928
564.1057, 7308.042
564.5878, 7287.861
565.0699, 7279.453
565.5521, 7286.416
566.0342, 7314.169
566.5163, 7337.280
566.9984, 7341.416
567.4805, 7328.924
567.9626, 7316.917
568.4448, 7304.368
568.9269, 7302.216
569.4090, 7327.599
569.8911, 7370.340
570.3732, 7410.977
570.8553, 7449.911
571.3375, 7473.475
571.8196, 7457.074
572.3017, 7417.137
572.7838, 7385.172
573.2659, 7373.881
573.7480, 7372.901
574.2302, 7381.435
574.7123, 7398.374
575.1944, 7411.985
575.6765, 7420.520
576.1586, 7425.039
576.6407, 7424.085
577.1229, 7411.002
577.6050, 7416.168
578.0871, 7452.786
578.5692, 7491.127
579.0513, 7485.854
579.5334, 7429.038
580.0156, 7405.413
580.4977, 7442.902
580.9798, 7506.720
581.4619, 7522.182
581.9440, 7494.704
582.4261, 7463.411
582.9083, 7446.569
583.3904, 7439.915
583.8725, 7441.080
584.3546, 7449.179
584.8367, 7453.019
585.3188, 7434.645
585.8010, 7414.899
586.2831, 7415.806
586.7652, 7458.627
587.2473, 7483.511
587.7294, 7455.597
588.2115, 7407.285
588.6937, 7384.792
589.1758, 7415.890
589.6579, 7433.778
590.1400, 7420.794
590.6221, 7387.087
591.1042, 7378.772
591.5864, 7403.058
592.0685, 7427.623
592.5506, 7439.284
593.0327, 7438.196
593.5148, 7418.348
593.9969, 7377.190
594.4791, 7343.616
594.9612, 7350.658
595.4433, 7383.514
595.9254, 7412.086
596.4075, 7427.949
596.8896, 7445.461
597.3718, 7489.825
597.8539, 7541.154
598.3360, 7566.154
598.8181, 7521.861
599.3002, 7480.110
599.7823, 7472.542
600.2645, 7493.739
600.7466, 7504.070
601.2287, 7489.600
601.7108, 7475.686
602.1929, 7472.197
602.6750, 7480.666
603.1572, 7489.000
603.6393, 7497.583
604.1214, 7505.300
604.6035, 7508.663
605.0856, 7508.172
605.5677, 7518.458
606.0499, 7545.623
606.5320, 7573.511
607.0141, 7572.229
607.4962, 7552.075
607.9783, 7542.613
608.4604, 7564.060
608.9425, 7595.824
609.4246, 7626.461
609.9067, 7654.355
610.3889, 7671.424
610.8710, 7663.077
611.3531, 7652.238
611.8352, 7649.418
612.3173, 7655.299
612.7994, 7670.685
613.2816, 7697.400
613.7637, 7731.967
614.2458, 7774.062
614.7279, 7828.983
615.2100, 7871.658
615.6921, 7894.167
616.1743, 7913.774
616.6564, 7968.482
617.1385, 8055.548
617.6206, 8121.449
618.1027, 8140.513
618.5848, 8136.593
619.0670, 8146.609
619.5491, 8169.095
620.0312, 8197.444
620.5133, 8248.191
620.9954, 8289.301
621.4775, 8289.476
621.9597, 8244.651
