##NAMES=Beryl
##RRUFFID=R060942
##IDEAL CHEMISTRY=Be_3_Al_2_Si_6_O_18_
##LOCALITY=Mingore mine, Swat Valley, Pakistan
##OWNER=RRUFF
##SOURCE=Lawrence W. Snee
##DESCRIPTION=Green hexagonal prisms, variety emerald
##STATUS=The identification of this mineral has been confirmed by X-ray diffraction and chemical analysis
##URL=rruff.info/R060942
##MEASURED CHEMISTRY=(Be_2.94_Li_0.06_)_Σ=3_(Al_1.55_Mg_0.37_Fe^3+^_0.06_Cr^3+^_0.02_)_Σ=2_Si_6.00_O_18_·Na_0.42_; Be and Li not measured but estimated by stoichiometry
83.91797, 2009.805
84.40009, 2004.244
84.88220, 2000.753
85.36432, 1998.507
85.84644, 1995.658
86.32855, 1989.041
86.81067, 1982.753
87.29279, 1980.314
87.77490, 1984.244
88.25701, 1989.527
88.73913, 1993.559
89.22124, 1996.185
89.70336, 1996.272
90.18548, 1990.523
90.66759, 1982.063
91.14971, 1976.067
91.63183, 1975.963
92.11395, 1978.629
92.59606, 1979.900
93.07818, 1979.767
93.56030, 1978.022
94.04241, 1974.040
94.52453, 1967.998
95.00665, 1961.054
95.48875, 1951.260
95.97087, 1940.101
96.45299, 1936.377
96.93510, 1942.648
97.41722, 1952.636
97.89934, 1952.184
98.38145, 1939.812
98.86357, 1928.668
99.34569, 1930.069
99.82780, 1945.713
100.3099, 1954.500
100.7920, 1951.814
101.2742, 1939.877
101.7563, 1932.346
102.2384, 1930.548
102.7205, 1930.869
103.2026, 1929.335
103.6847, 1923.779
104.1668, 1921.799
104.6490, 1926.920
105.1311, 1941.242
105.6132, 1947.550
106.0953, 1938.143
106.5774, 1924.330
107.0595, 1924.230
107.5417, 1954.945
108.0238, 1980.470
108.5059, 1988.107
108.9880, 1960.407
109.4701, 1944.202
109.9522, 1947.909
110.4344, 1964.276
110.9165, 1972.679
111.3986, 1961.841
111.8807, 1950.023
112.3628, 1945.900
112.8449, 1957.852
113.3271, 1969.926
113.8092, 1978.533
114.2913, 1984.330
114.7734, 1993.570
115.2555, 2008.106
115.7376, 2026.736
116.2198, 2048.286
116.7019, 2072.431
117.1840, 2099.349
117.6661, 2132.016
118.1482, 2171.241
118.6303, 2205.706
119.1124, 2225.800
119.5946, 2237.771
120.0767, 2250.874
120.5588, 2270.620
121.0409, 2292.102
121.5230, 2309.631
122.0051, 2319.270
122.4873, 2334.749
122.9694, 2372.654
123.4515, 2426.542
123.9336, 2477.246
124.4157, 2507.901
124.8979, 2529.647
125.3800, 2559.798
125.8621, 2607.298
126.3442, 2657.735
126.8263, 2693.965
127.3084, 2716.228
127.7905, 2730.310
128.2727, 2739.636
128.7548, 2744.176
129.2369, 2743.220
129.7190, 2733.558
130.2011, 2719.274
130.6832, 2710.957
131.1654, 2709.276
131.6475, 2708.313
132.1296, 2700.080
132.6117, 2685.192
133.0938, 2671.979
133.5759, 2663.912
134.0581, 2660.582
134.5402, 2658.398
135.0223, 2657.116
135.5044, 2657.288
135.9865, 2660.677
136.4686, 2667.764
136.9508, 2674.461
137.4329, 2677.497
137.9150, 2675.999
138.3971, 2679.366
138.8792, 2689.355
139.3613, 2703.926
139.8434, 2717.676
140.3256, 2731.524
140.8077, 2742.945
141.2898, 2750.088
141.7719, 2751.639
142.2540, 2752.915
142.7361, 2754.755
143.2183, 2756.990
143.7004, 2757.571
144.1825, 2756.047
144.6646, 2753.249
145.1467, 2749.102
145.6288, 2738.377
146.1110, 2734.769
146.5931, 2744.779
147.0752, 2771.797
147.5573, 2783.487
148.0394, 2769.566
148.5215, 2745.311
149.0037, 2728.241
149.4858, 2726.729
149.9679, 2723.935
150.4500, 2715.203
150.9321, 2697.103
151.4142, 2682.795
151.8964, 2673.944
152.3785, 2668.906
152.8606, 2664.934
153.3427, 2663.461
153.8248, 2662.021
154.3069, 2659.465
154.7890, 2653.118
155.2712, 2650.496
155.7533, 2657.168
156.2354, 2668.932
156.7175, 2674.649
157.1996, 2668.164
157.6817, 2657.686
158.1639, 2647.172
158.6460, 2630.291
159.1281, 2621.621
159.6102, 2628.719
160.0923, 2648.761
160.5744, 2668.120
161.0566, 2684.881
161.5387, 2697.437
162.0208, 2704.511
162.5029, 2699.203
162.9850, 2693.769
163.4671, 2694.548
163.9493, 2701.135
164.4314, 2706.062
164.9135, 2706.115
165.3956, 2702.528
165.8777, 2696.710
166.3598, 2682.356
166.8420, 2670.966
167.3241, 2674.338
167.8062, 2694.436
168.2883, 2709.088
168.7704, 2697.035
169.2525, 2671.160
169.7346, 2652.602
170.2168, 2656.572
170.6989, 2669.401
171.1810, 2680.759
171.6631, 2690.492
172.1452, 2695.239
172.6273, 2687.175
173.1095, 2671.438
173.5916, 2660.398
174.0737, 2665.178
174.5558, 2676.964
175.0379, 2684.146
175.5201, 2684.358
176.0022, 2681.897
176.4843, 2679.627
176.9664, 2677.998
177.4485, 2678.889
177.9306, 2685.508
178.4128, 2695.186
178.8949, 2702.612
179.3770, 2705.190
179.8591, 2707.681
180.3412, 2720.354
180.8233, 2741.799
181.3055, 2758.342
181.7876, 2754.615
182.2697, 2737.523
182.7518, 2726.679
183.2339, 2729.441
183.7160, 2738.856
184.1982, 2740.277
184.6803, 2733.667
185.1624, 2728.850
185.6445, 2741.214
186.1266, 2765.287
186.6087, 2775.509
187.0908, 2758.284
187.5730, 2724.040
188.0551, 2702.038
188.5372, 2692.998
189.0193, 2688.395
189.5014, 2679.009
189.9835, 2665.359
190.4657, 2653.559
190.9478, 2644.834
191.4299, 2639.469
191.9120, 2640.901
192.3941, 2650.600
192.8762, 2661.234
193.3584, 2663.433
193.8405, 2657.261
194.3226, 2649.058
194.8047, 2640.229
195.2868, 2631.026
195.7689, 2624.232
196.2511, 2619.931
196.7332, 2617.790
197.2153, 2618.351
197.6974, 2622.026
198.1795, 2624.339
198.6616, 2622.774
199.1438, 2617.224
199.6259, 2612.242
200.1080, 2607.741
200.5901, 2604.048
201.0722, 2600.500
201.5543, 2596.047
202.0364, 2596.959
202.5186, 2611.221
203.0007, 2641.626
203.4828, 2654.589
203.9649, 2643.387
204.4470, 2618.824
204.9291, 2607.031
205.4113, 2610.836
205.8934, 2616.799
206.3755, 2617.857
206.8576, 2613.411
207.3397, 2606.898
207.8218, 2597.659
208.3040, 2586.922
208.7861, 2578.609
209.2682, 2573.554
209.7503, 2569.252
210.2324, 2563.275
210.7145, 2554.072
211.1967, 2550.903
211.6788, 2557.214
212.1609, 2569.992
212.6430, 2575.817
213.1251, 2572.063
213.6072, 2566.659
214.0894, 2565.615
214.5715, 2571.602
215.0536, 2573.094
215.5357, 2566.877
216.0178, 2554.628
216.4999, 2546.666
216.9820, 2542.434
217.4642, 2543.258
217.9463, 2551.492
218.4284, 2570.832
218.9105, 2587.193
219.3926, 2599.086
219.8747, 2606.371
220.3569, 2608.162
220.8390, 2601.415
221.3211, 2593.244
221.8032, 2589.573
222.2853, 2592.708
222.7674, 2595.208
223.2496, 2595.783
223.7317, 2594.583
224.2138, 2594.115
224.6959, 2595.543
225.1780, 2596.480
225.6601, 2594.361
226.1423, 2586.963
226.6244, 2581.150
227.1065, 2577.292
227.5886, 2575.319
228.0707, 2580.107
228.5528, 2597.310
229.0350, 2615.492
229.5171, 2622.008
229.9992, 2607.510
230.4813, 2599.765
230.9634, 2606.033
231.4455, 2627.340
231.9276, 2644.450
232.4098, 2655.857
232.8919, 2664.544
233.3740, 2673.742
233.8561, 2686.005
234.3382, 2694.024
234.8203, 2694.971
235.3025, 2688.037
235.7846, 2683.947
236.2667, 2681.363
236.7488, 2682.826
237.2309, 2692.092
237.7130, 2714.103
238.1952, 2734.873
238.6773, 2750.731
239.1594, 2760.935
239.6415, 2773.543
240.1236, 2790.048
240.6057, 2807.957
241.0879, 2824.343
241.5700, 2837.691
242.0521, 2851.879
242.5342, 2867.463
243.0163, 2884.254
243.4984, 2904.036
243.9806, 2928.418
244.4627, 2954.366
244.9448, 2978.215
245.4269, 2999.221
245.9090, 3019.378
246.3911, 3041.146
246.8732, 3066.336
247.3554, 3079.043
247.8375, 3076.228
248.3196, 3063.202
248.8017, 3046.523
249.2838, 3027.147
249.7659, 3002.790
250.2481, 2973.666
250.7302, 2940.556
251.2123, 2896.552
251.6944, 2835.046
252.1765, 2768.689
252.6586, 2712.525
253.1408, 2669.789
253.6229, 2631.143
254.1050, 2593.754
254.5871, 2557.646
255.0692, 2525.700
255.5513, 2497.816
256.0334, 2474.237
256.5156, 2455.122
256.9977, 2441.370
257.4798, 2429.991
257.9619, 2419.847
258.4440, 2410.506
258.9261, 2405.750
259.4083, 2407.095
259.8904, 2411.210
260.3725, 2414.131
260.8546, 2415.927
261.3367, 2415.902
261.8188, 2411.614
262.3010, 2401.951
262.7831, 2404.179
263.2652, 2423.213
263.7473, 2448.151
264.2294, 2464.636
264.7115, 2467.282
265.1937, 2475.862
265.6758, 2497.312
266.1579, 2531.695
266.6400, 2565.365
267.1221, 2601.583
267.6042, 2631.973
268.0864, 2645.140
268.5685, 2638.132
269.0506, 2624.003
269.5327, 2604.962
270.0148, 2581.090
270.4969, 2555.686
270.9791, 2527.358
271.4612, 2500.238
271.9433, 2479.726
272.4254, 2466.843
272.9075, 2456.297
273.3896, 2446.978
273.8718, 2438.993
274.3539, 2432.428
274.8360, 2426.870
275.3181, 2423.499
275.8002, 2424.363
276.2823, 2430.150
276.7645, 2435.469
277.2466, 2439.474
277.7287, 2441.968
278.2108, 2440.242
278.6929, 2432.461
279.1750, 2426.100
279.6572, 2430.498
280.1393, 2446.557
280.6214, 2459.975
281.1035, 2466.596
281.5856, 2467.937
282.0677, 2471.705
282.5499, 2478.588
283.0320, 2484.669
283.5141, 2486.264
283.9962, 2483.396
284.4783, 2477.989
284.9604, 2467.949
285.4425, 2456.708
285.9247, 2458.429
286.4068, 2474.394
286.8889, 2491.646
287.3710, 2498.087
287.8531, 2494.814
288.3352, 2492.836
288.8174, 2494.966
289.2995, 2499.377
289.7816, 2503.382
290.2637, 2507.044
290.7458, 2505.439
291.2279, 2488.840
291.7101, 2461.465
292.1922, 2445.171
292.6743, 2447.618
293.1564, 2458.826
293.6385, 2460.054
294.1206, 2451.722
294.6028, 2442.051
295.0849, 2436.869
295.5670, 2434.963
296.0491, 2432.606
296.5312, 2429.093
297.0133, 2425.305
297.4955, 2423.974
297.9776, 2424.464
298.4597, 2422.082
298.9418, 2408.101
299.4239, 2389.831
299.9060, 2383.669
300.3882, 2395.253
300.8703, 2411.079
301.3524, 2413.475
301.8345, 2405.462
302.3166, 2398.774
302.7987, 2401.642
303.2809, 2409.320
303.7630, 2415.517
304.2451, 2419.450
304.7272, 2421.291
305.2093, 2417.186
305.6914, 2410.431
306.1736, 2409.871
306.6557, 2426.518
307.1378, 2448.375
307.6199, 2462.115
308.1020, 2465.673
308.5841, 2467.774
309.0663, 2474.203
309.5484, 2484.032
310.0305, 2495.258
310.5126, 2511.865
310.9947, 2526.498
311.4768, 2531.035
311.9590, 2524.191
312.4411, 2519.290
312.9232, 2521.067
313.4053, 2530.341
313.8874, 2548.002
314.3695, 2583.399
314.8517, 2620.230
315.3337, 2648.570
315.8159, 2668.063
316.2980, 2688.698
316.7801, 2711.236
317.2622, 2738.712
317.7443, 2774.401
318.2264, 2820.640
318.7086, 2873.564
319.1907, 2933.782
319.6728, 3000.794
320.1549, 3068.677
320.6370, 3125.227
321.1191, 3187.794
321.6013, 3269.404
322.0834, 3389.521
322.5655, 3509.688
323.0476, 3623.944
323.5297, 3732.334
324.0118, 3835.694
324.4940, 3958.220
324.9761, 4059.016
325.4582, 4116.378
325.9403, 4127.416
326.4224, 4095.605
326.9045, 4011.938
327.3867, 3883.850
327.8688, 3736.460
328.3509, 3540.016
328.8330, 3350.100
329.3151, 3186.053
329.7972, 3055.798
330.2794, 2936.844
330.7615, 2826.195
331.2436, 2726.557
331.7257, 2645.565
332.2078, 2589.743
332.6899, 2542.910
333.1721, 2499.724
333.6542, 2459.448
334.1363, 2427.098
334.6184, 2404.610
335.1005, 2388.322
335.5826, 2372.844
336.0648, 2358.072
336.5469, 2344.318
337.0290, 2331.716
337.5111, 2320.240
337.9932, 2308.875
338.4753, 2297.723
338.9575, 2286.401
339.4396, 2272.925
339.9217, 2255.641
340.4038, 2244.722
340.8859, 2244.292
341.3680, 2252.300
341.8502, 2257.390
342.3323, 2259.693
342.8144, 2258.306
343.2965, 2250.766
343.7786, 2237.176
344.2607, 2225.011
344.7429, 2214.181
345.2250, 2206.919
345.7071, 2212.929
346.1892, 2232.882
346.6713, 2248.376
347.1534, 2241.059
347.6355, 2217.029
348.1176, 2203.059
348.5998, 2204.602
349.0819, 2212.935
349.5640, 2215.084
350.0461, 2211.913
350.5282, 2208.933
351.0103, 2209.193
351.4925, 2211.696
351.9746, 2215.961
352.4567, 2222.739
352.9388, 2226.826
353.4209, 2219.433
353.9030, 2205.017
354.3852, 2194.226
354.8673, 2194.516
355.3494, 2199.577
355.8315, 2204.011
356.3136, 2207.661
356.7957, 2209.532
357.2779, 2207.588
357.7600, 2203.797
358.2421, 2200.858
358.7242, 2199.114
359.2063, 2199.036
359.6884, 2203.453
360.1706, 2211.410
360.6527, 2214.430
361.1348, 2200.411
361.6169, 2183.948
362.0990, 2177.525
362.5811, 2193.466
363.0633, 2208.004
363.5454, 2213.902
364.0275, 2212.548
364.5096, 2208.834
364.9917, 2200.095
365.4738, 2192.186
365.9560, 2188.191
366.4381, 2190.390
366.9202, 2193.110
367.4023, 2196.748
367.8844, 2200.485
368.3665, 2202.739
368.8487, 2202.562
369.3308, 2201.749
369.8129, 2199.529
370.2950, 2193.810
370.7771, 2195.581
371.2592, 2210.146
371.7414, 2228.730
372.2235, 2241.547
372.7056, 2246.281
373.1877, 2249.292
373.6698, 2251.517
374.1519, 2252.923
374.6341, 2253.305
375.1162, 2251.143
375.5983, 2250.441
376.0804, 2254.196
376.5625, 2262.313
377.0446, 2275.563
377.5267, 2295.430
378.0089, 2319.748
378.4910, 2340.934
378.9731, 2358.627
379.4552, 2375.266
379.9373, 2391.958
380.4194, 2408.882
380.9016, 2424.306
381.3837, 2436.290
381.8658, 2451.763
382.3479, 2487.298
382.8300, 2540.126
383.3121, 2587.517
383.7943, 2615.688
384.2764, 2630.118
384.7585, 2641.597
385.2406, 2649.677
385.7227, 2661.097
386.2048, 2685.658
386.6870, 2718.287
387.1691, 2747.719
387.6512, 2760.325
388.1333, 2774.244
388.6154, 2810.673
389.0975, 2867.905
389.5797, 2932.215
390.0618, 2992.481
390.5439, 3055.346
391.0260, 3127.005
391.5081, 3210.378
391.9902, 3300.319
392.4724, 3395.958
392.9545, 3496.708
393.4366, 3601.862
393.9187, 3698.601
394.4008, 3808.561
394.8829, 3949.310
395.3651, 4131.230
395.8472, 4315.656
396.3293, 4495.132
396.8114, 4670.914
397.2935, 4844.654
397.7756, 5047.688
398.2578, 5217.723
398.7399, 5342.473
399.2220, 5420.616
399.7041, 5456.170
400.1862, 5452.736
400.6683, 5404.227
401.1505, 5303.625
401.6326, 5125.342
402.1147, 4936.856
402.5968, 4740.282
403.0789, 4537.413
403.5610, 4333.158
404.0432, 4118.659
404.5253, 3919.796
405.0074, 3750.882
405.4895, 3613.973
405.9716, 3494.737
406.4537, 3393.874
406.9359, 3309.286
407.4180, 3239.077
407.9001, 3183.272
408.3822, 3139.949
408.8643, 3115.252
409.3464, 3103.754
409.8285, 3072.587
410.3106, 3019.740
410.7928, 2962.178
411.2749, 2920.378
411.7570, 2889.016
412.2391, 2846.127
412.7212, 2777.392
413.2033, 2702.213
413.6855, 2651.242
414.1676, 2622.364
414.6497, 2601.309
415.1318, 2580.688
415.6139, 2561.636
416.0960, 2546.275
416.5782, 2535.348
417.0603, 2526.343
417.5424, 2521.625
418.0245, 2517.291
418.5066, 2505.857
418.9887, 2473.292
419.4709, 2441.139
419.9530, 2423.952
420.4351, 2424.045
420.9172, 2421.436
421.3993, 2403.100
421.8814, 2381.802
422.3636, 2369.133
422.8457, 2379.332
423.3278, 2385.324
423.8099, 2378.585
424.2920, 2361.558
424.7741, 2351.017
425.2563, 2354.471
425.7384, 2358.670
426.2205, 2357.433
426.7026, 2346.514
427.1847, 2339.130
427.6668, 2335.503
428.1490, 2335.303
428.6311, 2338.775
429.1132, 2348.219
429.5953, 2355.330
430.0774, 2354.623
430.5595, 2346.723
431.0417, 2353.960
431.5238, 2380.567
432.0059, 2409.987
432.4880, 2424.340
432.9701, 2423.970
433.4522, 2426.933
433.9344, 2437.967
434.4165, 2453.087
434.8986, 2464.905
435.3807, 2473.486
435.8628, 2479.441
436.3449, 2480.279
436.8271, 2479.243
437.3092, 2485.589
437.7913, 2502.009
438.2734, 2515.087
438.7555, 2507.313
439.2376, 2486.931
439.7197, 2470.348
440.2018, 2468.363
440.6840, 2470.088
441.1661, 2444.651
441.6482, 2451.134
442.1303, 2445.562
442.6124, 2428.586
443.0945, 2366.042
443.5767, 2362.335
444.0588, 2335.050
444.5409, 2306.800
445.0230, 2311.377
445.5051, 2255.462
445.9872, 2259.519
446.4694, 2239.633
446.9515, 2230.706
447.4336, 2182.146
447.9157, 2178.682
448.3978, 2174.106
448.8799, 2169.044
449.3621, 2162.447
449.8442, 2152.646
450.3263, 2136.841
450.8084, 2124.677
451.2905, 2118.793
451.7726, 2117.711
452.2548, 2113.783
452.7369, 2105.684
453.2190, 2099.073
453.7011, 2100.112
454.1832, 2108.490
454.6653, 2106.534
455.1475, 2090.356
455.6296, 2071.617
456.1117, 2069.331
456.5938, 2080.915
457.0759, 2090.016
457.5580, 2090.114
458.0402, 2083.259
458.5223, 2068.979
459.0044, 2047.901
459.4865, 2032.553
459.9686, 2036.736
460.4507, 2050.785
460.9329, 2062.309
461.4150, 2068.736
461.8971, 2070.852
462.3792, 2067.703
462.8613, 2060.610
463.3434, 2052.435
463.8256, 2042.553
464.3077, 2033.435
464.7898, 2025.786
465.2719, 2019.485
465.7540, 2016.222
466.2361, 2017.761
466.7183, 2021.682
467.2004, 2025.894
467.6825, 2031.739
468.1646, 2036.040
468.6467, 2039.551
469.1288, 2041.456
469.6110, 2037.448
470.0930, 2022.513
470.5752, 2010.106
471.0573, 2007.064
471.5394, 2015.356
472.0215, 2022.171
472.5036, 2027.237
472.9857, 2031.262
473.4679, 2035.515
473.9500, 2039.989
474.4321, 2042.575
474.9142, 2041.296
475.3963, 2038.647
475.8784, 2043.663
476.3606, 2055.828
476.8427, 2063.732
477.3248, 2053.418
477.8069, 2034.388
478.2890, 2024.928
478.7711, 2029.510
479.2533, 2036.348
479.7354, 2031.589
480.2175, 2021.998
480.6996, 2020.045
481.1817, 2040.130
481.6638, 2061.844
482.1460, 2074.896
482.6281, 2078.890
483.1102, 2076.053
483.5923, 2056.910
484.0744, 2037.543
484.5565, 2028.973
485.0387, 2042.051
485.5208, 2052.292
486.0029, 2056.647
486.4850, 2057.052
486.9671, 2056.841
487.4492, 2056.185
487.9314, 2054.717
488.4135, 2052.317
488.8956, 2049.036
489.3777, 2044.898
489.8598, 2038.946
490.3419, 2034.349
490.8241, 2033.978
491.3062, 2038.061
491.7883, 2043.557
492.2704, 2050.393
492.7525, 2058.082
493.2346, 2067.507
493.7168, 2077.962
494.1989, 2084.561
494.6810, 2082.652
495.1631, 2075.776
495.6452, 2069.410
496.1273, 2063.682
496.6095, 2060.154
497.0916, 2061.213
497.5737, 2064.900
498.0558, 2068.661
498.5379, 2070.898
499.0201, 2074.512
499.5022, 2081.733
499.9843, 2091.601
500.4664, 2101.716
500.9485, 2110.179
501.4306, 2119.637
501.9127, 2132.187
502.3948, 2149.011
502.8770, 2162.145
503.3591, 2168.961
503.8412, 2173.050
504.3233, 2177.146
504.8054, 2182.632
505.2875, 2184.566
505.7697, 2178.663
506.2518, 2170.482
506.7339, 2176.781
507.2160, 2200.537
507.6981, 2227.501
508.1802, 2253.757
508.6624, 2278.732
509.1445, 2294.051
509.6266, 2298.475
510.1087, 2301.688
510.5908, 2312.227
511.0729, 2329.407
511.5551, 2351.539
512.0372, 2379.885
512.5193, 2410.246
513.0014, 2435.879
513.4835, 2458.971
513.9656, 2485.538
514.4478, 2521.028
514.9299, 2559.578
515.4120, 2596.934
515.8941, 2632.691
516.3762, 2668.812
516.8583, 2707.483
517.3405, 2745.659
517.8226, 2780.713
518.3047, 2814.269
518.7868, 2842.093
519.2689, 2864.691
519.7510, 2881.167
520.2332, 2888.745
520.7153, 2884.467
521.1974, 2875.654
521.6795, 2864.144
522.1616, 2849.931
522.6437, 2834.738
523.1259, 2820.524
523.6080, 2800.902
524.0901, 2767.698
524.5722, 2720.811
525.0543, 2678.076
525.5364, 2644.197
526.0186, 2609.302
526.5007, 2552.616
526.9828, 2478.990
527.4649, 2408.949
527.9470, 2352.924
528.4291, 2306.292
528.9113, 2260.501
529.3934, 2216.199
529.8755, 2179.277
530.3576, 2159.001
530.8397, 2145.118
531.3218, 2128.076
531.8040, 2105.623
532.2861, 2080.559
532.7682, 2049.173
533.2503, 2016.902
533.7324, 1993.508
534.2145, 1989.635
534.6967, 1984.596
535.1788, 1974.562
535.6609, 1959.714
536.1430, 1940.010
536.6251, 1910.678
537.1072, 1884.821
537.5894, 1872.641
538.0715, 1876.715
538.5536, 1875.921
539.0357, 1868.108
539.5178, 1858.096
539.9999, 1852.398
540.4821, 1850.816
540.9642, 1851.029
541.4463, 1854.226
541.9284, 1856.998
542.4105, 1851.252
542.8926, 1838.604
543.3748, 1828.142
543.8569, 1827.417
544.3390, 1831.014
544.8211, 1834.416
545.3032, 1837.526
545.7853, 1837.557
546.2675, 1830.759
546.7495, 1821.168
547.2316, 1813.068
547.7137, 1812.928
548.1959, 1808.170
548.6780, 1788.476
549.1601, 1761.282
549.6422, 1753.116
550.1243, 1779.470
550.6064, 1802.891
551.0886, 1808.649
551.5707, 1795.091
552.0528, 1786.960
552.5349, 1784.627
553.0170, 1786.916
553.4991, 1794.652
553.9813, 1807.399
554.4634, 1816.856
554.9455, 1820.417
555.4276, 1823.353
555.9097, 1835.835
556.3918, 1855.053
556.8740, 1871.313
557.3561, 1878.094
557.8382, 1880.903
558.3203, 1883.704
558.8024, 1886.890
559.2845, 1893.011
559.7667, 1906.552
560.2488, 1921.538
560.7309, 1934.461
561.2130, 1946.522
561.6951, 1952.203
562.1772, 1945.391
562.6594, 1933.534
563.1415, 1926.300
563.6236, 1927.805
564.1057, 1927.421
564.5878, 1921.888
565.0699, 1913.267
565.5521, 1910.331
566.0342, 1913.841
566.5163, 1920.389
566.9984, 1932.033
567.4805, 1947.297
567.9626, 1946.797
568.4448, 1928.395
568.9269, 1911.053
569.4090, 1918.262
569.8911, 1940.476
570.3732, 1955.656
570.8553, 1957.753
571.3375, 1952.781
571.8196, 1940.655
572.3017, 1925.648
572.7838, 1916.943
573.2659, 1927.114
573.7480, 1936.303
574.2302, 1931.849
574.7123, 1914.131
575.1944, 1904.394
575.6765, 1914.899
576.1586, 1927.313
576.6407, 1932.701
577.1229, 1929.205
577.6050, 1923.315
