##NAMES=Beryllonite
##RRUFFID=R070249
##IDEAL CHEMISTRY=NaBePO_4_
##LOCALITY=Melrose Farm Beryllonite prospects (McAllister prospects),  Stoneham, Oxford County, Maine, USA
##OWNER=RRUFF
##SOURCE=Michael Scott
##DESCRIPTION=Two colorless single crystal fragments
##STATUS=The identification of this mineral has been confirmed by X-ray diffraction and chemical analysis
##URL=rruff.info/R070249
##MEASURED CHEMISTRY=Na_1.00_Be_1.00_P_1.00_O_4_; Be estimated by difference
139.0553, 1622.316
139.5374, 1651.258
140.0195, 1683.218
140.5016, 1716.319
140.9837, 1741.524
141.4658, 1756.455
141.9480, 1767.622
142.4301, 1778.958
142.9122, 1790.107
143.3943, 1802.001
143.8764, 1813.900
144.3585, 1825.793
144.8407, 1843.544
145.3228, 1873.891
145.8049, 1904.849
146.2870, 1924.857
146.7691, 1927.873
147.2512, 1927.513
147.7334, 1924.340
148.2155, 1916.281
148.6976, 1914.666
149.1797, 1920.954
149.6618, 1933.319
150.1439, 1949.210
150.6261, 1973.064
151.1082, 1996.280
151.5903, 2015.363
152.0724, 2025.116
152.5545, 2042.193
153.0366, 2074.590
153.5188, 2114.800
154.0009, 2147.923
154.4830, 2166.180
154.9651, 2181.470
155.4472, 2199.187
155.9293, 2221.122
156.4115, 2243.802
156.8936, 2267.183
157.3757, 2290.997
157.8578, 2314.665
158.3399, 2334.613
158.8221, 2356.282
159.3042, 2383.506
159.7863, 2433.926
160.2684, 2473.639
160.7505, 2487.954
161.2326, 2479.411
161.7148, 2466.403
162.1969, 2452.147
162.6790, 2438.852
163.1611, 2428.808
163.6432, 2417.310
164.1253, 2413.413
164.6075, 2424.816
165.0896, 2451.898
165.5717, 2480.784
166.0538, 2503.959
166.5359, 2524.048
167.0180, 2544.863
167.5002, 2570.078
167.9823, 2595.494
168.4644, 2621.748
168.9465, 2650.842
169.4286, 2667.146
169.9107, 2651.271
170.3929, 2613.830
170.8750, 2576.730
171.3571, 2550.614
171.8392, 2531.136
172.3213, 2513.630
172.8034, 2497.290
173.2856, 2484.258
173.7677, 2477.652
174.2498, 2476.408
174.7319, 2476.952
175.2140, 2477.122
175.6961, 2477.688
176.1783, 2479.961
176.6604, 2484.474
177.1425, 2490.176
177.6246, 2497.997
178.1067, 2507.054
178.5888, 2512.091
179.0710, 2502.126
179.5531, 2485.261
180.0352, 2481.036
180.5173, 2499.920
180.9994, 2527.684
181.4815, 2540.031
181.9637, 2537.441
182.4458, 2531.571
182.9279, 2529.744
183.4100, 2532.254
183.8921, 2540.474
184.3742, 2557.479
184.8564, 2579.287
185.3385, 2596.042
185.8206, 2607.638
186.3027, 2617.192
186.7848, 2626.521
187.2669, 2635.980
187.7491, 2648.720
188.2312, 2669.283
188.7133, 2694.059
189.1954, 2708.751
189.6775, 2711.906
190.1596, 2711.005
190.6418, 2714.317
191.1239, 2721.793
191.6060, 2731.392
192.0881, 2745.435
192.5702, 2762.576
193.0524, 2769.393
193.5345, 2763.704
194.0166, 2753.356
194.4987, 2751.817
194.9808, 2759.840
195.4629, 2765.292
195.9451, 2758.628
196.4272, 2740.182
196.9093, 2735.300
197.3914, 2749.462
197.8735, 2769.818
198.3556, 2768.115
198.8378, 2740.348
199.3199, 2716.049
199.8020, 2715.305
200.2841, 2740.323
200.7662, 2754.542
201.2483, 2751.938
201.7305, 2741.001
202.2126, 2744.981
202.6947, 2768.131
203.1768, 2790.318
203.6589, 2796.239
204.1410, 2782.225
204.6232, 2778.790
205.1053, 2792.624
205.5874, 2817.008
206.0695, 2827.166
206.5516, 2817.323
207.0337, 2808.418
207.5159, 2818.907
207.9980, 2855.469
208.4801, 2877.715
208.9622, 2876.169
209.4443, 2856.618
209.9264, 2847.885
210.4086, 2853.015
210.8907, 2862.887
211.3728, 2870.644
211.8549, 2875.676
212.3370, 2880.879
212.8191, 2886.640
213.3013, 2892.907
213.7834, 2900.217
214.2655, 2910.030
214.7476, 2918.559
215.2297, 2920.965
215.7118, 2912.943
216.1940, 2911.141
216.6761, 2920.291
217.1582, 2939.797
217.6403, 2955.588
218.1224, 2966.359
218.6045, 2974.927
219.0867, 2983.470
219.5688, 2990.892
220.0509, 3000.925
220.5330, 3015.206
221.0151, 3034.079
221.4972, 3049.495
221.9794, 3060.696
222.4615, 3069.445
222.9436, 3076.442
223.4257, 3077.081
223.9078, 3086.143
224.3899, 3110.360
224.8721, 3152.125
225.3542, 3181.304
225.8363, 3193.677
226.3184, 3197.734
226.8005, 3202.458
227.2827, 3204.411
227.7648, 3213.745
228.2469, 3234.381
228.7290, 3267.740
229.2111, 3301.552
229.6932, 3340.019
230.1754, 3375.147
230.6575, 3395.687
231.1396, 3393.981
231.6217, 3390.888
232.1038, 3392.091
232.5859, 3398.601
233.0681, 3405.126
233.5502, 3417.584
234.0323, 3425.860
234.5144, 3413.368
234.9965, 3367.986
235.4786, 3322.191
235.9608, 3283.848
236.4429, 3252.532
236.9250, 3233.501
237.4071, 3233.413
237.8892, 3241.637
238.3713, 3240.806
238.8535, 3224.955
239.3356, 3210.073
239.8177, 3202.110
240.2998, 3204.027
240.7819, 3201.535
241.2640, 3194.471
241.7462, 3183.062
242.2283, 3166.190
242.7104, 3136.471
243.1925, 3113.466
243.6746, 3104.288
244.1567, 3112.203
244.6389, 3123.818
245.1210, 3143.104
245.6031, 3163.714
246.0852, 3173.898
246.5673, 3169.875
247.0494, 3161.719
247.5316, 3150.655
248.0137, 3131.867
248.4958, 3127.664
248.9779, 3145.161
249.4600, 3173.294
249.9421, 3191.352
250.4243, 3196.887
250.9064, 3196.937
251.3885, 3192.417
251.8706, 3179.816
252.3527, 3174.672
252.8348, 3179.044
253.3170, 3189.550
253.7991, 3200.290
254.2812, 3211.844
254.7633, 3222.289
255.2454, 3230.477
255.7275, 3235.239
256.2097, 3242.115
256.6918, 3252.529
257.1739, 3264.006
257.6560, 3271.979
258.1381, 3275.541
258.6202, 3277.419
259.1024, 3277.309
259.5845, 3272.946
260.0666, 3277.092
260.5487, 3294.784
261.0308, 3317.147
261.5129, 3327.020
261.9951, 3318.602
262.4772, 3311.357
262.9593, 3313.655
263.4414, 3327.989
263.9235, 3340.166
264.4056, 3350.072
264.8878, 3358.058
265.3699, 3364.784
265.8520, 3370.008
266.3341, 3374.831
266.8162, 3379.860
267.2983, 3385.229
267.7805, 3389.469
268.2626, 3392.003
268.7447, 3394.007
269.2268, 3397.056
269.7089, 3400.714
270.1910, 3406.919
270.6732, 3416.145
271.1553, 3428.223
271.6374, 3446.555
272.1195, 3474.760
272.6016, 3503.953
273.0837, 3515.843
273.5659, 3506.358
274.0480, 3500.746
274.5301, 3510.916
275.0122, 3537.554
275.4943, 3559.274
275.9764, 3575.523
276.4586, 3587.890
276.9407, 3597.980
277.4228, 3605.390
277.9049, 3612.961
278.3870, 3622.086
278.8691, 3632.644
279.3513, 3642.369
279.8334, 3651.919
280.3155, 3658.947
280.7976, 3658.545
281.2798, 3650.340
281.7619, 3643.506
282.2440, 3641.331
282.7261, 3643.501
283.2082, 3649.040
283.6903, 3659.132
284.1725, 3668.239
284.6546, 3668.145
285.1367, 3659.198
285.6188, 3650.491
286.1009, 3646.546
286.5830, 3645.572
287.0652, 3638.204
287.5473, 3623.393
288.0294, 3608.864
288.5115, 3602.438
288.9936, 3603.819
289.4757, 3610.748
289.9579, 3625.537
290.4400, 3644.580
290.9221, 3657.977
291.4042, 3665.453
291.8863, 3670.692
292.3684, 3678.644
292.8506, 3687.939
293.3327, 3692.198
293.8148, 3684.146
294.2969, 3672.872
294.7790, 3680.872
295.2611, 3708.228
295.7433, 3732.762
296.2254, 3728.058
296.7075, 3704.525
297.1896, 3691.703
297.6717, 3700.609
298.1538, 3722.074
298.6360, 3746.301
299.1181, 3772.897
299.6002, 3794.626
300.0823, 3800.027
300.5644, 3797.497
301.0465, 3804.225
301.5287, 3831.364
302.0108, 3861.190
302.4929, 3869.770
302.9750, 3860.671
303.4571, 3853.855
303.9392, 3873.599
304.4214, 3900.526
304.9035, 3907.684
305.3856, 3882.561
305.8677, 3845.575
306.3498, 3809.822
306.8319, 3776.109
307.3141, 3746.549
307.7962, 3722.553
308.2783, 3703.702
308.7604, 3690.151
309.2425, 3684.419
309.7246, 3679.197
310.2068, 3666.637
310.6889, 3650.522
311.1710, 3640.482
311.6531, 3648.686
312.1352, 3660.145
312.6173, 3661.785
313.0995, 3646.468
313.5816, 3636.095
314.0637, 3646.760
314.5458, 3669.147
315.0279, 3685.777
315.5100, 3681.623
315.9922, 3676.224
316.4743, 3681.745
316.9564, 3703.068
317.4385, 3720.833
317.9206, 3725.727
318.4027, 3723.904
318.8849, 3723.965
319.3670, 3733.735
319.8491, 3740.923
320.3312, 3736.453
320.8133, 3715.416
321.2954, 3709.162
321.7776, 3740.802
322.2597, 3783.586
322.7418, 3808.999
323.2239, 3794.292
323.7060, 3780.467
324.1881, 3777.926
324.6703, 3787.994
325.1524, 3796.584
325.6345, 3798.578
326.1166, 3800.859
326.5987, 3809.098
327.0808, 3834.730
327.5630, 3852.837
328.0451, 3857.889
328.5272, 3850.573
329.0093, 3845.687
329.4914, 3842.885
329.9735, 3842.909
330.4557, 3846.458
330.9378, 3855.301
331.4199, 3864.700
331.9020, 3874.773
332.3841, 3885.233
332.8662, 3893.683
333.3484, 3895.211
333.8305, 3902.052
334.3126, 3922.920
334.7947, 3963.887
335.2768, 3999.534
335.7589, 4028.143
336.2411, 4050.933
336.7232, 4071.656
337.2053, 4090.349
337.6874, 4106.422
338.1695, 4115.608
338.6516, 4115.038
339.1338, 4134.340
339.6159, 4179.110
340.0980, 4235.532
340.5801, 4276.961
341.0622, 4301.677
341.5443, 4332.195
342.0265, 4381.916
342.5086, 4447.951
342.9907, 4505.979
343.4728, 4553.572
343.9549, 4600.754
344.4370, 4656.559
344.9192, 4720.902
345.4013, 4797.200
345.8834, 4889.413
346.3655, 4992.755
346.8476, 5089.997
347.3297, 5180.430
347.8119, 5273.520
348.2940, 5381.665
348.7761, 5499.681
349.2582, 5608.182
349.7403, 5696.134
350.2225, 5780.637
350.7046, 5895.132
351.1867, 6035.766
351.6688, 6164.813
352.1509, 6258.075
352.6331, 6322.016
353.1152, 6367.717
353.5973, 6402.271
354.0794, 6410.403
354.5615, 6370.207
355.0436, 6290.588
355.5258, 6198.657
356.0079, 6117.154
356.4900, 6025.500
356.9721, 5899.748
357.4542, 5725.451
357.9363, 5553.591
358.4185, 5413.542
358.9006, 5295.188
359.3827, 5181.026
359.8648, 5055.292
360.3469, 4939.085
360.8290, 4845.276
361.3112, 4776.685
361.7933, 4715.647
362.2754, 4661.154
362.7575, 4608.989
363.2396, 4554.337
363.7217, 4488.225
364.2039, 4428.157
364.6860, 4378.531
365.1681, 4339.341
365.6502, 4307.697
366.1323, 4286.788
366.6144, 4270.866
367.0966, 4256.022
367.5787, 4250.137
368.0608, 4235.415
368.5429, 4202.632
369.0250, 4157.447
369.5071, 4129.870
369.9893, 4128.663
370.4714, 4134.846
370.9535, 4140.815
371.4356, 4150.888
371.9177, 4149.763
372.3998, 4131.288
372.8820, 4104.487
373.3641, 4089.347
373.8462, 4087.588
374.3283, 4093.174
374.8104, 4106.656
375.2925, 4129.574
375.7747, 4142.714
376.2568, 4144.227
376.7389, 4139.862
377.2210, 4138.287
377.7031, 4140.067
378.1852, 4135.894
378.6674, 4118.403
379.1495, 4092.903
379.6316, 4082.068
380.1137, 4086.699
380.5958, 4099.572
381.0779, 4119.059
381.5601, 4142.913
382.0422, 4158.025
382.5243, 4159.307
383.0064, 4153.743
383.4885, 4151.980
383.9706, 4153.736
384.4528, 4157.019
384.9349, 4160.247
385.4170, 4164.192
385.8991, 4170.263
386.3812, 4178.909
386.8633, 4189.113
387.3455, 4198.722
387.8276, 4209.056
388.3097, 4223.381
388.7918, 4244.759
389.2739, 4269.764
389.7560, 4296.374
390.2382, 4324.588
390.7203, 4352.482
391.2024, 4381.320
391.6845, 4408.387
392.1666, 4430.896
392.6487, 4435.261
393.1309, 4446.580
393.6130, 4477.879
394.0951, 4527.708
394.5772, 4576.802
395.0593, 4611.379
395.5414, 4649.355
396.0236, 4701.692
396.5057, 4796.051
396.9878, 4874.055
397.4699, 4935.250
397.9520, 4976.466
398.4341, 4987.411
398.9163, 4947.582
399.3984, 4898.709
399.8805, 4856.944
400.3626, 4830.249
400.8447, 4785.293
401.3268, 4708.945
401.8090, 4624.094
402.2911, 4563.476
402.7732, 4536.848
403.2553, 4510.138
403.7374, 4471.810
404.2195, 4423.203
404.7017, 4389.646
405.1838, 4373.347
405.6659, 4366.008
406.1480, 4363.780
406.6301, 4366.866
407.1122, 4360.658
407.5944, 4339.002
408.0765, 4310.133
408.5586, 4294.253
409.0407, 4291.097
409.5228, 4292.024
410.0049, 4289.697
410.4871, 4287.001
410.9692, 4294.091
411.4513, 4314.091
411.9334, 4335.519
412.4155, 4348.825
412.8976, 4353.612
413.3798, 4348.665
413.8619, 4319.359
414.3440, 4288.241
414.8261, 4282.591
415.3082, 4302.849
415.7903, 4323.600
416.2725, 4324.749
416.7546, 4318.572
417.2367, 4319.146
417.7188, 4337.534
418.2009, 4356.194
418.6830, 4367.313
419.1652, 4372.146
419.6473, 4374.847
420.1294, 4371.419
420.6115, 4370.247
421.0937, 4377.491
421.5758, 4401.763
422.0579, 4417.235
422.5400, 4413.056
423.0221, 4399.687
423.5042, 4394.079
423.9864, 4394.247
424.4685, 4405.373
424.9506, 4436.645
425.4327, 4491.281
425.9148, 4516.711
426.3969, 4495.422
426.8791, 4464.907
427.3612, 4458.266
427.8433, 4482.307
428.3254, 4508.443
428.8075, 4531.219
429.2896, 4554.070
429.7718, 4592.911
430.2539, 4652.486
430.7360, 4703.552
431.2181, 4726.891
431.7002, 4723.865
432.1823, 4713.271
432.6645, 4695.194
433.1466, 4672.242
433.6287, 4646.636
434.1108, 4618.975
434.5929, 4591.791
435.0750, 4559.717
435.5572, 4531.841
436.0393, 4530.367
436.5214, 4554.042
437.0035, 4576.350
437.4856, 4573.513
437.9677, 4557.178
438.4499, 4542.190
438.9320, 4527.983
439.4141, 4523.397
439.8962, 4539.850
440.3783, 4571.295
440.8604, 4602.646
441.3426, 4630.071
441.8247, 4652.976
442.3068, 4669.652
442.7889, 4678.417
443.2710, 4688.262
443.7531, 4701.153
444.2353, 4716.483
444.7174, 4733.805
445.1995, 4743.660
445.6816, 4765.636
446.1637, 4811.952
446.6458, 4878.667
447.1280, 4927.105
447.6101, 4944.026
448.0922, 4957.367
448.5743, 4981.167
449.0564, 5015.736
449.5385, 5061.773
450.0207, 5122.805
450.5028, 5191.839
450.9849, 5253.648
451.4670, 5304.845
451.9491, 5363.067
452.4312, 5435.511
452.9134, 5521.005
453.3955, 5616.641
453.8776, 5724.050
454.3597, 5827.616
454.8418, 5903.746
455.3239, 5960.333
455.8061, 6026.686
456.2882, 6110.608
456.7703, 6206.833
457.2524, 6305.358
457.7345, 6408.421
458.2166, 6528.074
458.6988, 6677.766
459.1809, 6843.714
459.6630, 7001.136
460.1451, 7144.003
460.6272, 7317.002
461.1093, 7565.241
461.5915, 7854.074
462.0736, 8135.758
462.5557, 8411.968
463.0378, 8661.683
463.5199, 8889.046
464.0020, 9087.598
464.4842, 9218.553
464.9663, 9260.651
465.4484, 9240.538
465.9305, 9169.990
466.4126, 9026.325
466.8947, 8872.827
467.3769, 8720.047
467.8590, 8553.672
468.3411, 8345.413
468.8232, 8082.008
469.3053, 7802.077
469.7874, 7500.354
470.2696, 7180.784
470.7517, 6923.626
471.2338, 6742.665
471.7159, 6583.466
472.1980, 6394.627
472.6801, 6176.873
473.1623, 5995.674
473.6444, 5863.375
474.1265, 5762.361
474.6086, 5664.888
475.0907, 5572.039
475.5728, 5490.825
476.0550, 5432.140
476.5371, 5384.724
477.0192, 5329.023
477.5013, 5263.947
477.9834, 5204.067
478.4655, 5162.813
478.9477, 5132.677
479.4298, 5104.230
479.9119, 5072.035
480.3940, 5043.667
480.8761, 5028.236
481.3582, 5020.598
481.8404, 5006.117
482.3225, 4962.281
482.8046, 4925.181
483.2867, 4914.854
483.7688, 4943.613
484.2509, 4962.217
484.7331, 4958.327
485.2152, 4946.634
485.6973, 4940.905
486.1794, 4946.737
486.6615, 4948.889
487.1436, 4944.483
487.6258, 4934.749
488.1079, 4924.373
488.5900, 4911.675
489.0721, 4903.213
489.5542, 4903.714
490.0363, 4913.232
490.5185, 4924.478
491.0006, 4938.673
491.4827, 4949.573
491.9648, 4946.660
492.4470, 4932.089
492.9291, 4917.568
493.4112, 4908.364
493.8933, 4900.543
494.3754, 4884.995
494.8575, 4863.572
495.3397, 4848.859
495.8218, 4853.918
496.3039, 4867.546
496.7860, 4877.194
497.2681, 4879.980
497.7502, 4883.295
498.2324, 4899.799
498.7145, 4916.812
499.1966, 4917.380
499.6787, 4869.225
500.1608, 4831.289
500.6429, 4829.582
501.1251, 4861.425
501.6072, 4878.619
502.0893, 4862.774
502.5714, 4845.103
503.0535, 4839.831
503.5356, 4849.875
504.0178, 4866.631
504.4999, 4895.995
504.9820, 4926.515
505.4641, 4938.486
505.9462, 4927.603
506.4283, 4920.235
506.9105, 4923.285
507.3926, 4935.783
507.8747, 4957.253
508.3568, 4988.417
508.8389, 5016.502
509.3210, 5034.680
509.8032, 5042.816
510.2853, 5035.689
510.7674, 5007.686
511.2495, 4985.771
511.7316, 5005.201
512.2137, 5050.884
512.6959, 5091.714
513.1780, 5103.966
513.6601, 5116.317
514.1422, 5150.288
514.6243, 5203.048
515.1064, 5253.978
515.5886, 5292.228
516.0707, 5328.281
516.5528, 5368.134
517.0349, 5414.449
517.5170, 5461.292
517.9991, 5502.509
518.4813, 5545.834
518.9634, 5600.538
519.4455, 5665.183
519.9276, 5745.517
520.4097, 5855.776
520.8918, 5984.814
521.3740, 6070.813
521.8561, 6109.920
522.3382, 6118.717
522.8203, 6101.782
523.3024, 6060.394
523.7845, 6010.298
524.2667, 5948.778
524.7488, 5891.151
525.2309, 5848.212
525.7130, 5822.203
526.1951, 5822.764
526.6772, 5868.688
527.1594, 5927.900
527.6415, 5968.269
528.1236, 5990.328
528.6057, 5996.991
529.0878, 5994.123
529.5699, 5973.406
530.0521, 5924.881
530.5342, 5841.507
531.0163, 5755.165
531.4984, 5665.703
531.9805, 5582.027
532.4626, 5513.146
532.9448, 5456.709
533.4269, 5420.409
533.9090, 5415.575
534.3911, 5432.650
534.8732, 5431.491
535.3553, 5394.631
535.8375, 5372.648
536.3196, 5394.942
536.8017, 5464.974
537.2838, 5508.989
537.7659, 5522.700
538.2480, 5525.843
538.7302, 5533.806
539.2123, 5547.925
539.6944, 5577.976
540.1765, 5629.059
540.6586, 5691.479
541.1407, 5750.335
541.6229, 5809.267
542.1050, 5882.013
542.5871, 5979.933
543.0692, 6092.450
543.5513, 6215.306
544.0334, 6346.973
544.5156, 6469.833
544.9977, 6606.613
545.4798, 6713.321
545.9619, 6753.102
546.4440, 6701.499
546.9261, 6609.040
547.4083, 6460.381
547.8904, 6278.235
548.3725, 6104.072
548.8546, 5925.278
549.3367, 5773.157
549.8188, 5656.494
550.3010, 5574.050
550.7831, 5513.643
551.2652, 5477.998
551.7473, 5455.220
552.2294, 5439.424
552.7115, 5430.125
553.1937, 5424.240
553.6758, 5422.234
554.1579, 5420.681
554.6400, 5409.325
555.1221, 5394.339
555.6042, 5394.023
556.0864, 5423.999
556.5685, 5462.207
557.0506, 5483.384
557.5327, 5493.445
558.0148, 5514.164
558.4969, 5570.104
558.9791, 5629.628
559.4612, 5668.321
559.9433, 5676.220
560.4254, 5701.633
560.9075, 5756.937
561.3896, 5831.812
561.8718, 5916.996
562.3539, 6011.670
562.8360, 6118.708
563.3181, 6239.589
563.8002, 6371.191
564.2823, 6513.519
564.7645, 6671.171
565.2466, 6814.240
565.7287, 6934.392
566.2108, 7029.830
566.6929, 7090.844
567.1750, 7117.195
567.6572, 7103.200
568.1393, 7035.023
568.6214, 6924.413
569.1035, 6794.148
569.5856, 6644.353
570.0677, 6484.696
570.5499, 6304.941
571.0320, 6122.620
571.5141, 5964.193
571.9962, 5840.886
572.4783, 5741.692
572.9604, 5669.403
573.4426, 5620.934
573.9247, 5579.262
574.4068, 5549.282
574.8889, 5519.143
575.3710, 5481.782
575.8531, 5432.994
576.3353, 5401.714
576.8174, 5391.965
577.2995, 5394.211
577.7816, 5403.371
578.2637, 5420.952
578.7458, 5427.029
579.2280, 5415.495
579.7101, 5397.154
580.1922, 5390.788
580.6743, 5395.010
581.1564, 5401.988
581.6385, 5404.211
582.1207, 5409.222
582.6028, 5429.448
583.0849, 5463.158
583.5670, 5498.085
584.0491, 5533.965
584.5313, 5563.661
585.0134, 5577.744
585.4955, 5566.086
585.9776, 5567.473
586.4597, 5601.928
586.9418, 5650.306
587.4240, 5690.603
587.9061, 5717.700
588.3882, 5743.196
588.8703, 5763.325
589.3524, 5783.994
589.8345, 5831.128
590.3167, 5918.377
590.7988, 5979.236
591.2809, 5975.792
591.7630, 5920.517
592.2451, 5870.541
592.7272, 5825.498
593.2094, 5794.830
593.6915, 5796.626
594.1736, 5816.322
594.6557, 5825.025
595.1378, 5815.705
595.6199, 5804.808
596.1021, 5800.718
596.5842, 5803.850
597.0663, 5814.843
597.5485, 5843.966
598.0306, 5870.205
598.5127, 5890.733
598.9948, 5903.824
599.4769, 5902.697
599.9590, 5883.511
600.4412, 5854.867
600.9233, 5818.858
601.4054, 5775.117
601.8875, 5726.228
602.3696, 5670.208
602.8517, 5614.694
603.3339, 5566.643
603.8160, 5525.540
604.2981, 5489.504
604.7802, 5457.476
605.2623, 5434.654
605.7444, 5432.069
606.2266, 5444.716
606.7087, 5459.888
607.1908, 5484.874
607.6729, 5498.374
608.1550, 5470.190
608.6371, 5414.250
609.1193, 5374.853
609.6014, 5387.217
610.0835, 5405.619
610.5656, 5403.938
611.0477, 5375.421
611.5298, 5369.320
612.0120, 5410.305
612.4941, 5450.979
612.9762, 5456.268
613.4583, 5412.107
613.9404, 5383.454
614.4225, 5374.370
614.9047, 5379.017
615.3868, 5394.952
615.8689, 5420.781
616.3510, 5434.932
616.8331, 5425.107
617.3152, 5408.284
617.7974, 5414.587
618.2795, 5437.932
618.7616, 5454.968
619.2437, 5450.083
619.7258, 5436.039
620.2079, 5417.252
620.6901, 5394.444
621.1722, 5383.188
621.6543, 5401.082
622.1364, 5423.776
622.6185, 5434.464
623.1006, 5423.329
623.5828, 5420.170
624.0649, 5426.894
624.5470, 5439.851
625.0291, 5458.561
625.5112, 5487.169
625.9933, 5497.300
626.4755, 5478.582
626.9576, 5445.713
627.4397, 5426.214
627.9218, 5419.615
628.4039, 5422.326
628.8860, 5438.166
629.3682, 5459.436
629.8503, 5478.627
630.3324, 5495.023
630.8145, 5503.050
631.2966, 5487.310
631.7787, 5470.407
632.2609, 5472.130
632.7430, 5503.045
633.2251, 5520.561
633.7072, 5499.636
