##NAMES=Beryl
##RRUFFID=R060944
##IDEAL CHEMISTRY=Be_3_Al_2_Si_6_O_18_
##LOCALITY=Habachtal, Salzburg, Austria
##OWNER=RRUFF
##SOURCE=Lawrence W. Snee
##DESCRIPTION=Green hexagonal prisms in a muscovite schist, variety emerald. Note that there are micro inclusions of actinolite. The Raman signal is a mixture of the two phases.
##STATUS=The identification of this mineral has been confirmed by X-ray diffraction and chemical analysis
##URL=rruff.info/R060944
##MEASURED CHEMISTRY=Be_3.00_(Al_1.59_Mg_0.33_Fe^3+^_0.04_Cr^3+^_0.04_)_Σ=2_Si_6.00_O_18_·Na_0.33_ ; bright inclusions are actinolite
187.0959, 6356.432
187.5780, 6349.221
188.0601, 6356.118
188.5422, 6375.329
189.0243, 6389.302
189.5065, 6385.136
189.9886, 6370.405
190.4707, 6365.244
190.9528, 6373.045
191.4349, 6386.946
191.9170, 6408.038
192.3992, 6434.668
192.8813, 6449.147
193.3634, 6435.943
193.8455, 6407.920
194.3276, 6394.217
194.8097, 6402.061
195.2919, 6414.744
195.7740, 6419.558
196.2561, 6417.630
196.7382, 6419.204
197.2203, 6430.530
197.7024, 6447.227
198.1846, 6461.204
198.6667, 6474.193
199.1488, 6480.967
199.6309, 6469.832
200.1130, 6444.461
200.5951, 6435.454
201.0773, 6464.867
201.5594, 6509.758
202.0415, 6531.240
202.5236, 6523.886
203.0057, 6506.825
203.4878, 6488.894
203.9700, 6470.577
204.4521, 6454.212
204.9342, 6438.783
205.4163, 6427.982
205.8984, 6426.709
206.3805, 6436.752
206.8626, 6449.103
207.3448, 6464.591
207.8269, 6479.874
208.3090, 6476.660
208.7911, 6436.960
209.2732, 6391.228
209.7553, 6383.178
210.2375, 6418.119
210.7196, 6450.769
211.2017, 6451.722
211.6838, 6429.595
212.1659, 6414.187
212.6480, 6415.246
213.1302, 6421.979
213.6123, 6419.232
214.0944, 6406.417
214.5765, 6399.021
215.0586, 6408.125
215.5407, 6428.249
216.0229, 6445.838
216.5050, 6459.241
216.9871, 6467.342
217.4692, 6466.043
217.9513, 6456.218
218.4334, 6449.940
218.9156, 6452.869
219.3977, 6462.587
219.8798, 6476.126
220.3619, 6495.541
220.8440, 6511.936
221.3261, 6509.836
221.8083, 6493.294
222.2904, 6487.188
222.7725, 6514.564
223.2546, 6552.481
223.7367, 6560.618
224.2188, 6529.867
224.7010, 6491.161
225.1831, 6472.261
225.6652, 6468.726
226.1473, 6465.480
226.6294, 6456.942
227.1115, 6447.833
227.5937, 6444.481
228.0758, 6447.581
228.5579, 6452.986
229.0400, 6461.774
229.5221, 6470.785
230.0042, 6467.831
230.4863, 6435.365
230.9685, 6400.512
231.4506, 6389.955
231.9327, 6403.949
232.4148, 6425.374
232.8969, 6445.553
233.3790, 6464.578
233.8612, 6483.206
234.3433, 6510.889
234.8254, 6530.277
235.3075, 6520.869
235.7896, 6487.155
236.2717, 6462.078
236.7539, 6466.055
237.2360, 6489.917
237.7181, 6503.544
238.2002, 6503.101
238.6823, 6497.913
239.1644, 6490.501
239.6466, 6481.779
240.1287, 6475.227
240.6108, 6473.053
241.0929, 6473.099
241.5750, 6470.283
242.0571, 6464.800
242.5393, 6457.084
243.0214, 6445.378
243.5035, 6431.792
243.9856, 6420.179
244.4677, 6411.646
244.9498, 6406.389
245.4320, 6406.054
245.9141, 6412.820
246.3962, 6416.995
246.8783, 6416.135
247.3604, 6411.662
247.8425, 6404.018
248.3247, 6392.928
248.8068, 6382.544
249.2889, 6378.194
249.7710, 6380.352
250.2531, 6387.494
250.7352, 6406.980
251.2174, 6427.050
251.6995, 6435.757
252.1816, 6431.599
252.6637, 6421.737
253.1458, 6412.319
253.6279, 6402.653
254.1100, 6399.581
254.5922, 6412.703
255.0743, 6424.335
255.5564, 6419.251
256.0385, 6399.973
256.5206, 6382.815
257.0027, 6381.684
257.4849, 6397.038
257.9670, 6406.801
258.4491, 6406.600
258.9312, 6406.497
259.4133, 6412.574
259.8954, 6422.192
260.3776, 6429.380
260.8597, 6431.013
261.3418, 6426.716
261.8239, 6413.067
262.3060, 6367.629
262.7881, 6339.335
263.2703, 6349.034
263.7524, 6378.385
264.2345, 6403.082
264.7166, 6412.074
265.1987, 6408.754
265.6808, 6402.124
266.1630, 6389.952
266.6451, 6377.056
267.1272, 6361.630
267.6093, 6346.580
268.0914, 6333.987
268.5735, 6324.627
269.0557, 6318.913
269.5378, 6318.028
270.0199, 6325.694
270.5020, 6330.435
270.9841, 6333.907
271.4662, 6333.861
271.9484, 6326.711
272.4305, 6313.381
272.9126, 6299.750
273.3947, 6291.911
273.8768, 6290.473
274.3589, 6291.233
274.8411, 6294.608
275.3232, 6299.794
275.8053, 6307.839
276.2874, 6317.604
276.7695, 6326.360
277.2516, 6331.431
277.7338, 6333.458
278.2159, 6339.548
278.6980, 6354.499
279.1801, 6367.184
279.6622, 6376.072
280.1443, 6380.348
280.6265, 6377.886
281.1086, 6366.109
281.5907, 6349.703
282.0728, 6341.544
282.5549, 6346.861
283.0370, 6347.443
283.5192, 6327.231
284.0013, 6305.154
284.4834, 6303.880
284.9655, 6332.725
285.4476, 6363.694
285.9297, 6355.140
286.4118, 6301.534
286.8940, 6264.285
287.3761, 6270.220
287.8582, 6289.191
288.3403, 6299.011
288.8224, 6297.923
289.3045, 6292.054
289.7867, 6283.202
290.2688, 6272.560
290.7509, 6267.571
291.2330, 6274.486
291.7151, 6278.752
292.1972, 6264.089
292.6794, 6234.509
293.1615, 6209.785
293.6436, 6201.302
294.1257, 6201.371
294.6078, 6195.379
295.0899, 6180.802
295.5721, 6169.997
296.0542, 6173.558
296.5363, 6188.461
297.0184, 6204.306
297.5005, 6225.166
297.9826, 6242.236
298.4648, 6246.187
298.9469, 6238.597
299.4290, 6230.214
299.9111, 6225.595
300.3932, 6224.692
300.8753, 6226.760
301.3575, 6230.375
301.8396, 6238.421
302.3217, 6258.080
302.8038, 6282.048
303.2859, 6296.454
303.7680, 6296.228
304.2502, 6286.427
304.7323, 6273.980
305.2144, 6252.840
305.6965, 6244.226
306.1786, 6262.483
306.6607, 6286.103
307.1429, 6295.662
307.6250, 6288.375
308.1071, 6273.939
308.5892, 6262.298
309.0713, 6254.328
309.5534, 6243.760
310.0356, 6226.098
310.5177, 6210.593
310.9998, 6201.084
311.4819, 6197.236
311.9640, 6198.043
312.4461, 6203.704
312.9283, 6212.746
313.4104, 6214.204
313.8925, 6197.567
314.3746, 6185.595
314.8567, 6188.694
315.3388, 6195.394
315.8210, 6189.738
316.3031, 6165.346
316.7852, 6134.089
317.2673, 6120.379
317.7494, 6134.733
318.2315, 6140.399
318.7137, 6124.188
319.1958, 6105.441
319.6779, 6096.479
320.1600, 6098.569
320.6421, 6104.700
321.1242, 6106.504
321.6064, 6103.832
322.0885, 6110.149
322.5706, 6134.092
323.0527, 6157.109
323.5348, 6169.229
324.0169, 6172.667
324.4991, 6173.629
324.9812, 6177.559
325.4633, 6180.124
325.9454, 6168.032
326.4275, 6135.669
326.9096, 6111.130
327.3918, 6117.580
327.8739, 6138.250
328.3560, 6149.334
328.8381, 6143.278
329.3202, 6133.836
329.8023, 6133.820
330.2844, 6141.147
330.7665, 6144.159
331.2487, 6138.869
331.7308, 6127.649
332.2129, 6112.655
332.6950, 6092.704
333.1771, 6076.346
333.6592, 6063.588
334.1414, 6056.883
334.6235, 6065.200
335.1056, 6090.192
335.5877, 6109.994
336.0698, 6100.312
336.5519, 6056.543
337.0341, 6028.272
337.5162, 6029.005
337.9983, 6032.520
338.4804, 6021.752
338.9625, 6000.911
339.4446, 5985.541
339.9268, 5985.930
340.4089, 5997.729
340.8910, 6000.268
341.3731, 5979.523
341.8552, 5966.104
342.3373, 5967.478
342.8195, 5975.496
343.3016, 5981.176
343.7837, 5981.811
344.2658, 5981.071
344.7479, 5985.786
345.2300, 6001.053
345.7122, 6007.492
346.1943, 5994.311
346.6764, 5982.012
347.1585, 5984.190
347.6406, 5997.614
348.1227, 6007.918
348.6049, 6001.710
349.0870, 5982.369
349.5691, 5973.395
350.0512, 5980.195
350.5333, 5988.700
351.0154, 5994.919
351.4976, 5998.952
351.9797, 6001.607
352.4618, 6004.381
352.9439, 6002.805
353.4260, 5986.228
353.9081, 5954.040
354.3903, 5933.255
354.8724, 5938.612
355.3545, 5953.137
355.8366, 5955.395
356.3187, 5944.123
356.8008, 5934.278
357.2830, 5934.665
357.7651, 5940.897
358.2472, 5947.364
358.7293, 5954.252
359.2114, 5952.911
359.6935, 5930.011
360.1757, 5886.995
360.6578, 5862.125
361.1399, 5870.844
361.6220, 5885.346
362.1041, 5891.547
362.5862, 5889.842
363.0684, 5883.022
363.5505, 5872.071
364.0326, 5858.144
364.5147, 5844.725
364.9968, 5826.329
365.4789, 5815.616
365.9611, 5819.262
366.4432, 5827.571
366.9253, 5831.288
367.4074, 5828.650
367.8895, 5824.070
368.3716, 5821.669
368.8538, 5820.167
369.3359, 5827.974
369.8180, 5856.978
370.3001, 5883.589
370.7822, 5904.693
371.2643, 5916.840
371.7465, 5912.188
372.2286, 5881.082
372.7107, 5838.574
373.1928, 5828.993
373.6749, 5866.369
374.1570, 5898.614
374.6392, 5910.853
375.1213, 5910.872
375.6034, 5901.426
376.0855, 5882.499
376.5676, 5863.244
377.0497, 5850.997
377.5318, 5844.902
378.0139, 5842.480
378.4961, 5846.272
378.9782, 5847.548
379.4603, 5833.940
379.9424, 5809.442
380.4245, 5790.642
380.9066, 5788.652
381.3888, 5788.632
381.8709, 5772.871
382.3530, 5744.261
382.8351, 5723.963
383.3172, 5725.527
383.7993, 5741.287
384.2815, 5744.295
384.7636, 5720.871
385.2457, 5707.271
385.7278, 5722.177
386.2099, 5744.087
386.6920, 5744.909
387.1742, 5720.104
387.6563, 5691.814
388.1384, 5687.181
388.6205, 5711.521
389.1026, 5730.714
389.5847, 5744.918
390.0669, 5754.096
390.5490, 5753.989
391.0311, 5749.260
391.5132, 5749.570
391.9953, 5761.669
392.4774, 5778.151
392.9596, 5778.413
393.4417, 5755.888
393.9238, 5734.801
394.4059, 5714.764
394.8880, 5702.054
395.3701, 5705.169
395.8523, 5724.537
396.3344, 5745.463
396.8165, 5757.038
397.2986, 5761.028
397.7807, 5765.730
398.2628, 5775.059
398.7450, 5775.784
399.2271, 5745.593
399.7092, 5697.470
400.1913, 5671.021
400.6734, 5697.205
401.1555, 5725.287
401.6377, 5714.963
402.1198, 5676.528
402.6019, 5641.988
403.0840, 5624.555
403.5661, 5618.183
404.0482, 5611.694
404.5304, 5603.847
405.0125, 5598.899
405.4946, 5597.095
405.9767, 5598.412
406.4588, 5606.787
406.9409, 5619.767
407.4231, 5627.034
407.9052, 5619.034
408.3873, 5597.112
408.8694, 5581.455
409.3515, 5583.948
409.8336, 5577.447
410.3158, 5540.250
410.7979, 5499.054
411.2800, 5487.868
411.7621, 5517.703
412.2442, 5560.177
412.7263, 5576.829
413.2085, 5565.632
413.6906, 5566.620
414.1727, 5595.699
414.6548, 5624.052
415.1369, 5630.556
415.6190, 5619.415
416.1012, 5606.360
416.5833, 5595.869
417.0654, 5587.832
417.5475, 5582.794
418.0296, 5580.619
418.5117, 5579.857
418.9939, 5581.683
419.4760, 5582.866
419.9581, 5573.441
420.4402, 5544.192
420.9223, 5526.798
421.4044, 5539.554
421.8865, 5562.217
422.3687, 5571.796
422.8508, 5565.510
423.3329, 5555.896
423.8150, 5555.995
424.2971, 5566.516
424.7792, 5563.392
425.2614, 5530.209
425.7435, 5501.928
426.2256, 5484.246
426.7077, 5477.051
427.1898, 5483.015
427.6719, 5503.152
428.1541, 5525.121
428.6362, 5527.269
429.1183, 5505.460
429.6004, 5491.577
430.0825, 5498.250
430.5646, 5504.110
431.0468, 5492.001
431.5289, 5467.020
432.0110, 5448.900
432.4931, 5454.707
432.9752, 5468.231
433.4573, 5464.047
433.9395, 5442.369
434.4216, 5421.271
434.9037, 5406.514
435.3858, 5399.319
435.8679, 5403.771
436.3500, 5424.850
436.8322, 5442.185
437.3143, 5451.381
437.7964, 5453.923
438.2785, 5449.465
438.7606, 5438.967
439.2427, 5427.175
439.7249, 5417.920
440.2070, 5411.204
440.6891, 5406.620
441.1712, 5406.988
441.6533, 5406.141
442.1354, 5401.231
442.6176, 5395.237
443.0997, 5392.765
443.5818, 5394.957
444.0639, 5396.538
444.5460, 5386.600
445.0281, 5363.498
445.5103, 5357.589
445.9924, 5384.993
446.4745, 5411.161
446.9566, 5412.063
447.4387, 5396.359
447.9208, 5385.909
448.4030, 5395.057
448.8851, 5405.207
449.3672, 5391.816
449.8493, 5359.355
450.3314, 5336.458
450.8135, 5335.877
451.2957, 5344.123
451.7778, 5338.972
452.2599, 5316.704
452.7420, 5297.300
453.2241, 5279.237
453.7062, 5267.544
454.1884, 5269.803
454.6705, 5282.587
455.1526, 5294.250
455.6347, 5297.280
456.1168, 5293.372
456.5989, 5289.212
457.0811, 5285.532
457.5632, 5280.025
458.0453, 5271.456
458.5274, 5261.804
459.0095, 5249.755
459.4916, 5236.653
459.9738, 5229.736
460.4559, 5239.579
460.9380, 5261.391
461.4201, 5273.765
461.9022, 5274.374
462.3843, 5273.263
462.8665, 5276.294
463.3486, 5280.780
463.8307, 5281.972
464.3128, 5278.708
464.7949, 5274.144
465.2770, 5271.346
465.7591, 5267.963
466.2412, 5259.035
466.7234, 5243.694
467.2055, 5226.428
467.6876, 5210.304
468.1697, 5194.957
468.6518, 5189.500
469.1339, 5202.459
469.6161, 5214.029
470.0982, 5220.346
470.5803, 5221.388
471.0624, 5215.601
471.5445, 5202.851
472.0266, 5189.716
472.5088, 5188.619
472.9909, 5202.431
473.4730, 5200.539
473.9551, 5166.170
474.4372, 5135.543
474.9193, 5129.812
475.4015, 5141.239
475.8836, 5153.553
476.3657, 5163.563
476.8478, 5169.339
477.3299, 5168.801
477.8120, 5162.346
478.2942, 5150.465
478.7763, 5131.960
479.2584, 5112.507
479.7405, 5099.807
480.2226, 5095.563
480.7047, 5090.236
481.1869, 5085.617
481.6690, 5078.114
482.1511, 5058.792
482.6332, 5035.622
483.1153, 5026.997
483.5974, 5042.483
484.0796, 5070.769
484.5617, 5087.707
485.0438, 5089.725
485.5259, 5090.717
486.0080, 5089.979
486.4901, 5089.834
486.9723, 5091.562
487.4544, 5094.857
487.9365, 5099.073
488.4186, 5107.574
488.9007, 5113.380
489.3828, 5100.477
489.8650, 5069.882
490.3471, 5050.324
490.8292, 5055.463
491.3113, 5071.637
491.7934, 5076.055
492.2755, 5066.230
492.7577, 5062.549
493.2398, 5080.028
493.7219, 5094.998
494.2040, 5086.729
494.6861, 5059.474
495.1682, 5028.196
495.6504, 5000.315
496.1325, 4979.137
496.6146, 4976.588
497.0967, 5009.189
497.5788, 5025.312
498.0609, 5002.697
498.5431, 4978.892
499.0252, 4978.703
499.5073, 4998.764
499.9894, 5018.460
500.4715, 5025.965
500.9536, 5025.212
501.4358, 5023.220
501.9179, 5020.042
502.4000, 5013.064
502.8821, 4998.816
503.3642, 4983.046
503.8463, 4975.503
504.3285, 4977.019
504.8106, 4979.244
505.2927, 4985.115
505.7748, 4987.625
506.2569, 4974.830
506.7390, 4952.463
507.2212, 4941.655
507.7033, 4955.793
508.1854, 4984.238
508.6675, 4996.896
509.1496, 4986.469
509.6317, 4975.378
510.1138, 4963.129
510.5959, 4952.610
511.0781, 4944.090
511.5602, 4938.547
512.0423, 4939.425
512.5244, 4956.541
513.0065, 4974.610
513.4886, 4959.729
513.9708, 4912.430
514.4529, 4880.831
514.9350, 4884.010
515.4171, 4907.897
515.8992, 4938.204
516.3813, 4979.860
516.8635, 4997.352
517.3456, 4966.107
517.8277, 4926.310
518.3098, 4902.748
518.7919, 4894.106
519.2740, 4892.589
519.7562, 4894.595
520.2383, 4896.922
520.7204, 4891.198
521.2025, 4872.276
521.6846, 4860.493
522.1667, 4864.441
522.6489, 4869.658
523.1310, 4869.983
523.6131, 4866.036
524.0952, 4860.138
524.5773, 4850.909
525.0594, 4843.369
525.5416, 4848.937
526.0237, 4863.878
526.5058, 4863.318
526.9879, 4835.797
527.4700, 4803.806
527.9521, 4796.871
528.4343, 4821.564
528.9164, 4830.213
529.3985, 4802.363
529.8806, 4780.098
530.3627, 4792.103
530.8448, 4820.392
531.3270, 4832.405
531.8091, 4816.282
532.2912, 4789.911
532.7733, 4780.299
533.2554, 4789.927
533.7375, 4792.643
534.2197, 4781.237
534.7018, 4772.244
535.1839, 4777.340
535.6660, 4789.844
536.1481, 4798.091
536.6302, 4798.830
537.1124, 4795.842
537.5945, 4790.060
538.0766, 4782.659
538.5587, 4776.014
539.0408, 4770.560
539.5229, 4766.136
540.0051, 4763.200
540.4872, 4761.546
540.9693, 4756.019
541.4514, 4737.440
541.9335, 4726.580
542.4156, 4732.198
542.8978, 4743.855
543.3799, 4753.982
543.8620, 4760.044
544.3441, 4759.671
544.8262, 4748.946
545.3083, 4729.962
545.7905, 4709.016
546.2726, 4684.046
546.7547, 4667.955
547.2368, 4671.606
547.7189, 4684.284
548.2010, 4685.596
548.6832, 4671.251
549.1653, 4663.279
549.6474, 4676.542
550.1295, 4692.019
550.6116, 4692.509
551.0938, 4678.927
551.5759, 4658.392
552.0580, 4634.045
552.5401, 4611.028
553.0222, 4605.273
553.5043, 4626.030
553.9865, 4639.959
554.4686, 4641.884
554.9507, 4638.169
555.4328, 4628.236
555.9149, 4614.860
556.3970, 4604.739
556.8792, 4599.091
557.3613, 4600.007
557.8434, 4615.225
558.3255, 4640.023
558.8076, 4656.035
559.2897, 4658.138
559.7719, 4651.667
560.2540, 4640.876
560.7361, 4625.056
561.2182, 4614.108
561.7003, 4613.212
562.1824, 4610.333
562.6646, 4595.595
563.1467, 4579.938
563.6288, 4579.568
564.1109, 4597.158
564.5930, 4616.189
565.0751, 4619.216
565.5573, 4608.356
566.0394, 4596.814
566.5215, 4583.219
567.0036, 4574.804
567.4857, 4580.845
567.9678, 4591.057
568.4500, 4584.839
568.9321, 4555.924
569.4142, 4532.347
569.8963, 4522.979
570.3784, 4521.667
570.8605, 4527.794
571.3427, 4537.537
571.8248, 4538.664
572.3069, 4522.856
572.7890, 4501.172
573.2711, 4505.593
573.7532, 4552.256
574.2354, 4572.469
574.7175, 4532.616
575.1996, 4492.400
575.6817, 4489.062
576.1638, 4511.055
576.6459, 4526.100
577.1281, 4522.101
577.6101, 4509.684
578.0922, 4490.194
578.5743, 4469.853
579.0565, 4467.449
579.5386, 4487.301
580.0207, 4511.066
580.5028, 4521.774
580.9849, 4519.560
581.4670, 4513.791
581.9492, 4501.889
582.4313, 4489.322
582.9134, 4474.846
583.3955, 4461.101
583.8776, 4449.400
584.3597, 4440.441
584.8419, 4436.417
585.3240, 4441.752
585.8061, 4452.088
586.2882, 4458.196
586.7703, 4460.054
587.2524, 4459.863
587.7346, 4458.496
588.2167, 4455.416
588.6988, 4449.334
589.1809, 4439.073
589.6630, 4430.671
590.1451, 4425.141
590.6273, 4420.625
591.1094, 4417.932
591.5915, 4415.164
592.0736, 4409.717
592.5557, 4400.585
593.0378, 4388.016
593.5200, 4367.206
594.0021, 4339.609
594.4842, 4332.708
594.9663, 4355.709
595.4484, 4376.355
595.9305, 4375.590
596.4127, 4360.827
596.8948, 4348.251
597.3769, 4337.005
597.8590, 4330.793
598.3411, 4333.045
598.8232, 4339.110
599.3054, 4348.712
599.7875, 4358.637
600.2696, 4359.016
600.7517, 4343.212
601.2338, 4320.202
601.7159, 4310.720
602.1981, 4317.046
602.6802, 4326.696
603.1623, 4343.399
603.6444, 4357.116
604.1265, 4360.173
604.6086, 4355.828
605.0908, 4351.333
605.5729, 4344.672
606.0550, 4344.034
606.5371, 4365.147
607.0192, 4390.926
607.5013, 4389.483
607.9835, 4359.101
608.4656, 4330.479
608.9477, 4330.026
609.4298, 4350.247
609.9119, 4351.034
610.3940, 4320.770
610.8762, 4295.684
611.3583, 4280.092
611.8404, 4272.691
612.3225, 4277.210
612.8046, 4290.508
613.2867, 4300.157
613.7689, 4298.983
614.2510, 4294.298
614.7331, 4294.625
615.2152, 4296.719
615.6973, 4289.492
616.1794, 4270.104
616.6616, 4252.326
617.1437, 4250.758
617.6258, 4265.049
618.1079, 4278.687
618.5900, 4300.079
619.0721, 4308.085
619.5543, 4286.299
620.0364, 4259.525
620.5185, 4250.448
621.0006, 4259.413
621.4827, 4268.422
621.9648, 4264.232
622.4470, 4256.317
622.9291, 4260.319
623.4112, 4272.496
623.8933, 4274.030
624.3754, 4257.660
624.8575, 4236.494
625.3397, 4227.500
625.8218, 4232.568
626.3039, 4232.093
626.7860, 4213.963
627.2681, 4204.896
627.7502, 4223.269
628.2324, 4245.883
628.7145, 4244.688
629.1966, 4216.932
629.6787, 4191.038
630.1608, 4189.500
630.6429, 4201.063
631.1251, 4209.977
631.6072, 4215.500
632.0893, 4212.858
632.5714, 4198.812
633.0535, 4181.239
633.5356, 4171.409
634.0178, 4170.188
634.4999, 4172.376
634.9820, 4189.207
635.4641, 4196.088
635.9462, 4178.699
636.4283, 4151.042
636.9105, 4127.941
637.3926, 4113.008
637.8747, 4106.363
638.3568, 4110.485
638.8389, 4122.009
639.3210, 4138.079
639.8032, 4157.430
640.2853, 4166.643
640.7674, 4157.846
641.2495, 4143.712
641.7316, 4146.796
642.2137, 4176.317
642.6959, 4185.509
643.1780, 4157.057
643.6601, 4129.688
644.1422, 4119.029
644.6243, 4115.020
645.1064, 4099.444
645.5886, 4069.040
646.0707, 4050.723
646.5528, 4080.879
647.0349, 4131.424
647.5170, 4144.935
647.9991, 4122.783
648.4813, 4102.380
648.9634, 4099.965
649.4455, 4105.749
649.9276, 4103.132
650.4097, 4088.187
650.8918, 4080.683
651.3740, 4089.301
651.8561, 4094.991
652.3382, 4088.008
652.8203, 4076.702
653.3024, 4072.183
653.7845, 4076.710
654.2667, 4082.551
654.7488, 4087.211
655.2309, 4088.093
655.7130, 4075.965
656.1951, 4053.638
656.6772, 4042.404
657.1594, 4052.632
657.6415, 4070.338
658.1236, 4073.289
658.6057, 4057.684
659.0878, 4047.086
659.5699, 4047.119
660.0521, 4045.659
660.5342, 4036.230
661.0163, 4025.613
661.4984, 4022.778
661.9805, 4029.123
662.4626, 4034.453
662.9448, 4035.066
663.4269, 4029.822
663.9090, 4011.222
664.3911, 3984.242
664.8732, 3968.944
665.3553, 3973.026
665.8375, 3987.788
666.3196, 4003.242
666.8017, 4020.289
667.2838, 4026.686
667.7659, 4015.103
668.2480, 4003.866
668.7301, 3996.045
669.2122, 3992.229
669.6943, 3994.023
670.1765, 4001.354
670.6586, 4009.594
671.1407, 4024.078
671.6228, 4032.356
672.1049, 4016.475
672.5870, 3986.051
673.0692, 3963.818
673.5513, 3956.625
674.0334, 3958.079
674.5155, 3962.526
674.9976, 3969.448
675.4797, 3970.332
675.9619, 3962.534
676.4440, 3955.357
676.9261, 3951.832
677.4082, 3949.748
677.8903, 3947.200
678.3724, 3944.191
678.8546, 3940.971
