##NAMES=Beryl
##RRUFFID=R050305
##IDEAL CHEMISTRY=Be_3_Al_2_Si_6_O_18_
##LOCALITY=Conselheiro Pena, Minas Gerais, Brazil
##OWNER=RRUFF
##SOURCE=Eugene Schlepp
##DESCRIPTION=Light blue fragment, variety aquamarine
##STATUS=The identification of this mineral has been confirmed by X-ray diffraction and chemical analysis
##URL=rruff.info/R050305
##MEASURED CHEMISTRY=(Be_0.91_Li_0.09_)_3_(Al_0.99_Fe^3+^_0.01_)_2_Si_6.00_O_18_Î‡Na_0.27_
127.2358, 149.7290
127.7179, 150.3916
128.2001, 152.0410
128.6822, 153.4649
129.1643, 153.8844
129.6464, 153.3851
130.1285, 153.0368
130.6107, 153.1437
131.0928, 153.1166
131.5749, 152.7581
132.0570, 152.1422
132.5391, 151.4361
133.0212, 150.7639
133.5034, 150.0923
133.9855, 149.7503
134.4676, 149.8572
134.9497, 150.1210
135.4318, 150.5412
135.9139, 151.0547
136.3961, 151.3519
136.8782, 150.9824
137.3603, 149.7518
137.8424, 148.8983
138.3245, 148.7873
138.8066, 148.9756
139.2888, 148.9488
139.7709, 148.5790
140.2530, 148.0589
140.7351, 147.6402
141.2172, 147.3169
141.6993, 146.9070
142.1815, 146.2923
142.6636, 145.5213
143.1457, 144.7780
143.6278, 144.1719
144.1099, 143.5205
144.5920, 142.5593
145.0742, 141.3047
145.5563, 140.1954
146.0384, 139.7171
146.5205, 139.9587
147.0026, 140.0763
147.4847, 139.7687
147.9668, 139.3943
148.4490, 139.1314
148.9311, 139.0215
149.4132, 139.0049
149.8953, 139.0130
150.3774, 139.1114
150.8595, 139.0868
151.3417, 138.7631
151.8238, 138.4200
152.3059, 138.3641
152.7880, 138.6946
153.2701, 139.1734
153.7522, 139.1918
154.2344, 137.9042
154.7165, 137.1052
155.1986, 137.1454
155.6807, 137.6281
156.1628, 138.0865
156.6449, 138.2953
157.1271, 138.2904
157.6092, 138.1981
158.0913, 138.0001
158.5734, 137.7575
159.0555, 137.3778
159.5376, 136.9494
160.0198, 136.7362
160.5019, 136.9646
160.9840, 137.4777
161.4661, 137.6803
161.9482, 137.4228
162.4303, 137.0331
162.9125, 136.7329
163.3946, 136.5164
163.8767, 136.2356
164.3588, 135.7215
164.8409, 135.1119
165.3230, 134.6223
165.8052, 134.2419
166.2873, 134.0414
166.7694, 134.2177
167.2515, 134.9178
167.7336, 135.4902
168.2157, 135.6758
168.6979, 135.5484
169.1800, 135.0793
169.6621, 134.0550
170.1442, 132.8269
170.6263, 132.4769
171.1084, 133.7320
171.5906, 134.7289
172.0727, 134.7465
172.5548, 134.1981
173.0369, 133.6719
173.5190, 133.5446
174.0011, 133.7502
174.4833, 133.7306
174.9654, 133.2010
175.4475, 132.7092
175.9296, 132.3796
176.4117, 132.1729
176.8938, 131.9774
177.3760, 131.6910
177.8581, 131.3039
178.3402, 131.2238
178.8223, 131.9785
179.3044, 132.4955
179.7865, 132.2663
180.2687, 131.4312
180.7508, 130.4730
181.2329, 129.7989
181.7150, 129.4393
182.1971, 129.0254
182.6792, 128.4875
183.1614, 127.9623
183.6435, 127.5234
184.1256, 127.1762
184.6077, 126.9034
185.0898, 126.7563
185.5719, 126.7293
186.0541, 126.3623
186.5362, 125.3213
187.0183, 124.1214
187.5004, 123.1693
187.9825, 122.4988
188.4646, 122.1467
188.9468, 122.3648
189.4289, 123.0015
189.9110, 123.4413
190.3931, 123.4938
190.8752, 123.2846
191.3573, 122.9551
191.8395, 122.4526
192.3216, 122.0089
192.8037, 121.9067
193.2858, 122.0086
193.7679, 121.9966
194.2500, 121.6189
194.7322, 121.0073
195.2143, 120.6490
195.6964, 120.8854
196.1785, 120.8298
196.6606, 119.6393
197.1427, 117.8129
197.6249, 116.4818
198.1070, 116.7000
198.5891, 118.2526
199.0712, 118.9053
199.5533, 117.6401
200.0354, 116.5566
200.5176, 116.6154
200.9997, 117.4962
201.4818, 118.4312
201.9639, 118.8532
202.4460, 118.7579
202.9281, 118.4159
203.4103, 117.2747
203.8924, 116.3886
204.3745, 116.2029
204.8566, 116.5706
205.3387, 117.0873
205.8208, 117.4291
206.3030, 117.6025
206.7851, 117.5300
207.2672, 117.0234
207.7493, 116.4780
208.2314, 115.9219
208.7135, 115.4391
209.1957, 115.2196
209.6778, 115.4798
210.1599, 116.3197
210.6420, 116.8455
211.1241, 116.9523
211.6062, 116.9048
212.0884, 116.9834
212.5705, 117.1046
213.0526, 116.7709
213.5347, 115.3324
214.0168, 112.5858
214.4989, 111.3140
214.9811, 112.6444
215.4632, 114.4299
215.9453, 115.4109
216.4274, 115.4814
216.9095, 114.9693
217.3916, 113.8831
217.8738, 112.2717
218.3559, 111.6799
218.8380, 113.0237
219.3201, 114.8191
219.8022, 115.8133
220.2843, 115.9132
220.7665, 115.6995
221.2486, 115.5777
221.7307, 115.5119
222.2128, 115.3542
222.6949, 114.9624
223.1770, 114.5307
223.6592, 114.2398
224.1413, 114.0844
224.6234, 114.1363
225.1055, 114.6845
225.5876, 115.4666
226.0697, 115.9939
226.5519, 116.1125
227.0340, 115.9188
227.5161, 115.3904
227.9982, 114.3332
228.4803, 113.6264
228.9624, 114.0818
229.4446, 115.1256
229.9267, 116.0878
230.4088, 116.8176
230.8909, 117.2513
231.3730, 117.1350
231.8551, 116.1736
232.3373, 115.4172
232.8194, 115.5156
233.3015, 115.9755
233.7836, 116.2124
234.2657, 115.9366
234.7478, 115.3821
235.2300, 115.0611
235.7121, 115.0022
236.1942, 115.1455
236.6763, 115.7271
237.1584, 116.3684
237.6405, 116.6008
238.1227, 116.1742
238.6048, 115.4132
239.0869, 115.1733
239.5690, 115.8018
240.0511, 116.3652
240.5332, 116.7414
241.0154, 116.9523
241.4975, 116.9359
241.9796, 116.6599
242.4617, 116.3140
242.9438, 116.4133
243.4259, 117.4198
243.9081, 118.1504
244.3902, 118.4442
244.8723, 118.4492
245.3544, 118.2422
245.8365, 117.8611
246.3186, 117.4124
246.8008, 117.1457
247.2829, 117.2809
247.7650, 117.2836
248.2471, 117.1518
248.7292, 116.8781
249.2113, 116.3931
249.6935, 115.6880
250.1756, 114.9100
250.6577, 114.3511
251.1398, 114.2325
251.6219, 114.0296
252.1040, 113.5380
252.5862, 113.0741
253.0683, 113.1499
253.5504, 113.8527
254.0325, 114.4989
254.5146, 113.9003
254.9967, 110.8194
255.4789, 108.7834
255.9610, 108.3700
256.4431, 108.6574
256.9252, 108.9605
257.4073, 109.0937
257.8894, 109.0907
258.3716, 108.9846
258.8537, 108.7135
259.3358, 108.4989
259.8179, 108.2988
260.3000, 108.1792
260.7821, 108.2770
261.2643, 108.5973
261.7464, 108.8709
262.2285, 108.7275
262.7106, 107.9982
263.1927, 107.7959
263.6748, 108.8025
264.1570, 109.9187
264.6391, 110.0126
265.1212, 109.0185
265.6033, 108.0375
266.0854, 108.2641
266.5675, 109.7515
267.0497, 110.3665
267.5318, 109.0697
268.0139, 107.5717
268.4960, 107.4429
268.9781, 108.7064
269.4602, 109.9849
269.9424, 110.2678
270.4245, 109.6019
270.9066, 108.8782
271.3887, 107.8415
271.8708, 106.9577
272.3529, 106.6794
272.8351, 106.9671
273.3172, 107.3240
273.7993, 107.4879
274.2814, 107.4836
274.7635, 107.4366
275.2456, 107.2114
275.7278, 107.0984
276.2099, 107.4468
276.6920, 108.1858
277.1741, 108.6980
277.6562, 108.5353
278.1383, 108.0642
278.6205, 108.0627
279.1026, 108.7042
279.5847, 109.4383
280.0668, 110.1132
280.5489, 110.6588
281.0310, 110.5400
281.5132, 109.1479
281.9953, 107.4258
282.4774, 106.7344
282.9595, 107.2023
283.4416, 107.8942
283.9237, 108.2570
284.4059, 108.3768
284.8880, 108.6326
285.3701, 109.1678
285.8522, 109.7963
286.3343, 110.3236
286.8164, 110.7546
287.2986, 111.1629
287.7807, 111.7049
288.2628, 112.2709
288.7449, 112.4538
289.2270, 112.0534
289.7091, 111.5186
290.1913, 111.1144
290.6734, 110.8572
291.1555, 110.8452
291.6376, 111.2324
292.1197, 111.8865
292.6018, 112.5655
293.0840, 113.3632
293.5661, 113.9179
294.0482, 113.9325
294.5303, 113.5615
295.0124, 113.0186
295.4945, 112.1787
295.9767, 111.3275
296.4588, 111.0947
296.9409, 111.6919
297.4230, 112.1811
297.9051, 111.9178
298.3872, 111.3128
298.8694, 110.7912
299.3515, 110.4154
299.8336, 110.2696
300.3157, 110.5974
300.7978, 111.5137
301.2799, 112.2201
301.7621, 112.4368
302.2442, 112.2693
302.7263, 111.5829
303.2084, 110.2307
303.6905, 109.0867
304.1726, 109.3692
304.6548, 111.1637
305.1369, 112.2732
305.6190, 111.5216
306.1011, 110.4072
306.5832, 110.1716
307.0653, 110.8714
307.5475, 111.5988
308.0296, 111.4734
308.5117, 110.5908
308.9938, 110.1396
309.4759, 110.5748
309.9580, 111.1249
310.4402, 111.1880
310.9223, 110.8850
311.4044, 110.7029
311.8865, 111.1074
312.3686, 111.9236
312.8507, 112.3133
313.3329, 111.9103
313.8150, 111.7041
314.2971, 112.4445
314.7792, 113.7105
315.2613, 114.7173
315.7434, 114.9782
316.2256, 114.8495
316.7077, 115.1514
317.1898, 116.0714
317.6719, 116.9076
318.1540, 117.2224
318.6361, 117.3409
319.1183, 117.6055
319.6004, 118.1310
320.0825, 118.7998
320.5646, 119.5580
321.0467, 120.4722
321.5288, 121.0428
322.0110, 120.6709
322.4931, 120.1543
322.9752, 120.2135
323.4573, 120.9725
323.9394, 121.7510
324.4215, 121.9144
324.9037, 121.4722
325.3858, 120.8990
325.8679, 120.3222
326.3500, 119.5599
326.8321, 118.4739
327.3142, 117.0896
327.7964, 115.5830
328.2785, 113.8523
328.7606, 112.0342
329.2427, 110.8412
329.7248, 110.6011
330.2069, 110.5070
330.6891, 110.0345
331.1712, 109.3323
331.6533, 108.7322
332.1354, 108.6080
332.6175, 108.5663
333.0996, 107.5730
333.5818, 105.1808
334.0639, 103.2738
334.5460, 103.5200
335.0281, 104.5394
335.5102, 104.7005
335.9923, 103.2998
336.4745, 101.5917
336.9566, 101.2082
337.4387, 102.2460
337.9208, 102.9745
338.4029, 102.5611
338.8850, 101.7735
339.3672, 101.3418
339.8493, 101.3324
340.3314, 101.5007
340.8135, 101.7715
341.2956, 102.1070
341.7777, 102.2038
342.2599, 101.7924
342.7420, 101.4497
343.2241, 101.8621
343.7062, 102.8563
344.1883, 103.5303
344.6704, 103.1804
345.1526, 102.2565
345.6347, 101.7423
346.1168, 101.7557
346.5989, 101.9598
347.0810, 102.2811
347.5631, 102.6146
348.0453, 102.7435
348.5274, 102.4900
349.0095, 102.1196
349.4916, 101.9971
349.9737, 102.1324
350.4558, 102.0828
350.9380, 101.5108
351.4201, 100.7058
351.9022, 100.0979
352.3843, 99.66753
352.8664, 99.55029
353.3485, 100.1245
353.8307, 101.1630
354.3128, 101.7129
354.7949, 101.3674
355.2770, 100.6817
355.7591, 100.2775
356.2412, 100.1327
356.7234, 100.2623
357.2055, 100.8693
357.6876, 101.6918
358.1697, 102.3902
358.6518, 102.9490
359.1339, 103.1756
359.6161, 102.6835
360.0982, 101.6348
360.5803, 100.9357
361.0624, 100.8637
361.5445, 101.0550
362.0266, 101.2849
362.5088, 101.5382
362.9909, 101.7672
363.4730, 101.9780
363.9551, 102.1196
364.4372, 102.0387
364.9193, 101.5073
365.4015, 101.1465
365.8836, 101.3109
366.3657, 101.8164
366.8478, 102.3624
367.3299, 102.8912
367.8120, 103.2447
368.2942, 103.0419
368.7763, 102.0636
369.2584, 101.5303
369.7405, 101.9387
370.2226, 102.6748
370.7047, 103.1291
371.1869, 103.2342
371.6690, 103.3123
372.1511, 103.6700
372.6332, 104.3245
373.1153, 104.8348
373.5974, 105.1333
374.0796, 105.3757
374.5617, 105.6951
375.0438, 106.0241
375.5259, 106.1332
376.0080, 105.8516
376.4901, 105.3656
376.9723, 105.3485
377.4544, 106.0640
377.9365, 106.8944
378.4186, 108.1321
378.9007, 109.2955
379.3828, 109.5941
379.8650, 108.8829
380.3471, 108.0876
380.8292, 108.5787
381.3113, 111.0499
381.7934, 112.7573
382.2755, 113.0745
382.7577, 113.2795
383.2398, 114.1014
383.7219, 115.4895
384.2040, 116.9999
384.6861, 118.2836
385.1682, 119.3595
385.6504, 120.4821
386.1325, 121.8901
386.6146, 123.0700
387.0967, 123.6375
387.5788, 124.0156
388.0609, 124.6940
388.5431, 125.8813
389.0252, 127.5266
389.5073, 129.5534
389.9894, 132.0372
390.4715, 134.7892
390.9536, 138.2494
391.4358, 141.5855
391.9179, 144.1281
392.4000, 145.9177
392.8821, 147.6138
393.3642, 149.8289
393.8463, 152.5778
394.3285, 155.5089
394.8106, 158.9535
395.2927, 162.2212
395.7748, 164.9003
396.2569, 167.2789
396.7390, 169.9605
397.2212, 173.3860
397.7033, 176.9796
398.1854, 179.4423
398.6675, 180.6441
399.1496, 181.1196
399.6317, 180.9009
400.1139, 180.0820
400.5960, 178.6793
401.0781, 176.7011
401.5602, 174.1525
402.0423, 170.9448
402.5244, 167.1223
403.0066, 163.0414
403.4887, 158.5820
403.9708, 154.1202
404.4529, 149.7989
404.9350, 145.6683
405.4171, 141.8485
405.8993, 138.3530
406.3814, 135.2404
406.8635, 132.7177
407.3456, 130.8504
407.8277, 128.9233
408.3098, 126.4164
408.7920, 123.6938
409.2741, 121.3618
409.7562, 119.4849
410.2383, 117.8991
410.7204, 116.2571
411.2025, 114.8008
411.6847, 114.4237
412.1668, 115.6302
412.6489, 117.1629
413.1310, 117.3630
413.6131, 116.2857
414.0952, 115.3274
414.5774, 114.8528
415.0595, 114.5126
415.5416, 113.9505
416.0237, 113.1785
416.5058, 112.4545
416.9879, 111.8960
417.4701, 111.5443
417.9522, 111.6156
418.4343, 112.6893
418.9164, 113.4204
419.3985, 113.2412
419.8806, 112.5567
420.3628, 111.8537
420.8449, 111.2923
421.3270, 111.0129
421.8091, 111.2900
422.2912, 112.5037
422.7733, 113.1554
423.2555, 112.9472
423.7376, 112.4858
424.2197, 112.0642
424.7018, 111.7060
425.1839, 111.3538
425.6660, 110.9816
426.1482, 110.5682
426.6303, 109.9298
427.1124, 108.3838
427.5945, 107.4927
428.0766, 108.1089
428.5587, 109.1244
429.0409, 109.3587
429.5230, 108.4830
430.0051, 107.1408
430.4872, 106.1418
430.9693, 105.4583
431.4514, 105.2482
431.9336, 105.9860
432.4157, 106.8054
432.8978, 107.4377
433.3799, 107.8740
433.8620, 108.1839
434.3441, 108.4112
434.8263, 108.5379
435.3084, 108.4817
435.7905, 108.1748
436.2726, 107.8728
436.7547, 107.6013
437.2368, 107.4100
437.7190, 107.4465
438.2011, 107.7647
438.6832, 107.9264
439.1653, 107.3208
439.6474, 106.1475
440.1295, 105.5164
440.6117, 105.7143
441.0938, 106.2621
441.5759, 106.8396
442.0580, 107.4378
442.5401, 108.0332
443.0222, 108.8022
443.5044, 109.4361
443.9865, 109.5935
444.4686, 109.3032
444.9507, 108.8079
445.4328, 108.1379
445.9149, 107.4140
446.3971, 106.9320
446.8792, 106.7598
447.3613, 106.5826
447.8434, 106.3519
448.3255, 106.0533
448.8076, 105.6559
449.2898, 105.1569
449.7719, 104.5891
450.2540, 103.9376
450.7361, 103.1852
451.2182, 102.8095
451.7003, 103.2023
452.1825, 103.4849
452.6646, 103.2348
453.1467, 102.6808
453.6288, 102.2351
454.1109, 102.0778
454.5930, 102.0601
455.0751, 101.8744
455.5573, 101.3810
456.0394, 100.9904
456.5215, 100.7358
457.0036, 100.5371
457.4857, 100.2432
457.9678, 99.94045
458.4500, 99.93984
458.9321, 100.5901
459.4142, 101.7031
459.8963, 102.1348
460.3784, 101.5017
460.8605, 100.8498
461.3427, 100.4207
461.8248, 100.1244
462.3069, 99.86116
462.7890, 99.60654
463.2711, 99.44376
463.7532, 99.51566
464.2354, 99.80156
464.7175, 100.0186
465.1996, 100.2004
465.6817, 100.1964
466.1638, 99.77013
466.6459, 99.08376
467.1281, 98.54272
467.6102, 98.27146
468.0923, 98.21235
468.5744, 98.37904
469.0565, 98.74892
469.5386, 99.07493
470.0208, 99.23621
470.5029, 99.33434
470.9850, 99.64565
471.4671, 100.2991
471.9492, 100.4951
472.4313, 99.65918
472.9135, 98.48438
473.3956, 97.70582
473.8777, 97.38218
474.3598, 97.18484
474.8419, 96.86969
475.3240, 96.45833
475.8062, 96.17045
476.2883, 95.81429
476.7704, 95.79482
477.2525, 96.70737
477.7346, 97.77665
478.2167, 97.97148
478.6989, 97.06262
479.1810, 95.75542
479.6631, 94.92069
480.1452, 94.63194
480.6273, 94.47286
481.1094, 94.47127
481.5916, 94.57361
482.0737, 94.78837
482.5558, 95.09257
483.0379, 95.47267
483.5200, 95.93619
484.0021, 96.40797
484.4843, 96.78209
484.9664, 97.09309
485.4485, 97.14402
485.9306, 96.66390
486.4127, 96.10127
486.8948, 95.74890
487.3770, 95.59192
487.8591, 95.46674
488.3412, 95.11590
488.8233, 94.78491
489.3054, 95.13391
489.7875, 96.26065
490.2697, 97.11156
490.7518, 97.07471
491.2339, 96.44008
491.7160, 95.86713
492.1981, 95.39113
492.6802, 94.88287
493.1624, 94.06345
493.6445, 93.26543
494.1266, 93.06647
494.6087, 93.55239
495.0908, 94.27277
495.5729, 94.91858
496.0551, 95.47700
496.5372, 95.53999
497.0193, 94.58896
497.5014, 93.82415
497.9835, 93.69442
498.4656, 93.94263
498.9478, 94.23507
499.4299, 94.45075
499.9120, 94.59709
500.3941, 94.66268
500.8762, 94.59229
501.3583, 94.66408
501.8405, 94.98405
502.3226, 95.33819
502.8047, 95.75432
503.2868, 96.13322
503.7689, 96.29201
504.2510, 96.12526
504.7332, 95.77221
505.2153, 95.43604
505.6974, 95.08634
506.1795, 94.95215
506.6616, 95.33080
507.1437, 95.70115
507.6259, 95.53732
508.1080, 94.95748
508.5901, 94.63926
509.0722, 95.17585
509.5543, 96.03185
510.0364, 96.43517
510.5186, 96.38422
511.0007, 96.12754
511.4828, 95.64471
511.9649, 95.14891
512.4470, 95.13577
512.9291, 95.73443
513.4113, 96.27200
513.8934, 96.73042
514.3755, 96.95039
514.8576, 96.51329
515.3397, 95.52687
515.8218, 94.84476
516.3040, 95.15973
516.7861, 96.30276
517.2682, 97.04378
517.7503, 96.86846
518.2324, 96.92642
518.7145, 97.76833
519.1967, 98.62221
519.6788, 98.59261
520.1609, 97.63774
520.6430, 96.59963
521.1251, 96.40476
521.6072, 97.01608
522.0894, 97.11095
522.5715, 96.20798
523.0536, 95.55717
523.5357, 95.93298
524.0178, 96.60225
524.4999, 96.56725
524.9821, 95.50355
525.4642, 94.51064
525.9463, 94.72778
526.4284, 95.90891
526.9105, 97.00191
527.3926, 97.90789
527.8748, 98.57429
528.3569, 98.93909
528.8390, 99.02046
529.3211, 98.88110
529.8032, 98.27245
530.2853, 97.73326
530.7675, 97.64089
531.2496, 97.81245
531.7317, 97.89775
532.2138, 97.79460
532.6959, 97.59450
533.1780, 97.41006
533.6602, 97.25255
534.1423, 97.03352
534.6244, 96.75769
535.1065, 96.42436
535.5886, 96.05892
536.0707, 95.62921
536.5529, 95.00921
537.0350, 94.16371
537.5171, 93.35192
537.9992, 92.98579
538.4813, 93.09352
538.9634, 93.53701
539.4456, 95.05705
539.9277, 96.06648
540.4098, 95.27127
540.8919, 93.52458
541.3740, 92.65086
541.8561, 93.71636
542.3383, 95.17725
542.8204, 94.90076
543.3025, 93.10032
543.7846, 91.88338
544.2667, 91.91434
544.7488, 92.38457
545.2310, 92.47929
545.7131, 92.23462
546.1952, 91.87853
546.6773, 91.13253
547.1594, 90.57531
547.6415, 90.71541
548.1237, 91.34368
548.6058, 91.99263
549.0879, 92.48437
549.5700, 92.73320
550.0521, 92.53904
550.5342, 91.61111
551.0164, 91.14421
551.4985, 91.55830
551.9806, 91.93431
552.4627, 91.60933
552.9448, 90.99538
553.4269, 90.97356
553.9091, 91.99458
554.3912, 93.44443
554.8733, 94.30896
555.3554, 94.56181
555.8375, 94.38136
556.3196, 93.32354
556.8018, 92.37379
557.2839, 92.26830
557.7660, 92.75835
558.2481, 93.16248
558.7302, 93.36647
559.2123, 93.23144
559.6945, 92.27631
560.1766, 90.75903
560.6587, 89.90742
561.1408, 90.17672
561.6229, 90.96960
562.1050, 91.68358
562.5872, 92.35418
563.0693, 92.43916
563.5514, 91.16827
564.0335, 90.07887
564.5156, 90.11916
564.9977, 90.86606
565.4799, 91.55521
565.9620, 91.87456
566.4441, 91.91486
566.9262, 91.78728
567.4083, 91.43590
567.8904, 91.14014
568.3726, 90.73064
568.8547, 90.56779
569.3368, 91.00237
569.8189, 91.71011
570.3010, 92.12402
570.7831, 91.99519
571.2653, 91.74969
571.7474, 91.97279
572.2295, 92.58548
572.7116, 92.92641
573.1937, 92.82564
573.6758, 92.59708
574.1580, 92.46188
574.6401, 92.40977
575.1222, 92.40425
575.6043, 92.71910
576.0864, 92.76580
576.5685, 91.88281
577.0507, 90.64696
577.5328, 90.08993
578.0149, 90.44698
578.4970, 91.13469
578.9791, 91.58335
579.4612, 91.79947
579.9434, 91.61525
580.4255, 90.52959
580.9076, 89.62742
581.3897, 89.09624
581.8718, 88.84767
582.3539, 88.93509
582.8361, 89.30214
583.3182, 89.48205
583.8003, 88.65724
584.2824, 87.07464
584.7645, 86.75042
585.2466, 88.16591
585.7288, 89.48214
586.2109, 89.71673
586.6930, 89.34248
587.1751, 88.99486
587.6572, 88.70979
588.1393, 88.48268
588.6215, 88.41288
589.1036, 88.34789
589.5857, 87.94129
590.0678, 87.23495
590.5499, 86.86838
591.0320, 87.34413
591.5142, 88.34183
591.9963, 88.66516
592.4784, 87.71564
592.9605, 86.90135
593.4426, 86.29620
593.9247, 85.78184
594.4069, 85.13498
594.8890, 84.48777
595.3711, 84.28127
595.8532, 84.88731
596.3353, 85.93672
596.8174, 86.58389
597.2996, 86.78603
597.7817, 86.79082
598.2638, 86.49014
598.7459, 86.18246
599.2280, 86.34080
599.7101, 86.80260
600.1923, 86.67525
600.6744, 84.84855
601.1565, 83.03870
601.6386, 82.92210
602.1207, 84.01817
602.6028, 84.91666
603.0850, 85.15038
603.5671, 84.99682
604.0492, 84.76180
604.5313, 84.39490
605.0134, 84.26875
605.4955, 84.83623
605.9777, 85.09238
606.4598, 84.30182
606.9419, 83.19707
607.4240, 82.81429
607.9061, 83.41336
608.3882, 84.28453
608.8704, 84.65485
609.3525, 84.55621
609.8346, 84.38252
610.3167, 84.07571
610.7988, 83.84589
611.2809, 83.74821
611.7631, 83.81767
612.2452, 84.19707
612.7273, 85.01557
613.2094, 85.58776
613.6915, 85.37992
614.1736, 84.87779
614.6558, 84.78593
615.1379, 85.07487
615.6200, 85.09534
616.1021, 84.38821
616.5842, 83.31587
617.0663, 82.94943
617.5485, 84.09279
618.0306, 84.57030
618.5127, 83.68785
618.9948, 82.84554
619.4769, 82.99863
619.9590, 83.83096
620.4412, 84.47035
620.9233, 84.46297
621.4054, 84.13804
621.8875, 83.93253
622.3696, 83.84826
622.8517, 84.10414
