##NAMES=Beryl
##RRUFFID=R040002
##IDEAL CHEMISTRY=Be_3_Al_2_Si_6_O_18_
##LOCALITY=Usakos, Namibia
##OWNER=RRUFF
##SOURCE=University of Arizona Mineral Museum
##DESCRIPTION=Light blue hexagonal prism, variety aquamarine
##STATUS=The identification of this mineral has been confirmed by X-ray diffraction and chemical analysis
##URL=rruff.info/R040002
##MEASURED CHEMISTRY=(Be_0.97_Li_0.03_)_3_(Al_0.97_Fe^3+^_0.03_)_2_Si_6_O_18_Î‡Na_0.01_
126.8254, 234.1616
127.3075, 242.7702
127.7896, 250.4034
128.2718, 254.6463
128.7539, 256.0500
129.2360, 257.4600
129.7181, 262.1807
130.2002, 268.4457
130.6823, 270.0331
131.1645, 264.6180
131.6466, 256.4649
132.1287, 253.9657
132.6108, 257.3012
133.0929, 262.5854
133.5750, 266.8910
134.0572, 270.3101
134.5393, 274.3616
135.0214, 279.3081
135.5035, 285.1821
135.9856, 291.8404
136.4677, 298.8548
136.9499, 307.6784
137.4320, 321.7190
137.9141, 342.4901
138.3962, 359.6917
138.8783, 368.5841
139.3604, 368.0588
139.8426, 372.0881
140.3247, 382.2857
140.8068, 395.5948
141.2889, 405.9126
141.7710, 410.8824
142.2531, 417.6015
142.7353, 429.4382
143.2174, 447.4104
143.6995, 468.3649
144.1816, 496.1970
144.6637, 527.5234
145.1458, 545.2790
145.6280, 546.9811
146.1101, 537.7673
146.5922, 520.0450
147.0743, 485.8448
147.5564, 455.0708
148.0385, 430.7248
148.5207, 413.1350
149.0028, 396.0772
149.4849, 378.0825
149.9670, 361.3748
150.4491, 348.4622
150.9312, 341.9093
151.4134, 336.5521
151.8955, 331.4746
152.3776, 326.3899
152.8597, 322.6573
153.3418, 321.0202
153.8239, 320.7015
154.3060, 320.5317
154.7882, 318.1942
155.2703, 317.7400
155.7524, 321.1567
156.2345, 332.0216
156.7166, 340.7836
157.1987, 345.2808
157.6809, 346.2679
158.1630, 345.8842
158.6451, 341.2146
159.1272, 337.4344
159.6093, 337.6198
160.0914, 347.0268
160.5736, 355.7358
161.0557, 360.9830
161.5378, 362.9026
162.0199, 362.6647
162.5020, 358.2350
162.9841, 352.8545
163.4663, 349.4792
163.9484, 349.7142
164.4305, 351.6758
164.9126, 355.7325
165.3947, 362.0398
165.8768, 366.0609
166.3590, 361.7513
166.8411, 354.2881
167.3232, 351.0066
167.8053, 360.3604
168.2874, 371.8067
168.7695, 376.4287
169.2517, 371.9078
169.7338, 367.2423
170.2159, 370.0944
170.6980, 377.8375
171.1801, 384.4173
171.6622, 387.7326
172.1444, 387.7869
172.6265, 382.9848
173.1086, 369.4942
173.5907, 358.4589
174.0728, 364.1861
174.5549, 383.2431
175.0371, 400.0263
175.5192, 401.5612
176.0013, 394.5891
176.4834, 389.7052
176.9655, 390.2008
177.4476, 393.3422
177.9298, 395.4580
178.4119, 396.7042
178.8940, 399.3232
179.3761, 407.1609
179.8582, 417.9519
180.3403, 426.2505
180.8224, 428.9708
181.3046, 428.4910
181.7867, 428.7599
182.2688, 429.7525
182.7509, 431.7479
183.2330, 437.0596
183.7151, 444.3540
184.1973, 448.2550
184.6794, 445.7349
185.1615, 437.9699
185.6436, 426.3356
186.1257, 409.1390
186.6078, 394.2820
187.0900, 395.6138
187.5721, 411.6600
188.0542, 426.6224
188.5363, 430.4584
189.0184, 425.5942
189.5005, 425.1420
189.9827, 431.6414
190.4648, 439.8307
190.9469, 438.6013
191.4290, 427.6793
191.9111, 417.9615
192.3932, 417.8835
192.8754, 426.5887
193.3575, 433.1428
193.8396, 436.1082
194.3217, 436.2036
194.8038, 434.8810
195.2859, 432.0362
195.7681, 428.4738
196.2502, 424.3005
196.7323, 419.5119
197.2144, 415.6349
197.6965, 412.8648
198.1786, 411.2414
198.6608, 411.5016
199.1429, 414.2951
199.6250, 416.8239
200.1071, 414.9405
200.5892, 407.7513
201.0714, 404.8277
201.5535, 410.5507
202.0356, 423.7241
202.5177, 430.7263
202.9998, 430.3518
203.4819, 426.3440
203.9641, 422.6913
204.4462, 419.1859
204.9283, 416.9570
205.4104, 417.1086
205.8925, 419.8535
206.3746, 419.7062
206.8568, 415.6900
207.3389, 410.1729
207.8210, 406.1547
208.3031, 402.9780
208.7852, 403.4971
209.2673, 410.8801
209.7494, 427.6444
210.2316, 436.1677
210.7137, 433.3900
211.1958, 424.9906
211.6779, 423.2944
212.1600, 431.6604
212.6421, 438.1628
213.1243, 435.7575
213.6064, 420.4497
214.0885, 411.5463
214.5706, 411.1411
215.0527, 416.7773
215.5348, 421.7888
216.0170, 426.2810
216.4991, 429.8615
216.9812, 432.9333
217.4633, 436.9829
217.9454, 435.3338
218.4275, 424.3459
218.9097, 407.3949
219.3918, 398.7848
219.8739, 401.2780
220.3560, 407.8893
220.8381, 415.1668
221.3202, 425.1449
221.8024, 430.1532
222.2845, 427.2404
222.7666, 417.8890
223.2487, 413.5651
223.7308, 416.1980
224.2129, 421.4349
224.6951, 426.5045
225.1772, 432.9237
225.6593, 435.7950
226.1414, 433.1936
226.6235, 425.3919
227.1056, 419.9749
227.5878, 417.5192
228.0699, 416.7404
228.5520, 416.4775
229.0341, 416.6014
229.5162, 417.5721
229.9983, 420.1842
230.4805, 424.6212
230.9626, 425.7762
231.4447, 420.1552
231.9268, 414.4192
232.4089, 416.6025
232.8910, 432.7372
233.3732, 445.7919
233.8553, 451.5888
234.3374, 449.3501
234.8195, 446.1747
235.3016, 441.4590
235.7837, 436.2847
236.2658, 431.7966
236.7480, 427.1417
237.2301, 424.6984
237.7122, 425.7379
238.1943, 431.2393
238.6764, 434.8253
239.1585, 434.8895
239.6407, 434.1105
240.1228, 436.9280
240.6049, 446.6563
241.0870, 454.4932
241.5691, 457.1553
242.0512, 452.6809
242.5334, 450.5303
243.0155, 451.9816
243.4976, 455.0389
243.9797, 456.1554
244.4618, 454.0467
244.9439, 451.9965
245.4261, 450.8194
245.9082, 449.9824
246.3903, 451.8713
246.8724, 458.0685
247.3545, 466.2636
247.8366, 471.7144
248.3188, 472.9837
248.8009, 473.7476
249.2830, 475.3761
249.7651, 478.0975
250.2472, 480.9362
250.7293, 483.2201
251.2115, 485.9181
251.6936, 491.6119
252.1757, 502.5718
252.6578, 512.9962
253.1399, 521.0225
253.6220, 527.4219
254.1042, 529.6027
254.5863, 527.6838
255.0684, 521.5261
255.5505, 509.9112
256.0326, 489.3188
256.5147, 468.9699
256.9969, 452.5251
257.4790, 440.3315
257.9611, 431.0588
258.4432, 424.8110
258.9253, 421.3329
259.4074, 420.1831
259.8896, 422.1174
260.3717, 424.9913
260.8538, 428.1068
261.3359, 432.1440
261.8180, 434.2069
262.3001, 433.4213
262.7823, 430.8195
263.2644, 429.3999
263.7465, 429.0800
264.2286, 430.1456
264.7107, 433.4217
265.1928, 440.3533
265.6750, 444.3300
266.1571, 444.2749
266.6392, 441.3121
267.1213, 438.7438
267.6034, 436.5888
268.0855, 434.8524
268.5677, 433.4401
269.0498, 432.2158
269.5319, 431.9078
270.0140, 432.4333
270.4961, 433.9813
270.9782, 438.4596
271.4604, 448.2287
271.9425, 454.5513
272.4246, 450.0060
272.9067, 431.9538
273.3888, 418.8188
273.8709, 412.3638
274.3531, 411.7207
274.8352, 415.4903
275.3173, 424.9370
275.7994, 434.4153
276.2815, 440.0538
276.7636, 441.4179
277.2457, 442.6950
277.7278, 443.7317
278.2100, 445.3402
278.6921, 451.1546
279.1742, 462.4337
279.6563, 471.7183
280.1384, 471.9961
280.6205, 462.9744
281.1027, 458.9807
281.5848, 462.6930
282.0669, 471.3147
282.5490, 479.3337
283.0311, 487.1706
283.5132, 491.1802
283.9954, 485.7987
284.4775, 471.5746
284.9596, 464.3185
285.4417, 466.9708
285.9238, 475.9518
286.4059, 484.2522
286.8881, 491.8063
287.3702, 498.6533
287.8523, 505.0076
288.3344, 510.7888
288.8165, 515.5387
289.2986, 519.8480
289.7808, 522.1206
290.2629, 516.3549
290.7450, 502.9049
291.2271, 493.0962
291.7092, 497.6179
292.1913, 512.8662
292.6735, 523.0649
293.1556, 524.6156
293.6377, 523.4241
294.1198, 528.5406
294.6019, 539.6315
295.0840, 552.7908
295.5662, 567.6486
296.0483, 582.9438
296.5304, 595.8024
297.0125, 606.8921
297.4946, 612.8903
297.9767, 606.1845
298.4589, 588.8271
298.9410, 571.1033
299.4231, 559.7271
299.9052, 552.2600
300.3873, 543.7195
300.8694, 532.6080
301.3516, 523.1262
301.8337, 521.8109
302.3158, 526.5809
302.7979, 530.0877
303.2800, 523.7895
303.7621, 515.2293
304.2443, 516.3879
304.7264, 530.8374
305.2085, 546.5056
305.6906, 552.6823
306.1727, 551.6199
306.6548, 549.0709
307.1370, 544.7825
307.6191, 542.1105
308.1012, 545.1602
308.5833, 554.9444
309.0654, 567.0856
309.5475, 579.0266
310.0297, 590.9014
310.5118, 603.1511
310.9939, 615.9068
311.4760, 628.9797
311.9581, 641.7762
312.4402, 653.8402
312.9224, 668.1823
313.4045, 687.9858
313.8866, 711.0571
314.3687, 733.8107
314.8508, 753.4813
315.3329, 773.5072
315.8151, 793.3236
316.2972, 812.2546
316.7793, 840.4534
317.2614, 885.7869
317.7435, 941.8360
318.2256, 1000.971
318.7078, 1058.561
319.1899, 1120.882
319.6720, 1195.786
320.1541, 1284.642
320.6362, 1361.627
321.1183, 1433.119
321.6005, 1482.151
322.0826, 1492.034
322.5647, 1448.260
323.0468, 1375.689
323.5289, 1267.195
324.0110, 1121.810
324.4932, 992.8041
324.9753, 897.6213
325.4574, 819.0718
325.9395, 744.8818
326.4216, 661.9213
326.9037, 596.5266
327.3859, 558.0250
327.8680, 545.6072
328.3501, 530.9631
328.8322, 509.1647
329.3143, 488.6697
329.7964, 474.6382
330.2786, 470.7480
330.7607, 468.1953
331.2428, 467.0346
331.7249, 466.9593
332.2070, 465.9207
332.6891, 462.9830
333.1712, 460.1530
333.6534, 458.9956
334.1355, 461.8792
334.6176, 460.6731
335.0997, 451.8046
335.5818, 439.0898
336.0639, 435.9231
336.5461, 447.2467
337.0282, 458.5888
337.5103, 461.9984
337.9924, 455.0872
338.4745, 450.5191
338.9566, 448.9846
339.4388, 449.8035
339.9209, 452.8704
340.4030, 459.5478
340.8851, 462.5540
341.3672, 455.9382
341.8493, 439.1921
342.3315, 428.4395
342.8136, 423.9061
343.2957, 425.1671
343.7778, 434.5172
344.2599, 452.1671
344.7420, 466.4421
345.2242, 469.8267
345.7063, 464.5594
346.1884, 463.3412
346.6705, 466.9094
347.1526, 470.7747
347.6347, 469.0733
348.1169, 462.5921
348.5990, 455.4353
349.0811, 446.8091
349.5632, 439.4054
350.0453, 441.0904
350.5274, 452.1335
351.0096, 463.1451
351.4917, 464.0339
351.9738, 458.4251
352.4559, 455.0526
352.9380, 458.4562
353.4201, 464.0450
353.9023, 466.1615
354.3844, 465.1578
354.8665, 464.0044
355.3486, 464.2101
355.8307, 465.6920
356.3128, 468.6978
356.7950, 475.1396
357.2771, 480.4822
357.7592, 479.7590
358.2413, 474.6210
358.7234, 471.1347
359.2055, 474.2841
359.6877, 479.3422
360.1698, 482.3687
360.6519, 481.3853
361.1340, 480.7675
361.6161, 484.9258
362.0982, 490.8240
362.5804, 491.9312
363.0625, 478.9959
363.5446, 466.1987
364.0267, 461.4093
364.5088, 468.7392
364.9909, 474.3638
365.4731, 473.9030
365.9552, 470.4399
366.4373, 468.3597
366.9194, 468.0106
367.4015, 469.4111
367.8836, 473.7564
368.3658, 482.5603
368.8479, 487.0614
369.3300, 482.5837
369.8121, 476.1507
370.2942, 474.7704
370.7763, 483.9924
371.2585, 490.2615
371.7406, 489.5542
372.2227, 482.2031
372.7048, 480.4382
373.1869, 486.3734
373.6690, 495.2360
374.1512, 504.0903
374.6333, 513.7789
375.1154, 520.6763
375.5975, 522.9299
376.0796, 522.4559
376.5617, 526.9364
377.0439, 537.2295
377.5260, 549.5742
378.0081, 560.8493
378.4902, 570.8904
378.9723, 585.5753
379.4544, 606.6246
379.9366, 630.6630
380.4187, 654.3100
380.9008, 677.5828
381.3829, 693.4634
381.8650, 693.8528
382.3471, 682.8702
382.8293, 679.0107
383.3114, 683.9421
383.7935, 690.5757
384.2756, 686.7749
384.7577, 676.2612
385.2398, 673.8055
385.7219, 688.3016
386.2040, 713.3829
386.6862, 738.8068
387.1683, 764.8177
387.6504, 795.7070
388.1325, 839.0771
388.6146, 889.1691
389.0967, 934.9615
389.5789, 965.9457
390.0610, 999.4324
390.5431, 1048.669
391.0252, 1112.041
391.5073, 1181.548
391.9894, 1252.616
392.4716, 1329.342
392.9537, 1416.925
393.4358, 1529.219
393.9179, 1629.678
394.4000, 1713.167
394.8821, 1775.388
395.3643, 1807.730
395.8464, 1806.262
396.3285, 1775.414
396.8106, 1714.102
397.2927, 1615.139
397.7748, 1507.265
398.2570, 1380.599
398.7391, 1250.860
399.2212, 1138.799
399.7033, 1051.969
400.1854, 974.7651
400.6675, 903.5331
401.1497, 838.5261
401.6318, 785.7937
402.1139, 749.9485
402.5960, 721.7332
403.0781, 693.0833
403.5602, 660.9217
404.0424, 636.2938
404.5245, 622.3052
405.0066, 616.8724
405.4887, 610.9565
405.9708, 604.6553
406.4529, 597.5040
406.9351, 588.4936
407.4172, 577.4588
407.8993, 567.7410
408.3814, 558.8613
408.8635, 552.6561
409.3456, 555.2274
409.8278, 566.1477
410.3099, 573.2130
410.7920, 566.3092
411.2741, 550.6909
411.7562, 542.7787
412.2383, 543.2658
412.7205, 548.4509
413.2026, 558.2687
413.6847, 570.1019
414.1668, 576.9513
414.6489, 573.3340
415.1310, 565.7989
415.6132, 560.1535
416.0953, 556.5336
416.5774, 556.3203
417.0595, 561.8604
417.5416, 570.5275
418.0237, 579.5830
418.5059, 587.6099
418.9880, 597.0629
419.4701, 612.4208
419.9522, 630.4691
420.4343, 642.7300
420.9164, 642.8013
421.3986, 638.9753
421.8807, 635.1335
422.3628, 631.9554
422.8449, 628.0677
423.3270, 623.8994
423.8091, 618.7256
424.2913, 611.5281
424.7734, 598.4744
425.2555, 587.5590
425.7376, 581.2258
426.2197, 579.6026
426.7018, 575.9810
427.1840, 569.2399
427.6661, 561.5955
428.1482, 554.2311
428.6303, 545.8905
429.1124, 541.1688
429.5945, 541.7390
430.0767, 545.5920
430.5588, 546.8340
431.0409, 545.1385
431.5230, 542.0158
432.0051, 536.6921
432.4872, 529.2905
432.9694, 527.2247
433.4515, 531.1143
433.9336, 538.9545
434.4157, 550.8152
434.8978, 565.6505
435.3799, 575.4820
435.8621, 573.4557
436.3442, 565.7681
436.8263, 564.6354
437.3084, 569.9141
437.7905, 578.6777
438.2726, 589.1665
438.7548, 601.4575
439.2369, 616.0709
439.7190, 634.9270
440.2011, 653.3471
440.6832, 665.1277
441.1653, 672.9536
441.6474, 684.3257
442.1295, 706.1013
442.6117, 730.3752
443.0938, 752.4047
443.5759, 771.6281
444.0580, 788.5089
444.5401, 803.8089
445.0222, 816.4034
445.5044, 824.7012
445.9865, 821.1703
446.4686, 820.7848
446.9507, 827.1069
447.4328, 840.3197
447.9149, 856.8630
448.3971, 883.4904
448.8792, 907.4113
449.3613, 921.7826
449.8434, 927.5960
450.3255, 920.8888
450.8076, 898.0601
451.2898, 864.2397
451.7719, 832.4037
452.2540, 803.4658
452.7361, 774.0494
453.2182, 739.7882
453.7003, 701.2036
454.1825, 674.1574
454.6646, 660.3708
455.1467, 652.6000
455.6288, 643.4139
456.1109, 633.0550
456.5930, 623.3303
457.0752, 615.3550
457.5573, 608.0684
458.0394, 599.3288
458.5215, 589.3420
459.0036, 580.4619
459.4857, 575.0194
459.9679, 571.3851
460.4500, 567.6841
460.9321, 563.7079
461.4142, 559.0878
461.8963, 551.7867
462.3784, 543.7617
462.8606, 538.6360
463.3427, 541.5842
463.8248, 544.6163
464.3069, 543.1945
464.7890, 536.8546
465.2711, 530.7730
465.7533, 524.3122
466.2354, 519.6971
466.7175, 518.7142
467.1996, 525.9650
467.6817, 531.5602
468.1638, 535.0871
468.6460, 536.4914
469.1281, 535.2654
469.6102, 528.1483
470.0923, 523.3634
470.5744, 525.3705
471.0565, 536.3168
471.5387, 542.3262
472.0208, 542.1344
472.5029, 539.1320
472.9850, 537.9299
473.4671, 538.7491
473.9492, 537.1733
474.4314, 529.9763
474.9135, 520.7259
475.3956, 521.0598
475.8777, 530.8846
476.3598, 541.1376
476.8419, 545.4969
477.3241, 545.2596
477.8062, 542.1980
478.2883, 535.5866
478.7704, 529.8586
479.2525, 530.9468
479.7346, 536.1257
480.2168, 539.5601
480.6989, 536.6427
481.1810, 532.6284
481.6631, 531.3411
482.1452, 532.8223
482.6273, 533.5312
483.1095, 529.3659
483.5916, 525.2958
484.0737, 525.2762
484.5558, 537.1662
485.0379, 544.1653
485.5201, 540.1162
486.0022, 529.4269
486.4843, 523.8104
486.9664, 523.9751
487.4485, 528.5681
487.9306, 539.3745
488.4128, 558.3721
488.8949, 567.8960
489.3770, 565.1849
489.8591, 557.6625
490.3412, 553.4025
490.8233, 553.2034
491.3055, 548.8281
491.7876, 536.8191
492.2697, 521.6360
492.7518, 514.4213
493.2339, 515.0975
493.7160, 518.0998
494.1982, 520.5783
494.6803, 522.7934
495.1624, 525.7292
495.6445, 529.6972
496.1266, 532.5978
496.6087, 529.7787
497.0908, 525.0537
497.5729, 525.0335
498.0551, 539.4178
498.5372, 552.7799
499.0193, 551.4232
499.5014, 538.9044
499.9835, 531.8234
500.4656, 542.2440
500.9478, 556.0230
501.4299, 565.5795
501.9120, 569.4552
502.3941, 570.0336
502.8762, 563.2285
503.3583, 554.7716
503.8405, 552.3775
504.3226, 561.5737
504.8047, 568.3430
505.2868, 569.2675
505.7689, 565.1722
506.2510, 562.7318
506.7332, 561.7296
507.2153, 562.9698
507.6974, 568.1117
508.1795, 577.2197
508.6616, 583.9776
509.1437, 587.6673
509.6259, 589.6067
510.1080, 591.3615
510.5901, 592.9622
511.0722, 594.4813
511.5543, 594.5645
512.0364, 595.4158
512.5186, 600.9075
513.0007, 610.7327
513.4828, 621.7425
513.9649, 634.4606
514.4470, 645.9697
514.9291, 652.2863
515.4113, 650.1025
515.8934, 649.3208
516.3755, 654.6757
516.8576, 664.4377
517.3397, 675.9291
517.8218, 688.8629
518.3040, 703.0479
518.7861, 719.9599
519.2682, 739.7759
519.7503, 754.5779
520.2324, 759.4587
520.7145, 764.4677
521.1967, 775.3561
521.6788, 793.6111
522.1609, 813.6437
522.6430, 835.2744
523.1251, 858.7487
523.6072, 885.2932
524.0894, 915.2225
524.5715, 943.0519
525.0536, 966.3684
525.5357, 986.1847
526.0178, 1007.550
526.4999, 1030.501
526.9821, 1049.806
527.4642, 1061.069
527.9463, 1066.056
528.4284, 1068.796
528.9105, 1071.611
529.3926, 1066.551
529.8748, 1043.085
530.3569, 1007.786
530.8390, 972.3378
531.3211, 939.4611
531.8032, 909.3177
532.2853, 881.4786
532.7675, 855.9372
533.2496, 834.0668
533.7317, 821.1500
534.2138, 808.0530
534.6959, 789.5077
535.1780, 763.7124
535.6602, 735.4136
536.1423, 698.4056
536.6244, 662.9941
537.1065, 645.7352
537.5886, 652.0307
538.0707, 658.4727
538.5529, 659.7458
539.0350, 656.4259
539.5171, 651.1356
539.9992, 643.9013
540.4813, 634.0955
540.9634, 618.4370
541.4456, 599.7393
541.9277, 586.8392
542.4098, 580.9454
542.8919, 578.8495
543.3740, 579.4332
543.8561, 581.3613
544.3383, 582.2772
544.8204, 581.0122
545.3025, 578.7119
545.7846, 576.0119
546.2667, 572.8499
546.7488, 568.9326
547.2310, 560.0677
547.7131, 553.8162
548.1952, 555.6400
548.6773, 571.9210
549.1594, 578.2500
549.6415, 566.5247
550.1237, 550.0150
550.6058, 542.3106
551.0879, 547.8626
551.5700, 550.5319
552.0521, 546.8016
552.5342, 539.3987
553.0164, 536.5731
553.4985, 538.7264
553.9806, 541.5696
554.4627, 542.3921
554.9448, 542.0260
555.4269, 543.9802
555.9091, 548.3831
556.3912, 553.3367
556.8733, 558.6611
557.3554, 562.9849
557.8375, 563.7255
558.3196, 559.0207
558.8018, 552.8323
559.2839, 545.8375
559.7660, 539.4195
560.2481, 536.3112
560.7302, 539.9699
561.2123, 544.8107
561.6945, 549.7410
562.1766, 554.7795
562.6587, 556.0134
563.1408, 547.7780
563.6229, 540.6258
564.1050, 541.2920
564.5872, 554.8138
565.0693, 562.8351
565.5514, 563.6844
566.0335, 560.5069
566.5156, 557.5427
566.9977, 554.6971
567.4799, 554.1801
567.9620, 558.3184
568.4441, 564.2054
568.9262, 563.9174
569.4083, 557.9053
569.8904, 551.0865
570.3726, 545.0313
570.8547, 540.8839
571.3368, 540.7353
571.8189, 545.2660
572.3010, 549.9871
572.7831, 550.9288
573.2653, 550.9554
573.7474, 553.2354
574.2295, 561.2706
574.7116, 568.7597
575.1937, 574.4978
575.6758, 578.6646
576.1580, 581.6432
576.6401, 582.3693
577.1222, 583.4383
577.6042, 586.0934
578.0864, 590.5449
578.5685, 592.4197
579.0506, 590.9694
579.5327, 588.9845
580.0148, 589.5120
580.4969, 592.2824
580.9791, 591.8658
581.4612, 586.8122
581.9433, 580.8289
582.4254, 577.7040
582.9075, 577.7780
583.3896, 582.2727
583.8718, 599.3480
584.3539, 615.0740
584.8360, 614.4408
585.3181, 600.2988
585.8002, 587.2064
586.2823, 581.4320
586.7645, 579.4042
587.2466, 579.8702
587.7287, 583.9570
588.2108, 585.9435
588.6929, 585.7372
589.1750, 582.7815
589.6572, 575.3550
590.1393, 557.1025
590.6214, 549.2450
591.1035, 557.6386
591.5856, 574.8555
592.0677, 582.0025
592.5499, 578.0708
593.0320, 574.8026
593.5141, 579.9512
593.9962, 589.1679
594.4783, 586.1898
594.9604, 571.4560
595.4426, 558.3899
595.9247, 559.1597
596.4068, 566.8611
596.8889, 572.7925
597.3710, 575.6282
597.8531, 576.2301
598.3353, 572.6366
598.8174, 568.0038
599.2995, 566.2399
599.7816, 574.1012
600.2637, 578.4953
600.7458, 574.6080
601.2280, 564.7169
601.7101, 557.2420
602.1922, 552.6006
602.6743, 549.6699
603.1564, 547.8875
603.6385, 547.2453
604.1207, 550.2979
604.6028, 558.0704
605.0849, 565.2131
605.5670, 565.7469
606.0491, 561.1952
606.5313, 557.8784
607.0134, 556.2328
607.4955, 557.4843
607.9776, 566.6984
608.4597, 579.4132
608.9418, 587.1063
609.4240, 580.0330
609.9061, 572.6368
610.3882, 574.7484
610.8703, 583.7416
611.3524, 589.3999
611.8345, 585.0632
612.3167, 580.4295
612.7988, 579.9688
613.2809, 584.5332
613.7630, 587.3854
614.2451, 586.3200
614.7272, 586.6756
615.2094, 594.0624
615.6915, 609.7150
616.1736, 621.4079
616.6557, 627.6974
617.1378, 630.3503
617.6199, 631.5771
618.1021, 631.4003
618.5842, 629.5408
619.0663, 622.0256
619.5484, 616.6310
620.0305, 626.2703
620.5126, 647.1243
620.9948, 664.2990
621.4769, 666.0244
621.9590, 664.5350
622.4411, 667.3180
