##NAMES=Beryl
##RRUFFID=R050368
##IDEAL CHEMISTRY=Be_3_Al_2_Si_6_O_18_
##LOCALITY=Wah Wah Mountains, Utah, USA
##OWNER=RRUFF
##SOURCE=Eugene Schlepp
##DESCRIPTION=Red-violet hexagonal prism
##STATUS=The identification of this mineral has been confirmed by X-ray diffraction and chemical analysis
##URL=rruff.info/R050368
##MEASURED CHEMISTRY=(Be_0.99_Li_0.01_)_3_(Al_0.95_Fe^3+^_0.05_)_2_Si_6.00_O_18_Î‡K_0.02_Na_0.01_
93.48767, 321.6630
93.96979, 328.4362
94.45190, 336.2597
94.93402, 345.2225
95.41614, 349.1159
95.89825, 347.8410
96.38037, 343.5779
96.86249, 337.3914
97.34460, 332.8421
97.82672, 332.9116
98.30884, 331.4300
98.79095, 326.5870
99.27307, 319.1189
99.75519, 311.2052
100.2373, 305.0163
100.7194, 300.6216
101.2015, 296.7151
101.6837, 293.3408
102.1658, 290.1927
102.6479, 286.9780
103.1300, 283.6334
103.6121, 280.5041
104.0942, 278.1382
104.5764, 276.1030
105.0585, 273.7721
105.5406, 270.4271
106.0227, 266.5378
106.5048, 263.7410
106.9869, 262.9586
107.4691, 261.8055
107.9512, 259.0110
108.4333, 254.9400
108.9154, 250.5579
109.3975, 246.5100
109.8796, 242.7396
110.3617, 239.6049
110.8439, 237.1969
111.3260, 235.2895
111.8081, 234.0620
112.2902, 233.4058
112.7723, 232.8647
113.2544, 231.7552
113.7366, 229.3754
114.2187, 227.7682
114.7008, 227.5050
115.1829, 227.6497
115.6650, 227.2654
116.1471, 226.0075
116.6293, 224.3813
117.1114, 223.6390
117.5935, 224.2139
118.0756, 224.6991
118.5577, 224.6061
119.0398, 224.1640
119.5220, 223.9865
120.0041, 224.5310
120.4862, 225.3319
120.9683, 225.3077
121.4504, 223.9014
121.9325, 222.6066
122.4147, 223.0347
122.8968, 225.3757
123.3789, 227.1082
123.8610, 226.2503
124.3431, 224.3279
124.8252, 222.6493
125.3074, 221.5749
125.7895, 221.0087
126.2716, 220.7996
126.7537, 221.1130
127.2358, 221.5208
127.7179, 222.0212
128.2001, 222.4866
128.6822, 222.7416
129.1643, 222.6497
129.6464, 222.2417
130.1285, 221.9114
130.6106, 221.2156
131.0928, 221.0477
131.5749, 222.0199
132.0570, 223.7583
132.5391, 225.4239
133.0212, 226.2316
133.5033, 225.9924
133.9855, 226.2085
134.4676, 227.0803
134.9497, 228.1418
135.4318, 229.2033
135.9139, 230.2188
136.3960, 231.1619
136.8782, 231.9511
137.3603, 232.5255
137.8424, 233.3391
138.3245, 235.5767
138.8066, 237.6214
139.2887, 237.5442
139.7709, 234.8560
140.2530, 230.3011
140.7351, 224.2229
141.2172, 216.8283
141.6993, 209.3387
142.1814, 201.8524
142.6636, 194.6261
143.1457, 188.6122
143.6278, 184.4591
144.1099, 181.2706
144.5920, 178.2533
145.0741, 175.3929
145.5563, 172.5454
146.0384, 169.5438
146.5205, 166.3606
147.0026, 163.3124
147.4847, 160.3299
147.9668, 157.5853
148.4490, 155.2536
148.9311, 153.3629
149.4132, 151.6971
149.8953, 149.8640
150.3774, 147.4283
150.8595, 145.7711
151.3417, 145.3138
151.8238, 145.3380
152.3059, 145.3774
152.7880, 145.2393
153.2701, 144.9057
153.7522, 144.3303
154.2344, 143.3109
154.7165, 142.2476
155.1986, 141.0387
155.6807, 139.8207
156.1628, 138.7773
156.6449, 138.0125
157.1271, 137.4566
157.6092, 136.8326
158.0913, 136.0034
158.5734, 135.2655
159.0555, 134.4798
159.5376, 133.8150
160.0198, 133.7982
160.5019, 134.9224
160.9840, 136.8249
161.4661, 138.0732
161.9482, 138.3498
162.4303, 138.3505
162.9125, 138.5688
163.3946, 138.9892
163.8767, 139.2125
164.3588, 138.8289
164.8409, 138.1364
165.3230, 137.6696
165.8052, 137.7438
166.2873, 137.8719
166.7694, 137.1333
167.2515, 135.0605
167.7336, 133.7460
168.2157, 134.9416
168.6979, 137.2398
169.1800, 139.0477
169.6621, 139.6176
170.1442, 139.3189
170.6263, 139.2089
171.1084, 139.5319
171.5906, 139.6406
172.0727, 139.1366
172.5548, 138.3593
173.0369, 137.8103
173.5190, 137.8504
174.0011, 138.3790
174.4833, 138.5442
174.9654, 137.7632
175.4475, 137.1793
175.9296, 136.9637
176.4117, 137.1250
176.8938, 137.6915
177.3760, 138.7560
177.8581, 140.3470
178.3402, 141.2936
178.8223, 140.7506
179.3044, 140.4588
179.7865, 141.5116
180.2687, 143.4735
180.7508, 144.9084
181.2329, 144.4381
181.7150, 141.8071
182.1971, 140.5552
182.6792, 141.4620
183.1614, 142.8700
183.6435, 144.0817
184.1256, 144.9740
184.6077, 145.4710
185.0898, 145.5330
185.5719, 145.0807
186.0540, 144.0266
186.5362, 141.3791
187.0183, 138.6958
187.5004, 137.7184
187.9825, 138.7045
188.4646, 139.9244
188.9467, 139.5391
189.4289, 137.9706
189.9110, 136.9365
190.3931, 137.1806
190.8752, 138.0762
191.3573, 138.7574
191.8394, 139.2388
192.3216, 139.2735
192.8037, 138.3254
193.2858, 136.7803
193.7679, 135.5094
194.2500, 134.9268
194.7321, 134.9226
195.2143, 135.2197
195.6964, 136.1395
196.1785, 136.8350
196.6606, 136.8449
197.1427, 136.3278
197.6248, 135.6219
198.1070, 134.9060
198.5891, 134.1785
199.0712, 133.4315
199.5533, 132.7466
200.0354, 131.9337
200.5175, 130.6631
200.9997, 129.1944
201.4818, 128.0963
201.9639, 127.9043
202.4460, 128.6439
202.9281, 129.1988
203.4102, 129.6275
203.8924, 129.7905
204.3745, 129.5220
204.8566, 128.9236
205.3387, 128.2243
205.8208, 127.6005
206.3029, 127.0379
206.7851, 126.6835
207.2672, 126.8708
207.7493, 126.9353
208.2314, 126.3679
208.7135, 125.3686
209.1956, 124.6308
209.6778, 124.8482
210.1599, 126.2127
210.6420, 127.0233
211.1241, 127.2783
211.6062, 127.1099
212.0883, 126.3416
212.5705, 125.1120
213.0526, 123.9303
213.5347, 123.2543
214.0168, 123.1584
214.4989, 123.0684
214.9810, 122.5152
215.4632, 122.3174
215.9453, 123.4228
216.4274, 125.7409
216.9095, 127.8271
217.3916, 128.3551
217.8737, 127.2462
218.3559, 126.3775
218.8380, 125.2927
219.3201, 124.7654
219.8022, 126.0632
220.2843, 129.2755
220.7664, 131.9809
221.2486, 131.7246
221.7307, 129.1888
222.2128, 127.4021
222.6949, 127.0497
223.1770, 127.5048
223.6591, 128.1529
224.1413, 128.9849
224.6234, 129.9416
225.1055, 131.2604
225.5876, 132.6535
226.0697, 133.5223
226.5518, 133.3584
227.0340, 132.7625
227.5161, 132.6241
227.9982, 133.0343
228.4803, 133.5899
228.9624, 133.9730
229.4445, 134.3659
229.9267, 135.0454
230.4088, 136.1389
230.8909, 137.5464
231.3730, 139.1541
231.8551, 141.1300
232.3372, 142.8621
232.8194, 143.8015
233.3015, 144.4814
233.7836, 145.6396
234.2657, 147.7774
234.7478, 150.2518
235.2299, 151.5251
235.7121, 151.0495
236.1942, 150.4276
236.6763, 149.9270
237.1584, 149.6299
237.6405, 149.6703
238.1227, 150.1347
238.6048, 150.8630
239.0869, 151.4639
239.5690, 151.9591
240.0511, 152.2653
240.5332, 152.4525
241.0154, 152.4457
241.4975, 152.0484
241.9796, 151.1679
242.4617, 150.1176
242.9438, 149.6855
243.4259, 150.0623
243.9081, 150.8505
244.3902, 152.1701
244.8723, 153.7424
245.3544, 155.2638
245.8365, 156.6289
246.3186, 158.0093
246.8007, 159.8363
247.2829, 162.5183
247.7650, 165.0761
248.2471, 166.9680
248.7292, 168.9666
249.2113, 171.9027
249.6934, 176.0300
250.1756, 180.8153
250.6577, 185.2808
251.1398, 190.0813
251.6219, 193.3806
252.1040, 196.3198
252.5861, 197.2357
253.0683, 194.0824
253.5504, 186.4307
254.0325, 176.1459
254.5146, 166.1379
254.9967, 156.0247
255.4788, 147.2195
255.9610, 139.5758
256.4431, 133.3268
256.9252, 128.8985
257.4073, 126.3280
257.8894, 124.9137
258.3716, 123.7763
258.8537, 123.0679
259.3358, 122.2692
259.8179, 121.3408
260.3000, 120.3439
260.7821, 119.2019
261.2643, 117.9287
261.7464, 116.8718
262.2285, 116.4476
262.7106, 116.8234
263.1927, 117.1574
263.6748, 117.7008
264.1570, 118.0290
264.6391, 117.4962
265.1212, 116.1037
265.6033, 114.8849
266.0854, 114.8915
266.5675, 116.2129
267.0497, 117.3204
267.5318, 118.3818
268.0139, 119.0759
268.4960, 118.9041
268.9781, 117.8966
269.4602, 116.9216
269.9424, 116.5622
270.4245, 116.8491
270.9066, 117.4741
271.3887, 118.7546
271.8708, 120.1321
272.3529, 121.3080
272.8351, 122.2618
273.3172, 122.8131
273.7993, 122.7894
274.2814, 122.2482
274.7635, 121.5429
275.2456, 120.4256
275.7278, 119.4327
276.2099, 118.9629
276.6920, 118.9798
277.1741, 119.2325
277.6562, 119.8171
278.1383, 120.4149
278.6204, 120.3768
279.1025, 119.3762
279.5847, 118.4438
280.0668, 118.2055
280.5489, 118.6145
281.0310, 119.4494
281.5131, 120.8206
281.9952, 122.4124
282.4774, 123.8442
282.9595, 125.1563
283.4416, 126.0982
283.9237, 126.4771
284.4058, 126.3482
284.8879, 125.8615
285.3701, 124.7886
285.8522, 123.7357
286.3343, 123.3786
286.8164, 123.6812
287.2985, 124.0528
287.7806, 124.1424
288.2628, 124.0497
288.7449, 124.1332
289.2270, 124.5527
289.7091, 124.9503
290.1912, 124.9265
290.6733, 124.6060
291.1555, 124.4476
291.6376, 124.7715
292.1197, 125.3979
292.6018, 125.8201
293.0839, 125.8063
293.5660, 126.0999
294.0482, 127.5030
294.5303, 129.5159
295.0124, 131.2351
295.4945, 131.9341
295.9766, 132.3242
296.4587, 133.9297
296.9409, 137.2187
297.4230, 140.1167
297.9051, 141.0665
298.3872, 141.1638
298.8693, 141.5632
299.3514, 142.4514
299.8336, 144.0113
300.3157, 146.6868
300.7978, 150.6709
301.2799, 154.7115
301.7620, 158.5107
302.2441, 162.0637
302.7263, 165.3142
303.2084, 168.2250
303.6905, 171.0143
304.1726, 173.9111
304.6547, 176.9132
305.1368, 179.9534
305.6190, 183.2780
306.1011, 186.4192
306.5832, 188.9646
307.0653, 190.8998
307.5474, 192.6121
308.0295, 193.9673
308.5117, 195.0855
308.9938, 197.6002
309.4759, 202.5083
309.9580, 208.0061
310.4401, 212.7206
310.9222, 216.8610
311.4044, 221.3131
311.8865, 226.7208
312.3686, 232.8958
312.8507, 239.0026
313.3328, 244.5628
313.8149, 250.9302
314.2971, 258.7810
314.7792, 267.8718
315.2613, 277.8810
315.7434, 288.8494
316.2255, 300.5780
316.7076, 312.3032
317.1898, 323.4250
317.6719, 336.5977
318.1540, 355.0692
318.6361, 375.3830
319.1182, 394.1914
319.6003, 410.9075
320.0825, 424.9445
320.5646, 436.7631
321.0467, 447.2157
321.5288, 450.0178
322.0109, 441.6281
322.4930, 425.0146
322.9752, 400.4579
323.4573, 367.9326
323.9394, 332.5244
324.4215, 297.2957
324.9036, 262.5091
325.3857, 231.5764
325.8679, 205.1694
326.3500, 183.4417
326.8321, 166.6705
327.3142, 154.4306
327.7963, 144.6086
328.2784, 136.1299
328.7606, 128.9915
329.2427, 123.1557
329.7248, 118.8919
330.2069, 115.5760
330.6890, 113.0947
331.1711, 111.1624
331.6533, 109.1485
332.1354, 106.4878
332.6175, 103.7100
333.0996, 102.0733
333.5817, 101.9508
334.0638, 101.7391
334.5460, 100.4292
335.0281, 98.64964
335.5102, 96.99658
335.9923, 95.49490
336.4744, 94.43326
336.9565, 94.40576
337.4387, 95.49411
337.9208, 96.20045
338.4029, 95.61503
338.8850, 94.73269
339.3671, 94.63235
339.8492, 95.45271
340.3314, 96.24741
340.8135, 96.22290
341.2956, 95.50713
341.7777, 94.88921
342.2598, 94.49388
342.7419, 94.25758
343.2241, 94.15881
343.7062, 94.17072
344.1883, 94.16187
344.6704, 94.06694
345.1525, 93.90827
345.6346, 93.68419
346.1168, 93.32950
346.5989, 93.12008
347.0810, 93.48452
347.5631, 94.11785
348.0452, 94.48013
348.5273, 94.38959
349.0095, 94.01134
349.4916, 93.36989
349.9737, 92.45561
350.4558, 91.84824
350.9379, 91.98689
351.4200, 92.51260
351.9022, 92.77419
352.3843, 92.60095
352.8664, 92.56007
353.3485, 93.39746
353.8306, 94.77675
354.3127, 95.22118
354.7949, 93.95653
355.2770, 92.22919
355.7591, 91.58755
356.2412, 91.97781
356.7233, 92.70827
357.2054, 93.78972
357.6876, 94.97691
358.1697, 95.90401
358.6518, 96.52542
359.1339, 96.87059
359.6160, 96.78283
360.0981, 96.37902
360.5803, 96.29859
361.0624, 96.83886
361.5445, 97.56499
362.0266, 98.10763
362.5087, 98.49013
362.9908, 98.94411
363.4730, 99.60727
363.9551, 100.4304
364.4372, 101.2809
364.9193, 102.3367
365.4014, 103.1289
365.8835, 103.2008
366.3657, 102.8946
366.8478, 102.8785
367.3299, 103.3649
367.8120, 104.2460
368.2941, 105.4756
368.7762, 107.1925
369.2584, 108.6186
369.7405, 109.2644
370.2226, 109.7894
370.7047, 110.7920
371.1868, 112.3633
371.6689, 114.3149
372.1511, 116.5034
372.6332, 118.9508
373.1153, 121.6562
373.5974, 124.9284
374.0795, 128.1526
374.5616, 130.5918
375.0438, 132.7207
375.5259, 135.9037
376.0080, 140.9833
376.4901, 147.3532
376.9722, 152.8455
377.4543, 156.3888
377.9365, 160.4344
378.4186, 165.5154
378.9007, 171.0962
379.3828, 176.7904
379.8649, 182.4303
380.3470, 187.6273
380.8292, 191.8253
381.3113, 194.8471
381.7934, 197.2853
382.2755, 198.9112
382.7576, 200.2418
383.2397, 201.2957
383.7219, 202.2712
384.2040, 203.4818
384.6861, 205.0577
385.1682, 207.0747
385.6503, 210.7680
386.1324, 217.7077
386.6146, 224.6687
387.0967, 230.3533
387.5788, 235.9629
388.0609, 243.0534
388.5430, 252.2669
389.0251, 263.1523
389.5073, 274.9580
389.9894, 288.0391
390.4715, 301.4039
390.9536, 314.4335
391.4357, 328.0826
391.9178, 344.1003
392.4000, 361.9186
392.8821, 378.6758
393.3642, 392.0287
393.8463, 402.0064
394.3284, 407.9121
394.8105, 410.5818
395.2927, 407.5474
395.7748, 396.8243
396.2569, 380.3742
396.7390, 360.9743
397.2211, 339.6151
397.7032, 316.9316
398.1854, 294.1372
398.6675, 270.5284
399.1496, 248.7299
399.6317, 229.2989
400.1138, 211.9458
400.5959, 196.8331
401.0780, 183.9875
401.5602, 172.8439
402.0423, 163.0851
402.5244, 154.7090
403.0065, 147.5683
403.4886, 141.9522
403.9707, 137.2637
404.4529, 133.0317
404.9350, 129.2790
405.4171, 126.0777
405.8992, 123.5871
406.3813, 121.6214
406.8634, 119.8184
407.3456, 118.1401
407.8277, 116.9977
408.3098, 117.0255
408.7919, 117.5094
409.2740, 117.1811
409.7561, 115.6674
410.2383, 114.1375
410.7204, 113.4711
411.2025, 113.3547
411.6846, 112.7404
412.1667, 111.1904
412.6488, 109.5724
413.1310, 109.0260
413.6131, 109.4990
414.0952, 110.1249
414.5773, 111.0528
415.0594, 111.8719
415.5415, 112.1846
416.0237, 111.9928
416.5058, 111.5004
416.9879, 110.7588
417.4700, 109.8493
417.9521, 109.2174
418.4342, 108.8838
418.9164, 108.7447
419.3985, 108.9513
419.8806, 109.2821
420.3627, 109.5103
420.8448, 109.5586
421.3269, 109.2211
421.8091, 108.0836
422.2912, 105.5461
422.7733, 104.0042
423.2554, 104.0314
423.7375, 104.4687
424.2196, 104.8112
424.7018, 104.9704
425.1839, 104.9360
425.6660, 104.6695
426.1481, 104.2333
426.6302, 104.0457
427.1123, 104.0006
427.5945, 104.3908
428.0766, 105.6271
428.5587, 107.1155
429.0408, 108.3041
429.5229, 109.0160
430.0050, 109.4092
430.4872, 109.6056
430.9693, 109.4678
431.4514, 109.7045
431.9335, 110.5456
432.4156, 111.6045
432.8977, 112.7269
433.3799, 113.9485
433.8620, 115.3751
434.3441, 116.9905
434.8262, 118.9090
435.3083, 121.6895
435.7904, 125.8774
436.2726, 129.3809
436.7547, 130.5372
437.2368, 131.1691
437.7189, 132.9752
438.2010, 136.3256
438.6831, 140.0047
439.1653, 142.8870
439.6474, 145.1542
440.1295, 147.8705
440.6116, 151.3174
441.0937, 154.9944
441.5758, 158.6499
442.0580, 162.2097
442.5401, 165.3724
443.0222, 168.3727
443.5043, 170.7005
443.9864, 171.6089
444.4685, 171.2178
444.9507, 170.7094
445.4328, 170.8307
445.9149, 170.9543
446.3970, 169.5246
446.8791, 166.1066
447.3612, 162.7484
447.8434, 160.2971
448.3255, 158.0689
448.8076, 155.1818
449.2897, 151.4893
449.7718, 147.4998
450.2539, 143.7179
450.7361, 140.1551
451.2182, 136.1142
451.7003, 130.6639
452.1824, 125.8216
452.6645, 122.4862
453.1466, 120.1957
453.6288, 118.2075
454.1109, 116.1909
454.5930, 114.2529
455.0751, 112.5698
455.5572, 111.0464
456.0393, 110.0110
456.5215, 109.9292
457.0036, 109.8569
457.4857, 109.2086
457.9678, 108.0389
458.4499, 106.7197
458.9320, 105.4791
459.4142, 104.3496
459.8963, 103.5511
460.3784, 103.3645
460.8605, 103.0100
461.3426, 102.1106
461.8247, 101.0533
462.3069, 100.1899
462.7890, 99.60878
463.2711, 99.21631
463.7532, 98.98273
464.2353, 98.89200
464.7174, 98.74317
465.1996, 98.54720
465.6817, 98.23112
466.1638, 97.56140
466.6459, 96.72873
467.1280, 96.24196
467.6101, 96.44555
468.0923, 96.90858
468.5744, 97.23406
469.0565, 97.42246
469.5386, 97.44583
470.0207, 97.26433
470.5028, 96.94649
470.9850, 96.58772
471.4671, 96.16696
471.9492, 95.81150
472.4313, 95.37688
472.9134, 95.12400
473.3955, 95.52819
473.8777, 96.53843
474.3598, 97.40305
474.8419, 97.49763
475.3240, 96.92542
475.8061, 96.70504
476.2882, 96.98685
476.7704, 97.38248
477.2525, 97.97038
477.7346, 98.56404
478.2167, 98.92370
478.6988, 98.99580
479.1809, 98.93987
479.6631, 99.00116
480.1452, 99.28621
480.6273, 99.12886
481.1094, 97.53475
481.5915, 96.52325
482.0736, 97.15047
482.5558, 98.75266
483.0379, 100.1669
483.5200, 100.8393
484.0021, 101.0582
484.4842, 101.4268
484.9663, 102.0678
485.4485, 102.2804
485.9306, 101.3721
486.4127, 100.4690
486.8948, 100.2592
487.3769, 100.7309
487.8590, 101.5939
488.3412, 103.1702
488.8233, 104.8777
489.3054, 105.3935
489.7875, 104.5892
490.2696, 103.7458
490.7517, 103.3793
491.2339, 103.4762
491.7160, 103.9848
492.1981, 105.1200
492.6802, 106.0287
493.1623, 106.0036
493.6444, 105.6526
494.1266, 106.0167
494.6087, 107.2548
495.0908, 108.5331
495.5729, 109.1037
496.0550, 108.9703
496.5371, 108.9564
497.0193, 108.9817
497.5014, 109.1960
497.9835, 109.6962
498.4656, 110.3962
498.9477, 111.2305
499.4298, 112.1630
499.9120, 113.0860
500.3941, 113.8788
500.8762, 114.6333
501.3583, 114.9002
501.8404, 113.6615
502.3225, 112.9714
502.8047, 114.0007
503.2868, 116.0512
503.7689, 117.8410
504.2510, 118.7678
504.7331, 119.0751
505.2152, 119.0593
505.6974, 118.6091
506.1795, 118.5317
506.6616, 119.1804
507.1437, 120.0923
507.6258, 120.7826
508.1079, 121.3567
508.5901, 122.3892
509.0722, 124.7586
509.5543, 127.4505
510.0364, 128.8851
510.5185, 129.0680
511.0006, 128.9871
511.4828, 128.8677
511.9649, 128.9758
512.4470, 129.9240
512.9291, 131.8655
513.4112, 133.9252
513.8933, 136.0274
514.3754, 138.0414
514.8575, 139.5950
515.3397, 140.7906
515.8218, 142.3914
516.3039, 145.0524
516.7860, 148.5881
517.2681, 151.6127
517.7502, 153.2553
518.2324, 155.4707
518.7145, 158.9204
519.1966, 162.7508
519.6787, 166.0568
520.1608, 168.7573
520.6429, 171.5783
521.1251, 175.4437
521.6072, 180.3152
522.0893, 184.0286
522.5714, 185.9201
523.0535, 187.6911
523.5356, 189.9088
524.0178, 192.3496
524.4999, 195.0301
524.9820, 198.0557
525.4641, 200.2593
525.9462, 200.2701
526.4283, 198.4794
526.9105, 196.7899
527.3926, 195.7497
527.8747, 193.9595
528.3568, 189.8666
528.8389, 184.0643
529.3210, 178.5705
529.8032, 173.8964
530.2853, 169.2304
530.7674, 164.0219
531.2495, 158.5478
531.7316, 153.3004
532.2137, 148.3987
532.6959, 143.8800
533.1780, 139.8358
533.6601, 136.3254
534.1422, 132.9023
534.6243, 129.5205
535.1064, 126.2353
535.5886, 122.8942
536.0707, 119.7226
536.5528, 117.0657
537.0349, 115.0730
537.5170, 113.5667
537.9991, 112.4695
538.4813, 111.9874
538.9634, 110.8430
539.4455, 108.4087
539.9276, 105.9272
540.4097, 103.6107
540.8918, 101.7216
541.3740, 100.9387
541.8561, 102.0745
542.3382, 103.2517
542.8203, 101.7663
543.3024, 97.92272
543.7845, 94.60168
544.2667, 92.43683
544.7488, 91.14210
545.2309, 90.86219
545.7130, 91.44474
546.1951, 91.33288
546.6772, 89.52914
547.1594, 87.67574
547.6415, 86.97253
548.1236, 87.07344
548.6057, 87.00559
549.0878, 86.37377
549.5699, 85.54439
550.0521, 85.14285
550.5342, 85.38885
551.0163, 85.39880
551.4984, 85.04668
551.9805, 84.62730
552.4626, 84.05019
552.9448, 83.53850
553.4269, 83.50371
553.9090, 84.15980
554.3911, 85.17947
554.8732, 86.10249
555.3553, 86.98781
555.8375, 87.36521
556.3196, 86.88025
556.8017, 86.19148
557.2838, 85.54397
557.7659, 85.02970
558.2480, 84.92276
558.7302, 85.49091
559.2123, 86.30325
559.6944, 87.02682
560.1765, 87.64038
560.6586, 88.03758
561.1407, 88.18267
561.6229, 88.10519
562.1050, 87.76546
562.5871, 87.09418
563.0692, 86.71821
563.5513, 86.88928
564.0334, 87.11241
564.5156, 87.07433
564.9977, 86.92168
565.4798, 87.02660
565.9619, 87.52595
566.4440, 88.03414
566.9261, 87.75872
567.4083, 86.20786
567.8904, 85.87819
568.3725, 88.07384
568.8546, 90.18845
569.3367, 91.50460
569.8188, 92.10455
570.3010, 92.01070
570.7831, 91.08337
571.2652, 90.25230
571.7473, 90.95471
572.2294, 92.93646
572.7115, 93.99168
573.1937, 93.40290
573.6758, 92.75470
574.1579, 93.63096
574.6400, 95.59567
575.1221, 96.92751
575.6042, 96.71393
576.0864, 96.69062
576.5685, 97.93843
577.0506, 99.87111
577.5327, 101.5622
578.0148, 102.7723
578.4969, 103.7247
578.9791, 104.6818
579.4612, 105.6616
579.9433, 106.1947
580.4254, 105.7844
580.9075, 105.5033
581.3896, 105.4228
581.8718, 105.6349
582.3539, 106.3307
582.8360, 107.5086
583.3181, 108.7716
583.8002, 109.7585
584.2823, 110.4923
584.7645, 111.0780
585.2466, 111.4165
585.7287, 111.9023
586.2108, 112.8061
586.6929, 113.9452
587.1750, 115.1376
587.6572, 116.4772
588.1393, 117.3988
588.6214, 117.3986
589.1035, 116.9578
589.5856, 116.5937
