##NAMES=Beryl
##RRUFFID=R050347
##IDEAL CHEMISTRY=Be_3_Al_2_Si_6_O_18_
##LOCALITY=North Keystone, South Dakota, USA
##OWNER=RRUFF
##SOURCE=California Institute of Technology
##DESCRIPTION=Colorless fragment
##STATUS=The identification of this mineral has been confirmed by X-ray diffraction and chemical analysis
##URL=rruff.info/R050347
##MEASURED CHEMISTRY=(Be_0.96_Li_0.04_)_3_Al_2.00_(Si_0.99_Al_0.01_)_6_O_18_ Î‡0.17Na
127.7179, 94.44036
128.2001, 95.20742
128.6822, 96.14162
129.1643, 97.17664
129.6464, 98.27461
130.1285, 98.88747
130.6107, 98.45396
131.0928, 98.03870
131.5749, 97.86761
132.0570, 97.92014
132.5391, 98.07289
133.0212, 98.21208
133.5034, 98.31532
133.9855, 98.60549
134.4676, 99.18156
134.9497, 99.82275
135.4318, 100.5000
135.9139, 101.1734
136.3960, 101.6757
136.8782, 101.7312
137.3603, 101.1982
137.8424, 101.0233
138.3245, 101.5929
138.8066, 102.4196
139.2887, 103.0095
139.7709, 103.2953
140.2530, 103.1779
140.7351, 102.2640
141.2172, 100.6391
141.6993, 99.23139
142.1814, 98.62114
142.6636, 98.59954
143.1457, 98.34962
143.6278, 97.45860
144.1099, 96.58080
144.5920, 96.42627
145.0741, 96.97955
145.5563, 97.39388
146.0384, 96.82220
146.5205, 95.14608
147.0026, 93.51761
147.4847, 92.14977
147.9668, 90.87437
148.4490, 89.61169
148.9311, 88.34833
149.4132, 87.10027
149.8953, 85.88595
150.3774, 84.65581
150.8595, 83.56463
151.3417, 82.70753
151.8238, 81.92193
152.3059, 81.03323
152.7880, 79.99022
153.2701, 78.91731
153.7522, 78.14735
154.2344, 78.11852
154.7165, 77.92044
155.1986, 77.34894
155.6807, 76.63592
156.1628, 76.09353
156.6449, 75.89057
157.1271, 75.92743
157.6092, 75.79739
158.0913, 75.32410
158.5734, 74.91377
159.0555, 74.73706
159.5376, 74.72078
160.0198, 74.65358
160.5019, 74.37569
160.9840, 73.98958
161.4661, 73.86152
161.9482, 74.26271
162.4303, 74.62965
162.9125, 74.49136
163.3946, 73.87086
163.8767, 73.30824
164.3588, 73.12403
164.8409, 73.21657
165.3230, 73.43322
165.8052, 73.89906
166.2873, 74.34311
166.7694, 74.33765
167.2515, 73.74691
167.7336, 73.16885
168.2157, 72.92996
168.6979, 72.86124
169.1800, 72.73915
169.6621, 72.36828
170.1442, 71.95794
170.6263, 72.19578
171.1084, 73.74120
171.5906, 74.87241
172.0727, 74.85303
172.5548, 74.18076
173.0369, 73.54735
173.5190, 73.37962
174.0011, 73.61789
174.4833, 73.75780
174.9654, 73.59501
175.4475, 73.53693
175.9296, 73.84554
176.4117, 74.31953
176.8938, 74.56601
177.3760, 74.24786
177.8581, 73.34025
178.3402, 72.84536
178.8223, 72.96481
179.3044, 73.24265
179.7865, 73.65739
180.2687, 74.12277
180.7508, 74.46539
181.2329, 74.52974
181.7150, 74.28752
182.1971, 74.00105
182.6792, 73.53129
183.1614, 73.13633
183.6435, 72.97523
184.1256, 73.04993
184.6077, 73.25676
185.0898, 73.54169
185.5719, 73.90669
186.0541, 74.16739
186.5362, 74.41128
187.0183, 74.49467
187.5004, 74.15752
187.9825, 73.34591
188.4646, 72.57173
188.9468, 72.38538
189.4289, 72.65852
189.9110, 72.89689
190.3931, 73.00285
190.8752, 73.00690
191.3573, 73.01468
191.8395, 73.12140
192.3216, 72.96880
192.8037, 72.01749
193.2858, 70.58762
193.7679, 69.40621
194.2500, 68.96790
194.7322, 69.04866
195.2143, 68.91235
195.6964, 68.45186
196.1785, 67.90712
196.6606, 67.31568
197.1427, 66.74381
197.6249, 66.34807
198.1070, 66.27595
198.5891, 66.49649
199.0712, 66.70545
199.5533, 66.96545
200.0354, 67.13268
200.5176, 67.12668
200.9997, 66.98655
201.4818, 66.80515
201.9639, 66.67439
202.4460, 66.60007
202.9281, 66.36083
203.4103, 65.74355
203.8924, 65.14741
204.3745, 64.64375
204.8566, 64.25589
205.3387, 64.01073
205.8208, 63.93816
206.3030, 64.05144
206.7851, 64.22327
207.2672, 64.53980
207.7493, 64.82934
208.2314, 65.09008
208.7135, 65.27654
209.1957, 65.26647
209.6778, 64.90464
210.1599, 64.10146
210.6420, 63.68727
211.1241, 63.95316
211.6062, 64.27290
212.0884, 64.31062
212.5705, 64.07642
213.0526, 63.79165
213.5347, 63.65289
214.0168, 63.68288
214.4989, 63.66597
214.9811, 63.65427
215.4632, 63.56212
215.9453, 63.23995
216.4274, 62.71143
216.9095, 62.27719
217.3916, 62.25331
217.8737, 62.64589
218.3559, 62.80222
218.8380, 62.46778
219.3201, 62.05218
219.8022, 61.98849
220.2843, 62.30852
220.7664, 62.54450
221.2486, 62.16761
221.7307, 61.35794
222.2128, 60.90888
222.6949, 61.26956
223.1770, 61.86827
223.6591, 62.02288
224.1413, 61.66130
224.6234, 61.23232
225.1055, 61.03965
225.5876, 61.00965
226.0697, 61.03010
226.5518, 61.07169
227.0340, 61.14811
227.5161, 61.29713
227.9982, 61.54280
228.4803, 61.77652
228.9624, 61.88639
229.4445, 61.95459
229.9267, 62.09844
230.4088, 62.38630
230.8909, 62.75034
231.3730, 63.10684
231.8551, 63.54582
232.3372, 63.73208
232.8194, 63.27465
233.3015, 62.59054
233.7836, 62.17350
234.2657, 62.26168
234.7478, 62.67601
235.2299, 63.04688
235.7121, 63.43947
236.1942, 63.64148
236.6763, 63.37844
237.1584, 63.00843
237.6405, 62.97323
238.1227, 63.50790
238.6048, 64.31159
239.0869, 64.56612
239.5690, 63.80824
240.0511, 63.30941
240.5332, 63.58485
241.0154, 64.07728
241.4975, 64.15382
241.9796, 63.53654
242.4617, 62.58974
242.9438, 62.27680
243.4259, 63.25127
243.9081, 63.83778
244.3902, 63.53928
244.8723, 62.95801
245.3544, 62.67611
245.8365, 62.91714
246.3186, 63.47178
246.8008, 63.87170
247.2829, 64.06113
247.7650, 64.14714
248.2471, 63.98649
248.7292, 63.80704
249.2113, 63.90811
249.6935, 64.37022
250.1756, 64.90854
250.6577, 64.94826
251.1398, 63.89103
251.6219, 63.18581
252.1040, 63.14698
252.5862, 63.27988
253.0683, 63.18523
253.5504, 62.73909
254.0325, 62.01741
254.5146, 61.13540
254.9967, 60.03715
255.4789, 58.85588
255.9610, 57.50261
256.4431, 56.12579
256.9252, 54.78910
257.4073, 53.52054
257.8894, 52.43460
258.3716, 51.71179
258.8537, 51.56887
259.3358, 51.24194
259.8179, 50.39531
260.3000, 49.56327
260.7821, 49.34161
261.2643, 49.80097
261.7464, 50.33447
262.2285, 50.22153
262.7106, 49.24708
263.1927, 48.68083
263.6748, 48.89456
264.1570, 49.29955
264.6391, 49.35617
265.1212, 49.02056
265.6033, 48.68605
266.0854, 48.77076
266.5675, 49.29503
267.0497, 49.55279
267.5318, 49.22769
268.0139, 48.83884
268.4960, 48.82883
268.9781, 49.21057
269.4602, 49.68286
269.9424, 50.08408
270.4245, 50.37877
270.9066, 50.47322
271.3887, 50.15524
271.8708, 49.79483
272.3529, 49.62247
272.8351, 49.64345
273.3172, 49.88729
273.7993, 50.50994
274.2814, 51.34077
274.7635, 51.84295
275.2456, 51.82087
275.7278, 51.67352
276.2099, 51.64848
276.6920, 51.73707
277.1741, 51.87959
277.6562, 52.09783
278.1383, 52.31718
278.6205, 52.37330
279.1026, 52.15674
279.5847, 52.01395
280.0668, 52.23263
280.5489, 52.75719
281.0310, 53.25101
281.5132, 53.57903
281.9953, 53.83920
282.4774, 54.14553
282.9595, 54.48472
283.4416, 54.93661
283.9237, 55.70678
284.4059, 56.67488
284.8880, 57.27623
285.3701, 57.13439
285.8522, 56.91388
286.3343, 57.41749
286.8164, 58.60411
287.2986, 59.66439
287.7807, 59.97868
288.2628, 59.80470
288.7449, 60.00548
289.2270, 60.81656
289.7091, 61.81487
290.1913, 62.81736
290.6734, 63.75879
291.1555, 64.37155
291.6376, 64.28638
292.1197, 63.80293
292.6018, 63.71825
293.0840, 64.29823
293.5661, 64.71973
294.0482, 64.23985
294.5303, 63.24474
295.0124, 62.40870
295.4945, 62.00916
295.9767, 61.91702
296.4588, 61.95835
296.9409, 62.19191
297.4230, 62.35662
297.9051, 62.20731
298.3872, 61.94398
298.8694, 61.81139
299.3515, 61.92089
299.8336, 62.11435
300.3157, 62.15371
300.7978, 61.99960
301.2799, 61.93276
301.7621, 62.17352
302.2442, 62.49439
302.7263, 62.61753
303.2084, 62.43817
303.6905, 62.39533
304.1726, 63.11835
304.6548, 64.65162
305.1369, 65.82054
305.6190, 65.93271
306.1011, 65.91576
306.5832, 66.56889
307.0653, 67.92280
307.5475, 69.28867
308.0296, 70.11132
308.5117, 70.42562
308.9938, 70.63471
309.4759, 70.61092
309.9580, 70.70993
310.4402, 71.17719
310.9223, 71.95744
311.4044, 72.83532
311.8865, 73.59572
312.3686, 74.31892
312.8507, 75.40587
313.3329, 77.02254
313.8150, 78.73919
314.2971, 80.45827
314.7792, 82.10307
315.2613, 83.51649
315.7434, 84.52736
316.2256, 85.33565
316.7077, 86.34099
317.1898, 87.53419
317.6719, 88.98820
318.1540, 90.89012
318.6361, 93.00363
319.1183, 95.08692
319.6004, 97.07170
320.0825, 99.02480
320.5646, 101.0736
321.0467, 103.2501
321.5288, 105.3291
322.0110, 107.6655
322.4931, 109.5778
322.9752, 110.5476
323.4573, 110.4902
323.9394, 109.5044
324.4215, 107.6163
324.9037, 104.8443
325.3858, 101.3311
325.8679, 96.80846
326.3500, 91.77669
326.8321, 86.39288
327.3142, 80.75648
327.7964, 75.40800
328.2785, 70.66032
328.7606, 66.49458
329.2427, 62.76112
329.7248, 59.42475
330.2069, 56.62954
330.6891, 54.54378
331.1712, 52.99023
331.6533, 51.60274
332.1354, 50.16065
332.6175, 48.80954
333.0996, 47.92640
333.5818, 47.65942
334.0639, 47.36802
334.5460, 46.60021
335.0281, 45.67331
335.5102, 44.94073
335.9923, 44.50369
336.4745, 44.24982
336.9566, 44.09100
337.4387, 44.03577
337.9208, 43.94123
338.4029, 43.76493
338.8850, 43.51976
339.3671, 43.18113
339.8492, 42.73420
340.3314, 42.35790
340.8135, 42.24523
341.2956, 42.34727
341.7777, 42.35374
342.2598, 42.15739
342.7419, 41.92773
343.2241, 41.80755
343.7062, 41.78171
344.1883, 41.78468
344.6704, 41.80614
345.1525, 41.83142
345.6346, 41.84242
346.1168, 41.85511
346.5989, 41.79914
347.0810, 41.50547
347.5631, 41.11591
348.0452, 40.89375
348.5273, 40.98328
349.0095, 41.19861
349.4916, 41.36504
349.9737, 41.48276
350.4558, 41.50913
350.9379, 41.33859
351.4200, 41.11495
351.9022, 41.10089
352.3843, 41.40754
352.8664, 41.64640
353.3485, 41.47327
353.8306, 40.99477
354.3127, 40.63255
354.7949, 40.50919
355.2770, 40.53128
355.7591, 40.61574
356.2412, 40.76258
356.7233, 40.85668
357.2054, 40.78673
357.6876, 40.66053
358.1697, 40.65486
358.6518, 40.79990
359.1339, 41.01348
359.6160, 41.27836
360.0981, 41.56636
360.5803, 41.71830
361.0624, 41.58229
361.5445, 41.40240
362.0266, 41.30982
362.5087, 41.32308
362.9908, 41.58739
363.4730, 42.30906
363.9551, 43.26311
364.4372, 43.77929
364.9193, 43.73384
365.4014, 43.50689
365.8835, 43.06391
366.3657, 42.56693
366.8478, 42.39481
367.3299, 42.71439
367.8120, 43.22589
368.2941, 43.41158
368.7762, 43.13638
369.2584, 43.14860
369.7405, 43.84642
370.2226, 44.70412
370.7047, 45.14013
371.1868, 45.10729
371.6689, 45.04845
372.1511, 45.35062
372.6332, 46.03878
373.1153, 46.81206
373.5974, 47.82714
374.0795, 48.77296
374.5616, 49.38459
375.0438, 49.80041
375.5259, 50.38779
376.0080, 51.34987
376.4901, 52.60682
376.9722, 53.88134
377.4543, 55.13127
377.9365, 56.44770
378.4186, 57.88000
378.9007, 59.36657
379.3828, 60.83086
379.8649, 62.25262
380.3470, 63.66243
380.8292, 65.10236
381.3113, 66.59683
381.7934, 68.06535
382.2755, 69.44083
382.7576, 70.85292
383.2397, 72.49773
383.7219, 74.27470
384.2040, 75.77901
384.6861, 76.60663
385.1682, 76.84487
385.6503, 77.87785
386.1324, 80.64137
386.6146, 83.19493
387.0967, 85.12496
387.5788, 86.67029
388.0609, 87.99335
388.5430, 89.16663
389.0251, 90.57100
389.5073, 93.11205
389.9894, 97.61915
390.4715, 101.5430
390.9536, 104.2444
391.4357, 106.7888
391.9178, 109.8915
392.4000, 113.5824
392.8821, 117.4370
393.3642, 121.1073
393.8463, 124.6018
394.3284, 127.7975
394.8105, 130.6922
395.2927, 133.2792
395.7748, 135.6421
396.2569, 137.6949
396.7390, 139.3938
397.2211, 140.8072
397.7032, 141.6522
398.1854, 141.3015
398.6675, 139.6881
399.1496, 137.0552
399.6317, 133.0278
400.1138, 128.2501
400.5959, 123.0104
401.0781, 117.3851
401.5602, 111.6818
402.0423, 106.1208
402.5244, 100.7253
403.0065, 95.64142
403.4886, 90.96154
403.9708, 86.54002
404.4529, 82.17770
404.9350, 77.95171
405.4171, 74.05759
405.8992, 70.54253
406.3813, 67.44945
406.8635, 64.84789
407.3456, 62.75014
407.8277, 61.01707
408.3098, 59.71769
408.7919, 58.67828
409.2740, 57.55938
409.7562, 56.23320
410.2383, 55.10540
410.7204, 54.57886
411.2025, 54.45044
411.6846, 54.06316
412.1667, 53.16752
412.6489, 52.21007
413.1310, 51.75741
413.6131, 51.78265
414.0952, 51.93118
414.5773, 52.39882
415.0594, 52.79192
415.5416, 52.53995
416.0237, 51.72252
416.5058, 51.19824
416.9879, 51.63096
417.4700, 52.79166
417.9521, 53.41563
418.4343, 53.13698
418.9164, 52.86025
419.3985, 52.74270
419.8806, 52.80187
420.3627, 53.15117
420.8448, 53.82214
421.3270, 54.53782
421.8091, 54.89373
422.2912, 54.80928
422.7733, 54.52727
423.2554, 53.98606
423.7375, 53.32114
424.2197, 52.60499
424.7018, 51.84003
425.1839, 50.96168
425.6660, 49.88739
426.1481, 48.69662
426.6302, 47.91785
427.1124, 47.97986
427.5945, 47.95965
428.0766, 47.70786
428.5587, 47.34299
429.0408, 46.93004
429.5229, 46.50807
430.0051, 46.18876
430.4872, 46.20593
430.9693, 46.70885
431.4514, 46.92343
431.9335, 46.43158
432.4156, 45.99816
432.8978, 45.95234
433.3799, 46.21890
433.8620, 46.55201
434.3441, 46.79698
434.8262, 47.00405
435.3083, 47.30955
435.7905, 47.70865
436.2726, 48.21872
436.7547, 49.03811
437.2368, 49.87276
437.7189, 50.40269
438.2010, 50.55001
438.6832, 50.67173
439.1653, 51.08476
439.6474, 51.74152
440.1295, 52.40541
440.6116, 53.06607
441.0938, 53.67538
441.5759, 54.17123
442.0580, 54.57925
442.5401, 54.96754
443.0222, 55.31757
443.5043, 55.67970
443.9865, 56.16941
444.4686, 56.75840
444.9507, 57.19762
445.4328, 57.33055
445.9149, 57.28094
446.3970, 57.34485
446.8792, 57.58648
447.3613, 57.74067
447.8434, 57.93817
448.3255, 57.91520
448.8076, 57.28590
449.2897, 56.00087
449.7719, 54.36694
450.2540, 52.57866
450.7361, 50.60480
451.2182, 49.22280
451.7003, 48.82579
452.1824, 48.49291
452.6646, 47.93313
453.1467, 47.19823
453.6288, 46.38766
454.1109, 45.54257
454.5930, 44.70141
455.0751, 43.94487
455.5573, 43.38053
456.0394, 42.68543
456.5215, 41.72050
457.0036, 40.76531
457.4857, 39.92162
457.9678, 39.23042
458.4500, 38.74200
458.9321, 38.53823
459.4142, 38.55564
459.8963, 38.41315
460.3784, 38.04189
460.8605, 37.62722
461.3427, 37.23534
461.8248, 36.81850
462.3069, 36.25877
462.7890, 35.52821
463.2711, 34.90797
463.7532, 34.81673
464.2354, 35.20199
464.7175, 35.29508
465.1996, 34.85351
465.6817, 34.35625
466.1638, 34.18174
466.6459, 34.21835
467.1281, 34.18391
467.6102, 33.89474
468.0923, 33.57706
468.5744, 33.54392
469.0565, 33.75867
469.5386, 33.81910
470.0208, 33.47015
470.5029, 33.01052
470.9850, 33.04603
471.4671, 33.67948
471.9492, 34.11881
472.4313, 34.06530
472.9135, 33.77906
473.3956, 33.51451
473.8777, 33.30196
474.3598, 33.06587
474.8419, 32.71609
475.3240, 32.28950
475.8062, 32.16641
476.2883, 32.68309
476.7704, 33.04674
477.2525, 32.93652
477.7346, 32.65954
478.2167, 32.60171
478.6989, 32.85873
479.1810, 33.22872
479.6631, 33.47260
480.1452, 33.59019
480.6273, 33.56935
481.1094, 33.16371
481.5916, 32.87259
482.0737, 33.03793
482.5558, 33.39810
483.0379, 33.45522
483.5200, 32.93616
484.0021, 32.17434
484.4843, 31.79222
484.9664, 31.83471
485.4485, 32.05131
485.9306, 32.57739
486.4127, 33.11304
486.8948, 33.54911
487.3770, 33.84674
487.8591, 33.86250
488.3412, 33.25095
488.8233, 32.38386
489.3054, 32.05919
489.7875, 32.33958
490.2697, 32.61428
490.7518, 32.59621
491.2339, 32.35946
491.7160, 32.01421
492.1981, 31.39560
492.6802, 31.15441
493.1624, 32.02253
493.6445, 33.27179
494.1266, 33.71278
494.6087, 33.16059
495.0908, 32.38872
495.5729, 32.04913
496.0551, 32.14260
496.5372, 32.30032
497.0193, 32.57592
497.5014, 32.84243
497.9835, 33.08694
498.4656, 33.29074
498.9478, 33.42306
499.4299, 33.47619
499.9120, 33.48204
500.3941, 33.47260
500.8762, 33.41706
501.3583, 33.47050
501.8405, 33.70378
502.3226, 33.97407
502.8047, 34.24467
503.2868, 34.51419
503.7689, 34.78254
504.2510, 35.05045
504.7331, 35.32224
505.2152, 35.61169
505.6974, 35.92523
506.1795, 36.22010
506.6616, 36.46539
507.1437, 36.70959
507.6258, 36.98545
508.1079, 37.29295
508.5901, 37.61447
509.0722, 37.92775
509.5543, 38.25731
510.0364, 38.67966
510.5185, 39.19138
511.0006, 39.60088
511.4828, 39.73867
511.9649, 39.79141
512.4470, 40.17073
512.9291, 40.94656
513.4113, 41.73647
513.8934, 42.41870
514.3755, 43.07885
514.8576, 43.85166
515.3397, 44.72099
515.8218, 45.47243
516.3040, 45.92136
516.7861, 46.13082
517.2682, 46.55070
517.7503, 47.49695
518.2324, 48.25813
518.7145, 48.52460
519.1967, 48.73068
519.6788, 49.40917
520.1609, 50.57319
520.6430, 51.66581
521.1251, 52.01675
521.6072, 51.66401
522.0894, 51.92504
522.5715, 53.32136
523.0536, 54.50515
523.5357, 54.80875
524.0178, 54.77276
524.4999, 55.10061
524.9821, 56.01191
525.4642, 56.84234
525.9463, 56.82927
526.4284, 56.17754
526.9105, 55.86138
527.3926, 56.11568
527.8748, 56.41026
528.3569, 56.36387
528.8390, 56.01891
529.3211, 55.52330
529.8032, 54.89017
530.2853, 54.11096
530.7675, 53.11303
531.2496, 51.97945
531.7317, 50.82168
532.2138, 49.66468
532.6959, 48.65302
533.1780, 48.00050
533.6602, 47.79061
534.1423, 47.41444
534.6244, 46.74666
535.1065, 46.07430
535.5886, 45.50697
536.0707, 45.00637
536.5529, 44.52592
537.0350, 44.04733
537.5171, 43.52136
537.9992, 42.84428
538.4813, 41.96531
538.9634, 41.20457
539.4456, 40.65693
539.9277, 40.14786
540.4098, 39.62954
540.8919, 39.09059
541.3740, 38.50032
541.8561, 37.81117
542.3383, 37.14314
542.8204, 36.70553
543.3025, 36.46554
543.7846, 36.09029
544.2667, 35.45447
544.7488, 34.74625
545.2310, 34.11517
545.7131, 33.56382
546.1952, 33.20852
546.6773, 33.29102
547.1594, 33.36953
547.6415, 33.11372
548.1237, 32.62432
548.6058, 32.16230
549.0879, 31.83397
549.5700, 31.57557
550.0521, 31.27625
550.5342, 30.88645
551.0164, 30.61726
551.4985, 30.59094
551.9806, 30.54343
552.4627, 30.32750
552.9448, 30.00948
553.4269, 29.68303
553.9091, 29.38023
554.3912, 29.21644
554.8733, 29.50395
555.3554, 30.35706
555.8375, 30.86995
556.3196, 30.74532
556.8018, 30.45231
557.2839, 30.20921
557.7660, 30.04477
558.2481, 30.04720
558.7302, 30.34888
559.2123, 30.70958
559.6945, 30.89616
560.1766, 30.93047
560.6587, 30.88622
561.1408, 30.76323
561.6229, 30.64330
562.1050, 30.61715
562.5872, 30.69234
563.0693, 30.86847
563.5514, 31.39586
564.0335, 31.77178
564.5156, 31.61999
564.9977, 31.15837
565.4799, 30.73643
565.9620, 30.50080
566.4441, 30.49410
566.9262, 30.86529
567.4083, 31.80791
567.8904, 32.33972
568.3726, 32.07662
568.8547, 31.78032
569.3368, 31.72212
569.8189, 31.79966
570.3010, 31.80822
570.7831, 31.65433
571.2653, 31.50632
571.7474, 31.54562
572.2295, 31.76488
572.7116, 32.17458
573.1937, 32.91003
573.6758, 33.49493
574.1580, 33.38184
574.6401, 32.75710
575.1222, 32.35344
575.6043, 32.35740
576.0864, 32.46130
576.5685, 32.57917
577.0507, 32.67966
577.5328, 32.69530
578.0149, 32.61340
578.4970, 32.50937
578.9791, 32.47583
579.4612, 32.52068
579.9434, 32.43837
580.4255, 32.06957
580.9076, 31.75931
581.3897, 31.57142
581.8718, 31.47116
582.3539, 31.47734
582.8361, 31.56866
583.3182, 31.57224
583.8003, 31.24331
584.2824, 30.63948
584.7645, 30.21578
585.2466, 30.03926
585.7288, 29.84840
586.2108, 29.44436
586.6929, 28.98283
587.1750, 28.67448
587.6572, 28.52810
588.1393, 28.56023
588.6214, 29.09648
589.1035, 29.65471
589.5856, 29.44147
590.0677, 28.47142
590.5499, 27.53978
591.0320, 27.16765
591.5141, 27.20866
591.9962, 27.12689
592.4783, 26.80981
592.9604, 26.52394
593.4426, 26.28992
593.9247, 26.07334
594.4068, 25.77788
594.8889, 25.47005
595.3710, 25.37727
595.8531, 25.70936
596.3353, 26.22043
596.8174, 26.26695
597.2995, 25.74251
597.7816, 25.36676
598.2637, 25.36855
598.7458, 25.49930
599.2280, 25.59322
599.7101, 25.63780
600.1922, 25.56465
600.6743, 25.15278
601.1564, 24.78667
601.6385, 24.92541
602.1207, 25.38283
602.6028, 25.54856
603.0849, 25.20035
603.5670, 24.73561
604.0491, 24.69089
604.5313, 25.16951
605.0134, 25.42303
605.4955, 25.20816
605.9776, 25.07940
606.4597, 25.31728
606.9418, 25.69705
607.4240, 25.87437
607.9061, 25.76863
608.3882, 25.66496
608.8703, 25.97847
609.3524, 26.65903
609.8345, 26.93919
610.3167, 26.52396
610.7988, 26.43127
611.2809, 27.69728
611.7630, 29.33981
612.2451, 29.94400
612.7272, 29.20385
613.2094, 28.33268
613.6915, 27.71916
614.1736, 27.36690
614.6557, 27.31170
615.1378, 27.53727
615.6199, 27.99190
616.1021, 28.68171
616.5842, 29.47820
617.0663, 29.99937
617.5484, 30.02621
618.0305, 30.14802
618.5126, 30.44221
618.9948, 30.74999
619.4769, 30.99005
619.9590, 31.16878
620.4411, 31.34587
620.9232, 31.57842
621.4053, 31.72017
621.8875, 31.44829
622.3696, 30.77303
622.8517, 30.30033
623.3338, 30.21513
623.8159, 30.19131
