##NAMES=Beryl
##RRUFFID=R050347
##IDEAL CHEMISTRY=Be_3_Al_2_Si_6_O_18_
##LOCALITY=North Keystone, South Dakota, USA
##OWNER=RRUFF
##SOURCE=California Institute of Technology
##DESCRIPTION=Colorless fragment
##STATUS=The identification of this mineral has been confirmed by X-ray diffraction and chemical analysis
##URL=rruff.info/R050347
##MEASURED CHEMISTRY=(Be_0.96_Li_0.04_)_3_Al_2.00_(Si_0.99_Al_0.01_)_6_O_18_ Î‡0.17Na
130.9229, 680.0593
131.4050, 691.6109
131.8871, 702.3317
132.3692, 712.5373
132.8513, 722.5326
133.3334, 731.1334
133.8156, 736.6413
134.2977, 740.5056
134.7798, 745.2542
135.2619, 749.6283
135.7440, 753.3027
136.2261, 756.3983
136.7083, 759.9363
137.1904, 764.2194
137.6725, 768.1443
138.1546, 770.7725
138.6367, 772.1695
139.1188, 772.1942
139.6010, 770.6083
140.0831, 767.4293
140.5652, 764.0303
141.0473, 760.1488
141.5294, 756.3307
142.0115, 753.3240
142.4937, 751.1813
142.9758, 749.5697
143.4579, 748.4159
143.9400, 747.7779
144.4221, 747.2819
144.9042, 747.2994
145.3864, 747.2125
145.8685, 745.8974
146.3506, 742.4210
146.8327, 738.9534
147.3148, 736.2659
147.7969, 735.1173
148.2791, 733.0295
148.7612, 728.9836
149.2433, 724.1135
149.7254, 720.9905
150.2075, 720.9374
150.6896, 721.5002
151.1718, 721.8715
151.6539, 722.8420
152.1360, 722.5242
152.6181, 719.8288
153.1002, 715.6699
153.5823, 712.7854
154.0645, 712.3868
154.5466, 712.5097
155.0287, 712.2424
155.5108, 711.2563
155.9929, 710.1293
156.4750, 708.5792
156.9572, 706.8223
157.4393, 705.8148
157.9214, 706.8682
158.4035, 708.0427
158.8856, 708.1345
159.3677, 705.3395
159.8499, 702.9805
160.3320, 702.1449
160.8141, 702.6410
161.2962, 703.3532
161.7783, 704.0900
162.2604, 704.7899
162.7426, 705.4019
163.2247, 706.1440
163.7068, 706.5998
164.1889, 706.6097
164.6710, 706.1754
165.1531, 705.3342
165.6353, 702.7612
166.1174, 700.2300
166.5995, 699.6497
167.0816, 703.7247
167.5637, 708.4520
168.0458, 711.1403
168.5280, 711.7252
169.0101, 712.0909
169.4922, 713.9302
169.9743, 716.1879
170.4564, 717.3770
170.9385, 715.7127
171.4207, 713.4242
171.9028, 712.5020
172.3849, 713.0625
172.8670, 714.1374
173.3491, 715.2639
173.8312, 716.3727
174.3134, 717.3328
174.7955, 718.0335
175.2776, 718.5720
175.7597, 719.0074
176.2418, 719.3316
176.7239, 719.7060
177.2061, 720.2881
177.6882, 721.0538
178.1703, 721.9184
178.6524, 722.7998
179.1345, 723.7758
179.6166, 725.1129
180.0988, 726.9382
180.5809, 728.5925
181.0630, 729.3245
181.5451, 729.2455
182.0272, 728.7714
182.5093, 727.4867
182.9915, 725.9818
183.4736, 726.0484
183.9557, 728.1511
184.4378, 730.5451
184.9199, 730.5723
185.4020, 728.5380
185.8842, 726.6270
186.3663, 725.9163
186.8484, 726.2830
187.3305, 727.6387
187.8126, 730.3537
188.2947, 733.1080
188.7769, 733.4899
189.2590, 731.6062
189.7411, 729.6035
190.2232, 728.6882
190.7053, 728.7314
191.1874, 728.9838
191.6696, 729.5595
192.1517, 730.0054
192.6338, 729.1655
193.1159, 726.9844
193.5980, 725.0463
194.0801, 724.5486
194.5623, 725.3685
195.0444, 725.6949
195.5265, 725.2136
196.0086, 724.3697
196.4907, 724.2926
196.9728, 725.1042
197.4550, 725.6225
197.9371, 724.7796
198.4192, 722.5392
198.9013, 721.2187
199.3834, 721.2206
199.8655, 722.0383
200.3477, 722.4919
200.8298, 722.5402
201.3119, 722.4017
201.7940, 722.1805
202.2761, 721.8743
202.7582, 721.4573
203.2404, 720.6908
203.7225, 719.9941
204.2046, 720.8545
204.6867, 723.7745
205.1688, 726.5566
205.6509, 727.7649
206.1331, 727.2260
206.6152, 726.2196
207.0973, 724.4742
207.5794, 722.5242
208.0615, 722.2056
208.5436, 723.9812
209.0258, 726.1709
209.5079, 727.8392
209.9900, 728.9876
210.4721, 729.5551
210.9542, 729.4175
211.4363, 728.7274
211.9185, 727.8544
212.4006, 726.4874
212.8827, 725.5911
213.3648, 725.9203
213.8469, 727.8655
214.3290, 729.5697
214.8112, 730.8472
215.2933, 731.7828
215.7754, 732.7621
216.2575, 733.8970
216.7396, 734.8553
217.2217, 735.3427
217.7038, 735.0939
218.1860, 735.1946
218.6681, 735.8170
219.1502, 736.8239
219.6323, 737.8032
220.1144, 739.0211
220.5965, 739.7572
221.0787, 739.3685
221.5608, 737.0718
222.0429, 735.8793
222.5250, 736.4100
223.0071, 738.1401
223.4892, 739.0686
223.9714, 738.8178
224.4535, 738.3964
224.9356, 738.3472
225.4177, 738.8067
225.8998, 739.3145
226.3819, 739.7750
226.8641, 740.2781
227.3462, 741.1765
227.8283, 742.7618
228.3104, 744.2839
228.7925, 745.3249
229.2746, 745.7155
229.7568, 745.9787
230.2389, 745.9559
230.7210, 745.8378
231.2031, 746.2702
231.6852, 747.4924
232.1673, 748.8984
232.6495, 750.2459
233.1316, 751.7265
233.6137, 752.6783
234.0958, 752.8109
234.5779, 752.4538
235.0600, 752.6357
235.5422, 754.0748
236.0243, 755.0211
236.5064, 754.3668
236.9885, 750.2210
237.4706, 748.8199
237.9527, 751.4527
238.4349, 756.5040
238.9170, 759.9312
239.3991, 761.1003
239.8812, 761.5884
240.3633, 761.9606
240.8454, 762.0352
241.3276, 762.4618
241.8097, 763.4031
242.2918, 764.6302
242.7739, 765.6284
243.2560, 766.2796
243.7381, 766.8871
244.2203, 767.5487
244.7024, 768.2405
245.1845, 769.0665
245.6666, 770.0576
246.1487, 771.1696
246.6308, 772.3934
247.1130, 774.0043
247.5951, 775.2732
248.0772, 775.8448
248.5593, 775.4625
249.0414, 775.3102
249.5235, 775.3440
250.0057, 775.6287
250.4878, 776.3265
250.9699, 777.6898
251.4520, 779.0168
251.9341, 780.1276
252.4162, 781.0706
252.8984, 781.6910
253.3805, 782.5087
253.8626, 782.5872
254.3447, 780.2786
254.8268, 774.1476
255.3089, 768.4990
255.7911, 764.6927
256.2732, 762.9191
256.7553, 761.2022
257.2374, 759.5022
257.7195, 757.8956
258.2017, 756.4484
258.6838, 755.0849
259.1659, 754.0186
259.6480, 753.2120
260.1301, 752.6542
260.6122, 752.9940
261.0944, 754.8826
261.5765, 756.8691
262.0586, 757.1625
262.5407, 754.8738
263.0228, 753.3858
263.5049, 753.6047
263.9871, 755.4656
264.4692, 757.1731
264.9513, 758.7330
265.4334, 760.1630
265.9155, 761.6364
266.3976, 763.3785
266.8798, 764.2350
267.3619, 763.5911
267.8440, 761.7412
268.3261, 761.1747
268.8082, 762.1359
269.2903, 763.8534
269.7725, 766.1578
270.2546, 769.5284
270.7367, 770.9344
271.2188, 769.0455
271.7009, 765.0134
272.1830, 763.9932
272.6652, 766.8001
273.1473, 770.4010
273.6294, 772.8547
274.1115, 774.0244
274.5936, 774.7506
275.0757, 775.0104
275.5579, 774.9556
276.0400, 774.8195
276.5221, 774.4120
277.0042, 774.6644
277.4863, 776.4838
277.9684, 780.0315
278.4506, 782.8207
278.9327, 784.5579
279.4148, 785.6183
279.8969, 786.8134
280.3790, 788.2008
280.8611, 789.3592
281.3433, 789.8969
281.8254, 789.8287
282.3075, 790.2437
282.7896, 791.2774
283.2717, 792.5959
283.7538, 793.6807
284.2360, 794.5278
284.7181, 795.3408
285.2002, 796.1838
285.6823, 797.0612
286.1644, 797.8702
286.6465, 798.4765
287.1287, 799.4529
287.6108, 801.9719
288.0929, 805.9183
288.5750, 809.2520
289.0571, 810.9003
289.5392, 811.3235
290.0214, 812.5139
290.5035, 814.5877
290.9856, 816.4452
291.4677, 816.2282
291.9498, 814.4140
292.4319, 814.0242
292.9141, 816.5710
293.3962, 820.8047
293.8783, 824.0860
294.3604, 826.4020
294.8425, 827.7813
295.3246, 827.4452
295.8068, 826.0627
296.2889, 826.0298
296.7710, 828.5798
297.2531, 831.9749
297.7352, 832.9943
298.2173, 831.8831
298.6995, 830.7589
299.1816, 831.1788
299.6637, 832.6857
300.1458, 834.3865
300.6279, 836.2278
301.1100, 837.9756
301.5922, 838.9938
302.0743, 839.5167
302.5564, 840.5192
303.0385, 843.0864
303.5206, 846.3062
304.0027, 848.6557
304.4849, 849.6053
304.9670, 850.9363
305.4491, 855.1111
305.9312, 861.0398
306.4133, 866.1111
306.8954, 867.9792
307.3776, 868.9415
307.8597, 871.3251
308.3418, 875.3956
308.8239, 879.9742
309.3060, 884.5685
309.7881, 889.0979
310.2703, 893.2795
310.7524, 895.8855
311.2345, 898.9908
311.7166, 904.6298
312.1987, 912.7219
312.6808, 920.3964
313.1630, 925.7372
313.6451, 929.9789
314.1272, 934.4769
314.6093, 938.3584
315.0914, 943.7443
315.5735, 952.3483
316.0557, 963.6453
316.5378, 974.8842
317.0199, 983.8741
317.5020, 992.8995
317.9841, 1003.833
318.4662, 1017.629
318.9484, 1032.252
319.4305, 1047.834
319.9126, 1063.818
320.3947, 1078.731
320.8768, 1093.582
321.3589, 1106.182
321.8411, 1115.616
322.3232, 1121.860
322.8053, 1124.438
323.2874, 1124.126
323.7695, 1119.935
324.2516, 1110.299
324.7338, 1093.245
325.2159, 1072.308
325.6980, 1047.437
326.1801, 1017.240
326.6622, 989.1589
327.1443, 962.8193
327.6265, 939.0106
328.1086, 918.4822
328.5907, 902.7662
329.0728, 888.8497
329.5549, 876.4895
330.0370, 865.6495
330.5192, 855.9261
331.0013, 846.5462
331.4834, 838.8602
331.9655, 833.9279
332.4476, 833.9355
332.9297, 832.9113
333.4119, 829.9890
333.8940, 825.6157
334.3761, 821.6439
334.8582, 817.7274
335.3403, 814.8643
335.8224, 813.8881
336.3046, 815.8061
336.7867, 816.4933
337.2688, 815.4563
337.7509, 813.4590
338.2330, 812.0208
338.7151, 811.2786
339.1973, 810.7081
339.6794, 810.1450
340.1615, 809.6036
340.6436, 808.8824
341.1257, 807.8078
341.6078, 806.9821
342.0899, 807.5682
342.5721, 809.7261
343.0542, 811.1357
343.5363, 810.8867
344.0184, 809.3744
344.5005, 808.0491
344.9826, 806.8610
345.4648, 806.3318
345.9469, 807.3915
346.4290, 809.8035
346.9111, 811.5919
347.3932, 812.2625
347.8753, 812.2634
348.3575, 812.3273
348.8396, 812.4407
349.3217, 812.6042
349.8038, 812.8235
350.2859, 813.0725
350.7680, 813.2213
351.2502, 813.1631
351.7323, 813.3174
352.2144, 814.4836
352.6965, 816.3323
353.1786, 817.8338
353.6607, 818.3293
354.1429, 818.2791
354.6250, 818.1352
355.1071, 817.9218
355.5892, 817.8952
356.0713, 818.3682
356.5534, 819.1486
357.0356, 819.9476
357.5177, 820.7652
357.9998, 821.4930
358.4819, 822.0062
358.9640, 822.3330
359.4461, 822.6094
359.9283, 823.0846
360.4104, 823.4362
360.8925, 823.3093
361.3746, 822.1308
361.8567, 821.2975
362.3388, 821.5107
362.8210, 822.4783
363.3031, 823.5460
363.7852, 824.8182
364.2673, 825.8854
364.7494, 826.4680
365.2315, 826.3602
365.7137, 826.4182
366.1958, 826.6880
366.6779, 827.2513
367.1600, 828.2069
367.6421, 830.4695
368.1242, 832.1932
368.6064, 832.5809
369.0885, 831.5277
369.5706, 831.5723
370.0527, 833.8217
370.5348, 836.3215
371.0169, 837.7441
371.4991, 836.8240
371.9812, 836.9879
372.4633, 838.7939
372.9454, 841.8464
373.4275, 844.7865
373.9096, 847.8702
374.3918, 850.4612
374.8739, 852.0735
375.3560, 852.4169
375.8381, 853.0488
376.3202, 853.6606
376.8023, 854.9384
377.2845, 858.2614
377.7666, 863.9679
378.2487, 869.7306
378.7308, 874.8008
379.2129, 879.2551
379.6950, 883.0219
380.1772, 886.0314
380.6593, 888.8470
381.1414, 891.9150
381.6235, 895.2234
382.1056, 898.9753
382.5877, 903.2764
383.0699, 907.9120
383.5520, 912.6701
384.0341, 917.5427
384.5162, 921.9901
384.9983, 924.9510
385.4804, 927.3797
385.9626, 931.6920
386.4447, 938.4138
386.9268, 945.4554
387.4089, 949.9861
387.8910, 953.2003
388.3731, 957.6865
388.8553, 965.6972
389.3374, 974.8245
389.8195, 982.4173
390.3016, 988.4739
390.7837, 995.1663
391.2658, 1004.027
391.7480, 1014.059
392.2301, 1024.284
392.7122, 1034.790
393.1943, 1044.960
393.6764, 1054.725
394.1585, 1063.947
394.6407, 1072.024
395.1228, 1078.820
395.6049, 1084.472
396.0870, 1089.412
396.5691, 1094.249
397.0512, 1096.388
397.5334, 1095.699
398.0155, 1091.920
398.4976, 1084.761
398.9797, 1072.371
399.4618, 1058.474
399.9439, 1042.974
400.4261, 1025.886
400.9082, 1010.179
401.3903, 995.7855
401.8724, 982.8089
402.3545, 971.4779
402.8366, 962.9819
403.3188, 953.6620
403.8009, 942.6490
404.2830, 930.9881
404.7651, 921.4037
405.2472, 914.4385
405.7293, 908.2680
406.2115, 901.9702
406.6936, 895.5530
407.1757, 890.9238
407.6578, 888.4401
408.1399, 886.7679
408.6220, 884.2833
409.1042, 881.0123
409.5863, 877.9737
410.0684, 875.2351
410.5505, 873.0641
411.0326, 872.3334
411.5147, 872.9949
411.9969, 873.6174
412.4790, 873.1346
412.9611, 871.8564
413.4432, 870.3798
413.9253, 868.6334
414.4074, 867.2500
414.8896, 867.1777
415.3717, 868.0031
415.8538, 868.7556
416.3359, 868.4714
416.8180, 868.2234
417.3001, 869.2430
417.7823, 871.5128
418.2644, 873.5639
418.7465, 874.4683
419.2286, 874.8096
419.7107, 875.1377
420.1928, 875.6275
420.6750, 876.0682
421.1571, 876.3506
421.6392, 876.5135
422.1213, 876.6581
422.6034, 877.1323
423.0855, 877.3197
423.5677, 876.9771
424.0498, 876.0537
424.5319, 874.7448
425.0140, 872.4572
425.4961, 870.0914
425.9782, 868.5527
426.4604, 868.2534
426.9425, 868.2416
427.4246, 868.6677
427.9067, 869.3825
428.3888, 869.0304
428.8709, 866.5691
429.3531, 864.8811
429.8352, 866.1373
430.3173, 871.2875
430.7994, 874.2338
431.2815, 874.2971
431.7636, 872.9193
432.2458, 872.1891
432.7279, 872.0976
433.2100, 872.6436
433.6921, 874.0569
434.1742, 876.0626
434.6563, 877.5243
435.1385, 878.4339
435.6206, 879.4611
436.1027, 881.2786
436.5848, 883.6718
437.0669, 886.1072
437.5490, 888.5729
438.0312, 890.8697
438.5133, 892.5692
438.9954, 893.9219
439.4775, 895.6069
439.9596, 898.5233
440.4417, 901.6022
440.9239, 903.7859
441.4060, 905.0217
441.8881, 906.1891
442.3702, 907.7189
442.8523, 909.4454
443.3344, 911.2194
443.8166, 912.9941
444.2987, 914.8052
444.7808, 916.8718
445.2629, 918.9971
445.7450, 920.6346
446.2271, 921.4512
446.7093, 921.8924
447.1914, 922.1882
447.6735, 922.5367
448.1556, 922.0270
448.6377, 920.2306
449.1198, 917.8670
449.6020, 915.6533
450.0841, 913.8155
450.5662, 911.7425
451.0483, 909.2415
451.5304, 906.4369
452.0125, 903.9941
452.4947, 902.0170
452.9768, 900.0176
453.4589, 897.7581
453.9410, 895.2131
454.4231, 892.0223
454.9052, 887.7827
455.3874, 884.0187
455.8695, 883.3901
456.3516, 885.3954
456.8337, 886.3527
457.3158, 884.6473
457.7979, 881.5641
458.2801, 879.1293
458.7622, 877.3438
459.2443, 876.1329
459.7264, 875.7933
460.2085, 875.8993
460.6906, 876.0242
461.1728, 876.2151
461.6549, 875.9719
462.1370, 874.5544
462.6191, 872.5660
463.1012, 870.9160
463.5833, 869.7666
464.0655, 869.1833
464.5476, 869.4723
465.0297, 870.5097
465.5118, 871.3480
465.9939, 871.7414
466.4760, 871.8283
466.9582, 871.6952
467.4403, 871.4978
467.9224, 870.7548
468.4045, 868.7482
468.8866, 866.4964
469.3687, 865.5005
469.8509, 866.4504
470.3330, 867.4589
470.8151, 868.1533
471.2972, 868.5595
471.7793, 868.8323
472.2614, 868.8956
472.7436, 869.0653
473.2257, 869.6913
473.7078, 870.7913
474.1899, 871.5251
474.6720, 871.8236
475.1541, 871.7711
475.6363, 871.1891
476.1184, 870.2162
476.6005, 869.7779
477.0826, 870.5591
477.5647, 871.9033
478.0468, 872.8389
478.5290, 873.3729
479.0111, 873.5705
479.4932, 873.2099
479.9753, 872.6552
480.4574, 872.2742
480.9395, 872.0623
481.4217, 872.2752
481.9038, 873.7500
482.3859, 875.5948
482.8680, 876.4741
483.3501, 874.5544
483.8322, 872.9373
484.3144, 872.9935
484.7965, 874.6182
485.2786, 875.9314
485.7607, 876.8513
486.2428, 877.1995
486.7249, 876.7758
487.2071, 874.7797
487.6892, 873.7748
488.1713, 874.2761
488.6534, 875.4224
489.1355, 875.8646
489.6176, 875.1978
490.0998, 875.1638
490.5819, 876.5677
491.0640, 878.9410
491.5461, 879.6478
492.0282, 878.5323
492.5103, 877.0671
492.9925, 875.9481
493.4746, 875.2623
493.9567, 875.7473
494.4388, 877.6345
494.9209, 879.7044
495.4030, 880.7244
495.8852, 880.8326
496.3673, 880.3624
496.8494, 878.6257
497.3315, 877.1028
497.8136, 877.5203
498.2957, 879.4796
498.7779, 881.3616
499.2600, 882.2000
499.7421, 882.7508
500.2242, 883.4885
500.7063, 884.4666
501.1884, 885.7357
501.6706, 888.3832
502.1527, 890.8730
502.6348, 891.5992
503.1169, 888.0746
503.5990, 885.5290
504.0811, 884.6103
504.5633, 885.0978
505.0454, 886.3088
505.5275, 888.7868
506.0096, 891.0157
506.4917, 892.2590
506.9738, 892.4112
507.4560, 893.0060
507.9381, 894.1638
508.4202, 895.4260
508.9023, 895.9880
509.3844, 895.9447
509.8665, 897.2090
510.3487, 900.6075
510.8308, 904.6039
511.3129, 906.2824
511.7950, 906.1223
512.2772, 906.3429
512.7593, 908.4424
513.2414, 911.3945
513.7235, 914.0537
514.2056, 916.3972
514.6877, 918.6738
515.1699, 921.2115
515.6520, 923.6584
516.1341, 925.6553
516.6162, 926.9248
517.0983, 928.1119
517.5804, 928.9795
518.0626, 929.9836
518.5447, 931.8777
519.0268, 935.7842
519.5089, 939.5168
519.9910, 942.4306
520.4731, 944.6028
520.9553, 947.1783
521.4374, 950.5233
521.9195, 953.6949
522.4016, 956.1184
522.8837, 957.6346
523.3658, 959.3145
523.8480, 961.4246
524.3301, 963.1911
524.8122, 963.1047
525.2943, 961.3246
525.7764, 960.3395
526.2585, 961.0988
526.7407, 962.7283
527.2228, 964.0641
527.7049, 965.0088
528.1870, 964.9669
528.6691, 963.1025
529.1512, 960.2949
529.6334, 957.3282
530.1155, 954.2062
530.5976, 951.5634
531.0797, 949.9923
531.5618, 948.9241
532.0439, 947.8254
532.5261, 946.5686
533.0082, 945.2159
533.4903, 943.7534
533.9724, 942.1893
534.4545, 940.5112
534.9366, 938.8171
535.4188, 936.9000
535.9009, 934.4949
536.3830, 931.6400
536.8651, 929.8853
537.3472, 929.9228
537.8293, 929.7454
538.3115, 927.7881
538.7936, 923.9024
539.2757, 920.5282
539.7578, 917.6920
540.2399, 915.7225
540.7220, 915.7278
541.2042, 917.2695
541.6863, 917.8054
542.1684, 916.2600
542.6505, 913.6559
543.1326, 910.9543
543.6147, 908.3253
544.0969, 906.3843
544.5790, 905.9599
545.0611, 906.0982
545.5432, 906.1113
546.0253, 905.9395
546.5074, 905.5797
546.9896, 905.1190
547.4717, 904.4199
547.9538, 903.3581
548.4359, 901.3348
548.9180, 899.7429
549.4001, 898.3795
549.8823, 897.5954
550.3644, 898.2402
550.8465, 901.8478
551.3286, 903.9694
551.8107, 903.0980
552.2928, 899.6946
552.7750, 897.0244
553.2571, 895.0425
553.7392, 893.9344
554.2213, 894.1608
554.7034, 895.4811
555.1855, 896.6910
555.6677, 897.7937
556.1498, 898.2968
556.6319, 897.1165
557.1140, 895.0028
557.5961, 893.4990
558.0782, 893.0820
558.5604, 893.3383
559.0425, 894.3729
559.5246, 895.8224
560.0067, 896.8731
560.4888, 897.4685
560.9709, 897.3290
561.4531, 895.5937
561.9352, 892.2728
562.4173, 890.7479
562.8994, 893.1848
563.3815, 896.1595
563.8636, 898.0348
564.3458, 898.5637
564.8279, 898.5271
565.3100, 897.5273
565.7921, 896.4736
566.2742, 896.9443
566.7563, 899.2333
567.2385, 900.0576
567.7206, 898.1757
568.2027, 895.1130
568.6848, 894.3750
569.1669, 895.6993
569.6490, 897.2221
570.1312, 897.9453
570.6133, 898.2733
571.0954, 898.8639
571.5775, 899.7020
572.0596, 900.2634
572.5417, 899.2522
573.0239, 898.3748
573.5060, 899.4783
573.9881, 904.0206
574.4702, 907.4246
574.9523, 907.6138
575.4344, 906.2142
575.9166, 905.2765
576.3987, 905.1465
576.8808, 905.2549
577.3629, 905.7542
577.8450, 906.4277
578.3271, 906.5137
578.8093, 905.8314
579.2914, 905.0465
579.7735, 904.1479
580.2556, 903.2855
580.7377, 904.1241
581.2198, 906.8405
581.7020, 909.1453
582.1841, 908.6670
582.6662, 906.3720
583.1483, 904.5010
583.6304, 903.3781
584.1125, 902.6702
584.5947, 902.2803
585.0768, 902.0859
585.5589, 901.9083
586.0410, 901.6751
586.5231, 901.4987
587.0052, 901.5035
587.4873, 901.6332
587.9694, 901.7103
588.4515, 902.2243
588.9337, 902.1536
589.4158, 900.8469
589.8979, 898.2930
590.3800, 897.0342
590.8621, 897.6049
591.3442, 898.5051
591.8264, 898.6494
592.3085, 897.9330
592.7906, 897.9503
593.2727, 898.8385
593.7548, 900.0623
594.2369, 900.9619
594.7191, 901.6522
595.2012, 902.7250
595.6833, 904.7078
596.1654, 906.3549
596.6475, 906.0064
597.1296, 904.2590
597.6118, 902.4922
598.0939, 901.0809
598.5760, 900.0675
599.0581, 899.6852
599.5402, 899.8694
600.0223, 899.8824
600.5045, 898.8121
600.9866, 898.2377
601.4687, 899.2080
601.9508, 902.4856
602.4329, 903.8204
602.9150, 902.1399
603.3972, 899.9924
603.8793, 899.7258
604.3614, 901.4955
604.8435, 903.5035
605.3256, 905.7408
605.8077, 907.6027
606.2899, 907.8454
606.7720, 906.7359
607.2541, 905.4982
607.7362, 904.0632
608.2183, 903.2460
608.7004, 904.7174
609.1826, 907.8126
609.6647, 910.1735
610.1468, 909.7064
610.6289, 908.9081
611.1110, 909.4688
611.5931, 911.5491
612.0753, 913.2654
612.5574, 913.5511
613.0395, 913.9503
613.5216, 915.3956
614.0037, 918.4738
614.4858, 921.1642
614.9680, 923.4894
615.4501, 925.3870
615.9322, 926.6136
616.4143, 927.1101
616.8964, 927.8116
617.3785, 928.8458
617.8607, 930.2130
618.3428, 932.1720
618.8249, 934.5450
619.3070, 936.5977
619.7891, 938.2291
620.2712, 939.2142
620.7534, 938.9222
621.2355, 937.6465
621.7176, 936.7220
622.1997, 938.0169
622.6818, 938.8832
623.1639, 937.6168
623.6461, 933.7794
624.1282, 929.9676
624.6103, 925.8272
625.0924, 922.3068
625.5745, 920.0970
626.0566, 919.6453
626.5388, 919.1774
627.0209, 918.7211
