##NAMES=Beryl
##RRUFFID=R060943
##IDEAL CHEMISTRY=Be_3_Al_2_Si_6_O_18_
##LOCALITY=Xinjiang, China
##OWNER=RRUFF
##SOURCE=Lawrence W. Snee
##DESCRIPTION=Green hexagonal prisms, variety emerald
##STATUS=The identification of this mineral has been confirmed by X-ray diffraction and chemical analysis
##URL=rruff.info/R060943
##MEASURED CHEMISTRY=(Be_2.96_Li_0.04_)_Σ=3_(Al_1.64_Mg_0.21_V^3+^_0.06_Fe^3+^_0.04_Sc^3+^_0.03_Cr^3+^_0.02_)_Σ=2_Si_6.00_O_18_·Na_0.25_
183.7211, 213219.2
184.2032, 213478.1
184.6853, 213800.5
185.1674, 214170.8
185.6495, 214630.5
186.1317, 215088.0
186.6138, 215435.7
187.0959, 215659.8
187.5780, 215846.2
188.0601, 216058.3
188.5422, 216287.8
189.0244, 216478.7
189.5065, 216575.6
189.9886, 216669.3
190.4707, 216875.5
190.9528, 217210.9
191.4349, 217522.6
191.9171, 217696.0
192.3992, 217746.8
192.8813, 217775.9
193.3634, 217778.8
193.8455, 217802.6
194.3276, 217898.4
194.8098, 218070.5
195.2919, 218247.8
195.7740, 218377.6
196.2561, 218468.4
196.7382, 218572.5
197.2203, 218695.5
197.7025, 218844.8
198.1846, 219043.3
198.6667, 219289.0
199.1488, 219500.2
199.6309, 219598.2
200.1130, 219604.0
200.5951, 219644.5
201.0773, 219751.1
201.5594, 219882.4
202.0415, 220031.9
202.5236, 220190.5
203.0057, 220277.7
203.4878, 220214.1
203.9700, 220025.2
204.4521, 219840.4
204.9342, 219678.9
205.4163, 219513.2
205.8984, 219328.0
206.3805, 219122.5
206.8627, 218897.0
207.3448, 218658.5
207.8269, 218400.6
208.3090, 218076.3
208.7911, 217604.0
209.2732, 217194.1
209.7554, 217009.4
210.2375, 217001.5
210.7196, 217024.1
211.2017, 217048.9
211.6838, 217049.1
212.1659, 216911.4
212.6481, 216539.4
213.1302, 216213.7
213.6123, 216133.4
214.0944, 216237.5
214.5765, 216396.9
215.0586, 216578.4
215.5408, 216773.7
216.0229, 216967.1
216.5050, 217165.2
216.9871, 217350.6
217.4692, 217504.8
217.9513, 217642.8
218.4335, 217790.3
218.9156, 217966.4
219.3977, 218156.2
219.8798, 218332.7
220.3619, 218496.6
220.8440, 218649.9
221.3262, 218807.3
221.8083, 218953.6
222.2904, 219063.1
222.7725, 219138.7
223.2546, 219163.1
223.7367, 219096.3
224.2189, 218921.8
224.7010, 218733.2
225.1831, 218578.5
225.6652, 218433.7
226.1473, 218273.3
226.6294, 218095.3
227.1115, 217888.6
227.5937, 217608.6
228.0758, 217245.5
228.5579, 216955.5
229.0400, 216867.9
229.5221, 216861.4
230.0042, 216770.4
230.4864, 216539.5
230.9685, 216308.4
231.4506, 216198.5
231.9327, 216205.4
232.4148, 216256.2
232.8969, 216356.5
233.3791, 216467.1
233.8612, 216535.3
234.3433, 216552.0
234.8254, 216559.2
235.3075, 216567.1
235.7896, 216582.9
236.2718, 216652.5
236.7539, 216816.6
237.2360, 217005.9
237.7181, 217144.2
238.2002, 217231.3
238.6823, 217280.8
239.1645, 217286.3
239.6466, 217259.0
240.1287, 217229.3
240.6108, 217205.9
241.0929, 217179.2
241.5750, 217132.4
242.0572, 217068.8
242.5393, 217020.2
243.0214, 217093.4
243.5035, 217170.2
243.9856, 217015.3
244.4677, 216564.7
244.9499, 216013.2
245.4320, 215499.2
245.9141, 215026.6
246.3962, 214671.8
246.8783, 214494.8
247.3604, 214422.8
247.8426, 214397.0
248.3247, 214414.3
248.8068, 214413.2
249.2889, 214322.4
249.7710, 214158.1
250.2531, 214049.0
250.7352, 214057.1
251.2174, 214078.8
251.6995, 213977.6
252.1816, 213771.8
252.6637, 213678.4
253.1458, 213881.6
253.6279, 214310.7
254.1101, 214574.2
254.5922, 214586.2
255.0743, 214523.4
255.5564, 214435.6
256.0385, 214337.9
256.5207, 214287.0
257.0028, 214330.6
257.4849, 214421.4
257.9670, 214391.2
258.4491, 214103.5
258.9312, 213918.6
259.4134, 214052.4
259.8955, 214343.6
260.3776, 214508.2
260.8597, 214438.1
261.3418, 214221.9
261.8239, 214023.8
262.3060, 213845.8
262.7881, 213687.9
263.2703, 213558.3
263.7524, 213446.9
264.2345, 213355.6
264.7166, 213282.8
265.1987, 213197.3
265.6808, 213059.9
266.1630, 212863.2
266.6451, 212617.6
267.1272, 212239.2
267.6093, 211874.1
268.0914, 211650.8
268.5735, 211565.8
269.0557, 211503.3
269.5378, 211346.6
270.0199, 211073.6
270.5020, 210862.0
270.9841, 210757.1
271.4662, 210656.5
271.9484, 210504.9
272.4305, 210316.6
272.9126, 210135.9
273.3947, 209988.1
273.8768, 209875.6
274.3589, 209831.5
274.8411, 209931.1
275.3232, 210015.4
275.8053, 210017.8
276.2874, 209992.2
276.7695, 210025.8
277.2516, 210164.5
277.7338, 210369.3
278.2159, 210519.1
278.6980, 210562.8
279.1801, 210623.9
279.6622, 210746.1
280.1443, 210872.2
280.6265, 210944.3
281.1086, 210945.8
281.5907, 210912.7
282.0728, 210902.2
282.5549, 210925.4
283.0370, 210939.2
283.5192, 210938.9
284.0013, 210931.3
284.4834, 210928.0
284.9655, 210926.3
285.4476, 210905.5
285.9297, 210860.6
286.4119, 210797.1
286.8940, 210641.5
287.3761, 210320.7
287.8582, 209981.8
288.3403, 209685.2
288.8224, 209426.6
289.3046, 209180.1
289.7867, 208938.0
290.2688, 208698.3
290.7509, 208455.3
291.2330, 208226.6
291.7151, 207960.7
292.1973, 207582.2
292.6794, 207167.9
293.1615, 206830.0
293.6436, 206617.2
294.1257, 206481.6
294.6078, 206355.5
295.0900, 206236.0
295.5721, 206138.7
296.0542, 206071.3
296.5363, 206026.5
297.0184, 205989.4
297.5005, 205946.8
297.9827, 205941.0
298.4648, 206034.4
298.9469, 206200.5
299.4290, 206307.1
299.9111, 206286.7
300.3932, 206236.3
300.8754, 206280.1
301.3575, 206415.5
301.8396, 206577.4
302.3217, 206791.9
302.8038, 207002.8
303.2859, 207093.3
303.7681, 207033.1
304.2502, 206973.6
304.7323, 207085.1
305.2144, 207366.4
305.6965, 207554.9
306.1786, 207616.3
306.6608, 207595.3
307.1429, 207509.8
307.6250, 207367.5
308.1071, 207191.0
308.5892, 206995.9
309.0714, 206780.0
309.5535, 206526.5
310.0356, 206222.1
310.5177, 205904.2
310.9998, 205559.0
311.4819, 205211.6
311.9640, 204904.4
312.4461, 204653.4
312.9283, 204444.1
313.4104, 204242.5
313.8925, 204102.8
314.3746, 203893.5
314.8567, 203525.5
315.3388, 203147.6
315.8210, 202899.5
316.3031, 202798.3
316.7852, 202745.0
317.2673, 202611.5
317.7494, 202350.6
318.2315, 202222.9
318.7137, 202299.6
319.1958, 202431.3
319.6779, 202584.3
320.1600, 202742.0
320.6421, 202883.6
321.1242, 202987.3
321.6064, 203061.2
322.0885, 203165.5
322.5706, 203321.0
323.0527, 203469.0
323.5348, 203588.8
324.0169, 203690.8
324.4991, 203801.1
324.9812, 203936.7
325.4633, 204036.8
325.9454, 203978.4
326.4275, 203721.3
326.9096, 203506.3
327.3918, 203443.4
327.8739, 203405.9
328.3560, 203310.0
328.8381, 203148.1
329.3202, 202946.0
329.8023, 202719.1
330.2845, 202469.7
330.7666, 202197.4
331.2487, 201894.3
331.7308, 201585.6
332.2129, 201290.4
332.6950, 201006.4
333.1772, 200726.8
333.6593, 200447.6
334.1414, 200172.7
334.6235, 199916.9
335.1056, 199680.3
335.5877, 199421.6
336.0699, 199115.8
336.5520, 198770.5
337.0341, 198416.1
337.5162, 197988.5
337.9983, 197637.4
338.4804, 197477.2
338.9626, 197435.6
339.4447, 197364.3
339.9268, 197208.1
340.4089, 197011.8
340.8910, 196849.3
341.3731, 196721.9
341.8553, 196628.1
342.3374, 196586.6
342.8195, 196563.4
343.3016, 196543.3
343.7837, 196516.7
344.2658, 196457.0
344.7480, 196326.0
345.2301, 196111.4
345.7122, 196004.9
346.1943, 196082.8
346.6764, 196178.6
347.1585, 196248.1
347.6407, 196300.9
348.1228, 196371.4
348.6049, 196482.7
349.0870, 196595.9
349.5691, 196589.2
350.0512, 196359.2
350.5334, 196218.7
351.0155, 196307.8
351.4976, 196431.6
351.9797, 196433.4
352.4618, 196288.0
352.9439, 196099.6
353.4261, 195992.1
353.9082, 195964.8
354.3903, 195865.2
354.8724, 195660.7
355.3545, 195406.2
355.8366, 195116.6
356.3188, 194809.0
356.8009, 194529.2
357.2830, 194343.7
357.7651, 194177.2
358.2472, 193878.7
358.7293, 193433.5
359.2115, 193018.8
359.6936, 192736.1
360.1757, 192539.5
360.6578, 192321.7
361.1399, 192054.1
361.6220, 191816.2
362.1041, 191699.1
362.5862, 191640.2
363.0684, 191473.2
363.5505, 191133.3
364.0326, 190763.3
364.5147, 190564.2
364.9968, 190582.9
365.4789, 190589.8
365.9611, 190572.4
366.4432, 190539.7
366.9253, 190476.1
367.4074, 190395.2
367.8895, 190347.8
368.3716, 190374.1
368.8538, 190467.5
369.3359, 190561.2
369.8180, 190629.2
370.3001, 190726.0
370.7822, 190915.3
371.2643, 191115.3
371.7465, 191215.9
372.2286, 191179.5
372.7107, 191085.9
373.1928, 191077.1
373.6749, 191202.0
374.1570, 191252.5
374.6392, 191131.3
375.1213, 191003.0
375.6034, 190964.9
376.0855, 190999.5
376.5676, 191013.1
377.0497, 190930.7
377.5319, 190775.6
378.0140, 190646.0
378.4961, 190575.8
378.9782, 190441.9
379.4603, 190143.9
379.9424, 189755.5
380.4246, 189350.5
380.9067, 188920.6
381.3888, 188527.9
381.8709, 188254.4
382.3530, 188071.5
382.8351, 187842.2
383.3173, 187516.8
383.7994, 187155.1
384.2815, 186829.2
384.7636, 186532.8
385.2457, 186304.1
385.7278, 186175.5
386.2100, 186102.0
386.6921, 186051.2
387.1742, 186018.9
387.6563, 186003.7
388.1384, 186002.3
388.6205, 186016.4
389.1027, 186070.0
389.5848, 186205.2
390.0669, 186323.6
390.5490, 186375.7
391.0311, 186412.5
391.5132, 186491.2
391.9954, 186631.5
392.4775, 186820.4
392.9596, 187051.6
393.4417, 187357.0
393.9238, 187602.2
394.4059, 187749.0
394.8881, 187867.4
395.3702, 188005.7
395.8523, 188141.3
396.3344, 188208.0
396.8165, 188151.8
397.2986, 188005.7
397.7808, 187870.8
398.2629, 187770.0
398.7450, 187596.6
399.2271, 187252.3
399.7092, 186835.9
400.1913, 186453.9
400.6735, 186125.1
401.1556, 185808.6
401.6377, 185487.6
402.1198, 185160.2
402.6019, 184814.1
403.0840, 184451.1
403.5662, 184067.4
404.0483, 183651.1
404.5304, 183202.3
405.0125, 182794.8
405.4946, 182456.9
405.9767, 182146.0
406.4589, 181836.6
406.9410, 181536.7
407.4231, 181259.7
407.9052, 181007.5
408.3873, 180802.5
408.8694, 180707.3
409.3516, 180870.5
409.8336, 180928.7
410.3158, 180773.9
410.7979, 180589.0
411.2800, 180502.3
411.7621, 180527.7
412.2442, 180610.2
412.7263, 180707.5
413.2085, 180816.8
413.6906, 180924.0
414.1727, 181060.6
414.6548, 181135.7
415.1369, 181062.5
415.6190, 180933.2
416.1012, 180885.1
416.5833, 180982.3
417.0654, 181090.3
417.5475, 181047.0
418.0296, 180867.4
418.5117, 180707.7
418.9939, 180615.6
419.4760, 180535.9
419.9581, 180400.8
420.4402, 180216.8
420.9223, 180048.9
421.4044, 179937.0
421.8866, 179832.1
422.3687, 179681.1
422.8508, 179492.4
423.3329, 179324.3
423.8150, 179222.9
424.2971, 179151.8
424.7793, 178977.7
425.2614, 178636.4
425.7435, 178274.7
426.2256, 177830.3
426.7077, 177413.5
427.1898, 177139.5
427.6720, 177014.8
428.1541, 176939.4
428.6362, 176810.3
429.1183, 176625.9
429.6004, 176482.3
430.0826, 176438.8
430.5647, 176357.6
431.0468, 176166.7
431.5289, 175924.3
432.0110, 175705.5
432.4931, 175534.7
432.9753, 175403.4
433.4574, 175315.5
433.9395, 175268.1
434.4216, 175201.0
434.9037, 175079.2
435.3858, 174969.4
435.8680, 174967.1
436.3501, 175055.3
436.8322, 175094.1
437.3143, 174999.0
437.7964, 174876.7
438.2785, 174836.9
438.7607, 174863.9
439.2428, 174862.2
439.7249, 174776.8
440.2070, 174638.4
440.6891, 174533.7
441.1712, 174478.6
441.6534, 174432.0
442.1355, 174399.4
442.6176, 174367.3
443.0997, 174330.4
443.5818, 174283.1
444.0639, 174212.8
444.5461, 174100.8
445.0282, 173952.7
445.5103, 173845.5
445.9924, 173840.3
446.4745, 173771.6
446.9566, 173573.1
447.4388, 173303.9
447.9209, 173019.3
448.4030, 172731.2
448.8851, 172454.4
449.3672, 172203.0
449.8493, 171977.6
450.3315, 171786.3
450.8136, 171640.7
451.2957, 171508.4
451.7778, 171373.0
452.2599, 171233.0
452.7420, 171067.4
453.2242, 170862.8
453.7063, 170646.9
454.1884, 170417.2
454.6705, 170189.1
455.1526, 169990.7
455.6347, 169831.6
456.1169, 169713.9
456.5990, 169652.7
457.0811, 169711.4
457.5632, 169647.3
458.0453, 169296.9
458.5274, 168991.2
459.0095, 168966.8
459.4916, 169118.7
459.9738, 169162.5
460.4559, 168901.9
460.9380, 168502.2
461.4201, 168407.0
461.9022, 168720.9
462.3843, 168894.5
462.8665, 168715.2
463.3486, 168402.3
463.8307, 168093.6
464.3128, 167803.7
464.7949, 167605.3
465.2770, 167589.4
465.7592, 167665.2
466.2413, 167719.4
466.7234, 167745.2
467.2055, 167726.6
467.6876, 167645.3
468.1697, 167519.4
468.6519, 167411.6
469.1340, 167341.2
469.6161, 167254.6
470.0982, 167120.6
470.5803, 166979.8
471.0624, 166883.5
471.5446, 166827.0
472.0267, 166752.5
472.5088, 166606.7
472.9909, 166392.2
473.4730, 166158.5
473.9551, 165879.0
474.4373, 165619.2
474.9194, 165393.6
475.4015, 165192.5
475.8836, 165018.1
476.3657, 164872.0
476.8478, 164711.3
477.3300, 164468.0
477.8121, 164176.8
478.2942, 163981.8
478.7763, 163919.3
479.2584, 163868.8
479.7405, 163745.1
480.2227, 163560.1
480.7048, 163382.1
481.1869, 163220.9
481.6690, 163060.7
482.1511, 162863.7
482.6332, 162675.3
483.1154, 162570.0
483.5975, 162565.4
484.0796, 162614.2
484.5617, 162662.3
485.0438, 162707.7
485.5259, 162765.0
486.0081, 162860.0
486.4902, 162935.5
486.9723, 162959.1
487.4544, 162957.4
487.9365, 162977.6
488.4186, 163038.5
488.9008, 163082.5
489.3829, 163005.2
489.8650, 162820.3
490.3471, 162740.0
490.8292, 162850.1
491.3113, 162954.2
491.7935, 162872.2
492.2756, 162647.1
492.7577, 162414.0
493.2398, 162185.3
493.7219, 161960.8
494.2040, 161725.8
494.6862, 161498.2
495.1683, 161333.5
495.6504, 161249.5
496.1325, 161174.8
496.6146, 161008.6
497.0967, 160730.9
497.5789, 160453.4
498.0610, 160167.9
498.5431, 159891.6
499.0252, 159613.5
499.5073, 159355.5
499.9894, 159157.1
500.4716, 159037.9
500.9537, 158953.9
501.4358, 158852.0
501.9179, 158732.4
502.4000, 158582.4
502.8821, 158375.7
503.3643, 158179.6
503.8464, 158053.0
504.3285, 157982.8
504.8106, 157930.3
505.2927, 157914.1
505.7748, 157890.1
506.2570, 157801.9
506.7391, 157688.1
507.2212, 157654.9
507.7033, 157738.4
508.1854, 157835.3
508.6675, 157793.7
509.1496, 157567.0
509.6317, 157421.4
510.1139, 157388.4
510.5960, 157397.7
511.0781, 157477.7
511.5602, 157568.9
512.0424, 157583.6
512.5245, 157485.1
513.0066, 157322.5
513.4887, 157140.3
513.9708, 156939.8
514.4529, 156773.4
514.9351, 156652.4
515.4172, 156558.0
515.8993, 156482.5
516.3814, 156422.2
516.8635, 156368.2
517.3456, 156323.4
517.8278, 156278.8
518.3099, 156249.7
518.7920, 156211.8
519.2741, 156105.1
519.7562, 155915.7
520.2383, 155723.0
520.7205, 155635.1
521.2026, 155674.6
521.6847, 155592.8
522.1668, 155244.7
522.6489, 154930.8
523.1310, 154714.1
523.6132, 154574.4
524.0953, 154504.9
524.5774, 154506.1
525.0595, 154491.4
525.5416, 154353.0
526.0237, 154120.2
526.5059, 153928.9
526.9880, 153801.5
527.4701, 153677.5
527.9522, 153502.3
528.4343, 153298.9
528.9164, 153152.3
529.3986, 153095.0
529.8807, 153052.1
530.3628, 153031.0
530.8449, 152998.8
531.3270, 152902.2
531.8091, 152742.9
532.2913, 152583.4
532.7734, 152484.0
533.2554, 152436.7
533.7375, 152350.1
534.2197, 152182.2
534.7018, 152047.2
535.1839, 151998.9
535.6660, 151973.3
536.1481, 151914.2
536.6302, 151813.6
537.1124, 151698.8
537.5945, 151571.1
538.0766, 151444.5
538.5587, 151363.1
539.0408, 151324.5
539.5229, 151245.5
540.0051, 151077.8
540.4872, 150847.8
540.9693, 150621.6
541.4514, 150388.0
541.9335, 150183.1
542.4156, 150032.8
542.8978, 149896.4
543.3799, 149749.9
543.8620, 149594.1
544.3441, 149442.0
544.8262, 149307.5
545.3083, 149167.8
545.7905, 148946.3
546.2726, 148617.2
546.7547, 148385.6
547.2368, 148355.4
547.7189, 148360.5
548.2010, 148241.2
548.6832, 148025.4
549.1653, 147859.5
549.6474, 147820.5
550.1295, 147807.1
550.6116, 147756.8
551.0938, 147672.5
551.5759, 147554.5
552.0580, 147403.5
552.5401, 147246.3
553.0222, 147117.5
553.5043, 147014.4
553.9865, 146954.4
554.4686, 147009.3
554.9507, 147029.9
555.4328, 146971.0
555.9149, 146860.8
556.3970, 146714.9
556.8792, 146536.1
557.3613, 146404.7
557.8434, 146451.2
558.3255, 146606.6
558.8076, 146635.4
559.2897, 146505.3
559.7719, 146348.0
560.2540, 146237.1
560.7361, 146164.2
561.2182, 146101.0
561.7003, 146100.5
562.1824, 146020.4
562.6646, 145744.8
563.1467, 145446.7
563.6288, 145279.4
564.1109, 145235.9
564.5930, 145214.8
565.0751, 145150.6
565.5573, 145052.8
566.0394, 144965.2
566.5215, 144910.5
567.0036, 144750.9
567.4857, 144362.6
567.9678, 143957.9
568.4500, 143740.8
568.9321, 143685.6
569.4142, 143611.0
569.8963, 143470.3
570.3784, 143292.1
570.8605, 143055.6
571.3427, 142804.6
571.8248, 142656.0
572.3069, 142646.8
572.7890, 142662.3
573.2711, 142546.3
573.7532, 142280.0
574.2354, 142069.3
574.7175, 141950.2
575.1996, 141846.5
575.6817, 141748.0
576.1638, 141649.3
576.6459, 141532.0
577.1281, 141391.2
577.6102, 141286.1
578.0923, 141306.4
578.5744, 141381.4
579.0565, 141342.9
579.5386, 141182.2
580.0208, 141042.4
580.5029, 141006.9
580.9850, 141040.3
581.4671, 141050.9
581.9492, 141039.2
582.4313, 140998.4
582.9135, 140924.3
583.3956, 140822.9
583.8777, 140661.9
584.3598, 140478.3
584.8419, 140370.5
585.3240, 140404.9
585.8062, 140463.7
586.2883, 140326.5
586.7704, 140003.8
587.2525, 139780.0
587.7346, 139742.4
588.2167, 139706.5
588.6989, 139480.8
589.1810, 139111.3
589.6631, 138885.1
590.1452, 138936.9
590.6273, 138978.0
591.1094, 138942.4
591.5916, 138833.6
592.0737, 138615.6
592.5558, 138310.1
593.0379, 138035.0
593.5200, 137890.3
594.0021, 137850.5
594.4843, 137806.7
594.9664, 137760.2
595.4485, 137701.3
595.9306, 137589.9
596.4127, 137498.3
596.8948, 137523.8
597.3770, 137654.5
597.8591, 137719.7
598.3412, 137630.2
598.8233, 137496.1
599.3054, 137377.3
599.7875, 137279.6
600.2697, 137208.4
600.7518, 137166.0
601.2339, 137153.1
601.7160, 137187.4
602.1981, 137278.5
602.6802, 137254.1
603.1624, 137017.2
603.6445, 136813.3
604.1266, 136748.2
604.6087, 136737.3
605.0908, 136687.5
605.5729, 136583.4
606.0551, 136492.3
606.5372, 136464.0
607.0193, 136460.3
607.5014, 136442.5
607.9835, 136404.2
608.4656, 136322.1
608.9478, 136177.8
609.4299, 136017.4
609.9120, 135933.7
610.3941, 135966.5
610.8762, 135946.2
611.3583, 135865.1
611.8405, 135736.0
612.3226, 135503.7
612.8047, 135245.9
613.2868, 135082.9
613.7689, 135058.0
614.2510, 135075.3
614.7332, 135098.0
615.2153, 135097.1
615.6974, 134984.3
616.1795, 134756.5
616.6616, 134542.6
617.1437, 134417.4
617.6259, 134362.6
618.1080, 134326.4
618.5901, 134333.4
619.0722, 134316.1
619.5543, 134264.3
620.0364, 134199.2
620.5186, 134129.7
621.0007, 134054.5
621.4828, 133966.3
621.9649, 133856.5
622.4470, 133750.8
622.9291, 133691.5
623.4113, 133659.9
623.8934, 133579.4
624.3755, 133434.8
624.8576, 133308.7
625.3397, 133279.1
625.8218, 133308.2
626.3040, 133223.8
626.7861, 132921.0
627.2682, 132650.0
627.7503, 132382.6
628.2324, 132181.0
628.7145, 132117.2
629.1967, 132155.6
629.6788, 132199.3
630.1609, 132210.4
630.6430, 132175.8
631.1251, 132046.8
631.6072, 131845.9
632.0893, 131707.3
632.5714, 131664.5
633.0535, 131632.7
633.5356, 131551.2
634.0178, 131420.9
634.4999, 131252.8
634.9820, 130983.6
635.4641, 130763.3
635.9462, 130619.2
636.4283, 130516.3
636.9105, 130431.5
637.3926, 130361.6
637.8747, 130315.2
638.3568, 130305.1
638.8389, 130302.1
639.3210, 130263.2
639.8032, 130190.2
640.2853, 130096.6
640.7674, 129983.0
641.2495, 129859.6
641.7316, 129733.6
642.2137, 129606.5
642.6959, 129491.7
643.1780, 129438.1
643.6601, 129332.4
644.1422, 129113.8
644.6243, 128875.2
645.1064, 128691.9
645.5886, 128563.3
646.0707, 128448.0
646.5528, 128326.8
647.0349, 128202.3
647.5170, 128076.3
647.9991, 127950.3
648.4813, 127828.8
648.9634, 127710.9
649.4455, 127607.4
649.9276, 127531.1
650.4097, 127479.0
650.8918, 127421.9
651.3740, 127352.6
651.8561, 127284.5
652.3382, 127207.4
652.8203, 127138.3
653.3024, 127094.6
653.7845, 127070.2
654.2667, 127042.4
654.7488, 126993.4
655.2309, 126941.5
655.7130, 126929.7
656.1951, 126940.9
656.6772, 126884.7
657.1594, 126734.5
657.6415, 126584.0
658.1236, 126514.3
658.6057, 126515.4
659.0878, 126507.2
659.5699, 126603.5
660.0521, 126527.2
660.5342, 126085.5
661.0163, 125618.4
661.4984, 125361.8
661.9805, 125292.5
662.4626, 125261.2
662.9448, 125217.5
663.4269, 125148.6
663.9090, 125037.5
664.3911, 124890.2
664.8732, 124709.0
665.3553, 124495.5
665.8375, 124298.2
666.3196, 124156.7
666.8017, 124061.7
667.2838, 123965.3
667.7659, 123846.9
668.2480, 123764.3
668.7302, 123726.8
669.2123, 123717.2
669.6944, 123724.4
670.1765, 123751.1
670.6586, 123818.6
671.1407, 123971.7
671.6229, 124076.7
672.1050, 123966.1
672.5871, 123752.6
673.0692, 123638.4
673.5513, 123646.0
674.0334, 123713.4
674.5156, 123805.4
674.9977, 123912.1
675.4798, 124004.8
675.9619, 124077.3
676.4440, 124153.5
676.9261, 124215.7
677.4083, 124305.0
677.8904, 124471.2
678.3725, 124671.3
678.8546, 124817.6
