##NAMES=Beryllonite
##RRUFFID=R070249
##IDEAL CHEMISTRY=NaBePO_4_
##LOCALITY=Melrose Farm Beryllonite prospects (McAllister prospects),  Stoneham, Oxford County, Maine, USA
##OWNER=RRUFF
##SOURCE=Michael Scott
##DESCRIPTION=Two colorless single crystal fragments
##STATUS=The identification of this mineral has been confirmed by X-ray diffraction and chemical analysis
##URL=rruff.info/R070249
##MEASURED CHEMISTRY=Na_1.00_Be_1.00_P_1.00_O_4_; Be estimated by difference
121.5015, 78.01006
121.9836, 84.09811
122.4658, 89.27807
122.9479, 94.47978
123.4300, 100.7659
123.9121, 108.7531
124.3942, 117.6024
124.8763, 124.9035
125.3585, 128.5776
125.8406, 134.5474
126.3227, 144.6408
126.8048, 157.1883
127.2869, 170.4816
127.7690, 183.5775
128.2512, 196.7329
128.7333, 210.5716
129.2154, 226.0978
129.6975, 241.0593
130.1796, 254.2507
130.6617, 266.7768
131.1439, 280.3182
131.6260, 296.1063
132.1081, 313.6017
132.5902, 328.5450
133.0723, 341.0404
133.5544, 350.5883
134.0366, 355.5493
134.5187, 357.4773
135.0008, 358.7916
135.4829, 361.0322
135.9650, 364.1804
136.4471, 368.0262
136.9293, 370.9408
137.4114, 376.0761
137.8935, 386.4279
138.3756, 400.0028
138.8577, 411.8502
139.3398, 417.6845
139.8220, 417.3997
140.3041, 424.5939
140.7862, 445.9431
141.2683, 466.6249
141.7504, 477.3692
142.2325, 480.6978
142.7147, 486.9422
143.1968, 504.7771
143.6789, 534.5229
144.1610, 560.2374
144.6431, 578.6644
145.1252, 596.2186
145.6074, 617.3713
146.0895, 641.6859
146.5716, 664.8449
147.0537, 683.0651
147.5358, 696.1486
148.0179, 710.7802
148.5001, 730.6111
148.9822, 749.2882
149.4643, 761.0900
149.9464, 766.0737
150.4285, 770.3176
150.9106, 779.3348
151.3928, 792.5029
151.8749, 802.6588
152.3570, 805.0388
152.8391, 806.8771
153.3212, 816.4689
153.8033, 834.6291
154.2855, 852.2783
154.7676, 860.8911
155.2497, 862.5994
155.7318, 866.5436
156.2139, 875.9464
156.6960, 887.3767
157.1782, 894.8549
157.6603, 896.8030
158.1424, 903.5294
158.6245, 928.2285
159.1066, 964.3687
159.5887, 996.4894
160.0709, 1020.830
160.5530, 1038.884
161.0351, 1051.661
161.5172, 1058.376
161.9993, 1062.611
162.4814, 1069.594
162.9636, 1076.012
163.4457, 1074.354
163.9278, 1053.862
164.4099, 1025.920
164.8920, 1011.274
165.3741, 1011.897
165.8563, 1020.714
166.3384, 1037.360
166.8205, 1058.472
167.3026, 1078.718
167.7847, 1097.071
168.2668, 1112.915
168.7490, 1126.301
169.2311, 1140.221
169.7132, 1144.233
170.1953, 1129.750
170.6774, 1103.277
171.1595, 1073.815
171.6417, 1043.575
172.1238, 1013.759
172.6059, 987.1067
173.0880, 963.1299
173.5701, 943.7528
174.0522, 930.3790
174.5344, 921.2116
175.0165, 914.1563
175.4986, 908.3629
175.9807, 903.8546
176.4628, 900.8279
176.9449, 900.0802
177.4271, 899.3992
177.9092, 896.7562
178.3913, 893.9006
178.8734, 893.3420
179.3555, 896.6348
179.8376, 902.7104
180.3197, 908.8002
180.8019, 916.1525
181.2840, 921.0593
181.7661, 920.6544
182.2482, 918.0905
182.7303, 917.2124
183.2124, 919.9324
183.6946, 925.4313
184.1767, 931.2660
184.6588, 936.4155
185.1409, 943.8663
185.6230, 956.1624
186.1051, 970.1111
186.5873, 982.2708
187.0694, 991.0757
187.5515, 997.0662
188.0336, 1001.417
188.5157, 1002.023
188.9978, 1004.697
189.4800, 1010.713
189.9621, 1018.987
190.4442, 1028.273
190.9263, 1037.890
191.4084, 1048.745
191.8905, 1063.767
192.3727, 1087.823
192.8548, 1107.274
193.3369, 1123.771
193.8190, 1133.789
194.3011, 1132.739
194.7832, 1118.689
195.2654, 1096.145
195.7475, 1074.588
196.2296, 1053.906
196.7117, 1034.260
197.1938, 1012.882
197.6759, 993.7148
198.1581, 980.9697
198.6402, 975.9016
199.1223, 975.4097
199.6044, 974.0533
200.0865, 972.0349
200.5686, 968.5483
201.0508, 960.2687
201.5329, 952.7092
202.0150, 951.1829
202.4971, 956.8233
202.9792, 965.3285
203.4613, 969.4545
203.9435, 966.1362
204.4256, 965.3156
204.9077, 971.1274
205.3898, 976.6970
205.8719, 975.7342
206.3540, 967.7382
206.8362, 958.7830
207.3183, 957.8309
207.8004, 969.1415
208.2825, 977.7499
208.7646, 979.9553
209.2467, 982.5314
209.7289, 990.4957
210.2110, 1003.740
210.6931, 1017.738
211.1752, 1027.214
211.6573, 1031.150
212.1395, 1033.954
212.6216, 1037.311
213.1037, 1038.245
213.5858, 1034.812
214.0679, 1027.299
214.5500, 1017.094
215.0322, 1003.937
215.5143, 985.8205
215.9964, 978.8189
216.4785, 991.7801
216.9606, 1007.436
217.4427, 1021.627
217.9249, 1033.225
218.4070, 1041.563
218.8891, 1045.304
219.3712, 1044.219
219.8533, 1046.880
220.3354, 1058.402
220.8176, 1068.869
221.2997, 1072.622
221.7818, 1073.268
222.2639, 1078.790
222.7460, 1095.751
223.2281, 1122.671
223.7103, 1141.941
224.1924, 1141.899
224.6745, 1146.772
225.1566, 1163.397
225.6387, 1187.727
226.1208, 1213.065
226.6030, 1235.196
227.0851, 1256.084
227.5672, 1284.583
228.0493, 1331.723
228.5314, 1371.674
229.0135, 1396.940
229.4957, 1414.243
229.9778, 1431.260
230.4599, 1451.461
230.9420, 1472.864
231.4241, 1490.781
231.9062, 1504.408
232.3884, 1515.327
232.8705, 1530.560
233.3526, 1540.128
233.8347, 1534.366
234.3168, 1510.266
234.7989, 1474.007
235.2811, 1435.130
235.7632, 1390.983
236.2453, 1350.382
236.7274, 1311.303
237.2095, 1276.992
237.6916, 1250.533
238.1738, 1232.123
238.6559, 1218.009
239.1380, 1204.212
239.6201, 1191.281
240.1022, 1176.456
240.5843, 1157.632
241.0665, 1138.554
241.5486, 1119.933
242.0307, 1102.363
242.5128, 1087.254
242.9949, 1077.026
243.4770, 1072.311
243.9592, 1064.505
244.4413, 1045.475
244.9234, 1031.177
245.4055, 1032.138
245.8876, 1043.315
246.3697, 1051.020
246.8519, 1042.987
247.3340, 1021.825
247.8161, 1012.096
248.2982, 1022.919
248.7803, 1033.530
249.2624, 1038.937
249.7446, 1039.024
250.2267, 1032.716
250.7088, 1016.937
251.1909, 997.0947
251.6730, 989.9480
252.1551, 1002.267
252.6373, 1013.742
253.1194, 1017.582
253.6015, 1017.412
254.0836, 1016.648
254.5657, 1016.314
255.0478, 1016.613
255.5300, 1018.324
256.0121, 1022.130
256.4942, 1024.714
256.9763, 1022.480
257.4584, 1020.189
257.9406, 1021.669
258.4227, 1027.797
258.9048, 1035.749
259.3869, 1042.901
259.8690, 1049.239
260.3511, 1055.457
260.8333, 1062.982
261.3154, 1069.179
261.7975, 1070.867
262.2796, 1068.393
262.7617, 1067.447
263.2438, 1073.257
263.7260, 1084.614
264.2081, 1094.973
264.6902, 1105.669
265.1723, 1111.834
265.6544, 1108.169
266.1365, 1097.153
266.6187, 1086.886
267.1008, 1080.912
267.5829, 1078.308
268.0650, 1078.473
268.5471, 1083.083
269.0292, 1084.932
269.5114, 1073.083
269.9935, 1055.499
270.4756, 1046.393
270.9577, 1053.061
271.4398, 1066.720
271.9219, 1079.515
272.4041, 1091.546
272.8862, 1099.393
273.3683, 1098.964
273.8504, 1094.197
274.3325, 1093.603
274.8146, 1101.333
275.2968, 1106.360
275.7789, 1096.505
276.2610, 1076.280
276.7431, 1065.194
277.2252, 1072.774
277.7073, 1089.115
278.1895, 1097.293
278.6716, 1095.844
279.1537, 1095.151
279.6358, 1102.429
280.1179, 1112.092
280.6000, 1112.617
281.0822, 1100.312
281.5643, 1085.980
282.0464, 1083.649
282.5285, 1094.553
283.0106, 1101.763
283.4927, 1101.108
283.9749, 1097.417
284.4570, 1095.656
284.9391, 1095.972
285.4212, 1093.940
285.9033, 1084.539
286.3854, 1068.189
286.8676, 1060.259
287.3497, 1065.252
287.8318, 1073.415
288.3139, 1080.805
288.7960, 1087.609
289.2781, 1094.728
289.7603, 1102.488
290.2424, 1111.221
290.7245, 1122.317
291.2066, 1141.830
291.6887, 1156.142
292.1708, 1159.090
292.6530, 1157.180
293.1351, 1158.349
293.6172, 1165.389
294.0993, 1176.099
294.5814, 1186.902
295.0635, 1200.555
295.5457, 1208.558
296.0278, 1207.475
296.5099, 1203.647
296.9920, 1199.334
297.4741, 1196.044
297.9562, 1197.079
298.4384, 1206.988
298.9205, 1227.975
299.4026, 1242.523
299.8847, 1243.518
300.3668, 1245.374
300.8489, 1254.097
301.3311, 1267.608
301.8131, 1280.784
302.2953, 1290.321
302.7774, 1296.753
303.2595, 1302.972
303.7416, 1310.885
304.2237, 1315.449
304.7058, 1317.366
305.1880, 1315.115
305.6701, 1307.579
306.1522, 1294.405
306.6343, 1274.640
307.1164, 1243.701
307.5985, 1196.568
308.0807, 1157.495
308.5628, 1136.483
309.0449, 1121.162
309.5270, 1106.306
310.0091, 1090.832
310.4912, 1074.300
310.9734, 1054.162
311.4555, 1031.208
311.9376, 1015.042
312.4197, 1008.824
312.9018, 1006.340
313.3839, 1003.314
313.8661, 1000.458
314.3482, 999.8230
314.8303, 1004.273
315.3124, 1010.656
315.7945, 1012.524
316.2766, 1008.885
316.7588, 1006.590
317.2409, 1010.527
317.7230, 1017.813
318.2051, 1023.833
318.6872, 1028.278
319.1693, 1030.932
319.6515, 1030.914
320.1336, 1028.705
320.6157, 1026.157
321.0978, 1023.294
321.5799, 1021.335
322.0620, 1022.986
322.5442, 1028.892
323.0263, 1033.493
323.5084, 1033.856
323.9905, 1032.633
324.4726, 1032.676
324.9547, 1034.484
325.4369, 1038.788
325.9190, 1046.927
326.4011, 1059.390
326.8832, 1069.818
327.3653, 1077.194
327.8474, 1083.611
328.3296, 1089.890
328.8117, 1096.176
329.2938, 1102.277
329.7759, 1107.878
330.2580, 1113.623
330.7401, 1122.274
331.2223, 1139.392
331.7044, 1152.567
332.1865, 1154.153
332.6686, 1154.105
333.1507, 1165.453
333.6328, 1191.382
334.1150, 1221.410
334.5971, 1238.988
335.0792, 1236.283
335.5613, 1242.260
336.0434, 1261.716
336.5255, 1284.448
337.0077, 1304.589
337.4898, 1323.027
337.9719, 1344.671
338.4540, 1373.833
338.9361, 1409.667
339.4182, 1444.409
339.9004, 1475.285
340.3825, 1509.036
340.8646, 1544.020
341.3467, 1583.979
341.8288, 1635.800
342.3109, 1704.041
342.7931, 1776.313
343.2752, 1831.024
343.7573, 1864.628
344.2394, 1906.538
344.7215, 1965.773
345.2036, 2035.161
345.6858, 2109.177
346.1679, 2187.688
346.6500, 2272.018
347.1321, 2365.514
347.6142, 2465.320
348.0963, 2563.271
348.5785, 2657.127
349.0606, 2754.218
349.5427, 2862.334
350.0248, 2978.759
350.5069, 3095.581
350.9890, 3216.142
351.4712, 3333.448
351.9533, 3450.142
352.4354, 3562.348
352.9175, 3650.581
353.3996, 3705.969
353.8817, 3731.352
354.3639, 3731.563
354.8460, 3712.836
355.3281, 3664.917
355.8102, 3577.137
356.2923, 3462.669
356.7744, 3335.245
357.2566, 3197.945
357.7387, 3052.884
358.2208, 2901.037
358.7029, 2739.432
359.1850, 2586.271
359.6671, 2439.379
360.1493, 2302.127
360.6314, 2177.242
361.1135, 2063.144
361.5956, 1955.930
362.0777, 1852.390
362.5598, 1755.110
363.0420, 1673.299
363.5241, 1614.695
364.0062, 1560.344
364.4883, 1505.996
364.9704, 1455.556
365.4525, 1413.481
365.9347, 1380.379
366.4168, 1350.954
366.8989, 1318.857
367.3810, 1283.364
367.8631, 1253.162
368.3452, 1228.125
368.8274, 1209.522
369.3095, 1202.738
369.7916, 1202.278
370.2737, 1194.744
370.7558, 1169.082
371.2379, 1136.687
371.7201, 1117.569
372.2022, 1112.849
372.6843, 1111.225
373.1664, 1111.769
373.6485, 1110.311
374.1306, 1099.740
374.6128, 1076.749
375.0949, 1055.832
375.5770, 1045.843
376.0591, 1043.123
376.5412, 1041.188
377.0233, 1038.957
377.5055, 1035.629
377.9876, 1029.663
378.4697, 1020.685
378.9518, 1014.831
379.4339, 1012.407
379.9160, 1012.936
380.3982, 1019.620
380.8803, 1029.366
381.3624, 1033.483
381.8445, 1026.781
382.3266, 1013.020
382.8087, 1003.401
383.2909, 998.2123
383.7730, 997.5828
384.2551, 1005.939
384.7372, 1015.888
385.2193, 1021.422
385.7014, 1021.648
386.1836, 1019.415
386.6657, 1016.851
387.1478, 1013.729
387.6299, 1015.023
388.1120, 1025.435
388.5941, 1034.994
389.0763, 1037.983
389.5584, 1038.581
390.0405, 1043.590
390.5226, 1056.447
391.0047, 1073.520
391.4868, 1089.670
391.9690, 1104.790
392.4511, 1119.193
392.9332, 1130.681
393.4153, 1143.620
393.8974, 1161.671
394.3795, 1184.939
394.8617, 1211.179
395.3438, 1242.419
395.8259, 1274.842
396.3080, 1300.963
396.7901, 1319.704
397.2722, 1339.508
397.7544, 1369.333
398.2365, 1404.981
398.7186, 1426.370
399.2007, 1434.963
399.6828, 1428.094
400.1649, 1396.232
400.6471, 1350.160
401.1292, 1307.540
401.6113, 1273.960
402.0934, 1244.030
402.5755, 1208.806
403.0576, 1164.128
403.5398, 1127.714
404.0219, 1102.080
404.5040, 1080.768
404.9861, 1060.326
405.4682, 1041.284
405.9503, 1026.247
406.4325, 1017.107
406.9146, 1012.570
407.3967, 1008.429
407.8788, 1005.161
408.3609, 1001.297
408.8430, 995.8359
409.3252, 990.1658
409.8073, 986.3387
410.2894, 984.3536
410.7715, 980.4048
411.2536, 967.7902
411.7357, 949.3267
412.2179, 941.1027
412.7000, 947.4019
413.1821, 956.1923
413.6642, 959.3469
414.1463, 959.0647
414.6284, 959.3642
415.1106, 961.2366
415.5927, 963.5916
416.0748, 966.0279
416.5569, 968.3474
417.0390, 969.6340
417.5211, 969.3237
418.0033, 968.8714
418.4854, 971.1834
418.9675, 978.6721
419.4496, 980.0574
419.9317, 968.0319
420.4138, 955.4536
420.8960, 951.4504
421.3781, 954.8137
421.8602, 959.5509
422.3423, 961.9963
422.8244, 962.3811
423.3065, 961.3181
423.7887, 953.7390
424.2708, 953.0221
424.7529, 968.9780
425.2350, 986.0522
425.7171, 989.0883
426.1992, 977.3488
426.6814, 964.6672
427.1635, 965.2770
427.6456, 977.9355
428.1277, 987.5886
428.6098, 993.0684
429.0919, 997.7302
429.5741, 1004.137
430.0562, 1010.686
430.5383, 1014.484
431.0204, 1013.598
431.5025, 1012.560
431.9846, 1015.925
432.4668, 1022.395
432.9489, 1027.640
433.4310, 1030.833
433.9131, 1031.496
434.3952, 1027.979
434.8773, 1019.651
435.3595, 1014.343
435.8416, 1013.925
436.3237, 1015.349
436.8058, 1015.312
437.2879, 1015.534
437.7701, 1021.824
438.2522, 1037.682
438.7343, 1057.913
439.2164, 1068.850
439.6985, 1063.038
440.1806, 1060.997
440.6628, 1061.060
441.1449, 1066.177
441.6270, 1080.658
442.1091, 1102.559
442.5912, 1124.741
443.0733, 1141.144
443.5555, 1153.815
444.0376, 1170.582
444.5197, 1191.906
445.0018, 1216.122
445.4839, 1247.283
445.9660, 1278.829
446.4482, 1301.967
446.9303, 1313.907
447.4124, 1330.437
447.8945, 1362.481
448.3766, 1405.768
448.8587, 1450.514
449.3409, 1495.334
449.8230, 1545.862
450.3051, 1607.695
450.7872, 1680.229
451.2693, 1753.143
451.7514, 1824.528
452.2336, 1898.365
452.7157, 1982.451
453.1978, 2067.256
453.6799, 2138.089
454.1620, 2191.094
454.6441, 2234.382
455.1263, 2278.026
455.6084, 2322.409
456.0905, 2364.667
456.5726, 2395.841
457.0547, 2433.917
457.5368, 2481.394
458.0190, 2540.223
458.5011, 2613.422
458.9832, 2703.036
459.4653, 2804.387
459.9474, 2908.883
460.4295, 3015.878
460.9117, 3144.480
461.3938, 3306.916
461.8759, 3480.781
462.3580, 3650.192
462.8401, 3815.029
463.3222, 3975.282
463.8044, 4146.698
464.2865, 4302.119
464.7686, 4420.068
465.2507, 4501.006
465.7328, 4548.702
466.2149, 4564.466
466.6971, 4549.010
467.1792, 4504.199
467.6613, 4430.467
468.1434, 4319.966
468.6255, 4161.943
469.1076, 3977.302
469.5898, 3770.697
470.0719, 3549.017
470.5540, 3324.510
471.0361, 3101.360
471.5182, 2886.666
472.0003, 2698.000
472.4825, 2543.345
472.9646, 2396.367
473.4467, 2246.938
473.9288, 2108.160
474.4109, 1991.164
474.8930, 1895.552
475.3752, 1809.302
475.8573, 1725.572
476.3394, 1646.949
476.8215, 1577.518
477.3036, 1517.546
477.7857, 1464.871
478.2679, 1419.014
478.7500, 1379.440
479.2321, 1345.183
479.7142, 1318.038
480.1963, 1291.260
480.6784, 1259.646
481.1606, 1230.499
481.6427, 1212.211
482.1248, 1203.902
482.6069, 1197.574
483.0890, 1187.168
483.5711, 1173.706
484.0533, 1162.486
484.5354, 1152.900
485.0175, 1146.850
485.4996, 1146.727
485.9817, 1148.254
486.4638, 1148.201
486.9460, 1146.183
487.4281, 1143.613
487.9102, 1141.500
488.3923, 1139.688
488.8744, 1137.963
489.3565, 1136.528
489.8387, 1133.904
490.3208, 1128.531
490.8029, 1121.907
491.2850, 1118.024
491.7671, 1119.576
492.2492, 1116.130
492.7314, 1098.202
493.2135, 1076.812
493.6956, 1065.492
494.1777, 1064.785
494.6598, 1065.918
495.1419, 1062.461
495.6241, 1054.962
496.1062, 1046.887
496.5883, 1039.709
497.0704, 1029.731
497.5525, 1009.722
498.0346, 991.5476
498.5168, 987.9852
498.9989, 998.5073
499.4810, 1009.156
499.9631, 1007.145
500.4452, 996.1077
500.9273, 990.1867
501.4095, 990.5640
501.8916, 990.9313
502.3737, 987.1152
502.8558, 982.6395
503.3379, 982.9818
503.8200, 988.9827
504.3022, 996.6573
504.7843, 1006.925
505.2664, 1016.699
505.7485, 1020.163
506.2306, 1018.228
506.7127, 1019.277
507.1949, 1029.254
507.6770, 1046.242
508.1591, 1061.739
508.6412, 1074.207
509.1233, 1087.510
509.6054, 1100.995
510.0876, 1115.986
510.5697, 1133.713
511.0518, 1153.952
511.5339, 1175.070
512.0161, 1194.729
512.4982, 1215.123
512.9803, 1242.786
513.4624, 1278.101
513.9445, 1317.525
514.4266, 1360.744
514.9088, 1406.892
515.3909, 1452.187
515.8730, 1495.633
516.3551, 1550.660
516.8372, 1625.971
517.3193, 1711.247
517.8015, 1798.441
518.2836, 1887.242
518.7657, 1981.779
519.2478, 2084.147
519.7299, 2192.140
520.2120, 2301.625
520.6942, 2423.839
521.1763, 2525.939
521.6584, 2623.287
522.1405, 2689.088
522.6226, 2704.635
523.1047, 2676.679
523.5869, 2621.345
524.0690, 2541.919
524.5511, 2450.732
525.0332, 2361.550
525.5153, 2274.500
525.9974, 2209.927
526.4796, 2175.585
526.9617, 2160.455
527.4438, 2161.500
527.9259, 2176.114
528.4080, 2179.473
528.8901, 2172.960
529.3723, 2149.435
529.8544, 2096.930
530.3365, 2025.783
530.8186, 1956.892
531.3007, 1896.954
531.7828, 1836.294
532.2650, 1758.915
532.7471, 1658.887
533.2292, 1577.366
533.7113, 1521.862
534.1934, 1477.145
534.6755, 1440.880
535.1577, 1411.598
535.6398, 1386.851
536.1219, 1365.583
536.6040, 1351.367
537.0861, 1348.448
537.5682, 1355.273
538.0504, 1366.917
538.5325, 1382.625
539.0146, 1404.259
539.4967, 1434.232
539.9788, 1471.147
540.4609, 1506.997
540.9431, 1532.723
541.4252, 1570.199
541.9073, 1625.793
542.3894, 1693.724
542.8715, 1772.011
543.3536, 1858.319
543.8358, 1947.673
544.3179, 2038.731
544.8000, 2127.302
545.2821, 2197.288
545.7642, 2253.492
546.2463, 2277.938
546.7285, 2263.595
547.2106, 2215.251
547.6927, 2127.259
548.1748, 2003.058
548.6569, 1873.099
549.1390, 1743.904
549.6211, 1621.182
550.1032, 1509.412
550.5853, 1409.540
551.0674, 1327.610
551.5496, 1265.779
552.0317, 1220.133
552.5138, 1184.585
552.9959, 1160.623
553.4780, 1141.904
553.9601, 1128.244
554.4423, 1119.099
554.9244, 1117.252
555.4065, 1118.838
555.8886, 1117.631
556.3707, 1111.250
556.8528, 1104.251
557.3350, 1101.310
557.8171, 1102.407
558.2992, 1107.463
558.7813, 1116.616
559.2634, 1129.546
559.7455, 1149.119
560.2277, 1171.956
560.7098, 1186.556
561.1919, 1182.816
561.6740, 1188.461
562.1561, 1218.811
562.6382, 1258.759
563.1204, 1290.063
563.6025, 1313.135
564.0846, 1343.382
564.5667, 1393.590
565.0488, 1457.842
565.5309, 1515.312
566.0131, 1570.143
566.4952, 1607.626
566.9773, 1615.137
567.4594, 1612.075
567.9415, 1611.917
568.4236, 1612.480
568.9058, 1601.276
569.3879, 1570.802
569.8700, 1528.181
570.3521, 1476.700
570.8342, 1418.568
571.3163, 1359.865
571.7985, 1301.988
572.2806, 1248.508
572.7627, 1204.211
573.2448, 1169.538
573.7269, 1138.719
574.2090, 1107.039
574.6912, 1084.206
575.1733, 1076.494
575.6554, 1076.897
576.1375, 1079.197
576.6196, 1081.434
577.1017, 1081.847
577.5839, 1078.019
578.0660, 1071.102
578.5481, 1063.499
579.0302, 1054.526
579.5123, 1051.417
579.9944, 1058.175
580.4766, 1072.146
580.9587, 1088.751
581.4408, 1107.855
581.9229, 1129.328
582.4050, 1157.789
582.8871, 1184.240
583.3693, 1198.989
583.8514, 1207.322
584.3335, 1220.953
584.8156, 1245.137
585.2977, 1277.242
585.7798, 1314.828
586.2620, 1358.433
586.7441, 1399.569
587.2262, 1434.340
587.7083, 1473.072
588.1904, 1525.301
588.6725, 1584.476
589.1547, 1641.407
589.6368, 1698.181
590.1189, 1744.513
590.6010, 1776.508
591.0831, 1794.799
591.5652, 1799.058
592.0474, 1790.000
592.5295, 1769.207
593.0116, 1736.769
593.4937, 1696.109
593.9758, 1655.848
594.4579, 1610.704
594.9401, 1579.004
595.4222, 1566.647
595.9043, 1564.771
596.3864, 1571.800
596.8685, 1586.024
597.3506, 1605.431
597.8328, 1634.265
598.3149, 1658.114
598.7970, 1665.378
599.2791, 1657.413
599.7612, 1636.521
600.2433, 1603.032
600.7255, 1561.393
601.2076, 1515.146
601.6897, 1464.087
602.1718, 1406.371
602.6539, 1329.349
603.1360, 1263.196
603.6182, 1214.063
604.1003, 1173.346
604.5824, 1134.949
605.0645, 1098.733
605.5466, 1067.814
606.0287, 1043.981
606.5109, 1026.103
606.9930, 1014.348
607.4751, 1007.802
607.9572, 999.1659
608.4393, 986.2619
608.9214, 972.0552
609.4036, 959.1600
609.8857, 947.5753
610.3678, 937.5428
610.8499, 927.8716
611.3320, 921.1136
611.8141, 920.7363
612.2963, 921.7402
612.7784, 918.9559
613.2605, 912.0480
613.7426, 904.0887
614.2247, 896.1749
614.7068, 889.8624
615.1890, 890.6082
615.6711, 898.8421
616.1532, 904.4062
