##NAMES=Beryllonite
##RRUFFID=R060299
##IDEAL CHEMISTRY=NaBePO_4_
##LOCALITY=Paprok, near Kamdesh, Nuristan, Kunar Province, Afghanistan
##OWNER=RRUFF
##SOURCE=Herb Obodda
##DESCRIPTION=Pale blue fragment
##STATUS=The identification of this mineral has been confirmed by X-ray diffraction and chemical analysis
##URL=rruff.info/R060299
##MEASURED CHEMISTRY=Na_1.00_Be_1.00_P_1.00_O_4_
93.30109, 0.0000000E+00
93.78320, 2214.067
94.26532, 2183.716
94.74744, 2191.399
95.22955, 2231.927
95.71167, 2291.763
96.19379, 2338.888
96.67590, 2378.548
97.15802, 2408.035
97.64014, 2425.765
98.12225, 2433.851
98.60437, 2435.301
99.08649, 2430.327
99.56860, 2422.207
100.0507, 2416.117
100.5328, 2408.751
101.0150, 2399.793
101.4971, 2388.489
101.9792, 2374.731
102.4613, 2363.257
102.9434, 2357.008
103.4255, 2352.679
103.9077, 2348.226
104.3898, 2343.052
104.8719, 2337.275
105.3540, 2330.931
105.8361, 2322.762
106.3182, 2315.851
106.8004, 2311.045
107.2825, 2307.448
107.7646, 2303.644
108.2467, 2298.565
108.7288, 2292.376
109.2109, 2288.198
109.6931, 2288.587
110.1752, 2288.234
110.6573, 2285.005
111.1394, 2279.601
111.6215, 2274.187
112.1036, 2270.707
112.5858, 2269.446
113.0679, 2267.919
113.5500, 2265.841
114.0321, 2263.687
114.5142, 2261.875
114.9964, 2260.460
115.4785, 2259.034
115.9606, 2256.917
116.4427, 2254.133
116.9248, 2251.844
117.4069, 2250.746
117.8891, 2250.287
118.3712, 2249.358
118.8533, 2247.758
119.3354, 2245.524
119.8175, 2242.246
120.2996, 2238.046
120.7818, 2234.654
121.2639, 2234.000
121.7460, 2236.220
122.2281, 2237.255
122.7102, 2234.868
123.1923, 2232.038
123.6745, 2230.450
124.1566, 2230.339
124.6387, 2230.605
125.1208, 2229.321
125.6029, 2224.656
126.0850, 2222.453
126.5672, 2223.874
127.0493, 2227.001
127.5314, 2230.278
128.0135, 2233.103
128.4956, 2235.918
128.9777, 2240.070
129.4599, 2247.837
129.9420, 2254.448
130.4241, 2259.625
130.9062, 2263.458
131.3883, 2266.310
131.8704, 2268.526
132.3526, 2269.730
132.8347, 2267.792
133.3168, 2263.597
133.7989, 2256.374
134.2810, 2244.139
134.7632, 2227.762
135.2453, 2211.656
135.7274, 2198.450
136.2095, 2187.870
136.6916, 2177.948
137.1737, 2166.917
137.6559, 2157.480
138.1380, 2153.313
138.6201, 2155.465
139.1022, 2157.923
139.5843, 2156.260
140.0664, 2152.405
140.5486, 2148.917
141.0307, 2146.558
141.5128, 2145.331
141.9949, 2145.656
142.4770, 2149.521
142.9591, 2151.859
143.4413, 2150.028
143.9234, 2145.381
144.4055, 2140.377
144.8876, 2136.764
145.3697, 2134.558
145.8518, 2132.160
146.3340, 2129.771
146.8161, 2126.985
147.2982, 2122.926
147.7803, 2118.160
148.2624, 2114.220
148.7445, 2112.819
149.2267, 2114.932
149.7088, 2115.552
150.1909, 2113.625
150.6730, 2111.393
151.1551, 2110.263
151.6372, 2110.341
152.1194, 2110.584
152.6015, 2109.595
153.0836, 2106.451
153.5657, 2104.686
154.0478, 2105.043
154.5299, 2106.408
155.0121, 2107.562
155.4942, 2108.150
155.9763, 2108.958
156.4584, 2111.417
156.9405, 2115.562
157.4226, 2119.875
157.9048, 2124.414
158.3869, 2128.817
158.8690, 2132.446
159.3511, 2135.408
159.8332, 2136.957
160.3153, 2136.292
160.7975, 2133.439
161.2796, 2129.698
161.7617, 2126.415
162.2438, 2123.375
162.7259, 2117.846
163.2081, 2106.030
163.6902, 2094.026
164.1723, 2086.271
164.6544, 2083.139
165.1365, 2082.740
165.6186, 2083.504
166.1008, 2085.751
166.5829, 2087.748
167.0650, 2088.391
167.5471, 2089.241
168.0292, 2091.820
168.5113, 2096.379
168.9935, 2101.210
169.4756, 2103.541
169.9577, 2102.917
170.4398, 2100.267
170.9219, 2095.569
171.4040, 2089.370
171.8862, 2081.472
172.3683, 2071.919
172.8504, 2061.905
173.3325, 2054.212
173.8146, 2051.276
174.2967, 2048.090
174.7789, 2043.242
175.2610, 2038.467
175.7431, 2036.242
176.2252, 2037.770
176.7073, 2041.672
177.1894, 2043.363
177.6716, 2041.145
178.1537, 2039.089
178.6358, 2037.708
179.1179, 2037.009
179.6000, 2036.990
180.0821, 2037.664
180.5643, 2039.053
181.0464, 2041.266
181.5285, 2045.463
182.0106, 2048.749
182.4927, 2049.233
182.9748, 2047.431
183.4570, 2045.583
183.9391, 2044.476
184.4212, 2044.261
184.9033, 2045.138
185.3854, 2048.099
185.8675, 2050.522
186.3497, 2049.233
186.8318, 2044.084
187.3139, 2040.581
187.7960, 2042.543
188.2781, 2046.976
188.7602, 2050.866
189.2424, 2053.773
189.7245, 2055.727
190.2066, 2055.728
190.6887, 2052.339
191.1708, 2052.389
191.6530, 2060.673
192.1351, 2072.233
192.6172, 2083.191
193.0993, 2092.135
193.5814, 2099.881
194.0635, 2108.318
194.5457, 2119.161
195.0278, 2126.969
195.5099, 2131.329
195.9920, 2132.451
196.4741, 2130.120
196.9562, 2124.147
197.4384, 2115.457
197.9205, 2106.586
198.4026, 2097.597
198.8847, 2088.341
199.3668, 2077.707
199.8489, 2067.183
200.3311, 2058.497
200.8132, 2052.547
201.2953, 2048.810
201.7774, 2045.279
202.2595, 2041.346
202.7416, 2038.352
203.2238, 2036.527
203.7059, 2035.695
204.1880, 2035.633
204.6701, 2036.254
205.1522, 2037.480
205.6343, 2039.014
206.1165, 2042.470
206.5986, 2044.410
207.0807, 2042.657
207.5628, 2038.947
208.0449, 2036.452
208.5270, 2036.820
209.0092, 2039.621
209.4913, 2043.141
209.9734, 2047.991
210.4555, 2052.670
210.9376, 2056.732
211.4197, 2060.220
211.9019, 2063.426
212.3840, 2066.779
212.8661, 2069.546
213.3482, 2069.945
213.8303, 2067.037
214.3124, 2063.531
214.7946, 2060.185
215.2767, 2057.211
215.7588, 2056.077
216.2409, 2058.529
216.7230, 2062.469
217.2052, 2063.867
217.6873, 2061.632
218.1694, 2059.075
218.6515, 2058.887
219.1336, 2060.983
219.6157, 2062.984
220.0979, 2063.474
220.5800, 2063.826
221.0621, 2065.687
221.5442, 2069.498
222.0263, 2073.741
222.5084, 2076.668
222.9906, 2078.099
223.4727, 2080.315
223.9548, 2084.351
224.4369, 2089.296
224.9190, 2094.286
225.4011, 2099.148
225.8833, 2104.902
226.3654, 2113.211
226.8475, 2124.629
227.3296, 2135.756
227.8117, 2144.910
228.2938, 2154.153
228.7760, 2165.136
229.2581, 2178.142
229.7402, 2191.309
230.2223, 2202.302
230.7044, 2210.960
231.1865, 2217.913
231.6687, 2225.589
232.1508, 2230.143
232.6329, 2228.677
233.1150, 2220.818
233.5971, 2208.684
234.0792, 2194.538
234.5614, 2176.695
235.0435, 2161.135
235.5256, 2147.370
236.0077, 2135.913
236.4898, 2127.812
236.9719, 2122.954
237.4541, 2119.716
237.9362, 2115.879
238.4183, 2110.763
238.9004, 2106.840
239.3825, 2106.509
239.8646, 2105.417
240.3468, 2100.354
240.8289, 2091.111
241.3110, 2080.119
241.7931, 2070.056
242.2752, 2060.730
242.7573, 2053.462
243.2395, 2049.313
243.7216, 2046.080
244.2037, 2042.520
244.6858, 2038.425
245.1679, 2034.068
245.6501, 2029.540
246.1322, 2024.324
246.6143, 2021.672
247.0964, 2024.104
247.5785, 2026.916
248.0606, 2026.724
248.5428, 2023.416
249.0249, 2019.380
249.5070, 2016.997
249.9891, 2016.631
250.4712, 2015.174
250.9533, 2011.262
251.4355, 2007.394
251.9176, 2005.533
252.3997, 2005.629
252.8818, 2005.975
253.3639, 2005.258
253.8460, 2003.379
254.3282, 2001.108
254.8103, 1997.601
255.2924, 1994.373
255.7745, 1992.368
256.2566, 1991.618
256.7387, 1992.016
257.2209, 1994.045
257.7030, 1997.238
258.1851, 1998.747
258.6672, 1996.777
259.1493, 1994.560
259.6314, 1994.552
260.1136, 1996.547
260.5957, 1998.560
261.0778, 1999.586
261.5599, 1999.644
262.0420, 1999.261
262.5241, 1998.407
263.0063, 1997.134
263.4884, 1994.743
263.9705, 1991.496
264.4526, 1989.980
264.9347, 1992.849
265.4168, 1997.253
265.8990, 1997.613
266.3811, 1992.222
266.8632, 1986.378
267.3453, 1984.016
267.8274, 1984.759
268.3095, 1985.577
268.7917, 1985.204
269.2738, 1984.641
269.7559, 1985.176
270.2380, 1986.956
270.7201, 1989.198
271.2022, 1991.904
271.6844, 1994.871
272.1665, 1996.584
272.6486, 1996.000
273.1307, 1994.682
273.6128, 1994.336
274.0949, 1994.955
274.5771, 1995.464
275.0592, 1994.730
275.5413, 1993.091
276.0234, 1992.484
276.5055, 1993.172
276.9876, 1995.124
277.4698, 1998.856
277.9519, 2003.919
278.4340, 2008.092
278.9161, 2009.464
279.3982, 2008.677
279.8803, 2008.600
280.3625, 2009.354
280.8446, 2010.966
281.3267, 2014.440
281.8088, 2018.729
282.2909, 2021.318
282.7730, 2020.014
283.2552, 2015.992
283.7373, 2013.264
284.2194, 2012.653
284.7015, 2011.784
285.1836, 2008.624
285.6658, 2004.664
286.1479, 2002.256
286.6300, 2002.886
287.1121, 2005.305
287.5942, 2006.595
288.0764, 2006.110
288.5585, 2006.028
289.0406, 2007.911
289.5227, 2010.279
290.0048, 2011.380
290.4869, 2010.415
290.9691, 2008.677
291.4512, 2008.451
291.9333, 2010.194
292.4154, 2012.053
292.8975, 2013.898
293.3796, 2015.484
293.8618, 2016.234
294.3439, 2016.013
294.8260, 2016.077
295.3081, 2018.820
295.7902, 2025.348
296.2723, 2029.257
296.7545, 2027.101
297.2366, 2023.627
297.7187, 2020.567
298.2008, 2018.438
298.6829, 2018.013
299.1650, 2020.881
299.6472, 2027.536
300.1293, 2032.719
300.6114, 2035.719
301.0935, 2037.357
301.5756, 2037.102
302.0577, 2035.563
302.5399, 2034.478
303.0220, 2035.599
303.5041, 2038.784
303.9862, 2040.786
304.4683, 2040.858
304.9504, 2040.526
305.4326, 2041.141
305.9147, 2041.750
306.3968, 2040.547
306.8789, 2036.266
307.3610, 2029.453
307.8431, 2022.463
308.3253, 2015.324
308.8074, 2007.959
309.2895, 1999.314
309.7716, 1990.792
310.2537, 1984.371
310.7358, 1981.015
311.2180, 1979.482
311.7001, 1976.924
312.1822, 1972.345
312.6643, 1968.905
313.1464, 1968.381
313.6285, 1968.366
314.1107, 1966.569
314.5928, 1962.428
315.0749, 1957.764
315.5570, 1955.121
316.0391, 1954.770
316.5212, 1955.478
317.0034, 1958.822
317.4855, 1961.889
317.9676, 1962.924
318.4497, 1961.893
318.9318, 1960.041
319.4139, 1958.095
319.8961, 1955.856
320.3782, 1955.579
320.8603, 1959.783
321.3424, 1963.695
321.8245, 1965.134
322.3066, 1964.759
322.7888, 1964.499
323.2709, 1965.905
323.7530, 1968.666
324.2351, 1970.329
324.7172, 1969.792
325.1993, 1969.683
325.6815, 1970.806
326.1636, 1972.803
326.6457, 1975.014
327.1278, 1976.959
327.6099, 1979.307
328.0920, 1984.320
328.5742, 1994.485
329.0563, 2001.805
329.5384, 2001.927
330.0205, 2000.134
330.5026, 2001.159
330.9847, 2006.356
331.4669, 2013.126
331.9490, 2017.647
332.4311, 2019.185
332.9132, 2021.733
333.3953, 2027.084
333.8774, 2032.755
334.3596, 2037.050
334.8417, 2040.069
335.3238, 2043.442
335.8059, 2048.527
336.2880, 2055.341
336.7701, 2063.311
337.2523, 2072.480
337.7344, 2082.941
338.2165, 2095.755
338.6986, 2109.844
339.1807, 2122.927
339.6628, 2133.446
340.1450, 2141.914
340.6271, 2150.241
341.1092, 2158.154
341.5913, 2166.419
342.0735, 2174.800
342.5556, 2183.816
343.0377, 2194.200
343.5198, 2206.280
344.0019, 2219.679
344.4840, 2233.565
344.9662, 2247.811
345.4483, 2263.491
345.9304, 2280.966
346.4125, 2300.172
346.8946, 2321.192
347.3767, 2344.166
347.8589, 2368.744
348.3410, 2393.969
348.8231, 2420.003
349.3052, 2449.426
349.7873, 2483.968
350.2694, 2520.925
350.7516, 2559.462
351.2337, 2598.954
351.7158, 2636.319
352.1979, 2670.570
352.6800, 2701.522
353.1621, 2728.949
353.6443, 2754.258
354.1264, 2772.501
354.6085, 2781.036
355.0906, 2781.109
355.5727, 2773.357
356.0548, 2757.901
356.5370, 2734.871
357.0191, 2702.852
357.5012, 2661.464
357.9833, 2617.606
358.4654, 2573.388
358.9475, 2528.546
359.4297, 2482.797
359.9118, 2435.677
360.3939, 2389.156
360.8760, 2342.306
361.3581, 2296.556
361.8402, 2258.975
362.3224, 2233.907
362.8045, 2213.775
363.2866, 2190.145
363.7687, 2163.535
364.2508, 2139.114
364.7329, 2119.159
365.2151, 2102.500
365.6972, 2087.275
366.1793, 2073.283
366.6614, 2060.597
367.1435, 2049.424
367.6256, 2039.664
368.1078, 2031.053
368.5899, 2024.432
369.0720, 2018.179
369.5541, 2010.357
370.0362, 2001.371
370.5183, 1994.125
371.0005, 1990.420
371.4826, 1988.962
371.9647, 1986.712
372.4468, 1983.467
372.9289, 1980.099
373.4110, 1977.102
373.8932, 1974.175
374.3753, 1970.539
374.8574, 1965.833
375.3395, 1961.343
375.8216, 1958.944
376.3037, 1958.889
376.7859, 1958.583
377.2680, 1957.614
377.7501, 1956.402
378.2322, 1955.170
378.7143, 1953.979
379.1964, 1953.097
379.6786, 1952.903
380.1607, 1953.235
380.6428, 1952.383
381.1249, 1948.826
381.6070, 1945.945
382.0891, 1945.389
382.5713, 1946.299
383.0534, 1947.083
383.5355, 1947.081
384.0176, 1946.498
384.4997, 1945.741
384.9818, 1944.407
385.4640, 1943.610
385.9461, 1944.164
386.4282, 1944.786
386.9103, 1944.110
387.3924, 1942.093
387.8745, 1939.888
388.3567, 1938.670
388.8388, 1938.451
389.3209, 1939.264
389.8030, 1942.383
390.2851, 1945.074
390.7672, 1945.924
391.2494, 1945.571
391.7315, 1945.184
392.2136, 1945.359
392.6957, 1946.347
393.1778, 1949.238
393.6599, 1956.428
394.1421, 1962.130
394.6242, 1964.959
395.1063, 1966.693
395.5884, 1968.404
396.0706, 1970.569
396.5527, 1973.779
397.0348, 1979.173
397.5169, 1987.445
397.9990, 1994.984
398.4811, 2003.172
398.9633, 2009.214
399.4454, 2011.646
399.9275, 2010.914
400.4096, 2008.338
400.8917, 2004.693
401.3738, 1999.973
401.8560, 1994.084
402.3381, 1986.766
402.8202, 1978.736
403.3023, 1968.659
403.7844, 1958.774
404.2665, 1951.635
404.7487, 1948.093
405.2308, 1946.192
405.7129, 1943.081
406.1950, 1938.535
406.6771, 1936.897
407.1592, 1941.309
407.6414, 1946.494
408.1235, 1949.135
408.6056, 1949.259
409.0877, 1947.623
409.5698, 1942.954
410.0519, 1937.068
410.5341, 1934.276
411.0162, 1934.973
411.4983, 1937.649
411.9804, 1942.305
412.4625, 1948.175
412.9446, 1953.894
413.4268, 1958.662
413.9089, 1964.207
414.3910, 1972.494
414.8731, 1982.953
415.3552, 1992.747
415.8373, 2000.694
416.3195, 2008.070
416.8016, 2017.931
417.2837, 2030.843
417.7658, 2039.476
418.2479, 2040.445
418.7300, 2036.896
419.2122, 2032.274
419.6943, 2026.958
420.1764, 2019.627
420.6585, 2008.294
421.1406, 1993.666
421.6227, 1983.776
422.1049, 1981.260
422.5870, 1979.930
423.0691, 1977.506
423.5512, 1974.547
424.0333, 1972.052
424.5154, 1970.416
424.9976, 1969.623
425.4797, 1969.631
425.9618, 1970.210
426.4439, 1972.325
426.9260, 1977.813
427.4081, 1983.396
427.8903, 1986.291
428.3724, 1986.821
428.8545, 1987.509
429.3366, 1990.485
429.8187, 1995.672
430.3008, 2000.669
430.7830, 2007.388
431.2651, 2011.697
431.7472, 2012.362
432.2293, 2010.460
432.7114, 2007.097
433.1935, 2002.718
433.6757, 1997.363
434.1578, 1990.919
434.6399, 1982.969
435.1220, 1975.395
435.6041, 1966.710
436.0862, 1959.865
436.5684, 1957.090
437.0505, 1957.625
437.5326, 1958.724
438.0147, 1958.139
438.4968, 1956.785
438.9789, 1958.549
439.4611, 1965.264
439.9432, 1970.435
440.4253, 1968.863
440.9074, 1965.528
441.3895, 1965.631
441.8716, 1970.459
442.3538, 1977.568
442.8359, 1984.604
443.3180, 1991.954
443.8001, 2001.980
444.2822, 2016.453
444.7643, 2031.408
445.2465, 2041.931
445.7286, 2049.251
446.2107, 2058.658
446.6928, 2072.718
447.1749, 2088.773
447.6570, 2104.183
448.1392, 2118.942
448.6213, 2134.029
449.1034, 2149.788
449.5855, 2166.264
450.0677, 2183.708
450.5498, 2202.405
451.0319, 2221.181
451.5140, 2238.779
451.9961, 2256.698
452.4782, 2276.937
452.9604, 2299.824
453.4425, 2323.773
453.9246, 2347.246
454.4067, 2370.198
454.8888, 2393.097
455.3709, 2417.571
455.8531, 2440.152
456.3352, 2457.745
456.8173, 2472.933
457.2994, 2489.704
457.7815, 2509.832
458.2636, 2533.286
458.7458, 2559.646
459.2279, 2586.174
459.7100, 2622.186
460.1921, 2669.721
460.6742, 2723.941
461.1563, 2783.582
461.6385, 2847.761
462.1206, 2914.423
462.6027, 2982.476
463.0848, 3051.682
463.5669, 3122.635
464.0490, 3201.443
464.5312, 3268.172
465.0133, 3319.009
465.4954, 3353.679
465.9775, 3370.567
466.4596, 3369.080
466.9417, 3353.210
467.4239, 3325.975
467.9060, 3287.417
468.3881, 3237.353
468.8702, 3174.423
469.3523, 3102.063
469.8344, 3020.457
470.3166, 2931.648
470.7987, 2841.518
471.2808, 2747.774
471.7629, 2656.200
472.2450, 2570.768
472.7271, 2491.943
473.2093, 2422.395
473.6914, 2363.897
474.1735, 2314.172
474.6556, 2269.379
475.1377, 2229.505
475.6198, 2193.371
476.1020, 2160.298
476.5841, 2131.115
477.0662, 2106.489
477.5483, 2086.518
478.0304, 2070.693
478.5125, 2059.115
478.9947, 2051.278
479.4768, 2043.247
479.9589, 2035.728
480.4410, 2026.970
480.9231, 2015.349
481.4052, 2003.078
481.8874, 1992.114
482.3695, 1983.044
482.8516, 1975.982
483.3337, 1971.676
483.8158, 1970.713
484.2979, 1967.500
484.7801, 1960.839
485.2622, 1953.113
485.7443, 1944.085
486.2264, 1934.853
486.7085, 1927.229
487.1906, 1922.179
487.6728, 1918.236
488.1549, 1912.727
488.6370, 1905.448
489.1191, 1900.253
489.6012, 1899.133
490.0833, 1899.125
490.5655, 1897.714
491.0476, 1895.021
491.5297, 1891.848
492.0118, 1887.835
492.4939, 1883.904
492.9760, 1881.384
493.4582, 1880.243
493.9403, 1879.523
494.4224, 1878.884
494.9045, 1878.225
495.3866, 1877.309
495.8687, 1876.178
496.3509, 1874.748
496.8330, 1872.784
497.3151, 1870.616
497.7972, 1868.264
498.2793, 1865.896
498.7614, 1864.443
499.2436, 1864.943
499.7257, 1867.206
500.2078, 1867.870
500.6899, 1865.475
501.1720, 1863.221
501.6541, 1860.862
502.1363, 1859.268
502.6184, 1859.850
503.1005, 1862.751
503.5826, 1866.050
504.0647, 1867.273
504.5468, 1866.204
505.0290, 1865.321
505.5111, 1864.839
505.9932, 1864.302
506.4753, 1863.235
506.9575, 1862.086
507.4396, 1861.557
507.9217, 1861.932
508.4038, 1862.921
508.8859, 1864.265
509.3680, 1865.953
509.8502, 1867.705
510.3323, 1869.185
510.8144, 1871.155
511.2965, 1874.834
511.7786, 1879.848
512.2607, 1884.279
512.7429, 1887.251
513.2250, 1889.756
513.7071, 1892.592
514.1892, 1895.724
514.6713, 1898.744
515.1534, 1901.292
515.6356, 1904.220
516.1177, 1909.237
516.5998, 1917.169
517.0819, 1925.691
517.5640, 1934.346
518.0461, 1943.924
518.5283, 1955.419
519.0104, 1968.425
519.4925, 1981.451
519.9746, 1993.489
520.4567, 2006.613
520.9388, 2017.359
521.4210, 2032.263
521.9031, 2045.320
522.3852, 2058.371
522.8673, 2067.937
523.3494, 2070.181
523.8315, 2065.817
524.3137, 2059.714
524.7958, 2054.463
525.2779, 2050.552
525.7600, 2049.932
526.2421, 2052.913
526.7242, 2057.950
527.2064, 2064.281
527.6885, 2072.519
528.1706, 2084.317
528.6527, 2100.677
529.1348, 2115.503
529.6169, 2128.058
530.0991, 2136.315
530.5812, 2136.695
531.0633, 2128.807
531.5454, 2114.585
532.0275, 2094.058
532.5096, 2068.372
532.9918, 2045.963
533.4739, 2027.807
533.9560, 2011.214
534.4381, 1994.309
534.9202, 1979.401
535.4023, 1969.900
535.8845, 1965.944
536.3666, 1963.650
536.8487, 1958.768
537.3308, 1951.303
537.8129, 1948.421
538.2950, 1952.189
538.7772, 1958.213
539.2593, 1966.119
539.7414, 1975.271
540.2235, 1984.870
540.7056, 1994.723
541.1877, 2005.761
541.6699, 2018.481
542.1520, 2033.010
542.6341, 2050.455
543.1162, 2070.738
543.5983, 2094.326
544.0804, 2124.995
544.5626, 2158.407
545.0447, 2186.560
545.5268, 2208.287
546.0089, 2224.703
546.4910, 2237.980
546.9731, 2246.185
547.4553, 2245.794
547.9374, 2236.038
548.4195, 2216.891
548.9016, 2186.816
549.3837, 2145.398
549.8658, 2108.118
550.3480, 2073.938
550.8301, 2044.101
551.3122, 2019.030
551.7943, 1998.570
552.2764, 1982.848
552.7585, 1971.766
553.2407, 1964.452
553.7228, 1960.709
554.2049, 1960.816
554.6870, 1959.372
555.1691, 1956.311
555.6512, 1951.640
556.1334, 1943.792
556.6155, 1935.193
557.0976, 1929.119
557.5797, 1926.625
558.0618, 1925.226
558.5439, 1923.274
559.0261, 1920.637
559.5082, 1916.470
559.9903, 1910.332
560.4724, 1904.138
560.9545, 1898.882
561.4366, 1894.863
561.9188, 1892.711
562.4009, 1892.646
562.8830, 1894.200
563.3651, 1898.051
563.8472, 1903.080
564.3293, 1907.371
564.8115, 1910.688
565.2936, 1915.108
565.7757, 1923.277
566.2578, 1935.253
566.7399, 1942.458
567.2220, 1942.740
567.7042, 1940.436
568.1863, 1935.900
568.6684, 1929.341
569.1505, 1920.281
569.6326, 1908.923
570.1147, 1897.202
570.5969, 1886.411
571.0790, 1876.729
571.5611, 1869.703
572.0432, 1865.856
572.5253, 1863.192
573.0074, 1861.050
573.4896, 1859.370
573.9717, 1857.836
574.4538, 1856.089
574.9359, 1855.767
575.4180, 1858.536
575.9001, 1862.787
576.3823, 1865.777
576.8644, 1867.438
577.3465, 1870.356
577.8286, 1876.343
578.3107, 1885.109
578.7928, 1895.230
579.2750, 1906.709
579.7571, 1919.693
580.2392, 1935.540
580.7213, 1951.813
581.2034, 1968.336
581.6855, 1983.767
582.1677, 1995.132
582.6498, 2000.343
583.1319, 1999.514
583.6140, 1992.432
584.0961, 1977.941
584.5782, 1960.881
585.0604, 1938.947
585.5425, 1917.733
586.0246, 1902.160
586.5067, 1892.052
586.9889, 1883.835
587.4710, 1875.885
587.9531, 1869.074
588.4352, 1865.121
588.9174, 1863.560
589.3995, 1861.564
589.8816, 1857.871
590.3637, 1853.266
