##NAMES=Beryllonite
##RRUFFID=R060552
##IDEAL CHEMISTRY=NaBePO_4_
##LOCALITY=Afghanistan
##OWNER=RRUFF
##SOURCE=Gemological Institute of America
##DESCRIPTION=Colorless fragment
##STATUS=The identification of this mineral has been confirmed by X-ray diffraction and chemical analysis
##URL=rruff.info/R060552
##MEASURED CHEMISTRY=Na_1.00_Be_1.00_P_1.00_O_4_ ; Be not measured but estimated by difference and stoichiometry
90.52570, 0.0000000E+00
91.00781, 17.08822
91.48993, 16.83550
91.97205, 16.73497
92.45416, 16.79216
92.93628, 16.99991
93.41840, 17.40226
93.90051, 18.10955
94.38263, 18.83340
94.86475, 18.97295
95.34686, 18.53477
95.82898, 18.14698
96.31110, 18.51217
96.79321, 19.53356
97.27533, 20.09892
97.75745, 19.68046
98.23956, 18.64683
98.72168, 18.72868
99.20380, 20.17526
99.68591, 21.95231
100.1680, 22.70150
100.6501, 22.06508
101.1323, 22.13511
101.6144, 23.69593
102.0965, 26.88728
102.5786, 29.83647
103.0607, 32.42908
103.5428, 34.90253
104.0250, 37.75782
104.5071, 41.23590
104.9892, 44.64674
105.4713, 47.61660
105.9534, 49.59212
106.4355, 52.29564
106.9177, 55.55410
107.3998, 59.52344
107.8819, 64.85306
108.3640, 72.12119
108.8461, 80.22179
109.3282, 88.76870
109.8104, 97.15700
110.2925, 106.4767
110.7746, 117.0775
111.2567, 128.7625
111.7388, 140.4534
112.2209, 151.7793
112.7031, 163.0820
113.1852, 174.7308
113.6673, 187.1481
114.1494, 199.4635
114.6315, 211.4314
115.1136, 223.1382
115.5958, 234.8788
116.0779, 246.7308
116.5600, 258.6833
117.0421, 270.6722
117.5242, 281.9449
118.0063, 293.9235
118.4885, 307.6290
118.9706, 323.3211
119.4527, 339.7747
119.9348, 356.3952
120.4169, 373.2341
120.8990, 390.6681
121.3812, 409.6784
121.8633, 428.9013
122.3454, 446.6527
122.8275, 462.4020
123.3096, 477.6996
123.7917, 494.0938
124.2739, 511.2599
124.7560, 528.0063
125.2381, 543.3063
125.7202, 557.7835
126.2023, 572.2914
126.6844, 587.2565
127.1666, 602.2135
127.6487, 616.3656
128.1308, 629.8180
128.6129, 643.1756
129.0950, 657.5575
129.5771, 672.5178
130.0593, 686.5011
130.5414, 698.7937
131.0235, 709.7979
131.5056, 720.2400
131.9877, 727.6194
132.4698, 729.9076
132.9520, 727.9730
133.4341, 722.0773
133.9162, 716.0093
134.3983, 710.2560
134.8804, 705.1161
135.3625, 703.2809
135.8447, 705.1180
136.3268, 709.1544
136.8089, 713.5862
137.2910, 718.4318
137.7731, 723.6661
138.2552, 728.9018
138.7374, 733.7931
139.2195, 741.6996
139.7016, 754.2031
140.1837, 768.2792
140.6658, 776.9031
141.1479, 778.0395
141.6301, 778.6799
142.1122, 782.4747
142.5943, 791.5343
143.0764, 797.8188
143.5585, 800.2314
144.0406, 799.8800
144.5228, 800.8806
145.0049, 804.4499
145.4870, 807.8303
145.9691, 809.5756
146.4512, 809.8994
146.9333, 808.3598
147.4155, 805.1977
147.8976, 800.3190
148.3797, 792.8690
148.8618, 780.5128
149.3439, 767.2060
149.8260, 755.4926
150.3082, 742.9648
150.7903, 734.5291
151.2724, 731.7061
151.7545, 734.6470
152.2366, 736.9487
152.7188, 736.6552
153.2009, 736.4464
153.6830, 738.4785
154.1651, 745.2636
154.6472, 752.0124
155.1293, 757.1684
155.6115, 760.3849
156.0936, 764.7509
156.5757, 771.0619
157.0578, 778.6914
157.5399, 786.8790
158.0220, 795.0648
158.5042, 804.1738
158.9863, 815.0635
159.4684, 828.4578
159.9505, 840.5377
160.4326, 849.5594
160.9147, 856.5974
161.3969, 863.2356
161.8790, 873.6708
162.3611, 881.2719
162.8432, 881.9186
163.3253, 873.6534
163.8074, 862.8995
164.2896, 849.7707
164.7717, 836.1765
165.2538, 825.9541
165.7359, 821.5822
166.2180, 820.7457
166.7001, 821.6409
167.1823, 823.5843
167.6644, 827.9411
168.1465, 837.9778
168.6286, 851.5891
169.1107, 862.8617
169.5928, 870.8856
170.0750, 873.9623
170.5571, 870.1718
171.0392, 858.0563
171.5213, 840.8427
172.0034, 818.2551
172.4855, 791.5995
172.9677, 767.2372
173.4498, 748.8533
173.9319, 735.1037
174.4140, 724.2086
174.8961, 716.1409
175.3782, 710.2184
175.8604, 705.7174
176.3425, 702.5792
176.8246, 700.4877
177.3067, 699.5340
177.7888, 699.4056
178.2709, 699.5074
178.7531, 699.8292
179.2352, 700.1586
179.7173, 700.0767
180.1994, 699.6002
180.6815, 699.1710
181.1636, 699.1287
181.6458, 699.4403
182.1279, 700.0350
182.6100, 701.1628
183.0921, 702.4445
183.5742, 702.7299
184.0563, 701.9380
184.5385, 701.6232
185.0206, 703.7541
185.5027, 707.8981
185.9848, 711.8793
186.4669, 714.7702
186.9490, 716.9589
187.4312, 719.9011
187.9133, 723.6592
188.3954, 727.3785
188.8775, 729.0773
189.3596, 729.1197
189.8417, 731.2336
190.3239, 738.2249
190.8060, 748.8588
191.2881, 756.1096
191.7702, 759.3376
192.2523, 761.4383
192.7344, 766.8195
193.2166, 775.4576
193.6987, 782.6386
194.1808, 786.5467
194.6629, 787.3018
195.1450, 786.7449
195.6271, 785.1660
196.1093, 781.5683
196.5914, 773.4753
197.0735, 760.4949
197.5556, 747.8437
198.0377, 737.4200
198.5198, 729.1292
199.0020, 723.0880
199.4841, 719.7258
199.9662, 717.8188
200.4483, 715.0848
200.9304, 711.2158
201.4125, 708.3546
201.8947, 707.9365
202.3768, 710.2300
202.8589, 711.4568
203.3410, 711.3566
203.8231, 710.5111
204.3052, 709.8418
204.7874, 709.2565
205.2695, 709.2225
205.7516, 709.8615
206.2337, 711.1205
206.7158, 713.5935
207.1979, 717.7572
207.6801, 722.6959
208.1622, 726.3818
208.6443, 728.5331
209.1264, 730.3919
209.6085, 732.3279
210.0906, 734.1494
210.5728, 737.0808
211.0549, 741.5863
211.5370, 746.8732
212.0191, 750.9191
212.5012, 753.3077
212.9833, 755.5816
213.4655, 758.7498
213.9476, 763.5712
214.4297, 766.5270
214.9118, 767.2512
215.3939, 766.2343
215.8760, 764.1288
216.3581, 759.5438
216.8403, 756.7662
217.3224, 758.5414
217.8045, 767.0782
218.2866, 773.2109
218.7687, 775.7836
219.2508, 776.1709
219.7330, 777.9211
220.2151, 781.1670
220.6972, 785.4665
221.1793, 790.8651
221.6614, 798.3483
222.1435, 804.1501
222.6257, 807.2068
223.1078, 808.8520
223.5899, 812.9151
224.0720, 820.0604
224.5541, 828.6116
225.0362, 838.2754
225.5184, 850.0233
226.0005, 860.2133
226.4826, 868.1136
226.9647, 874.6430
227.4468, 882.6104
227.9289, 892.3405
228.4111, 902.9716
228.8932, 914.0742
229.3753, 925.3143
229.8574, 938.0371
230.3395, 953.7625
230.8216, 970.5276
231.3038, 983.0636
231.7859, 990.0046
232.2680, 994.5656
232.7501, 998.2232
233.2322, 1001.607
233.7143, 1002.852
234.1965, 1003.146
234.6786, 1001.028
235.1607, 991.8955
235.6428, 971.9330
236.1249, 950.4744
236.6070, 931.4080
237.0892, 915.0529
237.5713, 900.3417
238.0534, 887.1656
238.5355, 875.6516
239.0176, 866.4573
239.4997, 861.2136
239.9819, 855.7604
240.4640, 848.1593
240.9461, 836.8230
241.4282, 827.0626
241.9103, 819.5023
242.3924, 813.3282
242.8746, 806.5103
243.3567, 798.3446
243.8388, 790.6178
244.3209, 783.8928
244.8030, 777.9750
245.2851, 773.8414
245.7673, 772.0112
246.2494, 771.7624
246.7315, 771.5953
247.2136, 771.5842
247.6957, 771.5526
248.1778, 771.5432
248.6600, 771.8597
249.1421, 771.1779
249.6242, 768.8549
250.1063, 765.8684
250.5884, 764.1541
251.0705, 764.1974
251.5527, 764.6779
252.0348, 765.1800
252.5169, 765.7523
252.9990, 766.1405
253.4811, 766.2142
253.9632, 766.1827
254.4454, 766.3962
254.9275, 766.8414
255.4096, 767.5492
255.8917, 768.5988
256.3738, 770.0931
256.8560, 771.3514
257.3381, 772.0381
257.8202, 772.7806
258.3023, 774.8199
258.7844, 779.1139
259.2665, 782.5510
259.7487, 783.7654
260.2308, 782.2092
260.7129, 782.2072
261.1950, 783.9469
261.6771, 787.0090
262.1592, 791.1348
262.6414, 796.9495
263.1235, 802.1439
263.6056, 805.9078
264.0877, 808.1805
264.5698, 810.4391
265.0519, 812.7928
265.5341, 814.9769
266.0162, 816.8187
266.4983, 818.4891
266.9804, 819.2070
267.4625, 818.4854
267.9446, 816.3625
268.4268, 814.8896
268.9089, 814.2216
269.3910, 813.9797
269.8731, 813.7608
270.3552, 813.4957
270.8373, 813.4824
271.3195, 813.5662
271.8016, 813.8562
272.2837, 815.7432
272.7658, 819.7514
273.2479, 824.2285
273.7300, 827.4980
274.2122, 829.2338
274.6943, 831.8542
275.1764, 836.3259
275.6585, 842.0540
276.1406, 845.6194
276.6227, 846.5465
277.1049, 846.9144
277.5870, 848.3616
278.0691, 850.9626
278.5512, 853.9456
279.0333, 857.5361
279.5154, 861.2519
279.9976, 863.3713
280.4797, 863.7371
280.9618, 863.3219
281.4439, 862.3982
281.9260, 860.9540
282.4081, 860.6055
282.8903, 861.9557
283.3724, 864.0654
283.8545, 864.6667
284.3366, 863.6740
284.8187, 862.0570
285.3008, 859.9850
285.7830, 857.5638
286.2651, 856.3165
286.7472, 856.4982
287.2293, 857.6456
287.7114, 859.1060
288.1935, 860.8737
288.6757, 862.6393
289.1578, 864.1461
289.6399, 865.4695
290.1220, 866.7965
290.6041, 868.0145
291.0862, 869.6444
291.5684, 872.7468
292.0505, 877.1857
292.5326, 881.5361
293.0147, 885.2001
293.4968, 888.2554
293.9789, 890.9195
294.4611, 893.1119
294.9432, 895.3154
295.4253, 898.5461
295.9074, 902.4520
296.3895, 905.4188
296.8716, 906.0318
297.3538, 905.4500
297.8359, 906.1174
298.3180, 908.0822
298.8001, 910.3781
299.2822, 911.8412
299.7643, 912.9188
300.2465, 914.7273
300.7286, 917.4246
301.2107, 921.2064
301.6928, 927.0629
302.1749, 934.8043
302.6570, 942.3051
303.1392, 948.2341
303.6213, 952.6815
304.1034, 955.7181
304.5855, 957.6849
305.0676, 957.9358
305.5497, 956.0544
306.0319, 952.0134
306.5140, 945.5576
306.9961, 936.0891
307.4782, 924.3494
307.9603, 910.7828
308.4424, 894.7316
308.9246, 878.4787
309.4067, 862.7042
309.8888, 848.0051
310.3709, 835.8288
310.8530, 827.5609
311.3351, 821.9802
311.8173, 818.4213
312.2994, 817.2571
312.7815, 816.4719
313.2636, 814.6860
313.7457, 812.4750
314.2278, 810.8626
314.7100, 810.5020
315.1921, 810.7517
315.6742, 811.4324
316.1563, 812.6491
316.6384, 813.5359
317.1205, 813.2205
317.6027, 812.4910
318.0848, 812.3463
318.5669, 813.6592
319.0490, 815.1113
319.5311, 816.1552
320.0132, 816.7429
320.4954, 817.3600
320.9775, 817.7142
321.4596, 818.3457
321.9417, 819.7126
322.4238, 822.2175
322.9059, 825.1355
323.3881, 828.8038
323.8702, 833.0471
324.3523, 836.2536
324.8344, 837.2406
325.3165, 837.7530
325.7986, 838.8360
326.2808, 840.0916
326.7629, 842.4982
327.2450, 846.8618
327.7271, 852.6243
328.2092, 857.5698
328.6913, 860.0597
329.1735, 863.1578
329.6556, 868.3148
330.1377, 877.5795
330.6198, 884.9484
331.1019, 889.2715
331.5840, 892.0114
332.0662, 896.0076
332.5483, 901.6489
333.0304, 908.0085
333.5125, 914.5430
333.9946, 921.0688
334.4767, 929.0352
334.9589, 938.5312
335.4410, 949.2600
335.9231, 960.9329
336.4052, 973.5787
336.8873, 986.8111
337.3694, 1000.305
337.8515, 1014.059
338.3336, 1029.399
338.8158, 1046.876
339.2979, 1064.887
339.7800, 1081.935
340.2621, 1097.531
340.7442, 1114.802
341.2263, 1134.082
341.7085, 1155.270
342.1906, 1177.143
342.6727, 1199.914
343.1548, 1223.250
343.6369, 1246.828
344.1190, 1270.558
344.6012, 1296.333
345.0833, 1324.040
345.5654, 1354.113
346.0475, 1387.472
346.5296, 1423.897
347.0117, 1462.822
347.4939, 1503.494
347.9760, 1546.775
348.4581, 1592.428
348.9402, 1639.972
349.4223, 1690.314
349.9044, 1742.845
350.3866, 1796.942
350.8687, 1851.031
351.3508, 1906.905
351.8329, 1961.836
352.3150, 2013.582
352.7971, 2062.206
353.2793, 2103.124
353.7614, 2135.253
354.2435, 2157.652
354.7256, 2169.444
355.2077, 2172.347
355.6898, 2162.140
356.1720, 2132.724
356.6541, 2085.826
357.1362, 2029.787
357.6183, 1965.403
358.1004, 1895.708
358.5826, 1822.522
359.0647, 1744.343
359.5468, 1667.494
360.0289, 1594.070
360.5110, 1524.444
360.9931, 1459.056
361.4753, 1398.528
361.9574, 1342.742
362.4395, 1291.668
362.9216, 1245.225
363.4037, 1204.011
363.8858, 1169.915
364.3680, 1140.474
364.8501, 1112.977
365.3322, 1086.907
365.8143, 1063.082
366.2964, 1041.734
366.7785, 1022.789
367.2607, 1006.203
367.7428, 992.6419
368.2249, 980.8448
368.7070, 970.0573
369.1891, 961.4271
369.6712, 952.3212
370.1534, 941.6168
370.6355, 930.2917
371.1176, 921.5230
371.5997, 916.7119
372.0818, 912.6066
372.5639, 907.8326
373.0461, 901.9277
373.5282, 896.7020
374.0103, 892.1666
374.4924, 888.1603
374.9745, 884.5563
375.4566, 881.4164
375.9388, 878.3669
376.4209, 875.0776
376.9030, 871.6234
377.3851, 870.2181
377.8672, 871.5907
378.3493, 872.7368
378.8315, 869.8787
379.3136, 862.8994
379.7957, 858.2291
380.2778, 857.4749
380.7599, 859.2871
381.2420, 860.4922
381.7242, 861.0701
382.2063, 861.7983
382.6884, 863.3099
383.1705, 865.3837
383.6526, 867.1502
384.1347, 868.4174
384.6169, 869.7185
385.0990, 871.6133
385.5811, 874.0520
386.0632, 876.8275
386.5453, 880.2895
387.0274, 883.8340
387.5096, 886.3329
387.9917, 887.7842
388.4738, 889.5098
388.9559, 891.9920
389.4380, 895.4819
389.9201, 900.4559
390.4023, 908.1774
390.8844, 916.1139
391.3665, 921.8282
391.8486, 926.1588
392.3307, 931.9753
392.8128, 941.3406
393.2950, 952.2052
393.7771, 963.2348
394.2592, 973.9058
394.7413, 985.4291
395.2234, 998.5078
395.7055, 1012.519
396.1877, 1026.505
396.6698, 1040.320
397.1519, 1054.003
397.6340, 1068.255
398.1161, 1083.421
398.5982, 1096.078
399.0804, 1109.138
399.5625, 1117.704
400.0446, 1118.176
400.5267, 1108.049
401.0088, 1093.274
401.4909, 1072.295
401.9731, 1046.926
402.4552, 1024.860
402.9373, 1007.236
403.4194, 991.0524
403.9015, 975.0240
404.3836, 959.1603
404.8658, 943.0117
405.3479, 925.8666
405.8300, 909.5927
406.3121, 896.7323
406.7942, 887.3818
407.2763, 880.7592
407.7585, 877.2081
408.2406, 876.2243
408.7227, 875.2978
409.2048, 874.4512
409.6869, 873.4276
410.1690, 872.0247
410.6512, 870.2616
411.1333, 867.9980
411.6154, 864.8324
412.0975, 861.8597
412.5796, 861.0895
413.0617, 862.1503
413.5439, 863.1468
414.0260, 862.5490
414.5081, 861.4188
414.9902, 861.3256
415.4723, 862.4455
415.9544, 863.9686
416.4366, 865.3160
416.9187, 866.6246
417.4008, 868.0892
417.8829, 870.4788
418.3650, 872.4609
418.8471, 872.9711
419.3293, 872.2353
419.8114, 871.6548
420.2935, 871.9216
420.7756, 872.4888
421.2577, 873.0709
421.7398, 874.0126
422.2220, 874.2343
422.7041, 872.6634
423.1862, 870.3500
423.6683, 869.1716
424.1504, 869.7323
424.6325, 871.0773
425.1147, 873.2773
425.5968, 876.5543
426.0789, 878.8005
426.5610, 878.6059
427.0431, 878.6595
427.5252, 881.2320
428.0074, 887.2253
428.4895, 893.7189
428.9716, 900.7198
429.4537, 907.8130
429.9358, 913.4187
430.4179, 917.1564
430.9001, 920.6780
431.3822, 925.3285
431.8643, 931.1603
432.3464, 934.4230
432.8285, 934.9123
433.3106, 933.4835
433.7928, 930.7480
434.2749, 926.8280
434.7570, 922.6395
435.2391, 917.9501
435.7212, 913.5766
436.2033, 911.3522
436.6855, 911.1627
437.1676, 911.6223
437.6497, 911.5856
438.1318, 911.6250
438.6139, 912.5543
439.0960, 914.4647
439.5782, 917.4210
440.0603, 921.5070
440.5424, 926.6931
441.0245, 932.8425
441.5066, 940.2833
441.9887, 948.4011
442.4709, 957.1174
442.9530, 966.3795
443.4351, 975.3741
443.9172, 982.4740
444.3993, 989.8968
444.8814, 999.1122
445.3636, 1010.245
445.8457, 1023.408
446.3278, 1039.744
446.8099, 1058.058
447.2920, 1075.748
447.7741, 1089.477
448.2563, 1106.370
448.7384, 1128.419
449.2205, 1156.282
449.7026, 1185.732
450.1847, 1216.770
450.6668, 1248.981
451.1490, 1282.104
451.6311, 1316.629
452.1132, 1350.357
452.5953, 1382.550
453.0774, 1414.299
453.5595, 1451.459
454.0417, 1494.869
454.5238, 1537.139
455.0059, 1575.202
455.4880, 1608.941
455.9701, 1638.660
456.4522, 1663.678
456.9344, 1688.158
457.4165, 1715.787
457.8986, 1746.533
458.3807, 1778.990
458.8628, 1810.209
459.3449, 1846.172
459.8271, 1894.752
460.3092, 1954.731
460.7913, 2021.500
461.2734, 2094.407
461.7555, 2171.389
462.2376, 2252.692
462.7198, 2338.647
463.2019, 2423.844
463.6840, 2509.137
464.1661, 2590.351
464.6482, 2662.429
465.1303, 2733.769
465.6125, 2785.640
466.0946, 2811.099
466.5767, 2811.540
467.0588, 2797.832
467.5409, 2771.969
468.0230, 2731.094
468.5052, 2673.251
468.9873, 2595.163
469.4694, 2508.042
469.9515, 2410.649
470.4336, 2305.823
470.9157, 2193.921
471.3979, 2071.825
471.8800, 1955.272
472.3621, 1846.922
472.8442, 1747.783
473.3263, 1658.202
473.8084, 1578.259
474.2906, 1507.086
474.7727, 1445.553
475.2548, 1392.661
475.7369, 1343.814
476.2190, 1298.410
476.7011, 1256.978
477.1833, 1219.497
477.6654, 1185.944
478.1475, 1156.278
478.6296, 1131.302
479.1117, 1109.637
479.5938, 1090.195
480.0760, 1072.862
480.5581, 1057.488
481.0402, 1044.489
481.5223, 1032.910
482.0044, 1021.814
482.4865, 1010.733
482.9687, 1001.285
483.4508, 994.7614
483.9329, 989.9939
484.4150, 985.4006
484.8971, 980.1838
485.3792, 975.5908
485.8614, 972.1862
486.3435, 969.8555
486.8256, 967.0095
487.3077, 962.9880
487.7898, 959.2652
488.2719, 956.6392
488.7541, 955.3810
489.2362, 954.5414
489.7183, 954.2171
490.2004, 954.1747
490.6825, 954.2760
491.1646, 954.6044
491.6468, 954.2026
492.1289, 952.9172
492.6110, 950.6385
493.0931, 946.5879
493.5752, 940.7637
494.0573, 934.7010
494.5395, 929.0461
495.0216, 923.9823
495.5037, 919.9075
495.9858, 917.0686
496.4679, 914.5144
496.9500, 911.3151
497.4322, 907.8680
497.9143, 904.8878
498.3964, 902.4127
498.8785, 900.7009
499.3606, 900.1636
499.8427, 900.6261
500.3249, 901.2994
500.8070, 902.0801
501.2891, 902.8728
501.7712, 903.6334
502.2533, 904.3771
502.7354, 905.0294
503.2176, 905.6241
503.6997, 906.0931
504.1818, 906.2375
504.6639, 905.1271
505.1460, 905.3805
505.6281, 907.3709
506.1103, 910.9854
506.5924, 916.0770
507.0745, 923.1208
507.5566, 929.9198
508.0387, 934.7679
508.5208, 937.8447
509.0030, 943.2513
509.4851, 951.3153
509.9672, 959.8690
510.4493, 966.1876
510.9314, 971.0166
511.4135, 976.7615
511.8957, 983.6465
512.3778, 992.2649
512.8599, 1004.102
513.3420, 1018.374
513.8242, 1032.703
514.3063, 1043.992
514.7884, 1056.438
515.2705, 1073.597
515.7526, 1095.647
516.2347, 1119.150
516.7169, 1142.063
517.1990, 1166.250
517.6811, 1193.136
518.1632, 1223.662
518.6453, 1255.894
519.1274, 1289.794
519.6096, 1325.405
520.0917, 1362.376
520.5738, 1400.527
521.0559, 1440.289
521.5380, 1483.694
522.0201, 1530.083
522.5023, 1569.068
522.9844, 1602.247
523.4665, 1623.665
523.9486, 1628.088
524.4307, 1615.989
524.9128, 1593.165
525.3950, 1558.291
525.8771, 1519.923
526.3592, 1486.439
526.8413, 1458.692
527.3234, 1438.791
527.8055, 1429.692
528.2877, 1427.050
528.7698, 1428.610
529.2519, 1433.096
529.7340, 1435.156
530.2161, 1434.863
530.6982, 1428.892
531.1804, 1414.222
531.6625, 1390.199
532.1446, 1360.823
532.6267, 1323.194
533.1088, 1283.062
533.5909, 1246.326
534.0731, 1210.809
534.5552, 1182.103
535.0373, 1161.655
535.5194, 1148.017
536.0015, 1136.510
536.4836, 1126.550
536.9658, 1120.096
537.4479, 1118.011
537.9300, 1120.206
538.4121, 1125.093
538.8942, 1132.498
539.3763, 1143.245
539.8585, 1158.668
540.3406, 1178.276
540.8227, 1199.147
541.3048, 1220.979
541.7869, 1244.477
542.2690, 1270.874
542.7512, 1299.716
543.2333, 1329.869
543.7154, 1360.348
544.1975, 1392.371
544.6796, 1428.264
545.1617, 1467.237
545.6439, 1504.358
546.1260, 1546.153
546.6081, 1578.794
547.0902, 1596.034
547.5723, 1598.577
548.0544, 1579.000
548.5366, 1523.666
549.0187, 1452.480
549.5008, 1382.081
549.9829, 1307.944
550.4650, 1242.760
550.9471, 1187.515
551.4293, 1141.964
551.9114, 1104.656
552.3935, 1075.897
552.8756, 1054.036
553.3577, 1039.756
553.8398, 1031.857
554.3220, 1025.071
554.8041, 1019.367
555.2862, 1015.114
555.7683, 1012.659
556.2504, 1011.798
556.7325, 1012.152
557.2147, 1013.725
557.6968, 1016.214
558.1789, 1019.428
558.6610, 1023.391
559.1431, 1028.104
559.6252, 1033.054
560.1074, 1039.240
560.5895, 1046.779
561.0716, 1055.846
561.5537, 1066.836
562.0358, 1079.662
562.5179, 1094.760
563.0001, 1112.337
563.4822, 1132.388
563.9643, 1153.754
564.4464, 1176.462
564.9285, 1200.499
565.4106, 1226.660
565.8928, 1255.626
566.3749, 1283.705
566.8570, 1312.186
567.3391, 1336.919
567.8212, 1351.585
568.3033, 1356.801
568.7855, 1356.301
569.2676, 1352.428
569.7497, 1342.519
570.2318, 1321.409
570.7139, 1290.452
571.1960, 1253.807
571.6782, 1209.179
572.1603, 1163.419
572.6424, 1121.722
573.1245, 1084.070
573.6066, 1052.278
574.0887, 1027.375
574.5709, 1008.056
575.0530, 993.0287
575.5351, 983.9890
576.0172, 976.4424
576.4993, 970.0989
576.9814, 965.1999
577.4636, 962.3771
577.9457, 962.1319
578.4278, 962.6895
578.9099, 963.8327
579.3920, 965.3940
579.8741, 966.2375
580.3563, 966.1905
580.8384, 967.7648
581.3205, 973.2231
581.8026, 981.4617
582.2847, 989.3076
582.7668, 996.6991
583.2490, 1003.483
583.7311, 1009.130
584.2131, 1014.219
584.6953, 1019.021
585.1774, 1021.990
585.6595, 1028.468
586.1416, 1043.726
586.6237, 1063.611
