##NAMES=Beryl
##RRUFFID=R050065
##IDEAL CHEMISTRY=Be_3_Al_2_Si_6_O_18_
##LOCALITY=Xuebaoding, Sichuan Province, China
##OWNER=RRUFF
##SOURCE=Rock Currier
##DESCRIPTION=Light blue colored tabular single crystal
##STATUS=The identification of this mineral has been confirmed by X-ray diffraction and chemical analysis
##URL=rruff.info/R050065
##MEASURED CHEMISTRY=(Be_2.78_Li_0.22_)_Σ=3_Al_2.00_Si_6.00_O_18_·Na_0.22_
93.78320, 63.61217
94.26532, 64.77901
94.74744, 65.11173
95.22955, 64.43887
95.71167, 63.18353
96.19379, 61.51072
96.67590, 59.22981
97.15802, 57.61490
97.64014, 57.27522
98.12225, 57.62680
98.60437, 57.65534
99.08649, 56.99180
99.56860, 55.95302
100.0507, 55.07093
100.5328, 54.30078
101.0150, 53.46835
101.4971, 52.35077
101.9792, 50.91791
102.4613, 49.74724
102.9434, 49.26757
103.4255, 49.02798
103.9077, 48.70761
104.3898, 48.18834
104.8719, 47.60767
105.3540, 47.25187
105.8361, 47.22744
106.3182, 47.25022
106.8004, 47.30815
107.2825, 47.35047
107.7646, 47.31270
108.2467, 47.15060
108.7288, 46.87103
109.2109, 46.57573
109.6931, 46.10365
110.1752, 45.76891
110.6573, 45.68738
111.1394, 45.82229
111.6215, 46.07269
112.1036, 46.36680
112.5858, 46.71937
113.0679, 46.96338
113.5500, 46.78561
114.0321, 46.71544
114.5142, 47.28100
114.9964, 48.56324
115.4785, 49.93998
115.9606, 50.58013
116.4427, 50.53032
116.9248, 50.63110
117.4069, 51.25309
117.8891, 52.14459
118.3712, 52.79057
118.8533, 53.05175
119.3354, 53.07976
119.8175, 52.99368
120.2996, 52.80526
120.7818, 52.65011
121.2639, 52.56139
121.7460, 52.53144
122.2281, 52.77834
122.7102, 54.00351
123.1923, 55.06993
123.6745, 55.26144
124.1566, 54.48308
124.6387, 53.27489
125.1208, 52.38529
125.6029, 51.91904
126.0850, 51.58814
126.5672, 51.39416
127.0493, 51.27674
127.5314, 51.19675
128.0135, 51.13688
128.4956, 51.09579
128.9777, 51.06892
129.4599, 51.24234
129.9420, 51.21311
130.4241, 50.77761
130.9062, 50.14752
131.3883, 49.61755
131.8705, 49.34096
132.3526, 49.30304
132.8347, 49.41007
133.3168, 49.88764
133.7989, 50.25698
134.2810, 50.24934
134.7632, 49.92168
135.2453, 49.56427
135.7274, 49.28652
136.2095, 49.15419
136.6916, 49.29198
137.1737, 50.10149
137.6559, 50.94643
138.1380, 51.08868
138.6201, 50.39775
139.1022, 49.61518
139.5843, 49.24103
140.0664, 49.08407
140.5486, 48.89245
141.0307, 48.52202
141.5128, 48.04859
141.9949, 47.71581
142.4770, 47.63256
142.9591, 47.53034
143.4413, 47.31289
143.9234, 46.99878
144.4055, 46.62068
144.8876, 46.19372
145.3697, 45.71856
145.8518, 45.23810
146.3340, 44.83687
146.8161, 44.35259
147.2982, 43.60599
147.7803, 42.69707
148.2624, 41.90900
148.7445, 41.55964
149.2267, 41.83506
149.7088, 41.77480
150.1909, 41.01748
150.6730, 40.28583
151.1551, 40.01104
151.6372, 40.23551
152.1194, 40.69872
152.6015, 41.10870
153.0836, 41.49310
153.5657, 41.67481
154.0478, 41.57178
154.5299, 41.30671
155.0121, 40.96180
155.4942, 40.55027
155.9763, 40.14473
156.4584, 39.88048
156.9405, 39.76665
157.4227, 39.63734
157.9048, 39.38696
158.3869, 39.09228
158.8690, 38.93911
159.3511, 39.03566
159.8332, 39.19402
160.3154, 39.16339
160.7975, 38.93938
161.2796, 38.72668
161.7617, 38.67601
162.2438, 38.77353
162.7259, 38.84407
163.2081, 38.87069
163.6902, 38.83014
164.1723, 38.70409
164.6544, 38.48997
165.1365, 38.21781
165.6186, 37.87328
166.1008, 37.40878
166.5829, 37.09922
167.0650, 37.07460
167.5471, 37.16048
168.0292, 37.33418
168.5113, 37.57098
168.9935, 37.73472
169.4756, 37.53625
169.9577, 36.57722
170.4398, 36.03667
170.9219, 36.30947
171.4040, 36.79861
171.8862, 37.00393
172.3683, 36.74177
172.8504, 36.19182
173.3325, 35.77506
173.8146, 35.55568
174.2967, 35.42202
174.7789, 35.44007
175.2610, 35.51880
175.7431, 35.56785
176.2252, 35.54908
176.7073, 35.45721
177.1894, 35.26605
177.6716, 34.79231
178.1537, 34.45054
178.6358, 34.40108
179.1179, 34.53358
179.6000, 34.64861
180.0821, 34.66250
180.5643, 34.57287
181.0464, 34.37336
181.5285, 33.96613
182.0106, 33.60669
182.4927, 33.44402
182.9749, 33.44370
183.4570, 33.45447
183.9391, 33.41815
184.4212, 33.33592
184.9033, 33.21976
185.3854, 33.04049
185.8676, 32.87557
186.3497, 32.84053
186.8318, 32.94225
187.3139, 32.92724
187.7960, 32.53329
188.2781, 32.02574
188.7603, 31.72474
189.2424, 31.75718
189.7245, 31.86053
190.2066, 31.65688
190.6887, 31.04683
191.1708, 30.48837
191.6530, 30.12065
192.1351, 29.88449
192.6172, 29.75795
193.0993, 29.74304
193.5814, 29.79925
194.0635, 29.84826
194.5457, 29.88242
195.0278, 29.92497
195.5099, 30.03609
195.9920, 30.13402
196.4741, 30.12785
196.9562, 29.97391
197.4384, 29.72049
197.9205, 29.50496
198.4026, 29.36136
198.8847, 29.21358
199.3668, 29.06520
199.8489, 28.90342
200.3311, 28.71713
200.8132, 28.50100
201.2953, 28.25323
201.7774, 27.96933
202.2595, 27.55355
202.7416, 27.20766
203.2238, 26.94925
203.7059, 26.77210
204.1880, 26.66619
204.6701, 26.62852
205.1522, 26.65302
205.6344, 26.71729
206.1165, 26.99307
206.5986, 27.11256
207.0807, 26.84960
207.5628, 26.38309
208.0449, 26.06528
208.5271, 26.10382
209.0092, 26.39040
209.4913, 26.47646
209.9734, 26.26718
210.4555, 26.02172
210.9376, 25.83951
211.4198, 25.69414
211.9019, 25.48834
212.3840, 25.12847
212.8661, 24.72477
213.3482, 24.57143
213.8303, 24.76549
214.3125, 25.02761
214.7946, 25.22466
215.2767, 25.36429
215.7588, 25.48364
216.2409, 25.60320
216.7230, 25.70554
217.2052, 25.77591
217.6873, 25.82198
218.1694, 25.81739
218.6515, 25.68548
219.1336, 25.43415
219.6157, 25.29505
220.0979, 25.45646
220.5800, 25.71285
221.0621, 25.82530
221.5442, 25.74266
222.0263, 25.62212
222.5084, 25.60077
222.9906, 25.68098
223.4727, 25.83621
223.9548, 26.15079
224.4369, 26.48372
224.9190, 26.77086
225.4011, 27.00709
225.8833, 27.10031
226.3654, 26.84117
226.8475, 26.10536
227.3296, 25.62551
227.8117, 25.72097
228.2938, 26.01758
228.7760, 26.39365
229.2581, 26.80407
229.7402, 27.09682
230.2223, 26.95605
230.7044, 26.10227
231.1866, 25.72256
231.6687, 26.39798
232.1508, 27.22693
232.6329, 27.66818
233.1150, 27.62045
233.5971, 27.32978
234.0793, 27.12992
234.5614, 27.06709
235.0435, 26.98371
235.5256, 26.88543
236.0077, 26.76263
236.4898, 26.53732
236.9720, 26.23310
237.4541, 26.01469
237.9362, 26.14828
238.4183, 26.89636
238.9004, 27.34876
239.3825, 27.32387
239.8647, 27.19527
240.3468, 27.19404
240.8289, 27.35325
241.3110, 27.56473
241.7931, 27.70638
242.2752, 27.79218
242.7574, 27.73331
243.2395, 27.41176
243.7216, 27.05685
244.2037, 26.77443
244.6858, 26.59653
245.1679, 26.54858
245.6501, 26.68368
246.1322, 27.08633
246.6143, 27.31457
247.0964, 27.28466
247.5785, 27.16517
248.0606, 27.02982
248.5428, 26.90173
249.0249, 26.81411
249.5070, 26.80077
249.9891, 26.87370
250.4712, 26.97898
250.9533, 27.25015
251.4355, 27.45082
251.9176, 27.38750
252.3997, 27.06848
252.8818, 26.67487
253.3639, 26.34951
253.8460, 26.09491
254.3282, 25.83019
254.8103, 25.58817
255.2924, 25.31124
255.7745, 24.93210
256.2566, 24.46146
256.7387, 24.00515
257.2209, 23.62964
257.7030, 23.34103
258.1851, 23.09880
258.6672, 22.85774
259.1493, 22.69980
259.6314, 22.77042
260.1136, 23.03552
260.5957, 23.18176
261.0778, 22.97932
261.5599, 22.52308
262.0420, 22.15135
262.5241, 21.79980
263.0063, 21.61170
263.4884, 21.81863
263.9705, 22.36490
264.4526, 22.74146
264.9347, 22.59360
265.4168, 22.20100
265.8990, 22.14766
266.3811, 22.62001
266.8632, 23.04169
267.3453, 22.88200
267.8275, 22.22614
268.3096, 21.74380
268.7917, 21.70310
269.2738, 21.94604
269.7559, 22.25377
270.2380, 22.64400
270.7202, 22.98641
271.2023, 23.21509
271.6844, 23.32798
272.1665, 23.28987
272.6486, 22.98667
273.1307, 22.63906
273.6129, 22.51075
274.0950, 22.59817
274.5771, 22.61563
275.0592, 22.23538
275.5413, 21.56240
276.0234, 21.23556
276.5056, 21.50383
276.9877, 21.95282
277.4698, 22.31468
277.9519, 22.58036
278.4340, 22.70977
278.9161, 22.56156
279.3983, 22.22531
279.8804, 22.12346
280.3625, 22.39902
280.8446, 22.73309
281.3267, 22.91847
281.8088, 23.00525
282.2910, 23.11424
282.7731, 23.34695
283.2552, 23.64937
283.7373, 23.82965
284.2194, 23.82279
284.7015, 23.81243
285.1837, 23.88763
285.6658, 24.01490
286.1479, 24.14137
286.6300, 24.22683
287.1121, 24.31204
287.5942, 24.49948
288.0764, 24.82916
288.5585, 25.16981
289.0406, 25.49904
289.5227, 25.80316
290.0048, 26.04854
290.4869, 26.21352
290.9691, 26.36091
291.4512, 26.62313
291.9333, 27.06023
292.4154, 27.41848
292.8975, 27.50898
293.3796, 27.56748
293.8618, 27.82889
294.3439, 28.35213
294.8260, 28.87710
295.3081, 29.06058
295.7902, 28.85357
296.2723, 28.53726
296.7545, 27.94372
297.2366, 27.40189
297.7187, 27.18826
298.2008, 27.28910
298.6829, 27.38085
299.1650, 27.05045
299.6472, 26.22576
300.1293, 25.65718
300.6114, 25.67538
301.0935, 25.71283
301.5756, 25.47278
302.0577, 25.01632
302.5399, 24.60193
303.0220, 24.46592
303.5041, 24.59352
303.9862, 24.63699
304.4683, 24.44641
304.9504, 24.35051
305.4326, 24.53498
305.9147, 24.88868
306.3968, 25.20979
306.8789, 25.38345
307.3610, 25.42681
307.8431, 25.38347
308.3253, 25.08873
308.8074, 24.98135
309.2895, 25.32665
309.7716, 25.84865
310.2537, 26.18485
310.7358, 26.15721
311.2180, 25.96534
311.7001, 26.08772
312.1822, 26.74327
312.6643, 27.22779
313.1464, 27.24921
313.6285, 27.16040
314.1107, 27.25831
314.5928, 27.62062
315.0749, 28.08536
315.5570, 28.38441
316.0392, 28.41838
316.5213, 28.65263
317.0034, 29.26092
317.4855, 29.98603
317.9676, 30.68598
318.4497, 31.35520
318.9319, 32.08580
319.4140, 33.02882
319.8961, 34.22329
320.3782, 35.22674
320.8603, 35.81788
321.3424, 36.41126
321.8246, 37.15600
322.3067, 38.03257
322.7888, 38.98241
323.2709, 39.99751
323.7530, 41.05108
324.2351, 41.93698
324.7173, 42.83733
325.1994, 43.26329
325.6815, 43.06668
326.1636, 42.36975
326.6457, 41.31214
327.1278, 39.93596
327.6100, 38.31521
328.0921, 36.58622
328.5742, 34.65186
329.0563, 32.81630
329.5384, 31.02139
330.0205, 29.40725
330.5027, 28.16658
330.9848, 27.34631
331.4669, 26.69723
331.9490, 25.86632
332.4311, 24.80495
332.9132, 23.77640
333.3954, 22.71181
333.8775, 21.77057
334.3596, 21.05741
334.8417, 20.57505
335.3238, 20.26649
335.8059, 20.17233
336.2881, 20.29841
336.7702, 20.20472
337.2523, 19.61477
337.7344, 19.10320
338.2165, 18.97920
338.6986, 19.13326
339.1808, 19.29263
339.6629, 19.28762
340.1450, 19.16140
340.6271, 19.08556
341.1092, 19.11321
341.5913, 19.08612
342.0735, 18.83709
342.5556, 18.54165
343.0377, 18.46319
343.5198, 18.75926
344.0019, 19.12736
344.4840, 18.97403
344.9662, 18.11392
345.4483, 17.54377
345.9304, 17.91026
346.4125, 18.48582
346.8946, 18.77090
347.3767, 18.68759
347.8589, 18.48152
348.3410, 18.33934
348.8231, 18.26155
349.3052, 18.30635
349.7873, 18.60937
350.2694, 18.89231
350.7516, 18.95540
351.2337, 18.83158
351.7158, 18.67134
352.1979, 18.52777
352.6800, 18.41401
353.1621, 18.39465
353.6443, 18.52293
354.1264, 18.62548
354.6085, 18.49997
355.0906, 18.29943
355.5727, 18.29844
356.0548, 18.71765
356.5370, 19.21767
357.0191, 19.28111
357.5012, 18.86309
357.9833, 18.51056
358.4654, 18.52079
358.9475, 18.67244
359.4297, 18.67262
359.9118, 18.45392
360.3939, 18.28612
360.8760, 18.41986
361.3581, 18.79601
361.8402, 19.12873
362.3224, 19.38048
362.8045, 19.51938
363.2866, 19.48449
363.7687, 19.29384
364.2508, 19.09778
364.7329, 18.93781
365.2151, 18.81431
365.6972, 18.73307
366.1793, 18.69789
366.6614, 18.68029
367.1436, 18.62597
367.6257, 18.57342
368.1078, 18.64268
368.5899, 18.96956
369.0720, 19.32477
369.5541, 19.48712
370.0363, 19.48864
370.5184, 19.55253
371.0005, 19.82294
371.4826, 20.18228
371.9647, 20.36811
372.4468, 20.35006
372.9290, 20.26329
373.4111, 20.06183
373.8932, 19.84390
374.3753, 19.79865
374.8574, 19.98028
375.3395, 20.30699
375.8217, 20.69338
376.3038, 21.14240
376.7859, 21.62437
377.2680, 22.15683
377.7501, 22.70821
378.2322, 23.27588
378.7144, 23.84939
379.1965, 24.36722
379.6786, 24.77092
380.1607, 25.07361
380.6428, 25.44590
381.1249, 25.91288
381.6071, 26.40647
382.0892, 26.89618
382.5713, 27.39860
383.0534, 27.92560
383.5355, 28.47949
384.0176, 29.10344
384.4998, 29.90335
384.9819, 31.03553
385.4640, 32.10059
385.9461, 32.94996
386.4282, 33.81401
386.9103, 34.96240
387.3925, 36.38787
387.8746, 37.79732
388.3567, 38.83202
388.8388, 39.40225
389.3209, 40.25268
389.8030, 41.34020
390.2852, 42.70384
390.7673, 44.41049
391.2494, 46.40342
391.7315, 48.58926
392.2136, 50.91414
392.6957, 53.37362
393.1779, 55.91474
393.6600, 58.58485
394.1421, 61.27974
394.6242, 63.64824
395.1063, 66.23933
395.5884, 69.61161
396.0706, 73.87759
396.5527, 78.55489
397.0348, 83.12289
397.5169, 87.60974
397.9990, 91.77267
398.4811, 95.98125
398.9633, 99.46619
399.4454, 101.9800
399.9275, 103.4980
400.4096, 104.0727
400.8917, 103.6967
401.3738, 102.4168
401.8560, 100.4690
402.3381, 98.04279
402.8202, 94.50713
403.3023, 89.05834
403.7844, 82.83228
404.2665, 76.85326
404.7487, 71.40280
405.2308, 66.45338
405.7129, 62.09819
406.1950, 58.33443
406.6771, 54.70816
407.1592, 51.08807
407.6414, 47.68665
408.1235, 44.56975
408.6056, 41.76117
409.0877, 39.35606
409.5698, 37.49676
410.0519, 36.07774
410.5341, 34.89393
411.0162, 33.99714
411.4983, 33.13189
411.9804, 32.04631
412.4625, 30.92025
412.9446, 30.09221
413.4268, 29.73116
413.9089, 29.48289
414.3910, 29.02866
414.8731, 28.42930
415.3553, 27.98298
415.8374, 27.79928
416.3195, 27.78558
416.8016, 27.84853
417.2837, 27.99539
417.7658, 28.09206
418.2480, 28.04819
418.7301, 27.96470
419.2122, 27.99274
419.6943, 28.13995
420.1764, 28.22853
420.6585, 28.09337
421.1407, 27.76015
421.6228, 27.55158
422.1049, 27.59806
422.5870, 27.61125
423.0691, 27.48549
423.5512, 27.24710
424.0334, 26.94371
424.5155, 26.59534
424.9976, 26.19404
425.4797, 25.71836
425.9618, 25.06325
426.4439, 24.55569
426.9261, 24.34493
427.4082, 24.15932
427.8903, 23.77773
428.3724, 23.21754
428.8545, 22.66710
429.3366, 22.28871
429.8188, 22.06932
430.3009, 21.76711
430.7830, 21.26426
431.2651, 20.80349
431.7472, 20.41709
432.2293, 20.09604
432.7115, 19.81887
433.1936, 19.57903
433.6757, 19.41580
434.1578, 19.41643
434.6399, 19.63307
435.1220, 19.82739
435.6042, 19.99619
436.0863, 20.12481
436.5684, 20.16910
437.0505, 20.15826
437.5326, 20.18573
438.0147, 20.34781
438.4969, 20.58746
438.9790, 20.68439
439.4611, 20.57455
439.9432, 20.48349
440.4253, 20.54911
440.9074, 20.66175
441.3896, 20.69900
441.8717, 20.62494
442.3538, 20.53790
442.8359, 20.49829
443.3180, 20.51223
443.8001, 20.63938
444.2823, 20.94931
444.7644, 21.26932
445.2465, 21.43112
445.7286, 21.46163
446.2107, 21.44074
446.6928, 21.42498
447.1750, 21.34477
447.6571, 21.07932
448.1392, 20.65069
448.6213, 20.26446
449.1034, 20.04505
449.5855, 19.92767
450.0677, 19.73536
450.5498, 19.47798
451.0319, 19.14761
451.5140, 18.68456
451.9961, 18.17356
452.4782, 17.64900
452.9604, 17.13758
453.4425, 16.83867
453.9246, 17.02422
454.4067, 17.78228
454.8888, 18.06948
455.3709, 17.58060
455.8531, 17.04251
456.3352, 16.66797
456.8173, 16.43426
457.2994, 16.28951
457.7815, 16.21165
458.2636, 16.15452
458.7458, 16.00083
459.2279, 15.61697
459.7100, 15.42369
460.1921, 15.58008
460.6742, 15.77993
461.1563, 15.84658
461.6385, 15.78705
462.1206, 15.70860
462.6027, 15.70203
463.0848, 15.74327
463.5669, 15.70351
464.0491, 15.55675
464.5312, 15.37972
465.0133, 15.13910
465.4954, 14.91331
465.9775, 14.78772
466.4597, 14.78420
466.9418, 14.83967
467.4239, 14.92205
467.9060, 15.02196
468.3881, 15.08344
468.8702, 15.11194
469.3524, 15.07383
469.8345, 14.85597
470.3166, 14.53599
470.7987, 14.35678
471.2808, 14.54414
471.7629, 14.76812
472.2451, 14.66844
472.7272, 14.31554
473.2093, 14.08491
473.6914, 14.16003
474.1735, 14.38994
474.6556, 14.47974
475.1378, 14.39035
475.6199, 14.31980
476.1020, 14.29972
476.5841, 14.30872
477.0662, 14.31932
477.5483, 14.33539
478.0305, 14.40772
478.5126, 14.59667
478.9947, 14.86984
479.4768, 14.93434
479.9589, 14.56463
480.4410, 14.25873
480.9232, 14.07506
481.4053, 13.98777
481.8874, 14.00592
482.3695, 14.11410
482.8516, 14.21745
483.3337, 14.17396
483.8159, 13.94994
484.2980, 13.87210
484.7801, 14.11420
485.2622, 14.30878
485.7443, 14.28950
486.2264, 14.14948
486.7086, 14.04060
487.1907, 14.02658
487.6728, 14.06613
488.1549, 14.10559
488.6370, 14.14496
489.1191, 14.18412
489.6013, 14.22314
490.0834, 14.26201
490.5655, 14.30649
491.0476, 14.35397
491.5297, 14.38533
492.0118, 14.39070
492.4940, 14.37724
492.9761, 14.34789
493.4582, 14.30390
493.9403, 14.26222
494.4224, 14.22643
494.9045, 14.20313
495.3867, 14.22624
495.8688, 14.36030
496.3509, 14.37927
496.8330, 14.10669
497.3151, 13.76386
497.7972, 13.58929
498.2794, 13.60556
498.7615, 13.70123
499.2436, 13.79190
499.7257, 13.87553
500.2078, 13.92006
500.6899, 13.86916
501.1721, 13.84726
501.6542, 13.88074
502.1363, 13.94984
502.6184, 14.05965
503.1005, 14.20006
503.5826, 14.30196
504.0648, 14.26130
504.5469, 14.06008
505.0290, 13.89620
505.5111, 13.76201
505.9932, 13.67910
506.4753, 13.67256
506.9575, 13.71441
507.4396, 13.75494
507.9217, 13.76720
508.4038, 13.80177
508.8859, 13.94386
509.3680, 14.18619
509.8502, 14.40120
510.3323, 14.59104
510.8144, 14.69805
511.2965, 14.60470
511.7786, 14.35392
512.2607, 14.18245
512.7429, 14.20640
513.2250, 14.28722
513.7071, 14.26858
514.1892, 14.19024
514.6713, 14.24852
515.1534, 14.55445
515.6356, 14.97500
516.1177, 15.24941
516.5998, 15.32722
517.0819, 15.36509
517.5640, 15.25385
518.0461, 15.19658
518.5283, 15.39299
519.0104, 15.78024
519.4925, 16.13855
519.9746, 16.32660
520.4567, 16.36844
520.9388, 16.34129
521.4210, 16.17337
521.9031, 16.07199
522.3852, 16.13963
522.8673, 16.21377
523.3494, 16.13446
523.8315, 15.92505
524.3137, 15.77593
524.7958, 15.86275
525.2779, 16.12163
525.7600, 16.33286
526.2421, 16.49006
526.7242, 16.62302
527.2064, 16.75738
527.6885, 16.86475
528.1706, 16.90547
528.6527, 16.86846
529.1348, 16.81021
529.6169, 16.73305
530.0991, 16.66245
530.5812, 16.66186
531.0633, 16.73709
531.5454, 16.78233
532.0275, 16.70234
532.5096, 16.52513
532.9918, 16.44854
533.4739, 16.61921
533.9560, 16.68736
534.4381, 16.43049
534.9202, 16.11593
535.4023, 16.08245
535.8845, 16.36337
536.3666, 16.69353
536.8487, 16.81142
537.3308, 16.71800
537.8129, 16.54749
538.2951, 16.15923
538.7772, 15.88188
539.2593, 15.89955
539.7415, 16.00312
540.2236, 15.93598
540.7057, 15.63841
541.1878, 15.33901
541.6699, 15.34294
542.1520, 15.58553
542.6342, 15.56174
543.1163, 15.10571
543.5984, 14.70603
544.0805, 14.78650
544.5626, 15.12197
545.0447, 15.30710
545.5269, 15.29027
546.0090, 15.11401
546.4911, 14.65730
546.9732, 14.08938
547.4553, 13.76911
547.9374, 13.77227
548.4196, 13.86783
548.9017, 13.82341
549.3838, 13.63299
549.8659, 13.59196
550.3480, 13.84893
550.8301, 14.05038
551.3123, 14.04125
551.7944, 13.94859
552.2765, 13.93609
552.7586, 14.04439
553.2407, 14.19197
553.7228, 14.28551
554.2050, 14.32322
554.6871, 14.34017
555.1692, 14.34477
555.6513, 14.31368
556.1334, 14.22192
556.6155, 14.10115
557.0977, 13.96710
557.5798, 13.81130
558.0619, 13.74068
558.5440, 13.91946
559.0261, 14.27234
559.5082, 14.53244
559.9904, 14.66734
560.4725, 14.68397
560.9546, 14.52308
561.4367, 14.23732
561.9188, 14.09381
562.4009, 14.20429
562.8831, 14.32038
563.3652, 14.32079
563.8473, 14.28396
564.3294, 14.32134
564.8115, 14.45453
565.2936, 14.64226
565.7758, 14.86966
566.2579, 15.13836
566.7400, 15.16329
567.2221, 14.57298
567.7042, 14.18499
568.1863, 14.27176
568.6685, 14.54925
569.1506, 14.74391
569.6327, 14.79099
570.1148, 14.77879
570.5969, 14.75496
571.0790, 14.73376
571.5612, 14.81435
572.0433, 15.01830
572.5254, 15.26954
573.0075, 15.60229
573.4896, 15.92515
573.9717, 16.08352
574.4539, 16.01357
574.9360, 15.96296
575.4181, 16.14938
575.9002, 16.37872
576.3823, 16.34048
576.8644, 16.01922
577.3466, 15.65087
577.8287, 15.38404
578.3108, 15.22102
578.7929, 15.17442
579.2750, 15.47218
579.7571, 15.58457
580.2393, 15.32344
580.7214, 14.98648
581.2035, 14.82818
581.6856, 14.83805
582.1677, 14.81778
582.6498, 14.60441
583.1320, 14.26362
583.6141, 14.03308
584.0962, 13.94495
584.5783, 13.85205
585.0604, 13.66516
585.5425, 13.49844
586.0247, 13.50259
586.5068, 13.65819
586.9889, 13.70231
587.4710, 13.40229
587.9531, 13.00968
588.4352, 12.82360
588.9174, 12.82310
589.3995, 12.84550
589.8816, 12.82136
