##NAMES=Beryl
##RRUFFID=R050305
##IDEAL CHEMISTRY=Be_3_Al_2_Si_6_O_18_
##LOCALITY=Conselheiro Pena, Minas Gerais, Brazil
##OWNER=RRUFF
##SOURCE=Eugene Schlepp
##DESCRIPTION=Light blue fragment, variety aquamarine
##STATUS=The identification of this mineral has been confirmed by X-ray diffraction and chemical analysis
##URL=rruff.info/R050305
##MEASURED CHEMISTRY=(Be_0.91_Li_0.09_)_3_(Al_0.99_Fe^3+^_0.01_)_2_Si_6.00_O_18_Î‡Na_0.27_
128.0302, 109.0567
128.5123, 111.7231
128.9944, 113.1065
129.4765, 113.3568
129.9586, 113.8726
130.4407, 116.0810
130.9229, 119.5251
131.4050, 122.3329
131.8871, 123.9670
132.3692, 124.8524
132.8513, 125.7398
133.3334, 126.4104
133.8156, 126.7552
134.2977, 127.3134
134.7798, 128.4965
135.2619, 129.4958
135.7440, 130.1605
136.2261, 130.5102
136.7083, 130.5992
137.1904, 130.3726
137.6725, 130.0836
138.1546, 130.0847
138.6367, 130.4890
139.1188, 130.5719
139.6010, 130.1120
140.0831, 129.1148
140.5652, 128.0196
141.0473, 126.7682
141.5294, 125.4799
142.0115, 124.3263
142.4937, 123.3219
142.9758, 122.3755
143.4579, 121.4181
143.9400, 120.4003
144.4221, 119.6289
144.9042, 119.2403
145.3864, 119.0083
145.8685, 118.5318
146.3506, 117.5122
146.8327, 116.6419
147.3148, 116.1510
147.7969, 116.1929
148.2791, 116.2780
148.7612, 116.5715
149.2433, 116.8970
149.7254, 116.8361
150.2075, 115.8620
150.6896, 114.9657
151.1718, 114.5318
151.6539, 115.0836
152.1360, 115.3315
152.6181, 115.0535
153.1002, 114.4268
153.5823, 113.9812
154.0645, 113.9169
154.5466, 113.9155
155.0287, 113.8281
155.5108, 113.5497
155.9929, 113.2872
156.4750, 113.1089
156.9572, 112.9823
157.4393, 112.7803
157.9214, 112.2084
158.4035, 111.7094
158.8856, 111.5568
159.3677, 112.5532
159.8499, 113.1594
160.3320, 112.7280
160.8141, 111.4241
161.2962, 110.2124
161.7783, 109.3617
162.2604, 108.7903
162.7426, 108.4304
163.2247, 108.3071
163.7068, 108.3492
164.1889, 108.7438
164.6710, 109.4366
165.1531, 109.7262
165.6353, 108.8300
166.1174, 107.4973
166.5995, 106.5350
167.0816, 106.3244
167.5637, 106.5021
168.0458, 107.0106
168.5280, 107.8365
169.0101, 108.4940
169.4922, 108.4483
169.9743, 108.0787
170.4564, 107.9154
170.9385, 108.5342
171.4207, 109.2377
171.9028, 109.3427
172.3849, 108.8027
172.8670, 108.1458
173.3491, 107.7446
173.8312, 107.5142
174.3134, 107.2910
174.7955, 107.0340
175.2776, 106.7328
175.7597, 106.3038
176.2418, 105.7092
176.7239, 105.2479
177.2061, 105.3439
177.6882, 105.8116
178.1703, 106.1441
178.6524, 105.9976
179.1345, 105.5864
179.6166, 105.2847
180.0988, 105.1301
180.5809, 104.9808
181.0630, 104.6672
181.5451, 104.2139
182.0272, 103.7337
182.5093, 103.1382
182.9915, 102.5579
183.4736, 102.4421
183.9557, 102.9392
184.4378, 103.4607
184.9199, 103.0697
185.4020, 101.8908
185.8842, 100.7560
186.3663, 100.2584
186.8484, 100.2052
187.3305, 99.88804
187.8126, 99.20036
188.2947, 98.37048
188.7769, 97.79184
189.2590, 97.45082
189.7411, 97.05727
190.2232, 96.33430
190.7053, 95.36200
191.1874, 94.65864
191.6696, 94.30342
192.1517, 94.14588
192.6338, 93.94041
193.1159, 93.68791
193.5980, 93.37283
194.0801, 92.93947
194.5623, 92.40288
195.0444, 91.98453
195.5265, 91.76260
196.0086, 91.58862
196.4907, 91.06830
196.9728, 90.15045
197.4550, 89.31002
197.9371, 88.89364
198.4192, 88.90871
198.9013, 88.83435
199.3834, 88.58751
199.8655, 88.26578
200.3477, 88.13058
200.8298, 88.22179
201.3119, 88.32162
201.7940, 88.29358
202.2761, 88.12752
202.7582, 87.95027
203.2404, 87.76347
203.7225, 87.58047
204.2046, 87.42110
204.6867, 87.26779
205.1688, 87.20002
205.6509, 87.35844
206.1331, 87.82817
206.6152, 87.92696
207.0973, 87.43578
207.5794, 86.61995
208.0615, 86.37664
208.5436, 86.91033
209.0258, 87.47760
209.5079, 87.56500
209.9900, 87.04173
210.4721, 86.65218
210.9542, 86.46001
211.4363, 86.43864
211.9185, 86.55037
212.4006, 86.90254
212.8827, 87.15355
213.3648, 86.99449
213.8469, 86.20512
214.3290, 85.83235
214.8112, 86.08864
215.2933, 86.78702
215.7754, 87.27719
216.2575, 87.51858
216.7396, 87.62758
217.2217, 87.64006
217.7038, 87.49228
218.1860, 87.44733
218.6681, 87.55260
219.1502, 87.76863
219.6323, 87.96831
220.1144, 88.19444
220.5965, 88.32985
221.0787, 88.25013
221.5608, 87.76811
222.0429, 87.59486
222.5250, 87.85666
223.0071, 88.45029
223.4892, 89.00932
223.9714, 89.60194
224.4535, 90.06401
224.9356, 90.27171
225.4177, 90.04683
225.8998, 90.01810
226.3819, 90.34770
226.8641, 90.87932
227.3462, 91.00281
227.8283, 90.38248
228.3104, 89.86421
228.7925, 89.91393
229.2746, 90.79379
229.7568, 91.67165
230.2389, 92.59587
230.7210, 93.49449
231.2031, 94.09132
231.6852, 94.24919
232.1673, 94.30734
232.6495, 94.41444
233.1316, 94.55436
233.6137, 94.79144
234.0958, 95.20503
234.5779, 95.69848
235.0600, 95.96244
235.5422, 95.79205
236.0243, 95.69425
236.5064, 95.93913
236.9885, 96.82082
237.4706, 97.38029
237.9527, 97.48088
238.4349, 97.28861
238.9170, 97.19878
239.3991, 97.19166
239.8812, 97.31634
240.3633, 97.62138
240.8454, 98.22504
241.3276, 98.71394
241.8097, 99.05527
242.2918, 99.28758
242.7739, 99.45737
243.2560, 99.39687
243.7381, 99.53709
244.2203, 100.1396
244.7024, 101.5737
245.1845, 102.3938
245.6666, 102.3031
246.1487, 101.7399
246.6308, 101.5626
247.1130, 102.0032
247.5951, 102.4556
248.0772, 102.7605
248.5593, 102.9995
249.0414, 102.7836
249.5235, 101.9663
250.0057, 100.7858
250.4878, 99.59731
250.9699, 98.36626
251.4520, 97.18239
251.9341, 96.08585
252.4162, 95.07778
252.8984, 94.14458
253.3805, 93.40629
253.8626, 92.64136
254.3447, 91.49876
254.8268, 89.70509
255.3089, 88.05589
255.7911, 86.79070
256.2732, 85.92758
256.7553, 85.24864
257.2374, 84.81509
257.7195, 84.50424
258.2017, 84.15637
258.6838, 83.71807
259.1659, 83.36217
259.6480, 83.15959
260.1301, 83.12132
260.6122, 82.98136
261.0944, 82.68666
261.5765, 82.35536
262.0586, 82.07471
262.5407, 81.77263
263.0228, 81.74798
263.5049, 82.22598
263.9871, 83.17019
264.4692, 83.44289
264.9513, 82.71288
265.4334, 81.84652
265.9155, 81.75154
266.3976, 82.76950
266.8798, 83.37918
267.3619, 83.14449
267.8440, 82.21169
268.3261, 81.81906
268.8082, 82.11240
269.2903, 82.63716
269.7725, 83.05943
270.2546, 83.36848
270.7367, 83.60269
271.2188, 83.76598
271.7009, 83.85564
272.1830, 83.85287
272.6652, 83.74117
273.1473, 83.58064
273.6294, 83.36797
274.1115, 83.06896
274.5936, 82.94374
275.0757, 83.04368
275.5579, 83.31258
276.0400, 83.60755
276.5221, 83.93965
277.0042, 84.25020
277.4863, 84.46558
277.9684, 84.56893
278.4506, 84.82138
278.9327, 85.27940
279.4148, 85.84612
279.8969, 86.36674
280.3790, 86.86085
280.8611, 87.17699
281.3433, 87.13557
281.8254, 86.74098
282.3075, 86.56337
282.7896, 86.64629
283.2717, 86.88881
283.7538, 87.07969
284.2360, 87.20836
284.7181, 87.56560
285.2002, 88.45613
285.6823, 89.78773
286.1644, 90.67664
286.6465, 91.05091
287.1287, 91.21352
287.6108, 91.53590
288.0929, 92.00826
288.5750, 92.46288
289.0571, 92.85023
289.5392, 93.17134
290.0214, 93.38538
290.5035, 93.47538
290.9856, 93.58995
291.4677, 93.82671
291.9498, 94.20238
292.4319, 94.82365
292.9141, 95.84933
293.3962, 97.07726
293.8783, 98.14154
294.3604, 99.03981
294.8425, 99.57416
295.3246, 99.23103
295.8068, 98.32491
296.2889, 97.95812
296.7710, 98.58461
297.2531, 99.64365
297.7352, 100.1760
298.2173, 100.2328
298.6995, 100.2696
299.1816, 100.6452
299.6637, 101.2342
300.1458, 101.7583
300.6279, 102.1496
301.1100, 102.5070
301.5922, 102.9214
302.0743, 103.3941
302.5564, 103.9320
303.0385, 104.3457
303.5206, 104.8885
304.0027, 106.0699
304.4849, 108.0854
304.9670, 110.1503
305.4491, 111.3831
305.9312, 112.0575
306.4133, 112.8306
306.8954, 114.0288
307.3776, 115.4905
307.8597, 117.0746
308.3418, 118.7953
308.8239, 120.5421
309.3060, 122.1291
309.7881, 123.7241
310.2703, 125.5378
310.7524, 128.0674
311.2345, 130.5715
311.7166, 132.3003
312.1987, 133.2814
312.6808, 134.4904
313.1630, 136.4282
313.6451, 138.9140
314.1272, 141.7742
314.6093, 145.1895
315.0914, 148.7002
315.5735, 151.9908
316.0557, 155.1208
316.5378, 158.4121
317.0199, 161.9784
317.5020, 165.7549
317.9841, 169.7430
318.4662, 173.7820
318.9484, 178.1537
319.4305, 183.2363
319.9126, 188.7487
320.3947, 193.9523
320.8768, 198.6360
321.3589, 202.9567
321.8411, 207.0898
322.3232, 211.2851
322.8053, 214.6180
323.2874, 217.2067
323.7695, 218.7722
324.2516, 218.8719
324.7338, 217.2509
325.2159, 214.3281
325.6980, 210.2094
326.1801, 204.8695
326.6622, 198.3952
327.1443, 190.1128
327.6265, 180.9639
328.1086, 171.8523
328.5907, 162.4565
329.0728, 153.5918
329.5549, 145.3380
330.0370, 137.6645
330.5192, 130.7227
331.0013, 124.4921
331.4834, 118.9556
331.9655, 114.0506
332.4476, 109.8528
332.9297, 106.1521
333.4119, 103.0488
333.8940, 100.4530
334.3761, 98.04126
334.8582, 95.92560
335.3403, 93.89666
335.8224, 91.76566
336.3046, 89.23938
336.7867, 87.54688
337.2688, 87.01509
337.7509, 87.08381
338.2330, 86.52847
338.7151, 85.11557
339.1973, 83.82446
339.6794, 83.06345
340.1615, 82.86403
340.6436, 82.66513
341.1257, 82.48769
341.6078, 82.27425
342.0899, 81.94339
342.5721, 81.49747
343.0542, 80.99349
343.5363, 80.41582
344.0184, 79.80257
344.5005, 79.25820
344.9826, 78.76896
345.4648, 78.48329
345.9469, 78.66087
346.4290, 79.23737
346.9111, 79.69479
347.3932, 79.93810
347.8753, 80.00810
348.3575, 79.91531
348.8396, 79.67339
349.3217, 79.44706
349.8038, 79.35127
350.2859, 79.35321
350.7680, 79.42264
351.2502, 79.59898
351.7323, 79.67163
352.2144, 79.19997
352.6965, 78.38274
353.1786, 77.83522
353.6607, 78.15069
354.1429, 78.77491
354.6250, 78.96162
355.1071, 78.66765
355.5892, 78.37584
356.0713, 78.52710
356.5534, 78.90778
357.0356, 79.20126
357.5177, 79.23588
357.9998, 79.19225
358.4819, 79.18928
358.9640, 79.21906
359.4461, 79.23741
359.9283, 79.20551
360.4104, 79.15973
360.8925, 79.12837
361.3746, 79.11156
361.8567, 79.11839
362.3388, 79.11630
362.8210, 79.13866
363.3031, 79.26140
363.7852, 79.61345
364.2673, 79.98586
364.7494, 80.29164
365.2315, 80.52457
365.7137, 80.67971
366.1958, 80.61179
366.6779, 80.51405
367.1600, 80.61324
367.6421, 81.19072
368.1242, 81.70242
368.6064, 82.02686
369.0885, 82.15498
369.5706, 82.25120
370.0527, 82.17089
370.5348, 82.17144
371.0169, 82.43022
371.4991, 83.08765
371.9812, 83.75963
372.4633, 84.40025
372.9454, 85.04246
373.4275, 85.79900
373.9096, 86.74792
374.3918, 87.69254
374.8739, 88.54877
375.3560, 89.34886
375.8381, 89.91204
376.3202, 90.08626
376.8023, 90.21165
377.2845, 90.81978
377.7666, 91.95343
378.2487, 93.32623
378.7308, 94.91830
379.2129, 96.68570
379.6950, 98.05859
380.1772, 98.94339
380.6593, 99.97178
381.1414, 101.9049
381.6235, 104.6261
382.1056, 107.1841
382.5877, 109.2709
383.0699, 111.2213
383.5520, 113.6339
384.0341, 116.5098
384.5162, 119.6320
384.9983, 123.2064
385.4804, 126.9115
385.9626, 129.9569
386.4447, 132.1561
386.9268, 134.2796
387.4089, 136.9779
387.8910, 140.2073
388.3731, 143.8107
388.8553, 147.9395
389.3374, 152.2787
389.8195, 156.3679
390.3016, 160.1873
390.7837, 164.3714
391.2658, 169.4380
391.7480, 174.9688
392.2301, 180.5302
392.7122, 185.9289
393.1943, 191.4340
393.6764, 197.0420
394.1585, 202.8318
394.6407, 208.9063
395.1228, 215.8121
395.6049, 222.6478
396.0870, 228.9866
396.5691, 234.5802
397.0512, 240.2013
397.5334, 246.8617
398.0155, 253.3758
398.4976, 258.1780
398.9797, 260.6742
399.4618, 261.9692
399.9439, 262.7311
400.4261, 262.9527
400.9082, 260.1896
401.3903, 253.1316
401.8724, 244.3260
402.3545, 235.2742
402.8366, 226.0997
403.3188, 216.5863
403.8009, 206.5871
404.2830, 196.3048
404.7651, 186.0883
405.2472, 175.8187
405.7293, 166.2388
406.2115, 157.6570
406.6936, 150.1545
407.1757, 143.2858
407.6578, 137.0064
408.1399, 131.4437
408.6220, 126.8185
409.1042, 123.1151
409.5863, 119.6029
410.0684, 116.0338
410.5505, 112.5850
411.0326, 109.4020
411.5147, 106.4828
411.9969, 104.1169
412.4790, 102.7878
412.9611, 102.1177
413.4432, 101.2064
413.9253, 99.88276
414.4074, 98.47421
414.8896, 97.26225
415.3717, 96.23005
415.8538, 95.34886
416.3359, 94.79402
416.8180, 94.26949
417.3001, 93.42784
417.7823, 92.26781
418.2644, 91.26018
418.7465, 90.67121
419.2286, 90.34351
419.7107, 90.14656
420.1928, 90.21427
420.6750, 90.17184
421.1571, 89.69037
421.6392, 88.97285
422.1213, 88.56010
422.6034, 89.14257
423.0855, 89.59081
423.5677, 89.33275
424.0498, 88.03865
424.5319, 87.08308
425.0140, 86.81317
425.4961, 86.81042
425.9782, 86.65291
426.4604, 86.23582
426.9425, 85.80597
427.4246, 85.26656
427.9067, 84.69453
428.3888, 84.73982
428.8709, 85.77049
429.3531, 86.76762
429.8352, 87.13422
430.3173, 86.73875
430.7994, 86.32259
431.2815, 85.86444
431.7636, 85.45440
432.2458, 85.15270
432.7279, 84.93773
433.2100, 85.20761
433.6921, 86.35689
434.1742, 88.06336
434.6563, 89.06654
435.1385, 89.36326
435.6206, 89.46513
436.1027, 89.76270
436.5848, 90.20918
437.0669, 90.67418
437.5490, 91.12727
438.0312, 91.61278
438.5133, 92.31011
438.9954, 93.10579
439.4775, 93.68230
439.9596, 93.65077
440.4417, 93.47289
440.9239, 93.53703
441.4060, 93.86659
441.8881, 94.36528
442.3702, 95.20042
442.8523, 96.07097
443.3344, 96.69557
443.8166, 97.01018
444.2987, 97.05337
444.7808, 96.60471
445.2629, 95.86132
445.7450, 95.39910
446.2271, 96.02612
446.7093, 96.35989
447.1914, 95.73926
447.6735, 93.71502
448.1556, 92.14388
448.6377, 91.25168
449.1198, 90.67397
449.6020, 90.06461
450.0841, 89.45682
450.5662, 88.75548
451.0483, 87.83760
451.5304, 86.81779
452.0125, 86.29893
452.4947, 86.43504
452.9768, 86.58334
453.4589, 86.34878
453.9410, 85.71696
454.4231, 85.18640
454.9052, 84.77916
455.3874, 84.41289
455.8695, 83.95289
456.3516, 83.41577
456.8337, 82.94958
457.3158, 82.64225
457.7979, 82.39330
458.2801, 81.92045
458.7622, 81.27769
459.2443, 80.83266
459.7264, 81.09627
460.2085, 81.61391
460.6906, 81.79517
461.1728, 81.53907
461.6549, 81.03240
462.1370, 80.27985
462.6191, 79.39442
463.1012, 78.55763
463.5833, 77.63250
464.0655, 76.95800
464.5476, 76.83720
465.0297, 77.19875
465.5118, 77.43456
465.9939, 77.38075
466.4760, 77.15395
466.9582, 76.80540
467.4403, 76.24331
467.9224, 75.71822
468.4045, 75.11069
468.8866, 74.59575
469.3687, 74.46297
469.8509, 75.02637
470.3330, 75.39671
470.8151, 75.29210
471.2972, 74.77713
471.7793, 74.59224
472.2614, 74.89120
472.7436, 75.09795
473.2257, 74.62752
473.7078, 73.45903
474.1899, 72.95729
474.6720, 73.37273
475.1541, 74.05773
475.6363, 73.95422
476.1184, 73.19039
476.6005, 72.58846
477.0826, 72.51345
477.5647, 72.77638
478.0468, 73.20099
478.5290, 73.75176
479.0111, 74.10561
479.4932, 73.81501
479.9753, 73.29424
480.4574, 73.06622
480.9395, 73.31059
481.4217, 73.56412
481.9038, 73.46480
482.3859, 73.20889
482.8680, 73.08581
483.3501, 73.23595
483.8322, 73.49010
484.3144, 73.84955
484.7965, 74.29491
485.2786, 74.64211
485.7607, 74.84623
486.2428, 74.95203
486.7249, 74.97202
487.2071, 74.83766
487.6892, 74.77272
488.1713, 74.86089
488.6534, 74.96117
489.1355, 74.82188
489.6176, 74.30035
490.0998, 73.97207
490.5819, 74.02390
491.0640, 74.37388
491.5461, 74.61832
492.0282, 74.75826
492.5103, 74.80852
492.9925, 74.70676
493.4746, 74.50093
493.9567, 74.45531
494.4388, 74.60046
494.9209, 74.83447
495.4030, 75.08889
495.8852, 75.34164
496.3673, 75.54638
496.8494, 75.68649
497.3315, 75.76397
497.8136, 75.76009
498.2957, 75.68736
498.7779, 75.60076
499.2600, 75.51059
499.7421, 75.42833
500.2242, 75.34901
500.7063, 75.25636
501.1884, 75.23899
501.6706, 75.29622
502.1527, 75.45522
502.6348, 75.74402
503.1169, 76.49152
503.5990, 76.97758
504.0811, 76.98612
504.5633, 76.66316
505.0454, 76.56421
505.5275, 76.83278
506.0096, 77.07909
506.4917, 77.10378
506.9738, 76.87115
507.4560, 76.87115
507.9381, 77.14583
508.4202, 77.53822
508.9023, 77.90248
509.3844, 78.24029
509.8665, 78.59854
510.3487, 79.01762
510.8308, 79.40319
511.3129, 79.50411
511.7950, 79.39409
512.2772, 79.41583
512.7593, 79.83743
513.2414, 80.44380
513.7235, 80.97836
514.2056, 81.43942
514.6877, 81.93873
515.1699, 82.63987
515.6520, 83.36335
516.1341, 83.95116
516.6162, 84.38614
517.0983, 84.64763
517.5804, 84.43383
518.0626, 84.10196
518.5447, 84.23837
519.0268, 85.54366
519.5089, 86.67906
519.9910, 87.34971
520.4731, 87.57594
520.9553, 87.57767
521.4374, 87.17181
521.9195, 86.81555
522.4016, 86.79927
522.8837, 87.20509
523.3658, 87.49234
523.8480, 87.59222
524.3301, 87.71439
524.8122, 88.34509
525.2943, 89.42347
525.7764, 89.87627
526.2585, 89.08874
526.7407, 87.88885
527.2228, 87.94170
527.7049, 89.05428
528.1870, 90.08859
528.6691, 90.30412
529.1512, 90.10014
529.6334, 89.92767
530.1155, 89.81923
530.5976, 89.65611
531.0797, 89.25117
531.5618, 88.80643
532.0439, 88.53164
532.5261, 88.59508
533.0082, 88.65768
533.4903, 88.70779
533.9724, 88.69196
534.4545, 88.49507
534.9366, 87.96177
535.4188, 87.41457
535.9009, 86.93468
536.3830, 86.52044
536.8651, 86.06276
537.3472, 85.55094
537.8293, 85.02257
538.3115, 84.51198
538.7936, 84.02545
539.2757, 83.48434
539.7578, 82.85229
540.2399, 82.27132
540.7220, 82.02412
541.2042, 82.03873
541.6863, 81.88341
542.1684, 81.39091
542.6505, 80.69842
543.1326, 79.96570
543.6147, 79.19593
544.0969, 78.38106
544.5790, 77.36816
545.0611, 76.42527
545.5432, 75.82973
546.0253, 75.62045
546.5074, 75.41965
546.9896, 75.11891
547.4717, 74.73502
547.9538, 74.27618
548.4359, 73.54112
548.9180, 73.01033
549.4001, 72.76617
549.8823, 72.72853
550.3644, 72.80123
550.8465, 73.17293
551.3286, 73.29250
551.8107, 72.95789
552.2928, 72.23631
552.7750, 71.59032
553.2571, 70.98969
553.7392, 70.59203
554.2213, 70.62035
554.7034, 70.98342
555.1855, 71.13679
555.6677, 71.03827
556.1498, 70.84973
556.6319, 70.68256
557.1140, 70.55841
557.5961, 70.52604
558.0782, 70.60896
558.5604, 70.77129
559.0425, 71.14755
559.5246, 71.58034
560.0067, 71.71359
560.4888, 70.99837
560.9709, 70.31554
561.4531, 70.13637
561.9352, 70.47350
562.4173, 70.71217
562.8994, 70.58418
563.3815, 70.49144
563.8636, 70.67781
564.3458, 71.37133
564.8279, 71.69624
565.3100, 71.50252
565.7921, 71.13480
566.2742, 71.00908
566.7563, 71.13130
567.2385, 71.46626
567.7206, 72.11315
568.2027, 72.83422
568.6848, 72.99872
569.1669, 72.68011
569.6490, 72.40823
570.1312, 72.52141
570.6133, 72.82628
571.0954, 73.09222
571.5775, 73.31100
572.0596, 73.40732
572.5417, 73.18577
573.0239, 72.90885
573.5060, 72.82951
573.9881, 73.07799
574.4702, 73.28471
574.9523, 73.37642
575.4344, 73.35475
575.9166, 73.22034
576.3987, 72.87526
576.8808, 72.55052
577.3629, 72.27922
577.8450, 72.04292
578.3271, 71.75816
578.8093, 71.38000
579.2914, 71.09045
579.7735, 71.01431
580.2556, 71.11142
580.7377, 71.05836
581.2198, 70.84646
581.7020, 70.56518
582.1841, 70.17651
582.6662, 69.78477
583.1483, 69.70789
583.6304, 70.04945
584.1125, 70.37097
584.5947, 70.23952
585.0768, 69.85233
585.5589, 69.49730
586.0410, 69.28416
586.5231, 69.11260
587.0052, 68.90724
587.4873, 68.71258
587.9694, 68.64886
588.4515, 69.05946
588.9337, 69.26750
589.4158, 68.95811
589.8979, 68.12640
590.3800, 67.71451
590.8621, 67.91001
591.3442, 68.19216
591.8264, 68.23452
592.3085, 68.02303
592.7906, 67.78376
593.2727, 67.52113
593.7548, 67.23051
594.2369, 66.83044
594.7191, 66.37707
595.2012, 66.12231
595.6833, 66.20437
596.1654, 66.34752
596.6475, 66.12275
597.1296, 65.72302
597.6118, 65.59006
598.0939, 66.25507
598.5760, 66.94835
599.0581, 67.25371
599.5402, 67.18414
600.0223, 67.02548
600.5045, 66.69260
600.9866, 66.41781
601.4687, 66.35908
601.9508, 66.63744
602.4329, 66.54969
602.9150, 65.81279
603.3972, 65.10416
603.8793, 65.16301
604.3614, 66.09559
604.8435, 66.60161
605.3256, 66.43037
605.8077, 66.00577
606.2899, 65.98688
606.7720, 66.30611
607.2541, 66.65974
607.7362, 67.00087
608.2183, 67.25194
608.7004, 67.18441
609.1826, 66.91368
609.6647, 66.84280
610.1468, 67.26577
610.6289, 67.88155
611.1110, 68.57376
611.5931, 69.34721
612.0753, 69.96774
612.5574, 70.22750
613.0395, 70.45540
613.5216, 70.85091
614.0037, 71.53098
614.4858, 72.08792
614.9680, 72.50232
615.4501, 72.81926
615.9322, 73.07176
616.4143, 73.25418
616.8964, 73.49344
617.3785, 73.89811
617.8607, 74.20631
618.3428, 73.83576
618.8249, 72.92766
619.3070, 72.07319
619.7891, 71.65652
620.2712, 71.34920
620.7534, 70.76752
621.2355, 69.97856
621.7176, 69.31527
622.1997, 68.99548
622.6818, 68.80267
623.1639, 68.65102
623.6461, 68.55402
