##NAMES=Beryl
##RRUFFID=R050120
##IDEAL CHEMISTRY=Be_3_Al_2_Si_6_O_18_
##LOCALITY=Cruziero mine, San Jose, Minas Gerais, Brazil
##OWNER=RRUFF
##SOURCE=Carlos and Paulo Vasconcelos
##DESCRIPTION=Yellow gemmy fragment
##STATUS=The identification of this mineral has been confirmed by X-ray diffraction and chemical analysis
##URL=rruff.info/R050120
##MEASURED CHEMISTRY=(Be_2.76_Li_0.24_)_Σ=3_Al_2.00_Si_6.00_O_18_·Na_0.24_
93.78320, 58.07499
94.26532, 58.25954
94.74744, 58.52420
95.22955, 58.72201
95.71167, 58.87057
96.19379, 58.64653
96.67590, 58.10387
97.15802, 57.52037
97.64014, 56.90181
98.12225, 56.27070
98.60437, 55.67304
99.08649, 55.14881
99.56860, 54.67158
100.0507, 54.16708
100.5328, 53.51789
101.0150, 52.91479
101.4971, 52.51065
101.9792, 52.30651
102.4613, 52.19463
102.9434, 52.22284
103.4255, 52.27197
103.9077, 52.26096
104.3898, 52.16684
104.8719, 51.99848
105.3540, 51.73650
105.8361, 51.18778
106.3182, 50.88718
106.8004, 51.01594
107.2825, 51.39241
107.7646, 51.81508
108.2467, 52.16793
108.7288, 52.45083
109.2109, 52.66499
109.6931, 52.62250
110.1752, 52.69718
110.6573, 53.00462
111.1394, 53.51855
111.6215, 54.15134
112.1036, 54.82925
112.5858, 55.56234
113.0679, 56.32086
113.5500, 57.07756
114.0321, 57.86948
114.5142, 58.76811
114.9964, 59.78389
115.4785, 60.77135
115.9606, 61.51962
116.4427, 62.04343
116.9248, 62.57175
117.4069, 63.24224
117.8891, 63.94561
118.3712, 64.46066
118.8533, 64.72068
119.3354, 64.79328
119.8175, 64.70319
120.2996, 64.46778
120.7818, 64.28851
121.2639, 64.30693
121.7460, 64.52619
122.2281, 64.85361
122.7102, 65.65154
123.1923, 66.29172
123.6745, 66.37802
124.1566, 65.85579
124.6387, 65.01250
125.1208, 64.20509
125.6029, 63.32146
126.0850, 62.74829
126.5672, 62.66706
127.0493, 62.75645
127.5314, 62.78104
128.0135, 62.64405
128.4956, 62.38066
128.9777, 62.08297
129.4599, 61.52150
129.9420, 61.19532
130.4241, 61.32713
130.9062, 61.68862
131.3883, 61.91450
131.8705, 61.77783
132.3526, 61.38275
132.8347, 61.32355
133.3168, 61.95465
133.7989, 62.49137
134.2810, 62.56100
134.7632, 62.22188
135.2453, 61.78571
135.7274, 61.37735
136.2095, 61.04586
136.6916, 60.89769
137.1737, 61.11002
137.6559, 61.40403
138.1380, 61.49865
138.6201, 61.37253
139.1022, 61.14350
139.5843, 60.86256
140.0664, 60.53249
140.5486, 60.14690
141.0307, 59.69018
141.5128, 59.17678
141.9949, 58.63927
142.4770, 57.99572
142.9591, 57.45972
143.4413, 57.23212
143.9234, 57.16237
144.4055, 56.97372
144.8876, 56.45214
145.3697, 55.59734
145.8518, 54.72367
146.3340, 53.52316
146.8161, 52.58937
147.2982, 52.23900
147.7803, 52.36135
148.2624, 52.62126
148.7445, 52.71499
149.2267, 52.66185
149.7088, 52.30973
150.1909, 51.21979
150.6730, 50.23962
151.1551, 49.96605
151.6372, 50.41905
152.1194, 51.07860
152.6015, 51.30061
153.0836, 50.85277
153.5657, 50.53450
154.0478, 50.45414
154.5299, 50.45090
155.0121, 50.36802
155.4942, 50.16490
155.9763, 49.89688
156.4584, 49.64506
156.9405, 49.41753
157.4227, 49.15019
157.9048, 48.73178
158.3869, 48.26472
158.8690, 47.97788
159.3511, 47.96692
159.8332, 48.10750
160.3154, 48.33722
160.7975, 48.67725
161.2796, 48.76852
161.7617, 48.18389
162.2438, 46.98928
162.7259, 46.10285
163.2081, 45.89811
163.6902, 45.97046
164.1723, 46.10203
164.6544, 46.26712
165.1365, 46.32235
165.6186, 46.02697
166.1008, 45.25616
166.5829, 44.70903
167.0650, 44.67953
167.5471, 44.78950
168.0292, 44.83645
168.5113, 44.76437
168.9935, 44.62483
169.4756, 44.48020
169.9577, 44.23202
170.4398, 44.18923
170.9219, 44.62735
171.4040, 45.10975
171.8862, 45.22355
172.3683, 44.82594
172.8504, 44.14634
173.3325, 43.72740
173.8146, 43.90432
174.2967, 43.96714
174.7789, 43.72261
175.2610, 43.41006
175.7431, 43.36221
176.2252, 43.74212
176.7073, 44.37293
177.1894, 44.66044
177.6716, 44.38781
178.1537, 44.08624
178.6358, 43.82192
179.1179, 43.59660
179.6000, 43.41625
180.0821, 43.29347
180.5643, 43.20790
181.0464, 43.08395
181.5285, 42.81385
182.0106, 42.65883
182.4927, 42.86809
182.9749, 43.34868
183.4570, 43.67432
183.9391, 43.60521
184.4212, 43.25399
184.9033, 42.91537
185.3854, 42.57061
185.8676, 42.27558
186.3497, 42.13959
186.8318, 42.17043
187.3139, 42.08347
187.7960, 41.64520
188.2781, 41.06133
188.7603, 40.55429
189.2424, 40.17644
189.7245, 39.85884
190.2066, 39.51657
190.6887, 39.14285
191.1708, 38.76596
191.6530, 38.31995
192.1351, 37.90844
192.6172, 37.67272
193.0993, 37.69440
193.5814, 37.79189
194.0635, 37.54678
194.5457, 36.65972
195.0278, 36.03819
195.5099, 35.99389
195.9920, 36.20663
196.4741, 36.39048
196.9562, 36.42112
197.4384, 36.32525
197.9205, 36.17492
198.4026, 35.93540
198.8847, 35.68275
199.3668, 35.41956
199.8489, 35.15256
200.3311, 34.85484
200.8132, 34.50794
201.2953, 34.17249
201.7774, 34.09219
202.2595, 34.62516
202.7416, 35.02938
203.2238, 35.23516
203.7059, 35.26863
204.1880, 35.15690
204.6701, 34.90638
205.1522, 34.54911
205.6344, 34.22767
206.1165, 33.86037
206.5986, 33.61013
207.0807, 33.61370
207.5628, 33.75367
208.0449, 33.78120
208.5271, 33.53383
209.0092, 33.12759
209.4913, 33.05818
209.9734, 33.72593
210.4555, 34.18444
210.9376, 33.91125
211.4198, 33.13799
211.9019, 32.49481
212.3840, 32.29702
212.8661, 32.45580
213.3482, 32.68254
213.8303, 33.06362
214.3125, 33.37303
214.7946, 33.45077
215.2767, 33.32962
215.7588, 33.17458
216.2409, 33.01328
216.7230, 32.89780
217.2052, 32.89894
217.6873, 33.04653
218.1694, 33.25032
218.6515, 33.48687
219.1336, 33.75254
219.6157, 33.92163
220.0979, 33.90194
220.5800, 33.78241
221.0621, 33.64346
221.5442, 33.47819
222.0263, 33.35606
222.5084, 33.34457
222.9906, 33.44759
223.4727, 33.62279
223.9548, 34.01590
224.4369, 34.37796
224.9190, 34.47204
225.4011, 34.24363
225.8833, 33.94866
226.3654, 33.93058
226.8475, 34.27193
227.3296, 34.49071
227.8117, 34.36197
228.2938, 34.15749
228.7760, 33.99694
229.2581, 33.91419
229.7402, 33.95017
230.2223, 34.20269
230.7044, 34.77557
231.1866, 35.23457
231.6687, 35.47054
232.1508, 35.63318
232.6329, 35.82583
233.1150, 36.06229
233.5971, 36.26475
234.0793, 36.31584
234.5614, 36.15610
235.0435, 35.98443
235.5256, 35.71969
236.0077, 35.50693
236.4898, 35.41309
236.9720, 35.46189
237.4541, 35.66692
237.9362, 36.08927
238.4183, 36.93501
238.9004, 37.47367
239.3825, 37.52318
239.8647, 37.45988
240.3468, 37.47940
240.8289, 37.62935
241.3110, 37.88678
241.7931, 38.25277
242.2752, 38.84737
242.7574, 39.16441
243.2395, 38.95704
243.7216, 38.69964
244.2037, 38.68746
244.6858, 38.95609
245.1679, 39.36527
245.6501, 39.76839
246.1322, 40.16470
246.6143, 40.55379
247.0964, 40.91012
247.5785, 41.28038
248.0606, 41.78527
248.5428, 42.39098
249.0249, 42.85471
249.5070, 42.91844
249.9891, 42.50595
250.4712, 42.13209
250.9533, 41.91835
251.4355, 41.64803
251.9176, 41.19691
252.3997, 40.55235
252.8818, 39.72656
253.3639, 38.70476
253.8460, 37.47217
254.3282, 36.25925
254.8103, 34.94717
255.2924, 33.74472
255.7745, 32.84533
256.2566, 32.23439
256.7387, 31.71457
257.2209, 31.13944
257.7030, 30.54423
258.1851, 30.09118
258.6672, 29.85999
259.1493, 29.70728
259.6314, 29.57694
260.1136, 29.45924
260.5957, 29.27254
261.0778, 28.91829
261.5599, 28.47355
262.0420, 28.16480
262.5241, 28.01959
263.0063, 27.97976
263.4884, 28.06515
263.9705, 28.25621
264.4526, 28.37250
264.9347, 28.28019
265.4168, 28.09118
265.8990, 28.03975
266.3811, 28.20188
266.8632, 28.34215
267.3453, 28.16761
267.8275, 27.74447
268.3096, 27.63480
268.7917, 28.25217
269.2738, 29.09845
269.7559, 29.48856
270.2380, 29.34924
270.7202, 29.10091
271.2023, 29.04476
271.6844, 29.14541
272.1665, 29.14623
272.6486, 28.90627
273.1307, 28.62757
273.6129, 28.51847
274.0950, 28.57739
274.5771, 28.65962
275.0592, 28.64487
275.5413, 28.56003
276.0234, 28.57896
276.5056, 28.82274
276.9877, 29.04676
277.4698, 29.07693
277.9519, 28.93174
278.4340, 28.70720
278.9161, 28.38746
279.3983, 28.01634
279.8804, 27.77481
280.3625, 27.64460
280.8446, 27.71336
281.3267, 28.12697
281.8088, 28.75531
282.2910, 29.29748
282.7731, 29.58395
283.2552, 29.65879
283.7373, 29.64142
284.2194, 29.45407
284.7015, 29.32314
285.1837, 29.42194
285.6658, 29.62464
286.1479, 29.72034
286.6300, 29.53856
287.1121, 29.26525
287.5942, 29.39409
288.0764, 30.17393
288.5585, 30.76475
289.0406, 30.69303
289.5227, 30.35933
290.0048, 30.16070
290.4869, 30.23634
290.9691, 30.49951
291.4512, 30.81671
291.9333, 31.19683
292.4154, 31.60323
292.8975, 32.11636
293.3796, 32.59928
293.8618, 32.92630
294.3439, 33.06605
294.8260, 33.11649
295.3081, 33.18959
295.7902, 33.28333
296.2723, 33.40889
296.7545, 33.56339
297.2366, 33.75555
297.7187, 34.07118
298.2008, 34.48301
298.6829, 34.78337
299.1650, 34.66853
299.6472, 34.07234
300.1293, 33.68354
300.6114, 33.67327
301.0935, 33.77573
301.5756, 33.94184
302.0577, 34.13325
302.5399, 34.27173
303.0220, 34.25380
303.5041, 34.09177
303.9862, 34.07226
304.4683, 34.28774
304.9504, 34.55329
305.4326, 34.86021
305.9147, 35.16157
306.3968, 35.36706
306.8789, 35.38934
307.3610, 35.29337
307.8431, 35.36156
308.3253, 35.66515
308.8074, 36.03661
309.2895, 36.44824
309.7716, 36.88394
310.2537, 37.31786
310.7358, 37.73888
311.2180, 38.16225
311.7001, 38.63140
312.1822, 39.20766
312.6643, 39.69715
313.1464, 39.94438
313.6285, 40.17120
314.1107, 40.53416
314.5928, 41.07967
315.0749, 41.79949
315.5570, 42.71208
316.0392, 43.87474
316.5213, 45.01925
317.0034, 46.03408
317.4855, 47.09534
317.9676, 48.31820
318.4497, 49.69998
318.9319, 51.13853
319.4140, 52.44618
319.8961, 53.56292
320.3782, 55.11599
320.8603, 57.41225
321.3424, 59.89326
321.8246, 62.42701
322.3067, 64.97754
322.7888, 67.56293
323.2709, 70.27068
323.7530, 73.02576
324.2351, 75.20112
324.7173, 76.83568
325.1994, 77.74229
325.6815, 78.02525
326.1636, 77.61279
326.6457, 76.34937
327.1278, 74.09666
327.6100, 71.12197
328.0921, 68.01264
328.5742, 64.70401
329.0563, 61.38273
329.5384, 58.03214
330.0205, 54.71770
330.5027, 51.46804
330.9848, 48.27867
331.4669, 45.24001
331.9490, 42.45773
332.4311, 39.93175
332.9132, 37.66674
333.3954, 35.66358
333.8775, 33.93321
334.3596, 32.53203
334.8417, 31.45186
335.3238, 30.63996
335.8059, 30.14026
336.2881, 29.95721
336.7702, 29.68506
337.2523, 29.31171
337.7344, 28.83976
338.2165, 28.16017
338.6986, 27.38502
339.1808, 26.76433
339.6629, 26.50180
340.1450, 26.49847
340.6271, 26.37667
341.1092, 26.08166
341.5913, 25.77059
342.0735, 25.42866
342.5556, 25.13137
343.0377, 25.01777
343.5198, 25.19098
344.0019, 25.41043
344.4840, 25.20608
344.9662, 24.43150
345.4483, 23.87185
345.9304, 23.98774
346.4125, 24.28395
346.8946, 24.41756
347.3767, 24.33486
347.8589, 24.22754
348.3410, 24.30987
348.8231, 24.57533
349.3052, 24.75869
349.7873, 24.87485
350.2694, 24.82459
350.7516, 24.41308
351.2337, 23.74611
351.7158, 23.26661
352.1979, 23.36780
352.6800, 23.86820
353.1621, 24.18118
353.6443, 24.28298
354.1264, 24.22477
354.6085, 23.88322
355.0906, 23.43521
355.5727, 23.18265
356.0548, 23.31307
356.5370, 23.57426
357.0191, 23.61110
357.5012, 23.40190
357.9833, 23.20928
358.4654, 23.14059
358.9475, 23.14778
359.4297, 23.17564
359.9118, 23.22116
360.3939, 23.28007
360.8760, 23.37084
361.3581, 23.47997
361.8402, 23.52787
362.3224, 23.45661
362.8045, 23.38132
363.2866, 23.48532
363.7687, 23.74188
364.2508, 23.85068
364.7329, 23.56990
365.2151, 23.10498
365.6972, 22.79468
366.1793, 22.67539
366.6614, 22.65415
367.1436, 22.68138
367.6257, 22.75568
368.1078, 22.87244
368.5899, 23.09084
369.0720, 23.30313
369.5541, 23.41492
370.0363, 23.43693
370.5184, 23.42581
371.0005, 23.37464
371.4826, 23.33913
371.9647, 23.46900
372.4468, 23.87732
372.9290, 24.15124
373.4111, 24.03314
373.8932, 23.68970
374.3753, 23.40995
374.8574, 23.26493
375.3395, 23.21984
375.8217, 23.24958
376.3038, 23.36155
376.7859, 23.48286
377.2680, 23.54937
377.7501, 23.66210
378.2322, 23.96907
378.7144, 24.44793
379.1965, 24.86155
379.6786, 25.00278
380.1607, 24.90959
380.6428, 25.02942
381.1249, 25.60647
381.6071, 26.09408
382.0892, 26.23145
382.5713, 26.15230
383.0534, 26.08806
383.5355, 26.13043
384.0176, 26.29602
384.4998, 26.63323
384.9819, 27.36671
385.4640, 27.90364
385.9461, 28.06151
386.4282, 28.12238
386.9103, 28.34796
387.3925, 28.76185
387.8746, 29.18792
388.3567, 29.41700
388.8388, 29.39759
389.3209, 29.56013
389.8030, 29.98326
390.2852, 30.47654
390.7673, 31.00150
391.2494, 31.53923
391.7315, 32.05502
392.2136, 32.52084
392.6957, 32.97736
393.1779, 33.56787
393.6600, 34.25108
394.1421, 35.15704
394.6242, 36.42127
395.1063, 37.82915
395.5884, 39.17891
396.0706, 40.42660
396.5527, 41.64681
397.0348, 42.94552
397.5169, 44.32361
397.9990, 45.74851
398.4811, 47.38061
398.9633, 48.89940
399.4454, 50.16688
399.9275, 51.21063
400.4096, 52.18008
400.8917, 53.26200
401.3738, 54.29863
401.8560, 54.60677
402.3381, 54.09092
402.8202, 52.97251
403.3023, 51.03353
403.7844, 48.74141
404.2665, 46.52668
404.7487, 44.51055
405.2308, 42.64537
405.7129, 40.87551
406.1950, 39.18550
406.6771, 37.69033
407.1592, 36.57905
407.6414, 35.50981
408.1235, 34.18036
408.6056, 32.64357
409.0877, 31.20826
409.5698, 29.99117
410.0519, 29.01448
410.5341, 28.41053
411.0162, 28.29136
411.4983, 28.12911
411.9804, 27.45294
412.4625, 26.55940
412.9446, 25.95433
413.4268, 25.78686
413.9089, 25.80519
414.3910, 25.83943
414.8731, 25.89613
415.3553, 26.03161
415.8374, 26.31602
416.3195, 26.59871
416.8016, 26.63473
417.2837, 26.42525
417.7658, 26.18030
418.2480, 25.91494
418.7301, 25.66434
419.2122, 25.46439
419.6943, 25.31925
420.1764, 25.22542
420.6585, 25.19447
421.1407, 25.21837
421.6228, 25.20247
422.1049, 25.07757
422.5870, 24.99164
423.0691, 25.08772
423.5512, 25.24957
424.0334, 25.24148
424.5155, 24.96390
424.9976, 24.55544
425.4797, 24.27012
425.9618, 24.12929
426.4439, 24.09424
426.9261, 24.28802
427.4082, 24.48906
427.8903, 24.55276
428.3724, 24.47030
428.8545, 24.28406
429.3366, 24.00075
429.8188, 23.63402
430.3009, 23.51147
430.7830, 23.96163
431.2651, 24.30310
431.7472, 24.33262
432.2293, 24.23287
432.7115, 24.24724
433.1936, 24.46251
433.6757, 24.73451
434.1578, 24.78273
434.6399, 24.48308
435.1220, 24.39850
435.6042, 24.87763
436.0863, 25.32079
436.5684, 25.30306
437.0505, 24.96424
437.5326, 24.82131
438.0147, 25.32071
438.4969, 26.25986
438.9790, 26.89855
439.4611, 27.11642
439.9432, 27.33544
440.4253, 27.77289
440.9074, 28.28542
441.3896, 28.74028
441.8717, 29.11746
442.3538, 29.40404
442.8359, 29.50643
443.3180, 29.47427
443.8001, 29.62515
444.2823, 30.09991
444.7644, 30.62577
445.2465, 30.97212
445.7286, 31.15994
446.2107, 31.20268
446.6928, 31.08888
447.1750, 30.84276
447.6571, 30.39532
448.1392, 29.78311
448.6213, 29.32995
449.1034, 29.27754
449.5855, 29.43734
450.0677, 29.26391
450.5498, 28.63358
451.0319, 28.00534
451.5140, 27.46687
451.9961, 27.00590
452.4782, 26.59800
452.9604, 26.24100
453.4425, 25.99726
453.9246, 25.97865
454.4067, 26.24078
454.8888, 26.11078
455.3709, 25.21991
455.8531, 24.41160
456.3352, 24.04696
456.8173, 23.96225
457.2994, 23.86426
457.7815, 23.61847
458.2636, 23.28048
458.7458, 22.94904
459.2279, 22.55160
459.7100, 22.32241
460.1921, 22.38762
460.6742, 22.49829
461.1563, 22.50329
461.6385, 22.41403
462.1206, 22.33924
462.6027, 22.38160
463.0848, 22.50387
463.5669, 22.49633
464.0491, 22.27543
464.5312, 22.09432
465.0133, 22.09276
465.4954, 22.14337
465.9775, 22.12018
466.4597, 21.99254
466.9418, 21.81483
467.4239, 21.60907
467.9060, 21.38612
468.3881, 21.23902
468.8702, 21.24300
469.3524, 21.20222
469.8345, 20.79725
470.3166, 20.18943
470.7987, 19.88624
471.2808, 20.34399
471.7629, 20.90069
472.2451, 20.92572
472.7272, 20.50418
473.2093, 20.04713
473.6914, 19.68876
474.1735, 19.45111
474.6556, 19.40959
475.1378, 19.61369
475.6199, 19.80803
476.1020, 20.00662
476.5841, 20.14532
477.0662, 20.13313
477.5483, 19.98643
478.0305, 19.81855
478.5126, 19.70444
478.9947, 19.64977
479.4768, 19.71010
479.9589, 20.10799
480.4410, 20.34844
480.9232, 20.17824
481.4053, 19.91876
481.8874, 19.97565
482.3695, 20.41094
482.8516, 20.86544
483.3337, 20.86839
483.8159, 20.35235
484.2980, 19.95626
484.7801, 19.68145
485.2622, 19.54062
485.7443, 19.59710
486.2264, 19.77246
486.7086, 19.95558
487.1907, 20.10879
487.6728, 20.22107
488.1549, 20.25793
488.6370, 20.21272
489.1191, 20.20017
489.6013, 20.24335
490.0834, 20.33277
490.5655, 20.46857
491.0476, 20.64410
491.5297, 20.81160
492.0118, 21.05553
492.4940, 21.22370
492.9761, 21.02817
493.4582, 20.48752
493.9403, 20.03315
494.4224, 19.87685
494.9045, 19.95478
495.3867, 20.13460
495.8688, 20.48795
496.3509, 20.75089
496.8330, 20.81419
497.3151, 20.78492
497.7972, 20.75704
498.2794, 20.75021
498.7615, 20.77087
499.2436, 20.83224
499.7257, 20.92910
500.2078, 20.97010
500.6899, 20.91451
501.1721, 20.85161
501.6542, 20.73114
502.1363, 20.64227
502.6184, 20.72814
503.1005, 21.00467
503.5826, 21.28651
504.0648, 21.31400
504.5469, 21.05177
505.0290, 20.88998
505.5111, 20.84085
505.9932, 20.88720
506.4753, 21.08436
506.9575, 21.34872
507.4396, 21.55380
507.9217, 21.65372
508.4038, 21.67924
508.8859, 21.61049
509.3680, 21.45960
509.8502, 21.46913
510.3323, 21.77365
510.8144, 22.12202
511.2965, 22.24961
511.7786, 22.19367
512.2607, 22.14414
512.7429, 22.08290
513.2250, 22.09771
513.7071, 22.31765
514.1892, 22.69592
514.6713, 23.03003
515.1534, 23.22425
515.6356, 23.35057
516.1177, 23.55990
516.5998, 23.95070
517.0819, 24.20139
517.5640, 24.17165
518.0461, 24.10780
518.5283, 24.13846
519.0104, 24.28552
519.4925, 24.58504
519.9746, 25.08982
520.4567, 25.68323
520.9388, 25.90842
521.4210, 25.53718
521.9031, 25.21505
522.3852, 24.95042
522.8673, 24.80326
523.3494, 24.82201
523.8315, 25.00447
524.3137, 25.32383
524.7958, 25.87890
525.2779, 26.53856
525.7600, 26.76689
526.2421, 26.43384
526.7242, 26.15844
527.2064, 26.26570
527.6885, 26.55398
528.1706, 26.79108
528.6527, 26.96807
529.1348, 27.05187
529.6169, 27.00354
530.0991, 26.85946
530.5812, 26.59951
531.0633, 26.22797
531.5454, 26.05062
532.0275, 26.36295
532.5096, 27.06450
532.9918, 27.44492
533.4739, 27.29627
533.9560, 27.14802
534.4381, 27.11946
534.9202, 27.13861
535.4023, 27.12209
535.8845, 27.05743
536.3666, 27.00050
536.8487, 27.02947
537.3308, 27.14380
537.8129, 27.05933
538.2951, 26.56726
538.7772, 26.14465
539.2593, 25.97626
539.7415, 25.88961
540.2236, 25.69884
540.7057, 25.35702
541.1878, 24.95381
541.6699, 24.56415
542.1520, 24.18868
542.6342, 23.80721
543.1163, 23.37589
543.5984, 23.04700
544.0805, 23.04762
544.5626, 23.19589
545.0447, 23.13665
545.5269, 22.72577
546.0090, 22.28976
546.4911, 22.04844
546.9732, 21.90595
547.4553, 21.66262
547.9374, 21.27263
548.4196, 20.86838
548.9017, 20.57848
549.3838, 20.40468
549.8659, 20.21939
550.3480, 19.90141
550.8301, 19.71574
551.3123, 19.89584
551.7944, 20.17729
552.2765, 20.22477
552.7586, 19.95687
553.2407, 19.54720
553.7228, 19.16852
554.2050, 18.81388
554.6871, 18.63419
555.1692, 18.80369
555.6513, 18.90127
556.1334, 18.69079
556.6155, 18.36359
557.0977, 18.18506
557.5798, 18.24187
558.0619, 18.32205
558.5440, 18.17458
559.0261, 17.88392
559.5082, 17.80419
559.9904, 18.03232
560.4725, 18.24800
560.9546, 18.16598
561.4367, 17.85587
561.9188, 17.70050
562.4009, 17.90276
562.8831, 18.00961
563.3652, 17.68732
563.8473, 17.23680
564.3294, 17.12963
564.8115, 17.43939
565.2936, 17.81912
565.7758, 17.91949
566.2579, 17.73978
566.7400, 17.59198
567.2221, 17.39468
567.7042, 17.33743
568.1863, 17.59241
568.6685, 17.92401
569.1506, 18.06220
569.6327, 17.96345
570.1148, 17.84588
570.5969, 17.93068
571.0790, 18.18783
571.5612, 18.44507
572.0433, 18.72567
572.5254, 18.93288
573.0075, 19.00304
573.4896, 18.97162
573.9717, 18.87811
574.4539, 18.70254
574.9360, 18.54677
575.4181, 18.44891
575.9002, 18.40421
576.3823, 18.47164
576.8644, 18.63247
577.3466, 18.63425
577.8287, 18.24228
578.3108, 17.58678
578.7929, 17.31081
579.2750, 17.89367
579.7571, 18.23277
580.2393, 18.05529
580.7214, 17.77449
581.2035, 17.76800
581.6856, 18.00352
582.1677, 18.14597
582.6498, 17.91791
583.1320, 17.43251
583.6141, 17.06700
584.0962, 16.81785
584.5783, 16.69817
585.0604, 16.77282
585.5425, 16.93664
586.0247, 17.20768
586.5068, 17.55122
586.9889, 17.61119
587.4710, 16.89059
587.9531, 16.03160
588.4352, 15.91117
588.9174, 16.40828
589.3995, 16.70518
589.8816, 16.40841
