##NAMES=Beryl
##RRUFFID=R050065
##IDEAL CHEMISTRY=Be_3_Al_2_Si_6_O_18_
##LOCALITY=Xuebaoding, Sichuan Province, China
##OWNER=RRUFF
##SOURCE=Rock Currier
##DESCRIPTION=Light blue colored tabular single crystal
##STATUS=The identification of this mineral has been confirmed by X-ray diffraction and chemical analysis
##URL=rruff.info/R050065
##MEASURED CHEMISTRY=(Be_2.78_Li_0.22_)_Σ=3_Al_2.00_Si_6.00_O_18_·Na_0.22_
91.00781, 3.097446
91.48993, 3.245543
91.97205, 3.304857
92.45416, 3.230128
92.93628, 3.068992
93.41840, 2.914640
93.90051, 2.766543
94.38263, 2.657224
94.86475, 2.667465
95.34686, 2.796087
95.82898, 2.930343
96.31110, 2.954653
96.79321, 2.883072
97.27533, 2.864538
97.75745, 2.934373
98.23956, 3.081499
98.72168, 3.289241
99.20380, 3.583040
99.68591, 3.851533
100.1680, 3.928870
100.6501, 3.758578
101.1323, 3.671971
101.6144, 3.787618
102.0965, 4.124488
102.5786, 4.425841
103.0607, 4.665464
103.5428, 4.894827
104.0250, 5.207618
104.5071, 5.626111
104.9892, 6.086387
105.4713, 6.563694
105.9534, 7.058214
106.4355, 7.563339
106.9177, 8.038404
107.3998, 8.521514
107.8819, 9.153249
108.3640, 10.00064
108.8461, 10.93533
109.3282, 11.91224
109.8104, 13.01387
110.2925, 14.04130
110.7746, 14.90200
111.2567, 15.62644
111.7388, 16.49145
112.2209, 17.74870
112.7031, 19.02552
113.1852, 20.07819
113.6673, 20.43120
114.1494, 20.95337
114.6315, 21.97928
115.1136, 23.54473
115.5958, 25.01545
116.0779, 26.06575
116.5600, 26.95514
117.0421, 27.97013
117.5242, 29.32330
118.0063, 30.75323
118.4885, 32.07244
118.9706, 33.20641
119.4527, 34.55254
119.9348, 36.41788
120.4169, 38.63651
120.8990, 40.93787
121.3812, 43.35055
121.8633, 45.69553
122.3454, 47.74856
122.8275, 49.42936
123.3096, 50.97534
123.7917, 52.61242
124.2739, 54.29814
124.7560, 55.87668
125.2381, 57.38014
125.7202, 58.69535
126.2023, 59.52754
126.6844, 59.54078
127.1666, 59.40934
127.6487, 60.24603
128.1308, 61.99792
128.6129, 63.72884
129.0950, 64.67374
129.5771, 64.97311
130.0593, 65.09981
130.5414, 65.01462
131.0235, 64.91286
131.5056, 65.32561
131.9877, 66.05997
132.4698, 66.64570
132.9520, 66.85052
133.4341, 66.70517
133.9162, 66.77090
134.3983, 67.23361
134.8804, 68.06068
135.3625, 69.08144
135.8447, 70.30264
136.3268, 71.69882
136.8089, 73.35909
137.2910, 75.36855
137.7731, 77.18891
138.2552, 78.64847
138.7374, 79.73696
139.2195, 80.53815
139.7016, 81.05218
140.1837, 81.29967
140.6658, 81.30177
141.1479, 81.02750
141.6301, 80.58498
142.1122, 79.98708
142.5943, 79.13298
143.0764, 78.38853
143.5585, 77.79462
144.0406, 77.30527
144.5228, 76.74505
145.0049, 76.13559
145.4870, 75.43633
145.9691, 74.63338
146.4512, 73.69040
146.9333, 72.68327
147.4155, 71.53329
147.8976, 70.26696
148.3797, 69.23819
148.8618, 68.49991
149.3439, 67.94664
149.8260, 67.50970
150.3082, 67.44504
150.7903, 67.20644
151.2724, 66.62669
151.7545, 65.69386
152.2366, 64.98828
152.7188, 64.64559
153.2009, 64.47451
153.6830, 64.32603
154.1651, 64.07242
154.6472, 63.94606
155.1293, 64.23011
155.6115, 65.06265
156.0936, 65.17587
156.5757, 63.45984
157.0578, 61.22247
157.5399, 59.91871
158.0220, 61.06300
158.5042, 62.17377
158.9863, 62.18251
159.4684, 60.75130
159.9505, 59.51653
160.4326, 59.06649
160.9147, 59.11158
161.3969, 59.22165
161.8790, 59.44969
162.3611, 59.56035
162.8432, 59.38416
163.3253, 58.81212
163.8074, 58.23197
164.2896, 57.82442
164.7717, 57.53254
165.2538, 57.24367
165.7359, 56.95086
166.2180, 56.61496
166.7001, 56.14529
167.1823, 55.38090
167.6644, 54.81844
168.1465, 54.91446
168.6286, 55.49062
169.1107, 56.04721
169.5928, 56.37301
170.0750, 56.51367
170.5571, 56.49689
171.0392, 56.24812
171.5213, 55.97881
172.0034, 55.92119
172.4855, 56.02209
172.9677, 56.04694
173.4498, 55.75507
173.9319, 55.31695
174.4140, 54.97777
174.8961, 54.83341
175.3782, 54.77643
175.8604, 54.71301
176.3425, 54.63939
176.8246, 54.52805
177.3067, 54.24146
177.7888, 53.90469
178.2709, 53.78289
178.7531, 54.01963
179.2352, 54.45667
179.7173, 54.96843
180.1994, 55.54840
180.6815, 55.94512
181.1636, 55.78539
181.6458, 55.23472
182.1279, 54.79160
182.6100, 54.64675
183.0921, 54.69554
183.5742, 54.75113
184.0563, 54.81441
184.5385, 54.84794
185.0206, 54.84636
185.5027, 54.79472
185.9848, 54.61836
186.4669, 54.22655
186.9490, 53.69748
187.4312, 53.25116
187.9133, 52.90142
188.3954, 52.59182
188.8775, 52.28229
189.3596, 51.97192
189.8417, 51.63623
190.3239, 51.28300
190.8060, 50.90120
191.2881, 50.40798
191.7702, 49.77371
192.2523, 49.16504
192.7344, 48.85234
193.2166, 48.83693
193.6987, 48.76683
194.1808, 48.47768
194.6629, 47.98929
195.1450, 47.48178
195.6271, 46.91469
196.1093, 46.43020
196.5914, 46.31683
197.0735, 46.60885
197.5556, 46.84224
198.0377, 46.77283
198.5198, 46.39709
199.0020, 46.16213
199.4841, 46.13000
199.9662, 46.12727
200.4483, 45.79222
200.9304, 45.04968
201.4125, 44.43002
201.8947, 44.23806
202.3768, 44.51903
202.8589, 44.65540
203.3410, 44.63931
203.8231, 44.48462
204.3052, 44.16690
204.7874, 43.62908
205.2695, 43.16203
205.7516, 42.92854
206.2337, 42.97171
206.7158, 42.95540
207.1979, 42.86955
207.6801, 42.72961
208.1622, 42.56142
208.6443, 42.35437
209.1264, 42.14944
209.6085, 41.94098
210.0906, 41.69696
210.5728, 41.61152
211.0549, 41.74388
211.5370, 41.99614
212.0191, 42.15393
212.5012, 42.21710
212.9833, 42.19152
213.4655, 42.03492
213.9476, 41.65899
214.4297, 41.49670
214.9118, 41.64548
215.3939, 41.96667
215.8760, 42.10607
216.3581, 41.98767
216.8403, 41.84132
217.3224, 41.77198
217.8045, 41.78954
218.2866, 41.86274
218.7687, 42.04333
219.2508, 42.25809
219.7330, 42.26663
220.2151, 41.91161
220.6972, 41.63819
221.1793, 41.71441
221.6614, 42.36681
222.1435, 42.72906
222.6257, 42.63066
223.1078, 42.28088
223.5899, 42.30326
224.0720, 42.96196
224.5541, 43.57066
225.0362, 43.76145
225.5184, 43.21880
226.0005, 43.06758
226.4826, 43.53206
226.9647, 44.34669
227.4468, 44.74940
227.9289, 44.49364
228.4111, 44.20238
228.8932, 44.18409
229.3753, 44.62050
229.8574, 44.88292
230.3395, 44.83841
230.8216, 44.64179
231.3038, 44.75294
231.7859, 45.39745
232.2680, 46.01656
232.7501, 46.34364
233.2322, 46.22379
233.7143, 46.14865
234.1965, 46.06799
234.6786, 46.04356
235.1607, 46.29659
235.6428, 47.12776
236.1249, 47.79751
236.6070, 47.90736
237.0892, 46.98856
237.5713, 46.56030
238.0534, 46.79733
238.5355, 47.47877
239.0176, 48.05424
239.4997, 48.54381
239.9819, 48.90760
240.4640, 49.11803
240.9461, 49.13253
241.4282, 49.08516
241.9103, 48.89124
242.3924, 48.66254
242.8746, 48.67398
243.3567, 49.00814
243.8388, 49.45802
244.3209, 49.96265
244.8030, 50.56271
245.2851, 51.11066
245.7673, 51.67629
246.2494, 52.16289
246.7315, 52.31424
247.2136, 51.86006
247.6957, 51.50069
248.1778, 51.53162
248.6600, 52.09890
249.1421, 52.63309
249.6242, 53.21098
250.1063, 53.71964
250.5884, 53.92677
251.0705, 53.73664
251.5527, 53.40678
252.0348, 53.05239
252.5169, 52.73337
252.9990, 52.16451
253.4811, 51.35476
253.9632, 50.28140
254.4454, 48.85874
254.9275, 46.82196
255.4096, 44.92257
255.8917, 43.41582
256.3738, 42.37298
256.8560, 41.45067
257.3381, 40.67140
257.8202, 39.98685
258.3023, 39.30528
258.7844, 38.61348
259.2665, 37.96943
259.7487, 37.39507
260.2308, 36.90102
260.7129, 36.41069
261.1950, 35.87729
261.6771, 35.39907
262.1592, 35.11158
262.6414, 35.03611
263.1235, 35.11215
263.6056, 35.38983
264.0877, 35.90023
264.5698, 36.15780
265.0519, 36.08410
265.5341, 35.86561
266.0162, 35.71421
266.4983, 35.65117
266.9804, 35.58760
267.4625, 35.46412
267.9446, 35.28522
268.4268, 35.33787
268.9089, 35.71532
269.3910, 36.15741
269.8731, 36.36505
270.3552, 36.25580
270.8373, 36.25230
271.3195, 36.51798
271.8016, 37.00453
272.2837, 37.17556
272.7658, 36.93149
273.2479, 36.59875
273.7300, 36.48071
274.2122, 36.60850
274.6943, 36.76157
275.1764, 36.91381
275.6585, 37.05693
276.1406, 37.12322
276.6227, 37.08269
277.1049, 37.06554
277.5870, 37.19932
278.0691, 37.49935
278.5512, 37.77087
279.0333, 37.96826
279.5154, 38.12365
279.9976, 38.34842
280.4797, 38.65207
280.9618, 38.97940
281.4439, 39.33222
281.9260, 39.70979
282.4081, 39.96397
282.8903, 40.04412
283.3724, 40.02494
283.8545, 40.06319
284.3366, 40.15674
284.8187, 40.33029
285.3008, 40.59297
285.7830, 40.94773
286.2651, 41.43163
286.7472, 42.10046
287.2293, 42.80534
287.7114, 43.22544
288.1935, 43.36317
288.6757, 43.52197
289.1578, 43.89397
289.6399, 44.44218
290.1220, 44.94273
290.6041, 45.36394
291.0862, 45.80650
291.5684, 46.51005
292.0505, 47.43653
292.5326, 48.19964
293.0147, 48.54024
293.4968, 48.57301
293.9789, 48.58170
294.4611, 48.54236
294.9432, 48.66919
295.4253, 49.46087
295.9074, 50.72911
296.3895, 51.64094
296.8716, 51.50047
297.3538, 50.85373
297.8359, 50.93518
298.3180, 51.77769
298.8001, 52.63290
299.2822, 52.63140
299.7643, 52.07865
300.2465, 51.77721
300.7286, 52.15537
301.2107, 52.83957
301.6928, 53.34375
302.1749, 53.67312
302.6570, 53.97458
303.1392, 54.26987
303.6213, 54.62755
304.1034, 55.17044
304.5855, 56.02645
305.0676, 56.97877
305.5497, 57.78530
306.0319, 58.48243
306.5140, 59.30154
306.9961, 60.39550
307.4782, 61.68256
307.9603, 63.09196
308.4424, 64.62325
308.9246, 66.22178
309.4067, 67.83418
309.8888, 69.46935
310.3709, 71.18862
310.8530, 73.03528
311.3351, 74.95562
311.8173, 76.89066
312.2994, 78.83601
312.7815, 80.85081
313.2636, 82.91248
313.7457, 85.05267
314.2278, 87.34940
314.7100, 89.69991
315.1921, 92.29427
315.6742, 95.26235
316.1563, 98.62297
316.6384, 102.2628
317.1205, 105.9917
317.6027, 109.9554
318.0848, 114.3218
318.5669, 119.0183
319.0490, 124.2384
319.5311, 130.1576
320.0132, 136.7979
320.4954, 143.6875
320.9775, 150.7926
321.4596, 157.9931
321.9417, 165.0804
322.4238, 172.3807
322.9059, 179.1867
323.3881, 185.9525
323.8702, 192.4424
324.3523, 196.6943
324.8344, 198.2472
325.3165, 197.5935
325.7986, 195.0530
326.2808, 191.3484
326.7629, 184.9437
327.2450, 174.5849
327.7271, 161.1499
328.2092, 148.0676
328.6913, 134.8089
329.1735, 122.4176
329.6556, 111.0991
330.1377, 100.9130
330.6198, 91.66887
331.1019, 83.15945
331.5840, 75.67732
332.0662, 69.69228
332.5483, 65.90231
333.0304, 62.57989
333.5125, 59.23755
333.9946, 55.74059
334.4767, 52.74440
334.9589, 50.37416
335.4410, 48.41703
335.9231, 46.64076
336.4052, 45.09342
336.8873, 43.63250
337.3694, 42.18140
337.8516, 40.76390
338.3336, 39.78192
338.8158, 39.38434
339.2979, 39.10469
339.7800, 38.42305
340.2621, 37.24086
340.7442, 36.41178
341.2263, 36.19902
341.7085, 36.39428
342.1906, 36.32461
342.6727, 35.96691
343.1548, 35.48642
343.6369, 34.84157
344.1190, 34.07026
344.6012, 33.79774
345.0833, 34.23417
345.5654, 34.92181
346.0475, 35.00095
346.5296, 34.50655
347.0117, 33.98614
347.4939, 33.70877
347.9760, 33.63771
348.4581, 33.70469
348.9402, 33.93514
349.4223, 34.14478
349.9044, 34.09272
350.3866, 33.83968
350.8687, 33.59484
351.3508, 33.46718
351.8329, 33.38658
352.3150, 33.17893
352.7971, 32.85141
353.2793, 32.65973
353.7614, 33.00783
354.2435, 33.58244
354.7256, 33.85082
355.2077, 33.44551
355.6898, 32.94920
356.1720, 32.93165
356.6541, 33.29145
357.1362, 33.58964
357.6183, 33.48788
358.1004, 33.25888
358.5826, 33.16712
359.0647, 33.32995
359.5468, 33.45736
360.0289, 33.29641
360.5110, 32.99586
360.9931, 32.83864
361.4753, 33.09789
361.9574, 33.40012
362.4395, 33.52468
362.9216, 33.41139
363.4037, 33.38241
363.8858, 33.71667
364.3680, 34.11241
364.8501, 34.25236
365.3322, 33.62975
365.8143, 33.19471
366.2964, 33.29100
366.7785, 33.90813
367.2607, 34.35374
367.7428, 34.32151
368.2249, 34.26211
368.7070, 34.45506
369.1891, 35.32459
369.6712, 35.87471
370.1534, 35.84813
370.6355, 35.47645
371.1176, 35.49681
371.5997, 36.14782
372.0818, 36.88480
372.5639, 37.51148
373.0461, 38.02277
373.5282, 38.42627
374.0103, 38.64943
374.4924, 38.83894
374.9745, 39.22623
375.4566, 39.86598
375.9388, 40.53343
376.4209, 41.12155
376.9030, 41.65614
377.3851, 42.43612
377.8672, 43.51521
378.3493, 44.69978
378.8315, 45.77923
379.3136, 46.76037
379.7957, 47.80957
380.2778, 48.95207
380.7599, 50.19913
381.2420, 51.61044
381.7242, 53.16239
382.2063, 54.88281
382.6884, 56.76537
383.1705, 58.82214
383.6526, 61.02987
384.1347, 63.37268
384.6169, 65.89836
385.0990, 68.74446
385.5811, 71.81839
386.0632, 74.69329
386.5453, 76.89368
387.0274, 78.91602
387.5096, 81.24084
387.9917, 83.87008
388.4738, 87.10778
388.9559, 91.49559
389.4380, 96.46689
389.9201, 101.3062
390.4023, 105.5831
390.8844, 109.8435
391.3665, 114.3269
391.8486, 119.0888
392.3307, 124.1776
392.8128, 129.5318
393.2950, 135.2779
393.7771, 141.5808
394.2592, 148.5237
394.7413, 155.8027
395.2234, 163.4543
395.7055, 171.3028
396.1877, 179.0773
396.6698, 186.9673
397.1519, 194.5305
397.6340, 201.9212
398.1161, 209.2574
398.5982, 215.3109
399.0804, 220.7665
399.5625, 224.4402
400.0446, 225.4568
400.5267, 223.1944
401.0088, 219.1800
401.4909, 213.5876
401.9731, 206.3716
402.4552, 197.2111
402.9373, 185.2258
403.4194, 172.7293
403.9015, 160.6793
404.3836, 149.0049
404.8658, 138.0027
405.3479, 127.7512
405.8300, 118.2092
406.3121, 109.1468
406.7942, 100.5053
407.2763, 92.73158
407.7585, 85.95071
408.2406, 80.13138
408.7227, 75.41419
409.2048, 71.88431
409.6869, 68.87036
410.1690, 65.72545
410.6512, 62.58492
411.1333, 60.03351
411.6154, 58.32593
412.0975, 56.98644
412.5796, 55.17020
413.0617, 53.00446
413.5439, 51.08712
414.0260, 49.83503
414.5081, 48.98840
414.9902, 48.25655
415.4723, 47.62712
415.9544, 46.95766
416.4366, 46.02438
416.9187, 45.00489
417.4008, 44.16840
417.8829, 43.80882
418.3650, 43.48774
418.8471, 42.85487
419.3293, 41.98537
419.8114, 41.29599
420.2935, 41.13367
420.7756, 41.10954
421.2577, 40.96800
421.7398, 40.61466
422.2220, 40.24087
422.7041, 39.88347
423.1862, 39.53053
423.6683, 39.15942
424.1504, 38.65577
424.6325, 38.24009
425.1147, 38.03486
425.5968, 38.08327
426.0789, 37.91758
426.5610, 37.39257
427.0431, 36.78547
427.5252, 36.32816
428.0074, 36.08427
428.4895, 35.83395
428.9716, 35.51853
429.4537, 35.19604
429.9358, 35.08966
430.4179, 35.26107
430.9001, 35.42965
431.3822, 35.39851
431.8643, 35.16162
432.3464, 35.15383
432.8285, 35.40848
433.3106, 35.78669
433.7928, 36.12529
434.2749, 36.43114
434.7570, 36.76537
435.2391, 37.16560
435.7212, 37.59101
436.2033, 37.86212
436.6855, 38.01118
437.1676, 38.38628
437.6497, 39.51538
438.1318, 40.94741
438.6139, 41.94714
439.0960, 42.31511
439.5782, 42.54982
440.0603, 42.99179
440.5424, 43.59993
441.0245, 44.28856
441.5066, 45.20996
441.9887, 46.05238
442.4709, 46.59944
442.9530, 46.85398
443.4351, 47.06376
443.9172, 47.28648
444.3993, 47.51882
444.8814, 47.75965
445.3636, 48.12261
445.8457, 48.34274
446.3278, 48.40715
446.8099, 48.30279
447.2920, 47.99759
447.7741, 47.39318
448.2563, 46.69687
448.7384, 45.97249
449.2205, 45.21390
449.7026, 44.41420
450.1847, 43.53008
450.6668, 42.67166
451.1490, 41.96741
451.6311, 41.47026
452.1132, 40.90522
452.5953, 40.18803
453.0774, 39.40717
453.5595, 38.74712
454.0417, 38.20478
454.5238, 37.79389
455.0059, 37.63866
455.4880, 37.65484
455.9701, 37.34919
456.4522, 36.67658
456.9344, 35.89264
457.4165, 35.14553
457.8986, 34.49334
458.3807, 34.15186
458.8628, 34.39996
459.3449, 34.74449
459.8271, 34.55652
460.3092, 33.94264
460.7913, 33.36034
461.2734, 33.14980
461.7555, 33.04477
462.2376, 32.80808
462.7198, 32.38404
463.2019, 31.94781
463.6840, 31.55142
464.1661, 31.20117
464.6482, 30.90472
465.1303, 30.67411
465.6125, 30.48627
466.0946, 30.35606
466.5767, 30.27435
467.0588, 30.17243
467.5409, 30.08777
468.0230, 29.94413
468.5052, 29.68866
468.9873, 29.22197
469.4694, 28.89852
469.9515, 28.77628
470.4336, 28.74796
470.9157, 28.65180
471.3979, 28.45443
471.8800, 28.31276
472.3621, 28.29638
472.8442, 28.36508
473.3263, 28.30691
473.8084, 28.10723
474.2906, 27.89410
474.7727, 27.76600
475.2548, 27.70594
475.7369, 27.63956
476.2190, 27.56377
476.7011, 27.46107
477.1833, 27.18985
477.6654, 26.86011
478.1475, 26.77857
478.6296, 27.40552
479.1117, 28.11067
479.5938, 28.10722
480.0760, 27.50767
480.5581, 27.06637
481.0402, 27.38296
481.5223, 27.93401
482.0044, 28.30200
482.4865, 28.37116
482.9687, 28.35820
483.4508, 28.31997
483.9329, 28.24692
484.4150, 28.12646
484.8971, 27.86278
485.3792, 27.64920
485.8614, 27.54045
486.3435, 27.52959
486.8256, 27.52526
487.3077, 27.48122
487.7898, 27.49771
488.2719, 27.67567
488.7541, 28.15118
489.2362, 28.30159
489.7183, 27.98955
490.2004, 27.52926
490.6825, 27.45553
491.1646, 27.82200
491.6468, 28.00385
492.1289, 27.70035
492.6110, 27.14468
493.0931, 27.06912
493.5752, 27.46814
494.0573, 27.89416
494.5395, 27.97954
495.0216, 27.86949
495.5037, 27.90180
495.9858, 28.14602
496.4679, 28.35539
496.9500, 28.21391
497.4322, 27.89820
497.9143, 27.70362
498.3964, 27.75892
498.8785, 27.95610
499.3606, 28.40881
499.8427, 29.01802
500.3249, 29.29760
500.8070, 28.65111
501.2891, 27.97234
501.7712, 27.78899
502.2533, 28.41418
502.7354, 28.78592
503.2176, 28.51107
503.6997, 28.10739
504.1818, 28.12533
504.6639, 28.89362
505.1460, 29.46531
505.6281, 29.64516
506.1103, 29.53793
506.5924, 29.55713
507.0745, 29.74400
507.5566, 29.91035
508.0387, 29.91166
508.5208, 29.76318
509.0030, 29.78936
509.4851, 30.00500
509.9672, 30.31265
510.4493, 30.67340
510.9314, 31.05092
511.4135, 31.29463
511.8957, 31.27759
512.3778, 31.26373
512.8599, 31.62392
513.3420, 32.25214
513.8242, 32.83527
514.3063, 33.10949
514.7884, 33.35664
515.2705, 33.84372
515.7526, 34.58821
516.2347, 35.24482
516.7169, 35.58055
517.1990, 35.82940
517.6811, 36.16948
518.1632, 36.70281
518.6453, 37.22834
519.1274, 37.77377
519.6096, 38.29102
520.0917, 38.67436
520.5738, 38.82840
521.0559, 39.00058
521.5380, 39.23532
522.0201, 39.53486
522.5023, 39.97813
522.9844, 40.63610
523.4665, 41.24128
523.9486, 41.54252
524.4307, 41.56087
524.9128, 41.74062
525.3950, 42.15862
525.8771, 42.58697
526.3592, 42.68291
526.8413, 42.52020
527.3234, 42.37115
527.8055, 42.35431
528.2877, 42.38185
528.7698, 42.40381
529.2519, 42.39781
529.7340, 42.27070
530.2161, 41.78261
530.6982, 41.28054
531.1804, 41.07160
531.6625, 41.25961
532.1446, 41.35222
532.6267, 41.13350
533.1088, 40.77311
533.5909, 40.43109
534.0731, 40.08045
534.5552, 39.80534
535.0373, 39.58908
535.5194, 39.45400
536.0015, 39.50408
536.4836, 39.97541
536.9658, 40.13845
537.4479, 39.62825
537.9300, 38.48775
538.4121, 37.67034
538.8942, 37.24244
539.3763, 36.87600
539.8585, 36.23267
540.3406, 35.38203
540.8227, 34.77254
541.3048, 34.51105
541.7869, 34.29492
542.2690, 33.71223
542.7512, 32.87499
543.2333, 32.06279
543.7154, 31.33561
544.1975, 30.72759
544.6796, 30.35377
545.1617, 30.15182
545.6439, 29.86220
546.1260, 29.31713
546.6081, 28.68598
547.0902, 28.04291
547.5723, 27.38153
548.0544, 26.80120
548.5366, 26.31813
549.0187, 25.91735
549.5008, 25.58604
549.9829, 25.35682
550.4650, 25.13661
550.9471, 24.90734
551.4293, 24.68880
551.9114, 24.53200
552.3935, 24.45052
552.8756, 24.36528
553.3577, 24.24280
553.8398, 24.09226
554.3220, 23.96511
554.8041, 23.86226
555.2862, 23.73883
555.7683, 23.53567
556.2504, 23.29047
556.7325, 23.06835
557.2147, 22.87465
557.6968, 22.72249
558.1789, 22.61308
558.6610, 22.55440
559.1431, 22.55908
559.6252, 22.73992
560.1074, 22.87322
560.5895, 22.82160
561.0716, 22.64251
561.5537, 22.52964
562.0358, 22.60682
562.5179, 22.67152
563.0001, 22.61713
563.4822, 22.41730
563.9643, 22.39538
564.4464, 22.65605
564.9285, 22.94772
565.4106, 23.07274
565.8928, 23.00165
566.3749, 22.95253
566.8570, 22.93217
567.3391, 22.95926
567.8212, 23.05433
568.3033, 23.21951
568.7855, 23.48164
569.2676, 23.96656
569.7497, 24.43727
570.2318, 24.46330
570.7139, 24.13414
571.1960, 23.84390
571.6782, 23.78057
572.1603, 23.88315
572.6424, 24.18824
573.1245, 24.72169
573.6066, 25.08614
574.0887, 24.89044
574.5709, 24.61138
575.0530, 24.62671
575.5351, 25.37072
576.0172, 25.85241
576.4993, 25.96854
576.9814, 25.84904
577.4636, 25.67491
577.9457, 25.39538
578.4278, 25.20922
578.9099, 25.22334
579.3920, 25.35007
579.8741, 25.19571
580.3563, 24.73607
580.8384, 24.33160
581.3205, 24.31951
581.8026, 24.52183
582.2847, 24.37831
582.7668, 23.86662
583.2490, 23.32362
583.7311, 23.01565
584.2132, 22.85205
584.6953, 22.70098
585.1774, 22.49124
585.6595, 22.39293
586.1416, 22.65740
586.6237, 23.04918
587.1058, 23.21600
