##NAMES=Beryl
##RRUFFID=R050368
##IDEAL CHEMISTRY=Be_3_Al_2_Si_6_O_18_
##LOCALITY=Wah Wah Mountains, Utah, USA
##OWNER=RRUFF
##SOURCE=Eugene Schlepp
##DESCRIPTION=Red-violet hexagonal prism
##STATUS=The identification of this mineral has been confirmed by X-ray diffraction and chemical analysis
##URL=rruff.info/R050368
##MEASURED CHEMISTRY=(Be_0.99_Li_0.01_)_3_(Al_0.95_Fe^3+^_0.05_)_2_Si_6.00_O_18_Î‡K_0.02_Na_0.01_
92.35352, 73.58963
92.83563, 72.14669
93.31775, 71.53396
93.79987, 72.24819
94.28198, 73.85849
94.76410, 75.12300
95.24622, 75.74643
95.72833, 75.94705
96.21045, 76.00822
96.69257, 75.90617
97.17468, 76.02965
97.65680, 76.89172
98.13892, 78.47786
98.62103, 79.87843
99.10315, 80.72134
99.58527, 81.13715
100.0674, 81.99239
100.5495, 83.35233
101.0316, 84.99327
101.5137, 86.55956
101.9958, 87.93760
102.4780, 89.68092
102.9601, 92.01797
103.4422, 95.03877
103.9243, 98.08346
104.4064, 101.3088
104.8885, 104.4761
105.3707, 107.1263
105.8528, 108.5705
106.3349, 110.4354
106.8170, 113.4108
107.2991, 118.4191
107.7813, 122.7969
108.2634, 126.4703
108.7455, 129.5204
109.2276, 132.0967
109.7097, 133.6794
110.1918, 135.1871
110.6740, 137.0031
111.1561, 139.1090
111.6382, 141.5548
112.1203, 144.5823
112.6024, 148.0896
113.0845, 151.2863
113.5667, 153.1152
114.0488, 155.0944
114.5309, 158.2744
115.0130, 164.0692
115.4951, 169.9483
115.9772, 175.0680
116.4594, 179.4837
116.9415, 184.1516
117.4236, 190.3203
117.9057, 196.6421
118.3878, 201.6541
118.8699, 203.1078
119.3521, 204.4361
119.8342, 207.8628
120.3163, 213.6871
120.7984, 219.8040
121.2805, 225.0928
121.7626, 229.7959
122.2448, 234.3282
122.7269, 239.7963
123.2090, 244.7464
123.6911, 247.4850
124.1732, 247.5166
124.6553, 246.6652
125.1375, 246.2225
125.6196, 246.1886
126.1017, 246.5637
126.5838, 247.2313
127.0659, 248.3305
127.5480, 250.2079
128.0302, 253.1046
128.5123, 256.4081
128.9944, 259.3910
129.4765, 262.0595
129.9586, 264.4721
130.4407, 266.4283
130.9229, 268.0917
131.4050, 270.1185
131.8871, 272.5296
132.3692, 275.4134
132.8513, 279.1053
133.3334, 283.2141
133.8156, 286.2281
134.2977, 287.7863
134.7798, 288.9125
135.2619, 290.2880
135.7440, 292.0549
136.2261, 294.1731
136.7083, 296.8782
137.1904, 300.4736
137.6725, 303.7822
138.1546, 305.8310
138.6367, 306.7137
139.1188, 306.0879
139.6010, 303.8947
140.0831, 300.1656
140.5652, 294.7856
141.0473, 287.2746
141.5294, 278.7358
142.0115, 270.4552
142.4937, 261.8692
142.9758, 254.6057
143.4579, 249.2222
143.9400, 246.0810
144.4221, 243.1077
144.9042, 240.4088
145.3864, 237.7936
145.8685, 234.9987
146.3506, 231.8824
146.8327, 228.7364
147.3148, 225.5913
147.7969, 222.3581
148.2791, 219.3464
148.7612, 216.2469
149.2433, 213.3954
149.7254, 211.5437
150.2075, 211.1825
150.6896, 211.3970
151.1718, 211.9410
151.6539, 214.0308
152.1360, 214.7044
152.6181, 212.6360
153.1002, 208.9245
153.5823, 206.8629
154.0645, 208.4452
154.5466, 210.4083
155.0287, 211.2370
155.5108, 210.0293
155.9929, 208.5897
156.4750, 207.0775
156.9572, 205.5113
157.4393, 204.0071
157.9214, 202.2300
158.4035, 200.7170
158.8856, 199.7952
159.3677, 199.6668
159.8499, 199.9980
160.3320, 200.7199
160.8141, 201.8237
161.2962, 203.3021
161.7783, 205.9235
162.2604, 208.5516
162.7426, 210.2500
163.2247, 210.4423
163.7068, 209.9218
164.1889, 208.4648
164.6710, 206.2082
165.1531, 204.8173
165.6353, 205.9540
166.1174, 208.0975
166.5995, 209.6109
167.0816, 209.3002
167.5637, 208.6223
168.0458, 208.4549
168.5280, 208.8139
169.0101, 209.3830
169.4922, 209.9766
169.9743, 210.6460
170.4564, 211.4612
170.9385, 212.7809
171.4207, 214.0622
171.9028, 214.6423
172.3849, 214.4573
172.8670, 214.4130
173.3491, 215.6667
173.8312, 217.5505
174.3134, 218.7886
174.7955, 218.2523
175.2776, 216.9936
175.7597, 216.1692
176.2418, 215.8332
176.7239, 215.9038
177.2061, 216.4650
177.6882, 217.3941
178.1703, 218.3423
178.6524, 219.2713
179.1345, 220.0911
179.6166, 220.5582
180.0988, 220.6076
180.5809, 220.6056
181.0630, 220.8927
181.5451, 221.4623
182.0272, 222.2784
182.5093, 223.5990
182.9915, 225.1499
183.4736, 226.1245
183.9557, 226.3492
184.4378, 226.4615
184.9199, 227.7128
185.4020, 229.8643
185.8842, 231.3823
186.3663, 230.9806
186.8484, 229.1658
187.3305, 227.7585
187.8126, 226.8925
188.2947, 226.4318
188.7769, 226.1966
189.2590, 226.1851
189.7411, 226.3540
190.2232, 226.6919
190.7053, 227.1954
191.1874, 227.9164
191.6696, 228.9739
192.1517, 230.0497
192.6338, 230.5275
193.1159, 230.3945
193.5980, 230.0421
194.0801, 229.5548
194.5623, 228.9623
195.0444, 228.7118
195.5265, 228.8952
196.0086, 229.3647
196.4907, 230.0647
196.9728, 231.0976
197.4550, 231.5015
197.9371, 230.3062
198.4192, 227.4760
198.9013, 225.3415
199.3834, 224.1917
199.8655, 223.7565
200.3477, 223.4697
200.8298, 223.3784
201.3119, 223.2234
201.7940, 222.7209
202.2761, 221.8040
202.7582, 221.3518
203.2404, 221.5818
203.7225, 222.2217
204.2046, 222.5373
204.6867, 222.5020
205.1688, 222.2417
205.6509, 221.7728
206.1331, 221.0454
206.6152, 220.4679
207.0973, 220.2014
207.5794, 220.0426
208.0615, 219.1874
208.5436, 217.2764
209.0258, 215.6106
209.5079, 215.2463
209.9900, 216.6129
210.4721, 217.2036
210.9542, 216.5780
211.4363, 215.1214
211.9185, 214.1387
212.4006, 213.7474
212.8827, 213.5676
213.3648, 213.4635
213.8469, 213.5651
214.3290, 213.1519
214.8112, 211.7066
215.2933, 209.8082
215.7754, 209.6841
216.2575, 212.0782
216.7396, 214.8449
217.2217, 216.7339
217.7038, 217.5593
218.1860, 218.0067
218.6681, 217.8536
219.1502, 217.3912
219.6323, 217.8450
220.1144, 219.8369
220.5965, 221.6773
221.0787, 222.2169
221.5608, 220.6943
222.0429, 219.9713
222.5250, 220.4049
223.0071, 221.7423
223.4892, 223.1037
223.9714, 224.7025
224.4535, 226.0169
224.9356, 226.6587
225.4177, 226.0914
225.8998, 226.2133
226.3819, 227.5408
226.8641, 229.5729
227.3462, 230.4087
227.8283, 229.2540
228.3104, 228.1120
228.7925, 228.0539
229.2746, 229.5568
229.7568, 231.0800
230.2389, 232.5899
230.7210, 234.0926
231.2031, 235.5746
231.6852, 237.0823
232.1673, 238.4957
232.6495, 239.6634
233.1316, 240.1850
233.6137, 241.4049
234.0958, 243.7000
234.5779, 246.6270
235.0600, 248.9062
235.5422, 250.3835
236.0243, 251.4741
236.5064, 252.3120
236.9885, 252.6902
237.4706, 253.3279
237.9527, 254.5821
238.4349, 255.9918
238.9170, 256.3295
239.3991, 255.0841
239.8812, 253.5283
240.3633, 252.1385
240.8454, 250.8586
241.3276, 249.9320
241.8097, 249.6795
242.2918, 249.6736
242.7739, 248.8039
243.2560, 245.9768
243.7381, 243.9842
244.2203, 244.1146
244.7024, 247.4320
245.1845, 249.8381
245.6666, 250.9103
246.1487, 251.2707
246.6308, 252.1090
247.1130, 253.4933
247.5951, 255.2502
248.0772, 257.2765
248.5593, 259.5105
249.0414, 262.3455
249.5235, 266.2581
250.0057, 270.4632
250.4878, 273.8004
250.9699, 276.3445
251.4520, 277.9019
251.9341, 278.5677
252.4162, 278.5946
252.8984, 276.4342
253.3805, 271.4761
253.8626, 264.7468
254.3447, 257.7421
254.8268, 249.9154
255.3089, 242.7061
255.7911, 236.5642
256.2732, 231.4851
256.7553, 227.2210
257.2374, 223.7682
257.7195, 221.1277
258.2017, 219.3562
258.6838, 218.6720
259.1659, 218.3520
259.6480, 218.4107
260.1301, 218.8890
260.6122, 218.5585
261.0944, 216.9356
261.5765, 215.1006
262.0586, 214.2924
262.5407, 214.9375
263.0228, 215.4185
263.5049, 215.2782
263.9871, 214.5572
264.4692, 214.3363
264.9513, 214.7854
265.4334, 215.4603
265.9155, 215.9288
266.3976, 216.0609
266.8798, 216.4166
267.3619, 217.1931
267.8440, 218.3129
268.3261, 219.0078
268.8082, 219.0487
269.2903, 219.1415
269.7725, 220.0282
270.2546, 221.9938
270.7367, 223.3526
271.2188, 223.7054
271.7009, 223.2925
272.1830, 223.1201
272.6652, 223.2328
273.1473, 223.4651
273.6294, 223.7838
274.1115, 224.2460
274.5936, 224.3983
275.0757, 224.1246
275.5579, 223.5627
276.0400, 223.0487
276.5221, 222.5350
277.0042, 222.2539
277.4863, 222.4477
277.9684, 223.1626
278.4506, 223.6662
278.9327, 223.8312
279.4148, 223.8602
279.8969, 224.2321
280.3790, 225.0008
280.8611, 225.7442
281.3433, 226.1453
281.8254, 226.2124
282.3075, 226.6769
282.7896, 227.6778
283.2717, 228.8309
283.7538, 229.5472
284.2360, 229.8205
284.7181, 229.8575
285.2002, 229.5922
285.6823, 229.0881
286.1644, 228.9333
286.6465, 229.1521
287.1287, 229.6301
287.6108, 230.1836
288.0929, 230.8229
288.5750, 231.7949
289.0571, 233.5496
289.5392, 235.7249
290.0214, 236.7243
290.5035, 236.4578
290.9856, 235.7599
291.4677, 235.2550
291.9498, 234.9854
292.4319, 235.2176
292.9141, 236.0814
293.3962, 237.4702
293.8783, 239.2913
294.3604, 241.5456
294.8425, 243.7968
295.3246, 245.4324
295.8068, 246.7375
296.2889, 248.6442
296.7710, 251.5107
297.2531, 254.9592
297.7352, 258.5129
298.2173, 262.1263
298.6995, 265.5511
299.1816, 267.8561
299.6637, 269.8799
300.1458, 273.4051
300.6279, 278.9879
301.1100, 285.7043
301.5922, 292.5667
302.0743, 299.5797
302.5564, 306.7422
303.0385, 314.0097
303.5206, 321.4660
304.0027, 329.5350
304.4849, 338.3416
304.9670, 347.1291
305.4491, 355.2687
305.9312, 362.7573
306.4133, 369.5898
306.8954, 374.7785
307.3776, 379.8576
307.8597, 386.6712
308.3418, 395.5697
308.8239, 404.2298
309.3060, 410.3233
309.7881, 415.2203
310.2703, 420.8796
310.7524, 427.8861
311.2345, 436.1742
311.7166, 445.8529
312.1987, 456.8900
312.6808, 468.4991
313.1630, 480.1048
313.6451, 492.2053
314.1272, 505.4295
314.6093, 519.1017
315.0914, 534.5767
315.5735, 552.2863
316.0557, 572.2057
316.5378, 594.2257
317.0199, 619.0172
317.5020, 645.3586
317.9841, 672.8954
318.4662, 701.9803
318.9484, 730.7373
319.4305, 761.7403
319.9126, 792.2667
320.3947, 815.1539
320.8768, 832.3480
321.3589, 838.3623
321.8411, 830.4808
322.3232, 807.9882
322.8053, 772.6630
323.2874, 717.7189
323.7695, 651.4318
324.2516, 586.9059
324.7338, 521.1448
325.2159, 462.0274
325.6980, 412.1961
326.1801, 372.2896
326.6622, 338.7177
327.1443, 312.3057
327.6265, 291.3474
328.1086, 274.1182
328.5907, 262.4422
329.0728, 252.5709
329.5549, 244.2474
330.0370, 237.4524
330.5192, 231.4177
331.0013, 225.9483
331.4834, 221.3556
331.9655, 217.8769
332.4476, 216.2274
332.9297, 214.4660
333.4119, 212.4707
333.8940, 210.2509
334.3761, 207.7550
334.8582, 204.5569
335.3403, 201.8352
335.8224, 200.2865
336.3046, 200.3000
336.7867, 200.3535
337.2688, 200.5137
337.7509, 200.6231
338.2330, 200.3062
338.7151, 199.4347
339.1973, 198.5465
339.6794, 197.8439
340.1615, 197.3424
340.6436, 196.8351
341.1257, 196.3002
341.6078, 195.8273
342.0899, 195.6040
342.5721, 195.6656
343.0542, 195.5659
343.5363, 195.0198
344.0184, 194.2248
344.5005, 194.1824
344.9826, 194.9897
345.4648, 195.8486
345.9469, 195.9196
346.4290, 195.3103
346.9111, 194.8724
347.3932, 194.7870
347.8753, 194.9200
348.3575, 195.0579
348.8396, 195.1953
349.3217, 195.3133
349.8038, 195.3596
350.2859, 195.3728
350.7680, 195.4550
351.2502, 195.6227
351.7323, 195.8336
352.2144, 196.1488
352.6965, 196.4914
353.1786, 196.6205
353.6607, 196.3888
354.1429, 195.8945
354.6250, 195.1126
355.1071, 194.0312
355.5892, 193.1684
356.0713, 193.0787
356.5534, 193.4364
357.0356, 193.7545
357.5177, 193.5715
357.9998, 193.5298
358.4819, 194.1825
358.9640, 195.4361
359.4461, 196.7624
359.9283, 198.0640
360.4104, 199.2219
360.8925, 200.0956
361.3746, 200.4201
361.8567, 200.8569
362.3388, 201.9685
362.8210, 203.3900
363.3031, 204.3223
363.7852, 203.5956
364.2673, 203.0568
364.7494, 203.7554
365.2315, 206.2440
365.7137, 208.3340
366.1958, 209.1544
366.6779, 209.4894
367.1600, 210.2688
367.6421, 211.9940
368.1242, 213.7600
368.6064, 215.3244
369.0885, 216.6716
369.5706, 218.2727
370.0527, 220.1303
370.5348, 222.2493
371.0169, 224.6761
371.4991, 227.5310
371.9812, 230.4391
372.4633, 233.2903
372.9454, 236.1955
373.4275, 239.4099
373.9096, 242.7487
374.3918, 246.7914
374.8739, 251.7451
375.3560, 257.7427
375.8381, 264.2470
376.3202, 271.1144
376.8023, 278.5718
377.2845, 287.1618
377.7666, 297.0192
378.2487, 306.9269
378.7308, 316.3578
379.2129, 325.4383
379.6950, 334.1170
380.1772, 342.4482
380.6593, 350.4623
381.1414, 358.7899
381.6235, 367.1695
382.1056, 373.6121
382.5877, 377.0312
383.0699, 379.1445
383.5520, 383.3642
384.0341, 389.5332
384.5162, 395.6454
384.9983, 399.0096
385.4804, 401.6392
385.9626, 408.2089
386.4447, 419.5081
386.9268, 432.9648
387.4089, 446.0302
387.8910, 459.2996
388.3731, 473.8160
388.8553, 490.1726
389.3374, 507.9473
389.8195, 526.5637
390.3016, 545.8003
390.7837, 566.3297
391.2658, 590.1843
391.7480, 614.6119
392.2301, 636.9077
392.7122, 657.3057
393.1943, 674.1041
393.6764, 687.2954
394.1585, 696.2830
394.6407, 699.1849
395.1228, 697.3075
395.6049, 687.8637
396.0870, 668.3410
396.5691, 636.2082
397.0512, 601.6094
397.5334, 564.2902
398.0155, 526.0794
398.4976, 489.7697
398.9797, 453.5985
399.4618, 421.1725
399.9439, 393.3904
400.4261, 370.2389
400.9082, 349.6071
401.3903, 331.4335
401.8724, 315.8283
402.3545, 302.9997
402.8366, 294.0255
403.3188, 285.7610
403.8009, 278.0200
404.2830, 270.8968
404.7651, 264.5981
405.2472, 259.1815
405.7293, 254.6066
406.2115, 251.0088
406.6936, 248.4438
407.1757, 245.8561
407.6578, 243.0833
408.1399, 240.7206
408.6220, 239.7785
409.1042, 240.2166
409.5863, 240.0645
410.0684, 238.4646
410.5505, 236.2110
411.0326, 235.3244
411.5147, 235.7596
411.9969, 236.1939
412.4790, 235.2617
412.9611, 233.6495
413.4432, 233.1687
413.9253, 234.2623
414.4074, 235.6909
414.8896, 236.2812
415.3717, 236.1857
415.8538, 235.7466
416.3359, 234.6929
416.8180, 233.6486
417.3001, 233.2574
417.7823, 233.5105
418.2644, 233.8818
418.7465, 234.0941
419.2286, 234.2630
419.7107, 234.5302
420.1928, 235.3535
420.6750, 235.7081
421.1571, 235.0332
421.6392, 233.5779
422.1213, 232.0034
422.6034, 229.9031
423.0855, 228.2227
423.5677, 227.3789
424.0498, 227.5633
424.5319, 228.0485
425.0140, 229.3652
425.4961, 230.6905
425.9782, 231.1540
426.4604, 229.7614
426.9425, 228.9804
427.4246, 229.3252
427.9067, 230.6374
428.3888, 231.7618
428.8709, 232.5615
429.3531, 233.4128
429.8352, 234.6136
430.3173, 236.2740
430.7994, 237.5721
431.2815, 238.3457
431.7636, 238.9664
432.2458, 240.0830
432.7279, 241.7260
433.2100, 243.2903
433.6921, 244.4593
434.1742, 245.4018
434.6563, 246.5173
435.1385, 247.7972
435.6206, 249.7802
436.1027, 253.5237
436.5848, 258.3540
437.0669, 262.4169
437.5490, 265.2947
438.0312, 267.5078
438.5133, 269.2580
438.9954, 270.8043
439.4775, 272.8616
439.9596, 276.3312
440.4417, 280.1441
440.9239, 283.2865
441.4060, 285.7023
441.8881, 288.0940
442.3702, 291.5613
442.8523, 294.8503
443.3344, 296.7734
443.8166, 296.5031
444.2987, 295.4155
444.7808, 293.5513
445.2629, 291.1360
445.7450, 288.8168
446.2271, 287.2330
446.7093, 285.3730
447.1914, 282.6628
447.6735, 278.5555
448.1556, 275.3908
448.6377, 274.3665
449.1198, 273.5096
449.6020, 270.6568
450.0841, 264.6578
450.5662, 259.1965
451.0483, 254.8484
451.5304, 251.4447
452.0125, 248.3870
452.4947, 245.7185
452.9768, 243.1844
453.4589, 240.5038
453.9410, 237.6409
454.4231, 235.4121
454.9052, 233.8534
455.3874, 232.7513
455.8695, 231.9019
456.3516, 231.2794
456.8337, 230.7399
457.3158, 230.2957
457.7979, 229.8490
458.2801, 229.2223
458.7622, 228.4297
459.2443, 227.5352
459.7264, 226.4155
460.2085, 225.2962
460.6906, 224.4537
461.1728, 223.9090
461.6549, 223.7441
462.1370, 224.5473
462.6191, 225.6641
463.1012, 226.1132
463.5833, 224.1905
464.0655, 222.7698
464.5476, 224.0773
465.0297, 227.6332
465.5118, 229.3151
465.9939, 225.8746
466.4760, 221.7893
466.9582, 219.5424
467.4403, 220.3847
467.9224, 221.1505
468.4045, 221.7478
468.8866, 222.2305
469.3687, 222.6559
469.8509, 222.8622
470.3330, 223.3285
470.8151, 224.3873
471.2972, 225.9117
471.7793, 226.3924
472.2614, 225.4861
472.7436, 224.4913
473.2257, 224.2264
473.7078, 224.6979
474.1899, 225.8978
474.6720, 228.0840
475.1541, 230.3017
475.6363, 230.7935
476.1184, 229.8472
476.6005, 229.3239
477.0826, 230.2644
477.5647, 231.8962
478.0468, 233.1066
478.5290, 233.8931
479.0111, 234.2322
479.4932, 233.5074
479.9753, 232.5841
480.4574, 232.6692
480.9395, 234.3412
481.4217, 235.8192
481.9038, 235.4461
482.3859, 234.2922
482.8680, 233.9355
483.3501, 235.7474
483.8322, 237.6126
484.3144, 238.5689
484.7965, 238.6812
485.2786, 239.3382
485.7607, 241.7279
486.2428, 243.9164
486.7249, 244.8347
487.2071, 243.4170
487.6892, 243.0595
488.1713, 244.4930
488.6534, 246.4788
489.1355, 247.1371
489.6176, 245.9921
490.0998, 244.9071
490.5819, 244.2351
491.0640, 243.9813
491.5461, 244.1637
492.0282, 244.7866
492.5103, 245.8334
492.9925, 247.6740
493.4746, 250.0599
493.9567, 251.4893
494.4388, 251.7935
494.9209, 251.5844
495.4030, 251.1000
495.8852, 250.6317
496.3673, 250.9458
496.8494, 252.8881
497.3315, 255.1877
497.8136, 256.5698
498.2957, 257.2311
498.7779, 257.9337
499.2600, 259.3956
499.7421, 260.8326
500.2242, 261.4056
500.7063, 260.6070
501.1884, 260.8600
501.6706, 264.1326
502.1527, 268.2653
502.6348, 271.0244
503.1169, 271.7897
503.5990, 271.5377
504.0811, 269.6731
504.5633, 266.8112
505.0454, 265.2993
505.5275, 265.9434
506.0096, 266.5781
506.4917, 266.0590
506.9738, 264.1607
507.4560, 264.0041
507.9381, 265.9814
508.4202, 268.6367
508.9023, 270.3670
509.3844, 271.2490
509.8665, 272.7448
510.3487, 275.3836
510.8308, 278.2818
511.3129, 279.8544
511.7950, 280.3194
512.2772, 280.6886
512.7593, 281.0772
513.2414, 281.8865
513.7235, 283.8675
514.2056, 286.9760
514.6877, 290.0759
515.1699, 292.4435
515.6520, 294.4659
516.1341, 296.3771
516.6162, 297.6906
517.0983, 299.9614
517.5804, 305.0312
518.0626, 311.1298
518.5447, 315.3552
519.0268, 314.3669
519.5089, 314.5679
519.9910, 318.0806
520.4731, 324.6124
520.9553, 329.2952
521.4374, 331.0553
521.9195, 332.5005
522.4016, 335.2907
522.8837, 339.8762
523.3658, 343.2747
523.8480, 345.3082
524.3301, 346.4982
524.8122, 347.4724
525.2943, 348.2233
525.7764, 348.6712
526.2585, 349.0369
526.7407, 348.8102
527.2228, 346.7954
527.7049, 343.1857
528.1870, 339.1982
528.6691, 335.6229
529.1512, 331.9948
529.6334, 327.5803
530.1155, 322.2587
530.5976, 317.1268
531.0797, 312.6685
531.5618, 308.7263
532.0439, 305.2501
532.5261, 302.9188
533.0082, 299.9887
533.4903, 295.1553
533.9724, 289.4682
534.4545, 285.0672
534.9366, 283.2725
535.4188, 281.5223
535.9009, 279.1948
536.3830, 276.3140
536.8651, 273.8325
537.3472, 271.8374
537.8293, 270.0878
538.3115, 268.4745
538.7936, 267.0105
539.2757, 265.6118
539.7578, 264.2702
540.2399, 263.0417
540.7220, 262.0380
541.2042, 261.2313
541.6863, 260.3599
542.1684, 259.1630
542.6505, 258.0612
543.1326, 258.0612
543.6147, 258.8008
544.0969, 258.8902
544.5790, 256.8024
545.0611, 254.1947
545.5432, 252.4839
546.0253, 251.8299
546.5074, 251.2284
546.9896, 250.0712
547.4717, 248.9058
547.9538, 248.1759
548.4359, 248.1277
548.9180, 248.2957
549.4001, 248.9585
549.8823, 249.7220
550.3644, 249.8553
550.8465, 248.8947
551.3286, 248.2022
551.8107, 248.2534
552.2928, 248.8978
552.7750, 248.9162
553.2571, 248.1686
553.7392, 247.4890
554.2213, 247.5386
554.7034, 248.1730
555.1855, 248.4375
555.6677, 248.2131
556.1498, 248.1638
556.6319, 249.2690
557.1140, 251.0370
557.5961, 252.4522
558.0782, 253.1769
558.5604, 253.5382
559.0425, 253.6713
559.5246, 253.6380
560.0067, 253.5741
560.4888, 253.0043
560.9709, 252.8988
561.4531, 254.0534
561.9352, 256.4780
562.4173, 258.2345
562.8994, 258.5230
563.3815, 258.5150
563.8636, 258.8487
564.3458, 259.8796
564.8279, 260.2086
565.3100, 259.4611
565.7921, 258.4917
566.2742, 258.4218
566.7563, 259.3180
567.2385, 260.4760
567.7206, 261.7997
568.2027, 263.2312
568.6848, 264.5563
569.1669, 265.8136
569.6490, 267.1609
570.1312, 268.6568
570.6133, 270.3256
571.0954, 272.4646
571.5775, 275.0339
572.0596, 276.9857
572.5417, 276.9985
573.0239, 276.5074
573.5060, 276.7857
573.9881, 278.2893
574.4702, 279.9340
574.9523, 281.0898
575.4344, 282.3442
575.9166, 284.4390
576.3987, 288.9036
576.8808, 292.2403
577.3629, 293.5406
577.8450, 293.5211
578.3271, 294.6570
578.8093, 297.3278
579.2914, 299.9993
579.7735, 301.9412
580.2556, 303.2575
580.7377, 305.1580
581.2198, 307.7083
581.7020, 309.9743
582.1841, 310.7002
582.6662, 310.5890
583.1483, 311.3735
583.6304, 313.3287
584.1125, 315.8648
584.5947, 319.1785
585.0768, 322.5536
585.5589, 324.9145
586.0410, 324.5181
586.5231, 324.5984
587.0052, 326.9973
587.4873, 330.9467
587.9694, 334.3246
588.4515, 336.4653
