##NAMES=Beryl
##RRUFFID=R050121
##IDEAL CHEMISTRY=Be_3_Al_2_Si_6_O_18_
##LOCALITY=Cruziero mine, San Jose, Minas Gerais, Brazil
##OWNER=RRUFF
##SOURCE=Carlos and Paulo Vasconcelos
##DESCRIPTION=Light blue fragment, variety aquamarine
##STATUS=The identification of this mineral has been confirmed by X-ray diffraction and chemical analysis
##URL=rruff.info/R050121
##MEASURED CHEMISTRY=(Be_0.96_Li_0.04_)_3_Al_2.00_Si_6.00_O_18_Î‡Na_0.09_Mg_0.03_
91.00781, 6.776181
91.48993, 7.146373
91.97205, 7.294607
92.45416, 7.116255
92.93628, 6.721601
93.41840, 6.331003
93.90051, 5.952750
94.38263, 5.638512
94.86475, 5.478015
95.34686, 5.470619
95.82898, 5.553967
96.31110, 5.670948
96.79321, 5.826982
97.27533, 6.094982
97.75745, 6.537261
98.23956, 7.094978
98.72168, 7.522478
99.20380, 7.818938
99.68591, 7.975413
100.1680, 7.884776
100.6501, 7.454365
101.1323, 7.244135
101.6144, 7.517945
102.0965, 8.340369
102.5786, 8.829693
103.0607, 8.857988
103.5428, 8.670033
104.0250, 8.648006
104.5071, 8.764541
104.9892, 9.095006
105.4713, 9.691817
105.9534, 10.68970
106.4355, 11.65924
106.9177, 12.62782
107.3998, 13.56930
107.8819, 14.42676
108.3640, 14.93664
108.8461, 15.56357
109.3282, 16.53637
109.8104, 18.41431
110.2925, 19.97520
110.7746, 20.80841
111.2567, 21.06397
111.7388, 21.96225
112.2209, 24.43380
112.7031, 27.14497
113.1852, 29.20135
113.6673, 29.61409
114.1494, 30.11659
114.6315, 31.25056
115.1136, 33.06350
115.5958, 34.82964
116.0779, 36.17383
116.5600, 37.39614
117.0421, 38.82669
117.5242, 40.64513
118.0063, 42.66701
118.4885, 44.76186
118.9706, 46.87253
119.4527, 49.30952
119.9348, 52.37044
120.4169, 55.85953
120.8990, 59.47210
121.3812, 63.16877
121.8633, 66.84798
122.3454, 70.39000
122.8275, 73.82719
123.3096, 77.06528
123.7917, 80.00047
124.2739, 82.65870
124.7560, 85.13517
125.2381, 87.41395
125.7202, 89.57214
126.2023, 91.71437
126.6844, 93.91084
127.1666, 96.06876
127.6487, 97.97639
128.1308, 99.66068
128.6129, 101.4060
129.0950, 103.5281
129.5771, 105.9388
130.0593, 108.3425
130.5414, 110.6887
131.0235, 112.9376
131.5056, 114.7969
131.9877, 115.8041
132.4698, 116.2042
132.9520, 116.6517
133.4341, 117.1651
133.9162, 118.2778
134.3983, 120.2512
134.8804, 122.9876
135.3625, 125.9151
135.8447, 129.0443
136.3268, 132.3578
136.8089, 136.0351
137.2910, 140.2118
137.7731, 144.0628
138.2552, 147.2573
138.7374, 149.7176
139.2195, 152.1819
139.7016, 154.8976
140.1837, 157.4292
140.6658, 158.7309
141.1479, 158.4628
141.6301, 157.8083
142.1122, 157.3547
142.5943, 157.3620
143.0764, 156.8362
143.5585, 155.6860
144.0406, 154.0004
144.5228, 152.0524
145.0049, 150.0165
145.4870, 147.5334
145.9691, 144.4586
146.4512, 140.8058
146.9333, 136.4600
147.4155, 131.0034
147.8976, 124.5755
148.3797, 118.9893
148.8618, 114.5498
149.3439, 110.6601
149.8260, 106.9355
150.3082, 103.0937
150.7903, 99.68425
151.2724, 96.65796
151.7545, 94.02332
152.2366, 91.88913
152.7188, 90.37502
153.2009, 89.28749
153.6830, 88.49035
154.1651, 88.28829
154.6472, 88.05447
155.1293, 87.71578
155.6115, 87.28866
156.0936, 86.57473
156.5757, 84.98351
157.0578, 83.27338
157.5399, 82.29790
158.0220, 83.22083
158.5042, 84.07516
158.9863, 83.88266
159.4684, 82.23092
159.9505, 81.22112
160.4326, 81.92109
160.9147, 83.59251
161.3969, 85.13807
161.8790, 86.43904
162.3611, 87.33453
162.8432, 87.63229
163.3253, 87.11018
163.8074, 86.60480
164.2896, 86.47083
164.7717, 86.62019
165.2538, 86.87911
165.7359, 87.10283
166.2180, 87.44019
166.7001, 88.05997
167.1823, 89.13138
167.6644, 90.15176
168.1465, 90.71815
168.6286, 90.96182
169.1107, 91.25275
169.5928, 91.86878
170.0750, 92.60284
170.5571, 93.25979
171.0392, 93.80205
171.5213, 94.23647
172.0034, 94.47538
172.4855, 94.57291
172.9677, 94.75867
173.4498, 95.21970
173.9319, 95.85238
174.4140, 96.49047
174.8961, 96.98957
175.3782, 97.59480
175.8604, 98.73905
176.3425, 100.3612
176.8246, 101.8986
177.3067, 102.8960
177.7888, 103.5238
178.2709, 104.1139
178.7531, 104.7904
179.2352, 105.4676
179.7173, 105.9989
180.1994, 106.3914
180.6815, 106.7600
181.1636, 107.1276
181.6458, 107.5385
182.1279, 108.1157
182.6100, 108.9552
183.0921, 109.9639
183.5742, 111.0904
184.0563, 112.3314
184.5385, 113.3785
185.0206, 113.8053
185.5027, 113.7132
185.9848, 113.5660
186.4669, 113.5084
186.9490, 113.5163
187.4312, 113.5426
187.9133, 113.5958
188.3954, 113.6032
188.8775, 113.3955
189.3596, 113.0071
189.8417, 112.7690
190.3239, 112.9804
190.8060, 113.4950
191.2881, 113.5166
191.7702, 112.9891
192.2523, 112.2007
192.7344, 111.5125
193.2166, 110.9281
193.6987, 110.2383
194.1808, 109.3678
194.6629, 108.3210
195.1450, 107.0411
195.6271, 105.4495
196.1093, 103.8239
196.5914, 102.4879
197.0735, 101.4292
197.5556, 100.7916
198.0377, 100.8031
198.5198, 101.4690
199.0020, 101.8968
199.4841, 102.0818
199.9662, 102.0353
200.4483, 101.6085
200.9304, 100.6817
201.4125, 100.0963
201.8947, 100.4465
202.3768, 101.8513
202.8589, 102.6589
203.3410, 102.7812
203.8231, 102.4115
204.3052, 101.8018
204.7874, 100.8577
205.2695, 100.0589
205.7516, 99.63522
206.2337, 99.62357
206.7158, 99.78808
207.1979, 100.2597
207.6801, 100.7781
208.1622, 100.7376
208.6443, 99.98095
209.1264, 99.15777
209.6085, 98.56340
210.0906, 98.24380
210.5728, 97.94563
211.0549, 97.67825
211.5370, 97.42343
212.0191, 97.13756
212.5012, 96.79436
212.9833, 96.48125
213.4655, 96.21774
213.9476, 95.96317
214.4297, 95.93594
214.9118, 96.27177
215.3939, 96.77007
215.8760, 96.92765
216.3581, 96.65616
216.8403, 96.22243
217.3224, 95.72025
217.8045, 95.07977
218.2866, 94.57844
218.7687, 94.26667
219.2508, 94.07972
219.7330, 93.85554
220.2151, 93.57906
220.6972, 93.28854
221.1793, 93.00088
221.6614, 92.70393
222.1435, 92.45042
222.6257, 92.33929
223.1078, 92.24141
223.5899, 91.73428
224.0720, 90.51155
224.5541, 89.36992
225.0362, 88.67196
225.5184, 88.57576
226.0005, 88.56418
226.4826, 88.69299
226.9647, 88.88595
227.4468, 88.90300
227.9289, 88.58883
228.4111, 88.34189
228.8932, 88.38895
229.3753, 88.96812
229.8574, 89.28032
230.3395, 89.28267
230.8216, 89.01881
231.3038, 88.55633
231.7859, 87.68483
232.2680, 86.92795
232.7501, 86.54480
233.2322, 86.72517
233.7143, 86.84178
234.1965, 86.82178
234.6786, 86.75017
235.1607, 86.90176
235.6428, 87.51426
236.1249, 88.00114
236.6070, 88.05466
237.0892, 87.34470
237.5713, 86.93037
238.0534, 86.87895
238.5355, 87.10445
239.0176, 87.41418
239.4997, 87.93980
239.9819, 88.36514
240.4640, 88.53017
240.9461, 88.29008
241.4282, 88.13068
241.9103, 88.03418
242.3924, 88.02454
242.8746, 88.17351
243.3567, 88.56905
243.8388, 88.99198
244.3209, 89.38084
244.8030, 89.79419
245.2851, 89.99635
245.7673, 89.87816
246.2494, 89.59497
246.7315, 89.50486
247.2136, 89.78261
247.6957, 89.97340
248.1778, 89.80543
248.6600, 88.95319
249.1421, 88.78648
249.6242, 89.65643
250.1063, 91.02207
250.5884, 91.78107
251.0705, 91.51820
251.5527, 91.36205
252.0348, 91.84422
252.5169, 93.34142
252.9990, 94.08122
253.4811, 93.79714
253.9632, 92.93423
254.4454, 92.34481
254.9275, 92.38069
255.4096, 92.01527
255.8917, 90.90062
256.3738, 88.97635
256.8560, 86.53437
257.3381, 83.26093
257.8202, 79.71732
258.3023, 76.63902
258.7844, 74.00644
259.2665, 71.95532
259.7487, 70.62492
260.2308, 70.12683
260.7129, 69.63316
261.1950, 69.11985
261.6771, 68.63828
262.1592, 68.24675
262.6414, 67.92471
263.1235, 67.75904
263.6056, 67.82719
264.0877, 68.15413
264.5698, 68.32317
265.0519, 68.24620
265.5341, 68.13148
266.0162, 68.25675
266.4983, 68.72149
266.9804, 69.11286
267.4625, 69.29604
267.9446, 69.27445
268.4268, 69.37402
268.9089, 69.60470
269.3910, 69.93473
269.8731, 70.36716
270.3552, 70.94067
270.8373, 71.45625
271.3195, 71.91105
271.8016, 72.28666
272.2837, 72.34444
272.7658, 71.93834
273.2479, 71.54391
273.7300, 71.70422
274.2122, 72.55098
274.6943, 73.10598
275.1764, 73.06731
275.6585, 72.58223
276.1406, 72.44080
276.6227, 72.70325
277.1049, 73.11190
277.5870, 73.41667
278.0691, 73.58869
278.5512, 74.03745
279.0333, 74.96091
279.5154, 76.13821
279.9976, 76.71098
280.4797, 76.55409
280.9618, 76.44470
281.4439, 77.04783
281.9260, 78.37003
282.4081, 79.48737
282.8903, 80.26997
283.3724, 80.79617
283.8545, 81.11562
284.3366, 81.18490
284.8187, 81.50847
285.3008, 82.60048
285.7830, 84.38382
286.2651, 85.77552
286.7472, 86.58408
287.2293, 87.16492
287.7114, 88.11314
288.1935, 89.42745
288.6757, 91.00965
289.1578, 93.00105
289.6399, 95.28190
290.1220, 97.11210
290.6041, 98.41180
291.0862, 99.42110
291.5684, 100.5395
292.0505, 101.7321
292.5326, 102.6321
293.0147, 102.9719
293.4968, 102.8833
293.9789, 102.6355
294.4611, 102.1725
294.9432, 101.9502
295.4253, 102.7472
295.9074, 104.3414
296.3895, 105.7490
296.8716, 106.5340
297.3538, 106.8699
297.8359, 107.1467
298.3180, 107.3760
298.8001, 107.3578
299.2822, 106.8960
299.7643, 106.0365
300.2465, 104.8783
300.7286, 103.0204
301.2107, 101.1768
301.6928, 100.4022
302.1749, 100.6584
302.6570, 101.2595
303.1392, 101.5716
303.6213, 101.8745
304.1034, 102.6626
304.5855, 104.2636
305.0676, 106.1949
305.5497, 107.8830
306.0319, 109.4237
306.5140, 111.4050
306.9961, 114.6189
307.4782, 118.3095
307.9603, 121.5813
308.4424, 124.0187
308.9246, 126.3351
309.4067, 129.0990
309.8888, 132.1792
310.3709, 135.2620
310.8530, 137.7865
311.3351, 140.4226
311.8173, 143.7979
312.2994, 148.2117
312.7815, 152.8689
313.2636, 156.9526
313.7457, 160.9323
314.2278, 165.7004
314.7100, 171.7074
315.1921, 178.5244
315.6742, 186.0058
316.1563, 194.1663
316.6384, 202.6549
317.1205, 210.6702
317.6027, 218.9726
318.0848, 228.4893
318.5669, 239.5998
319.0490, 251.8977
319.5311, 265.7599
320.0132, 281.2641
320.4954, 296.1839
320.9775, 309.8193
321.4596, 322.5343
321.9417, 334.4208
322.4238, 348.7689
322.9059, 358.9117
323.3881, 364.2457
323.8702, 364.5128
324.3523, 357.8691
324.8344, 341.2267
325.3165, 319.4577
325.7986, 295.3223
326.2808, 265.4483
326.7629, 237.4487
327.2450, 211.2432
327.7271, 187.1377
328.2092, 166.2370
328.6913, 149.0191
329.1735, 134.6265
329.6556, 122.6049
330.1377, 113.8141
330.6198, 105.7493
331.1019, 98.12743
331.5840, 91.33656
332.0662, 86.02976
332.5483, 82.82581
333.0304, 80.20058
333.5125, 77.77033
333.9946, 75.49680
334.4767, 73.47868
334.9589, 71.78722
335.4410, 70.30518
335.9231, 68.88452
336.4052, 67.50174
336.8873, 66.27725
337.3694, 65.26421
337.8516, 64.45931
338.3336, 63.73613
338.8158, 63.08855
339.2979, 62.53560
339.7800, 62.10366
340.2621, 61.81193
340.7442, 61.55321
341.2263, 61.36262
341.7085, 61.17144
342.1906, 60.67376
342.6727, 59.80175
343.1548, 59.02134
343.6369, 58.65808
344.1190, 58.69664
344.6012, 58.89351
345.0833, 59.29387
345.5654, 59.70191
346.0475, 59.72152
346.5296, 59.37377
347.0117, 58.98873
347.4939, 58.75161
347.9760, 58.61954
348.4581, 58.41174
348.9402, 58.09247
349.4223, 57.85989
349.9044, 58.00001
350.3866, 58.42653
350.8687, 58.84503
351.3508, 59.23383
351.8329, 59.50273
352.3150, 59.40600
352.7971, 58.95557
353.2793, 58.57011
353.7614, 58.73404
354.2435, 59.14601
354.7256, 59.29120
355.2077, 58.81004
355.6898, 58.27567
356.1720, 58.21679
356.6541, 58.55389
357.1362, 58.93774
357.6183, 59.25545
358.1004, 59.48534
358.5826, 59.59752
359.0647, 59.56040
359.5468, 59.47257
360.0289, 59.26609
360.5110, 59.05298
360.9931, 59.04698
361.4753, 59.59583
361.9574, 60.16184
362.4395, 60.40868
362.9216, 60.23437
363.4037, 60.20914
363.8858, 60.69695
364.3680, 61.34378
364.8501, 61.77858
365.3322, 61.49581
365.8143, 61.42725
366.2964, 61.90850
366.7785, 62.93151
367.2607, 63.82022
367.7428, 64.44388
368.2249, 64.96708
368.7070, 65.48903
369.1891, 65.97853
369.6712, 66.50337
370.1534, 67.03999
370.6355, 67.61362
371.1176, 68.31081
371.5997, 69.20940
372.0818, 70.12721
372.5639, 70.94678
373.0461, 71.52055
373.5282, 72.52106
374.0103, 74.08705
374.4924, 75.96643
374.9745, 77.76507
375.4566, 79.46850
375.9388, 81.16231
376.4209, 82.78427
376.9030, 84.38140
377.3851, 86.28288
377.8672, 88.46697
378.3493, 91.08853
378.8315, 94.33823
379.3136, 98.25324
379.7957, 102.3478
380.2778, 106.5722
380.7599, 110.9287
381.2420, 115.6701
381.7242, 120.7180
382.2063, 125.7164
382.6884, 130.4502
383.1705, 134.9231
383.6526, 138.8755
384.1347, 142.1622
384.6169, 145.3792
385.0990, 148.9993
385.5811, 153.0757
386.0632, 157.6331
386.5453, 162.5265
387.0274, 167.9922
387.5096, 174.3470
387.9917, 181.5593
388.4738, 189.3535
388.9559, 196.7388
389.4380, 204.6125
389.9201, 214.3042
390.4023, 226.9230
390.8844, 240.5820
391.3665, 254.0165
391.8486, 267.5044
392.3307, 281.5934
392.8128, 297.2566
393.2950, 313.1481
393.7771, 328.6471
394.2592, 343.8219
394.7413, 358.0045
395.2234, 372.0953
395.7055, 384.7210
396.1877, 393.7606
396.6698, 400.1811
397.1519, 401.5655
397.6340, 396.6149
398.1161, 384.8905
398.5982, 370.6616
399.0804, 353.7427
399.5625, 334.6927
400.0446, 313.7945
400.5267, 288.6402
401.0088, 265.0500
401.4909, 243.6492
401.9731, 224.2587
402.4552, 206.6060
402.9373, 190.8621
403.4194, 176.5621
403.9015, 163.4905
404.3836, 151.6170
404.8658, 141.0400
405.3479, 131.8406
405.8300, 123.9661
406.3121, 117.4371
406.7942, 112.3713
407.2763, 107.8036
407.7585, 103.3571
408.2406, 99.12737
408.7227, 95.86825
409.2048, 93.65336
409.6869, 91.87037
410.1690, 90.06783
410.6512, 88.26933
411.1333, 86.47115
411.6154, 84.59031
412.0975, 82.86215
412.5796, 81.65418
413.0617, 80.91532
413.5439, 80.35957
414.0260, 79.76848
414.5081, 79.27583
414.9902, 79.15174
415.4723, 79.44585
415.9544, 79.76270
416.4366, 79.60069
416.9187, 79.29150
417.4008, 79.33107
417.8829, 80.26101
418.3650, 81.28745
418.8471, 81.81686
419.3293, 81.96053
419.8114, 82.42272
420.2935, 83.99329
420.7756, 85.67272
421.2577, 86.76991
421.7398, 87.12466
422.2220, 87.03775
422.7041, 86.33210
423.1862, 85.26213
423.6683, 84.28612
424.1504, 83.97323
424.6325, 83.22713
425.1147, 81.64387
425.5968, 79.09003
426.0789, 76.72695
426.5610, 74.49900
427.0431, 72.50966
427.5252, 70.87818
428.0074, 69.68258
428.4895, 68.65598
428.9716, 67.74915
429.4537, 67.01305
429.9358, 66.70567
430.4179, 66.95379
430.9001, 67.18217
431.3822, 66.98332
431.8643, 66.34453
432.3464, 66.19865
432.8285, 66.63215
433.3106, 67.28393
433.7928, 67.66728
434.2749, 67.82607
434.7570, 68.11394
435.2391, 68.56530
435.7212, 69.27106
436.2033, 70.54430
436.6855, 72.32755
437.1676, 74.15191
437.6497, 75.70494
438.1318, 77.07542
438.6139, 78.33249
439.0960, 79.41029
439.5782, 80.66178
440.0603, 82.48036
440.5424, 84.67896
441.0245, 86.87620
441.5066, 88.85524
441.9887, 90.85265
442.4709, 93.07833
442.9530, 95.52254
443.4351, 97.83192
443.9172, 99.76547
444.3993, 101.5596
444.8814, 103.3601
445.3636, 105.3218
445.8457, 107.1365
446.3278, 108.8537
446.8099, 110.3863
447.2920, 111.5674
447.7741, 112.4107
448.2563, 112.9018
448.7384, 113.1254
449.2205, 113.1698
449.7026, 112.2982
450.1847, 110.3805
450.6668, 107.7342
451.1490, 104.5653
451.6311, 100.7412
452.1132, 96.83514
452.5953, 92.78022
453.0774, 88.77991
453.5595, 85.16902
454.0417, 81.94442
454.5238, 79.02095
455.0059, 76.30418
455.4880, 73.82962
455.9701, 71.72794
456.4522, 70.05538
456.9344, 68.47837
457.4165, 66.41001
457.8986, 64.11727
458.3807, 62.45732
458.8628, 62.04474
459.3449, 61.97476
459.8271, 61.11763
460.3092, 59.64833
460.7913, 58.30599
461.2734, 57.54545
461.7555, 57.08894
462.2376, 56.73934
462.7198, 56.50512
463.2019, 56.22353
463.6840, 55.84452
464.1661, 55.36907
464.6482, 54.79838
465.1303, 53.85037
465.6125, 53.10034
466.0946, 52.82722
466.5767, 52.96619
467.0588, 52.92508
467.5409, 52.47285
468.0230, 51.99770
468.5052, 51.67013
468.9873, 51.54887
469.4694, 51.43178
469.9515, 51.31656
470.4336, 51.20886
470.9157, 51.09542
471.3979, 50.94118
471.8800, 50.92453
472.3621, 51.17508
472.8442, 51.59184
473.3263, 51.65824
473.8084, 51.33953
474.2906, 50.94053
474.7727, 50.62898
475.2548, 50.41166
475.7369, 50.35549
476.2190, 50.49797
476.7011, 50.67680
477.1833, 50.69868
477.6654, 50.59928
478.1475, 50.47666
478.6296, 50.38123
479.1117, 50.27578
479.5938, 50.07315
480.0760, 49.79824
480.5581, 49.62240
481.0402, 49.69174
481.5223, 49.86981
482.0044, 50.05067
482.4865, 50.21021
482.9687, 50.38208
483.4508, 50.66388
483.9329, 50.94310
484.4150, 51.05634
484.8971, 50.91261
485.3792, 50.66780
485.8614, 50.23782
486.3435, 49.65252
486.8256, 49.39734
487.3077, 49.74072
487.7898, 50.10086
488.2719, 50.13081
488.7541, 49.66259
489.2362, 49.41463
489.7183, 49.44399
490.2004, 49.62375
490.6825, 49.79684
491.1646, 49.97080
491.6468, 50.05174
492.1289, 49.95893
492.6110, 49.78185
493.0931, 49.82018
493.5752, 50.07109
494.0573, 50.29956
494.5395, 50.30139
495.0216, 50.16620
495.5037, 50.06752
495.9858, 50.02276
496.4679, 50.04167
496.9500, 50.17291
497.4322, 50.36893
497.9143, 50.54850
498.3964, 50.58894
498.8785, 50.68602
499.3606, 51.03166
499.8427, 51.56268
500.3249, 51.96031
500.8070, 51.82499
501.2891, 51.75868
501.7712, 52.14782
502.2533, 53.29719
502.7354, 54.13375
503.2176, 54.38654
503.6997, 54.38265
504.1818, 54.43331
504.6639, 54.50782
505.1460, 54.69228
505.6281, 54.99990
506.1103, 55.42616
506.5924, 55.96920
507.0745, 56.66528
507.5566, 57.34721
508.0387, 57.85364
508.5208, 58.20574
509.0030, 58.88581
509.4851, 59.93299
509.9672, 61.08727
510.4493, 62.09932
510.9314, 62.99326
511.4135, 63.81808
511.8957, 64.47421
512.3778, 65.24654
512.8599, 66.60251
513.3420, 68.37045
513.8242, 70.03960
514.3063, 71.08888
514.7884, 72.14574
515.2705, 73.76812
515.7526, 75.98933
516.2347, 78.19169
516.7169, 79.96185
517.1990, 81.71196
517.6811, 83.76330
518.1632, 86.51781
518.6453, 89.09709
519.1274, 91.21179
519.6096, 93.14275
520.0917, 95.36354
520.5738, 97.88600
521.0559, 100.6630
521.5380, 103.7329
522.0201, 107.0790
522.5023, 110.4590
522.9844, 113.9627
523.4665, 117.2830
523.9486, 120.1588
524.4307, 122.6193
524.9128, 125.0488
525.3950, 127.5062
525.8771, 129.7517
526.3592, 131.5494
526.8413, 132.8636
527.3234, 133.6351
527.8055, 133.8874
528.2877, 133.5250
528.7698, 132.4144
529.2519, 130.5881
529.7340, 128.1456
530.2161, 124.6842
530.6982, 120.9448
531.1804, 117.4146
531.6625, 114.2489
532.1446, 111.1064
532.6267, 108.0491
533.1088, 104.9069
533.5909, 101.5719
534.0731, 97.64364
534.5552, 93.96478
535.0373, 90.54930
535.5194, 87.43297
536.0015, 84.53478
536.4836, 81.89332
536.9658, 79.44174
537.4479, 77.20604
537.9300, 75.18609
538.4121, 73.19273
538.8942, 71.23312
539.3763, 69.30885
539.8585, 67.34335
540.3406, 65.38488
540.8227, 63.77473
541.3048, 62.60596
541.7869, 61.55078
542.2690, 60.11533
542.7512, 58.46252
543.2333, 57.00023
543.7154, 55.89498
544.1975, 55.05138
544.6796, 54.59856
545.1617, 54.40910
545.6439, 53.93837
546.1260, 52.64563
546.6081, 51.22021
547.0902, 50.03842
547.5723, 49.17104
548.0544, 48.47720
548.5366, 48.05536
549.0187, 47.72731
549.5008, 47.31643
549.9829, 46.61231
550.4650, 46.22771
550.9471, 46.34032
551.4293, 46.73366
551.9114, 46.93895
552.3935, 46.96584
552.8756, 46.74255
553.3577, 46.08769
553.8398, 45.16098
554.3220, 44.78374
554.8041, 44.97139
555.2862, 45.22521
555.7683, 45.05655
556.2504, 44.69261
556.7325, 44.63071
557.2147, 44.98174
557.6968, 45.38259
558.1789, 45.50203
558.6610, 45.48155
559.1431, 45.52892
559.6252, 45.78865
560.1074, 46.05726
560.5895, 46.27126
561.0716, 46.43330
561.5537, 46.54955
562.0358, 46.57351
562.5179, 46.59896
563.0001, 46.65995
563.4822, 46.75951
563.9643, 46.85136
564.4464, 46.90136
564.9285, 46.99243
565.4106, 47.26451
565.8928, 47.79898
566.3749, 47.89752
566.8570, 47.36245
567.3391, 46.69692
567.8212, 46.84821
568.3033, 47.67795
568.7855, 48.11353
569.2676, 47.49215
569.7497, 46.58733
570.2318, 46.61638
570.7139, 47.41462
571.1960, 48.26397
571.6782, 48.78169
572.1603, 49.14394
572.6424, 49.47174
573.1245, 49.77917
573.6066, 50.05217
574.0887, 50.22997
574.5709, 50.40760
575.0530, 50.65789
575.5351, 50.92303
576.0172, 51.37815
576.4993, 52.22466
576.9814, 53.16952
577.4636, 53.69734
577.9457, 53.64884
578.4278, 53.61658
578.9099, 53.79151
579.3920, 54.07043
579.8741, 53.95949
580.3563, 53.42080
580.8384, 53.01349
581.3205, 53.34069
581.8026, 54.04454
582.2847, 53.93779
582.7668, 52.97174
583.2490, 52.00309
583.7311, 51.93092
584.2132, 52.21802
584.6953, 52.12630
585.1774, 51.31225
585.6595, 50.51319
586.1416, 50.30790
586.6237, 50.31400
