##NAMES=Berzeliite
##RRUFFID=R061084
##IDEAL CHEMISTRY=NaCa_2_Mg_2_(As^5+^O_4_)_3_
##LOCALITY=Jakobsberg mine, Nordmark, Filipstad, Varmland, Sweden
##OWNER=RRUFF
##SOURCE=Michael Scott
##DESCRIPTION=Light yellow irregular shaped crystal, associated with colorless tilasite and adelite, R060687
##STATUS=The identification of this mineral is confirmed by single-crystal X-ray diffraction and chemical analysis.
##URL=rruff.info/R061084
##MEASURED CHEMISTRY=(Na_0.92_Ca_0.08_)Ca_2.03_(Mg_1.91_Mn_0.11_)[(As_0.96_Si_0.03_P_0.01_)O_4_]_3_
137.915, 3953.133
138.397, 4001.155
138.879, 4037.029
139.361, 4062.701
139.843, 4083.354
140.326, 4097.459
140.808, 4110.694
141.290, 4127.234
141.772, 4148.264
142.254, 4169.171
142.736, 4189.994
143.218, 4210.672
143.700, 4227.283
144.182, 4236.950
144.665, 4245.385
145.147, 4257.333
145.629, 4272.566
146.111, 4291.539
146.593, 4314.706
147.075, 4342.813
147.557, 4371.114
148.039, 4399.385
148.521, 4427.560
149.004, 4456.062
149.486, 4486.557
149.968, 4515.246
150.450, 4539.917
150.932, 4553.440
151.414, 4578.282
151.896, 4627.341
152.378, 4687.576
152.861, 4732.521
153.343, 4744.742
153.825, 4754.955
154.307, 4774.919
154.789, 4804.975
155.271, 4846.650
155.753, 4905.949
156.235, 4978.644
156.717, 5050.167
157.200, 5118.882
157.682, 5185.575
158.164, 5250.860
158.646, 5305.601
159.128, 5367.686
159.610, 5438.109
160.092, 5517.475
160.574, 5613.954
161.057, 5743.120
161.539, 5885.153
162.021, 6021.563
162.503, 6138.830
162.985, 6254.842
163.467, 6381.586
163.949, 6519.141
164.431, 6648.723
164.913, 6753.844
165.396, 6846.771
165.878, 6944.334
166.360, 7067.027
166.842, 7188.089
167.324, 7290.940
167.806, 7374.504
168.288, 7440.168
168.770, 7500.206
169.253, 7544.648
169.735, 7552.321
170.217, 7501.953
170.699, 7414.960
171.181, 7309.585
171.663, 7185.523
172.145, 7050.880
172.627, 6906.465
173.109, 6755.313
173.592, 6603.066
174.074, 6442.308
174.556, 6284.821
175.038, 6151.329
175.520, 6052.586
176.002, 5967.601
176.484, 5867.746
176.966, 5757.155
177.449, 5661.497
177.931, 5613.062
178.413, 5593.497
178.895, 5562.895
179.377, 5500.701
179.859, 5428.051
180.341, 5378.469
180.823, 5351.390
181.305, 5332.579
181.788, 5308.005
182.270, 5280.730
182.752, 5260.279
183.234, 5257.421
183.716, 5262.080
184.198, 5247.970
184.680, 5213.152
185.162, 5175.916
185.645, 5157.476
186.127, 5155.301
186.609, 5153.383
187.091, 5142.495
187.573, 5125.817
188.055, 5116.716
188.537, 5116.176
189.019, 5119.750
189.501, 5123.059
189.984, 5126.017
190.466, 5125.823
190.948, 5119.993
191.430, 5109.238
191.912, 5098.497
192.394, 5087.604
192.876, 5077.736
193.358, 5071.629
193.840, 5069.501
194.323, 5067.785
194.805, 5063.404
195.287, 5056.627
195.769, 5054.445
196.251, 5059.307
196.733, 5067.169
197.215, 5067.212
197.697, 5058.464
198.180, 5048.860
198.662, 5043.735
199.144, 5043.296
199.626, 5043.337
200.108, 5043.066
200.590, 5043.092
201.072, 5045.102
201.554, 5048.843
202.036, 5055.256
202.519, 5067.398
203.001, 5086.808
203.483, 5097.750
203.965, 5091.266
204.447, 5073.539
204.929, 5085.319
205.411, 5136.351
205.893, 5191.849
206.376, 5217.665
206.858, 5206.645
207.340, 5199.198
207.822, 5206.557
208.304, 5226.888
208.786, 5231.680
209.268, 5214.829
209.750, 5193.700
210.232, 5188.459
210.714, 5205.101
211.197, 5217.579
211.679, 5216.974
212.161, 5203.009
212.643, 5202.401
213.125, 5219.869
213.607, 5244.728
214.089, 5264.275
214.572, 5276.443
215.054, 5288.809
215.536, 5303.174
216.018, 5319.616
216.500, 5337.028
216.982, 5356.005
217.464, 5374.679
217.946, 5390.038
218.428, 5399.497
218.911, 5410.265
219.393, 5422.680
219.875, 5434.248
220.357, 5461.046
220.839, 5512.364
221.321, 5572.190
221.803, 5615.170
222.285, 5635.347
222.767, 5649.745
223.250, 5662.792
223.732, 5672.889
224.214, 5688.906
224.696, 5713.978
225.178, 5743.545
225.660, 5769.946
226.142, 5792.830
226.624, 5812.815
227.107, 5828.603
227.589, 5836.038
228.071, 5850.977
228.553, 5876.181
229.035, 5908.011
229.517, 5938.107
229.999, 5969.218
230.481, 5994.896
230.963, 6011.405
231.445, 6013.415
231.928, 6018.315
232.410, 6026.011
232.892, 6036.748
233.374, 6052.000
233.856, 6078.542
234.338, 6099.914
234.820, 6105.909
235.303, 6080.202
235.785, 6076.381
236.267, 6111.344
236.749, 6168.098
237.231, 6184.028
237.713, 6129.275
238.195, 6074.851
238.677, 6058.730
239.159, 6103.203
239.641, 6138.813
240.124, 6161.125
240.606, 6172.676
241.088, 6184.114
241.570, 6196.569
242.052, 6207.299
242.534, 6213.495
243.016, 6208.355
243.498, 6213.610
243.981, 6237.096
244.463, 6272.495
244.945, 6290.273
245.427, 6279.720
245.909, 6264.789
246.391, 6259.098
246.873, 6266.019
247.355, 6274.783
247.837, 6286.512
248.320, 6299.677
248.802, 6306.630
249.284, 6305.530
249.766, 6300.646
250.248, 6293.775
250.730, 6282.317
251.212, 6275.294
251.694, 6273.951
252.176, 6278.072
252.659, 6286.876
253.141, 6305.910
253.623, 6322.659
254.105, 6326.306
254.587, 6303.841
255.069, 6301.316
255.551, 6331.827
256.033, 6387.115
256.516, 6422.474
256.998, 6427.054
257.480, 6427.597
257.962, 6443.507
258.444, 6484.316
258.926, 6515.518
259.408, 6532.892
259.890, 6537.644
260.372, 6533.458
260.855, 6508.184
261.337, 6493.331
261.819, 6515.687
262.301, 6594.354
262.783, 6654.000
263.265, 6683.697
263.747, 6688.107
264.229, 6690.597
264.711, 6689.480
265.194, 6689.435
265.676, 6695.950
266.158, 6713.573
266.640, 6719.344
267.122, 6703.467
267.604, 6674.456
268.086, 6675.521
268.569, 6720.396
269.051, 6765.654
269.533, 6776.881
270.015, 6743.638
270.497, 6724.850
270.979, 6731.249
271.461, 6756.029
271.943, 6770.931
272.425, 6772.790
272.908, 6773.878
273.390, 6783.814
273.872, 6804.293
274.354, 6820.958
274.836, 6828.607
275.318, 6833.101
275.800, 6861.670
276.282, 6924.026
276.764, 6974.824
277.247, 6971.896
277.729, 6906.894
278.211, 6871.471
278.693, 6881.409
279.175, 6922.110
279.657, 6948.427
280.139, 6954.990
280.621, 6975.417
281.103, 7051.240
281.586, 7183.730
282.068, 7258.786
282.550, 7250.304
283.032, 7192.625
283.514, 7164.831
283.996, 7169.114
284.478, 7182.661
284.960, 7189.701
285.443, 7191.304
285.925, 7204.765
286.407, 7234.265
286.889, 7272.412
287.371, 7303.958
287.853, 7328.826
288.335, 7355.876
288.817, 7391.847
289.299, 7435.383
289.782, 7478.099
290.264, 7517.821
290.746, 7557.342
291.228, 7601.434
291.710, 7649.739
292.192, 7698.097
292.674, 7745.044
293.156, 7789.988
293.638, 7828.435
294.121, 7857.657
294.603, 7886.662
295.085, 7931.348
295.567, 7989.306
296.049, 8045.467
296.531, 8083.311
297.013, 8113.889
297.496, 8164.867
297.978, 8239.990
298.460, 8324.841
298.942, 8398.037
299.424, 8464.835
299.906, 8542.636
300.388, 8651.661
300.870, 8773.917
301.352, 8873.540
301.835, 8945.131
302.317, 9015.479
302.799, 9118.317
303.281, 9240.487
303.763, 9353.472
304.245, 9426.275
304.727, 9489.199
305.209, 9578.400
305.691, 9697.693
306.174, 9824.875
306.656, 9948.396
307.138, 10069.030
307.620, 10188.710
308.102, 10322.970
308.584, 10448.970
309.066, 10537.620
309.548, 10589.540
310.030, 10648.080
310.513, 10752.330
310.995, 10878.610
311.477, 10994.610
311.959, 11077.770
312.441, 11155.470
312.923, 11241.370
313.405, 11336.030
313.887, 11437.450
314.370, 11543.560
314.852, 11658.210
315.334, 11785.540
315.816, 11941.700
316.298, 12096.460
316.780, 12222.450
317.262, 12327.620
317.744, 12471.090
318.226, 12689.050
318.709, 12945.790
319.191, 13214.330
319.673, 13471.670
320.155, 13759.170
320.637, 14093.260
321.119, 14468.700
321.601, 14864.520
322.083, 15271.880
322.565, 15696.110
323.048, 16139.530
323.530, 16608.570
324.012, 17087.711
324.494, 17570.029
324.976, 18059.920
325.458, 18570.520
325.940, 19135.270
326.422, 19694.609
326.905, 20228.961
327.387, 20732.990
327.869, 21218.561
328.351, 21707.820
328.833, 22174.590
329.315, 22577.750
329.797, 22895.600
330.279, 23173.520
330.762, 23443.641
331.244, 23758.391
331.726, 23910.680
332.208, 23877.811
332.690, 23697.029
333.172, 23418.131
333.654, 23028.039
334.136, 22566.119
334.618, 22031.391
335.100, 21424.561
335.583, 20782.061
336.065, 20089.600
336.547, 19377.520
337.029, 18661.990
337.511, 17925.311
337.993, 17228.461
338.475, 16586.221
338.957, 15998.810
339.440, 15440.190
339.922, 14905.990
340.404, 14407.620
340.886, 13952.530
341.368, 13547.560
341.850, 13154.840
342.332, 12770.070
342.814, 12396.970
343.297, 12071.540
343.779, 11793.920
344.261, 11545.600
344.743, 11312.310
345.225, 11095.000
345.707, 10889.920
346.189, 10691.820
346.671, 10509.830
347.153, 10359.260
347.635, 10239.430
348.118, 10123.750
348.600, 9979.012
349.082, 9822.941
349.564, 9714.143
350.046, 9667.168
350.528, 9637.797
351.010, 9564.722
351.492, 9458.705
351.975, 9358.188
352.457, 9291.777
352.939, 9241.449
353.421, 9178.346
353.903, 9098.739
354.385, 9022.772
354.867, 8972.242
355.349, 8937.980
355.832, 8902.527
356.314, 8854.374
356.796, 8805.005
357.278, 8765.122
357.760, 8734.938
358.242, 8708.112
358.724, 8677.220
359.206, 8648.628
359.688, 8629.347
360.171, 8639.381
360.653, 8643.091
361.135, 8613.609
361.617, 8557.127
362.099, 8516.384
362.581, 8519.916
363.063, 8536.917
363.545, 8546.658
364.027, 8547.900
364.510, 8537.334
364.992, 8503.214
365.474, 8455.082
365.956, 8420.862
366.438, 8417.035
366.920, 8419.647
367.402, 8418.451
367.884, 8408.760
368.366, 8403.726
368.849, 8408.178
369.331, 8416.968
369.813, 8421.291
370.295, 8416.074
370.777, 8412.535
371.259, 8413.452
371.741, 8419.036
372.224, 8427.371
372.706, 8436.767
373.188, 8450.186
373.670, 8471.908
374.152, 8505.690
374.634, 8537.345
375.116, 8561.133
375.598, 8578.522
376.080, 8607.492
376.562, 8651.222
377.045, 8698.254
377.527, 8736.642
378.009, 8764.988
378.491, 8803.164
378.973, 8858.733
379.455, 8922.358
379.937, 8963.187
380.419, 8979.825
380.902, 8998.351
381.384, 9031.944
381.866, 9081.156
382.348, 9153.523
382.830, 9255.138
383.312, 9363.730
383.794, 9440.198
384.276, 9490.622
384.759, 9547.937
385.241, 9623.534
385.723, 9718.269
386.205, 9840.363
386.687, 9991.747
387.169, 10136.700
387.651, 10227.080
388.133, 10287.400
388.615, 10364.000
389.098, 10489.270
389.580, 10626.880
390.062, 10735.810
390.544, 10822.730
391.026, 10926.890
391.508, 11088.100
391.990, 11268.890
392.472, 11436.580
392.954, 11574.170
393.437, 11708.580
393.919, 11852.420
394.401, 12001.410
394.883, 12150.040
395.365, 12297.880
395.847, 12442.670
396.329, 12582.330
396.811, 12713.560
397.293, 12847.800
397.776, 12986.790
398.258, 13129.090
398.740, 13274.870
399.222, 13446.940
399.704, 13598.190
400.186, 13716.920
400.668, 13801.030
401.151, 13871.800
401.633, 13932.370
402.115, 13976.830
402.597, 14002.140
403.079, 14013.140
403.561, 13994.000
404.043, 13938.640
404.525, 13851.590
405.007, 13755.330
405.490, 13653.040
405.972, 13532.120
406.454, 13380.890
406.936, 13196.550
407.418, 13011.160
407.900, 12826.700
408.382, 12641.230
408.864, 12442.630
409.346, 12230.820
409.828, 12028.170
410.311, 11848.980
410.793, 11689.630
411.275, 11532.600
411.757, 11376.400
412.239, 11230.780
412.721, 11106.020
413.203, 10997.850
413.685, 10895.610
414.168, 10790.720
414.650, 10694.240
415.132, 10629.570
415.614, 10591.200
416.096, 10548.950
416.578, 10472.620
417.060, 10385.530
417.542, 10314.100
418.025, 10266.620
418.507, 10229.150
418.989, 10186.870
419.471, 10148.840
419.953, 10132.740
420.435, 10177.290
420.917, 10220.160
421.399, 10223.530
421.881, 10175.550
422.364, 10141.920
422.846, 10147.940
423.328, 10171.040
423.810, 10188.690
424.292, 10195.460
424.774, 10200.300
425.256, 10203.010
425.738, 10204.160
426.220, 10209.000
426.703, 10214.850
427.185, 10227.240
427.667, 10251.210
428.149, 10296.150
428.631, 10328.090
429.113, 10341.380
429.595, 10344.050
430.077, 10353.330
430.560, 10370.030
431.042, 10389.470
431.524, 10411.700
432.006, 10436.330
432.488, 10452.730
432.970, 10459.510
433.452, 10463.640
433.934, 10479.430
434.417, 10503.420
434.899, 10504.800
435.381, 10456.730
435.863, 10398.880
436.345, 10420.420
436.827, 10513.100
437.309, 10601.390
437.791, 10622.250
438.273, 10606.980
438.755, 10601.200
439.238, 10612.420
439.720, 10632.430
440.202, 10657.410
440.684, 10685.960
441.166, 10715.560
441.648, 10749.720
442.130, 10780.310
442.612, 10798.110
443.095, 10802.220
443.577, 10813.910
444.059, 10844.490
444.541, 10884.290
445.023, 10925.260
445.505, 10966.000
445.987, 11007.980
446.469, 11057.280
446.952, 11109.880
447.434, 11147.710
447.916, 11157.970
448.398, 11166.490
448.880, 11185.660
449.362, 11226.890
449.844, 11243.930
450.326, 11227.770
450.808, 11195.940
451.290, 11171.360
451.773, 11155.630
452.255, 11143.120
452.737, 11139.210
453.219, 11137.980
453.701, 11097.790
454.183, 11013.040
454.665, 10920.250
455.147, 10851.060
455.630, 10801.330
456.112, 10737.990
456.594, 10654.540
457.076, 10562.270
457.558, 10473.700
458.040, 10390.370
458.522, 10318.730
459.004, 10259.080
459.487, 10214.040
459.969, 10181.690
460.451, 10162.110
460.933, 10170.480
461.415, 10241.120
461.897, 10337.500
462.379, 10417.010
462.861, 10447.220
463.343, 10477.990
463.826, 10522.050
464.308, 10582.360
464.790, 10670.470
465.272, 10805.880
465.754, 10956.760
466.236, 11106.540
466.718, 11246.540
467.200, 11408.680
467.682, 11618.510
468.165, 11840.340
468.647, 12037.020
469.129, 12206.240
469.611, 12351.730
470.093, 12477.610
470.575, 12581.780
471.057, 12649.290
471.539, 12676.740
472.022, 12672.990
472.504, 12639.830
472.986, 12575.950
473.468, 12498.700
473.950, 12407.240
474.432, 12309.310
474.914, 12214.630
475.396, 12123.880
475.878, 12042.240
476.361, 11975.320
476.843, 11918.380
477.325, 11860.850
477.807, 11803.070
478.289, 11752.850
478.771, 11721.080
479.253, 11699.730
479.735, 11676.450
480.217, 11644.940
480.700, 11617.170
481.182, 11607.020
481.664, 11606.800
482.146, 11599.550
482.628, 11560.720
483.110, 11527.130
483.592, 11521.940
484.074, 11551.620
484.556, 11569.490
485.039, 11547.230
485.521, 11518.700
486.003, 11512.780
486.485, 11540.100
486.967, 11576.890
487.449, 11634.370
487.931, 11700.020
488.414, 11724.720
488.896, 11687.010
489.378, 11652.710
489.860, 11649.200
490.342, 11677.990
490.824, 11726.720
491.306, 11803.700
491.788, 11879.670
492.270, 11913.730
492.753, 11909.690
493.235, 11916.750
493.717, 11944.160
494.199, 11992.630
494.681, 12076.080
495.163, 12188.020
495.645, 12292.040
496.127, 12345.590
496.609, 12384.260
497.092, 12458.270
497.574, 12576.850
498.056, 12698.790
498.538, 12793.200
499.020, 12874.480
499.502, 12959.570
499.984, 13074.010
500.466, 13175.780
500.948, 13242.090
501.431, 13279.470
501.913, 13318.070
502.395, 13380.680
502.877, 13432.140
503.359, 13452.320
503.841, 13424.300
504.323, 13409.690
504.805, 13425.360
505.288, 13441.580
505.770, 13421.420
506.252, 13359.540
506.734, 13273.940
507.216, 13164.540
507.698, 13034.880
508.180, 12900.580
508.662, 12762.040
509.145, 12616.550
509.627, 12458.910
510.109, 12292.160
510.591, 12128.140
511.073, 11967.270
511.555, 11812.710
512.037, 11672.860
512.519, 11541.820
513.001, 11407.330
513.484, 11247.820
513.966, 11095.610
514.448, 10987.180
514.930, 10914.140
515.412, 10835.810
515.894, 10716.690
516.376, 10595.120
516.858, 10498.380
517.341, 10434.270
517.823, 10379.960
518.305, 10330.510
518.787, 10288.190
519.269, 10256.660
519.751, 10256.770
520.233, 10239.340
520.715, 10189.250
521.197, 10113.530
521.680, 10056.150
522.162, 10019.000
522.644, 9996.413
523.126, 9992.981
523.608, 10011.450
524.090, 10002.720
524.572, 9957.839
525.054, 9909.527
525.536, 9905.821
526.019, 9938.409
526.501, 9957.155
526.983, 9940.686
527.465, 9908.513
527.947, 9889.198
528.429, 9880.559
528.911, 9870.413
529.393, 9846.750
529.875, 9821.017
530.358, 9803.859
530.840, 9797.260
531.322, 9794.801
531.804, 9794.285
532.286, 9796.167
532.768, 9800.939
533.250, 9820.900
533.732, 9830.268
534.214, 9813.334
534.697, 9780.392
535.179, 9770.375
535.661, 9800.669
536.143, 9831.098
536.625, 9846.901
537.107, 9847.350
537.589, 9841.534
538.071, 9827.144
538.554, 9811.846
539.036, 9802.623
539.518, 9799.423
540.000, 9803.135
540.482, 9816.193
540.964, 9831.816
541.446, 9835.806
541.928, 9830.632
542.411, 9829.767
542.893, 9837.790
543.375, 9855.145
543.857, 9889.842
544.339, 9940.677
544.821, 9979.934
545.303, 9985.324
545.785, 9974.403
546.268, 9962.696
546.750, 9950.806
547.232, 9943.446
547.714, 9946.330
548.196, 9954.044
548.678, 9956.721
549.160, 9948.049
549.642, 9940.766
550.124, 9935.413
550.606, 9932.450
551.089, 9942.614
551.571, 9973.754
552.053, 10002.380
552.535, 10009.850
553.017, 9994.899
553.499, 9989.286
553.981, 9996.862
554.463, 10007.090
554.945, 10005.640
555.428, 9994.082
555.910, 9979.605
556.392, 9958.767
556.874, 9942.453
557.356, 9945.833
557.838, 9966.729
558.320, 9995.521
558.802, 10047.260
559.284, 10090.900
559.767, 10094.220
560.249, 10045.670
560.731, 10013.000
561.213, 10029.260
561.695, 10066.190
562.177, 10098.040
562.659, 10113.210
563.141, 10134.260
563.624, 10170.180
564.106, 10210.640
564.588, 10228.420
565.070, 10213.680
565.552, 10199.690
566.034, 10199.940
566.516, 10212.410
566.998, 10210.920
567.481, 10192.210
567.963, 10181.150
568.445, 10207.520
568.927, 10259.390
569.409, 10298.970
569.891, 10321.460
570.373, 10327.350
570.855, 10296.880
571.338, 10251.350
571.820, 10233.580
572.302, 10294.550
572.784, 10356.900
573.266, 10371.540
573.748, 10347.140
574.230, 10328.290
574.712, 10332.320
575.194, 10342.100
575.677, 10350.360
576.159, 10357.030
576.641, 10360.930
577.123, 10356.470
577.605, 10355.040
578.087, 10370.470
578.569, 10411.070
579.051, 10435.610
579.533, 10432.810
580.016, 10419.270
580.498, 10435.620
580.980, 10480.450
581.462, 10515.030
581.944, 10513.330
582.426, 10492.840
582.908, 10487.460
583.390, 10496.400
583.872, 10510.800
584.355, 10527.650
584.837, 10544.860
585.319, 10560.240
585.801, 10572.550
586.283, 10585.080
586.765, 10599.520
587.247, 10614.720
587.729, 10629.520
588.211, 10641.640
588.694, 10656.160
589.176, 10680.640
589.658, 10708.400
590.140, 10713.000
590.622, 10681.400
591.104, 10654.750
591.586, 10653.080
592.068, 10674.720
592.551, 10683.950
593.033, 10678.990
593.515, 10672.860
593.997, 10678.540
594.479, 10692.820
594.961, 10705.650
595.443, 10716.000
595.925, 10723.210
596.407, 10723.440
596.890, 10720.480
597.372, 10721.320
597.854, 10730.660
598.336, 10742.660
598.818, 10755.680
599.300, 10769.290
599.782, 10781.890
600.265, 10789.230
600.747, 10799.150
601.229, 10815.470
601.711, 10839.580
602.193, 10862.690
602.675, 10890.360
603.157, 10908.570
603.639, 10896.830
604.121, 10849.560
604.604, 10834.520
605.086, 10865.550
605.568, 10915.790
606.050, 10946.490
606.532, 10959.830
607.014, 10967.260
607.496, 10964.170
607.978, 10965.250
608.460, 10997.700
608.943, 11053.210
609.425, 11095.310
609.907, 11100.920
610.389, 11089.940
610.871, 11070.710
611.353, 11041.800
611.835, 11022.340
612.317, 11020.170
612.799, 11026.190
613.282, 11033.810
613.764, 11042.800
614.246, 11054.560
614.728, 11070.290
615.210, 11088.040
615.692, 11105.330
616.174, 11122.700
616.656, 11137.080
617.138, 11149.910
617.621, 11157.400
618.103, 11139.820
618.585, 11102.450
619.067, 11083.390
619.549, 11126.610
620.031, 11188.840
620.513, 11219.260
620.995, 11213.840
621.477, 11208.990
621.960, 11215.910
622.442, 11235.890
622.924, 11272.850
623.406, 11353.620
623.888, 11404.210
624.370, 11390.610
624.852, 11355.390
625.334, 11354.770
625.817, 11407.440
626.299, 11449.690
626.781, 11470.060
627.263, 11473.010
627.745, 11470.010
628.227, 11461.040
628.709, 11449.540
629.191, 11432.850
629.674, 11415.900
630.156, 11411.470
630.638, 11419.090
631.120, 11431.760
631.602, 11450.440
632.084, 11468.640
632.566, 11478.730
633.048, 11476.890
633.531, 11476.670
634.013, 11481.160
634.495, 11490.790
634.977, 11506.260
635.459, 11538.240
635.941, 11560.860
636.423, 11568.400
636.905, 11567.030
637.387, 11574.240
637.870, 11562.384
638.352, 11607.513
638.834, 11638.808
639.316, 11657.018
639.798, 11622.930
640.280, 11656.369
640.762, 11662.747
641.244, 11668.016
641.726, 11710.958
642.209, 11684.480
642.691, 11726.825
643.173, 11741.697
643.655, 11769.143
